06/01/2022	17:13:58	Ver.	4.1	UNKNOWN
Optical Delay	599.981738	Delta X		0.078125	Sweeps	1	Scan Rate	0/0
Coordinates	Axis 1	NaN	Axis 2	NaN	Axis 3	NaN	Axis 4	NaN	Axis 5	NaN	Axis 6	0.000000
TX Power	0.000000	RX Power	0.000000

599.982	0.0166540
600.060	0.0167754
600.138	0.0166483
600.216	0.0166649
600.294	0.0167581
600.372	0.0166749
600.450	0.0166395
600.529	0.0166119
600.607	0.0167637
600.685	0.0166646
600.763	0.0166507
600.841	0.0167268
600.919	0.0166006
600.997	0.0165521
601.075	0.0166029
601.154	0.0166300
601.232	0.0166634
601.310	0.0165932
601.388	0.0166795
601.466	0.0167010
601.544	0.0166379
601.622	0.0166113
601.700	0.0166959
601.779	0.0166775
601.857	0.0166108
601.935	0.0166009
602.013	0.0167230
602.091	0.0166901
602.169	0.0167226
602.247	0.0166755
602.325	0.0165897
602.404	0.0166789
602.482	0.0165844
602.560	0.0166819
602.638	0.0166351
602.716	0.0167406
602.794	0.0166709
602.872	0.0166480
602.950	0.0167059
603.029	0.0167427
603.107	0.0166121
603.185	0.0165440
603.263	0.0167431
603.341	0.0167127
603.419	0.0166797
603.497	0.0165921
603.575	0.0166943
603.654	0.0166562
603.732	0.0166624
603.810	0.0165696
603.888	0.0166994
603.966	0.0167663
604.044	0.0166901
604.122	0.0166698
604.200	0.0167268
604.279	0.0166922
604.357	0.0166768
604.435	0.0166644
604.513	0.0165741
604.591	0.0166682
604.669	0.0166726
604.747	0.0166384
604.825	0.0165656
604.904	0.0166685
604.982	0.0167950
605.060	0.0166615
605.138	0.0167068
605.216	0.0165888
605.294	0.0166518
605.372	0.0167366
605.450	0.0166551
605.529	0.0166281
605.607	0.0166650
605.685	0.0166772
605.763	0.0167430
605.841	0.0166187
605.919	0.0166254
605.997	0.0165697
606.075	0.0167854
606.154	0.0166899
606.232	0.0167233
606.310	0.0165401
606.388	0.0166920
606.466	0.0166289
606.544	0.0165725
606.622	0.0168430
606.700	0.0167876
606.779	0.0166785
606.857	0.0166538
606.935	0.0166678
607.013	0.0166667
607.091	0.0167316
607.169	0.0166072
607.247	0.0166531
607.325	0.0167363
607.404	0.0167520
607.482	0.0166930
607.560	0.0165350
607.638	0.0168592
607.716	0.0166402
607.794	0.0167333
607.872	0.0166331
607.950	0.0166299
608.029	0.0166480
608.107	0.0167042
608.185	0.0166164
608.263	0.0166266
608.341	0.0166376
608.419	0.0165694
608.497	0.0166016
608.575	0.0167101
608.654	0.0165889
608.732	0.0166821
608.810	0.0164989
608.888	0.0166990
608.966	0.0166251
609.044	0.0167220
609.122	0.0165665
609.200	0.0166411
609.279	0.0165371
609.357	0.0164751
609.435	0.0167036
609.513	0.0167050
609.591	0.0167207
609.669	0.0165734
609.747	0.0166483
609.825	0.0165758
609.904	0.0166437
609.982	0.0167137
610.060	0.0167602
610.138	0.0166168
610.216	0.0166401
610.294	0.0165263
610.372	0.0167234
610.450	0.0166860
610.529	0.0166378
610.607	0.0166441
610.685	0.0165415
610.763	0.0166930
610.841	0.0166719
610.919	0.0167538
610.997	0.0166412
611.075	0.0165079
611.154	0.0167072
611.232	0.0167288
611.310	0.0166025
611.388	0.0166277
611.466	0.0168047
611.544	0.0166637
611.622	0.0165374
611.700	0.0166718
611.779	0.0166976
611.857	0.0167482
611.935	0.0167142
612.013	0.0166099
612.091	0.0167040
612.169	0.0164766
612.247	0.0166127
612.325	0.0166518
612.404	0.0166012
612.482	0.0166560
612.560	0.0166166
612.638	0.0167683
612.716	0.0166100
612.794	0.0166074
612.872	0.0166405
612.950	0.0167436
613.029	0.0165759
613.107	0.0167236
613.185	0.0167013
613.263	0.0165919
613.341	0.0166173
613.419	0.0166290
613.497	0.0166309
613.575	0.0167258
613.654	0.0166568
613.732	0.0165945
613.810	0.0166643
613.888	0.0168298
613.966	0.0167018
614.044	0.0166662
614.122	0.0167007
614.200	0.0165520
614.279	0.0166647
614.357	0.0166599
614.435	0.0167334
614.513	0.0166912
614.591	0.0166221
614.669	0.0166082
614.747	0.0166086
614.825	0.0165926
614.904	0.0167567
614.982	0.0166056
615.060	0.0166132
615.138	0.0164830
615.216	0.0166782
615.294	0.0166964
615.372	0.0165490
615.450	0.0167927
615.529	0.0166361
615.607	0.0166378
615.685	0.0165539
615.763	0.0166604
615.841	0.0166500
615.919	0.0166643
615.997	0.0166828
616.075	0.0166611
616.154	0.0165900
616.232	0.0166810
616.310	0.0167654
616.388	0.0166324
616.466	0.0166151
616.544	0.0165882
616.622	0.0166714
616.700	0.0166881
616.779	0.0166086
616.857	0.0164819
616.935	0.0166210
617.013	0.0166975
617.091	0.0167332
617.169	0.0167435
617.247	0.0165965
617.325	0.0166523
617.404	0.0167307
617.482	0.0166175
617.560	0.0166803
617.638	0.0167695
617.716	0.0166307
617.794	0.0165961
617.872	0.0167405
617.950	0.0168040
618.029	0.0166130
618.107	0.0167204
618.185	0.0166335
618.263	0.0167508
618.341	0.0167524
618.419	0.0166383
618.497	0.0166272
618.575	0.0167241
618.654	0.0165827
618.732	0.0166286
618.810	0.0166222
618.888	0.0164901
618.966	0.0166206
619.044	0.0166632
619.122	0.0166763
619.200	0.0165786
619.279	0.0166241
619.357	0.0167527
619.435	0.0167164
619.513	0.0166450
619.591	0.0166473
619.669	0.0167222
619.747	0.0166360
619.825	0.0167108
619.904	0.0166808
619.982	0.0166751
620.060	0.0165417
620.138	0.0167344
620.216	0.0167172
620.294	0.0165963
620.372	0.0165986
620.450	0.0167455
620.529	0.0167437
620.607	0.0166329
620.685	0.0166310
620.763	0.0165891
620.841	0.0167700
620.919	0.0166864
620.997	0.0167071
621.075	0.0166328
621.154	0.0166107
621.232	0.0166574
621.310	0.0166742
621.388	0.0165504
621.466	0.0165603
621.544	0.0166282
621.622	0.0166579
621.700	0.0167943
621.779	0.0167484
621.857	0.0165324
621.935	0.0166145
622.013	0.0164893
622.091	0.0166247
622.169	0.0166042
622.247	0.0165884
622.325	0.0166631
622.404	0.0167284
622.482	0.0167216
622.560	0.0166953
622.638	0.0165599
622.716	0.0166307
622.794	0.0166579
622.872	0.0166367
622.950	0.0165983
623.029	0.0166364
623.107	0.0167101
623.185	0.0166908
623.263	0.0165566
623.341	0.0166818
623.419	0.0166509
623.497	0.0166265
623.575	0.0166059
623.654	0.0166780
623.732	0.0167492
623.810	0.0166268
623.888	0.0166259
623.966	0.0165820
624.044	0.0166729
624.122	0.0164545
624.200	0.0167448
624.279	0.0167893
624.357	0.0166999
624.435	0.0166125
624.513	0.0166089
624.591	0.0166085
624.669	0.0166697
624.747	0.0168026
624.825	0.0166284
624.904	0.0167173
624.982	0.0166432
625.060	0.0167132
625.138	0.0166222
625.216	0.0165837
625.294	0.0167567
625.372	0.0167003
625.450	0.0166376
625.529	0.0166975
625.607	0.0166666
625.685	0.0167310
625.763	0.0167041
625.841	0.0167017
625.919	0.0165884
625.997	0.0166751
626.075	0.0167633
626.154	0.0166279
626.232	0.0167877
626.310	0.0168009
626.388	0.0166566
626.466	0.0166536
626.544	0.0166567
626.622	0.0166571
626.700	0.0167989
626.779	0.0165949
626.857	0.0166368
626.935	0.0167696
627.013	0.0168346
627.091	0.0166183
627.169	0.0166442
627.247	0.0167616
627.325	0.0166002
627.404	0.0166237
627.482	0.0167439
627.560	0.0165402
627.638	0.0167370
627.716	0.0167014
627.794	0.0166726
627.872	0.0166439
627.950	0.0166982
628.029	0.0167152
628.107	0.0166764
628.185	0.0167058
628.263	0.0167455
628.341	0.0166749
628.419	0.0164732
628.497	0.0167456
628.575	0.0167654
628.654	0.0165965
628.732	0.0166988
628.810	0.0166319
628.888	0.0167581
628.966	0.0166577
629.044	0.0166935
629.122	0.0166605
629.200	0.0166092
629.279	0.0167852
629.357	0.0167712
629.435	0.0166959
629.513	0.0165811
629.591	0.0166233
629.669	0.0167171
629.747	0.0167918
629.825	0.0167609
629.904	0.0165652
629.982	0.0167179
630.060	0.0166260
630.138	0.0167731
630.216	0.0167529
630.294	0.0166328
630.372	0.0166569
630.450	0.0167194
630.529	0.0166608
630.607	0.0167139
630.685	0.0166798
630.763	0.0165913
630.841	0.0165714
630.919	0.0166394
630.997	0.0166156
631.075	0.0165057
631.154	0.0167194
631.232	0.0166761
631.310	0.0164530
631.388	0.0166711
631.466	0.0166612
631.544	0.0167826
631.622	0.0166541
631.700	0.0167226
631.779	0.0167593
631.857	0.0166171
631.935	0.0166218
632.013	0.0166302
632.091	0.0166616
632.169	0.0166384
632.247	0.0166599
632.325	0.0166515
632.404	0.0166080
632.482	0.0166754
632.560	0.0166455
632.638	0.0167591
632.716	0.0166540
632.794	0.0167814
632.872	0.0166328
632.950	0.0166698
633.029	0.0168420
633.107	0.0167455
633.185	0.0167193
633.263	0.0166615
633.341	0.0165404
633.419	0.0166669
633.497	0.0165517
633.575	0.0166419
633.654	0.0166525
633.732	0.0166922
633.810	0.0166039
633.888	0.0165679
633.966	0.0165874
634.044	0.0167424
634.122	0.0166111
634.200	0.0166786
634.279	0.0166982
634.357	0.0166683
634.435	0.0167233
634.513	0.0166162
634.591	0.0167230
634.669	0.0166147
634.747	0.0168043
634.825	0.0165688
634.904	0.0166790
634.982	0.0166662
635.060	0.0167311
635.138	0.0165526
635.216	0.0166467
635.294	0.0166718
635.372	0.0166643
635.450	0.0166291
635.529	0.0166428
635.607	0.0163860
635.685	0.0167056
635.763	0.0167860
635.841	0.0168526
635.919	0.0166017
635.997	0.0165577
636.075	0.0166793
636.154	0.0167609
636.232	0.0166898
636.310	0.0165509
636.388	0.0164604
636.466	0.0167913
636.544	0.0167655
636.622	0.0166370
636.700	0.0167318
636.779	0.0166367
636.857	0.0164867
636.935	0.0166184
637.013	0.0166352
637.091	0.0167171
637.169	0.0166448
637.247	0.0167410
637.325	0.0165897
637.404	0.0166389
637.482	0.0166527
637.560	0.0166800
637.638	0.0167062
637.716	0.0165531
637.794	0.0166215
637.872	0.0166512
637.950	0.0166258
638.029	0.0166105
638.107	0.0166310
638.185	0.0167123
638.263	0.0165620
638.341	0.0167066
638.419	0.0166786
638.497	0.0165852
638.575	0.0167789
638.654	0.0166416
638.732	0.0165141
638.810	0.0166019
638.888	0.0167297
638.966	0.0166582
639.044	0.0165642
639.122	0.0165816
639.200	0.0167239
639.279	0.0167184
639.357	0.0166130
639.435	0.0166520
639.513	0.0165925
639.591	0.0164808
639.669	0.0166512
639.747	0.0166566
639.825	0.0166161
639.904	0.0166780
639.982	0.0166042
640.060	0.0166756
640.138	0.0166073
640.216	0.0165395
640.294	0.0165804
640.372	0.0166330
640.450	0.0166055
640.529	0.0165423
640.607	0.0164994
640.685	0.0166133
640.763	0.0165515
640.841	0.0166861
640.919	0.0167216
640.997	0.0167214
641.075	0.0166574
641.154	0.0166138
641.232	0.0165206
641.310	0.0167155
641.388	0.0167122
641.466	0.0165644
641.544	0.0166891
641.622	0.0166217
641.700	0.0165487
641.779	0.0165938
641.857	0.0165546
641.935	0.0165810
642.013	0.0166529
642.091	0.0165823
642.169	0.0165593
642.247	0.0165844
642.325	0.0165577
642.404	0.0167374
642.482	0.0166637
642.560	0.0165810
642.638	0.0165837
642.716	0.0165914
642.794	0.0167024
642.872	0.0165666
642.950	0.0165681
643.029	0.0165987
643.107	0.0166280
643.185	0.0166591
643.263	0.0166933
643.341	0.0166499
643.419	0.0166685
643.497	0.0165816
643.575	0.0166767
643.654	0.0166414
643.732	0.0167178
643.810	0.0167692
643.888	0.0165975
643.966	0.0166954
644.044	0.0166150
644.122	0.0166272
644.200	0.0167336
644.279	0.0166476
644.357	0.0165335
644.435	0.0166975
644.513	0.0167749
644.591	0.0167355
644.669	0.0166122
644.747	0.0166846
644.825	0.0166453
644.904	0.0165902
644.982	0.0165494
645.060	0.0166680
645.138	0.0165369
645.216	0.0166164
645.294	0.0166884
645.372	0.0166579
645.450	0.0166840
645.529	0.0166752
645.607	0.0167786
645.685	0.0167441
645.763	0.0166679
645.841	0.0166576
645.919	0.0167302
645.997	0.0166698
646.075	0.0166941
646.154	0.0166736
646.232	0.0166313
646.310	0.0165632
646.388	0.0165208
646.466	0.0166261
646.544	0.0166482
646.622	0.0166809
646.700	0.0165943
646.779	0.0167654
646.857	0.0166931
646.935	0.0165315
647.013	0.0167025
647.091	0.0166044
647.169	0.0165908
647.247	0.0166460
647.325	0.0166028
647.404	0.0165221
647.482	0.0165618
647.560	0.0166648
647.638	0.0167078
647.716	0.0166078
647.794	0.0166375
647.872	0.0166369
647.950	0.0165942
648.029	0.0166197
648.107	0.0167012
648.185	0.0166908
648.263	0.0166550
648.341	0.0166827
648.419	0.0167024
648.497	0.0165953
648.575	0.0165456
648.654	0.0166120
648.732	0.0165648
648.810	0.0166127
648.888	0.0167209
648.966	0.0165083
649.044	0.0167199
649.122	0.0166472
649.200	0.0165395
649.279	0.0166344
649.357	0.0167184
649.435	0.0166468
649.513	0.0166298
649.591	0.0168475
649.669	0.0166142
649.747	0.0166198
649.825	0.0166683
649.904	0.0167290
649.982	0.0166354
650.060	0.0167760
650.138	0.0167311
650.216	0.0165970
650.294	0.0165368
650.372	0.0166685
650.450	0.0165962
650.529	0.0165549
650.607	0.0167218
650.685	0.0167000
650.763	0.0164642
650.841	0.0165826
650.919	0.0166544
650.997	0.0164814
651.075	0.0166572
651.154	0.0166788
651.232	0.0166843
651.310	0.0166405
651.388	0.0165444
651.466	0.0166714
651.544	0.0167273
651.622	0.0165618
651.700	0.0165483
651.779	0.0167660
651.857	0.0167388
651.935	0.0165405
652.013	0.0166820
652.091	0.0165694
652.169	0.0166999
652.247	0.0166952
652.325	0.0166204
652.404	0.0165980
652.482	0.0165839
652.560	0.0167156
652.638	0.0166740
652.716	0.0165240
652.794	0.0166606
652.872	0.0166219
652.950	0.0165105
653.029	0.0166599
653.107	0.0166446
653.185	0.0167118
653.263	0.0166516
653.341	0.0165114
653.419	0.0166676
653.497	0.0166560
653.575	0.0165697
653.654	0.0165626
653.732	0.0167317
653.810	0.0165649
653.888	0.0166591
653.966	0.0166470
654.044	0.0166437
654.122	0.0166399
654.200	0.0166346
654.279	0.0166499
654.357	0.0167414
654.435	0.0167767
654.513	0.0166949
654.591	0.0164721
654.669	0.0166634
654.747	0.0166096
654.825	0.0165197
654.904	0.0166134
654.982	0.0166499
655.060	0.0167288
655.138	0.0165922
655.216	0.0166959
655.294	0.0165943
655.372	0.0166683
655.450	0.0167265
655.529	0.0167130
655.607	0.0165800
655.685	0.0165826
655.763	0.0166567
655.841	0.0166264
655.919	0.0165600
655.997	0.0166702
656.075	0.0165441
656.154	0.0166449
656.232	0.0165985
656.310	0.0166285
656.388	0.0167375
656.466	0.0167008
656.544	0.0166758
656.622	0.0165951
656.700	0.0166258
656.779	0.0165885
656.857	0.0164971
656.935	0.0165779
657.013	0.0166980
657.091	0.0164795
657.169	0.0166796
657.247	0.0164688
657.325	0.0165583
657.404	0.0166187
657.482	0.0166964
657.560	0.0166691
657.638	0.0165913
657.716	0.0166479
657.794	0.0166816
657.872	0.0166644
657.950	0.0166185
658.029	0.0166493
658.107	0.0166535
658.185	0.0166648
658.263	0.0167479
658.341	0.0166009
658.419	0.0166454
658.497	0.0166236
658.575	0.0167102
658.654	0.0167583
658.732	0.0166375
658.810	0.0166412
658.888	0.0166044
658.966	0.0165186
659.044	0.0165862
659.122	0.0167168
659.200	0.0166337
659.279	0.0165987
659.357	0.0166523
659.435	0.0166749
659.513	0.0166962
659.591	0.0167136
659.669	0.0167242
659.747	0.0166982
659.825	0.0166740
659.904	0.0167105
659.982	0.0167393
660.060	0.0166931
660.138	0.0167300
660.216	0.0166647
660.294	0.0165920
660.372	0.0166022
660.450	0.0166122
660.529	0.0167043
660.607	0.0167197
660.685	0.0166634
660.763	0.0166200
660.841	0.0166557
660.919	0.0166925
660.997	0.0165612
661.075	0.0167169
661.154	0.0167451
661.232	0.0166096
661.310	0.0167257
661.388	0.0166285
661.466	0.0165100
661.544	0.0166653
661.622	0.0165984
661.700	0.0166512
661.779	0.0166643
661.857	0.0167733
661.935	0.0166628
662.013	0.0166451
662.091	0.0166834
662.169	0.0166602
662.247	0.0166376
662.325	0.0165469
662.404	0.0167250
662.482	0.0165738
662.560	0.0166029
662.638	0.0166376
662.716	0.0167633
662.794	0.0166492
662.872	0.0165894
662.950	0.0166562
663.029	0.0166769
663.107	0.0167293
663.185	0.0165231
663.263	0.0165803
663.341	0.0165904
663.419	0.0166363
663.497	0.0167548
663.575	0.0166872
663.654	0.0167263
663.732	0.0165340
663.810	0.0167032
663.888	0.0167272
663.966	0.0165390
664.044	0.0165659
664.122	0.0165510
664.200	0.0167080
664.279	0.0166408
664.357	0.0165959
664.435	0.0166272
664.513	0.0166902
664.591	0.0167661
664.669	0.0166576
664.747	0.0166581
664.825	0.0166222
664.904	0.0165819
664.982	0.0165307
665.060	0.0167331
665.138	0.0166143
665.216	0.0166408
665.294	0.0165295
665.372	0.0166038
665.450	0.0166071
665.529	0.0166939
665.607	0.0166825
665.685	0.0165666
665.763	0.0166094
665.841	0.0166924
665.919	0.0167229
665.997	0.0167500
666.075	0.0166011
666.154	0.0166472
666.232	0.0166124
666.310	0.0165614
666.388	0.0166032
666.466	0.0164991
666.544	0.0167009
666.622	0.0165698
666.700	0.0165258
666.779	0.0167117
666.857	0.0167323
666.935	0.0165564
667.013	0.0165019
667.091	0.0165757
667.169	0.0166965
667.247	0.0166657
667.325	0.0166031
667.404	0.0165129
667.482	0.0166122
667.560	0.0166194
667.638	0.0166054
667.716	0.0166467
667.794	0.0166044
667.872	0.0165356
667.950	0.0165864
668.029	0.0166662
668.107	0.0166206
668.185	0.0166677
668.263	0.0165596
668.341	0.0166261
668.419	0.0166112
668.497	0.0166319
668.575	0.0165770
668.654	0.0165073
668.732	0.0166486
668.810	0.0166330
668.888	0.0166994
668.966	0.0166082
669.044	0.0165544
669.122	0.0166780
669.200	0.0166469
669.279	0.0165924
669.357	0.0166211
669.435	0.0166521
669.513	0.0166417
669.591	0.0166036
669.669	0.0167020
669.747	0.0166480
669.825	0.0166431
669.904	0.0166205
669.982	0.0166762
670.060	0.0165993
670.138	0.0166283
670.216	0.0166438
670.294	0.0166097
670.372	0.0167473
670.450	0.0166952
670.529	0.0166782
670.607	0.0167078
670.685	0.0166169
670.763	0.0166702
670.841	0.0167749
670.919	0.0165942
670.997	0.0164880
671.075	0.0165762
671.154	0.0167092
671.232	0.0166798
671.310	0.0166799
671.388	0.0165818
671.466	0.0167568
671.544	0.0165923
671.622	0.0167510
671.700	0.0164338
671.779	0.0165363
671.857	0.0168283
671.935	0.0166657
672.013	0.0165312
672.091	0.0166061
672.169	0.0167323
672.247	0.0167775
672.325	0.0165063
672.404	0.0167712
672.482	0.0167687
672.560	0.0166777
672.638	0.0166922
672.716	0.0167025
672.794	0.0166167
672.872	0.0165808
672.950	0.0167444
673.029	0.0166663
673.107	0.0166824
673.185	0.0166685
673.263	0.0165731
673.341	0.0166848
673.419	0.0166991
673.497	0.0166191
673.575	0.0168059
673.654	0.0167188
673.732	0.0166489
673.810	0.0166393
673.888	0.0165974
673.966	0.0165898
674.044	0.0166313
674.122	0.0167159
674.200	0.0167310
674.279	0.0167368
674.357	0.0166681
674.435	0.0165833
674.513	0.0167393
674.591	0.0164439
674.669	0.0165529
674.747	0.0166268
674.825	0.0165818
674.904	0.0167238
674.982	0.0166203
675.060	0.0166185
675.138	0.0167083
675.216	0.0164283
675.294	0.0165855
675.372	0.0166712
675.450	0.0165479
675.529	0.0164558
675.607	0.0165840
675.685	0.0165948
675.763	0.0165668
675.841	0.0166815
675.919	0.0166525
675.997	0.0166393
676.075	0.0165598
676.154	0.0164809
676.232	0.0165569
676.310	0.0166480
676.388	0.0166125
676.466	0.0164491
676.544	0.0167734
676.622	0.0165855
676.700	0.0163672
676.779	0.0166299
676.857	0.0166119
676.935	0.0166306
677.013	0.0166931
677.091	0.0166066
677.169	0.0165313
677.247	0.0166010
677.325	0.0165207
677.404	0.0165285
677.482	0.0167426
677.560	0.0165922
677.638	0.0166154
677.716	0.0166203
677.794	0.0164745
677.872	0.0166255
677.950	0.0166977
678.029	0.0164397
678.107	0.0166777
678.185	0.0165918
678.263	0.0165586
678.341	0.0164469
678.419	0.0167339
678.497	0.0166489
678.575	0.0166045
678.654	0.0165565
678.732	0.0167009
678.810	0.0166261
678.888	0.0167689
678.966	0.0167170
679.044	0.0166167
679.122	0.0165643
679.200	0.0165813
679.279	0.0166795
679.357	0.0167062
679.435	0.0167323
679.513	0.0166039
679.591	0.0166634
679.669	0.0167840
679.747	0.0167393
679.825	0.0165807
679.904	0.0165991
679.982	0.0166503
680.060	0.0166644
680.138	0.0167130
680.216	0.0167467
680.294	0.0166715
680.372	0.0165535
680.450	0.0166637
680.529	0.0167192
680.607	0.0166529
680.685	0.0166828
680.763	0.0167030
680.841	0.0166909
680.919	0.0167716
680.997	0.0166275
681.075	0.0169022
681.154	0.0167412
681.232	0.0166154
681.310	0.0166936
681.388	0.0166967
681.466	0.0168774
681.544	0.0166752
681.622	0.0167413
681.700	0.0166869
681.779	0.0166985
681.857	0.0167258
681.935	0.0168485
682.013	0.0167202
682.091	0.0165370
682.169	0.0168465
682.247	0.0167822
682.325	0.0167465
682.404	0.0166579
682.482	0.0166885
682.560	0.0167268
682.638	0.0166642
682.716	0.0166679
682.794	0.0166856
682.872	0.0167072
682.950	0.0167355
683.029	0.0166151
683.107	0.0166702
683.185	0.0168037
683.263	0.0165731
683.341	0.0166203
683.419	0.0168198
683.497	0.0167382
683.575	0.0166696
683.654	0.0166759
683.732	0.0166109
683.810	0.0165992
683.888	0.0167259
683.966	0.0167258
684.044	0.0166987
684.122	0.0167535
684.200	0.0166917
684.279	0.0166422
684.357	0.0166063
684.435	0.0166132
684.513	0.0166454
684.591	0.0167372
684.669	0.0164883
684.747	0.0166849
684.825	0.0166803
684.904	0.0166315
684.982	0.0166426
685.060	0.0167124
685.138	0.0167292
685.216	0.0166795
685.294	0.0166685
685.372	0.0165954
685.450	0.0167052
685.529	0.0166125
685.607	0.0166553
685.685	0.0164060
685.763	0.0165081
685.841	0.0167023
685.919	0.0166563
685.997	0.0166239
686.075	0.0166254
686.154	0.0165062
686.232	0.0166080
686.310	0.0166468
686.388	0.0165835
686.466	0.0165744
686.544	0.0164808
686.622	0.0165214
686.700	0.0164362
686.779	0.0165671
686.857	0.0167268
686.935	0.0166170
687.013	0.0165376
687.091	0.0165447
687.169	0.0166751
687.247	0.0165236
687.325	0.0164262
687.404	0.0167020
687.482	0.0166987
687.560	0.0165575
687.638	0.0164993
687.716	0.0166247
687.794	0.0165886
687.872	0.0164394
687.950	0.0164628
688.029	0.0165200
688.107	0.0166917
688.185	0.0166437
688.263	0.0165635
688.341	0.0165480
688.419	0.0166183
688.497	0.0166351
688.575	0.0166761
688.654	0.0164939
688.732	0.0167245
688.810	0.0168515
688.888	0.0165819
688.966	0.0165380
689.044	0.0166560
689.122	0.0166621
689.200	0.0166257
689.279	0.0166163
689.357	0.0167607
689.435	0.0167490
689.513	0.0165886
689.591	0.0166775
689.669	0.0166845
689.747	0.0167257
689.825	0.0167078
689.904	0.0165751
689.982	0.0166038
690.060	0.0165851
690.138	0.0166938
690.216	0.0166991
690.294	0.0166833
690.372	0.0167225
690.450	0.0167200
690.529	0.0168327
690.607	0.0167451
690.685	0.0168522
690.763	0.0167570
690.841	0.0166679
690.919	0.0167130
690.997	0.0166528
691.075	0.0166710
691.154	0.0166630
691.232	0.0166821
691.310	0.0166434
691.388	0.0166907
691.466	0.0166801
691.544	0.0164891
691.622	0.0166093
691.700	0.0166811
691.779	0.0166075
691.857	0.0165836
691.935	0.0167316
692.013	0.0167474
692.091	0.0168587
692.169	0.0168411
692.247	0.0169042
692.325	0.0168476
692.404	0.0170085
692.482	0.0168430
692.560	0.0168014
692.638	0.0168000
692.716	0.0167113
692.794	0.0165949
692.872	0.0165659
692.950	0.0163803
693.029	0.0163879
693.107	0.0163880
693.185	0.0164376
693.263	0.0163644
693.341	0.0165975
693.419	0.0166125
693.497	0.0167342
693.575	0.0168716
693.654	0.0168662
693.732	0.0171423
693.810	0.0171780
693.888	0.0172355
693.966	0.0171319
694.044	0.0171661
694.122	0.0170104
694.200	0.0169602
694.279	0.0170058
694.357	0.0167407
694.435	0.0167111
694.513	0.0165048
694.591	0.0163789
694.669	0.0163509
694.747	0.0162930
694.825	0.0162289
694.904	0.0161604
694.982	0.0161937
695.060	0.0162488
695.138	0.0164075
695.216	0.0163632
695.294	0.0163178
695.372	0.0166614
695.450	0.0165892
695.529	0.0168165
695.607	0.0168906
695.685	0.0169532
695.763	0.0169923
695.841	0.0170217
695.919	0.0170347
695.997	0.0169643
696.075	0.0169759
696.154	0.0170545
696.232	0.0169434
696.310	0.0169824
696.388	0.0169794
696.466	0.0168092
696.544	0.0167863
696.622	0.0168906
696.700	0.0169176
696.779	0.0168445
696.857	0.0168291
696.935	0.0167787
697.013	0.0166817
697.091	0.0167735
697.169	0.0166566
697.247	0.0165556
697.325	0.0165267
697.404	0.0164407
697.482	0.0162721
697.560	0.0163046
697.638	0.0161900
697.716	0.0161090
697.794	0.0159738
697.872	0.0160497
697.950	0.0161041
698.029	0.0160255
698.107	0.0160333
698.185	0.0161821
698.263	0.0160795
698.341	0.0162971
698.419	0.0164048
698.497	0.0164752
698.575	0.0165225
698.654	0.0166823
698.732	0.0167384
698.810	0.0169032
698.888	0.0170343
698.966	0.0170509
699.044	0.0173401
699.122	0.0172539
699.200	0.0172230
699.279	0.0173158
699.357	0.0173561
699.435	0.0173061
699.513	0.0172598
699.591	0.0174875
699.669	0.0174576
699.747	0.0173129
699.825	0.0171637
699.904	0.0170190
699.982	0.0170847
700.060	0.0169296
700.138	0.0167216
700.216	0.0166373
700.294	0.0162896
700.372	0.0161771
700.450	0.0161417
700.529	0.0159737
700.607	0.0157472
700.685	0.0157024
700.763	0.0155867
700.841	0.0156790
700.919	0.0157897
700.997	0.0158332
701.075	0.0158276
701.154	0.0159862
701.232	0.0160358
701.310	0.0163178
701.388	0.0163645
701.466	0.0164307
701.544	0.0167116
701.622	0.0168766
701.700	0.0170160
701.779	0.0170838
701.857	0.0172189
701.935	0.0170705
702.013	0.0171629
702.091	0.0171548
702.169	0.0170431
702.247	0.0170365
702.325	0.0172050
702.404	0.0170589
702.482	0.0167788
702.560	0.0168187
702.638	0.0170175
702.716	0.0169759
702.794	0.0169192
702.872	0.0168974
702.950	0.0169986
703.029	0.0170923
703.107	0.0170697
703.185	0.0170857
703.263	0.0171569
703.341	0.0171438
703.419	0.0171825
703.497	0.0172961
703.575	0.0172752
703.654	0.0172302
703.732	0.0169150
703.810	0.0169350
703.888	0.0167899
703.966	0.0166856
704.044	0.0166094
704.122	0.0165350
704.200	0.0162312
704.279	0.0160299
704.357	0.0161369
704.435	0.0159901
704.513	0.0158665
704.591	0.0157010
704.669	0.0159453
704.747	0.0159271
704.825	0.0158345
704.904	0.0160761
704.982	0.0160300
705.060	0.0160408
705.138	0.0161670
705.216	0.0161843
705.294	0.0164204
705.372	0.0163904
705.450	0.0164809
705.529	0.0166437
705.607	0.0165850
705.685	0.0166643
705.763	0.0168097
705.841	0.0168237
705.919	0.0167533
705.997	0.0166680
706.075	0.0169189
706.154	0.0168728
706.232	0.0168458
706.310	0.0167182
706.388	0.0168629
706.466	0.0167368
706.544	0.0168090
706.622	0.0169489
706.700	0.0169282
706.779	0.0169601
706.857	0.0169604
706.935	0.0171120
707.013	0.0169921
707.091	0.0171322
707.169	0.0171911
707.247	0.0170415
707.325	0.0169413
707.404	0.0169957
707.482	0.0170864
707.560	0.0171213
707.638	0.0170515
707.716	0.0168549
707.794	0.0168839
707.872	0.0168595
707.950	0.0167595
708.029	0.0167522
708.107	0.0168141
708.185	0.0166567
708.263	0.0165229
708.341	0.0165144
708.419	0.0165750
708.497	0.0164056
708.575	0.0163435
708.654	0.0163721
708.732	0.0164826
708.810	0.0162090
708.888	0.0163302
708.966	0.0162534
709.044	0.0163656
709.122	0.0161615
709.200	0.0162864
709.279	0.0163839
709.357	0.0162019
709.435	0.0162536
709.513	0.0164265
709.591	0.0163136
709.669	0.0162846
709.747	0.0163689
709.825	0.0163860
709.904	0.0164433
709.982	0.0163915
710.060	0.0164470
710.138	0.0165526
710.216	0.0165190
710.294	0.0164879
710.372	0.0165862
710.450	0.0165755
710.529	0.0166587
710.607	0.0166833
710.685	0.0166354
710.763	0.0165899
710.841	0.0167059
710.919	0.0167089
710.997	0.0168446
711.075	0.0168696
711.154	0.0168403
711.232	0.0170591
711.310	0.0171423
711.388	0.0171505
711.466	0.0171729
711.544	0.0170874
711.622	0.0170837
711.700	0.0171004
711.779	0.0171670
711.857	0.0170757
711.935	0.0169779
712.013	0.0169720
712.091	0.0169309
712.169	0.0168929
712.247	0.0168379
712.325	0.0168520
712.404	0.0167326
712.482	0.0166466
712.560	0.0165588
712.638	0.0165488
712.716	0.0166185
712.794	0.0164522
712.872	0.0163729
712.950	0.0165344
713.029	0.0164069
713.107	0.0163982
713.185	0.0163006
713.263	0.0162508
713.341	0.0164059
713.419	0.0163112
713.497	0.0163110
713.575	0.0162933
713.654	0.0163384
713.732	0.0163595
713.810	0.0163379
713.888	0.0162052
713.966	0.0161503
714.044	0.0163994
714.122	0.0163905
714.200	0.0164313
714.279	0.0162712
714.357	0.0162061
714.435	0.0163643
714.513	0.0162917
714.591	0.0164714
714.669	0.0164525
714.747	0.0163464
714.825	0.0164041
714.904	0.0164048
714.982	0.0164184
715.060	0.0165375
715.138	0.0164184
715.216	0.0165785
715.294	0.0164227
715.372	0.0164873
715.450	0.0165801
715.529	0.0167262
715.607	0.0166160
715.685	0.0166075
715.763	0.0166598
715.841	0.0169219
715.919	0.0168677
715.997	0.0169527
716.075	0.0169480
716.154	0.0169027
716.232	0.0171049
716.310	0.0171782
716.388	0.0171040
716.466	0.0170068
716.544	0.0170109
716.622	0.0170672
716.700	0.0171876
716.779	0.0170126
716.857	0.0170564
716.935	0.0169313
717.013	0.0168674
717.091	0.0170443
717.169	0.0169740
717.247	0.0168454
717.325	0.0168191
717.404	0.0168305
717.482	0.0166389
717.560	0.0167698
717.638	0.0166830
717.716	0.0165696
717.794	0.0165131
717.872	0.0164822
717.950	0.0165871
718.029	0.0164748
718.107	0.0164833
718.185	0.0163557
718.263	0.0165559
718.341	0.0166577
718.419	0.0166132
718.497	0.0165384
718.575	0.0166198
718.654	0.0165704
718.732	0.0164455
718.810	0.0164403
718.888	0.0164075
718.966	0.0165277
719.044	0.0165011
719.122	0.0163071
719.200	0.0162804
719.279	0.0164284
719.357	0.0162827
719.435	0.0161901
719.513	0.0162527
719.591	0.0163406
719.669	0.0162310
719.747	0.0163983
719.825	0.0164124
719.904	0.0164507
719.982	0.0164052
720.060	0.0165023
720.138	0.0164713
720.216	0.0167489
720.294	0.0166872
720.372	0.0165558
720.450	0.0167125
720.529	0.0167280
720.607	0.0166449
720.685	0.0165337
720.763	0.0167926
720.841	0.0167284
720.919	0.0166572
720.997	0.0167266
721.075	0.0166786
721.154	0.0167307
721.232	0.0168134
721.310	0.0168613
721.388	0.0169083
721.466	0.0169346
721.544	0.0168775
721.622	0.0170023
721.700	0.0169888
721.779	0.0171786
721.857	0.0170930
721.935	0.0170984
722.013	0.0171479
722.091	0.0171266
722.169	0.0170693
722.247	0.0171264
722.325	0.0171322
722.404	0.0169390
722.482	0.0169019
722.560	0.0168400
722.638	0.0167551
722.716	0.0167319
722.794	0.0165955
722.872	0.0166126
722.950	0.0165081
723.029	0.0166084
723.107	0.0166817
723.185	0.0164660
723.263	0.0164298
723.341	0.0164503
723.419	0.0165131
723.497	0.0163619
723.575	0.0163612
723.654	0.0164231
723.732	0.0164912
723.810	0.0165597
723.888	0.0164751
723.966	0.0165035
724.044	0.0163549
724.122	0.0163731
724.200	0.0163410
724.279	0.0164088
724.357	0.0163197
724.435	0.0165019
724.513	0.0164708
724.591	0.0163791
724.669	0.0163813
724.747	0.0165007
724.825	0.0165485
724.904	0.0164764
724.982	0.0165182
725.060	0.0165514
725.138	0.0167574
725.216	0.0166306
725.294	0.0164876
725.372	0.0165123
725.450	0.0165530
725.529	0.0166116
725.607	0.0166240
725.685	0.0165765
725.763	0.0165017
725.841	0.0167140
725.919	0.0167004
725.997	0.0165916
726.075	0.0164878
726.154	0.0166283
726.232	0.0165572
726.310	0.0165785
726.388	0.0165893
726.466	0.0166596
726.544	0.0166079
726.622	0.0167073
726.700	0.0167217
726.779	0.0167506
726.857	0.0165820
726.935	0.0167633
727.013	0.0167645
727.091	0.0168229
727.169	0.0167770
727.247	0.0167662
727.325	0.0169722
727.404	0.0167612
727.482	0.0167040
727.560	0.0168032
727.638	0.0167585
727.716	0.0168833
727.794	0.0167919
727.872	0.0167426
727.950	0.0166116
728.029	0.0166335
728.107	0.0166309
728.185	0.0165611
728.263	0.0164942
728.341	0.0165107
728.419	0.0163753
728.497	0.0165639
728.575	0.0165341
728.654	0.0163831
728.732	0.0165337
728.810	0.0163624
728.888	0.0165229
728.966	0.0165353
729.044	0.0164986
729.122	0.0166199
729.200	0.0167094
729.279	0.0167117
729.357	0.0166524
729.435	0.0168151
729.513	0.0167792
729.591	0.0166578
729.669	0.0166942
729.747	0.0167003
729.825	0.0166426
729.904	0.0164786
729.982	0.0166377
730.060	0.0165502
730.138	0.0165343
730.216	0.0165933
730.294	0.0165270
730.372	0.0164537
730.450	0.0165723
730.529	0.0165530
730.607	0.0164620
730.685	0.0164951
730.763	0.0165166
730.841	0.0165166
730.919	0.0166032
730.997	0.0165411
731.075	0.0166085
731.154	0.0166363
731.232	0.0166031
731.310	0.0166624
731.388	0.0165569
731.466	0.0166812
731.544	0.0167363
731.622	0.0167403
731.700	0.0167437
731.779	0.0166853
731.857	0.0167164
731.935	0.0168677
732.013	0.0168328
732.091	0.0167826
732.169	0.0166949
732.247	0.0167714
732.325	0.0168238
732.404	0.0166885
732.482	0.0168130
732.560	0.0167645
732.638	0.0167316
732.716	0.0166699
732.794	0.0167937
732.872	0.0168959
732.950	0.0168003
733.029	0.0167594
733.107	0.0166693
733.185	0.0167532
733.263	0.0167625
733.341	0.0167770
733.419	0.0167417
733.497	0.0165966
733.575	0.0166786
733.654	0.0167940
733.732	0.0166800
733.810	0.0166999
733.888	0.0168044
733.966	0.0167171
734.044	0.0166786
734.122	0.0167329
734.200	0.0166550
734.279	0.0167416
734.357	0.0166586
734.435	0.0167262
734.513	0.0167688
734.591	0.0167838
734.669	0.0165547
734.747	0.0167847
734.825	0.0166911
734.904	0.0167841
734.982	0.0166319
735.060	0.0166943
735.138	0.0166178
735.216	0.0166648
735.294	0.0166724
735.372	0.0167337
735.450	0.0167393
735.529	0.0165087
735.607	0.0165476
735.685	0.0166318
735.763	0.0164955
735.841	0.0164105
735.919	0.0163795
735.997	0.0164661
736.075	0.0162745
736.154	0.0165295
736.232	0.0165473
736.310	0.0162515
736.388	0.0164579
736.466	0.0164211
736.544	0.0163585
736.622	0.0164382
736.700	0.0164622
736.779	0.0165031
736.857	0.0163952
736.935	0.0164259
737.013	0.0165633
737.091	0.0166131
737.169	0.0165030
737.247	0.0165004
737.325	0.0167269
737.404	0.0166416
737.482	0.0164518
737.560	0.0166454
737.638	0.0167690
737.716	0.0167257
737.794	0.0166362
737.872	0.0165971
737.950	0.0166403
738.029	0.0166794
738.107	0.0165490
738.185	0.0166640
738.263	0.0166493
738.341	0.0168880
738.419	0.0167590
738.497	0.0166647
738.575	0.0166445
738.654	0.0166985
738.732	0.0168137
738.810	0.0167545
738.888	0.0166733
738.966	0.0165999
739.044	0.0167032
739.122	0.0166950
739.200	0.0165855
739.279	0.0166602
739.357	0.0166080
739.435	0.0166429
739.513	0.0165547
739.591	0.0166962
739.669	0.0166598
739.747	0.0165578
739.825	0.0165279
739.904	0.0166151
739.982	0.0166728
740.060	0.0167187
740.138	0.0165982
740.216	0.0166987
740.294	0.0166888
740.372	0.0166392
740.450	0.0166206
740.529	0.0166822
740.607	0.0166492
740.685	0.0166680
740.763	0.0166308
740.841	0.0166904
740.919	0.0167110
740.997	0.0166825
741.075	0.0167146
741.154	0.0167232
741.232	0.0167995
741.310	0.0168948
741.388	0.0167831
741.466	0.0166820
741.544	0.0167013
741.622	0.0166700
741.700	0.0167353
741.779	0.0166563
741.857	0.0166695
741.935	0.0166782
742.013	0.0166211
742.091	0.0166767
742.169	0.0166525
742.247	0.0165817
742.325	0.0165808
742.404	0.0165939
742.482	0.0165292
742.560	0.0165035
742.638	0.0164543
742.716	0.0165742
742.794	0.0165110
742.872	0.0166051
742.950	0.0164034
743.029	0.0165099
743.107	0.0164866
743.185	0.0164435
743.263	0.0165369
743.341	0.0166064
743.419	0.0165965
743.497	0.0164493
743.575	0.0164038
743.654	0.0164967
743.732	0.0164831
743.810	0.0165859
743.888	0.0164983
743.966	0.0165497
744.044	0.0164472
744.122	0.0165749
744.200	0.0165495
744.279	0.0165136
744.357	0.0164878
744.435	0.0165464
744.513	0.0166134
744.591	0.0166378
744.669	0.0167675
744.747	0.0167040
744.825	0.0166687
744.904	0.0167126
744.982	0.0168303
745.060	0.0165115
745.138	0.0165891
745.216	0.0166090
745.294	0.0165718
745.372	0.0167594
745.450	0.0167355
745.529	0.0165395
745.607	0.0167491
745.685	0.0167586
745.763	0.0167757
745.841	0.0167902
745.919	0.0167059
745.997	0.0167402
746.075	0.0168640
746.154	0.0167395
746.232	0.0167194
746.310	0.0167780
746.388	0.0167288
746.466	0.0167290
746.544	0.0167378
746.622	0.0167583
746.700	0.0165470
746.779	0.0166071
746.857	0.0166486
746.935	0.0166019
747.013	0.0167580
747.091	0.0166708
747.169	0.0165487
747.247	0.0166748
747.325	0.0166214
747.404	0.0165990
747.482	0.0166178
747.560	0.0166898
747.638	0.0166546
747.716	0.0166896
747.794	0.0166544
747.872	0.0166662
747.950	0.0166611
748.029	0.0166313
748.107	0.0168088
748.185	0.0166479
748.263	0.0166641
748.341	0.0166700
748.419	0.0165674
748.497	0.0166695
748.575	0.0166031
748.654	0.0166834
748.732	0.0164863
748.810	0.0165174
748.888	0.0164732
748.966	0.0165234
749.044	0.0164791
749.122	0.0164687
749.200	0.0164482
749.279	0.0164137
749.357	0.0165340
749.435	0.0163970
749.513	0.0163926
749.591	0.0164101
749.669	0.0163409
749.747	0.0164623
749.825	0.0163773
749.904	0.0164578
749.982	0.0166230
750.060	0.0164424
750.138	0.0165760
750.216	0.0165481
750.294	0.0164803
750.372	0.0165826
750.450	0.0166187
750.529	0.0166282
750.607	0.0166351
750.685	0.0167097
750.763	0.0166385
750.841	0.0166220
750.919	0.0167117
750.997	0.0167385
751.075	0.0168404
751.154	0.0167382
751.232	0.0167467
751.310	0.0166427
751.388	0.0167278
751.466	0.0166035
751.544	0.0166380
751.622	0.0165771
751.700	0.0167461
751.779	0.0167567
751.857	0.0168521
751.935	0.0168133
752.013	0.0166766
752.091	0.0166700
752.169	0.0167327
752.247	0.0167236
752.325	0.0166636
752.404	0.0165547
752.482	0.0166747
752.560	0.0166476
752.638	0.0167343
752.716	0.0166877
752.794	0.0166338
752.872	0.0167906
752.950	0.0165318
753.029	0.0166427
753.107	0.0167179
753.185	0.0167017
753.263	0.0164812
753.341	0.0164559
753.419	0.0165268
753.497	0.0165005
753.575	0.0166026
753.654	0.0164796
753.732	0.0165264
753.810	0.0164724
753.888	0.0164746
753.966	0.0166790
754.044	0.0166455
754.122	0.0165471
754.200	0.0165018
754.279	0.0165556
754.357	0.0165535
754.435	0.0166301
754.513	0.0166917
754.591	0.0168416
754.669	0.0167684
754.747	0.0167097
754.825	0.0167029
754.904	0.0167138
754.982	0.0166611
755.060	0.0166948
755.138	0.0168893
755.216	0.0167971
755.294	0.0166790
755.372	0.0167937
755.450	0.0167253
755.529	0.0166576
755.607	0.0165771
755.685	0.0165162
755.763	0.0166640
755.841	0.0166849
755.919	0.0167730
755.997	0.0164287
756.075	0.0165101
756.154	0.0166196
756.232	0.0166178
756.310	0.0166853
756.388	0.0165125
756.466	0.0165307
756.544	0.0167117
756.622	0.0167210
756.700	0.0167059
756.779	0.0168163
756.857	0.0166660
756.935	0.0167784
757.013	0.0168710
757.091	0.0168195
757.169	0.0167040
757.247	0.0167284
757.325	0.0166993
757.404	0.0167906
757.482	0.0167098
757.560	0.0167085
757.638	0.0167394
757.716	0.0165948
757.794	0.0165675
757.872	0.0166496
757.950	0.0166287
758.029	0.0165745
758.107	0.0165497
758.185	0.0165580
758.263	0.0166285
758.341	0.0167416
758.419	0.0166475
758.497	0.0166550
758.575	0.0165408
758.654	0.0165549
758.732	0.0165961
758.810	0.0166037
758.888	0.0168121
758.966	0.0166323
759.044	0.0165598
759.122	0.0166046
759.200	0.0167332
759.279	0.0166781
759.357	0.0166418
759.435	0.0166904
759.513	0.0167391
759.591	0.0165743
759.669	0.0166403
759.747	0.0167301
759.825	0.0165843
759.904	0.0165981
759.982	0.0166396
760.060	0.0167110
760.138	0.0167332
760.216	0.0165675
760.294	0.0166318
760.372	0.0168092
760.450	0.0166200
760.529	0.0166756
760.607	0.0166940
760.685	0.0167497
760.763	0.0168380
760.841	0.0166938
760.919	0.0167282
760.997	0.0165790
761.075	0.0166758
761.154	0.0167360
761.232	0.0167801
761.310	0.0166399
761.388	0.0166956
761.466	0.0166593
761.544	0.0165305
761.622	0.0166647
761.700	0.0166376
761.779	0.0166589
761.857	0.0166563
761.935	0.0167010
762.013	0.0166037
762.091	0.0166010
762.169	0.0166297
762.247	0.0167070
762.325	0.0166326
762.404	0.0166431
762.482	0.0165778
762.560	0.0166033
762.638	0.0166328
762.716	0.0166804
762.794	0.0166557
762.872	0.0164934
762.950	0.0166793
763.029	0.0166324
763.107	0.0164922
763.185	0.0164964
763.263	0.0165617
763.341	0.0165421
763.419	0.0164030
763.497	0.0165037
763.575	0.0165943
763.654	0.0165274
763.732	0.0165294
763.810	0.0166121
763.888	0.0166110
763.966	0.0164533
764.044	0.0164705
764.122	0.0166615
764.200	0.0166016
764.279	0.0165112
764.357	0.0164769
764.435	0.0166604
764.513	0.0166728
764.591	0.0167242
764.669	0.0167717
764.747	0.0166975
764.825	0.0166056
764.904	0.0166908
764.982	0.0167244
765.060	0.0167655
765.138	0.0168011
765.216	0.0167569
765.294	0.0167418
765.372	0.0167996
765.450	0.0168684
765.529	0.0166620
765.607	0.0166577
765.685	0.0166284
765.763	0.0167262
765.841	0.0167133
765.919	0.0167039
765.997	0.0166626
766.075	0.0166924
766.154	0.0166918
766.232	0.0166067
766.310	0.0166039
766.388	0.0167242
766.466	0.0166224
766.544	0.0165864
766.622	0.0166924
766.700	0.0165234
766.779	0.0164977
766.857	0.0165910
766.935	0.0165156
767.013	0.0166881
767.091	0.0165972
767.169	0.0165775
767.247	0.0165318
767.325	0.0165024
767.404	0.0165527
767.482	0.0165703
767.560	0.0165353
767.638	0.0166639
767.716	0.0168008
767.794	0.0165618
767.872	0.0165820
767.950	0.0166941
768.029	0.0165878
768.107	0.0166766
768.185	0.0166225
768.263	0.0165932
768.341	0.0166184
768.419	0.0166145
768.497	0.0165857
768.575	0.0164627
768.654	0.0166370
768.732	0.0166807
768.810	0.0166942
768.888	0.0167351
768.966	0.0166907
769.044	0.0166042
769.122	0.0168118
769.200	0.0167266
769.279	0.0166666
769.357	0.0168073
769.435	0.0168017
769.513	0.0169878
769.591	0.0168596
769.669	0.0168001
769.747	0.0167212
769.825	0.0168739
769.904	0.0168536
769.982	0.0167452
770.060	0.0166549
770.138	0.0167809
770.216	0.0167617
770.294	0.0167984
770.372	0.0167119
770.450	0.0167455
770.529	0.0166794
770.607	0.0166723
770.685	0.0166216
770.763	0.0165643
770.841	0.0165682
770.919	0.0165609
770.997	0.0164944
771.075	0.0166233
771.154	0.0164448
771.232	0.0163021
771.310	0.0164449
771.388	0.0164867
771.466	0.0164575
771.544	0.0163965
771.622	0.0164146
771.700	0.0164229
771.779	0.0164366
771.857	0.0163850
771.935	0.0164643
772.013	0.0165304
772.091	0.0164005
772.169	0.0164555
772.247	0.0166398
772.325	0.0164878
772.404	0.0168012
772.482	0.0166306
772.560	0.0166328
772.638	0.0165571
772.716	0.0165878
772.794	0.0166761
772.872	0.0167157
772.950	0.0168104
773.029	0.0167932
773.107	0.0166782
773.185	0.0166458
773.263	0.0166259
773.341	0.0167113
773.419	0.0167409
773.497	0.0167770
773.575	0.0167177
773.654	0.0166880
773.732	0.0166901
773.810	0.0168127
773.888	0.0165136
773.966	0.0165909
774.044	0.0168195
774.122	0.0167212
774.200	0.0165627
774.279	0.0166307
774.357	0.0167003
774.435	0.0166438
774.513	0.0166855
774.591	0.0166605
774.669	0.0166468
774.747	0.0166019
774.825	0.0165932
774.904	0.0166145
774.982	0.0166759
775.060	0.0166397
775.138	0.0168477
775.216	0.0166747
775.294	0.0166997
775.372	0.0167361
775.450	0.0167640
775.529	0.0167281
775.607	0.0166011
775.685	0.0167452
775.763	0.0167942
775.841	0.0166991
775.919	0.0167368
775.997	0.0166789
776.075	0.0166945
776.154	0.0166616
776.232	0.0165903
776.310	0.0167182
776.388	0.0166339
776.466	0.0167172
776.544	0.0167169
776.622	0.0166080
776.700	0.0165874
776.779	0.0167696
776.857	0.0167434
776.935	0.0164536
777.013	0.0165712
777.091	0.0164093
777.169	0.0165403
777.247	0.0164859
777.325	0.0165450
777.404	0.0165505
777.482	0.0165443
777.560	0.0165723
777.638	0.0165008
777.716	0.0166035
777.794	0.0166722
777.872	0.0165962
777.950	0.0165223
778.029	0.0165135
778.107	0.0166994
778.185	0.0166390
778.263	0.0167159
778.341	0.0166882
778.419	0.0167850
778.497	0.0168284
778.575	0.0167473
778.654	0.0167374
778.732	0.0167760
778.810	0.0168481
778.888	0.0167900
778.966	0.0168486
779.044	0.0167978
779.122	0.0168703
779.200	0.0167519
779.279	0.0167386
779.357	0.0168578
779.435	0.0168314
779.513	0.0167820
779.591	0.0166122
779.669	0.0166649
779.747	0.0167561
779.825	0.0166611
779.904	0.0165357
779.982	0.0166532
780.060	0.0166669
780.138	0.0166290
780.216	0.0166763
780.294	0.0165108
780.372	0.0166909
780.450	0.0166873
780.529	0.0166032
780.607	0.0166543
780.685	0.0166875
780.763	0.0165982
780.841	0.0166463
780.919	0.0165916
780.997	0.0166541
781.075	0.0167486
781.154	0.0167760
781.232	0.0167383
781.310	0.0168415
781.388	0.0167454
781.466	0.0166594
781.544	0.0167879
781.622	0.0167460
781.700	0.0167703
781.779	0.0167149
781.857	0.0166192
781.935	0.0168148
782.013	0.0168384
782.091	0.0168957
782.169	0.0168948
782.247	0.0166633
782.325	0.0168998
782.404	0.0168425
782.482	0.0166559
782.560	0.0168173
782.638	0.0166624
782.716	0.0166650
782.794	0.0167204
782.872	0.0167632
782.950	0.0166743
783.029	0.0166627
783.107	0.0167160
783.185	0.0167310
783.263	0.0165511
783.341	0.0165190
783.419	0.0166325
783.497	0.0166789
783.575	0.0165633
783.654	0.0164999
783.732	0.0165046
783.810	0.0166228
783.888	0.0166013
783.966	0.0164991
784.044	0.0166628
784.122	0.0164971
784.200	0.0164346
784.279	0.0165385
784.357	0.0164808
784.435	0.0165175
784.513	0.0166971
784.591	0.0166447
784.669	0.0165557
784.747	0.0165482
784.825	0.0165659
784.904	0.0165796
784.982	0.0167017
785.060	0.0166454
785.138	0.0165951
785.216	0.0166526
785.294	0.0166023
785.372	0.0164690
785.450	0.0166340
785.529	0.0166566
785.607	0.0166469
785.685	0.0165916
785.763	0.0167729
785.841	0.0167061
785.919	0.0165183
785.997	0.0165893
786.075	0.0167523
786.154	0.0166986
786.232	0.0166779
786.310	0.0166222
786.388	0.0167257
786.466	0.0166740
786.544	0.0167233
786.622	0.0167172
786.700	0.0166485
786.779	0.0166578
786.857	0.0166582
786.935	0.0167305
787.013	0.0166066
787.091	0.0167551
787.169	0.0166481
787.247	0.0166451
787.325	0.0167514
787.404	0.0167227
787.482	0.0166521
787.560	0.0166415
787.638	0.0166764
787.716	0.0166271
787.794	0.0167023
787.872	0.0167030
787.950	0.0166901
788.029	0.0165991
788.107	0.0166486
788.185	0.0167109
788.263	0.0167586
788.341	0.0166903
788.419	0.0165435
788.497	0.0166368
788.575	0.0166387
788.654	0.0166586
788.732	0.0167400
788.810	0.0166365
788.888	0.0165825
788.966	0.0166328
789.044	0.0166371
789.122	0.0165932
789.200	0.0164944
789.279	0.0165071
789.357	0.0164771
789.435	0.0165641
789.513	0.0166219
789.591	0.0166357
789.669	0.0165157
789.747	0.0166615
789.825	0.0166891
789.904	0.0166502
789.982	0.0166734
790.060	0.0167042
790.138	0.0167392
790.216	0.0167669
790.294	0.0167290
790.372	0.0167448
790.450	0.0168027
790.529	0.0167162
790.607	0.0168272
790.685	0.0168027
790.763	0.0167383
790.841	0.0168111
790.919	0.0166981
790.997	0.0168124
791.075	0.0167918
791.154	0.0168144
791.232	0.0167026
791.310	0.0166200
791.388	0.0167510
791.466	0.0166624
791.544	0.0167348
791.622	0.0167966
791.700	0.0167609
791.779	0.0168661
791.857	0.0167484
791.935	0.0166956
792.013	0.0166766
792.091	0.0168264
792.169	0.0166185
792.247	0.0166557
792.325	0.0166827
792.404	0.0166927
792.482	0.0165276
792.560	0.0164981
792.638	0.0165607
792.716	0.0165160
792.794	0.0167635
792.872	0.0166117
792.950	0.0166016
793.029	0.0165031
793.107	0.0165911
793.185	0.0164637
793.263	0.0165726
793.341	0.0166090
793.419	0.0165715
793.497	0.0165575
793.575	0.0165997
793.654	0.0164803
793.732	0.0165184
793.810	0.0166260
793.888	0.0167445
793.966	0.0166436
794.044	0.0165204
794.122	0.0165482
794.200	0.0166549
794.279	0.0165795
794.357	0.0165586
794.435	0.0166737
794.513	0.0166258
794.591	0.0166418
794.669	0.0165939
794.747	0.0166788
794.825	0.0167066
794.904	0.0166086
794.982	0.0167397
795.060	0.0167437
795.138	0.0167967
795.216	0.0167561
795.294	0.0167543
795.372	0.0167513
795.450	0.0167837
795.529	0.0166733
795.607	0.0167970
795.685	0.0167805
795.763	0.0167397
795.841	0.0167451
795.919	0.0166893
795.997	0.0166798
796.075	0.0166892
796.154	0.0167244
796.232	0.0166974
796.310	0.0166282
796.388	0.0167130
796.466	0.0165787
796.544	0.0166640
796.622	0.0166956
796.700	0.0165536
796.779	0.0165518
796.857	0.0166541
796.935	0.0168025
797.013	0.0166808
797.091	0.0165495
797.169	0.0166887
797.247	0.0165316
797.325	0.0166978
797.404	0.0167554
797.482	0.0167036
797.560	0.0167230
797.638	0.0165733
797.716	0.0166212
797.794	0.0164619
797.872	0.0165685
797.950	0.0165509
798.029	0.0166335
798.107	0.0165794
798.185	0.0164127
798.263	0.0164108
798.341	0.0165878
798.419	0.0164262
798.497	0.0164690
798.575	0.0165850
798.654	0.0165658
798.732	0.0166557
798.810	0.0165350
798.888	0.0165979
798.966	0.0165465
799.044	0.0165096
799.122	0.0166967
799.200	0.0166773
799.279	0.0167648
799.357	0.0166670
799.435	0.0167436
799.513	0.0167414
799.591	0.0167178
799.669	0.0166337
799.747	0.0166709
799.825	0.0168048
799.904	0.0166292
799.982	0.0165697
800.060	0.0165739
800.138	0.0166235
800.216	0.0165173
800.294	0.0164530
800.372	0.0165040
800.450	0.0164331
800.529	0.0164299
800.607	0.0164281
800.685	0.0164859
800.763	0.0165111
800.841	0.0164170
800.919	0.0165083
800.997	0.0165826
801.075	0.0165033
801.154	0.0164767
801.232	0.0164531
801.310	0.0165890
801.388	0.0167033
801.466	0.0166036
801.544	0.0165900
801.622	0.0167854
801.700	0.0166685
801.779	0.0165329
801.857	0.0166294
801.935	0.0166521
802.013	0.0166634
802.091	0.0166909
802.169	0.0166621
802.247	0.0164856
802.325	0.0166566
802.404	0.0167618
802.482	0.0166455
802.560	0.0166685
802.638	0.0164895
802.716	0.0165735
802.794	0.0166656
802.872	0.0166431
802.950	0.0166348
803.029	0.0166270
803.107	0.0168597
803.185	0.0166712
803.263	0.0167192
803.341	0.0167606
803.419	0.0168649
803.497	0.0168386
803.575	0.0167739
803.654	0.0168359
803.732	0.0166705
803.810	0.0168767
803.888	0.0167645
803.966	0.0167720
804.044	0.0167945
804.122	0.0167339
804.200	0.0166491
804.279	0.0166901
804.357	0.0166833
804.435	0.0166599
804.513	0.0167382
804.591	0.0166776
804.669	0.0166872
804.747	0.0165594
804.825	0.0167229
804.904	0.0166094
804.982	0.0165538
805.060	0.0168340
805.138	0.0167712
805.216	0.0167153
805.294	0.0166431
805.372	0.0166910
805.450	0.0166796
805.529	0.0166634
805.607	0.0167176
805.685	0.0166027
805.763	0.0166606
805.841	0.0166441
805.919	0.0166332
805.997	0.0165073
806.075	0.0166723
806.154	0.0166891
806.232	0.0165055
806.310	0.0164800
806.388	0.0165132
806.466	0.0164768
806.544	0.0165543
806.622	0.0165705
806.700	0.0164478
806.779	0.0164429
806.857	0.0165179
806.935	0.0163045
807.013	0.0165720
807.091	0.0166683
807.169	0.0165175
807.247	0.0165111
807.325	0.0165791
807.404	0.0165734
807.482	0.0165215
807.560	0.0166321
807.638	0.0166454
807.716	0.0167194
807.794	0.0167610
807.872	0.0166308
807.950	0.0166838
808.029	0.0168472
808.107	0.0168053
808.185	0.0167711
808.263	0.0168087
808.341	0.0168687
808.419	0.0167996
808.497	0.0168177
808.575	0.0169421
808.654	0.0166731
808.732	0.0167152
808.810	0.0170338
808.888	0.0167741
808.966	0.0166979
809.044	0.0166811
809.122	0.0166302
809.200	0.0166933
809.279	0.0166978
809.357	0.0166779
809.435	0.0166766
809.513	0.0166214
809.591	0.0166463
809.669	0.0166182
809.747	0.0164973
809.825	0.0164542
809.904	0.0165004
809.982	0.0166062
810.060	0.0164552
810.138	0.0164444
810.216	0.0165324
810.294	0.0164343
810.372	0.0164874
810.450	0.0164595
810.529	0.0164552
810.607	0.0164612
810.685	0.0163202
810.763	0.0163905
810.841	0.0164173
810.919	0.0166146
810.997	0.0165468
811.075	0.0164748
811.154	0.0165757
811.232	0.0166145
811.310	0.0166057
811.388	0.0165977
811.466	0.0166534
811.544	0.0166862
811.622	0.0166386
811.700	0.0165164
811.779	0.0166901
811.857	0.0166836
811.935	0.0167999
812.013	0.0167068
812.091	0.0166499
812.169	0.0166367
812.247	0.0166905
812.325	0.0167126
812.404	0.0167122
812.482	0.0166944
812.560	0.0166854
812.638	0.0166070
812.716	0.0168175
812.794	0.0167692
812.872	0.0167010
812.950	0.0166772
813.029	0.0165669
813.107	0.0166836
813.185	0.0166051
813.263	0.0166151
813.341	0.0165107
813.419	0.0166085
813.497	0.0166486
813.575	0.0165246
813.654	0.0165711
813.732	0.0166134
813.810	0.0166086
813.888	0.0165610
813.966	0.0165585
814.044	0.0166345
814.122	0.0166112
814.200	0.0167017
814.279	0.0166113
814.357	0.0166204
814.435	0.0167843
814.513	0.0166909
814.591	0.0165955
814.669	0.0166724
814.747	0.0165255
814.825	0.0166051
814.904	0.0166148
814.982	0.0166396
815.060	0.0165417
815.138	0.0164833
815.216	0.0165409
815.294	0.0165682
815.372	0.0164782
815.450	0.0165907
815.529	0.0166003
815.607	0.0164887
815.685	0.0165522
815.763	0.0165583
815.841	0.0166017
815.919	0.0167207
815.997	0.0165511
816.075	0.0163853
816.154	0.0166496
816.232	0.0166540
816.310	0.0165874
816.388	0.0167238
816.466	0.0166714
816.544	0.0166270
816.622	0.0166049
816.700	0.0166515
816.779	0.0167573
816.857	0.0166611
816.935	0.0166139
817.013	0.0166507
817.091	0.0166705
817.169	0.0166048
817.247	0.0167919
817.325	0.0166539
817.404	0.0165742
817.482	0.0167034
817.560	0.0166636
817.638	0.0165528
817.716	0.0167284
817.794	0.0167533
817.872	0.0165327
817.950	0.0167211
818.029	0.0167155
818.107	0.0168549
818.185	0.0168414
818.263	0.0168910
818.341	0.0168814
818.419	0.0168156
818.497	0.0167255
818.575	0.0167765
818.654	0.0168660
818.732	0.0166586
818.810	0.0168299
818.888	0.0166814
818.966	0.0167213
819.044	0.0165640
819.122	0.0166184
819.200	0.0166486
819.279	0.0165586
819.357	0.0164438
819.435	0.0165386
819.513	0.0164482
819.591	0.0164893
819.669	0.0164347
819.747	0.0163844
819.825	0.0164196
819.904	0.0164913
819.982	0.0164146
820.060	0.0163433
820.138	0.0164209
820.216	0.0164095
820.294	0.0164476
820.372	0.0163839
820.450	0.0165521
820.529	0.0164407
820.607	0.0163856
820.685	0.0166117
820.763	0.0165701
820.841	0.0165707
820.919	0.0166426
820.997	0.0166802
821.075	0.0167997
821.154	0.0166036
821.232	0.0168163
821.310	0.0167297
821.388	0.0168299
821.466	0.0167304
821.544	0.0168206
821.622	0.0167755
821.700	0.0168240
821.779	0.0165559
821.857	0.0166676
821.935	0.0166705
822.013	0.0166451
822.091	0.0167000
822.169	0.0166635
822.247	0.0166008
822.325	0.0165790
822.404	0.0164912
822.482	0.0165685
822.560	0.0165401
822.638	0.0166125
822.716	0.0166847
822.794	0.0165316
822.872	0.0166272
822.950	0.0165646
823.029	0.0165648
823.107	0.0165401
823.185	0.0166917
823.263	0.0166471
823.341	0.0165141
823.419	0.0167394
823.497	0.0166218
823.575	0.0166225
823.654	0.0167071
823.732	0.0167496
823.810	0.0166094
823.888	0.0165096
823.966	0.0164478
824.044	0.0166040
824.122	0.0165317
824.200	0.0164428
824.279	0.0165691
824.357	0.0164621
824.435	0.0164753
824.513	0.0165228
824.591	0.0165982
824.669	0.0165721
824.747	0.0164520
824.825	0.0164047
824.904	0.0165421
824.982	0.0164662
825.060	0.0167018
825.138	0.0166882
825.216	0.0166062
825.294	0.0164705
825.372	0.0167249
825.450	0.0166895
825.529	0.0166805
825.607	0.0167066
825.685	0.0167458
825.763	0.0167289
825.841	0.0166718
825.919	0.0167690
825.997	0.0166958
826.075	0.0166393
826.154	0.0166015
826.232	0.0166907
826.310	0.0168787
826.388	0.0167889
826.466	0.0166789
826.544	0.0167399
826.622	0.0167348
826.700	0.0166575
826.779	0.0166547
826.857	0.0167007
826.935	0.0168497
827.013	0.0167345
827.091	0.0166822
827.169	0.0168267
827.247	0.0167652
827.325	0.0167020
827.404	0.0167149
827.482	0.0165891
827.560	0.0165760
827.638	0.0167229
827.716	0.0167092
827.794	0.0164912
827.872	0.0165450
827.950	0.0165342
828.029	0.0165697
828.107	0.0164841
828.185	0.0165364
828.263	0.0165891
828.341	0.0164183
828.419	0.0164848
828.497	0.0165392
828.575	0.0165916
828.654	0.0164851
828.732	0.0165241
828.810	0.0166262
828.888	0.0165470
828.966	0.0166079
829.044	0.0166424
829.122	0.0166032
829.200	0.0167007
829.279	0.0166976
829.357	0.0166865
829.435	0.0167413
829.513	0.0167477
829.591	0.0167647
829.669	0.0167165
829.747	0.0167095
829.825	0.0167143
829.904	0.0167550
829.982	0.0166991
830.060	0.0167180
830.138	0.0167365
830.216	0.0167352
830.294	0.0165804
830.372	0.0168555
830.450	0.0168712
830.529	0.0166737
830.607	0.0167781
830.685	0.0167236
830.763	0.0168296
830.841	0.0168303
830.919	0.0167226
830.997	0.0168259
831.075	0.0168768
831.154	0.0166830
831.232	0.0166192
831.310	0.0165683
831.388	0.0167974
831.466	0.0167871
831.544	0.0167173
831.622	0.0166064
831.700	0.0166628
831.779	0.0166770
831.857	0.0166940
831.935	0.0166932
832.013	0.0166924
832.091	0.0166810
832.169	0.0167316
832.247	0.0166129
832.325	0.0165083
832.404	0.0165577
832.482	0.0166253
832.560	0.0166576
832.638	0.0164999
832.716	0.0163971
832.794	0.0164768
832.872	0.0165179
832.950	0.0164629
833.029	0.0164848
833.107	0.0164155
833.185	0.0164921
833.263	0.0165000
833.341	0.0164957
833.419	0.0165167
833.497	0.0163850
833.575	0.0163332
833.654	0.0163818
833.732	0.0164427
833.810	0.0164789
833.888	0.0166106
833.966	0.0166516
834.044	0.0166303
834.122	0.0165253
834.200	0.0165813
834.279	0.0167228
834.357	0.0168726
834.435	0.0167215
834.513	0.0166348
834.591	0.0169096
834.669	0.0167740
834.747	0.0168828
834.825	0.0167860
834.904	0.0167867
834.982	0.0167543
835.060	0.0168031
835.138	0.0168805
835.216	0.0168541
835.294	0.0168572
835.372	0.0169294
835.450	0.0167697
835.529	0.0167532
835.607	0.0167943
835.685	0.0167377
835.763	0.0167497
835.841	0.0167555
835.919	0.0167011
835.997	0.0167725
836.075	0.0168636
836.154	0.0167509
836.232	0.0167722
836.310	0.0168015
836.388	0.0167818
836.466	0.0167301
836.544	0.0166959
836.622	0.0167092
836.700	0.0166762
836.779	0.0166808
836.857	0.0166410
836.935	0.0166391
837.013	0.0165018
837.091	0.0165394
837.169	0.0163642
837.247	0.0164806
837.325	0.0164903
837.404	0.0162811
837.482	0.0164056
837.560	0.0162016
837.638	0.0164160
837.716	0.0164262
837.794	0.0164542
837.872	0.0163861
837.950	0.0161535
838.029	0.0162130
838.107	0.0163143
838.185	0.0162537
838.263	0.0163196
838.341	0.0162455
838.419	0.0164201
838.497	0.0164833
838.575	0.0165453
838.654	0.0164323
838.732	0.0165350
838.810	0.0166808
838.888	0.0167433
838.966	0.0166995
839.044	0.0165346
839.122	0.0167292
839.200	0.0169405
839.279	0.0168050
839.357	0.0167104
839.435	0.0169627
839.513	0.0169727
839.591	0.0169074
839.669	0.0169445
839.747	0.0168084
839.825	0.0167974
839.904	0.0168446
839.982	0.0169164
840.060	0.0169610
840.138	0.0168492
840.216	0.0167744
840.294	0.0168587
840.372	0.0168372
840.450	0.0168262
840.529	0.0167326
840.607	0.0167540
840.685	0.0166511
840.763	0.0166206
840.841	0.0166850
840.919	0.0165871
840.997	0.0166225
841.075	0.0165276
841.154	0.0165042
841.232	0.0164309
841.310	0.0164001
841.388	0.0163108
841.466	0.0164439
841.544	0.0165295
841.622	0.0164058
841.700	0.0164153
841.779	0.0163955
841.857	0.0163461
841.935	0.0164876
842.013	0.0165717
842.091	0.0164390
842.169	0.0164411
842.247	0.0165268
842.325	0.0166511
842.404	0.0165963
842.482	0.0167274
842.560	0.0166919
842.638	0.0167801
842.716	0.0165934
842.794	0.0167510
842.872	0.0166846
842.950	0.0167283
843.029	0.0167144
843.107	0.0166987
843.185	0.0165793
843.263	0.0167581
843.341	0.0167592
843.419	0.0167817
843.497	0.0165765
843.575	0.0167554
843.654	0.0166837
843.732	0.0166172
843.810	0.0166614
843.888	0.0167238
843.966	0.0165812
844.044	0.0166640
844.122	0.0166122
844.200	0.0166690
844.279	0.0166346
844.357	0.0167290
844.435	0.0166124
844.513	0.0167017
844.591	0.0167002
844.669	0.0166574
844.747	0.0168275
844.825	0.0167091
844.904	0.0167001
844.982	0.0168575
845.060	0.0167442
845.138	0.0165331
845.216	0.0167355
845.294	0.0166121
845.372	0.0167722
845.450	0.0167368
845.529	0.0166134
845.607	0.0165083
845.685	0.0164529
845.763	0.0165782
845.841	0.0165620
845.919	0.0164577
845.997	0.0164997
846.075	0.0164131
846.154	0.0164851
846.232	0.0165363
846.310	0.0165507
846.388	0.0163638
846.466	0.0164848
846.544	0.0166501
846.622	0.0165211
846.700	0.0165665
846.779	0.0166975
846.857	0.0165970
846.935	0.0165468
847.013	0.0167015
847.091	0.0165820
847.169	0.0166461
847.247	0.0168185
847.325	0.0166471
847.404	0.0167355
847.482	0.0166072
847.560	0.0167450
847.638	0.0167703
847.716	0.0166653
847.794	0.0167177
847.872	0.0168055
847.950	0.0167465
848.029	0.0167809
848.107	0.0167278
848.185	0.0166986
848.263	0.0166821
848.341	0.0166134
848.419	0.0166631
848.497	0.0166721
848.575	0.0165189
848.654	0.0165041
848.732	0.0164455
848.810	0.0163893
848.888	0.0165132
848.966	0.0163606
849.044	0.0163602
849.122	0.0162873
849.200	0.0163277
849.279	0.0162873
849.357	0.0162089
849.435	0.0161223
849.513	0.0162553
849.591	0.0163125
849.669	0.0164538
849.747	0.0162482
849.825	0.0163326
849.904	0.0164153
849.982	0.0164249
850.060	0.0165617
850.138	0.0165142
850.216	0.0165712
850.294	0.0167010
850.372	0.0166434
850.450	0.0166236
850.529	0.0166793
850.607	0.0166673
850.685	0.0168521
850.763	0.0167815
850.841	0.0167410
850.919	0.0168436
850.997	0.0167894
851.075	0.0166860
851.154	0.0169182
851.232	0.0168736
851.310	0.0168865
851.388	0.0168812
851.466	0.0168992
851.544	0.0168668
851.622	0.0170004
851.700	0.0169505
851.779	0.0171087
851.857	0.0169869
851.935	0.0170988
852.013	0.0168157
852.091	0.0169490
852.169	0.0170628
852.247	0.0168298
852.325	0.0168359
852.404	0.0169764
852.482	0.0169521
852.560	0.0168408
852.638	0.0167832
852.716	0.0166968
852.794	0.0167400
852.872	0.0166600
852.950	0.0167180
853.029	0.0167459
853.107	0.0165000
853.185	0.0166153
853.263	0.0165076
853.341	0.0163952
853.419	0.0164358
853.497	0.0163672
853.575	0.0164408
853.654	0.0164125
853.732	0.0163921
853.810	0.0164214
853.888	0.0163676
853.966	0.0162264
854.044	0.0161523
854.122	0.0163226
854.200	0.0162881
854.279	0.0162650
854.357	0.0161975
854.435	0.0163458
854.513	0.0164790
854.591	0.0164443
854.669	0.0163876
854.747	0.0164581
854.825	0.0164469
854.904	0.0164221
854.982	0.0166212
855.060	0.0165572
855.138	0.0165987
855.216	0.0168081
855.294	0.0167256
855.372	0.0168195
855.450	0.0168079
855.529	0.0168676
855.607	0.0168478
855.685	0.0168822
855.763	0.0168999
855.841	0.0169137
855.919	0.0169386
855.997	0.0169346
856.075	0.0169538
856.154	0.0169971
856.232	0.0171043
856.310	0.0170052
856.388	0.0169955
856.466	0.0170728
856.544	0.0170042
856.622	0.0169966
856.700	0.0170020
856.779	0.0168417
856.857	0.0168770
856.935	0.0168938
857.013	0.0169005
857.091	0.0168098
857.169	0.0169496
857.247	0.0167654
857.325	0.0166652
857.404	0.0168152
857.482	0.0167742
857.560	0.0166838
857.638	0.0166907
857.716	0.0166100
857.794	0.0166000
857.872	0.0165199
857.950	0.0166019
858.029	0.0166010
858.107	0.0164592
858.185	0.0164993
858.263	0.0165458
858.341	0.0165449
858.419	0.0164796
858.497	0.0163580
858.575	0.0163916
858.654	0.0163651
858.732	0.0164447
858.810	0.0163744
858.888	0.0163576
858.966	0.0163173
859.044	0.0165175
859.122	0.0165336
859.200	0.0164886
859.279	0.0164040
859.357	0.0165364
859.435	0.0165926
859.513	0.0166192
859.591	0.0166430
859.669	0.0165942
859.747	0.0167085
859.825	0.0167177
859.904	0.0167856
859.982	0.0167297
860.060	0.0168601
860.138	0.0169827
860.216	0.0167670
860.294	0.0168716
860.372	0.0168655
860.450	0.0169080
860.529	0.0169267
860.607	0.0168679
860.685	0.0171141
860.763	0.0170447
860.841	0.0169666
860.919	0.0168619
860.997	0.0168217
861.075	0.0171385
861.154	0.0167990
861.232	0.0167659
861.310	0.0168455
861.388	0.0167728
861.466	0.0168326
861.544	0.0167902
861.622	0.0168211
861.700	0.0168572
861.779	0.0168140
861.857	0.0167515
861.935	0.0166691
862.013	0.0167004
862.091	0.0165851
862.169	0.0165891
862.247	0.0166971
862.325	0.0165870
862.404	0.0165074
862.482	0.0166093
862.560	0.0166321
862.638	0.0165434
862.716	0.0164329
862.794	0.0166125
862.872	0.0165328
862.950	0.0164546
863.029	0.0164989
863.107	0.0165407
863.185	0.0166268
863.263	0.0165492
863.341	0.0164754
863.419	0.0165888
863.497	0.0165471
863.575	0.0165038
863.654	0.0164633
863.732	0.0164685
863.810	0.0165239
863.888	0.0165826
863.966	0.0165317
864.044	0.0165875
864.122	0.0165611
864.200	0.0168030
864.279	0.0165642
864.357	0.0166766
864.435	0.0166908
864.513	0.0166370
864.591	0.0167037
864.669	0.0165665
864.747	0.0164554
864.825	0.0166415
864.904	0.0167775
864.982	0.0167423
865.060	0.0167628
865.138	0.0167679
865.216	0.0166881
865.294	0.0167796
865.372	0.0167406
865.450	0.0167896
865.529	0.0168506
865.607	0.0168354
865.685	0.0167996
865.763	0.0168623
865.841	0.0167751
865.919	0.0167564
865.997	0.0168515
866.075	0.0166937
866.154	0.0167648
866.232	0.0167462
866.310	0.0166507
866.388	0.0166891
866.466	0.0166439
866.544	0.0166486
866.622	0.0165620
866.700	0.0165420
866.779	0.0165426
866.857	0.0164365
866.935	0.0164418
867.013	0.0165569
867.091	0.0165743
867.169	0.0165600
867.247	0.0166345
867.325	0.0166250
867.404	0.0165388
867.482	0.0166188
867.560	0.0166227
867.638	0.0166734
867.716	0.0166607
867.794	0.0167364
867.872	0.0166682
867.950	0.0167039
868.029	0.0167228
868.107	0.0166674
868.185	0.0168182
868.263	0.0169019
868.341	0.0167753
868.419	0.0168276
868.497	0.0167553
868.575	0.0168308
868.654	0.0166898
868.732	0.0168843
868.810	0.0167294
868.888	0.0167326
868.966	0.0167411
869.044	0.0167406
869.122	0.0168690
869.200	0.0167374
869.279	0.0167300
869.357	0.0167119
869.435	0.0167200
869.513	0.0166516
869.591	0.0165710
869.669	0.0166907
869.747	0.0166735
869.825	0.0166353
869.904	0.0165646
869.982	0.0166895
870.060	0.0166591
870.138	0.0165770
870.216	0.0166294
870.294	0.0165176
870.372	0.0165494
870.450	0.0164205
870.529	0.0163799
870.607	0.0166296
870.685	0.0164577
870.763	0.0163909
870.841	0.0164425
870.919	0.0165960
870.997	0.0164903
871.075	0.0164352
871.154	0.0163943
871.232	0.0164698
871.310	0.0165272
871.388	0.0164666
871.466	0.0164414
871.544	0.0163612
871.622	0.0165765
871.700	0.0164581
871.779	0.0164834
871.857	0.0166733
871.935	0.0166492
872.013	0.0165051
872.091	0.0165816
872.169	0.0167042
872.247	0.0165845
872.325	0.0166394
872.404	0.0166145
872.482	0.0166713
872.560	0.0167247
872.638	0.0166960
872.716	0.0168587
872.794	0.0169711
872.872	0.0168808
872.950	0.0167811
873.029	0.0170202
873.107	0.0170251
873.185	0.0170647
873.263	0.0170049
873.341	0.0169871
873.419	0.0169326
873.497	0.0170271
873.575	0.0171432
873.654	0.0169997
873.732	0.0170252
873.810	0.0170319
873.888	0.0169254
873.966	0.0169819
874.044	0.0169585
874.122	0.0168286
874.200	0.0168221
874.279	0.0167407
874.357	0.0168318
874.435	0.0168257
874.513	0.0168711
874.591	0.0167793
874.669	0.0167126
874.747	0.0167680
874.825	0.0167524
874.904	0.0165947
874.982	0.0165990
875.060	0.0165865
875.138	0.0166238
875.216	0.0166095
875.294	0.0165065
875.372	0.0166562
875.450	0.0164746
875.529	0.0163912
875.607	0.0164851
875.685	0.0164284
875.763	0.0163396
875.841	0.0163415
875.919	0.0162583
875.997	0.0163018
876.075	0.0163205
876.154	0.0164407
876.232	0.0163007
876.310	0.0163122
876.388	0.0162794
876.466	0.0163239
876.544	0.0163915
876.622	0.0162097
876.700	0.0164692
876.779	0.0164827
876.857	0.0162627
876.935	0.0163806
877.013	0.0164148
877.091	0.0164869
877.169	0.0166460
877.247	0.0164304
877.325	0.0166346
877.404	0.0165735
877.482	0.0166947
877.560	0.0168659
877.638	0.0168110
877.716	0.0167638
877.794	0.0168100
877.872	0.0168204
877.950	0.0168990
878.029	0.0169444
878.107	0.0169466
878.185	0.0170042
878.263	0.0168040
878.341	0.0169711
878.419	0.0170214
878.497	0.0169339
878.575	0.0168203
878.654	0.0169309
878.732	0.0168465
878.810	0.0168874
878.888	0.0169080
878.966	0.0169128
879.044	0.0168068
879.122	0.0170155
879.200	0.0168615
879.279	0.0167838
879.357	0.0168697
879.435	0.0167551
879.513	0.0167464
879.591	0.0166723
879.669	0.0167314
879.747	0.0167842
879.825	0.0167491
879.904	0.0167519
879.982	0.0166734
880.060	0.0165902
880.138	0.0166029
880.216	0.0166681
880.294	0.0166827
880.372	0.0166902
880.450	0.0165869
880.529	0.0165859
880.607	0.0167152
880.685	0.0167796
880.763	0.0167062
880.841	0.0165797
880.919	0.0167661
880.997	0.0167871
881.075	0.0168127
881.154	0.0166948
881.232	0.0166195
881.310	0.0167104
881.388	0.0166525
881.466	0.0167541
881.544	0.0167278
881.622	0.0166039
881.700	0.0166012
881.779	0.0166988
881.857	0.0167020
881.935	0.0165880
882.013	0.0165471
882.091	0.0165867
882.169	0.0165541
882.247	0.0165830
882.325	0.0163918
882.404	0.0166334
882.482	0.0165752
882.560	0.0165878
882.638	0.0165069
882.716	0.0165006
882.794	0.0163942
882.872	0.0164748
882.950	0.0165189
883.029	0.0163606
883.107	0.0163598
883.185	0.0165742
883.263	0.0163513
883.341	0.0164661
883.419	0.0166256
883.497	0.0165560
883.575	0.0164967
883.654	0.0164322
883.732	0.0165916
883.810	0.0166055
883.888	0.0166218
883.966	0.0166032
884.044	0.0166087
884.122	0.0166851
884.200	0.0166451
884.279	0.0166956
884.357	0.0167935
884.435	0.0167775
884.513	0.0167134
884.591	0.0168707
884.669	0.0168425
884.747	0.0168640
884.825	0.0168062
884.904	0.0168111
884.982	0.0168998
885.060	0.0168310
885.138	0.0169697
885.216	0.0168291
885.294	0.0167866
885.372	0.0167765
885.450	0.0169093
885.529	0.0169072
885.607	0.0167667
885.685	0.0167799
885.763	0.0167747
885.841	0.0167667
885.919	0.0166888
885.997	0.0167792
886.075	0.0166286
886.154	0.0164962
886.232	0.0165659
886.310	0.0164831
886.388	0.0166751
886.466	0.0164681
886.544	0.0164964
886.622	0.0166311
886.700	0.0163474
886.779	0.0163153
886.857	0.0164244
886.935	0.0163486
887.013	0.0163474
887.091	0.0166599
887.169	0.0165083
887.247	0.0165713
887.325	0.0164659
887.404	0.0165311
887.482	0.0164754
887.560	0.0164964
887.638	0.0164233
887.716	0.0165649
887.794	0.0166385
887.872	0.0165239
887.950	0.0164931
888.029	0.0166335
888.107	0.0165825
888.185	0.0166587
888.263	0.0165770
888.341	0.0166174
888.419	0.0166014
888.497	0.0166602
888.575	0.0167883
888.654	0.0166944
888.732	0.0166599
888.810	0.0167841
888.888	0.0167407
888.966	0.0168882
889.044	0.0166434
889.122	0.0166883
889.200	0.0167903
889.279	0.0169013
889.357	0.0168816
889.435	0.0166525
889.513	0.0168185
889.591	0.0167805
889.669	0.0167909
889.747	0.0169321
889.825	0.0167719
889.904	0.0168968
889.982	0.0168848
890.060	0.0169579
890.138	0.0169800
890.216	0.0167754
890.294	0.0167723
890.372	0.0169013
890.450	0.0167496
890.529	0.0167902
890.607	0.0167815
890.685	0.0166229
890.763	0.0166777
890.841	0.0167987
890.919	0.0166566
890.997	0.0166371
891.075	0.0167147
891.154	0.0165791
891.232	0.0165946
891.310	0.0165608
891.388	0.0165798
891.466	0.0165381
891.544	0.0166800
891.622	0.0165170
891.700	0.0164727
891.779	0.0164138
891.857	0.0165617
891.935	0.0165270
892.013	0.0164929
892.091	0.0165846
892.169	0.0165092
892.247	0.0166438
892.325	0.0164613
892.404	0.0164806
892.482	0.0165968
892.560	0.0165382
892.638	0.0166579
892.716	0.0166774
892.794	0.0165476
892.872	0.0165482
892.950	0.0166102
893.029	0.0166902
893.107	0.0167928
893.185	0.0165797
893.263	0.0165626
893.341	0.0165836
893.419	0.0164207
893.497	0.0164761
893.575	0.0166548
893.654	0.0164697
893.732	0.0168221
893.810	0.0166217
893.888	0.0165699
893.966	0.0167195
894.044	0.0166630
894.122	0.0166988
894.200	0.0168584
894.279	0.0168071
894.357	0.0168500
894.435	0.0167755
894.513	0.0167276
894.591	0.0167036
894.669	0.0168498
894.747	0.0168309
894.825	0.0167460
894.904	0.0168214
894.982	0.0167152
895.060	0.0166090
895.138	0.0165970
895.216	0.0165987
895.294	0.0165981
895.372	0.0166001
895.450	0.0164903
895.529	0.0165417
895.607	0.0164512
895.685	0.0164386
895.763	0.0164970
895.841	0.0164088
895.919	0.0164391
895.997	0.0166602
896.075	0.0165842
896.154	0.0165260
896.232	0.0164959
896.310	0.0165732
896.388	0.0165210
896.466	0.0165640
896.544	0.0165720
896.622	0.0166771
896.700	0.0167012
896.779	0.0167646
896.857	0.0166765
896.935	0.0165765
897.013	0.0167904
897.091	0.0168174
897.169	0.0169017
897.247	0.0168007
897.325	0.0167314
897.404	0.0167265
897.482	0.0168397
897.560	0.0166988
897.638	0.0167634
897.716	0.0168177
897.794	0.0166492
897.872	0.0167181
897.950	0.0167578
898.029	0.0167290
898.107	0.0166143
898.185	0.0166738
898.263	0.0166289
898.341	0.0166972
898.419	0.0167107
898.497	0.0166196
898.575	0.0165906
898.654	0.0165469
898.732	0.0166358
898.810	0.0166077
898.888	0.0165194
898.966	0.0165089
899.044	0.0165385
899.122	0.0165269
899.200	0.0164890
899.279	0.0165913
899.357	0.0165947
899.435	0.0165568
899.513	0.0165587
899.591	0.0164737
899.669	0.0165089
899.747	0.0166936
899.825	0.0165384
899.904	0.0165144
899.982	0.0165482
900.060	0.0165762
900.138	0.0165794
900.216	0.0166897
900.294	0.0166769
900.372	0.0165144
900.450	0.0166173
900.529	0.0167122
900.607	0.0166002
900.685	0.0165374
900.763	0.0166196
900.841	0.0167102
900.919	0.0167139
900.997	0.0165417
901.075	0.0166663
901.154	0.0166826
901.232	0.0166456
901.310	0.0166944
901.388	0.0167487
901.466	0.0166597
901.544	0.0165405
901.622	0.0165607
901.700	0.0165759
901.779	0.0166949
901.857	0.0165942
901.935	0.0166106
902.013	0.0166228
902.091	0.0166650
902.169	0.0168067
902.247	0.0166978
902.325	0.0167249
902.404	0.0167767
902.482	0.0166634
902.560	0.0167014
902.638	0.0168365
902.716	0.0166921
902.794	0.0166980
902.872	0.0165944
902.950	0.0167603
903.029	0.0167735
903.107	0.0168400
903.185	0.0168247
903.263	0.0168695
903.341	0.0168303
903.419	0.0168161
903.497	0.0167801
903.575	0.0167355
903.654	0.0167031
903.732	0.0167409
903.810	0.0166886
903.888	0.0166716
903.966	0.0167558
904.044	0.0167055
904.122	0.0166165
904.200	0.0165771
904.279	0.0167170
904.357	0.0165718
904.435	0.0165605
904.513	0.0166531
904.591	0.0166202
904.669	0.0166106
904.747	0.0166405
904.825	0.0165290
904.904	0.0166315
904.982	0.0165569
905.060	0.0165647
905.138	0.0165445
905.216	0.0165267
905.294	0.0165774
905.372	0.0165478
905.450	0.0165776
905.529	0.0163930
905.607	0.0164199
905.685	0.0165127
905.763	0.0163698
905.841	0.0166091
905.919	0.0165021
905.997	0.0163718
906.075	0.0165714
906.154	0.0164861
906.232	0.0164826
906.310	0.0163404
906.388	0.0164846
906.466	0.0164513
906.544	0.0164107
906.622	0.0165736
906.700	0.0167535
906.779	0.0166342
906.857	0.0165789
906.935	0.0165560
907.013	0.0167068
907.091	0.0166505
907.169	0.0167380
907.247	0.0167426
907.325	0.0165910
907.404	0.0166908
907.482	0.0166866
907.560	0.0166726
907.638	0.0165600
907.716	0.0166620
907.794	0.0165938
907.872	0.0166251
907.950	0.0165849
908.029	0.0166007
908.107	0.0166165
908.185	0.0166106
908.263	0.0166476
908.341	0.0165890
908.419	0.0165601
908.497	0.0167531
908.575	0.0168027
908.654	0.0166354
908.732	0.0167730
908.810	0.0167786
908.888	0.0167726
908.966	0.0168780
909.044	0.0167008
909.122	0.0167797
909.200	0.0167768
909.279	0.0168283
909.357	0.0169525
909.435	0.0168335
909.513	0.0168200
909.591	0.0167982
909.669	0.0167775
909.747	0.0167992
909.825	0.0167809
909.904	0.0166077
909.982	0.0166309
910.060	0.0166108
910.138	0.0165730
910.216	0.0165942
910.294	0.0166749
910.372	0.0163806
910.450	0.0164832
910.529	0.0165251
910.607	0.0165833
910.685	0.0164477
910.763	0.0164025
910.841	0.0165159
910.919	0.0164890
910.997	0.0164070
911.075	0.0166045
911.154	0.0163742
911.232	0.0164021
911.310	0.0165112
911.388	0.0165696
911.466	0.0164415
911.544	0.0166395
911.622	0.0166084
911.700	0.0164490
911.779	0.0166903
911.857	0.0166615
911.935	0.0166064
912.013	0.0168051
912.091	0.0167353
912.169	0.0166103
912.247	0.0166860
912.325	0.0167603
912.404	0.0167680
912.482	0.0167511
912.560	0.0167259
912.638	0.0166335
912.716	0.0165930
912.794	0.0164833
912.872	0.0165359
912.950	0.0167247
913.029	0.0164906
913.107	0.0164364
913.185	0.0165847
913.263	0.0165035
913.341	0.0164780
913.419	0.0165463
913.497	0.0165016
913.575	0.0165424
913.654	0.0165921
913.732	0.0166508
913.810	0.0166273
913.888	0.0166343
913.966	0.0166183
914.044	0.0167039
914.122	0.0167140
914.200	0.0166817
914.279	0.0168221
914.357	0.0170267
914.435	0.0169239
914.513	0.0168472
914.591	0.0169470
914.669	0.0170915
914.747	0.0169965
914.825	0.0169359
914.904	0.0170292
914.982	0.0169834
915.060	0.0168262
915.138	0.0168936
915.216	0.0169614
915.294	0.0169164
915.372	0.0168316
915.450	0.0167780
915.529	0.0167670
915.607	0.0166469
915.685	0.0167048
915.763	0.0166854
915.841	0.0166898
915.919	0.0166108
915.997	0.0165758
916.075	0.0163902
916.154	0.0164371
916.232	0.0164029
916.310	0.0164093
916.388	0.0165245
916.466	0.0165346
916.544	0.0164474
916.622	0.0165053
916.700	0.0163532
916.779	0.0164543
916.857	0.0165067
916.935	0.0165838
917.013	0.0165294
917.091	0.0166555
917.169	0.0165841
917.247	0.0165553
917.325	0.0165126
917.404	0.0165566
917.482	0.0166478
917.560	0.0166158
917.638	0.0164899
917.716	0.0166373
917.794	0.0166483
917.872	0.0165925
917.950	0.0166177
918.029	0.0165873
918.107	0.0166138
918.185	0.0167235
918.263	0.0167070
918.341	0.0167672
918.419	0.0168809
918.497	0.0167767
918.575	0.0166692
918.654	0.0168780
918.732	0.0167308
918.810	0.0166727
918.888	0.0169012
918.966	0.0168372
919.044	0.0166434
919.122	0.0166296
919.200	0.0168059
919.279	0.0168349
919.357	0.0166343
919.435	0.0167127
919.513	0.0166870
919.591	0.0167759
919.669	0.0167184
919.747	0.0165444
919.825	0.0168162
919.904	0.0166541
