06/01/2022	17:42:16	Ver.	4.1	UNKNOWN
Optical Delay	539.993571	Delta X		0.078125	Sweeps	1	Scan Rate	0/0
Coordinates	Axis 1	NaN	Axis 2	NaN	Axis 3	NaN	Axis 4	NaN	Axis 5	NaN	Axis 6	0.000000
TX Power	0.000000	RX Power	0.000000

539.994	0.0167530
540.072	0.0166576
540.150	0.0167638
540.228	0.0167435
540.306	0.0167896
540.384	0.0166980
540.462	0.0166788
540.540	0.0166459
540.619	0.0167451
540.697	0.0167152
540.775	0.0167393
540.853	0.0164505
540.931	0.0165862
541.009	0.0166609
541.087	0.0166744
541.165	0.0166467
541.244	0.0166432
541.322	0.0167020
541.400	0.0166806
541.478	0.0167027
541.556	0.0166030
541.634	0.0165249
541.712	0.0167619
541.790	0.0167731
541.869	0.0166489
541.947	0.0165553
542.025	0.0166974
542.103	0.0167472
542.181	0.0166277
542.259	0.0166898
542.337	0.0166358
542.415	0.0164819
542.494	0.0165878
542.572	0.0166599
542.650	0.0167259
542.728	0.0165779
542.806	0.0166525
542.884	0.0166107
542.962	0.0164632
543.040	0.0166718
543.119	0.0166605
543.197	0.0166016
543.275	0.0165540
543.353	0.0166219
543.431	0.0165434
543.509	0.0165952
543.587	0.0166759
543.665	0.0165481
543.744	0.0165439
543.822	0.0165539
543.900	0.0165722
543.978	0.0166656
544.056	0.0166245
544.134	0.0166576
544.212	0.0167324
544.290	0.0166962
544.369	0.0165529
544.447	0.0167162
544.525	0.0167017
544.603	0.0166415
544.681	0.0166154
544.759	0.0166505
544.837	0.0167027
544.915	0.0166336
544.994	0.0166741
545.072	0.0165641
545.150	0.0166203
545.228	0.0167387
545.306	0.0166911
545.384	0.0166393
545.462	0.0167878
545.540	0.0165931
545.619	0.0167033
545.697	0.0166853
545.775	0.0166801
545.853	0.0166754
545.931	0.0167547
546.009	0.0168198
546.087	0.0167689
546.165	0.0166595
546.244	0.0166719
546.322	0.0168143
546.400	0.0167966
546.478	0.0168682
546.556	0.0168671
546.634	0.0167524
546.712	0.0167603
546.790	0.0168275
546.869	0.0168016
546.947	0.0167627
547.025	0.0168037
547.103	0.0167401
547.181	0.0168240
547.259	0.0167451
547.337	0.0167514
547.415	0.0168060
547.494	0.0167581
547.572	0.0167764
547.650	0.0167866
547.728	0.0168010
547.806	0.0168224
547.884	0.0167133
547.962	0.0167776
548.040	0.0168718
548.119	0.0168324
548.197	0.0167608
548.275	0.0167612
548.353	0.0166810
548.431	0.0166784
548.509	0.0166725
548.587	0.0166338
548.665	0.0166157
548.744	0.0167303
548.822	0.0166911
548.900	0.0166940
548.978	0.0167852
549.056	0.0166953
549.134	0.0167329
549.212	0.0167427
549.290	0.0166750
549.369	0.0168356
549.447	0.0168176
549.525	0.0167173
549.603	0.0166751
549.681	0.0167970
549.759	0.0166570
549.837	0.0167517
549.915	0.0167515
549.994	0.0167388
550.072	0.0166812
550.150	0.0168417
550.228	0.0167016
550.306	0.0166907
550.384	0.0167010
550.462	0.0167109
550.540	0.0167593
550.619	0.0167913
550.697	0.0166579
550.775	0.0166915
550.853	0.0168129
550.931	0.0167373
551.009	0.0167155
551.087	0.0167208
551.165	0.0167867
551.244	0.0167037
551.322	0.0166776
551.400	0.0168813
551.478	0.0167722
551.556	0.0167847
551.634	0.0167883
551.712	0.0169411
551.790	0.0169222
551.869	0.0168801
551.947	0.0167439
552.025	0.0168355
552.103	0.0167971
552.181	0.0167453
552.259	0.0168132
552.337	0.0168824
552.415	0.0167787
552.494	0.0168564
552.572	0.0166873
552.650	0.0167900
552.728	0.0167515
552.806	0.0167976
552.884	0.0168551
552.962	0.0167612
553.040	0.0167755
553.119	0.0166791
553.197	0.0165964
553.275	0.0165991
553.353	0.0166320
553.431	0.0167018
553.509	0.0167232
553.587	0.0166661
553.665	0.0167085
553.744	0.0167603
553.822	0.0167520
553.900	0.0166837
553.978	0.0166814
554.056	0.0166468
554.134	0.0166680
554.212	0.0165903
554.290	0.0166684
554.369	0.0166005
554.447	0.0167327
554.525	0.0166886
554.603	0.0166520
554.681	0.0166882
554.759	0.0167325
554.837	0.0166472
554.915	0.0168140
554.994	0.0166629
555.072	0.0167206
555.150	0.0166259
555.228	0.0166698
555.306	0.0166186
555.384	0.0168135
555.462	0.0167058
555.540	0.0168598
555.619	0.0168150
555.697	0.0167276
555.775	0.0167317
555.853	0.0166678
555.931	0.0167388
556.009	0.0166861
556.087	0.0167653
556.165	0.0168002
556.244	0.0167466
556.322	0.0166187
556.400	0.0166929
556.478	0.0168849
556.556	0.0167882
556.634	0.0167429
556.712	0.0167554
556.790	0.0168349
556.869	0.0167931
556.947	0.0167702
557.025	0.0168268
557.103	0.0168659
557.181	0.0167947
557.259	0.0166547
557.337	0.0167707
557.415	0.0168275
557.494	0.0168848
557.572	0.0167724
557.650	0.0167505
557.728	0.0168157
557.806	0.0167341
557.884	0.0166992
557.962	0.0168314
558.040	0.0169032
558.119	0.0167890
558.197	0.0167953
558.275	0.0167335
558.353	0.0168403
558.431	0.0168074
558.509	0.0168729
558.587	0.0169093
558.665	0.0167513
558.744	0.0168378
558.822	0.0168416
558.900	0.0167879
558.978	0.0168468
559.056	0.0168732
559.134	0.0167384
559.212	0.0167265
559.290	0.0167786
559.369	0.0167543
559.447	0.0167134
559.525	0.0167023
559.603	0.0167061
559.681	0.0168494
559.759	0.0168839
559.837	0.0168624
559.915	0.0167493
559.994	0.0167822
560.072	0.0167767
560.150	0.0167445
560.228	0.0167851
560.306	0.0168687
560.384	0.0168743
560.462	0.0167242
560.540	0.0168419
560.619	0.0169193
560.697	0.0169320
560.775	0.0167238
560.853	0.0167593
560.931	0.0168929
561.009	0.0167951
561.087	0.0169022
561.165	0.0168130
561.244	0.0168642
561.322	0.0168047
561.400	0.0169459
561.478	0.0167891
561.556	0.0169142
561.634	0.0169264
561.712	0.0168142
561.790	0.0168026
561.869	0.0168414
561.947	0.0167682
562.025	0.0167907
562.103	0.0169082
562.181	0.0167656
562.259	0.0167873
562.337	0.0169421
562.415	0.0167085
562.494	0.0167828
562.572	0.0169456
562.650	0.0168146
562.728	0.0168389
562.806	0.0167706
562.884	0.0168292
562.962	0.0168430
563.040	0.0167953
563.119	0.0166647
563.197	0.0166026
563.275	0.0168623
563.353	0.0168939
563.431	0.0167043
563.509	0.0168346
563.587	0.0167262
563.665	0.0167838
563.744	0.0167396
563.822	0.0168390
563.900	0.0167558
563.978	0.0167453
564.056	0.0166152
564.134	0.0167094
564.212	0.0167095
564.290	0.0166920
564.369	0.0168409
564.447	0.0167836
564.525	0.0166947
564.603	0.0167194
564.681	0.0166247
564.759	0.0164497
564.837	0.0166045
564.915	0.0166259
564.994	0.0165096
565.072	0.0167131
565.150	0.0166904
565.228	0.0166259
565.306	0.0166585
565.384	0.0164996
565.462	0.0165424
565.540	0.0165437
565.619	0.0164899
565.697	0.0165738
565.775	0.0167317
565.853	0.0166234
565.931	0.0164921
566.009	0.0164872
566.087	0.0165845
566.165	0.0165755
566.244	0.0164604
566.322	0.0165205
566.400	0.0165688
566.478	0.0164294
566.556	0.0164118
566.634	0.0163491
566.712	0.0163237
566.790	0.0165578
566.869	0.0165502
566.947	0.0165667
567.025	0.0165517
567.103	0.0165377
567.181	0.0164951
567.259	0.0164977
567.337	0.0165599
567.415	0.0165701
567.494	0.0166267
567.572	0.0165648
567.650	0.0164198
567.728	0.0166277
567.806	0.0166135
567.884	0.0165701
567.962	0.0164808
568.040	0.0167009
568.119	0.0165940
568.197	0.0164266
568.275	0.0167616
568.353	0.0165717
568.431	0.0165986
568.509	0.0166576
568.587	0.0166421
568.665	0.0166357
568.744	0.0166953
568.822	0.0165812
568.900	0.0166016
568.978	0.0167864
569.056	0.0166627
569.134	0.0168362
569.212	0.0165680
569.290	0.0166393
569.369	0.0166594
569.447	0.0165281
569.525	0.0167313
569.603	0.0167290
569.681	0.0167318
569.759	0.0167035
569.837	0.0166074
569.915	0.0168709
569.994	0.0167748
570.072	0.0166299
570.150	0.0165464
570.228	0.0166994
570.306	0.0168044
570.384	0.0167429
570.462	0.0166830
570.540	0.0167036
570.619	0.0166940
570.697	0.0167390
570.775	0.0166526
570.853	0.0167457
570.931	0.0166910
571.009	0.0165594
571.087	0.0166216
571.165	0.0165910
571.244	0.0166129
571.322	0.0165578
571.400	0.0167151
571.478	0.0165849
571.556	0.0167345
571.634	0.0165933
571.712	0.0167370
571.790	0.0166330
571.869	0.0167191
571.947	0.0167924
572.025	0.0167542
572.103	0.0166805
572.181	0.0166438
572.259	0.0168387
572.337	0.0168842
572.415	0.0168007
572.494	0.0168959
572.572	0.0168365
572.650	0.0169854
572.728	0.0169386
572.806	0.0168803
572.884	0.0167153
572.962	0.0169823
573.040	0.0168378
573.119	0.0169567
573.197	0.0169768
573.275	0.0169011
573.353	0.0169002
573.431	0.0168706
573.509	0.0169020
573.587	0.0167561
573.665	0.0168734
573.744	0.0170155
573.822	0.0171012
573.900	0.0169421
573.978	0.0169613
574.056	0.0167891
574.134	0.0169015
574.212	0.0169311
574.290	0.0169436
574.369	0.0168510
574.447	0.0169231
574.525	0.0170132
574.603	0.0169659
574.681	0.0169864
574.759	0.0169148
574.837	0.0169530
574.915	0.0169778
574.994	0.0169692
575.072	0.0169794
575.150	0.0170432
575.228	0.0169038
575.306	0.0168250
575.384	0.0169535
575.462	0.0168978
575.540	0.0168034
575.619	0.0168526
575.697	0.0169209
575.775	0.0169364
575.853	0.0168860
575.931	0.0169142
576.009	0.0168882
576.087	0.0169968
576.165	0.0169460
576.244	0.0169009
576.322	0.0168706
576.400	0.0168621
576.478	0.0168982
576.556	0.0168784
576.634	0.0169746
576.712	0.0167819
576.790	0.0169444
576.869	0.0169591
576.947	0.0168495
577.025	0.0169195
577.103	0.0168511
577.181	0.0170071
577.259	0.0168578
577.337	0.0168484
577.415	0.0168271
577.494	0.0169485
577.572	0.0169574
577.650	0.0169113
577.728	0.0168577
577.806	0.0168356
577.884	0.0168571
577.962	0.0169229
578.040	0.0167898
578.119	0.0167942
578.197	0.0167958
578.275	0.0168222
578.353	0.0168500
578.431	0.0169051
578.509	0.0167871
578.587	0.0168236
578.665	0.0168893
578.744	0.0169474
578.822	0.0169003
578.900	0.0168595
578.978	0.0169080
579.056	0.0168148
579.134	0.0170299
579.212	0.0167969
579.290	0.0168162
579.369	0.0168821
579.447	0.0168474
579.525	0.0168047
579.603	0.0167344
579.681	0.0168585
579.759	0.0168266
579.837	0.0169650
579.915	0.0168602
579.994	0.0168275
580.072	0.0168447
580.150	0.0166747
580.228	0.0167506
580.306	0.0168484
580.384	0.0169559
580.462	0.0169181
580.540	0.0168528
580.619	0.0168656
580.697	0.0168549
580.775	0.0168386
580.853	0.0170384
580.931	0.0169818
581.009	0.0168813
581.087	0.0169373
581.165	0.0169926
581.244	0.0169254
581.322	0.0169563
581.400	0.0169344
581.478	0.0169551
581.556	0.0171464
581.634	0.0169128
581.712	0.0168679
581.790	0.0169802
581.869	0.0168652
581.947	0.0169580
582.025	0.0169052
582.103	0.0168546
582.181	0.0168271
582.259	0.0168184
582.337	0.0168475
582.415	0.0168142
582.494	0.0168198
582.572	0.0168375
582.650	0.0168478
582.728	0.0168541
582.806	0.0168731
582.884	0.0166652
582.962	0.0167474
583.040	0.0168687
583.119	0.0168143
583.197	0.0170486
583.275	0.0168492
583.353	0.0167273
583.431	0.0168604
583.509	0.0168015
583.587	0.0167546
583.665	0.0167436
583.744	0.0166927
583.822	0.0167860
583.900	0.0168457
583.978	0.0165758
584.056	0.0169333
584.134	0.0166543
584.212	0.0167245
584.290	0.0167677
584.369	0.0166170
584.447	0.0167372
584.525	0.0167429
584.603	0.0167427
584.681	0.0167575
584.759	0.0168043
584.837	0.0168048
584.915	0.0168344
584.994	0.0166663
585.072	0.0167440
585.150	0.0167216
585.228	0.0165660
585.306	0.0167929
585.384	0.0167690
585.462	0.0167320
585.540	0.0168219
585.619	0.0168180
585.697	0.0167605
585.775	0.0168878
585.853	0.0167577
585.931	0.0167116
586.009	0.0169367
586.087	0.0168454
586.165	0.0167879
586.244	0.0169173
586.322	0.0167231
586.400	0.0167570
586.478	0.0169002
586.556	0.0168560
586.634	0.0167081
586.712	0.0167982
586.790	0.0168250
586.869	0.0168359
586.947	0.0169280
587.025	0.0168166
587.103	0.0168703
587.181	0.0167779
587.259	0.0167210
587.337	0.0167620
587.415	0.0167888
587.494	0.0167562
587.572	0.0167459
587.650	0.0166678
587.728	0.0165959
587.806	0.0166393
587.884	0.0166234
587.962	0.0166560
588.040	0.0165713
588.119	0.0167844
588.197	0.0166615
588.275	0.0166953
588.353	0.0167751
588.431	0.0167561
588.509	0.0166161
588.587	0.0165932
588.665	0.0166685
588.744	0.0165259
588.822	0.0166788
588.900	0.0165803
588.978	0.0167600
589.056	0.0167034
589.134	0.0167861
589.212	0.0165894
589.290	0.0165105
589.369	0.0164400
589.447	0.0164964
589.525	0.0165387
589.603	0.0166219
589.681	0.0165900
589.759	0.0166296
589.837	0.0166422
589.915	0.0166096
589.994	0.0166968
590.072	0.0166346
590.150	0.0168174
590.228	0.0166296
590.306	0.0165956
590.384	0.0167148
590.462	0.0166514
590.540	0.0166128
590.619	0.0167115
590.697	0.0167578
590.775	0.0167455
590.853	0.0166756
590.931	0.0166439
591.009	0.0167388
591.087	0.0167672
591.165	0.0167581
591.244	0.0165738
591.322	0.0166872
591.400	0.0167061
591.478	0.0166673
591.556	0.0166415
591.634	0.0166698
591.712	0.0166565
591.790	0.0166949
591.869	0.0166604
591.947	0.0166575
592.025	0.0166118
592.103	0.0167504
592.181	0.0167310
592.259	0.0165932
592.337	0.0165983
592.415	0.0166882
592.494	0.0166436
592.572	0.0166390
592.650	0.0166660
592.728	0.0165175
592.806	0.0166759
592.884	0.0165453
592.962	0.0166126
593.040	0.0167017
593.119	0.0165997
593.197	0.0166562
593.275	0.0166261
593.353	0.0165908
593.431	0.0166574
593.509	0.0166645
593.587	0.0165392
593.665	0.0166475
593.744	0.0165753
593.822	0.0165875
593.900	0.0166256
593.978	0.0166114
594.056	0.0166299
594.134	0.0166029
594.212	0.0165837
594.290	0.0166283
594.369	0.0166329
594.447	0.0166800
594.525	0.0166482
594.603	0.0165448
594.681	0.0166981
594.759	0.0167111
594.837	0.0167648
594.915	0.0167059
594.994	0.0167324
595.072	0.0166383
595.150	0.0168098
595.228	0.0167255
595.306	0.0167114
595.384	0.0167833
595.462	0.0167999
595.540	0.0166776
595.619	0.0166706
595.697	0.0168690
595.775	0.0167052
595.853	0.0168743
595.931	0.0167926
596.009	0.0167056
596.087	0.0167327
596.165	0.0167386
596.244	0.0167970
596.322	0.0167226
596.400	0.0167976
596.478	0.0167854
596.556	0.0168475
596.634	0.0168079
596.712	0.0167879
596.790	0.0169016
596.869	0.0167439
596.947	0.0168687
597.025	0.0167429
597.103	0.0167266
597.181	0.0167171
597.259	0.0168697
597.337	0.0168755
597.415	0.0168804
597.494	0.0166572
597.572	0.0167396
597.650	0.0167768
597.728	0.0167885
597.806	0.0168433
597.884	0.0168452
597.962	0.0167410
598.040	0.0167256
598.119	0.0169517
598.197	0.0168130
598.275	0.0167490
598.353	0.0168110
598.431	0.0166426
598.509	0.0167676
598.587	0.0167614
598.665	0.0168875
598.744	0.0169140
598.822	0.0169123
598.900	0.0168204
598.978	0.0166837
599.056	0.0168982
599.134	0.0168546
599.212	0.0168942
599.290	0.0168964
599.369	0.0169404
599.447	0.0168507
599.525	0.0168338
599.603	0.0169951
599.681	0.0169763
599.759	0.0170313
599.837	0.0169342
599.915	0.0169189
599.994	0.0168965
600.072	0.0168569
600.150	0.0168946
600.228	0.0169471
600.306	0.0169663
600.384	0.0169731
600.462	0.0169402
600.540	0.0168489
600.619	0.0169292
600.697	0.0170194
600.775	0.0169608
600.853	0.0169819
600.931	0.0169951
601.009	0.0168053
601.087	0.0169221
601.165	0.0168885
601.244	0.0169302
601.322	0.0167937
601.400	0.0168544
601.478	0.0167368
601.556	0.0166660
601.634	0.0165368
601.712	0.0164817
601.790	0.0164365
601.869	0.0165047
601.947	0.0164634
602.025	0.0164994
602.103	0.0165734
602.181	0.0165217
602.259	0.0166971
602.337	0.0166491
602.415	0.0167812
602.494	0.0169341
602.572	0.0168546
602.650	0.0170786
602.728	0.0171516
602.806	0.0171196
602.884	0.0172215
602.962	0.0172689
603.040	0.0171069
603.119	0.0173475
603.197	0.0170094
603.275	0.0170990
603.353	0.0170231
603.431	0.0167319
603.509	0.0167796
603.587	0.0165150
603.665	0.0163735
603.744	0.0162811
603.822	0.0161355
603.900	0.0159885
603.978	0.0159940
604.056	0.0159738
604.134	0.0160186
604.212	0.0159210
604.290	0.0159878
604.369	0.0159565
604.447	0.0161977
604.525	0.0163999
604.603	0.0164742
604.681	0.0167016
604.759	0.0169614
604.837	0.0170338
604.915	0.0170393
604.994	0.0173430
605.072	0.0176369
605.150	0.0178282
605.228	0.0177250
605.306	0.0178764
605.384	0.0179006
605.462	0.0179053
605.540	0.0179076
605.619	0.0178395
605.697	0.0177785
605.775	0.0176222
605.853	0.0172668
605.931	0.0170023
606.009	0.0168392
606.087	0.0167989
606.165	0.0165935
606.244	0.0163336
606.322	0.0160397
606.400	0.0160652
606.478	0.0157907
606.556	0.0156335
606.634	0.0155399
606.712	0.0156783
606.790	0.0154731
606.869	0.0155644
606.947	0.0154550
607.025	0.0153854
607.103	0.0153957
607.181	0.0155920
607.259	0.0156884
607.337	0.0158643
607.415	0.0160732
607.494	0.0159189
607.572	0.0160453
607.650	0.0164098
607.728	0.0164351
607.806	0.0165828
607.884	0.0165603
607.962	0.0167010
608.040	0.0168700
608.119	0.0170753
608.197	0.0170851
608.275	0.0171775
608.353	0.0174038
608.431	0.0176426
608.509	0.0176558
608.587	0.0177230
608.665	0.0178067
608.744	0.0179370
608.822	0.0177518
608.900	0.0179494
608.978	0.0180933
609.056	0.0179688
609.134	0.0180087
609.212	0.0177130
609.290	0.0177406
609.369	0.0174433
609.447	0.0172900
609.525	0.0171082
609.603	0.0168723
609.681	0.0165992
609.759	0.0163705
609.837	0.0161102
609.915	0.0159525
609.994	0.0155920
610.072	0.0155092
610.150	0.0153222
610.228	0.0151784
610.306	0.0152746
610.384	0.0149775
610.462	0.0150261
610.540	0.0150456
610.619	0.0152101
610.697	0.0153338
610.775	0.0154527
610.853	0.0156632
610.931	0.0160381
611.009	0.0161793
611.087	0.0163318
611.165	0.0166762
611.244	0.0170974
611.322	0.0172134
611.400	0.0175720
611.478	0.0177408
611.556	0.0180600
611.634	0.0183163
611.712	0.0184742
611.790	0.0185108
611.869	0.0185760
611.947	0.0186269
612.025	0.0186869
612.103	0.0188013
612.181	0.0186465
612.259	0.0186756
612.337	0.0186446
612.415	0.0183864
612.494	0.0182916
612.572	0.0180495
612.650	0.0181239
612.728	0.0177614
612.806	0.0176817
612.884	0.0175009
612.962	0.0173891
613.040	0.0172118
613.119	0.0170686
613.197	0.0168472
613.275	0.0166698
613.353	0.0167773
613.431	0.0165171
613.509	0.0165199
613.587	0.0163757
613.665	0.0162432
613.744	0.0160078
613.822	0.0159692
613.900	0.0156010
613.978	0.0155758
614.056	0.0154764
614.134	0.0152319
614.212	0.0150803
614.290	0.0148175
614.369	0.0148015
614.447	0.0150919
614.525	0.0148519
614.603	0.0149030
614.681	0.0148385
614.759	0.0150951
614.837	0.0152930
614.915	0.0154902
614.994	0.0158325
615.072	0.0159321
615.150	0.0161099
615.228	0.0164613
615.306	0.0165562
615.384	0.0168883
615.462	0.0170898
615.540	0.0173460
615.619	0.0174927
615.697	0.0177016
615.775	0.0177985
615.853	0.0179957
615.931	0.0181842
616.009	0.0181629
616.087	0.0182520
616.165	0.0182718
616.244	0.0183745
616.322	0.0183308
616.400	0.0183986
616.478	0.0183900
616.556	0.0184605
616.634	0.0182531
616.712	0.0183106
616.790	0.0182781
616.869	0.0181463
616.947	0.0180890
617.025	0.0179177
617.103	0.0177733
617.181	0.0176817
617.259	0.0175114
617.337	0.0174061
617.415	0.0170148
617.494	0.0167996
617.572	0.0166451
617.650	0.0161950
617.728	0.0160172
617.806	0.0157250
617.884	0.0151623
617.962	0.0149957
618.040	0.0147348
618.119	0.0144465
618.197	0.0141680
618.275	0.0139026
618.353	0.0136752
618.431	0.0134740
618.509	0.0135271
618.587	0.0135069
618.665	0.0134814
618.744	0.0136066
618.822	0.0134084
618.900	0.0136289
618.978	0.0138372
619.056	0.0140505
619.134	0.0139593
619.212	0.0144988
619.290	0.0148174
619.369	0.0151781
619.447	0.0155689
619.525	0.0161673
619.603	0.0167908
619.681	0.0172180
619.759	0.0177628
619.837	0.0183450
619.915	0.0188457
619.994	0.0191582
620.072	0.0195552
620.150	0.0199197
620.228	0.0201180
620.306	0.0202992
620.384	0.0204620
620.462	0.0202504
620.540	0.0201556
620.619	0.0201384
620.697	0.0198569
620.775	0.0195720
620.853	0.0190938
620.931	0.0186495
621.009	0.0182924
621.087	0.0178991
621.165	0.0174956
621.244	0.0171529
621.322	0.0167115
621.400	0.0164012
621.478	0.0161845
621.556	0.0157191
621.634	0.0154587
621.712	0.0153108
621.790	0.0150071
621.869	0.0148261
621.947	0.0147498
622.025	0.0146905
622.103	0.0146498
622.181	0.0145162
622.259	0.0147575
622.337	0.0146244
622.415	0.0147425
622.494	0.0148929
622.572	0.0151089
622.650	0.0151871
622.728	0.0153539
622.806	0.0156724
622.884	0.0158011
622.962	0.0159221
623.040	0.0161626
623.119	0.0163345
623.197	0.0167422
623.275	0.0169374
623.353	0.0170237
623.431	0.0170596
623.509	0.0173360
623.587	0.0172852
623.665	0.0173752
623.744	0.0172363
623.822	0.0172771
623.900	0.0171054
623.978	0.0169366
624.056	0.0168382
624.134	0.0166179
624.212	0.0163252
624.290	0.0164557
624.369	0.0163194
624.447	0.0162139
624.525	0.0161679
624.603	0.0161378
624.681	0.0161795
624.759	0.0163141
624.837	0.0164970
624.915	0.0165548
624.994	0.0165904
625.072	0.0166592
625.150	0.0168425
625.228	0.0170926
625.306	0.0170641
625.384	0.0171867
625.462	0.0174125
625.540	0.0173714
625.619	0.0175957
625.697	0.0177560
625.775	0.0178038
625.853	0.0177921
625.931	0.0179828
626.009	0.0181065
626.087	0.0180613
626.165	0.0181322
626.244	0.0182412
626.322	0.0181993
626.400	0.0181348
626.478	0.0181919
626.556	0.0180187
626.634	0.0180893
626.712	0.0181111
626.790	0.0179519
626.869	0.0179343
626.947	0.0178481
627.025	0.0176826
627.103	0.0173299
627.181	0.0171939
627.259	0.0169935
627.337	0.0165726
627.415	0.0162189
627.494	0.0159923
627.572	0.0156326
627.650	0.0152397
627.728	0.0149051
627.806	0.0146426
627.884	0.0143534
627.962	0.0140984
628.040	0.0141087
628.119	0.0139843
628.197	0.0141751
628.275	0.0142654
628.353	0.0145330
628.431	0.0147581
628.509	0.0151463
628.587	0.0152999
628.665	0.0157297
628.744	0.0159625
628.822	0.0163081
628.900	0.0166341
628.978	0.0166633
629.056	0.0169576
629.134	0.0172414
629.212	0.0172621
629.290	0.0174133
629.369	0.0176823
629.447	0.0176920
629.525	0.0176109
629.603	0.0176502
629.681	0.0177945
629.759	0.0178565
629.837	0.0176791
629.915	0.0179405
629.994	0.0177917
630.072	0.0176582
630.150	0.0177731
630.228	0.0177020
630.306	0.0176271
630.384	0.0174420
630.462	0.0174101
630.540	0.0171264
630.619	0.0169564
630.697	0.0168048
630.775	0.0167753
630.853	0.0164491
630.931	0.0161926
631.009	0.0161860
631.087	0.0160555
631.165	0.0159090
631.244	0.0160181
631.322	0.0158415
631.400	0.0159458
631.478	0.0161569
631.556	0.0159799
631.634	0.0162608
631.712	0.0166042
631.790	0.0167471
631.869	0.0168884
631.947	0.0169531
632.025	0.0171247
632.103	0.0173433
632.181	0.0174697
632.259	0.0175608
632.337	0.0177236
632.415	0.0178764
632.494	0.0179618
632.572	0.0182494
632.650	0.0184253
632.728	0.0185131
632.806	0.0186695
632.884	0.0186646
632.962	0.0188239
633.040	0.0189311
633.119	0.0188106
633.197	0.0187643
633.275	0.0187205
633.353	0.0183761
633.431	0.0180956
633.509	0.0177059
633.587	0.0173991
633.665	0.0168112
633.744	0.0163041
633.822	0.0160231
633.900	0.0155270
633.978	0.0151254
634.056	0.0146631
634.134	0.0145147
634.212	0.0141497
634.290	0.0138049
634.369	0.0136546
634.447	0.0137156
634.525	0.0136334
634.603	0.0136561
634.681	0.0136620
634.759	0.0139120
634.837	0.0142629
634.915	0.0143447
634.994	0.0147450
635.072	0.0150647
635.150	0.0154861
635.228	0.0158499
635.306	0.0162651
635.384	0.0165962
635.462	0.0171430
635.540	0.0174909
635.619	0.0175562
635.697	0.0178870
635.775	0.0181715
635.853	0.0184982
635.931	0.0186727
636.009	0.0185952
636.087	0.0186940
636.165	0.0187965
636.244	0.0189476
636.322	0.0189517
636.400	0.0190678
636.478	0.0189668
636.556	0.0188870
636.634	0.0188214
636.712	0.0188334
636.790	0.0187007
636.869	0.0185363
636.947	0.0182730
637.025	0.0181858
637.103	0.0179468
637.181	0.0177232
637.259	0.0174947
637.337	0.0171317
637.415	0.0168759
637.494	0.0166652
637.572	0.0163569
637.650	0.0163355
637.728	0.0160444
637.806	0.0159407
637.884	0.0158389
637.962	0.0158086
638.040	0.0157520
638.119	0.0158748
638.197	0.0159201
638.275	0.0160202
638.353	0.0161914
638.431	0.0161002
638.509	0.0164028
638.587	0.0164830
638.665	0.0166240
638.744	0.0165446
638.822	0.0164511
638.900	0.0167632
638.978	0.0166949
639.056	0.0167087
639.134	0.0167563
639.212	0.0166763
639.290	0.0165681
639.369	0.0164867
639.447	0.0161784
639.525	0.0163519
639.603	0.0159811
639.681	0.0157977
639.759	0.0156924
639.837	0.0154396
639.915	0.0151942
639.994	0.0150355
640.072	0.0147755
640.150	0.0146309
640.228	0.0145041
640.306	0.0144319
640.384	0.0144546
640.462	0.0145518
640.540	0.0145028
640.619	0.0148093
640.697	0.0148285
640.775	0.0149589
640.853	0.0153488
640.931	0.0154973
641.009	0.0158833
641.087	0.0159785
641.165	0.0161932
641.244	0.0166667
641.322	0.0168298
641.400	0.0170563
641.478	0.0171227
641.556	0.0173233
641.634	0.0175540
641.712	0.0176015
641.790	0.0179917
641.869	0.0179881
641.947	0.0181380
642.025	0.0181022
642.103	0.0181864
642.181	0.0183230
642.259	0.0185029
642.337	0.0183787
642.415	0.0184565
642.494	0.0184718
642.572	0.0184833
642.650	0.0184245
642.728	0.0185311
642.806	0.0184483
642.884	0.0183963
642.962	0.0182278
643.040	0.0182294
643.119	0.0180346
643.197	0.0181654
643.275	0.0180547
643.353	0.0181435
643.431	0.0180641
643.509	0.0180295
643.587	0.0180461
643.665	0.0180720
643.744	0.0179918
643.822	0.0180272
643.900	0.0180232
643.978	0.0178402
644.056	0.0177154
644.134	0.0175283
644.212	0.0173628
644.290	0.0171387
644.369	0.0170539
644.447	0.0168664
644.525	0.0165714
644.603	0.0162974
644.681	0.0159334
644.759	0.0157069
644.837	0.0156307
644.915	0.0155869
644.994	0.0154199
645.072	0.0153188
645.150	0.0151262
645.228	0.0152568
645.306	0.0152250
645.384	0.0152218
645.462	0.0153292
645.540	0.0154756
645.619	0.0155518
645.697	0.0154652
645.775	0.0157210
645.853	0.0156366
645.931	0.0157114
646.009	0.0158047
646.087	0.0157691
646.165	0.0158145
646.244	0.0157733
646.322	0.0156422
646.400	0.0157198
646.478	0.0158513
646.556	0.0158138
646.634	0.0157940
646.712	0.0158915
646.790	0.0160114
646.869	0.0163218
646.947	0.0164427
647.025	0.0164523
647.103	0.0165324
647.181	0.0167232
647.259	0.0166080
647.337	0.0166116
647.415	0.0167230
647.494	0.0168956
647.572	0.0168092
647.650	0.0166756
647.728	0.0167458
647.806	0.0168373
647.884	0.0168634
647.962	0.0168687
648.040	0.0169444
648.119	0.0169810
648.197	0.0173133
648.275	0.0172314
648.353	0.0173447
648.431	0.0175866
648.509	0.0176624
648.587	0.0179137
648.665	0.0181181
648.744	0.0183447
648.822	0.0184148
648.900	0.0184766
648.978	0.0186404
649.056	0.0189064
649.134	0.0188519
649.212	0.0189149
649.290	0.0187485
649.369	0.0187609
649.447	0.0187771
649.525	0.0185829
649.603	0.0184041
649.681	0.0183588
649.759	0.0183231
649.837	0.0179776
649.915	0.0178019
649.994	0.0175861
650.072	0.0174524
650.150	0.0171274
650.228	0.0170485
650.306	0.0167336
650.384	0.0165058
650.462	0.0163901
650.540	0.0162720
650.619	0.0160278
650.697	0.0156261
650.775	0.0155345
650.853	0.0154405
650.931	0.0149333
651.009	0.0149280
651.087	0.0146327
651.165	0.0144994
651.244	0.0143450
651.322	0.0142422
651.400	0.0141527
651.478	0.0140842
651.556	0.0141691
651.634	0.0140660
651.712	0.0141944
651.790	0.0146761
651.869	0.0145541
651.947	0.0147780
652.025	0.0152747
652.103	0.0154863
652.181	0.0155930
652.259	0.0159087
652.337	0.0164568
652.415	0.0165809
652.494	0.0168048
652.572	0.0169491
652.650	0.0173798
652.728	0.0175809
652.806	0.0177179
652.884	0.0180734
652.962	0.0181062
653.040	0.0181275
653.119	0.0183967
653.197	0.0184285
653.275	0.0182510
653.353	0.0182076
653.431	0.0181445
653.509	0.0181153
653.587	0.0179607
653.665	0.0177763
653.744	0.0175744
653.822	0.0174700
653.900	0.0175579
653.978	0.0171900
654.056	0.0170184
654.134	0.0168845
654.212	0.0167086
654.290	0.0167104
654.369	0.0165128
654.447	0.0164075
654.525	0.0163222
654.603	0.0162132
654.681	0.0162126
654.759	0.0159782
654.837	0.0159559
654.915	0.0158923
654.994	0.0159328
655.072	0.0159951
655.150	0.0162475
655.228	0.0162981
655.306	0.0164662
655.384	0.0168919
655.462	0.0170806
655.540	0.0172398
655.619	0.0176106
655.697	0.0181259
655.775	0.0183061
655.853	0.0186150
655.931	0.0188199
656.009	0.0189361
656.087	0.0191294
656.165	0.0190373
656.244	0.0193430
656.322	0.0191487
656.400	0.0191537
656.478	0.0191216
656.556	0.0188398
656.634	0.0185790
656.712	0.0183284
656.790	0.0181119
656.869	0.0180186
656.947	0.0177110
657.025	0.0173491
657.103	0.0170344
657.181	0.0168267
657.259	0.0163966
657.337	0.0160938
657.415	0.0159173
657.494	0.0153729
657.572	0.0151051
657.650	0.0147269
657.728	0.0144132
657.806	0.0142229
657.884	0.0139350
657.962	0.0136926
658.040	0.0135152
658.119	0.0135181
658.197	0.0133683
658.275	0.0134546
658.353	0.0137509
658.431	0.0138346
658.509	0.0140479
658.587	0.0143657
658.665	0.0148351
658.744	0.0149801
658.822	0.0153641
658.900	0.0157624
658.978	0.0163340
659.056	0.0165537
659.134	0.0167906
659.212	0.0172025
659.290	0.0175132
659.369	0.0175644
659.447	0.0179025
659.525	0.0179707
659.603	0.0181824
659.681	0.0182894
659.759	0.0183834
659.837	0.0182500
659.915	0.0183975
659.994	0.0183412
660.072	0.0181577
660.150	0.0180730
660.228	0.0180165
660.306	0.0179588
660.384	0.0177080
660.462	0.0175800
660.540	0.0173631
660.619	0.0172765
660.697	0.0170886
660.775	0.0169988
660.853	0.0169059
660.931	0.0167602
661.009	0.0168752
661.087	0.0166924
661.165	0.0167000
661.244	0.0167407
661.322	0.0168771
661.400	0.0167811
661.478	0.0169894
661.556	0.0171367
661.634	0.0171268
661.712	0.0172466
661.790	0.0173226
661.869	0.0173363
661.947	0.0173367
662.025	0.0174447
662.103	0.0172512
662.181	0.0172855
662.259	0.0170857
662.337	0.0171040
662.415	0.0170556
662.494	0.0170396
662.572	0.0167741
662.650	0.0167162
662.728	0.0167400
662.806	0.0167101
662.884	0.0166146
662.962	0.0165915
663.040	0.0164143
663.119	0.0162870
663.197	0.0164262
663.275	0.0161793
663.353	0.0162222
663.431	0.0161227
663.509	0.0161882
663.587	0.0161926
663.665	0.0162760
663.744	0.0161880
663.822	0.0160405
663.900	0.0161100
663.978	0.0159632
664.056	0.0160567
664.134	0.0160700
664.212	0.0160342
664.290	0.0158993
664.369	0.0157768
664.447	0.0156768
664.525	0.0155039
664.603	0.0155312
664.681	0.0154684
664.759	0.0153872
664.837	0.0151907
664.915	0.0153780
664.994	0.0153964
665.072	0.0151997
665.150	0.0154266
665.228	0.0154083
665.306	0.0155205
665.384	0.0156168
665.462	0.0158828
665.540	0.0159912
665.619	0.0163252
665.697	0.0165076
665.775	0.0167538
665.853	0.0168687
665.931	0.0168926
666.009	0.0170719
666.087	0.0173190
666.165	0.0174380
666.244	0.0175923
666.322	0.0177287
666.400	0.0177802
666.478	0.0179709
666.556	0.0180269
666.634	0.0180289
666.712	0.0181997
666.790	0.0185149
666.869	0.0184795
666.947	0.0185768
667.025	0.0186375
667.103	0.0186315
667.181	0.0186547
667.259	0.0185156
667.337	0.0184835
667.415	0.0185061
667.494	0.0183998
667.572	0.0182989
667.650	0.0180365
667.728	0.0178651
667.806	0.0176111
667.884	0.0173742
667.962	0.0172935
668.040	0.0171460
668.119	0.0168173
668.197	0.0166708
668.275	0.0165476
668.353	0.0164791
668.431	0.0164738
668.509	0.0165069
668.587	0.0163306
668.665	0.0162193
668.744	0.0163459
668.822	0.0162146
668.900	0.0161898
668.978	0.0162841
669.056	0.0160588
669.134	0.0161118
669.212	0.0161862
669.290	0.0160962
669.369	0.0160292
669.447	0.0160883
669.525	0.0160885
669.603	0.0160886
669.681	0.0162434
669.759	0.0162437
669.837	0.0160987
669.915	0.0160783
669.994	0.0162220
670.072	0.0161281
670.150	0.0162122
670.228	0.0161153
670.306	0.0160420
670.384	0.0161442
670.462	0.0163779
670.540	0.0161712
670.619	0.0160490
670.697	0.0161454
670.775	0.0160778
670.853	0.0160576
670.931	0.0162943
671.009	0.0159656
671.087	0.0161977
671.165	0.0160194
671.244	0.0159910
671.322	0.0160604
671.400	0.0162017
671.478	0.0162487
671.556	0.0164021
671.634	0.0164573
671.712	0.0166430
671.790	0.0168530
671.869	0.0169440
671.947	0.0171270
672.025	0.0174071
672.103	0.0174712
672.181	0.0177358
672.259	0.0179105
672.337	0.0181438
672.415	0.0183030
672.494	0.0185001
672.572	0.0185700
672.650	0.0186156
672.728	0.0187402
672.806	0.0186830
672.884	0.0185973
672.962	0.0184752
673.040	0.0184602
673.119	0.0185101
673.197	0.0183356
673.275	0.0181491
673.353	0.0181490
673.431	0.0179071
673.509	0.0178391
673.587	0.0177381
673.665	0.0173754
673.744	0.0172432
673.822	0.0172170
673.900	0.0169807
673.978	0.0169156
674.056	0.0168204
674.134	0.0166614
674.212	0.0164478
674.290	0.0163617
674.369	0.0162465
674.447	0.0160535
674.525	0.0159061
674.603	0.0159464
674.681	0.0157407
674.759	0.0157499
674.837	0.0158324
674.915	0.0156250
674.994	0.0158138
675.072	0.0157880
675.150	0.0159298
675.228	0.0159074
675.306	0.0158973
675.384	0.0160825
675.462	0.0161892
675.540	0.0162607
675.619	0.0162346
675.697	0.0162210
675.775	0.0163075
675.853	0.0162132
675.931	0.0164250
676.009	0.0165148
676.087	0.0163494
676.165	0.0163793
676.244	0.0165259
676.322	0.0164680
676.400	0.0165658
676.478	0.0164951
676.556	0.0165310
676.634	0.0166121
676.712	0.0167381
676.790	0.0167318
676.869	0.0168816
676.947	0.0168078
677.025	0.0168687
677.103	0.0170906
677.181	0.0170525
677.259	0.0169961
677.337	0.0173835
677.415	0.0171068
677.494	0.0170949
677.572	0.0171513
677.650	0.0172371
677.728	0.0171320
677.806	0.0168748
677.884	0.0169707
677.962	0.0168581
678.040	0.0168565
678.119	0.0167621
678.197	0.0167265
678.275	0.0167085
678.353	0.0165898
678.431	0.0166567
678.509	0.0167131
678.587	0.0167750
678.665	0.0167532
678.744	0.0167549
678.822	0.0169456
678.900	0.0168917
678.978	0.0170062
679.056	0.0170929
679.134	0.0170221
679.212	0.0169814
679.290	0.0170853
679.369	0.0168786
679.447	0.0170482
679.525	0.0169485
679.603	0.0170145
679.681	0.0168964
679.759	0.0167815
679.837	0.0167768
679.915	0.0168826
679.994	0.0167805
680.072	0.0166351
680.150	0.0166001
680.228	0.0163464
680.306	0.0163976
680.384	0.0163947
680.462	0.0164131
680.540	0.0163111
680.619	0.0162970
680.697	0.0163257
680.775	0.0163172
680.853	0.0162981
680.931	0.0162293
681.009	0.0161805
681.087	0.0159830
681.165	0.0161016
681.244	0.0160777
681.322	0.0161404
681.400	0.0161674
681.478	0.0160392
681.556	0.0160667
681.634	0.0160632
681.712	0.0160200
681.790	0.0160525
681.869	0.0160803
681.947	0.0162872
682.025	0.0163889
682.103	0.0163624
682.181	0.0164776
682.259	0.0165898
682.337	0.0166471
682.415	0.0168417
682.494	0.0168394
682.572	0.0168797
682.650	0.0168301
682.728	0.0170603
682.806	0.0171370
682.884	0.0171992
682.962	0.0171506
683.040	0.0172285
683.119	0.0173301
683.197	0.0173390
683.275	0.0173553
683.353	0.0171980
683.431	0.0173928
683.509	0.0173570
683.587	0.0172385
683.665	0.0171722
683.744	0.0171123
683.822	0.0170869
683.900	0.0170321
683.978	0.0168554
684.056	0.0169178
684.134	0.0167378
684.212	0.0166325
684.290	0.0166844
684.369	0.0166418
684.447	0.0164779
684.525	0.0164088
684.603	0.0162804
684.681	0.0161798
684.759	0.0162332
684.837	0.0163239
684.915	0.0162632
684.994	0.0160239
685.072	0.0160429
685.150	0.0161162
685.228	0.0162297
685.306	0.0162749
685.384	0.0162428
685.462	0.0162357
685.540	0.0161515
685.619	0.0163151
685.697	0.0163750
685.775	0.0163346
685.853	0.0163417
685.931	0.0163239
686.009	0.0162879
686.087	0.0164346
686.165	0.0163992
686.244	0.0162921
686.322	0.0164370
686.400	0.0165193
686.478	0.0164738
686.556	0.0165489
686.634	0.0167099
686.712	0.0167287
686.790	0.0168549
686.869	0.0168140
686.947	0.0167572
687.025	0.0169202
687.103	0.0169897
687.181	0.0170853
687.259	0.0169965
687.337	0.0169753
687.415	0.0169703
687.494	0.0170319
687.572	0.0169801
687.650	0.0168961
687.728	0.0170706
687.806	0.0169719
687.884	0.0170142
687.962	0.0169886
688.040	0.0169839
688.119	0.0170132
688.197	0.0171416
688.275	0.0171233
688.353	0.0170029
688.431	0.0170258
688.509	0.0169135
688.587	0.0169256
688.665	0.0168591
688.744	0.0169747
688.822	0.0168969
688.900	0.0167558
688.978	0.0168177
689.056	0.0169720
689.134	0.0168695
689.212	0.0167957
689.290	0.0167892
689.369	0.0167966
689.447	0.0168352
689.525	0.0169607
689.603	0.0168313
689.681	0.0167566
689.759	0.0168196
689.837	0.0167796
689.915	0.0167478
689.994	0.0167292
690.072	0.0167289
690.150	0.0167429
690.228	0.0167352
690.306	0.0166860
690.384	0.0167205
690.462	0.0168943
690.540	0.0167179
690.619	0.0166998
690.697	0.0168753
690.775	0.0167901
690.853	0.0166550
690.931	0.0167300
691.009	0.0166627
691.087	0.0167774
691.165	0.0168102
691.244	0.0167744
691.322	0.0166016
691.400	0.0166265
691.478	0.0165576
691.556	0.0164481
691.634	0.0164189
691.712	0.0162578
691.790	0.0161100
691.869	0.0162883
691.947	0.0161531
692.025	0.0161758
692.103	0.0162927
692.181	0.0161543
692.259	0.0162418
692.337	0.0163737
692.415	0.0164671
692.494	0.0165328
692.572	0.0167976
692.650	0.0168661
692.728	0.0166734
692.806	0.0166920
692.884	0.0168150
692.962	0.0170497
693.040	0.0170776
693.119	0.0169711
693.197	0.0170611
693.275	0.0172315
693.353	0.0171091
693.431	0.0171529
693.509	0.0171190
693.587	0.0170387
693.665	0.0172472
693.744	0.0170217
693.822	0.0171760
693.900	0.0172161
693.978	0.0171875
694.056	0.0171706
694.134	0.0171267
694.212	0.0171759
694.290	0.0172066
694.369	0.0172418
694.447	0.0171543
694.525	0.0170499
694.603	0.0171029
694.681	0.0171211
694.759	0.0170175
694.837	0.0170164
694.915	0.0168666
694.994	0.0169378
695.072	0.0168198
695.150	0.0167022
695.228	0.0167916
695.306	0.0168824
695.384	0.0167415
695.462	0.0166571
695.540	0.0166909
695.619	0.0165988
695.697	0.0166316
695.775	0.0164935
695.853	0.0166781
695.931	0.0165581
696.009	0.0165951
696.087	0.0165509
696.165	0.0164146
696.244	0.0164551
696.322	0.0164745
696.400	0.0165177
696.478	0.0164600
696.556	0.0164906
696.634	0.0166212
696.712	0.0164382
696.790	0.0164461
696.869	0.0165181
696.947	0.0164928
697.025	0.0164608
697.103	0.0165452
697.181	0.0166564
697.259	0.0166222
697.337	0.0164394
697.415	0.0166525
697.494	0.0165641
697.572	0.0167082
697.650	0.0167200
697.728	0.0166373
697.806	0.0167081
697.884	0.0166763
697.962	0.0167198
698.040	0.0167870
698.119	0.0168377
698.197	0.0166631
698.275	0.0166473
698.353	0.0168385
698.431	0.0167002
698.509	0.0166251
698.587	0.0167986
698.665	0.0167781
698.744	0.0167198
698.822	0.0168775
698.900	0.0167448
698.978	0.0166946
699.056	0.0167411
699.134	0.0166189
699.212	0.0165992
699.290	0.0164103
699.369	0.0164252
699.447	0.0164603
699.525	0.0162761
699.603	0.0163931
699.681	0.0164162
699.759	0.0163350
699.837	0.0165398
699.915	0.0164688
699.994	0.0165142
700.072	0.0166117
700.150	0.0165207
700.228	0.0166722
700.306	0.0167474
700.384	0.0167264
700.462	0.0167354
700.540	0.0168143
700.619	0.0167870
700.697	0.0168116
700.775	0.0168733
700.853	0.0169454
700.931	0.0169256
701.009	0.0166991
701.087	0.0167487
701.165	0.0168720
701.244	0.0170072
701.322	0.0169359
701.400	0.0169258
701.478	0.0169965
701.556	0.0170258
701.634	0.0169903
701.712	0.0169959
701.790	0.0171026
701.869	0.0171648
701.947	0.0168581
702.025	0.0168510
702.103	0.0168660
702.181	0.0166760
702.259	0.0166576
702.337	0.0165090
702.415	0.0166293
702.494	0.0165228
702.572	0.0164653
702.650	0.0163804
702.728	0.0162871
702.806	0.0162849
702.884	0.0162434
702.962	0.0161545
703.040	0.0159801
703.119	0.0162135
703.197	0.0160732
703.275	0.0161199
703.353	0.0162582
703.431	0.0162493
703.509	0.0162087
703.587	0.0163201
703.665	0.0163638
703.744	0.0163426
703.822	0.0163961
703.900	0.0165079
703.978	0.0164967
704.056	0.0164917
704.134	0.0164742
704.212	0.0165978
704.290	0.0167524
704.369	0.0167118
704.447	0.0168140
704.525	0.0169202
704.603	0.0168510
704.681	0.0169458
704.759	0.0169775
704.837	0.0170805
704.915	0.0172711
704.994	0.0171802
705.072	0.0172533
705.150	0.0172534
705.228	0.0173348
705.306	0.0172911
705.384	0.0173503
705.462	0.0172139
705.540	0.0172662
705.619	0.0173241
705.697	0.0174319
705.775	0.0172196
705.853	0.0171723
705.931	0.0172181
706.009	0.0170884
706.087	0.0169935
706.165	0.0170235
706.244	0.0168432
706.322	0.0167834
706.400	0.0166917
706.478	0.0165952
706.556	0.0165626
706.634	0.0166344
706.712	0.0164703
706.790	0.0164437
706.869	0.0164195
706.947	0.0163772
707.025	0.0164918
707.103	0.0163654
707.181	0.0163390
707.259	0.0165215
707.337	0.0164844
707.415	0.0165475
707.494	0.0166115
707.572	0.0165877
707.650	0.0167560
707.728	0.0168459
707.806	0.0168214
707.884	0.0169442
707.962	0.0169247
708.040	0.0170374
708.119	0.0170705
708.197	0.0170241
708.275	0.0170798
708.353	0.0171721
708.431	0.0173104
708.509	0.0171735
708.587	0.0172820
708.665	0.0172919
708.744	0.0172643
708.822	0.0172154
708.900	0.0173489
708.978	0.0173528
709.056	0.0172766
709.134	0.0173595
709.212	0.0172869
709.290	0.0172094
709.369	0.0171679
709.447	0.0172477
709.525	0.0170927
709.603	0.0170705
709.681	0.0170083
709.759	0.0169694
709.837	0.0169655
709.915	0.0169289
709.994	0.0168989
710.072	0.0168230
710.150	0.0166779
710.228	0.0166990
710.306	0.0166066
710.384	0.0166558
710.462	0.0164986
710.540	0.0165481
710.619	0.0164878
710.697	0.0164091
710.775	0.0162730
710.853	0.0163523
710.931	0.0162818
711.009	0.0163442
711.087	0.0162782
711.165	0.0164230
711.244	0.0164441
711.322	0.0163941
711.400	0.0165436
711.478	0.0164754
711.556	0.0166579
711.634	0.0167802
711.712	0.0167535
711.790	0.0167941
711.869	0.0168887
711.947	0.0168910
712.025	0.0171200
712.103	0.0170224
712.181	0.0171228
712.259	0.0171010
712.337	0.0170573
712.415	0.0169966
712.494	0.0172266
712.572	0.0170654
712.650	0.0170941
712.728	0.0171392
712.806	0.0170831
712.884	0.0169575
712.962	0.0168624
713.040	0.0169846
713.119	0.0169321
713.197	0.0169530
713.275	0.0167088
713.353	0.0167393
713.431	0.0166657
713.509	0.0163976
713.587	0.0164603
713.665	0.0165803
713.744	0.0165650
713.822	0.0164885
713.900	0.0162249
713.978	0.0163249
714.056	0.0163718
714.134	0.0163377
714.212	0.0162156
714.290	0.0162870
714.369	0.0162343
714.447	0.0164021
714.525	0.0164852
714.603	0.0163731
714.681	0.0162180
714.759	0.0162445
714.837	0.0163387
714.915	0.0163354
714.994	0.0163866
715.072	0.0164330
715.150	0.0165283
715.228	0.0164424
715.306	0.0165000
715.384	0.0164751
715.462	0.0166423
715.540	0.0167123
715.619	0.0166517
715.697	0.0167481
715.775	0.0168864
715.853	0.0167352
715.931	0.0168452
716.009	0.0169676
716.087	0.0170651
716.165	0.0171645
716.244	0.0170526
716.322	0.0170235
716.400	0.0171304
716.478	0.0171416
716.556	0.0173961
716.634	0.0174289
716.712	0.0172264
716.790	0.0172359
716.869	0.0171971
716.947	0.0171873
717.025	0.0172726
717.103	0.0169302
717.181	0.0170780
717.259	0.0170986
717.337	0.0170599
717.415	0.0169456
717.494	0.0169540
717.572	0.0168370
717.650	0.0167617
717.728	0.0168199
717.806	0.0167602
717.884	0.0166623
717.962	0.0166533
718.040	0.0165862
718.119	0.0165458
718.197	0.0165691
718.275	0.0164182
718.353	0.0164954
718.431	0.0165677
718.509	0.0164725
718.587	0.0164209
718.665	0.0165440
718.744	0.0164769
718.822	0.0164290
718.900	0.0164848
718.978	0.0164825
719.056	0.0164971
719.134	0.0163493
719.212	0.0165100
719.290	0.0164011
719.369	0.0165157
719.447	0.0165799
719.525	0.0165422
719.603	0.0164294
719.681	0.0165221
719.759	0.0164963
719.837	0.0163579
719.915	0.0165209
719.994	0.0165604
720.072	0.0164728
720.150	0.0163923
720.228	0.0164123
720.306	0.0164646
720.384	0.0164647
720.462	0.0163229
720.540	0.0164499
720.619	0.0162950
720.697	0.0163326
720.775	0.0164442
720.853	0.0163132
720.931	0.0162946
721.009	0.0165056
721.087	0.0163844
721.165	0.0161990
721.244	0.0163680
721.322	0.0164252
721.400	0.0164317
721.478	0.0165794
721.556	0.0163626
721.634	0.0163418
721.712	0.0163963
721.790	0.0164764
721.869	0.0166160
721.947	0.0165160
722.025	0.0165868
722.103	0.0166689
722.181	0.0167416
722.259	0.0167951
722.337	0.0167884
722.415	0.0170001
722.494	0.0168716
722.572	0.0168974
722.650	0.0169214
722.728	0.0170927
722.806	0.0169714
722.884	0.0169630
722.962	0.0169860
723.040	0.0170809
723.119	0.0171862
723.197	0.0170603
723.275	0.0168843
723.353	0.0171509
723.431	0.0170081
723.509	0.0170340
723.587	0.0170165
723.665	0.0169318
723.744	0.0168550
723.822	0.0168153
723.900	0.0168055
723.978	0.0167731
724.056	0.0166579
724.134	0.0164178
724.212	0.0164397
724.290	0.0164699
724.369	0.0163517
724.447	0.0162643
724.525	0.0162345
724.603	0.0163466
724.681	0.0162891
724.759	0.0161203
724.837	0.0162547
724.915	0.0163934
724.994	0.0162915
725.072	0.0163272
725.150	0.0162764
725.228	0.0163343
725.306	0.0164175
725.384	0.0165206
725.462	0.0164966
725.540	0.0164883
725.619	0.0165994
725.697	0.0166958
725.775	0.0166206
725.853	0.0165556
725.931	0.0168268
726.009	0.0168391
726.087	0.0170147
726.165	0.0169162
726.244	0.0169456
726.322	0.0169460
726.400	0.0171420
726.478	0.0170899
726.556	0.0169682
726.634	0.0170625
726.712	0.0170557
726.790	0.0170904
726.869	0.0170653
726.947	0.0170226
727.025	0.0169594
727.103	0.0169875
727.181	0.0170110
727.259	0.0169759
727.337	0.0168701
727.415	0.0169576
727.494	0.0168106
727.572	0.0168194
727.650	0.0167498
727.728	0.0167458
727.806	0.0167496
727.884	0.0166784
727.962	0.0165512
728.040	0.0164671
728.119	0.0166779
728.197	0.0167391
728.275	0.0166615
728.353	0.0166334
728.431	0.0166026
728.509	0.0167062
728.587	0.0166911
728.665	0.0166972
728.744	0.0168481
728.822	0.0168470
728.900	0.0168410
728.978	0.0168941
729.056	0.0169145
729.134	0.0170974
729.212	0.0171722
729.290	0.0171445
729.369	0.0170297
729.447	0.0171278
729.525	0.0170650
729.603	0.0169421
729.681	0.0171709
729.759	0.0171622
729.837	0.0169935
729.915	0.0171882
729.994	0.0170997
730.072	0.0171633
730.150	0.0170332
730.228	0.0169946
730.306	0.0169724
730.384	0.0168468
730.462	0.0168388
730.540	0.0167361
730.619	0.0166996
730.697	0.0166573
730.775	0.0166505
730.853	0.0166133
730.931	0.0166707
731.009	0.0164296
731.087	0.0166181
731.165	0.0165924
731.244	0.0165945
731.322	0.0165279
731.400	0.0166383
731.478	0.0165600
731.556	0.0166437
731.634	0.0169023
731.712	0.0169577
731.790	0.0167616
731.869	0.0169489
731.947	0.0169157
732.025	0.0168181
732.103	0.0170283
732.181	0.0169419
732.259	0.0170191
732.337	0.0169853
732.415	0.0169981
732.494	0.0170729
732.572	0.0169783
732.650	0.0169701
732.728	0.0173557
732.806	0.0171876
732.884	0.0170008
732.962	0.0170177
733.040	0.0171962
733.119	0.0171166
733.197	0.0170452
733.275	0.0171329
733.353	0.0169185
733.431	0.0170460
733.509	0.0168902
733.587	0.0169874
733.665	0.0169970
733.744	0.0169238
733.822	0.0167404
733.900	0.0167690
733.978	0.0167313
734.056	0.0168377
734.134	0.0166825
734.212	0.0166071
734.290	0.0166229
734.369	0.0167397
734.447	0.0167927
734.525	0.0167091
734.603	0.0167811
734.681	0.0167717
734.759	0.0167227
734.837	0.0166460
734.915	0.0167585
734.994	0.0166568
735.072	0.0168230
735.150	0.0168481
735.228	0.0168259
735.306	0.0167976
735.384	0.0167412
735.462	0.0168517
735.540	0.0167355
735.619	0.0166838
735.697	0.0167175
735.775	0.0166730
735.853	0.0164687
735.931	0.0166344
736.009	0.0165619
736.087	0.0164596
736.165	0.0164558
736.244	0.0166348
736.322	0.0164391
736.400	0.0166390
736.478	0.0164246
736.556	0.0163926
736.634	0.0163599
736.712	0.0162907
736.790	0.0163402
736.869	0.0163789
736.947	0.0164316
737.025	0.0164404
737.103	0.0163053
737.181	0.0162883
737.259	0.0162746
737.337	0.0164845
737.415	0.0162950
737.494	0.0163349
737.572	0.0165357
737.650	0.0165174
737.728	0.0165916
737.806	0.0166973
737.884	0.0168915
737.962	0.0167839
738.040	0.0169014
738.119	0.0169960
738.197	0.0168356
738.275	0.0171418
738.353	0.0170251
738.431	0.0171672
738.509	0.0173498
738.587	0.0172653
738.665	0.0173286
738.744	0.0172343
738.822	0.0173444
738.900	0.0174045
738.978	0.0174728
739.056	0.0174519
739.134	0.0176455
739.212	0.0175581
739.290	0.0174168
739.369	0.0173617
739.447	0.0173450
739.525	0.0174704
739.603	0.0174072
739.681	0.0172234
739.759	0.0171976
739.837	0.0171947
739.915	0.0171920
739.994	0.0170610
740.072	0.0169771
740.150	0.0170340
740.228	0.0170249
740.306	0.0168718
740.384	0.0168183
740.462	0.0169151
740.540	0.0167763
740.619	0.0168256
740.697	0.0166973
740.775	0.0166194
740.853	0.0166780
740.931	0.0166553
741.009	0.0166943
741.087	0.0165976
741.165	0.0164901
741.244	0.0163731
741.322	0.0164059
741.400	0.0163541
741.478	0.0164482
741.556	0.0162765
741.634	0.0163139
741.712	0.0162036
741.790	0.0162289
741.869	0.0163843
741.947	0.0163387
742.025	0.0163602
742.103	0.0163618
742.181	0.0164256
742.259	0.0163049
742.337	0.0163933
742.415	0.0163592
742.494	0.0163306
742.572	0.0162950
742.650	0.0164519
742.728	0.0164526
742.806	0.0163901
742.884	0.0162794
742.962	0.0165082
743.040	0.0164881
743.119	0.0164748
743.197	0.0162963
743.275	0.0163578
743.353	0.0164906
743.431	0.0165189
743.509	0.0165271
743.587	0.0165363
743.665	0.0164603
743.744	0.0165106
743.822	0.0164581
743.900	0.0164883
743.978	0.0163961
744.056	0.0165472
744.134	0.0165828
744.212	0.0166853
744.290	0.0165925
744.369	0.0166644
744.447	0.0168163
744.525	0.0167349
744.603	0.0168057
744.681	0.0168232
744.759	0.0168465
744.837	0.0169296
744.915	0.0169831
744.994	0.0169738
745.072	0.0170986
745.150	0.0171233
745.228	0.0169698
745.306	0.0172137
745.384	0.0171437
745.462	0.0171245
745.540	0.0171252
745.619	0.0171440
745.697	0.0172980
745.775	0.0173801
745.853	0.0173096
745.931	0.0173512
746.009	0.0171778
746.087	0.0173617
746.165	0.0172453
746.244	0.0171793
746.322	0.0173080
746.400	0.0172373
746.478	0.0173018
746.556	0.0173261
746.634	0.0171551
746.712	0.0171718
746.790	0.0171607
746.869	0.0170596
746.947	0.0170615
747.025	0.0170058
747.103	0.0168453
747.181	0.0169504
747.259	0.0168654
747.337	0.0169241
747.415	0.0168304
747.494	0.0169083
747.572	0.0166676
747.650	0.0166080
747.728	0.0164410
747.806	0.0163798
747.884	0.0164352
747.962	0.0163042
748.040	0.0165030
748.119	0.0163724
748.197	0.0162347
748.275	0.0162619
748.353	0.0162732
748.431	0.0161012
748.509	0.0161506
748.587	0.0162255
748.665	0.0162093
748.744	0.0162429
748.822	0.0164423
748.900	0.0163682
748.978	0.0163394
749.056	0.0163602
749.134	0.0165067
749.212	0.0164983
749.290	0.0165844
749.369	0.0166185
749.447	0.0167550
749.525	0.0166129
749.603	0.0167448
749.681	0.0167556
749.759	0.0166848
749.837	0.0167485
749.915	0.0168798
749.994	0.0167750
750.072	0.0168211
750.150	0.0168018
750.228	0.0167782
750.306	0.0168578
750.384	0.0166819
750.462	0.0166876
750.540	0.0169722
750.619	0.0167439
750.697	0.0166579
750.775	0.0167149
750.853	0.0166851
750.931	0.0165813
751.009	0.0166720
751.087	0.0165494
751.165	0.0163465
751.244	0.0164542
751.322	0.0165988
751.400	0.0163721
751.478	0.0165132
751.556	0.0165376
751.634	0.0163967
751.712	0.0163755
751.790	0.0163885
751.869	0.0164120
751.947	0.0165128
752.025	0.0165803
752.103	0.0164162
752.181	0.0165479
752.259	0.0165701
752.337	0.0165318
752.415	0.0165215
752.494	0.0166576
752.572	0.0165940
752.650	0.0166465
752.728	0.0166656
752.806	0.0165887
752.884	0.0166046
752.962	0.0167079
753.040	0.0168071
753.119	0.0168300
753.197	0.0167658
753.275	0.0167876
753.353	0.0167341
753.431	0.0166907
753.509	0.0168052
753.587	0.0167957
753.665	0.0167921
753.744	0.0167663
753.822	0.0168237
753.900	0.0168298
753.978	0.0168487
754.056	0.0169479
754.134	0.0168450
754.212	0.0169600
754.290	0.0167435
754.369	0.0167887
754.447	0.0166312
754.525	0.0166730
754.603	0.0167300
754.681	0.0167934
754.759	0.0166889
754.837	0.0168486
754.915	0.0165878
754.994	0.0167068
755.072	0.0167955
755.150	0.0166972
755.228	0.0168394
755.306	0.0167159
755.384	0.0169016
755.462	0.0168655
755.540	0.0168313
755.619	0.0169022
755.697	0.0169466
755.775	0.0169301
755.853	0.0170467
755.931	0.0170442
756.009	0.0170889
756.087	0.0171045
756.165	0.0171295
756.244	0.0171533
756.322	0.0170369
756.400	0.0171083
756.478	0.0172088
756.556	0.0172237
756.634	0.0171127
756.712	0.0169891
756.790	0.0170661
756.869	0.0170329
756.947	0.0169612
757.025	0.0168319
757.103	0.0168913
757.181	0.0169421
757.259	0.0168050
757.337	0.0167180
757.415	0.0168957
757.494	0.0168867
757.572	0.0167439
757.650	0.0167524
757.728	0.0167094
757.806	0.0166811
757.884	0.0166738
757.962	0.0166495
758.040	0.0166910
758.119	0.0167529
758.197	0.0167506
758.275	0.0167064
758.353	0.0167139
758.431	0.0167020
758.509	0.0167268
758.587	0.0166816
758.665	0.0166694
758.744	0.0167611
758.822	0.0166331
758.900	0.0165964
758.978	0.0164811
759.056	0.0165810
759.134	0.0167088
759.212	0.0165311
759.290	0.0164526
759.369	0.0164984
759.447	0.0165218
759.525	0.0165028
759.603	0.0164477
759.681	0.0163394
759.759	0.0164376
759.837	0.0162775
759.915	0.0163531
759.994	0.0163918
760.072	0.0164648
760.150	0.0163979
760.228	0.0164207
760.306	0.0164037
760.384	0.0164843
760.462	0.0163276
760.540	0.0163189
760.619	0.0162955
760.697	0.0164193
760.775	0.0164221
760.853	0.0165153
760.931	0.0164991
761.009	0.0164684
761.087	0.0165511
761.165	0.0165952
761.244	0.0166840
761.322	0.0166323
761.400	0.0169450
761.478	0.0167923
761.556	0.0168109
761.634	0.0170319
761.712	0.0169238
761.790	0.0170368
761.869	0.0170634
761.947	0.0170382
762.025	0.0170216
762.103	0.0171165
762.181	0.0172973
762.259	0.0171699
762.337	0.0170737
762.415	0.0172014
762.494	0.0171289
762.572	0.0172099
762.650	0.0172493
762.728	0.0170942
762.806	0.0172297
762.884	0.0171945
762.962	0.0170493
763.040	0.0171906
763.119	0.0169093
763.197	0.0172593
763.275	0.0170657
763.353	0.0168898
763.431	0.0169624
763.509	0.0170090
763.587	0.0169314
763.665	0.0168054
763.744	0.0170184
763.822	0.0169135
763.900	0.0167770
763.978	0.0169018
764.056	0.0167287
764.134	0.0167806
764.212	0.0169124
764.290	0.0166814
764.369	0.0166865
764.447	0.0166083
764.525	0.0166613
764.603	0.0167039
764.681	0.0166270
764.759	0.0165684
764.837	0.0165830
764.915	0.0165422
764.994	0.0165074
765.072	0.0166580
765.150	0.0164941
765.228	0.0165518
765.306	0.0165722
765.384	0.0165271
765.462	0.0167020
765.540	0.0164906
765.619	0.0164457
765.697	0.0164809
765.775	0.0166165
765.853	0.0164946
765.931	0.0164650
766.009	0.0164462
766.087	0.0163697
766.165	0.0165232
766.244	0.0165440
766.322	0.0165387
766.400	0.0164507
766.478	0.0165301
766.556	0.0164503
766.634	0.0164913
766.712	0.0163936
766.790	0.0165237
766.869	0.0165543
766.947	0.0164567
767.025	0.0165086
767.103	0.0165556
767.181	0.0164036
767.259	0.0163988
767.337	0.0163293
767.415	0.0163084
767.494	0.0164488
767.572	0.0166051
767.650	0.0164639
767.728	0.0166233
767.806	0.0165960
767.884	0.0166296
767.962	0.0167829
768.040	0.0168440
768.119	0.0168086
768.197	0.0168091
768.275	0.0167630
768.353	0.0169298
768.431	0.0170818
768.509	0.0170436
768.587	0.0169122
768.665	0.0171440
768.744	0.0171004
768.822	0.0170993
768.900	0.0171698
768.978	0.0171564
769.056	0.0172444
769.134	0.0171990
769.212	0.0172958
769.290	0.0174870
769.369	0.0173960
769.447	0.0173420
769.525	0.0174709
769.603	0.0174952
769.681	0.0174009
769.759	0.0174001
769.837	0.0174503
769.915	0.0174951
769.994	0.0173679
770.072	0.0172999
770.150	0.0172656
770.228	0.0172424
770.306	0.0172853
770.384	0.0173548
770.462	0.0172500
770.540	0.0172704
770.619	0.0172617
770.697	0.0171540
770.775	0.0171156
770.853	0.0172049
770.931	0.0170827
771.009	0.0170333
771.087	0.0168477
771.165	0.0169892
771.244	0.0169736
771.322	0.0167841
771.400	0.0168983
771.478	0.0169160
771.556	0.0169533
771.634	0.0167461
771.712	0.0167651
771.790	0.0167522
771.869	0.0168270
771.947	0.0167006
772.025	0.0166081
772.103	0.0165773
772.181	0.0166006
772.259	0.0163693
772.337	0.0163611
772.415	0.0164576
772.494	0.0165368
772.572	0.0164468
772.650	0.0162892
772.728	0.0163706
772.806	0.0163827
772.884	0.0164415
772.962	0.0163310
773.040	0.0164124
773.119	0.0163860
773.197	0.0162212
773.275	0.0163868
773.353	0.0164558
773.431	0.0164259
773.509	0.0164334
773.587	0.0163689
773.665	0.0164845
773.744	0.0164623
773.822	0.0163340
773.900	0.0163926
773.978	0.0164494
774.056	0.0163094
774.134	0.0166820
774.212	0.0165079
774.290	0.0163832
774.369	0.0165186
774.447	0.0165649
774.525	0.0165113
774.603	0.0165060
774.681	0.0165246
774.759	0.0166488
774.837	0.0166605
774.915	0.0165913
774.994	0.0166924
775.072	0.0167146
775.150	0.0166820
775.228	0.0167614
775.306	0.0167283
775.384	0.0168148
775.462	0.0168169
775.540	0.0167430
775.619	0.0168204
775.697	0.0167991
775.775	0.0168832
775.853	0.0167220
775.931	0.0168331
776.009	0.0167152
776.087	0.0165499
776.165	0.0167586
776.244	0.0168108
776.322	0.0167115
776.400	0.0165044
776.478	0.0166949
776.556	0.0167265
776.634	0.0167229
776.712	0.0167676
776.790	0.0166703
776.869	0.0166150
776.947	0.0167075
777.025	0.0167767
777.103	0.0167893
777.181	0.0168164
777.259	0.0168546
777.337	0.0167127
777.415	0.0168594
777.494	0.0167303
777.572	0.0168401
777.650	0.0168559
777.728	0.0167774
777.806	0.0168343
777.884	0.0166756
777.962	0.0167352
778.040	0.0167293
778.119	0.0167111
778.197	0.0165978
778.275	0.0167413
778.353	0.0166006
778.431	0.0167086
778.509	0.0167274
778.587	0.0167948
778.665	0.0166927
778.744	0.0167411
778.822	0.0166990
778.900	0.0167214
778.978	0.0168302
779.056	0.0167899
779.134	0.0168050
779.212	0.0167856
779.290	0.0168446
779.369	0.0168246
779.447	0.0168964
779.525	0.0168504
779.603	0.0169988
779.681	0.0168773
779.759	0.0169903
779.837	0.0168517
779.915	0.0168916
779.994	0.0168954
780.072	0.0168465
780.150	0.0167882
780.228	0.0168761
780.306	0.0167207
780.384	0.0168166
780.462	0.0167021
780.540	0.0166066
780.619	0.0167319
780.697	0.0164835
780.775	0.0166698
780.853	0.0165975
780.931	0.0164370
781.009	0.0164957
781.087	0.0164242
781.165	0.0163650
781.244	0.0165207
781.322	0.0162465
781.400	0.0163952
781.478	0.0163817
781.556	0.0162334
781.634	0.0164046
781.712	0.0163412
781.790	0.0163015
781.869	0.0163044
781.947	0.0163245
782.025	0.0163754
782.103	0.0163483
782.181	0.0163896
782.259	0.0164231
782.337	0.0163315
782.415	0.0165085
782.494	0.0166321
782.572	0.0164977
782.650	0.0164397
782.728	0.0165368
782.806	0.0165147
782.884	0.0166328
782.962	0.0165700
783.040	0.0166182
783.119	0.0165852
783.197	0.0166837
783.275	0.0166998
783.353	0.0167023
783.431	0.0167767
783.509	0.0166842
783.587	0.0166343
783.665	0.0166767
783.744	0.0167922
783.822	0.0167741
783.900	0.0167712
783.978	0.0167762
784.056	0.0169408
784.134	0.0169196
784.212	0.0170818
784.290	0.0169003
784.369	0.0168626
784.447	0.0169143
784.525	0.0170275
784.603	0.0170154
784.681	0.0169397
784.759	0.0168800
784.837	0.0170212
784.915	0.0170194
784.994	0.0169624
785.072	0.0169422
785.150	0.0169368
785.228	0.0170220
785.306	0.0169343
785.384	0.0169818
785.462	0.0169841
785.540	0.0168469
785.619	0.0167477
785.697	0.0169460
785.775	0.0167923
785.853	0.0169533
785.931	0.0169189
786.009	0.0167825
786.087	0.0168224
786.165	0.0168111
786.244	0.0169045
786.322	0.0168327
786.400	0.0168439
786.478	0.0169542
786.556	0.0168748
786.634	0.0169707
786.712	0.0168981
786.790	0.0170150
786.869	0.0168810
786.947	0.0168986
787.025	0.0168336
787.103	0.0168842
787.181	0.0167418
787.259	0.0167559
787.337	0.0168414
787.415	0.0167142
787.494	0.0170233
787.572	0.0167777
787.650	0.0167399
787.728	0.0168191
787.806	0.0167289
787.884	0.0166612
787.962	0.0166832
788.040	0.0167543
788.119	0.0167399
788.197	0.0167655
788.275	0.0168376
788.353	0.0167730
788.431	0.0167566
788.509	0.0166846
788.587	0.0166567
788.665	0.0166463
788.744	0.0166227
788.822	0.0166364
788.900	0.0165675
788.978	0.0164571
789.056	0.0165234
789.134	0.0164685
789.212	0.0165298
789.290	0.0165758
789.369	0.0165463
789.447	0.0164854
789.525	0.0165128
789.603	0.0164015
789.681	0.0165085
789.759	0.0164096
789.837	0.0164977
789.915	0.0163748
789.994	0.0166230
790.072	0.0165209
790.150	0.0164467
790.228	0.0164447
790.306	0.0165483
790.384	0.0166064
790.462	0.0165668
790.540	0.0166175
790.619	0.0164476
790.697	0.0166608
790.775	0.0167216
790.853	0.0167782
790.931	0.0166986
791.009	0.0166349
791.087	0.0167644
791.165	0.0168707
791.244	0.0168738
791.322	0.0167388
791.400	0.0168451
791.478	0.0169301
791.556	0.0168182
791.634	0.0168544
791.712	0.0169196
791.790	0.0167980
791.869	0.0168600
791.947	0.0169756
792.025	0.0169179
792.103	0.0169543
792.181	0.0169212
792.259	0.0170781
792.337	0.0170731
792.415	0.0169736
792.494	0.0169464
792.572	0.0170082
792.650	0.0170220
792.728	0.0169489
792.806	0.0171134
792.884	0.0170242
792.962	0.0169976
793.040	0.0168515
793.119	0.0169612
793.197	0.0170086
793.275	0.0168147
793.353	0.0168728
793.431	0.0169334
793.509	0.0168478
793.587	0.0167831
793.665	0.0168508
793.744	0.0168213
793.822	0.0167616
793.900	0.0168285
793.978	0.0168208
794.056	0.0167879
794.134	0.0166485
794.212	0.0167983
794.290	0.0167325
794.369	0.0166683
794.447	0.0167133
794.525	0.0167406
794.603	0.0167606
794.681	0.0166714
794.759	0.0166695
794.837	0.0166415
794.915	0.0166870
794.994	0.0165679
795.072	0.0165127
795.150	0.0165521
795.228	0.0165915
795.306	0.0165724
795.384	0.0164852
795.462	0.0165294
795.540	0.0165543
795.619	0.0166944
795.697	0.0164046
795.775	0.0165746
795.853	0.0166652
795.931	0.0165765
796.009	0.0166544
796.087	0.0164442
796.165	0.0164573
796.244	0.0165676
796.322	0.0167054
796.400	0.0166137
796.478	0.0166133
796.556	0.0168150
796.634	0.0167059
796.712	0.0166438
796.790	0.0167257
796.869	0.0168890
796.947	0.0165723
797.025	0.0166413
797.103	0.0166197
797.181	0.0166904
797.259	0.0166344
797.337	0.0167448
797.415	0.0165501
797.494	0.0166302
797.572	0.0165817
797.650	0.0167397
797.728	0.0166420
797.806	0.0167342
797.884	0.0166694
797.962	0.0166850
798.040	0.0168490
798.119	0.0165717
798.197	0.0167699
798.275	0.0167946
798.353	0.0166993
798.431	0.0167591
798.509	0.0166553
798.587	0.0166405
798.665	0.0166582
798.744	0.0165089
798.822	0.0167054
798.900	0.0167564
798.978	0.0168160
799.056	0.0166525
799.134	0.0166895
799.212	0.0167946
799.290	0.0167585
799.369	0.0167957
799.447	0.0167487
799.525	0.0168193
799.603	0.0168496
799.681	0.0168978
799.759	0.0168321
799.837	0.0168357
799.915	0.0169934
799.994	0.0169913
800.072	0.0169734
800.150	0.0169017
800.228	0.0168097
800.306	0.0168342
800.384	0.0167855
800.462	0.0167484
800.540	0.0168242
800.619	0.0169228
800.697	0.0169723
800.775	0.0166817
800.853	0.0168349
800.931	0.0166730
801.009	0.0167006
801.087	0.0166574
801.165	0.0166518
801.244	0.0166702
801.322	0.0166022
801.400	0.0166044
801.478	0.0165683
801.556	0.0165793
801.634	0.0164838
801.712	0.0165282
801.790	0.0166315
801.869	0.0165738
801.947	0.0166802
802.025	0.0164694
802.103	0.0165095
802.181	0.0165181
802.259	0.0166050
802.337	0.0166111
802.415	0.0166556
802.494	0.0166225
802.572	0.0165558
802.650	0.0166788
802.728	0.0166360
802.806	0.0168020
802.884	0.0168169
802.962	0.0167224
803.040	0.0166985
803.119	0.0166887
803.197	0.0168609
803.275	0.0167667
803.353	0.0167126
803.431	0.0166858
803.509	0.0168733
803.587	0.0166459
803.665	0.0166174
803.744	0.0165857
803.822	0.0165374
803.900	0.0166453
803.978	0.0165636
804.056	0.0165228
804.134	0.0165617
804.212	0.0162638
804.290	0.0164960
804.369	0.0164365
804.447	0.0164365
804.525	0.0163952
804.603	0.0164454
804.681	0.0164898
804.759	0.0163966
804.837	0.0163806
804.915	0.0163630
804.994	0.0164333
805.072	0.0164027
805.150	0.0163872
805.228	0.0163335
805.306	0.0163287
805.384	0.0164012
805.462	0.0164694
805.540	0.0164615
805.619	0.0165306
805.697	0.0164828
805.775	0.0166190
805.853	0.0165995
805.931	0.0166416
806.009	0.0164777
806.087	0.0165034
806.165	0.0165792
806.244	0.0164625
806.322	0.0166481
806.400	0.0166341
806.478	0.0166480
806.556	0.0167435
806.634	0.0167556
806.712	0.0167131
806.790	0.0167641
806.869	0.0168551
806.947	0.0168800
807.025	0.0167082
807.103	0.0168659
807.181	0.0168341
807.259	0.0169565
807.337	0.0168414
807.415	0.0168296
807.494	0.0169199
807.572	0.0168941
807.650	0.0168349
807.728	0.0169328
807.806	0.0168694
807.884	0.0168541
807.962	0.0169215
808.040	0.0169301
808.119	0.0166925
808.197	0.0166528
808.275	0.0167113
808.353	0.0167742
808.431	0.0167624
808.509	0.0167648
808.587	0.0168144
808.665	0.0168343
808.744	0.0167110
808.822	0.0167287
808.900	0.0168600
808.978	0.0166605
809.056	0.0168004
809.134	0.0168826
809.212	0.0168116
809.290	0.0166050
809.369	0.0166631
809.447	0.0166444
809.525	0.0167085
809.603	0.0167129
809.681	0.0166863
809.759	0.0166297
809.837	0.0165990
809.915	0.0165835
809.994	0.0166982
810.072	0.0166009
810.150	0.0166422
810.228	0.0166260
810.306	0.0167226
810.384	0.0166580
810.462	0.0166461
810.540	0.0167590
810.619	0.0167178
810.697	0.0167229
810.775	0.0169968
810.853	0.0168908
810.931	0.0167922
811.009	0.0169807
811.087	0.0169530
811.165	0.0169328
811.244	0.0170297
811.322	0.0170536
811.400	0.0169181
811.478	0.0170262
811.556	0.0170369
811.634	0.0170706
811.712	0.0170785
811.790	0.0170489
811.869	0.0170110
811.947	0.0169787
812.025	0.0170390
812.103	0.0168782
812.181	0.0170398
812.259	0.0169311
812.337	0.0167471
812.415	0.0166895
812.494	0.0167290
812.572	0.0166200
812.650	0.0165953
812.728	0.0165670
812.806	0.0165460
812.884	0.0166077
812.962	0.0165041
813.040	0.0164345
813.119	0.0164944
813.197	0.0164263
813.275	0.0165535
813.353	0.0165180
813.431	0.0165878
813.509	0.0165267
813.587	0.0165646
813.665	0.0165505
813.744	0.0165015
813.822	0.0166652
813.900	0.0166629
813.978	0.0166306
814.056	0.0166984
814.134	0.0167149
814.212	0.0167644
814.290	0.0167114
814.369	0.0168021
814.447	0.0169356
814.525	0.0168081
814.603	0.0169130
814.681	0.0170228
814.759	0.0170451
814.837	0.0170042
814.915	0.0170258
814.994	0.0170113
815.072	0.0168978
815.150	0.0169438
815.228	0.0169769
815.306	0.0170039
815.384	0.0170766
815.462	0.0170205
815.540	0.0168665
815.619	0.0168956
815.697	0.0168674
815.775	0.0168416
815.853	0.0167374
815.931	0.0167811
816.009	0.0166379
816.087	0.0167204
816.165	0.0166386
816.244	0.0167018
816.322	0.0168289
816.400	0.0166354
816.478	0.0165794
816.556	0.0167773
816.634	0.0165780
816.712	0.0166608
816.790	0.0168417
816.869	0.0167358
816.947	0.0166693
817.025	0.0167107
817.103	0.0166237
817.181	0.0167490
817.259	0.0167374
817.337	0.0167534
817.415	0.0166998
817.494	0.0166977
817.572	0.0167924
817.650	0.0167519
817.728	0.0166854
817.806	0.0166402
817.884	0.0166476
817.962	0.0166840
818.040	0.0168696
818.119	0.0167668
818.197	0.0167251
818.275	0.0167319
818.353	0.0166963
818.431	0.0166856
818.509	0.0166248
818.587	0.0167429
818.665	0.0167764
818.744	0.0167468
818.822	0.0165341
818.900	0.0167922
818.978	0.0166112
819.056	0.0165581
819.134	0.0165102
819.212	0.0165619
819.290	0.0165533
819.369	0.0165289
819.447	0.0165387
819.525	0.0164950
819.603	0.0165527
819.681	0.0164268
819.759	0.0164858
819.837	0.0163795
819.915	0.0163661
819.994	0.0165135
820.072	0.0165388
820.150	0.0165983
820.228	0.0166929
820.306	0.0165816
820.384	0.0167693
820.462	0.0165706
820.540	0.0167490
820.619	0.0167356
820.697	0.0167854
820.775	0.0166502
820.853	0.0167366
820.931	0.0168013
821.009	0.0168257
821.087	0.0166624
821.165	0.0168254
821.244	0.0167471
821.322	0.0166975
821.400	0.0167153
821.478	0.0167641
821.556	0.0168269
821.634	0.0167042
821.712	0.0168600
821.790	0.0167918
821.869	0.0166566
821.947	0.0167403
822.025	0.0167957
822.103	0.0167727
822.181	0.0167245
822.259	0.0165996
822.337	0.0166807
822.415	0.0166805
822.494	0.0165353
822.572	0.0165731
822.650	0.0167094
822.728	0.0165111
822.806	0.0164602
822.884	0.0165086
822.962	0.0167212
823.040	0.0165862
823.119	0.0165046
823.197	0.0166970
823.275	0.0166039
823.353	0.0166852
823.431	0.0167645
823.509	0.0168346
823.587	0.0168378
823.665	0.0169838
823.744	0.0169916
823.822	0.0169690
823.900	0.0170893
823.978	0.0171474
824.056	0.0170050
824.134	0.0171051
824.212	0.0171755
824.290	0.0170766
824.369	0.0171323
824.447	0.0172434
824.525	0.0172823
824.603	0.0171829
824.681	0.0172083
824.759	0.0172011
824.837	0.0170894
824.915	0.0169019
824.994	0.0171053
825.072	0.0169963
825.150	0.0169213
825.228	0.0169218
825.306	0.0169231
825.384	0.0167764
825.462	0.0167763
825.540	0.0165526
825.619	0.0167406
825.697	0.0166595
825.775	0.0165762
825.853	0.0164806
825.931	0.0165237
826.009	0.0166510
826.087	0.0164927
826.165	0.0165459
826.244	0.0164919
826.322	0.0166297
826.400	0.0167688
826.478	0.0166462
826.556	0.0167526
826.634	0.0166981
826.712	0.0166560
826.790	0.0166759
826.869	0.0167542
826.947	0.0168524
827.025	0.0168298
827.103	0.0167738
827.181	0.0168259
827.259	0.0169737
827.337	0.0168568
827.415	0.0169349
827.494	0.0168722
827.572	0.0169189
827.650	0.0167301
827.728	0.0167281
827.806	0.0169572
827.884	0.0167804
827.962	0.0167550
828.040	0.0168477
828.119	0.0168460
828.197	0.0168278
828.275	0.0166932
828.353	0.0167928
828.431	0.0168105
828.509	0.0166383
828.587	0.0166252
828.665	0.0167348
828.744	0.0167142
828.822	0.0168410
828.900	0.0166323
828.978	0.0166161
829.056	0.0167078
829.134	0.0167310
829.212	0.0166733
829.290	0.0168275
829.369	0.0167813
829.447	0.0168821
829.525	0.0168053
829.603	0.0167831
829.681	0.0168627
829.759	0.0167953
829.837	0.0168822
829.915	0.0169862
829.994	0.0169480
830.072	0.0170807
830.150	0.0169633
830.228	0.0169254
830.306	0.0169837
830.384	0.0170621
830.462	0.0171439
830.540	0.0169342
830.619	0.0169569
830.697	0.0169666
830.775	0.0168934
830.853	0.0167924
830.931	0.0168081
831.009	0.0167660
831.087	0.0164939
831.165	0.0165875
831.244	0.0165224
831.322	0.0165150
831.400	0.0164798
831.478	0.0165713
831.556	0.0164555
831.634	0.0162691
831.712	0.0162928
831.790	0.0164557
831.869	0.0164424
831.947	0.0163183
832.025	0.0163055
832.103	0.0163335
832.181	0.0163004
832.259	0.0163855
832.337	0.0163136
832.415	0.0164275
832.494	0.0164741
832.572	0.0164959
832.650	0.0164996
832.728	0.0165102
832.806	0.0165641
832.884	0.0164954
832.962	0.0166702
833.040	0.0165097
833.119	0.0165019
833.197	0.0165273
833.275	0.0166431
833.353	0.0165302
833.431	0.0166196
833.509	0.0166316
833.587	0.0166870
833.665	0.0165659
833.744	0.0166352
833.822	0.0166412
833.900	0.0166609
833.978	0.0167385
834.056	0.0167490
834.134	0.0166520
834.212	0.0166911
834.290	0.0166746
834.369	0.0166982
834.447	0.0165917
834.525	0.0164246
834.603	0.0165671
834.681	0.0165739
834.759	0.0166343
834.837	0.0165220
834.915	0.0166086
834.994	0.0165387
835.072	0.0165710
835.150	0.0166552
835.228	0.0166489
835.306	0.0165440
835.384	0.0167213
835.462	0.0166546
835.540	0.0167161
835.619	0.0167269
835.697	0.0168891
835.775	0.0167378
835.853	0.0166722
835.931	0.0167635
836.009	0.0167982
836.087	0.0167606
836.165	0.0167193
836.244	0.0166534
836.322	0.0167645
836.400	0.0166092
836.478	0.0166854
836.556	0.0166490
836.634	0.0166722
836.712	0.0167778
836.790	0.0168628
836.869	0.0167285
836.947	0.0167294
837.025	0.0166637
837.103	0.0168485
837.181	0.0167690
837.259	0.0168771
837.337	0.0168749
837.415	0.0167986
837.494	0.0167686
837.572	0.0168188
837.650	0.0167535
837.728	0.0166708
837.806	0.0168842
837.884	0.0168046
837.962	0.0167057
838.040	0.0167929
838.119	0.0167624
838.197	0.0166909
838.275	0.0167712
838.353	0.0167471
838.431	0.0168627
838.509	0.0166251
838.587	0.0165919
838.665	0.0168185
838.744	0.0167262
838.822	0.0167404
838.900	0.0168183
838.978	0.0165919
839.056	0.0167394
839.134	0.0166947
839.212	0.0167436
839.290	0.0167578
839.369	0.0165976
839.447	0.0167567
839.525	0.0166986
839.603	0.0165195
839.681	0.0166612
839.759	0.0166900
839.837	0.0166520
839.915	0.0168124
839.994	0.0168531
840.072	0.0167184
840.150	0.0167561
840.228	0.0168377
840.306	0.0169373
840.384	0.0169774
840.462	0.0170420
840.540	0.0169736
840.619	0.0170464
840.697	0.0169733
840.775	0.0171405
840.853	0.0170538
840.931	0.0170611
841.009	0.0170606
841.087	0.0170022
841.165	0.0170631
841.244	0.0169774
841.322	0.0169507
841.400	0.0169395
841.478	0.0169769
841.556	0.0170079
841.634	0.0168491
841.712	0.0169041
841.790	0.0169904
841.869	0.0166927
841.947	0.0167326
842.025	0.0170481
842.103	0.0169174
842.181	0.0168013
842.259	0.0169266
842.337	0.0170334
842.415	0.0170075
842.494	0.0169835
842.572	0.0169721
842.650	0.0169193
842.728	0.0168600
842.806	0.0169222
842.884	0.0170500
842.962	0.0169889
843.040	0.0168318
843.119	0.0168282
843.197	0.0168154
843.275	0.0168333
843.353	0.0169720
843.431	0.0168817
843.509	0.0168546
843.587	0.0169257
843.665	0.0169463
843.744	0.0167844
843.822	0.0168672
843.900	0.0168362
843.978	0.0169071
844.056	0.0170282
844.134	0.0169605
844.212	0.0169248
844.290	0.0167462
844.369	0.0169054
844.447	0.0167449
844.525	0.0168034
844.603	0.0167477
844.681	0.0167633
844.759	0.0168163
844.837	0.0168176
844.915	0.0167419
844.994	0.0165778
845.072	0.0165131
845.150	0.0166847
845.228	0.0165927
845.306	0.0165447
845.384	0.0163461
845.462	0.0165179
845.540	0.0163639
845.619	0.0163763
845.697	0.0164998
845.775	0.0163421
845.853	0.0162044
845.931	0.0162788
846.009	0.0162528
846.087	0.0162714
846.165	0.0162283
846.244	0.0162894
846.322	0.0163314
846.400	0.0162077
846.478	0.0165018
846.556	0.0163634
846.634	0.0163569
846.712	0.0165875
846.790	0.0164698
846.869	0.0166096
846.947	0.0165663
847.025	0.0167036
847.103	0.0168530
847.181	0.0168886
847.259	0.0166886
847.337	0.0168079
847.415	0.0169756
847.494	0.0169572
847.572	0.0169463
847.650	0.0170740
847.728	0.0169647
847.806	0.0169312
847.884	0.0171291
847.962	0.0170255
848.040	0.0171015
848.119	0.0171054
848.197	0.0170041
848.275	0.0169122
848.353	0.0168668
848.431	0.0169894
848.509	0.0169196
848.587	0.0169275
848.665	0.0169059
848.744	0.0169171
848.822	0.0169707
848.900	0.0168783
848.978	0.0168098
849.056	0.0169215
849.134	0.0168293
849.212	0.0169348
849.290	0.0168291
849.369	0.0167553
849.447	0.0167773
849.525	0.0167497
849.603	0.0166718
849.681	0.0166376
849.759	0.0166393
849.837	0.0167142
849.915	0.0167500
849.994	0.0166904
850.072	0.0165880
850.150	0.0166589
850.228	0.0165926
850.306	0.0165493
850.384	0.0168819
850.462	0.0167280
850.540	0.0167582
850.619	0.0167705
850.697	0.0167868
850.775	0.0167375
850.853	0.0167562
850.931	0.0167575
851.009	0.0167702
851.087	0.0165144
851.165	0.0165650
851.244	0.0166429
851.322	0.0166085
851.400	0.0165945
851.478	0.0164993
851.556	0.0164870
851.634	0.0163715
851.712	0.0163174
851.790	0.0164313
851.869	0.0164037
851.947	0.0163858
852.025	0.0161948
852.103	0.0162816
852.181	0.0163257
852.259	0.0163674
852.337	0.0163921
852.415	0.0163408
852.494	0.0163373
852.572	0.0164135
852.650	0.0164294
852.728	0.0165012
852.806	0.0164643
852.884	0.0165519
852.962	0.0165795
853.040	0.0166454
853.119	0.0166628
853.197	0.0166624
853.275	0.0166665
853.353	0.0168388
853.431	0.0168453
853.509	0.0169424
853.587	0.0168255
853.665	0.0167334
853.744	0.0169231
853.822	0.0170483
853.900	0.0167147
853.978	0.0168206
854.056	0.0167835
854.134	0.0169352
854.212	0.0168274
854.290	0.0167052
854.369	0.0166377
854.447	0.0168042
854.525	0.0169148
854.603	0.0167752
854.681	0.0166718
854.759	0.0168214
854.837	0.0167114
854.915	0.0168274
854.994	0.0167842
855.072	0.0166792
855.150	0.0167114
855.228	0.0167122
855.306	0.0167647
855.384	0.0166948
855.462	0.0168888
855.540	0.0168472
855.619	0.0167046
855.697	0.0167608
855.775	0.0167596
855.853	0.0168957
855.931	0.0167497
856.009	0.0167957
856.087	0.0167039
856.165	0.0166961
856.244	0.0166965
856.322	0.0168179
856.400	0.0166714
856.478	0.0167836
856.556	0.0167812
856.634	0.0166863
856.712	0.0166714
856.790	0.0165936
856.869	0.0166514
856.947	0.0166645
857.025	0.0166359
857.103	0.0166011
857.181	0.0164708
857.259	0.0166790
857.337	0.0166138
857.415	0.0166973
857.494	0.0166482
857.572	0.0165112
857.650	0.0164499
857.728	0.0167095
857.806	0.0165462
857.884	0.0164856
857.962	0.0165533
858.040	0.0166777
858.119	0.0167244
858.197	0.0166689
858.275	0.0168034
858.353	0.0166869
858.431	0.0167284
858.509	0.0168263
858.587	0.0167815
858.665	0.0167442
858.744	0.0168375
858.822	0.0168433
858.900	0.0170073
858.978	0.0170758
859.056	0.0170013
859.134	0.0169003
859.212	0.0170596
859.290	0.0170043
859.369	0.0168770
859.447	0.0170903
859.525	0.0170776
859.603	0.0169431
859.681	0.0169044
859.759	0.0169925
859.837	0.0171347
859.915	0.0170643
