06/01/2022	17:42:57	Ver.	4.1	UNKNOWN
Optical Delay	539.993571	Delta X		0.078125	Sweeps	1	Scan Rate	0/0
Coordinates	Axis 1	NaN	Axis 2	NaN	Axis 3	NaN	Axis 4	NaN	Axis 5	NaN	Axis 6	0.000000
TX Power	0.000000	RX Power	0.000000

539.994	0.0168446
540.072	0.0168280
540.150	0.0168655
540.228	0.0167738
540.306	0.0169800
540.384	0.0169081
540.462	0.0167751
540.540	0.0167262
540.619	0.0168109
540.697	0.0168291
540.775	0.0168152
540.853	0.0169051
540.931	0.0169904
541.009	0.0169223
541.087	0.0167391
541.165	0.0167789
541.244	0.0167115
541.322	0.0169406
541.400	0.0169289
541.478	0.0168135
541.556	0.0168802
541.634	0.0168903
541.712	0.0169053
541.790	0.0168963
541.869	0.0168377
541.947	0.0169784
542.025	0.0168687
542.103	0.0168450
542.181	0.0168753
542.259	0.0169295
542.337	0.0168068
542.415	0.0168112
542.494	0.0168704
542.572	0.0170348
542.650	0.0169244
542.728	0.0169486
542.806	0.0170040
542.884	0.0169421
542.962	0.0169324
543.040	0.0170070
543.119	0.0170293
543.197	0.0169833
543.275	0.0170290
543.353	0.0170365
543.431	0.0170521
543.509	0.0168868
543.587	0.0169982
543.665	0.0169984
543.744	0.0170159
543.822	0.0169984
543.900	0.0170767
543.978	0.0170349
544.056	0.0169379
544.134	0.0171130
544.212	0.0170406
544.290	0.0169212
544.369	0.0170894
544.447	0.0169660
544.525	0.0170293
544.603	0.0171269
544.681	0.0169641
544.759	0.0170621
544.837	0.0171510
544.915	0.0169441
544.994	0.0169833
545.072	0.0169805
545.150	0.0169327
545.228	0.0170714
545.306	0.0169293
545.384	0.0168636
545.462	0.0170848
545.540	0.0169507
545.619	0.0169769
545.697	0.0169175
545.775	0.0169396
545.853	0.0168848
545.931	0.0169781
546.009	0.0168365
546.087	0.0168152
546.165	0.0169518
546.244	0.0168649
546.322	0.0168115
546.400	0.0167788
546.478	0.0168724
546.556	0.0169606
546.634	0.0169284
546.712	0.0167921
546.790	0.0168959
546.869	0.0168778
546.947	0.0169292
547.025	0.0169096
547.103	0.0168319
547.181	0.0168365
547.259	0.0169494
547.337	0.0167926
547.415	0.0168291
547.494	0.0169482
547.572	0.0169666
547.650	0.0168727
547.728	0.0167399
547.806	0.0168614
547.884	0.0169468
547.962	0.0170017
548.040	0.0169446
548.119	0.0168586
548.197	0.0168514
548.275	0.0167276
548.353	0.0169492
548.431	0.0170105
548.509	0.0169841
548.587	0.0169306
548.665	0.0169117
548.744	0.0169523
548.822	0.0169808
548.900	0.0168762
548.978	0.0170071
549.056	0.0170280
549.134	0.0169690
549.212	0.0170445
549.290	0.0168896
549.369	0.0169556
549.447	0.0169878
549.525	0.0169596
549.603	0.0168742
549.681	0.0170659
549.759	0.0169847
549.837	0.0169185
549.915	0.0169490
549.994	0.0170078
550.072	0.0169419
550.150	0.0171107
550.228	0.0169374
550.306	0.0168972
550.384	0.0170185
550.462	0.0169297
550.540	0.0170029
550.619	0.0169413
550.697	0.0169499
550.775	0.0170859
550.853	0.0168521
550.931	0.0169897
551.009	0.0168754
551.087	0.0171208
551.165	0.0169696
551.244	0.0169166
551.322	0.0167280
551.400	0.0169661
551.478	0.0171062
551.556	0.0170054
551.634	0.0170937
551.712	0.0170385
551.790	0.0169496
551.869	0.0169962
551.947	0.0169231
552.025	0.0170431
552.103	0.0169936
552.181	0.0168925
552.259	0.0169907
552.337	0.0169382
552.415	0.0169020
552.494	0.0168672
552.572	0.0169311
552.650	0.0170640
552.728	0.0170304
552.806	0.0169321
552.884	0.0169478
552.962	0.0168326
553.040	0.0170030
553.119	0.0170301
553.197	0.0169940
553.275	0.0169091
553.353	0.0169888
553.431	0.0170039
553.509	0.0169659
553.587	0.0170150
553.665	0.0168901
553.744	0.0169257
553.822	0.0169061
553.900	0.0169821
553.978	0.0169532
554.056	0.0169346
554.134	0.0169931
554.212	0.0169947
554.290	0.0169228
554.369	0.0169569
554.447	0.0169147
554.525	0.0168765
554.603	0.0168496
554.681	0.0168394
554.759	0.0169102
554.837	0.0168388
554.915	0.0168448
554.994	0.0169320
555.072	0.0168072
555.150	0.0170438
555.228	0.0169691
555.306	0.0168303
555.384	0.0166875
555.462	0.0168513
555.540	0.0167786
555.619	0.0168619
555.697	0.0168649
555.775	0.0168509
555.853	0.0167167
555.931	0.0169241
556.009	0.0166217
556.087	0.0166503
556.165	0.0166650
556.244	0.0166913
556.322	0.0167344
556.400	0.0167204
556.478	0.0167895
556.556	0.0166816
556.634	0.0166788
556.712	0.0166937
556.790	0.0166524
556.869	0.0165255
556.947	0.0166696
557.025	0.0166692
557.103	0.0167471
557.181	0.0166781
557.259	0.0165308
557.337	0.0166935
557.415	0.0167405
557.494	0.0165290
557.572	0.0165904
557.650	0.0166548
557.728	0.0166891
557.806	0.0166215
557.884	0.0167882
557.962	0.0166709
558.040	0.0166655
558.119	0.0167606
558.197	0.0165195
558.275	0.0165667
558.353	0.0168134
558.431	0.0167746
558.509	0.0166621
558.587	0.0166859
558.665	0.0168311
558.744	0.0167065
558.822	0.0166658
558.900	0.0167513
558.978	0.0167510
559.056	0.0166740
559.134	0.0168855
559.212	0.0168159
559.290	0.0167491
559.369	0.0167169
559.447	0.0168337
559.525	0.0167481
559.603	0.0168436
559.681	0.0169292
559.759	0.0167925
559.837	0.0168501
559.915	0.0167904
559.994	0.0167747
560.072	0.0170610
560.150	0.0170103
560.228	0.0168016
560.306	0.0169382
560.384	0.0169591
560.462	0.0168095
560.540	0.0168745
560.619	0.0169317
560.697	0.0169939
560.775	0.0169123
560.853	0.0168598
560.931	0.0168658
561.009	0.0168282
561.087	0.0168498
561.165	0.0170097
561.244	0.0169107
561.322	0.0169576
561.400	0.0169994
561.478	0.0169745
561.556	0.0169535
561.634	0.0169823
561.712	0.0169843
561.790	0.0170909
561.869	0.0170024
561.947	0.0168346
562.025	0.0168951
562.103	0.0169125
562.181	0.0169503
562.259	0.0169604
562.337	0.0169184
562.415	0.0169592
562.494	0.0171062
562.572	0.0170067
562.650	0.0167754
562.728	0.0168452
562.806	0.0169043
562.884	0.0170812
562.962	0.0168564
563.040	0.0169543
563.119	0.0171034
563.197	0.0169742
563.275	0.0170180
563.353	0.0170258
563.431	0.0168591
563.509	0.0170467
563.587	0.0169056
563.665	0.0169762
563.744	0.0169503
563.822	0.0168945
563.900	0.0169078
563.978	0.0169962
564.056	0.0170610
564.134	0.0169733
564.212	0.0171150
564.290	0.0170362
564.369	0.0170030
564.447	0.0170728
564.525	0.0170391
564.603	0.0170361
564.681	0.0171214
564.759	0.0169530
564.837	0.0172173
564.915	0.0171625
564.994	0.0169662
565.072	0.0171441
565.150	0.0170269
565.228	0.0170528
565.306	0.0171568
565.384	0.0170897
565.462	0.0172494
565.540	0.0170553
565.619	0.0171673
565.697	0.0171956
565.775	0.0170414
565.853	0.0172666
565.931	0.0173804
566.009	0.0171471
566.087	0.0170526
566.165	0.0172199
566.244	0.0171549
566.322	0.0173262
566.400	0.0172075
566.478	0.0170840
566.556	0.0171706
566.634	0.0171390
566.712	0.0172238
566.790	0.0171896
566.869	0.0172993
566.947	0.0171493
567.025	0.0171951
567.103	0.0170129
567.181	0.0172026
567.259	0.0171366
567.337	0.0170378
567.415	0.0171933
567.494	0.0171494
567.572	0.0171217
567.650	0.0172318
567.728	0.0170716
567.806	0.0170114
567.884	0.0171175
567.962	0.0170994
568.040	0.0170834
568.119	0.0171220
568.197	0.0170402
568.275	0.0171723
568.353	0.0170293
568.431	0.0170702
568.509	0.0169904
568.587	0.0169987
568.665	0.0169231
568.744	0.0170013
568.822	0.0169949
568.900	0.0169553
568.978	0.0168939
569.056	0.0170182
569.134	0.0168443
569.212	0.0170690
569.290	0.0169601
569.369	0.0169186
569.447	0.0169778
569.525	0.0170731
569.603	0.0170732
569.681	0.0169277
569.759	0.0168971
569.837	0.0170478
569.915	0.0169032
569.994	0.0169547
570.072	0.0171139
570.150	0.0169266
570.228	0.0168579
570.306	0.0170361
570.384	0.0170618
570.462	0.0168859
570.540	0.0168997
570.619	0.0169579
570.697	0.0170839
570.775	0.0169865
570.853	0.0170152
570.931	0.0168629
571.009	0.0169485
571.087	0.0168652
571.165	0.0169408
571.244	0.0169276
571.322	0.0168526
571.400	0.0168550
571.478	0.0168948
571.556	0.0169728
571.634	0.0168636
571.712	0.0169044
571.790	0.0169054
571.869	0.0168450
571.947	0.0168639
572.025	0.0170845
572.103	0.0170422
572.181	0.0169281
572.259	0.0168324
572.337	0.0168896
572.415	0.0168457
572.494	0.0169825
572.572	0.0169869
572.650	0.0169324
572.728	0.0170263
572.806	0.0168359
572.884	0.0169205
572.962	0.0169805
573.040	0.0169898
573.119	0.0168859
573.197	0.0169337
573.275	0.0168659
573.353	0.0169869
573.431	0.0170715
573.509	0.0170589
573.587	0.0169337
573.665	0.0170431
573.744	0.0169650
573.822	0.0170442
573.900	0.0170457
573.978	0.0169460
574.056	0.0170241
574.134	0.0171185
574.212	0.0169300
574.290	0.0171109
574.369	0.0169990
574.447	0.0169723
574.525	0.0170002
574.603	0.0170100
574.681	0.0169897
574.759	0.0169570
574.837	0.0170818
574.915	0.0170547
574.994	0.0169583
575.072	0.0169424
575.150	0.0169221
575.228	0.0170544
575.306	0.0170423
575.384	0.0169571
575.462	0.0170184
575.540	0.0170818
575.619	0.0168887
575.697	0.0169138
575.775	0.0170520
575.853	0.0168835
575.931	0.0170754
576.009	0.0169200
576.087	0.0169212
576.165	0.0168617
576.244	0.0168519
576.322	0.0170894
576.400	0.0168744
576.478	0.0169936
576.556	0.0169128
576.634	0.0167800
576.712	0.0169198
576.790	0.0169523
576.869	0.0169673
576.947	0.0169384
577.025	0.0169225
577.103	0.0168873
577.181	0.0168909
577.259	0.0169958
577.337	0.0169443
577.415	0.0169015
577.494	0.0169240
577.572	0.0168372
577.650	0.0169014
577.728	0.0169525
577.806	0.0169785
577.884	0.0169933
577.962	0.0167847
578.040	0.0168552
578.119	0.0169135
578.197	0.0168786
578.275	0.0169412
578.353	0.0169025
578.431	0.0169273
578.509	0.0168682
578.587	0.0170512
578.665	0.0169701
578.744	0.0168954
578.822	0.0169032
578.900	0.0168382
578.978	0.0167961
579.056	0.0167458
579.134	0.0168872
579.212	0.0168293
579.290	0.0167846
579.369	0.0168365
579.447	0.0169002
579.525	0.0167701
579.603	0.0168672
579.681	0.0168684
579.759	0.0168481
579.837	0.0168327
579.915	0.0170336
579.994	0.0167188
580.072	0.0167251
580.150	0.0167252
580.228	0.0168416
580.306	0.0169070
580.384	0.0169402
580.462	0.0167988
580.540	0.0169785
580.619	0.0169944
580.697	0.0168951
580.775	0.0168051
580.853	0.0169264
580.931	0.0169579
581.009	0.0168668
581.087	0.0168154
581.165	0.0167876
581.244	0.0168465
581.322	0.0168187
581.400	0.0167639
581.478	0.0168517
581.556	0.0168444
581.634	0.0167953
581.712	0.0166985
581.790	0.0168185
581.869	0.0167291
581.947	0.0168378
582.025	0.0167096
582.103	0.0166896
582.181	0.0166819
582.259	0.0168969
582.337	0.0168060
582.415	0.0167720
582.494	0.0167787
582.572	0.0168275
582.650	0.0169857
582.728	0.0168313
582.806	0.0167383
582.884	0.0168530
582.962	0.0169102
583.040	0.0168656
583.119	0.0168150
583.197	0.0168964
583.275	0.0168837
583.353	0.0168324
583.431	0.0168722
583.509	0.0168897
583.587	0.0167518
583.665	0.0168681
583.744	0.0168929
583.822	0.0167981
583.900	0.0168459
583.978	0.0167464
584.056	0.0166963
584.134	0.0168433
584.212	0.0169837
584.290	0.0167903
584.369	0.0168049
584.447	0.0168507
584.525	0.0168755
584.603	0.0168971
584.681	0.0168916
584.759	0.0168374
584.837	0.0168043
584.915	0.0168569
584.994	0.0170071
585.072	0.0167485
585.150	0.0167916
585.228	0.0168434
585.306	0.0169106
585.384	0.0168458
585.462	0.0168732
585.540	0.0168379
585.619	0.0167729
585.697	0.0168117
585.775	0.0168497
585.853	0.0167865
585.931	0.0168107
586.009	0.0168508
586.087	0.0168342
586.165	0.0169018
586.244	0.0169361
586.322	0.0169579
586.400	0.0168077
586.478	0.0168101
586.556	0.0168964
586.634	0.0168930
586.712	0.0170157
586.790	0.0168896
586.869	0.0167950
586.947	0.0170655
587.025	0.0169183
587.103	0.0169417
587.181	0.0169747
587.259	0.0170121
587.337	0.0169969
587.415	0.0168864
587.494	0.0169859
587.572	0.0171315
587.650	0.0170438
587.728	0.0169203
587.806	0.0171146
587.884	0.0171696
587.962	0.0169920
588.040	0.0170116
588.119	0.0171693
588.197	0.0169945
588.275	0.0169717
588.353	0.0170680
588.431	0.0169953
588.509	0.0169599
588.587	0.0170150
588.665	0.0170161
588.744	0.0170370
588.822	0.0171571
588.900	0.0171172
588.978	0.0171317
589.056	0.0169254
589.134	0.0169817
589.212	0.0170419
589.290	0.0169969
589.369	0.0169656
589.447	0.0170924
589.525	0.0170061
589.603	0.0169998
589.681	0.0170621
589.759	0.0170294
589.837	0.0167981
589.915	0.0169761
589.994	0.0170294
590.072	0.0170029
590.150	0.0169518
590.228	0.0170415
590.306	0.0170586
590.384	0.0170335
590.462	0.0168261
590.540	0.0170063
590.619	0.0169337
590.697	0.0169738
590.775	0.0170771
590.853	0.0170689
590.931	0.0169563
591.009	0.0169512
591.087	0.0169933
591.165	0.0170513
591.244	0.0169625
591.322	0.0171489
591.400	0.0168937
591.478	0.0169358
591.556	0.0170169
591.634	0.0169958
591.712	0.0169942
591.790	0.0169073
591.869	0.0169102
591.947	0.0168122
592.025	0.0169671
592.103	0.0168771
592.181	0.0169549
592.259	0.0168946
592.337	0.0168248
592.415	0.0167374
592.494	0.0169021
592.572	0.0168536
592.650	0.0167486
592.728	0.0168329
592.806	0.0168916
592.884	0.0170335
592.962	0.0168201
593.040	0.0169830
593.119	0.0168349
593.197	0.0168794
593.275	0.0169130
593.353	0.0169852
593.431	0.0170419
593.509	0.0167687
593.587	0.0170120
593.665	0.0169051
593.744	0.0168436
593.822	0.0168162
593.900	0.0168969
593.978	0.0168633
594.056	0.0168229
594.134	0.0167300
594.212	0.0166698
594.290	0.0167915
594.369	0.0167951
594.447	0.0167352
594.525	0.0168101
594.603	0.0166349
594.681	0.0168596
594.759	0.0167754
594.837	0.0169286
594.915	0.0169115
594.994	0.0168351
595.072	0.0167062
595.150	0.0169047
595.228	0.0167616
595.306	0.0168279
595.384	0.0167828
595.462	0.0168071
595.540	0.0169178
595.619	0.0168393
595.697	0.0168197
595.775	0.0167559
595.853	0.0167984
595.931	0.0168460
596.009	0.0165955
596.087	0.0166933
596.165	0.0168734
596.244	0.0168298
596.322	0.0167747
596.400	0.0169521
596.478	0.0169630
596.556	0.0167357
596.634	0.0169563
596.712	0.0169285
596.790	0.0167892
596.869	0.0168211
596.947	0.0169592
597.025	0.0170886
597.103	0.0168506
597.181	0.0168843
597.259	0.0170055
597.337	0.0169887
597.415	0.0169126
597.494	0.0168559
597.572	0.0168768
597.650	0.0169578
597.728	0.0169624
597.806	0.0168695
597.884	0.0168164
597.962	0.0169421
598.040	0.0169132
598.119	0.0168239
598.197	0.0168330
598.275	0.0167744
598.353	0.0167690
598.431	0.0168447
598.509	0.0167956
598.587	0.0168288
598.665	0.0168330
598.744	0.0168211
598.822	0.0167475
598.900	0.0168110
598.978	0.0168476
599.056	0.0168506
599.134	0.0166881
599.212	0.0166525
599.290	0.0166151
599.369	0.0165267
599.447	0.0166030
599.525	0.0163940
599.603	0.0163380
599.681	0.0163692
599.759	0.0163470
599.837	0.0164771
599.915	0.0165070
599.994	0.0164697
600.072	0.0164710
600.150	0.0166006
600.228	0.0167331
600.306	0.0168354
600.384	0.0169311
600.462	0.0169990
600.540	0.0171292
600.619	0.0172532
600.697	0.0172951
600.775	0.0173703
600.853	0.0174623
600.931	0.0173990
601.009	0.0171819
601.087	0.0172594
601.165	0.0172343
601.244	0.0170192
601.322	0.0170241
601.400	0.0167593
601.478	0.0167012
601.556	0.0166821
601.634	0.0165321
601.712	0.0166396
601.790	0.0164458
601.869	0.0164041
601.947	0.0165553
602.025	0.0165111
602.103	0.0165969
602.181	0.0166967
602.259	0.0169038
602.337	0.0170724
602.415	0.0172723
602.494	0.0173158
602.572	0.0174596
602.650	0.0176287
602.728	0.0179171
602.806	0.0179830
602.884	0.0181782
602.962	0.0181984
603.040	0.0184389
603.119	0.0183733
603.197	0.0182417
603.275	0.0184921
603.353	0.0183926
603.431	0.0182785
603.509	0.0181271
603.587	0.0180328
603.665	0.0178261
603.744	0.0175633
603.822	0.0173623
603.900	0.0171261
603.978	0.0169209
604.056	0.0167562
604.134	0.0164826
604.212	0.0163626
604.290	0.0162711
604.369	0.0159951
604.447	0.0159785
604.525	0.0158482
604.603	0.0157858
604.681	0.0157837
604.759	0.0159980
604.837	0.0159835
604.915	0.0160723
604.994	0.0159776
605.072	0.0161805
605.150	0.0161837
605.228	0.0163783
605.306	0.0164484
605.384	0.0166148
605.462	0.0166613
605.540	0.0166786
605.619	0.0171410
605.697	0.0170470
605.775	0.0172736
605.853	0.0174931
605.931	0.0174973
606.009	0.0177531
606.087	0.0177128
606.165	0.0178375
606.244	0.0180094
606.322	0.0179916
606.400	0.0181245
606.478	0.0180470
606.556	0.0181685
606.634	0.0181198
606.712	0.0181577
606.790	0.0181402
606.869	0.0180011
606.947	0.0177907
607.025	0.0177741
607.103	0.0174922
607.181	0.0172425
607.259	0.0171159
607.337	0.0170229
607.415	0.0168343
607.494	0.0164475
607.572	0.0161050
607.650	0.0159698
607.728	0.0158575
607.806	0.0154073
607.884	0.0154416
607.962	0.0153388
608.040	0.0150738
608.119	0.0151066
608.197	0.0148309
608.275	0.0150297
608.353	0.0151439
608.431	0.0151910
608.509	0.0152283
608.587	0.0153833
608.665	0.0155315
608.744	0.0156793
608.822	0.0159600
608.900	0.0160839
608.978	0.0163629
609.056	0.0165572
609.134	0.0167977
609.212	0.0169947
609.290	0.0171857
609.369	0.0175752
609.447	0.0176112
609.525	0.0177164
609.603	0.0180910
609.681	0.0181606
609.759	0.0182791
609.837	0.0184277
609.915	0.0183387
609.994	0.0182693
610.072	0.0183308
610.150	0.0181454
610.228	0.0180576
610.306	0.0179864
610.384	0.0179047
610.462	0.0177592
610.540	0.0174258
610.619	0.0172942
610.697	0.0170482
610.775	0.0169486
610.853	0.0167035
610.931	0.0165461
611.009	0.0163789
611.087	0.0160901
611.165	0.0161749
611.244	0.0161664
611.322	0.0158038
611.400	0.0158997
611.478	0.0158610
611.556	0.0156454
611.634	0.0157020
611.712	0.0156097
611.790	0.0155614
611.869	0.0154441
611.947	0.0152354
612.025	0.0150362
612.103	0.0150914
612.181	0.0152148
612.259	0.0149834
612.337	0.0150995
612.415	0.0150887
612.494	0.0151007
612.572	0.0152039
612.650	0.0153178
612.728	0.0156702
612.806	0.0158500
612.884	0.0158940
612.962	0.0161050
613.040	0.0165062
613.119	0.0166985
613.197	0.0170842
613.275	0.0173878
613.353	0.0175899
613.431	0.0177050
613.509	0.0178226
613.587	0.0178195
613.665	0.0180856
613.744	0.0181314
613.822	0.0182435
613.900	0.0182794
613.978	0.0182623
614.056	0.0182487
614.134	0.0183136
614.212	0.0182251
614.290	0.0182529
614.369	0.0183408
614.447	0.0183535
614.525	0.0182000
614.603	0.0182562
614.681	0.0182218
614.759	0.0181312
614.837	0.0180820
614.915	0.0182040
614.994	0.0180633
615.072	0.0178612
615.150	0.0177658
615.228	0.0177660
615.306	0.0175342
615.384	0.0174471
615.462	0.0172891
615.540	0.0172411
615.619	0.0169326
615.697	0.0166419
615.775	0.0163783
615.853	0.0161465
615.931	0.0158726
616.009	0.0156065
616.087	0.0154398
616.165	0.0152687
616.244	0.0149711
616.322	0.0147320
616.400	0.0145390
616.478	0.0144497
616.556	0.0143539
616.634	0.0141397
616.712	0.0142200
616.790	0.0141411
616.869	0.0142435
616.947	0.0142581
617.025	0.0144342
617.103	0.0145721
617.181	0.0148098
617.259	0.0151823
617.337	0.0153822
617.415	0.0156696
617.494	0.0162234
617.572	0.0167581
617.650	0.0173235
617.728	0.0179053
617.806	0.0181254
617.884	0.0188422
617.962	0.0192791
618.040	0.0196191
618.119	0.0200666
618.197	0.0202409
618.275	0.0205656
618.353	0.0207905
618.431	0.0208386
618.509	0.0206236
618.587	0.0207439
618.665	0.0206823
618.744	0.0204142
618.822	0.0200884
618.900	0.0197693
618.978	0.0193661
619.056	0.0189598
619.134	0.0187345
619.212	0.0181847
619.290	0.0179559
619.369	0.0175605
619.447	0.0170695
619.525	0.0167418
619.603	0.0162406
619.681	0.0155976
619.759	0.0154352
619.837	0.0148344
619.915	0.0143755
619.994	0.0141267
620.072	0.0137803
620.150	0.0135109
620.228	0.0132669
620.306	0.0132758
620.384	0.0133472
620.462	0.0133972
620.540	0.0134985
620.619	0.0136880
620.697	0.0139827
620.775	0.0143320
620.853	0.0148189
620.931	0.0150873
621.009	0.0156725
621.087	0.0160033
621.165	0.0163582
621.244	0.0167809
621.322	0.0172361
621.400	0.0173312
621.478	0.0176328
621.556	0.0179198
621.634	0.0181327
621.712	0.0182664
621.790	0.0182996
621.869	0.0183553
621.947	0.0185154
622.025	0.0184702
622.103	0.0183291
622.181	0.0183248
622.259	0.0181514
622.337	0.0181168
622.415	0.0180367
622.494	0.0176936
622.572	0.0175295
622.650	0.0175138
622.728	0.0172182
622.806	0.0170931
622.884	0.0170544
622.962	0.0169488
623.040	0.0165823
623.119	0.0167193
623.197	0.0167281
623.275	0.0167390
623.353	0.0168388
623.431	0.0170101
623.509	0.0169540
623.587	0.0172887
623.665	0.0173556
623.744	0.0174437
623.822	0.0174675
623.900	0.0177608
623.978	0.0179314
624.056	0.0179299
624.134	0.0183979
624.212	0.0182405
624.290	0.0184710
624.369	0.0184792
624.447	0.0184919
624.525	0.0184405
624.603	0.0183627
624.681	0.0182610
624.759	0.0180625
624.837	0.0180331
624.915	0.0177621
624.994	0.0177370
625.072	0.0174562
625.150	0.0170000
625.228	0.0167519
625.306	0.0165534
625.384	0.0162729
625.462	0.0160921
625.540	0.0156310
625.619	0.0152634
625.697	0.0151717
625.775	0.0148914
625.853	0.0147382
625.931	0.0145820
626.009	0.0144431
626.087	0.0143273
626.165	0.0144000
626.244	0.0145251
626.322	0.0147137
626.400	0.0149303
626.478	0.0152711
626.556	0.0156994
626.634	0.0159840
626.712	0.0163250
626.790	0.0167806
626.869	0.0171143
626.947	0.0175222
627.025	0.0179977
627.103	0.0180782
627.181	0.0185627
627.259	0.0188471
627.337	0.0189903
627.415	0.0192874
627.494	0.0193426
627.572	0.0194221
627.650	0.0193880
627.728	0.0194327
627.806	0.0193112
627.884	0.0194309
627.962	0.0193409
628.040	0.0191173
628.119	0.0190553
628.197	0.0185236
628.275	0.0184253
628.353	0.0182158
628.431	0.0177263
628.509	0.0173992
628.587	0.0169332
628.665	0.0164403
628.744	0.0160623
628.822	0.0156156
628.900	0.0152321
628.978	0.0149451
629.056	0.0148615
629.134	0.0147533
629.212	0.0146182
629.290	0.0146818
629.369	0.0148648
629.447	0.0149140
629.525	0.0150679
629.603	0.0152772
629.681	0.0155943
629.759	0.0157462
629.837	0.0158749
629.915	0.0161031
629.994	0.0163099
630.072	0.0165440
630.150	0.0166869
630.228	0.0168537
630.306	0.0169917
630.384	0.0172739
630.462	0.0174826
630.540	0.0174635
630.619	0.0178869
630.697	0.0180246
630.775	0.0182105
630.853	0.0183476
630.931	0.0184485
631.009	0.0186174
631.087	0.0189485
631.165	0.0188998
631.244	0.0189935
631.322	0.0189319
631.400	0.0187968
631.478	0.0187503
631.556	0.0185211
631.634	0.0184462
631.712	0.0180544
631.790	0.0175209
631.869	0.0172398
631.947	0.0168200
632.025	0.0163470
632.103	0.0160432
632.181	0.0154448
632.259	0.0151040
632.337	0.0147378
632.415	0.0143954
632.494	0.0143142
632.572	0.0140383
632.650	0.0139156
632.728	0.0138800
632.806	0.0140868
632.884	0.0139710
632.962	0.0140552
633.040	0.0142895
633.119	0.0146378
633.197	0.0147962
633.275	0.0150150
633.353	0.0152991
633.431	0.0156406
633.509	0.0158952
633.587	0.0162352
633.665	0.0166207
633.744	0.0169840
633.822	0.0173601
633.900	0.0177405
633.978	0.0178070
634.056	0.0182190
634.134	0.0186216
634.212	0.0188046
634.290	0.0190453
634.369	0.0191907
634.447	0.0192031
634.525	0.0193432
634.603	0.0194736
634.681	0.0195934
634.759	0.0196007
634.837	0.0195058
634.915	0.0194859
634.994	0.0192564
635.072	0.0189307
635.150	0.0188349
635.228	0.0185429
635.306	0.0182634
635.384	0.0180974
635.462	0.0176073
635.540	0.0174681
635.619	0.0172318
635.697	0.0171624
635.775	0.0168980
635.853	0.0167962
635.931	0.0164948
636.009	0.0166947
636.087	0.0165656
636.165	0.0164796
636.244	0.0165137
636.322	0.0163246
636.400	0.0163273
636.478	0.0162295
636.556	0.0161494
636.634	0.0162763
636.712	0.0162286
636.790	0.0162517
636.869	0.0161885
636.947	0.0163040
637.025	0.0161556
637.103	0.0161245
637.181	0.0161965
637.259	0.0162271
637.337	0.0161227
637.415	0.0159457
637.494	0.0160409
637.572	0.0161034
637.650	0.0158764
637.728	0.0158873
637.806	0.0157905
637.884	0.0157281
637.962	0.0158125
638.040	0.0157231
638.119	0.0158537
638.197	0.0158734
638.275	0.0160840
638.353	0.0160381
638.431	0.0160697
638.509	0.0162151
638.587	0.0162986
638.665	0.0163113
638.744	0.0162436
638.822	0.0165648
638.900	0.0164320
638.978	0.0164417
639.056	0.0164275
639.134	0.0163353
639.212	0.0163522
639.290	0.0166179
639.369	0.0165562
639.447	0.0166616
639.525	0.0168659
639.603	0.0169389
639.681	0.0174529
639.759	0.0177423
639.837	0.0179704
639.915	0.0181706
639.994	0.0186763
640.072	0.0189246
640.150	0.0190271
640.228	0.0192209
640.306	0.0193306
640.384	0.0192100
640.462	0.0191023
640.540	0.0190443
640.619	0.0186353
640.697	0.0182775
640.775	0.0179299
640.853	0.0176879
640.931	0.0172829
641.009	0.0169722
641.087	0.0169844
641.165	0.0166257
641.244	0.0165238
641.322	0.0165083
641.400	0.0163474
641.478	0.0164661
641.556	0.0163902
641.634	0.0164529
641.712	0.0166214
641.790	0.0167506
641.869	0.0167838
641.947	0.0166531
642.025	0.0168129
642.103	0.0167652
642.181	0.0168413
642.259	0.0169298
642.337	0.0169529
642.415	0.0169191
642.494	0.0171540
642.572	0.0172987
642.650	0.0171689
642.728	0.0172076
642.806	0.0172800
642.884	0.0172017
642.962	0.0171160
643.040	0.0170312
643.119	0.0170075
643.197	0.0168966
643.275	0.0167715
643.353	0.0166520
643.431	0.0164199
643.509	0.0161679
643.587	0.0162444
643.665	0.0161135
643.744	0.0159081
643.822	0.0159333
643.900	0.0158727
643.978	0.0154639
644.056	0.0154343
644.134	0.0154404
644.212	0.0154286
644.290	0.0153842
644.369	0.0152184
644.447	0.0153133
644.525	0.0153799
644.603	0.0153000
644.681	0.0152051
644.759	0.0154369
644.837	0.0155309
644.915	0.0157954
644.994	0.0159750
645.072	0.0161564
645.150	0.0163258
645.228	0.0165887
645.306	0.0168590
645.384	0.0169629
645.462	0.0171215
645.540	0.0172425
645.619	0.0177592
645.697	0.0177198
645.775	0.0177696
645.853	0.0178606
645.931	0.0179951
646.009	0.0179548
646.087	0.0181457
646.165	0.0183229
646.244	0.0183341
646.322	0.0184421
646.400	0.0184078
646.478	0.0185324
646.556	0.0188699
646.634	0.0190524
646.712	0.0191218
646.790	0.0191257
646.869	0.0192250
646.947	0.0191406
647.025	0.0191250
647.103	0.0192567
647.181	0.0191137
647.259	0.0190549
647.337	0.0188267
647.415	0.0188015
647.494	0.0185879
647.572	0.0183210
647.650	0.0180782
647.728	0.0180200
647.806	0.0176138
647.884	0.0173806
647.962	0.0172253
648.040	0.0169576
648.119	0.0167755
648.197	0.0166360
648.275	0.0163356
648.353	0.0162881
648.431	0.0160051
648.509	0.0160815
648.587	0.0158302
648.665	0.0156976
648.744	0.0155808
648.822	0.0155361
648.900	0.0155173
648.978	0.0154043
649.056	0.0152209
649.134	0.0152702
649.212	0.0152953
649.290	0.0151528
649.369	0.0152692
649.447	0.0153636
649.525	0.0151904
649.603	0.0153580
649.681	0.0153130
649.759	0.0153767
649.837	0.0154321
649.915	0.0155410
649.994	0.0157388
650.072	0.0157578
650.150	0.0158801
650.228	0.0161270
650.306	0.0162115
650.384	0.0162533
650.462	0.0163630
650.540	0.0166117
650.619	0.0167512
650.697	0.0169516
650.775	0.0170683
650.853	0.0169121
650.931	0.0172284
651.009	0.0172971
651.087	0.0172337
651.165	0.0173464
651.244	0.0174014
651.322	0.0174512
651.400	0.0175389
651.478	0.0173797
651.556	0.0173470
651.634	0.0172964
651.712	0.0172906
651.790	0.0173199
651.869	0.0171886
651.947	0.0173154
652.025	0.0171675
652.103	0.0171529
652.181	0.0171469
652.259	0.0170272
652.337	0.0170097
652.415	0.0169630
652.494	0.0168639
652.572	0.0169236
652.650	0.0168385
652.728	0.0168610
652.806	0.0169002
652.884	0.0166943
652.962	0.0167014
653.040	0.0167868
653.119	0.0166019
653.197	0.0166526
653.275	0.0168925
653.353	0.0168424
653.431	0.0170879
653.509	0.0173036
653.587	0.0174499
653.665	0.0175663
653.744	0.0179273
653.822	0.0179343
653.900	0.0180570
653.978	0.0183652
654.056	0.0182519
654.134	0.0184212
654.212	0.0184537
654.290	0.0184554
654.369	0.0185004
654.447	0.0183302
654.525	0.0180270
654.603	0.0180428
654.681	0.0178944
654.759	0.0176891
654.837	0.0175362
654.915	0.0172297
654.994	0.0171175
655.072	0.0168269
655.150	0.0166266
655.228	0.0163618
655.306	0.0162344
655.384	0.0158437
655.462	0.0157308
655.540	0.0155898
655.619	0.0154710
655.697	0.0153030
655.775	0.0150594
655.853	0.0150346
655.931	0.0149815
656.009	0.0149535
656.087	0.0148218
656.165	0.0147884
656.244	0.0148042
656.322	0.0150435
656.400	0.0151218
656.478	0.0151583
656.556	0.0153570
656.634	0.0156071
656.712	0.0157140
656.790	0.0160641
656.869	0.0163191
656.947	0.0163589
657.025	0.0164017
657.103	0.0166843
657.181	0.0167415
657.259	0.0169318
657.337	0.0170078
657.415	0.0169788
657.494	0.0170499
657.572	0.0172406
657.650	0.0174602
657.728	0.0174144
657.806	0.0174263
657.884	0.0174007
657.962	0.0174314
658.040	0.0175502
658.119	0.0173511
658.197	0.0175014
658.275	0.0174481
658.353	0.0173296
658.431	0.0173001
658.509	0.0172215
658.587	0.0173676
658.665	0.0172147
658.744	0.0170852
658.822	0.0170634
658.900	0.0171928
658.978	0.0171980
659.056	0.0173064
659.134	0.0173769
659.212	0.0174991
659.290	0.0175555
659.369	0.0175000
659.447	0.0177354
659.525	0.0177534
659.603	0.0178572
659.681	0.0179400
659.759	0.0180786
659.837	0.0179357
659.915	0.0180612
659.994	0.0181113
660.072	0.0180873
660.150	0.0179987
660.228	0.0181323
660.306	0.0181380
660.384	0.0181323
660.462	0.0180750
660.540	0.0179732
660.619	0.0181042
660.697	0.0179261
660.775	0.0178531
660.853	0.0177432
660.931	0.0176905
661.009	0.0176327
661.087	0.0173360
661.165	0.0172229
661.244	0.0170093
661.322	0.0166383
661.400	0.0165711
661.478	0.0162091
661.556	0.0158038
661.634	0.0158237
661.712	0.0156404
661.790	0.0154108
661.869	0.0152461
661.947	0.0151374
662.025	0.0151156
662.103	0.0149468
662.181	0.0149591
662.259	0.0151409
662.337	0.0151656
662.415	0.0152078
662.494	0.0153376
662.572	0.0156528
662.650	0.0157874
662.728	0.0159262
662.806	0.0160464
662.884	0.0161401
662.962	0.0163667
663.040	0.0166054
663.119	0.0167506
663.197	0.0167276
663.275	0.0168491
663.353	0.0169844
663.431	0.0169830
663.509	0.0171266
663.587	0.0173148
663.665	0.0173436
663.744	0.0174422
663.822	0.0172269
663.900	0.0174625
663.978	0.0175915
664.056	0.0176723
664.134	0.0176601
664.212	0.0176761
664.290	0.0178057
664.369	0.0177265
664.447	0.0179625
664.525	0.0177704
664.603	0.0177999
664.681	0.0176870
664.759	0.0176976
664.837	0.0175746
664.915	0.0175694
664.994	0.0173930
665.072	0.0173036
665.150	0.0172582
665.228	0.0171312
665.306	0.0170593
665.384	0.0170776
665.462	0.0172074
665.540	0.0170626
665.619	0.0170222
665.697	0.0171375
665.775	0.0172948
665.853	0.0172987
665.931	0.0171796
666.009	0.0174875
666.087	0.0174335
666.165	0.0174747
666.244	0.0175785
666.322	0.0176806
666.400	0.0177750
666.478	0.0176551
666.556	0.0176462
666.634	0.0176930
666.712	0.0175882
666.790	0.0175493
666.869	0.0175761
666.947	0.0175112
667.025	0.0174020
667.103	0.0174390
667.181	0.0175009
667.259	0.0173819
667.337	0.0173767
667.415	0.0173306
667.494	0.0173241
667.572	0.0172632
667.650	0.0173495
667.728	0.0172899
667.806	0.0172231
667.884	0.0171069
667.962	0.0170206
668.040	0.0169641
668.119	0.0166378
668.197	0.0165939
668.275	0.0165457
668.353	0.0162135
668.431	0.0160792
668.509	0.0159739
668.587	0.0157344
668.665	0.0155491
668.744	0.0154333
668.822	0.0153228
668.900	0.0149947
668.978	0.0148724
669.056	0.0149666
669.134	0.0148800
669.212	0.0147735
669.290	0.0149278
669.369	0.0149761
669.447	0.0149680
669.525	0.0150170
669.603	0.0153387
669.681	0.0155189
669.759	0.0156913
669.837	0.0160295
669.915	0.0163126
669.994	0.0164474
670.072	0.0167313
670.150	0.0171784
670.228	0.0174554
670.306	0.0176783
670.384	0.0178081
670.462	0.0179759
670.540	0.0182921
670.619	0.0183300
670.697	0.0184976
670.775	0.0184126
670.853	0.0183907
670.931	0.0185369
671.009	0.0185104
671.087	0.0185083
671.165	0.0183744
671.244	0.0183591
671.322	0.0183099
671.400	0.0181793
671.478	0.0180854
671.556	0.0178749
671.634	0.0179218
671.712	0.0176785
671.790	0.0173907
671.869	0.0172926
671.947	0.0173252
672.025	0.0171748
672.103	0.0170900
672.181	0.0168353
672.259	0.0165974
672.337	0.0166374
672.415	0.0164409
672.494	0.0164637
672.572	0.0163290
672.650	0.0161726
672.728	0.0161575
672.806	0.0160594
672.884	0.0160773
672.962	0.0160659
673.040	0.0160297
673.119	0.0160371
673.197	0.0161064
673.275	0.0160722
673.353	0.0160582
673.431	0.0162447
673.509	0.0163522
673.587	0.0164256
673.665	0.0163098
673.744	0.0165384
673.822	0.0166412
673.900	0.0166535
673.978	0.0166521
674.056	0.0166071
674.134	0.0167566
674.212	0.0168250
674.290	0.0169892
674.369	0.0168559
674.447	0.0170512
674.525	0.0169081
674.603	0.0167944
674.681	0.0168877
674.759	0.0169642
674.837	0.0167850
674.915	0.0167505
674.994	0.0167129
675.072	0.0167570
675.150	0.0170248
675.228	0.0167360
675.306	0.0167651
675.384	0.0168446
675.462	0.0166447
675.540	0.0166809
675.619	0.0167017
675.697	0.0165234
675.775	0.0166032
675.853	0.0165385
675.931	0.0164255
676.009	0.0164095
676.087	0.0164749
676.165	0.0164964
676.244	0.0164278
676.322	0.0164440
676.400	0.0165802
676.478	0.0166266
676.556	0.0167400
676.634	0.0168306
676.712	0.0169241
676.790	0.0169144
676.869	0.0170110
676.947	0.0171270
677.025	0.0171555
677.103	0.0174312
677.181	0.0174846
677.259	0.0174411
677.337	0.0174898
677.415	0.0176310
677.494	0.0174624
677.572	0.0175444
677.650	0.0175328
677.728	0.0176281
677.806	0.0174853
677.884	0.0176480
677.962	0.0174527
678.040	0.0174316
678.119	0.0174669
678.197	0.0174989
678.275	0.0173531
678.353	0.0173137
678.431	0.0174034
678.509	0.0172939
678.587	0.0172424
678.665	0.0170824
678.744	0.0171549
678.822	0.0170986
678.900	0.0170763
678.978	0.0169644
679.056	0.0167831
679.134	0.0167459
679.212	0.0165966
679.290	0.0164464
679.369	0.0163140
679.447	0.0162316
679.525	0.0161002
679.603	0.0158440
679.681	0.0158473
679.759	0.0158713
679.837	0.0156927
679.915	0.0157381
679.994	0.0156554
680.072	0.0156431
680.150	0.0156949
680.228	0.0155352
680.306	0.0157523
680.384	0.0158207
680.462	0.0158202
680.540	0.0159322
680.619	0.0159880
680.697	0.0161708
680.775	0.0162483
680.853	0.0163799
680.931	0.0165322
681.009	0.0165167
681.087	0.0168362
681.165	0.0170038
681.244	0.0171363
681.322	0.0173288
681.400	0.0174589
681.478	0.0174950
681.556	0.0177486
681.634	0.0179140
681.712	0.0178272
681.790	0.0178307
681.869	0.0179376
681.947	0.0179890
682.025	0.0178439
682.103	0.0177930
682.181	0.0177969
682.259	0.0174748
682.337	0.0175040
682.415	0.0173372
682.494	0.0171771
682.572	0.0172104
682.650	0.0170701
682.728	0.0167547
682.806	0.0166699
682.884	0.0168813
682.962	0.0166779
683.040	0.0165752
683.119	0.0166441
683.197	0.0167981
683.275	0.0166534
683.353	0.0167141
683.431	0.0168433
683.509	0.0167991
683.587	0.0170618
683.665	0.0170124
683.744	0.0168627
683.822	0.0169778
683.900	0.0170449
683.978	0.0172032
684.056	0.0171846
684.134	0.0170254
684.212	0.0170964
684.290	0.0169518
684.369	0.0169568
684.447	0.0169427
684.525	0.0168613
684.603	0.0168882
684.681	0.0167831
684.759	0.0166663
684.837	0.0168394
684.915	0.0165730
684.994	0.0165807
685.072	0.0164832
685.150	0.0164669
685.228	0.0164957
685.306	0.0165826
685.384	0.0166203
685.462	0.0166121
685.540	0.0166911
685.619	0.0169550
685.697	0.0169746
685.775	0.0169370
685.853	0.0171451
685.931	0.0171294
686.009	0.0171720
686.087	0.0171825
686.165	0.0171442
686.244	0.0174240
686.322	0.0173324
686.400	0.0173986
686.478	0.0173373
686.556	0.0170169
686.634	0.0172789
686.712	0.0170818
686.790	0.0172007
686.869	0.0169750
686.947	0.0168265
687.025	0.0167448
687.103	0.0168085
687.181	0.0166732
687.259	0.0167014
687.337	0.0167684
687.415	0.0167256
687.494	0.0167452
687.572	0.0168008
687.650	0.0166019
687.728	0.0168774
687.806	0.0166852
687.884	0.0168047
687.962	0.0169315
688.040	0.0168826
688.119	0.0169733
688.197	0.0170381
688.275	0.0171017
688.353	0.0171376
688.431	0.0169933
688.509	0.0171093
688.587	0.0170631
688.665	0.0172042
688.744	0.0171684
688.822	0.0172286
688.900	0.0171324
688.978	0.0170718
689.056	0.0172512
689.134	0.0172807
689.212	0.0171560
689.290	0.0171285
689.369	0.0171257
689.447	0.0170137
689.525	0.0169499
689.603	0.0168497
689.681	0.0169325
689.759	0.0169318
689.837	0.0167316
689.915	0.0167873
689.994	0.0168858
690.072	0.0166788
690.150	0.0166902
690.228	0.0166387
690.306	0.0165847
690.384	0.0165559
690.462	0.0166163
690.540	0.0166821
690.619	0.0165320
690.697	0.0166252
690.775	0.0165261
690.853	0.0165535
690.931	0.0164854
691.009	0.0165634
691.087	0.0165095
691.165	0.0165431
691.244	0.0165099
691.322	0.0165184
691.400	0.0164573
691.478	0.0164703
691.556	0.0164947
691.634	0.0165449
691.712	0.0166407
691.790	0.0166234
691.869	0.0165843
691.947	0.0166020
692.025	0.0166618
692.103	0.0167664
692.181	0.0167292
692.259	0.0167242
692.337	0.0169176
692.415	0.0168098
692.494	0.0168102
692.572	0.0169381
692.650	0.0169856
692.728	0.0169624
692.806	0.0169801
692.884	0.0170783
692.962	0.0171562
693.040	0.0171003
693.119	0.0170598
693.197	0.0171786
693.275	0.0171858
693.353	0.0172571
693.431	0.0172496
693.509	0.0175446
693.587	0.0172950
693.665	0.0172636
693.744	0.0172485
693.822	0.0171290
693.900	0.0173317
693.978	0.0170536
694.056	0.0170914
694.134	0.0170683
694.212	0.0170087
694.290	0.0170332
694.369	0.0168663
694.447	0.0168488
694.525	0.0168291
694.603	0.0167607
694.681	0.0166969
694.759	0.0167387
694.837	0.0166745
694.915	0.0165499
694.994	0.0168127
695.072	0.0167760
695.150	0.0167587
695.228	0.0166008
695.306	0.0167877
695.384	0.0167346
695.462	0.0167597
695.540	0.0167500
695.619	0.0166196
695.697	0.0166581
695.775	0.0166991
695.853	0.0168690
695.931	0.0168085
696.009	0.0167894
696.087	0.0166506
696.165	0.0167744
696.244	0.0168577
696.322	0.0165791
696.400	0.0167590
696.478	0.0167175
696.556	0.0167147
696.634	0.0166254
696.712	0.0168871
696.790	0.0168011
696.869	0.0167736
696.947	0.0167137
697.025	0.0168488
697.103	0.0169194
697.181	0.0170360
697.259	0.0170219
697.337	0.0170361
697.415	0.0171233
697.494	0.0171949
697.572	0.0171666
697.650	0.0169727
697.728	0.0172201
697.806	0.0170474
697.884	0.0170568
697.962	0.0171753
698.040	0.0170530
698.119	0.0169688
698.197	0.0169818
698.275	0.0169409
698.353	0.0170127
698.431	0.0170654
698.509	0.0170684
698.587	0.0169582
698.665	0.0170090
698.744	0.0169978
698.822	0.0169373
698.900	0.0169653
698.978	0.0171786
699.056	0.0173105
699.134	0.0170837
699.212	0.0171564
699.290	0.0173335
699.369	0.0172527
699.447	0.0175185
699.525	0.0175234
699.603	0.0175909
699.681	0.0175170
699.759	0.0175745
699.837	0.0175924
699.915	0.0176094
699.994	0.0176022
700.072	0.0174963
700.150	0.0175703
700.228	0.0172490
700.306	0.0173083
700.384	0.0173373
700.462	0.0171899
700.540	0.0172428
700.619	0.0169787
700.697	0.0170759
700.775	0.0169282
700.853	0.0169112
700.931	0.0168514
701.009	0.0168193
701.087	0.0166944
701.165	0.0165485
701.244	0.0167982
701.322	0.0164815
701.400	0.0165603
701.478	0.0163720
701.556	0.0165345
701.634	0.0166034
701.712	0.0165400
701.790	0.0164512
701.869	0.0165849
701.947	0.0165163
702.025	0.0165565
702.103	0.0166447
702.181	0.0166711
702.259	0.0166242
702.337	0.0166566
702.415	0.0166447
702.494	0.0165738
702.572	0.0168068
702.650	0.0167812
702.728	0.0168217
702.806	0.0168104
702.884	0.0168372
702.962	0.0171076
703.040	0.0169938
703.119	0.0168526
703.197	0.0168573
703.275	0.0169242
703.353	0.0169892
703.431	0.0170063
703.509	0.0169814
703.587	0.0170424
703.665	0.0170728
703.744	0.0170941
703.822	0.0171374
703.900	0.0170830
703.978	0.0171345
704.056	0.0171105
704.134	0.0171511
704.212	0.0170692
704.290	0.0169611
704.369	0.0169322
704.447	0.0169287
704.525	0.0169653
704.603	0.0169044
704.681	0.0167802
704.759	0.0167480
704.837	0.0168855
704.915	0.0169017
704.994	0.0169914
705.072	0.0167821
705.150	0.0167873
705.228	0.0168420
705.306	0.0169249
705.384	0.0169075
705.462	0.0167619
705.540	0.0170365
705.619	0.0169571
705.697	0.0170644
705.775	0.0170319
705.853	0.0169627
705.931	0.0171465
706.009	0.0171856
706.087	0.0170078
706.165	0.0170351
706.244	0.0169926
706.322	0.0171268
706.400	0.0171381
706.478	0.0171063
706.556	0.0172113
706.634	0.0170920
706.712	0.0170667
706.790	0.0171565
706.869	0.0172323
706.947	0.0171465
707.025	0.0170688
707.103	0.0170950
707.181	0.0169823
707.259	0.0169072
707.337	0.0168604
707.415	0.0168069
707.494	0.0169430
707.572	0.0167862
707.650	0.0166199
707.728	0.0165903
707.806	0.0165372
707.884	0.0164729
707.962	0.0164832
708.040	0.0164717
708.119	0.0164108
708.197	0.0164787
708.275	0.0164730
708.353	0.0162872
708.431	0.0164133
708.509	0.0164823
708.587	0.0164729
708.665	0.0163504
708.744	0.0162760
708.822	0.0164609
708.900	0.0163717
708.978	0.0164420
709.056	0.0165082
709.134	0.0165774
709.212	0.0165617
709.290	0.0166481
709.369	0.0167611
709.447	0.0166926
709.525	0.0167761
709.603	0.0168748
709.681	0.0169131
709.759	0.0168611
709.837	0.0170115
709.915	0.0170989
709.994	0.0170425
710.072	0.0171722
710.150	0.0171059
710.228	0.0171472
710.306	0.0172987
710.384	0.0172587
710.462	0.0171901
710.540	0.0173609
710.619	0.0170792
710.697	0.0172897
710.775	0.0171680
710.853	0.0170417
710.931	0.0172507
711.009	0.0170890
711.087	0.0170303
711.165	0.0171320
711.244	0.0170504
711.322	0.0169983
711.400	0.0169547
711.478	0.0170260
711.556	0.0170619
711.634	0.0168814
711.712	0.0167410
711.790	0.0167429
711.869	0.0169084
711.947	0.0167965
712.025	0.0167452
712.103	0.0165861
712.181	0.0165643
712.259	0.0166257
712.337	0.0165672
712.415	0.0165844
712.494	0.0165863
712.572	0.0166215
712.650	0.0165949
712.728	0.0164964
712.806	0.0165032
712.884	0.0164698
712.962	0.0164642
713.040	0.0166083
713.119	0.0165532
713.197	0.0166886
713.275	0.0166356
713.353	0.0166193
713.431	0.0166039
713.509	0.0165604
713.587	0.0166908
713.665	0.0166274
713.744	0.0167051
713.822	0.0168400
713.900	0.0169085
713.978	0.0171355
714.056	0.0170255
714.134	0.0170157
714.212	0.0170396
714.290	0.0171493
714.369	0.0173044
714.447	0.0172559
714.525	0.0172116
714.603	0.0173406
714.681	0.0172880
714.759	0.0173320
714.837	0.0173501
714.915	0.0172697
714.994	0.0174258
715.072	0.0173978
715.150	0.0172753
715.228	0.0172665
715.306	0.0171702
715.384	0.0173347
715.462	0.0171558
715.540	0.0171418
715.619	0.0171416
715.697	0.0170540
715.775	0.0169470
715.853	0.0168454
715.931	0.0170164
716.009	0.0168268
716.087	0.0166425
716.165	0.0166991
716.244	0.0166267
716.322	0.0165083
716.400	0.0164258
716.478	0.0165344
716.556	0.0164898
716.634	0.0166467
716.712	0.0166037
716.790	0.0164606
716.869	0.0165982
716.947	0.0164788
717.025	0.0164620
717.103	0.0166076
717.181	0.0166787
717.259	0.0166508
717.337	0.0168388
717.415	0.0167903
717.494	0.0166547
717.572	0.0167451
717.650	0.0167602
717.728	0.0167680
717.806	0.0170167
717.884	0.0168191
717.962	0.0169026
718.040	0.0168900
718.119	0.0169930
718.197	0.0171441
718.275	0.0171016
718.353	0.0169807
718.431	0.0171325
718.509	0.0171072
718.587	0.0171236
718.665	0.0170384
718.744	0.0170180
718.822	0.0168967
718.900	0.0170773
718.978	0.0171091
719.056	0.0169559
719.134	0.0169392
719.212	0.0169106
719.290	0.0168955
719.369	0.0168545
719.447	0.0168356
719.525	0.0170458
719.603	0.0170450
719.681	0.0168643
719.759	0.0169353
719.837	0.0170055
719.915	0.0169917
719.994	0.0171217
720.072	0.0168497
720.150	0.0168864
720.228	0.0171163
720.306	0.0171408
720.384	0.0171394
720.462	0.0171789
720.540	0.0173286
720.619	0.0173090
720.697	0.0173586
720.775	0.0172237
720.853	0.0172374
720.931	0.0173502
721.009	0.0173129
721.087	0.0174074
721.165	0.0175044
721.244	0.0175347
721.322	0.0175056
721.400	0.0173319
721.478	0.0172336
721.556	0.0172777
721.634	0.0172459
721.712	0.0171228
721.790	0.0171992
721.869	0.0170946
721.947	0.0170790
722.025	0.0170795
722.103	0.0168517
722.181	0.0168697
722.259	0.0167526
722.337	0.0167599
722.415	0.0166499
722.494	0.0165469
722.572	0.0165517
722.650	0.0165044
722.728	0.0166556
722.806	0.0165701
722.884	0.0164980
722.962	0.0165456
723.040	0.0166730
723.119	0.0166035
723.197	0.0167406
723.275	0.0167144
723.353	0.0167850
723.431	0.0170741
723.509	0.0168452
723.587	0.0169351
723.665	0.0170832
723.744	0.0169879
723.822	0.0172622
723.900	0.0172329
723.978	0.0172567
724.056	0.0173707
724.134	0.0172989
724.212	0.0174870
724.290	0.0175439
724.369	0.0175720
724.447	0.0173693
724.525	0.0173972
724.603	0.0174261
724.681	0.0174402
724.759	0.0173807
724.837	0.0173055
724.915	0.0172123
724.994	0.0170303
725.072	0.0171484
725.150	0.0170106
725.228	0.0170590
725.306	0.0169434
725.384	0.0168596
725.462	0.0168660
725.540	0.0167386
725.619	0.0167011
725.697	0.0166984
725.775	0.0165595
725.853	0.0165126
725.931	0.0166596
726.009	0.0166121
726.087	0.0165913
726.165	0.0166824
726.244	0.0167172
726.322	0.0165074
726.400	0.0166727
726.478	0.0166047
726.556	0.0167737
726.634	0.0168222
726.712	0.0168287
726.790	0.0167674
726.869	0.0168186
726.947	0.0169485
727.025	0.0169614
727.103	0.0170709
727.181	0.0172210
727.259	0.0171394
727.337	0.0173135
727.415	0.0171849
727.494	0.0173601
727.572	0.0173827
727.650	0.0172028
727.728	0.0173196
727.806	0.0174258
727.884	0.0173962
727.962	0.0173529
728.040	0.0172134
728.119	0.0172670
728.197	0.0173035
728.275	0.0171470
728.353	0.0171100
728.431	0.0170806
728.509	0.0170725
728.587	0.0170465
728.665	0.0169073
728.744	0.0168317
728.822	0.0168221
728.900	0.0168415
728.978	0.0166500
729.056	0.0167879
729.134	0.0165671
729.212	0.0164650
729.290	0.0165900
729.369	0.0164852
729.447	0.0163336
729.525	0.0163461
729.603	0.0163963
729.681	0.0163741
729.759	0.0164483
729.837	0.0165934
729.915	0.0165439
729.994	0.0166243
730.072	0.0166492
730.150	0.0165948
730.228	0.0168742
730.306	0.0169595
730.384	0.0168690
730.462	0.0170646
730.540	0.0171595
730.619	0.0171690
730.697	0.0171613
730.775	0.0172318
730.853	0.0173447
730.931	0.0173316
731.009	0.0173714
731.087	0.0173600
731.165	0.0174813
731.244	0.0175238
731.322	0.0174265
731.400	0.0173121
731.478	0.0173630
731.556	0.0173566
731.634	0.0174333
731.712	0.0172937
731.790	0.0172968
731.869	0.0173311
731.947	0.0173589
732.025	0.0172621
732.103	0.0172541
732.181	0.0171119
732.259	0.0170651
732.337	0.0170570
732.415	0.0169687
732.494	0.0167826
732.572	0.0168504
732.650	0.0168868
732.728	0.0168175
732.806	0.0167681
732.884	0.0167941
732.962	0.0167085
733.040	0.0165832
733.119	0.0164983
733.197	0.0166702
733.275	0.0165586
733.353	0.0165392
733.431	0.0164582
733.509	0.0165065
733.587	0.0165569
733.665	0.0164688
733.744	0.0165283
733.822	0.0165880
733.900	0.0163801
733.978	0.0164825
734.056	0.0164561
734.134	0.0163769
734.212	0.0164764
734.290	0.0165042
734.369	0.0162515
734.447	0.0163957
734.525	0.0163841
734.603	0.0164749
734.681	0.0164163
734.759	0.0163965
734.837	0.0164001
734.915	0.0164604
734.994	0.0165586
735.072	0.0165952
735.150	0.0165986
735.228	0.0165373
735.306	0.0166671
735.384	0.0166560
735.462	0.0167314
735.540	0.0166277
735.619	0.0167117
735.697	0.0167329
735.775	0.0168699
735.853	0.0168552
735.931	0.0169682
736.009	0.0169601
736.087	0.0169992
736.165	0.0172686
736.244	0.0173270
736.322	0.0173917
736.400	0.0173879
736.478	0.0173365
736.556	0.0173456
736.634	0.0173959
736.712	0.0173897
736.790	0.0174413
736.869	0.0174966
736.947	0.0173622
737.025	0.0173319
737.103	0.0174442
737.181	0.0172708
737.259	0.0173277
737.337	0.0172601
737.415	0.0170441
737.494	0.0172592
737.572	0.0171105
737.650	0.0170601
737.728	0.0170424
737.806	0.0169291
737.884	0.0169176
737.962	0.0168644
738.040	0.0169283
738.119	0.0169818
738.197	0.0168870
738.275	0.0167658
738.353	0.0168423
738.431	0.0168293
738.509	0.0168172
738.587	0.0168437
738.665	0.0168098
738.744	0.0169009
738.822	0.0168187
738.900	0.0169174
738.978	0.0169498
739.056	0.0168808
739.134	0.0169674
739.212	0.0169343
739.290	0.0169147
739.369	0.0168694
739.447	0.0168693
739.525	0.0167849
739.603	0.0168839
739.681	0.0169276
739.759	0.0169233
739.837	0.0166943
739.915	0.0166076
739.994	0.0167865
740.072	0.0168764
740.150	0.0167861
740.228	0.0167591
740.306	0.0165700
740.384	0.0166725
740.462	0.0166377
740.540	0.0166303
740.619	0.0166227
740.697	0.0164372
740.775	0.0166221
740.853	0.0165873
740.931	0.0166326
741.009	0.0163821
741.087	0.0164739
741.165	0.0166705
741.244	0.0164880
741.322	0.0165341
741.400	0.0165456
741.478	0.0167007
741.556	0.0167117
741.634	0.0166932
741.712	0.0166637
741.790	0.0166522
741.869	0.0165973
741.947	0.0167743
742.025	0.0166965
742.103	0.0166758
742.181	0.0168726
742.259	0.0168038
742.337	0.0167292
742.415	0.0169728
742.494	0.0169283
742.572	0.0170478
742.650	0.0169053
742.728	0.0170453
742.806	0.0169793
742.884	0.0170372
742.962	0.0172627
743.040	0.0171974
743.119	0.0171133
743.197	0.0171483
743.275	0.0172628
743.353	0.0171478
743.431	0.0171869
743.509	0.0173163
743.587	0.0174077
743.665	0.0172115
743.744	0.0172302
743.822	0.0173969
743.900	0.0173476
743.978	0.0172562
744.056	0.0172504
744.134	0.0171911
744.212	0.0173046
744.290	0.0173120
744.369	0.0172283
744.447	0.0171762
744.525	0.0171523
744.603	0.0172283
744.681	0.0170437
744.759	0.0170129
744.837	0.0170760
744.915	0.0170046
744.994	0.0169715
745.072	0.0170847
745.150	0.0169043
745.228	0.0168683
745.306	0.0169770
745.384	0.0166975
745.462	0.0166521
745.540	0.0167471
745.619	0.0167026
745.697	0.0167731
745.775	0.0167921
745.853	0.0167157
745.931	0.0166446
746.009	0.0167193
746.087	0.0166021
746.165	0.0166068
746.244	0.0165198
746.322	0.0165335
746.400	0.0166217
746.478	0.0167022
746.556	0.0166196
746.634	0.0165806
746.712	0.0167004
746.790	0.0165273
746.869	0.0165623
746.947	0.0167245
747.025	0.0166341
747.103	0.0166992
747.181	0.0167509
747.259	0.0168600
747.337	0.0168053
747.415	0.0168159
747.494	0.0167196
747.572	0.0168145
747.650	0.0169787
747.728	0.0169495
747.806	0.0169355
747.884	0.0170094
747.962	0.0169727
748.040	0.0171463
748.119	0.0172283
748.197	0.0171523
748.275	0.0172738
748.353	0.0171983
748.431	0.0171334
748.509	0.0172726
748.587	0.0174210
748.665	0.0172494
748.744	0.0171922
748.822	0.0172070
748.900	0.0171865
748.978	0.0171659
749.056	0.0170298
749.134	0.0171647
749.212	0.0171355
749.290	0.0172506
749.369	0.0170164
749.447	0.0168885
749.525	0.0168837
749.603	0.0169247
749.681	0.0168394
749.759	0.0168203
749.837	0.0170104
749.915	0.0167284
749.994	0.0167442
750.072	0.0168640
750.150	0.0167245
750.228	0.0167060
750.306	0.0168208
750.384	0.0168530
750.462	0.0168600
750.540	0.0169053
750.619	0.0169027
750.697	0.0170548
750.775	0.0168976
750.853	0.0168523
750.931	0.0168574
751.009	0.0170319
751.087	0.0170915
751.165	0.0170427
751.244	0.0170175
751.322	0.0170671
751.400	0.0170495
751.478	0.0170470
751.556	0.0171284
751.634	0.0171602
751.712	0.0169015
751.790	0.0171320
751.869	0.0170656
751.947	0.0169666
752.025	0.0170139
752.103	0.0169824
752.181	0.0169317
752.259	0.0169411
752.337	0.0169759
752.415	0.0168563
752.494	0.0170813
752.572	0.0170117
752.650	0.0170310
752.728	0.0170808
752.806	0.0168064
752.884	0.0168404
752.962	0.0168356
753.040	0.0167272
753.119	0.0166405
753.197	0.0166486
753.275	0.0168842
753.353	0.0166860
753.431	0.0167270
753.509	0.0165754
753.587	0.0167542
753.665	0.0167405
753.744	0.0167212
753.822	0.0167332
753.900	0.0167300
753.978	0.0167315
754.056	0.0166757
754.134	0.0167426
754.212	0.0167357
754.290	0.0167480
754.369	0.0167210
754.447	0.0166256
754.525	0.0168855
754.603	0.0168384
754.681	0.0168762
754.759	0.0167891
754.837	0.0167298
754.915	0.0169327
754.994	0.0169373
755.072	0.0168611
755.150	0.0169440
755.228	0.0169721
755.306	0.0169388
755.384	0.0169260
755.462	0.0170013
755.540	0.0169764
755.619	0.0171022
755.697	0.0170721
755.775	0.0170364
755.853	0.0170903
755.931	0.0169609
756.009	0.0170650
756.087	0.0169485
756.165	0.0170850
756.244	0.0170511
756.322	0.0169501
756.400	0.0171289
756.478	0.0172034
756.556	0.0170675
756.634	0.0169934
756.712	0.0170124
756.790	0.0169035
756.869	0.0169255
756.947	0.0169261
757.025	0.0171246
757.103	0.0170243
757.181	0.0171041
757.259	0.0170515
757.337	0.0170906
757.415	0.0170740
757.494	0.0170493
757.572	0.0170753
757.650	0.0169904
757.728	0.0168897
757.806	0.0168116
757.884	0.0170147
757.962	0.0169372
758.040	0.0168090
758.119	0.0167751
758.197	0.0166618
758.275	0.0167159
758.353	0.0167809
758.431	0.0166232
758.509	0.0165685
758.587	0.0165757
758.665	0.0166894
758.744	0.0166059
758.822	0.0166587
758.900	0.0165986
758.978	0.0166117
759.056	0.0166397
759.134	0.0165737
759.212	0.0166833
759.290	0.0166544
759.369	0.0167419
759.447	0.0167313
759.525	0.0168225
759.603	0.0167837
759.681	0.0167416
759.759	0.0168555
759.837	0.0170503
759.915	0.0170120
759.994	0.0169540
760.072	0.0171114
760.150	0.0172181
760.228	0.0171463
760.306	0.0170794
760.384	0.0171785
760.462	0.0173138
760.540	0.0173536
760.619	0.0172116
760.697	0.0172324
760.775	0.0172715
760.853	0.0173167
760.931	0.0173607
761.009	0.0172825
761.087	0.0172092
761.165	0.0173927
761.244	0.0172210
761.322	0.0171924
761.400	0.0172101
761.478	0.0171529
761.556	0.0170203
761.634	0.0170702
761.712	0.0169904
761.790	0.0168304
761.869	0.0170606
761.947	0.0168510
762.025	0.0167701
762.103	0.0167902
762.181	0.0165388
762.259	0.0167473
762.337	0.0168324
762.415	0.0167136
762.494	0.0166252
762.572	0.0167017
762.650	0.0168126
762.728	0.0166092
762.806	0.0167165
762.884	0.0167587
762.962	0.0167011
763.040	0.0167538
763.119	0.0168203
763.197	0.0166752
763.275	0.0168612
763.353	0.0168168
763.431	0.0168636
763.509	0.0167906
763.587	0.0167874
763.665	0.0168913
763.744	0.0168967
763.822	0.0168472
763.900	0.0167882
763.978	0.0168472
764.056	0.0167747
764.134	0.0168937
764.212	0.0168585
764.290	0.0168137
764.369	0.0166994
764.447	0.0167848
764.525	0.0169914
764.603	0.0167744
764.681	0.0166361
764.759	0.0167496
764.837	0.0166286
764.915	0.0166610
764.994	0.0165465
765.072	0.0165514
765.150	0.0167618
765.228	0.0166042
765.306	0.0165547
765.384	0.0164897
765.462	0.0165656
765.540	0.0164282
765.619	0.0164191
765.697	0.0164322
765.775	0.0164247
765.853	0.0166152
765.931	0.0165470
766.009	0.0166497
766.087	0.0166702
766.165	0.0167897
766.244	0.0167469
766.322	0.0167980
766.400	0.0168655
766.478	0.0169749
766.556	0.0170538
766.634	0.0171944
766.712	0.0170652
766.790	0.0172080
766.869	0.0172298
766.947	0.0172718
767.025	0.0173487
767.103	0.0172087
767.181	0.0171634
767.259	0.0174583
767.337	0.0173715
767.415	0.0172143
767.494	0.0172202
767.572	0.0173217
767.650	0.0173901
767.728	0.0173434
767.806	0.0172453
767.884	0.0171683
767.962	0.0173145
768.040	0.0172623
768.119	0.0171086
768.197	0.0171622
768.275	0.0170531
768.353	0.0169866
768.431	0.0169777
768.509	0.0170692
768.587	0.0170866
768.665	0.0169676
768.744	0.0168230
768.822	0.0169302
768.900	0.0169357
768.978	0.0168282
769.056	0.0168041
769.134	0.0167368
769.212	0.0167022
769.290	0.0168333
769.369	0.0167477
769.447	0.0169086
769.525	0.0167885
769.603	0.0167888
769.681	0.0168230
769.759	0.0168162
769.837	0.0169218
769.915	0.0168139
769.994	0.0168812
770.072	0.0167496
770.150	0.0168338
770.228	0.0168950
770.306	0.0167843
770.384	0.0167501
770.462	0.0168409
770.540	0.0168306
770.619	0.0166673
770.697	0.0166852
770.775	0.0168439
770.853	0.0167673
770.931	0.0168349
771.009	0.0167131
771.087	0.0166792
771.165	0.0168395
771.244	0.0167435
771.322	0.0167248
771.400	0.0168311
771.478	0.0166628
771.556	0.0167947
771.634	0.0166794
771.712	0.0166576
771.790	0.0167804
771.869	0.0166473
771.947	0.0167845
772.025	0.0167561
772.103	0.0166063
772.181	0.0167413
772.259	0.0167472
772.337	0.0167426
772.415	0.0167054
772.494	0.0170128
772.572	0.0168978
772.650	0.0168311
772.728	0.0168845
772.806	0.0170958
772.884	0.0170469
772.962	0.0170345
773.040	0.0170660
773.119	0.0170721
773.197	0.0170908
773.275	0.0170063
773.353	0.0170768
773.431	0.0171725
773.509	0.0171981
773.587	0.0170688
773.665	0.0170055
773.744	0.0171232
773.822	0.0171073
773.900	0.0171319
773.978	0.0172217
774.056	0.0171499
774.134	0.0172361
774.212	0.0170972
774.290	0.0171120
774.369	0.0171622
774.447	0.0170908
774.525	0.0172512
774.603	0.0171127
774.681	0.0171220
774.759	0.0170753
774.837	0.0169924
774.915	0.0170246
774.994	0.0171047
775.072	0.0169225
775.150	0.0169368
775.228	0.0171252
775.306	0.0170050
775.384	0.0168759
775.462	0.0169683
775.540	0.0169748
775.619	0.0169922
775.697	0.0169878
775.775	0.0168256
775.853	0.0168055
775.931	0.0168523
776.009	0.0168211
776.087	0.0168218
776.165	0.0166942
776.244	0.0167749
776.322	0.0168426
776.400	0.0166971
776.478	0.0167068
776.556	0.0167736
776.634	0.0168630
776.712	0.0168350
776.790	0.0166618
776.869	0.0167850
776.947	0.0170297
777.025	0.0168858
777.103	0.0168890
777.181	0.0169682
777.259	0.0169828
777.337	0.0169765
777.415	0.0170436
777.494	0.0168329
777.572	0.0168529
777.650	0.0170052
777.728	0.0170641
777.806	0.0170753
777.884	0.0168926
777.962	0.0169418
778.040	0.0169096
778.119	0.0169873
778.197	0.0170322
778.275	0.0169566
778.353	0.0169676
778.431	0.0170151
778.509	0.0170783
778.587	0.0169189
778.665	0.0167736
778.744	0.0168333
778.822	0.0168567
778.900	0.0168799
778.978	0.0169389
779.056	0.0168034
779.134	0.0167848
779.212	0.0167069
779.290	0.0168797
779.369	0.0168964
779.447	0.0168464
779.525	0.0168856
779.603	0.0169297
779.681	0.0168449
779.759	0.0168218
779.837	0.0168114
779.915	0.0169156
779.994	0.0169546
780.072	0.0168269
780.150	0.0167178
780.228	0.0167768
780.306	0.0169069
780.384	0.0168019
780.462	0.0169402
780.540	0.0167849
780.619	0.0167362
780.697	0.0166578
780.775	0.0169086
780.853	0.0169094
780.931	0.0169139
781.009	0.0169329
781.087	0.0168235
781.165	0.0168242
781.244	0.0168217
781.322	0.0168955
781.400	0.0168792
781.478	0.0168542
781.556	0.0168550
781.634	0.0169698
781.712	0.0168368
781.790	0.0168100
781.869	0.0169045
781.947	0.0169819
782.025	0.0167874
782.103	0.0169005
782.181	0.0168864
782.259	0.0170833
782.337	0.0168761
782.415	0.0168965
782.494	0.0171535
782.572	0.0169363
782.650	0.0168463
782.728	0.0169265
782.806	0.0169909
782.884	0.0169897
782.962	0.0168818
783.040	0.0170250
783.119	0.0169430
783.197	0.0168960
783.275	0.0169219
783.353	0.0169202
783.431	0.0168304
783.509	0.0170009
783.587	0.0169711
783.665	0.0169467
783.744	0.0168748
783.822	0.0169380
783.900	0.0168695
783.978	0.0167544
784.056	0.0167632
784.134	0.0168719
784.212	0.0170047
784.290	0.0168929
784.369	0.0168404
784.447	0.0168656
784.525	0.0169252
784.603	0.0168230
784.681	0.0168494
784.759	0.0168932
784.837	0.0169317
784.915	0.0167409
784.994	0.0169828
785.072	0.0170197
785.150	0.0168663
785.228	0.0167763
785.306	0.0168858
785.384	0.0167636
785.462	0.0168013
785.540	0.0167812
785.619	0.0168006
785.697	0.0168660
785.775	0.0167543
785.853	0.0168122
785.931	0.0167614
786.009	0.0168566
786.087	0.0167445
786.165	0.0166140
786.244	0.0166664
786.322	0.0165580
786.400	0.0167204
786.478	0.0166013
786.556	0.0166740
786.634	0.0165886
786.712	0.0167277
786.790	0.0167649
786.869	0.0166673
786.947	0.0166537
787.025	0.0167709
787.103	0.0167320
787.181	0.0166309
787.259	0.0166210
787.337	0.0166673
787.415	0.0167448
787.494	0.0166747
787.572	0.0168024
787.650	0.0166452
787.728	0.0167639
787.806	0.0167373
787.884	0.0167241
787.962	0.0166574
788.040	0.0166999
788.119	0.0166507
788.197	0.0167784
788.275	0.0168649
788.353	0.0167163
788.431	0.0167260
788.509	0.0167946
788.587	0.0169066
788.665	0.0168976
788.744	0.0167194
788.822	0.0168982
788.900	0.0169379
788.978	0.0169141
789.056	0.0169161
789.134	0.0170087
789.212	0.0170658
789.290	0.0167951
789.369	0.0170238
789.447	0.0170962
789.525	0.0171648
789.603	0.0170890
789.681	0.0172427
789.759	0.0171373
789.837	0.0170331
789.915	0.0170300
789.994	0.0170916
790.072	0.0172088
790.150	0.0172077
790.228	0.0173420
790.306	0.0172134
790.384	0.0171913
790.462	0.0171947
790.540	0.0171439
790.619	0.0171041
790.697	0.0172486
790.775	0.0170786
790.853	0.0170677
790.931	0.0170699
791.009	0.0169012
791.087	0.0170985
791.165	0.0171204
791.244	0.0170380
791.322	0.0170100
791.400	0.0169926
791.478	0.0170419
791.556	0.0169576
791.634	0.0170750
791.712	0.0170694
791.790	0.0170800
791.869	0.0171014
791.947	0.0170802
792.025	0.0169631
792.103	0.0170383
792.181	0.0169706
792.259	0.0169750
792.337	0.0169184
792.415	0.0169778
792.494	0.0168243
792.572	0.0168496
792.650	0.0167786
792.728	0.0168513
792.806	0.0167818
792.884	0.0167648
792.962	0.0168359
793.040	0.0168530
793.119	0.0166808
793.197	0.0165875
793.275	0.0168095
793.353	0.0167248
793.431	0.0166557
793.509	0.0166079
793.587	0.0167123
793.665	0.0166027
793.744	0.0166753
793.822	0.0167287
793.900	0.0168042
793.978	0.0166602
794.056	0.0168096
794.134	0.0166904
794.212	0.0168528
794.290	0.0166993
794.369	0.0167258
794.447	0.0166627
794.525	0.0169354
794.603	0.0170161
794.681	0.0169398
794.759	0.0169970
794.837	0.0169384
794.915	0.0169337
794.994	0.0168719
795.072	0.0168729
795.150	0.0169696
795.228	0.0168797
795.306	0.0168770
795.384	0.0168006
795.462	0.0167227
795.540	0.0167458
795.619	0.0167451
795.697	0.0166647
795.775	0.0166893
795.853	0.0165556
795.931	0.0166762
796.009	0.0165677
796.087	0.0166860
796.165	0.0166100
796.244	0.0165804
796.322	0.0168233
796.400	0.0166663
796.478	0.0166743
796.556	0.0167490
796.634	0.0167760
796.712	0.0167473
796.790	0.0169079
796.869	0.0170522
796.947	0.0169331
797.025	0.0169622
797.103	0.0170177
797.181	0.0172392
797.259	0.0171703
797.337	0.0171867
797.415	0.0170683
797.494	0.0171236
797.572	0.0171542
797.650	0.0171803
797.728	0.0171944
797.806	0.0171555
797.884	0.0170889
797.962	0.0171260
798.040	0.0171431
798.119	0.0171608
798.197	0.0170827
798.275	0.0170691
798.353	0.0169110
798.431	0.0169562
798.509	0.0168750
798.587	0.0168446
798.665	0.0169289
798.744	0.0167329
798.822	0.0168205
798.900	0.0167227
798.978	0.0167133
799.056	0.0166782
799.134	0.0165159
799.212	0.0167068
799.290	0.0168292
799.369	0.0167751
799.447	0.0166981
799.525	0.0169112
799.603	0.0167251
799.681	0.0165412
799.759	0.0167924
799.837	0.0169648
799.915	0.0168833
799.994	0.0168382
800.072	0.0169901
800.150	0.0168857
800.228	0.0170145
800.306	0.0169281
800.384	0.0169209
800.462	0.0170602
800.540	0.0170345
800.619	0.0171201
800.697	0.0169518
800.775	0.0169884
800.853	0.0169371
800.931	0.0169566
801.009	0.0170789
801.087	0.0170148
801.165	0.0169660
801.244	0.0170895
801.322	0.0170771
801.400	0.0169296
801.478	0.0169852
801.556	0.0169295
801.634	0.0169667
801.712	0.0170508
801.790	0.0170244
801.869	0.0170759
801.947	0.0170026
802.025	0.0170324
802.103	0.0169057
802.181	0.0169044
802.259	0.0168581
802.337	0.0167106
802.415	0.0168417
802.494	0.0168079
802.572	0.0168704
802.650	0.0170016
802.728	0.0168607
802.806	0.0166704
802.884	0.0167493
802.962	0.0168834
803.040	0.0168336
803.119	0.0168238
803.197	0.0170136
803.275	0.0169954
803.353	0.0169482
803.431	0.0168962
803.509	0.0168591
803.587	0.0168673
803.665	0.0169238
803.744	0.0168743
803.822	0.0169544
803.900	0.0169214
803.978	0.0170220
804.056	0.0169219
804.134	0.0169315
804.212	0.0169903
804.290	0.0169508
804.369	0.0169387
804.447	0.0170759
804.525	0.0170981
804.603	0.0170278
804.681	0.0170934
804.759	0.0170673
804.837	0.0170776
804.915	0.0170666
804.994	0.0171734
805.072	0.0172754
805.150	0.0171812
805.228	0.0170963
805.306	0.0170625
805.384	0.0171774
805.462	0.0172685
805.540	0.0171655
805.619	0.0170744
805.697	0.0170394
805.775	0.0170192
805.853	0.0170327
805.931	0.0170246
806.009	0.0170485
806.087	0.0170540
806.165	0.0170099
806.244	0.0168401
806.322	0.0169570
806.400	0.0169765
806.478	0.0169989
806.556	0.0168786
806.634	0.0167981
806.712	0.0169407
806.790	0.0170319
806.869	0.0168504
806.947	0.0167582
807.025	0.0167825
807.103	0.0169088
807.181	0.0166840
807.259	0.0168186
807.337	0.0168619
807.415	0.0169448
807.494	0.0168263
807.572	0.0167027
807.650	0.0167706
807.728	0.0166462
807.806	0.0168283
807.884	0.0167778
807.962	0.0168980
808.040	0.0168143
808.119	0.0167224
808.197	0.0166319
808.275	0.0168058
808.353	0.0168225
808.431	0.0168056
808.509	0.0168848
808.587	0.0168605
808.665	0.0168044
808.744	0.0168729
808.822	0.0168534
808.900	0.0166832
808.978	0.0166769
809.056	0.0168951
809.134	0.0170472
809.212	0.0169955
809.290	0.0168915
809.369	0.0170396
809.447	0.0169666
809.525	0.0170010
809.603	0.0168661
809.681	0.0169440
809.759	0.0169999
809.837	0.0170860
809.915	0.0170343
809.994	0.0169643
810.072	0.0169223
810.150	0.0170364
810.228	0.0169755
810.306	0.0168245
810.384	0.0169448
810.462	0.0168189
810.540	0.0167799
810.619	0.0167104
810.697	0.0167332
810.775	0.0165875
810.853	0.0166126
810.931	0.0167273
811.009	0.0166486
811.087	0.0164956
811.165	0.0166972
811.244	0.0165970
811.322	0.0166186
811.400	0.0165418
811.478	0.0166415
811.556	0.0165318
811.634	0.0165922
811.712	0.0165871
811.790	0.0167020
811.869	0.0165756
811.947	0.0165865
812.025	0.0166038
812.103	0.0167139
812.181	0.0167512
812.259	0.0167784
812.337	0.0167881
812.415	0.0168869
812.494	0.0169307
812.572	0.0171144
812.650	0.0169760
812.728	0.0170900
812.806	0.0172282
812.884	0.0172569
812.962	0.0172968
813.040	0.0171988
813.119	0.0174148
813.197	0.0174371
813.275	0.0172199
813.353	0.0171596
813.431	0.0173082
813.509	0.0171503
813.587	0.0172001
813.665	0.0172174
813.744	0.0171055
813.822	0.0170116
813.900	0.0172065
813.978	0.0171176
814.056	0.0169286
814.134	0.0170377
814.212	0.0171252
814.290	0.0170747
814.369	0.0169897
814.447	0.0170780
814.525	0.0169804
814.603	0.0170969
814.681	0.0170734
814.759	0.0171133
814.837	0.0172216
814.915	0.0171654
814.994	0.0171087
815.072	0.0172433
815.150	0.0172173
815.228	0.0172781
815.306	0.0172103
815.384	0.0172728
815.462	0.0173622
815.540	0.0172504
815.619	0.0173367
815.697	0.0172766
815.775	0.0173212
815.853	0.0173763
815.931	0.0172149
816.009	0.0174334
816.087	0.0172977
816.165	0.0172632
816.244	0.0173367
816.322	0.0171302
816.400	0.0171278
816.478	0.0170539
816.556	0.0170734
816.634	0.0170348
816.712	0.0168038
816.790	0.0168379
816.869	0.0168149
816.947	0.0168939
817.025	0.0167388
817.103	0.0166322
817.181	0.0165604
817.259	0.0165547
817.337	0.0165802
817.415	0.0167182
817.494	0.0166336
817.572	0.0164806
817.650	0.0165508
817.728	0.0165865
817.806	0.0166230
817.884	0.0166693
817.962	0.0167604
818.040	0.0167247
818.119	0.0167568
818.197	0.0169037
818.275	0.0168739
818.353	0.0167886
818.431	0.0168309
818.509	0.0168729
818.587	0.0170842
818.665	0.0169978
818.744	0.0170674
818.822	0.0170374
818.900	0.0171940
818.978	0.0170284
819.056	0.0170790
819.134	0.0170452
819.212	0.0170731
819.290	0.0171291
819.369	0.0170741
819.447	0.0171443
819.525	0.0170421
819.603	0.0169500
819.681	0.0169111
819.759	0.0170808
819.837	0.0170251
819.915	0.0168021
819.994	0.0168477
820.072	0.0167733
820.150	0.0167775
820.228	0.0168165
820.306	0.0168269
820.384	0.0167175
820.462	0.0166261
820.540	0.0166995
820.619	0.0167240
820.697	0.0167342
820.775	0.0167178
820.853	0.0166580
820.931	0.0167239
821.009	0.0167900
821.087	0.0166669
821.165	0.0168910
821.244	0.0170635
821.322	0.0169540
821.400	0.0170463
821.478	0.0170165
821.556	0.0171893
821.634	0.0170786
821.712	0.0171227
821.790	0.0172347
821.869	0.0171358
821.947	0.0172966
822.025	0.0172614
822.103	0.0173366
822.181	0.0172408
822.259	0.0172687
822.337	0.0171778
822.415	0.0174815
822.494	0.0173121
822.572	0.0170901
822.650	0.0171477
822.728	0.0171326
822.806	0.0170940
822.884	0.0172343
822.962	0.0170837
823.040	0.0169475
823.119	0.0168358
823.197	0.0168456
823.275	0.0166696
823.353	0.0167735
823.431	0.0166084
823.509	0.0167065
823.587	0.0165968
823.665	0.0164999
823.744	0.0164472
823.822	0.0165746
823.900	0.0164278
823.978	0.0164928
824.056	0.0163748
824.134	0.0164176
824.212	0.0164826
824.290	0.0164555
824.369	0.0162939
824.447	0.0162656
824.525	0.0164307
824.603	0.0163901
824.681	0.0164973
824.759	0.0163486
824.837	0.0164941
824.915	0.0166307
824.994	0.0165089
825.072	0.0166387
825.150	0.0165900
825.228	0.0166967
825.306	0.0166364
825.384	0.0166119
825.462	0.0167776
825.540	0.0166939
825.619	0.0168464
825.697	0.0167683
825.775	0.0167355
825.853	0.0168050
825.931	0.0167543
826.009	0.0168246
826.087	0.0169041
826.165	0.0169595
826.244	0.0168766
826.322	0.0167956
826.400	0.0167611
826.478	0.0167803
826.556	0.0167969
826.634	0.0168642
826.712	0.0168902
826.790	0.0168928
826.869	0.0169706
826.947	0.0169579
827.025	0.0167918
827.103	0.0169521
827.181	0.0169430
827.259	0.0168253
827.337	0.0169984
827.415	0.0169814
827.494	0.0171290
827.572	0.0171331
827.650	0.0170131
827.728	0.0170777
827.806	0.0171062
827.884	0.0172989
827.962	0.0171982
828.040	0.0172523
828.119	0.0172511
828.197	0.0172365
828.275	0.0172063
828.353	0.0172056
828.431	0.0171395
828.509	0.0172189
828.587	0.0172037
828.665	0.0172539
828.744	0.0171349
828.822	0.0172972
828.900	0.0172153
828.978	0.0171159
829.056	0.0171280
829.134	0.0172306
829.212	0.0171267
829.290	0.0171641
829.369	0.0171992
829.447	0.0170817
829.525	0.0170380
829.603	0.0169640
829.681	0.0169909
829.759	0.0170111
829.837	0.0170042
829.915	0.0169782
829.994	0.0169398
830.072	0.0169994
830.150	0.0169530
830.228	0.0170481
830.306	0.0170094
830.384	0.0170157
830.462	0.0167868
830.540	0.0170309
830.619	0.0170052
830.697	0.0169176
830.775	0.0170472
830.853	0.0170071
830.931	0.0169702
831.009	0.0169044
831.087	0.0169018
831.165	0.0169684
831.244	0.0168307
831.322	0.0169463
831.400	0.0171250
831.478	0.0171188
831.556	0.0172224
831.634	0.0171626
831.712	0.0171266
831.790	0.0171213
831.869	0.0170705
831.947	0.0171838
832.025	0.0172149
832.103	0.0171904
832.181	0.0170035
832.259	0.0169904
832.337	0.0169244
832.415	0.0169496
832.494	0.0168075
832.572	0.0168444
832.650	0.0167714
832.728	0.0168561
832.806	0.0167081
832.884	0.0167706
832.962	0.0167603
833.040	0.0167518
833.119	0.0168060
833.197	0.0167743
833.275	0.0169203
833.353	0.0168565
833.431	0.0169639
833.509	0.0169743
833.587	0.0170432
833.665	0.0168823
833.744	0.0170403
833.822	0.0171722
833.900	0.0170651
833.978	0.0169427
834.056	0.0170205
834.134	0.0171073
834.212	0.0170417
834.290	0.0170502
834.369	0.0170166
834.447	0.0170482
834.525	0.0171001
834.603	0.0170197
834.681	0.0171867
834.759	0.0170652
834.837	0.0170713
834.915	0.0170283
834.994	0.0170799
835.072	0.0170052
835.150	0.0171712
835.228	0.0168619
835.306	0.0170122
835.384	0.0171310
835.462	0.0169448
835.540	0.0169775
835.619	0.0170033
835.697	0.0171407
835.775	0.0169899
835.853	0.0169265
835.931	0.0170463
836.009	0.0170090
836.087	0.0170805
836.165	0.0170222
836.244	0.0168259
836.322	0.0169721
836.400	0.0169400
836.478	0.0168888
836.556	0.0169950
836.634	0.0168912
836.712	0.0169421
836.790	0.0170916
836.869	0.0168965
836.947	0.0169598
837.025	0.0171364
837.103	0.0170201
837.181	0.0168879
837.259	0.0170068
837.337	0.0169757
837.415	0.0168805
837.494	0.0169775
837.572	0.0168322
837.650	0.0168684
837.728	0.0168222
837.806	0.0167622
837.884	0.0167354
837.962	0.0169165
838.040	0.0169129
838.119	0.0167941
838.197	0.0168883
838.275	0.0168877
838.353	0.0168272
838.431	0.0168561
838.509	0.0168574
838.587	0.0169264
838.665	0.0169536
838.744	0.0168231
838.822	0.0169104
838.900	0.0168163
838.978	0.0169014
839.056	0.0167650
839.134	0.0168711
839.212	0.0168255
839.290	0.0169350
839.369	0.0168022
839.447	0.0168983
839.525	0.0169154
839.603	0.0168588
839.681	0.0167935
839.759	0.0168491
839.837	0.0168706
839.915	0.0169652
839.994	0.0170394
840.072	0.0170248
840.150	0.0170146
840.228	0.0171054
840.306	0.0170050
840.384	0.0169982
840.462	0.0169861
840.540	0.0170566
840.619	0.0171320
840.697	0.0168523
840.775	0.0170071
840.853	0.0170006
840.931	0.0170172
841.009	0.0170676
841.087	0.0169224
841.165	0.0168903
841.244	0.0168896
841.322	0.0169241
841.400	0.0168386
841.478	0.0169441
841.556	0.0169996
841.634	0.0169373
841.712	0.0168906
841.790	0.0169852
841.869	0.0169604
841.947	0.0170100
842.025	0.0169056
842.103	0.0169606
842.181	0.0171214
842.259	0.0168788
842.337	0.0168755
842.415	0.0169222
842.494	0.0169744
842.572	0.0170481
842.650	0.0170587
842.728	0.0170010
842.806	0.0171165
842.884	0.0169920
842.962	0.0170240
843.040	0.0169006
843.119	0.0168736
843.197	0.0167350
843.275	0.0166795
843.353	0.0167641
843.431	0.0167826
843.509	0.0168301
843.587	0.0167767
843.665	0.0166994
843.744	0.0165138
843.822	0.0166695
843.900	0.0166560
843.978	0.0166334
844.056	0.0165129
844.134	0.0166331
844.212	0.0166860
844.290	0.0166460
844.369	0.0167307
844.447	0.0166138
844.525	0.0166572
844.603	0.0166571
844.681	0.0166325
844.759	0.0167280
844.837	0.0166033
844.915	0.0167496
844.994	0.0167376
845.072	0.0168210
845.150	0.0168025
845.228	0.0168497
845.306	0.0169171
845.384	0.0169587
845.462	0.0172150
845.540	0.0171180
845.619	0.0172649
845.697	0.0171964
845.775	0.0173028
845.853	0.0172021
845.931	0.0173444
846.009	0.0172140
846.087	0.0173285
846.165	0.0172296
846.244	0.0171415
846.322	0.0172541
846.400	0.0172212
846.478	0.0171947
846.556	0.0171097
846.634	0.0170811
846.712	0.0169630
846.790	0.0171590
846.869	0.0170929
846.947	0.0168526
847.025	0.0170016
847.103	0.0170339
847.181	0.0167386
847.259	0.0168462
847.337	0.0169364
847.415	0.0168991
847.494	0.0167087
847.572	0.0168301
847.650	0.0167918
847.728	0.0167735
847.806	0.0166523
847.884	0.0167935
847.962	0.0167183
848.040	0.0168494
848.119	0.0168250
848.197	0.0167782
848.275	0.0169650
848.353	0.0168635
848.431	0.0170701
848.509	0.0170844
848.587	0.0170477
848.665	0.0170301
848.744	0.0170259
848.822	0.0170313
848.900	0.0170892
848.978	0.0169792
849.056	0.0169823
849.134	0.0169521
849.212	0.0168739
849.290	0.0169153
849.369	0.0169163
849.447	0.0168761
849.525	0.0168405
849.603	0.0168082
849.681	0.0168078
849.759	0.0168342
849.837	0.0167764
849.915	0.0168106
849.994	0.0167549
850.072	0.0167772
850.150	0.0167114
850.228	0.0167818
850.306	0.0169495
850.384	0.0167298
850.462	0.0167045
850.540	0.0167858
850.619	0.0168018
850.697	0.0167668
850.775	0.0168353
850.853	0.0168417
850.931	0.0168715
851.009	0.0169005
851.087	0.0169170
851.165	0.0169205
851.244	0.0170020
851.322	0.0169855
851.400	0.0171012
851.478	0.0171553
851.556	0.0169991
851.634	0.0170872
851.712	0.0170734
851.790	0.0169611
851.869	0.0170132
851.947	0.0171699
852.025	0.0171944
852.103	0.0171182
852.181	0.0170758
852.259	0.0171923
852.337	0.0173403
852.415	0.0172718
852.494	0.0170449
852.572	0.0172254
852.650	0.0173386
852.728	0.0171200
852.806	0.0171613
852.884	0.0171483
852.962	0.0172051
853.040	0.0172049
853.119	0.0172577
853.197	0.0171410
853.275	0.0172038
853.353	0.0171124
853.431	0.0170613
853.509	0.0170275
853.587	0.0171170
853.665	0.0171359
853.744	0.0172441
853.822	0.0168829
853.900	0.0169881
853.978	0.0170747
854.056	0.0168973
854.134	0.0170316
854.212	0.0169347
854.290	0.0170650
854.369	0.0168208
854.447	0.0168618
854.525	0.0168714
854.603	0.0169403
854.681	0.0167654
854.759	0.0168733
854.837	0.0168053
854.915	0.0167720
854.994	0.0167484
855.072	0.0168206
855.150	0.0167333
855.228	0.0167787
855.306	0.0166417
855.384	0.0167258
855.462	0.0166441
855.540	0.0166983
855.619	0.0167124
855.697	0.0168246
855.775	0.0168358
855.853	0.0167967
855.931	0.0166642
856.009	0.0167346
856.087	0.0168313
856.165	0.0167776
856.244	0.0167387
856.322	0.0167879
856.400	0.0166693
856.478	0.0167263
856.556	0.0167582
856.634	0.0167420
856.712	0.0168462
856.790	0.0167528
856.869	0.0168586
856.947	0.0169375
857.025	0.0168903
857.103	0.0169124
857.181	0.0167902
857.259	0.0168983
857.337	0.0169753
857.415	0.0169868
857.494	0.0170282
857.572	0.0170529
857.650	0.0168867
857.728	0.0168777
857.806	0.0169940
857.884	0.0170395
857.962	0.0170346
858.040	0.0169140
858.119	0.0168478
858.197	0.0169663
858.275	0.0170519
858.353	0.0169040
858.431	0.0168765
858.509	0.0168995
858.587	0.0169268
858.665	0.0168517
858.744	0.0168625
858.822	0.0168050
858.900	0.0168681
858.978	0.0168456
859.056	0.0169217
859.134	0.0169405
859.212	0.0167974
859.290	0.0167668
859.369	0.0168280
859.447	0.0168546
859.525	0.0167608
859.603	0.0166741
859.681	0.0167077
859.759	0.0167331
859.837	0.0167805
859.915	0.0167962
