06/01/2022	17:43:32	Ver.	4.1	UNKNOWN
Optical Delay	539.986900	Delta X		0.078125	Sweeps	1	Scan Rate	0/0
Coordinates	Axis 1	NaN	Axis 2	NaN	Axis 3	NaN	Axis 4	NaN	Axis 5	NaN	Axis 6	0.000000
TX Power	0.000000	RX Power	0.000000

539.987	0.0166257
540.065	0.0164626
540.143	0.0164164
540.221	0.0165107
540.299	0.0164423
540.378	0.0164512
540.456	0.0164317
540.534	0.0165725
540.612	0.0165699
540.690	0.0165444
540.768	0.0165037
540.846	0.0165314
540.924	0.0163702
541.003	0.0164930
541.081	0.0164886
541.159	0.0165381
541.237	0.0164913
541.315	0.0164124
541.393	0.0164452
541.471	0.0164369
541.549	0.0163904
541.628	0.0164166
541.706	0.0165651
541.784	0.0165290
541.862	0.0164087
541.940	0.0166110
542.018	0.0165694
542.096	0.0165578
542.174	0.0165836
542.253	0.0165379
542.331	0.0165468
542.409	0.0164552
542.487	0.0165709
542.565	0.0166195
542.643	0.0165549
542.721	0.0165099
542.799	0.0164405
542.878	0.0165205
542.956	0.0166344
543.034	0.0166260
543.112	0.0166148
543.190	0.0165256
543.268	0.0165766
543.346	0.0167062
543.424	0.0164803
543.503	0.0164820
543.581	0.0166470
543.659	0.0165663
543.737	0.0165404
543.815	0.0165309
543.893	0.0165930
543.971	0.0165345
544.049	0.0165369
544.128	0.0164277
544.206	0.0165195
544.284	0.0166145
544.362	0.0165276
544.440	0.0164958
544.518	0.0165253
544.596	0.0165903
544.674	0.0164986
544.753	0.0165608
544.831	0.0164709
544.909	0.0165918
544.987	0.0166690
545.065	0.0165107
545.143	0.0167225
545.221	0.0165704
545.299	0.0165576
545.378	0.0165948
545.456	0.0163955
545.534	0.0165287
545.612	0.0167550
545.690	0.0166364
545.768	0.0166851
545.846	0.0166247
545.924	0.0166010
546.003	0.0165533
546.081	0.0165419
546.159	0.0165204
546.237	0.0165929
546.315	0.0166591
546.393	0.0165930
546.471	0.0166431
546.549	0.0165825
546.628	0.0165327
546.706	0.0165005
546.784	0.0164565
546.862	0.0165224
546.940	0.0165678
547.018	0.0165667
547.096	0.0166705
547.174	0.0165061
547.253	0.0165096
547.331	0.0164211
547.409	0.0165047
547.487	0.0165432
547.565	0.0165132
547.643	0.0164962
547.721	0.0163973
547.799	0.0164712
547.878	0.0164396
547.956	0.0164716
548.034	0.0164818
548.112	0.0164386
548.190	0.0164530
548.268	0.0164504
548.346	0.0165121
548.424	0.0163733
548.503	0.0166041
548.581	0.0165942
548.659	0.0163789
548.737	0.0164464
548.815	0.0164633
548.893	0.0164287
548.971	0.0164194
549.049	0.0164576
549.128	0.0164201
549.206	0.0163282
549.284	0.0162738
549.362	0.0164248
549.440	0.0164664
549.518	0.0164219
549.596	0.0163889
549.674	0.0163569
549.753	0.0165320
549.831	0.0164583
549.909	0.0163958
549.987	0.0164404
550.065	0.0163761
550.143	0.0164043
550.221	0.0163429
550.299	0.0164059
550.378	0.0163772
550.456	0.0164116
550.534	0.0164935
550.612	0.0165460
550.690	0.0163885
550.768	0.0164262
550.846	0.0164265
550.924	0.0164787
551.003	0.0165131
551.081	0.0165749
551.159	0.0165383
551.237	0.0165437
551.315	0.0165607
551.393	0.0164177
551.471	0.0165012
551.549	0.0165678
551.628	0.0164664
551.706	0.0165886
551.784	0.0166219
551.862	0.0165319
551.940	0.0164944
552.018	0.0165397
552.096	0.0164950
552.174	0.0165384
552.253	0.0165514
552.331	0.0165115
552.409	0.0164781
552.487	0.0165320
552.565	0.0164102
552.643	0.0165710
552.721	0.0164336
552.799	0.0165133
552.878	0.0164258
552.956	0.0165122
553.034	0.0165312
553.112	0.0165877
553.190	0.0164850
553.268	0.0164359
553.346	0.0164715
553.424	0.0165839
553.503	0.0164743
553.581	0.0166293
553.659	0.0165250
553.737	0.0165682
553.815	0.0166673
553.893	0.0165575
553.971	0.0165524
554.049	0.0165871
554.128	0.0165189
554.206	0.0164977
554.284	0.0165777
554.362	0.0166492
554.440	0.0167528
554.518	0.0165823
554.596	0.0165656
554.674	0.0165363
554.753	0.0167204
554.831	0.0165475
554.909	0.0166551
554.987	0.0165365
555.065	0.0167099
555.143	0.0166109
555.221	0.0164545
555.299	0.0165255
555.378	0.0166011
555.456	0.0165520
555.534	0.0166302
555.612	0.0166834
555.690	0.0167500
555.768	0.0167370
555.846	0.0166824
555.924	0.0165900
556.003	0.0165703
556.081	0.0167098
556.159	0.0165430
556.237	0.0166761
556.315	0.0166908
556.393	0.0167112
556.471	0.0166550
556.549	0.0166038
556.628	0.0167767
556.706	0.0166341
556.784	0.0166097
556.862	0.0166638
556.940	0.0167350
557.018	0.0167607
557.096	0.0167351
557.174	0.0167824
557.253	0.0169161
557.331	0.0167497
557.409	0.0166840
557.487	0.0167873
557.565	0.0167955
557.643	0.0168592
557.721	0.0167307
557.799	0.0168060
557.878	0.0168264
557.956	0.0167981
558.034	0.0167683
558.112	0.0168240
558.190	0.0168052
558.268	0.0168595
558.346	0.0168784
558.424	0.0169411
558.503	0.0168456
558.581	0.0169491
558.659	0.0168915
558.737	0.0168040
558.815	0.0167657
558.893	0.0168879
558.971	0.0167370
559.049	0.0167471
559.128	0.0167973
559.206	0.0168040
559.284	0.0167236
559.362	0.0167982
559.440	0.0169552
559.518	0.0166982
559.596	0.0168385
559.674	0.0166205
559.753	0.0165874
559.831	0.0168191
559.909	0.0166380
559.987	0.0166573
560.065	0.0167764
560.143	0.0166322
560.221	0.0166486
560.299	0.0166529
560.378	0.0166521
560.456	0.0167096
560.534	0.0165809
560.612	0.0166051
560.690	0.0167019
560.768	0.0166751
560.846	0.0167420
560.924	0.0166128
561.003	0.0166582
561.081	0.0167829
561.159	0.0165845
561.237	0.0165349
561.315	0.0165588
561.393	0.0165195
561.471	0.0165464
561.549	0.0167028
561.628	0.0166554
561.706	0.0167197
561.784	0.0167569
561.862	0.0164857
561.940	0.0166165
562.018	0.0165809
562.096	0.0165519
562.174	0.0167858
562.253	0.0166568
562.331	0.0167435
562.409	0.0167262
562.487	0.0165411
562.565	0.0165848
562.643	0.0165883
562.721	0.0166317
562.799	0.0165966
562.878	0.0166341
562.956	0.0166430
563.034	0.0166264
563.112	0.0166916
563.190	0.0166266
563.268	0.0165525
563.346	0.0166186
563.424	0.0166088
563.503	0.0166584
563.581	0.0166091
563.659	0.0165612
563.737	0.0166203
563.815	0.0164090
563.893	0.0165911
563.971	0.0166312
564.049	0.0165590
564.128	0.0166122
564.206	0.0165349
564.284	0.0165390
564.362	0.0166455
564.440	0.0164735
564.518	0.0165925
564.596	0.0165905
564.674	0.0164608
564.753	0.0165219
564.831	0.0165157
564.909	0.0165301
564.987	0.0165051
565.065	0.0165638
565.143	0.0166234
565.221	0.0166182
565.299	0.0165807
565.378	0.0165395
565.456	0.0164728
565.534	0.0166602
565.612	0.0165478
565.690	0.0167431
565.768	0.0166125
565.846	0.0165183
565.924	0.0166187
566.003	0.0167004
566.081	0.0165487
566.159	0.0165038
566.237	0.0166780
566.315	0.0167545
566.393	0.0165799
566.471	0.0166393
566.549	0.0166042
566.628	0.0166596
566.706	0.0167764
566.784	0.0167011
566.862	0.0167762
566.940	0.0166882
567.018	0.0165362
567.096	0.0166897
567.174	0.0168320
567.253	0.0166537
567.331	0.0166217
567.409	0.0165290
567.487	0.0167110
567.565	0.0165807
567.643	0.0164900
567.721	0.0165852
567.799	0.0166810
567.878	0.0165940
567.956	0.0166586
568.034	0.0166836
568.112	0.0165712
568.190	0.0165932
568.268	0.0165813
568.346	0.0166261
568.424	0.0166572
568.503	0.0166580
568.581	0.0164951
568.659	0.0166924
568.737	0.0165265
568.815	0.0165975
568.893	0.0165371
568.971	0.0166555
569.049	0.0165857
569.128	0.0166080
569.206	0.0164853
569.284	0.0165347
569.362	0.0165691
569.440	0.0164818
569.518	0.0166212
569.596	0.0165797
569.674	0.0165269
569.753	0.0164283
569.831	0.0164372
569.909	0.0165395
569.987	0.0165816
570.065	0.0165443
570.143	0.0165038
570.221	0.0165649
570.299	0.0165017
570.378	0.0165266
570.456	0.0165038
570.534	0.0165865
570.612	0.0164576
570.690	0.0165086
570.768	0.0164838
570.846	0.0164911
570.924	0.0164520
571.003	0.0165082
571.081	0.0164867
571.159	0.0163403
571.237	0.0165349
571.315	0.0164643
571.393	0.0164664
571.471	0.0164562
571.549	0.0165508
571.628	0.0165313
571.706	0.0165493
571.784	0.0164452
571.862	0.0165411
571.940	0.0164913
572.018	0.0164088
572.096	0.0165192
572.174	0.0166400
572.253	0.0164769
572.331	0.0166207
572.409	0.0166240
572.487	0.0166261
572.565	0.0164887
572.643	0.0166350
572.721	0.0165314
572.799	0.0165546
572.878	0.0164920
572.956	0.0164266
573.034	0.0164622
573.112	0.0165271
573.190	0.0166150
573.268	0.0164654
573.346	0.0164053
573.424	0.0165768
573.503	0.0165723
573.581	0.0165447
573.659	0.0165337
573.737	0.0165189
573.815	0.0164348
573.893	0.0165264
573.971	0.0165305
574.049	0.0164654
574.128	0.0164326
574.206	0.0164554
574.284	0.0164299
574.362	0.0164445
574.440	0.0165051
574.518	0.0165195
574.596	0.0166061
574.674	0.0165564
574.753	0.0164977
574.831	0.0164177
574.909	0.0165217
574.987	0.0165646
575.065	0.0165190
575.143	0.0165294
575.221	0.0165524
575.299	0.0164967
575.378	0.0167322
575.456	0.0165899
575.534	0.0164861
575.612	0.0164962
575.690	0.0165668
575.768	0.0165546
575.846	0.0167408
575.924	0.0165752
576.003	0.0164575
576.081	0.0165764
576.159	0.0165141
576.237	0.0164986
576.315	0.0165106
576.393	0.0165662
576.471	0.0165157
576.549	0.0164780
576.628	0.0163716
576.706	0.0164754
576.784	0.0165426
576.862	0.0164086
576.940	0.0164765
577.018	0.0164207
577.096	0.0164552
577.174	0.0165716
577.253	0.0165215
577.331	0.0164091
577.409	0.0164606
577.487	0.0164831
577.565	0.0165045
577.643	0.0164894
577.721	0.0165036
577.799	0.0167078
577.878	0.0165905
577.956	0.0165678
578.034	0.0164032
578.112	0.0164737
578.190	0.0164259
578.268	0.0165081
578.346	0.0164989
578.424	0.0166282
578.503	0.0164774
578.581	0.0164285
578.659	0.0165765
578.737	0.0164302
578.815	0.0164407
578.893	0.0165267
578.971	0.0164435
579.049	0.0165367
579.128	0.0165780
579.206	0.0164938
579.284	0.0165844
579.362	0.0165817
579.440	0.0164466
579.518	0.0165450
579.596	0.0165613
579.674	0.0165096
579.753	0.0165016
579.831	0.0166105
579.909	0.0166619
579.987	0.0165772
580.065	0.0165582
580.143	0.0165739
580.221	0.0166558
580.299	0.0165607
580.378	0.0166444
580.456	0.0164090
580.534	0.0165329
580.612	0.0165626
580.690	0.0166447
580.768	0.0168321
580.846	0.0165994
580.924	0.0165148
581.003	0.0166829
581.081	0.0165760
581.159	0.0165154
581.237	0.0166337
581.315	0.0165969
581.393	0.0165421
581.471	0.0166061
581.549	0.0165990
581.628	0.0166096
581.706	0.0165718
581.784	0.0166827
581.862	0.0166674
581.940	0.0167802
582.018	0.0166740
582.096	0.0166827
582.174	0.0166436
582.253	0.0165707
582.331	0.0165971
582.409	0.0166435
582.487	0.0165977
582.565	0.0165226
582.643	0.0165454
582.721	0.0166488
582.799	0.0165301
582.878	0.0164496
582.956	0.0164812
583.034	0.0164645
583.112	0.0165997
583.190	0.0165189
583.268	0.0164674
583.346	0.0164628
583.424	0.0165552
583.503	0.0165406
583.581	0.0165546
583.659	0.0164928
583.737	0.0166447
583.815	0.0166156
583.893	0.0165034
583.971	0.0163608
584.049	0.0165229
584.128	0.0164942
584.206	0.0164375
584.284	0.0165643
584.362	0.0166311
584.440	0.0165972
584.518	0.0165974
584.596	0.0166095
584.674	0.0165089
584.753	0.0166615
584.831	0.0166328
584.909	0.0165845
584.987	0.0164716
585.065	0.0165931
585.143	0.0164899
585.221	0.0165091
585.299	0.0164172
585.378	0.0164954
585.456	0.0164736
585.534	0.0164671
585.612	0.0163761
585.690	0.0163771
585.768	0.0165257
585.846	0.0163326
585.924	0.0164143
586.003	0.0165358
586.081	0.0163477
586.159	0.0165437
586.237	0.0163601
586.315	0.0163818
586.393	0.0164541
586.471	0.0165540
586.549	0.0164330
586.628	0.0165915
586.706	0.0165444
586.784	0.0162926
586.862	0.0163615
586.940	0.0164126
587.018	0.0164558
587.096	0.0164588
587.174	0.0164892
587.253	0.0163851
587.331	0.0163290
587.409	0.0164473
587.487	0.0166781
587.565	0.0164687
587.643	0.0164587
587.721	0.0164571
587.799	0.0164481
587.878	0.0164931
587.956	0.0164959
588.034	0.0164545
588.112	0.0164510
588.190	0.0165305
588.268	0.0164973
588.346	0.0164742
588.424	0.0163873
588.503	0.0164794
588.581	0.0165799
588.659	0.0164738
588.737	0.0165827
588.815	0.0165056
588.893	0.0165973
588.971	0.0166645
589.049	0.0165579
589.128	0.0164488
589.206	0.0166171
589.284	0.0164301
589.362	0.0165280
589.440	0.0165387
589.518	0.0166119
589.596	0.0165328
589.674	0.0164600
589.753	0.0164212
589.831	0.0165891
589.909	0.0165189
589.987	0.0165815
590.065	0.0163628
590.143	0.0164287
590.221	0.0165439
590.299	0.0165351
590.378	0.0165347
590.456	0.0164934
590.534	0.0164594
590.612	0.0164805
590.690	0.0164734
590.768	0.0164562
590.846	0.0165942
590.924	0.0163783
591.003	0.0163234
591.081	0.0164891
591.159	0.0164664
591.237	0.0163006
591.315	0.0164826
591.393	0.0164173
591.471	0.0163134
591.549	0.0163073
591.628	0.0162804
591.706	0.0162890
591.784	0.0163171
591.862	0.0162935
591.940	0.0164902
592.018	0.0161213
592.096	0.0162382
592.174	0.0161472
592.253	0.0161948
592.331	0.0163892
592.409	0.0162428
592.487	0.0163483
592.565	0.0163478
592.643	0.0163099
592.721	0.0162769
592.799	0.0164378
592.878	0.0165476
592.956	0.0163229
593.034	0.0164233
593.112	0.0164497
593.190	0.0165802
593.268	0.0164400
593.346	0.0166325
593.424	0.0165764
593.503	0.0165527
593.581	0.0167235
593.659	0.0167490
593.737	0.0167536
593.815	0.0166957
593.893	0.0168472
593.971	0.0169294
594.049	0.0167780
594.128	0.0167770
594.206	0.0169685
594.284	0.0170219
594.362	0.0170866
594.440	0.0169513
594.518	0.0169772
594.596	0.0170701
594.674	0.0170933
594.753	0.0169598
594.831	0.0172531
594.909	0.0170807
594.987	0.0170594
595.065	0.0170322
595.143	0.0171917
595.221	0.0170554
595.299	0.0169030
595.378	0.0169238
595.456	0.0168301
595.534	0.0169965
595.612	0.0169434
595.690	0.0169192
595.768	0.0167912
595.846	0.0166764
595.924	0.0168434
596.003	0.0168015
596.081	0.0168492
596.159	0.0169495
596.237	0.0170528
596.315	0.0168885
596.393	0.0168157
596.471	0.0167567
596.549	0.0169951
596.628	0.0169472
596.706	0.0167770
596.784	0.0168899
596.862	0.0167835
596.940	0.0165830
597.018	0.0164882
597.096	0.0164815
597.174	0.0164505
597.253	0.0164388
597.331	0.0163146
597.409	0.0163290
597.487	0.0162135
597.565	0.0162908
597.643	0.0162646
597.721	0.0162504
597.799	0.0164449
597.878	0.0163487
597.956	0.0164444
598.034	0.0166370
598.112	0.0167101
598.190	0.0167378
598.268	0.0168609
598.346	0.0169463
598.424	0.0169743
598.503	0.0170344
598.581	0.0169774
598.659	0.0169390
598.737	0.0169540
598.815	0.0169411
598.893	0.0169885
598.971	0.0168027
599.049	0.0167517
599.128	0.0164534
599.206	0.0163042
599.284	0.0162943
599.362	0.0160588
599.440	0.0160201
599.518	0.0158419
599.596	0.0157100
599.674	0.0159520
599.753	0.0158166
599.831	0.0157453
599.909	0.0158395
599.987	0.0157572
600.065	0.0158563
600.143	0.0158790
600.221	0.0160074
600.299	0.0162894
600.378	0.0165255
600.456	0.0165334
600.534	0.0168018
600.612	0.0169502
600.690	0.0171509
600.768	0.0172928
600.846	0.0173439
600.924	0.0175543
601.003	0.0174712
601.081	0.0175198
601.159	0.0173822
601.237	0.0173557
601.315	0.0171886
601.393	0.0171281
601.471	0.0167921
601.549	0.0165993
601.628	0.0163438
601.706	0.0162671
601.784	0.0160181
601.862	0.0158361
601.940	0.0156915
602.018	0.0153432
602.096	0.0151448
602.174	0.0150546
602.253	0.0149693
602.331	0.0149049
602.409	0.0147387
602.487	0.0147972
602.565	0.0150078
602.643	0.0149369
602.721	0.0150349
602.799	0.0151144
602.878	0.0153400
602.956	0.0154489
603.034	0.0154004
603.112	0.0156049
603.190	0.0159050
603.268	0.0159028
603.346	0.0162612
603.424	0.0164347
603.503	0.0165482
603.581	0.0166393
603.659	0.0167627
603.737	0.0169152
603.815	0.0170314
603.893	0.0171627
603.971	0.0172704
604.049	0.0173662
604.128	0.0174749
604.206	0.0174184
604.284	0.0175049
604.362	0.0175384
604.440	0.0175442
604.518	0.0175173
604.596	0.0176906
604.674	0.0175589
604.753	0.0173283
604.831	0.0173148
604.909	0.0172136
604.987	0.0169911
605.065	0.0169930
605.143	0.0167038
605.221	0.0166003
605.299	0.0162337
605.378	0.0160166
605.456	0.0158957
605.534	0.0156988
605.612	0.0154076
605.690	0.0153344
605.768	0.0150820
605.846	0.0149414
605.924	0.0148775
606.003	0.0148027
606.081	0.0148759
606.159	0.0148088
606.237	0.0148469
606.315	0.0150106
606.393	0.0152074
606.471	0.0152057
606.549	0.0153853
606.628	0.0155566
606.706	0.0157445
606.784	0.0159766
606.862	0.0163173
606.940	0.0164352
607.018	0.0164981
607.096	0.0168114
607.174	0.0171529
607.253	0.0172858
607.331	0.0173843
607.409	0.0175862
607.487	0.0177391
607.565	0.0180418
607.643	0.0182138
607.721	0.0181790
607.799	0.0182764
607.878	0.0183036
607.956	0.0184449
608.034	0.0184727
608.112	0.0183313
608.190	0.0180985
608.268	0.0181367
608.346	0.0178854
608.424	0.0175239
608.503	0.0173138
608.581	0.0171637
608.659	0.0170323
608.737	0.0168050
608.815	0.0165445
608.893	0.0163006
608.971	0.0161655
609.049	0.0161438
609.128	0.0158810
609.206	0.0157059
609.284	0.0156830
609.362	0.0155102
609.440	0.0154748
609.518	0.0154708
609.596	0.0152992
609.674	0.0151825
609.753	0.0150991
609.831	0.0150888
609.909	0.0150805
609.987	0.0148949
610.065	0.0148858
610.143	0.0148883
610.221	0.0150040
610.299	0.0148720
610.378	0.0148952
610.456	0.0150552
610.534	0.0151014
610.612	0.0152975
610.690	0.0152807
610.768	0.0155156
610.846	0.0158566
610.924	0.0160735
611.003	0.0162750
611.081	0.0167303
611.159	0.0168037
611.237	0.0170014
611.315	0.0172611
611.393	0.0175132
611.471	0.0177350
611.549	0.0178077
611.628	0.0180927
611.706	0.0180553
611.784	0.0180669
611.862	0.0179935
611.940	0.0179906
612.018	0.0180479
612.096	0.0179596
612.174	0.0177699
612.253	0.0177934
612.331	0.0177908
612.409	0.0176727
612.487	0.0174999
612.565	0.0174985
612.643	0.0174118
612.721	0.0172891
612.799	0.0173596
612.878	0.0171266
612.956	0.0171431
613.034	0.0171741
613.112	0.0172260
613.190	0.0170798
613.268	0.0170399
613.346	0.0168194
613.424	0.0167879
613.503	0.0165308
613.581	0.0164865
613.659	0.0162589
613.737	0.0163451
613.815	0.0159867
613.893	0.0158244
613.971	0.0156361
614.049	0.0153175
614.128	0.0152390
614.206	0.0151662
614.284	0.0148209
614.362	0.0147021
614.440	0.0145097
614.518	0.0143894
614.596	0.0142258
614.674	0.0142211
614.753	0.0141124
614.831	0.0140965
614.909	0.0141354
614.987	0.0140616
615.065	0.0142874
615.143	0.0144900
615.221	0.0147249
615.299	0.0149670
615.378	0.0151913
615.456	0.0155957
615.534	0.0159277
615.612	0.0164879
615.690	0.0169222
615.768	0.0173650
615.846	0.0178302
615.924	0.0182627
616.003	0.0186220
616.081	0.0190148
616.159	0.0195187
616.237	0.0198199
616.315	0.0200159
616.393	0.0201899
616.471	0.0203233
616.549	0.0205043
616.628	0.0204738
616.706	0.0205978
616.784	0.0204846
616.862	0.0203448
616.940	0.0202687
617.018	0.0199976
617.096	0.0197851
617.174	0.0192596
617.253	0.0189575
617.331	0.0185476
617.409	0.0181321
617.487	0.0176476
617.565	0.0171929
617.643	0.0165297
617.721	0.0161653
617.799	0.0155414
617.878	0.0149963
617.956	0.0144846
618.034	0.0140730
618.112	0.0135694
618.190	0.0131199
618.268	0.0128371
618.346	0.0126511
618.424	0.0122528
618.503	0.0122176
618.581	0.0122997
618.659	0.0123380
618.737	0.0125955
618.815	0.0128188
618.893	0.0132987
618.971	0.0138236
619.049	0.0140168
619.128	0.0145262
619.206	0.0152422
619.284	0.0155323
619.362	0.0161729
619.440	0.0167313
619.518	0.0171491
619.596	0.0177067
619.674	0.0180418
619.753	0.0182967
619.831	0.0186315
619.909	0.0188403
619.987	0.0190753
620.065	0.0193716
620.143	0.0193888
620.221	0.0194324
620.299	0.0195033
620.378	0.0195086
620.456	0.0194138
620.534	0.0191851
620.612	0.0190864
620.690	0.0188239
620.768	0.0184727
620.846	0.0181257
620.924	0.0176888
621.003	0.0171607
621.081	0.0168329
621.159	0.0165266
621.237	0.0161559
621.315	0.0157832
621.393	0.0154135
621.471	0.0154665
621.549	0.0152480
621.628	0.0154200
621.706	0.0154964
621.784	0.0156727
621.862	0.0156897
621.940	0.0160790
622.018	0.0163448
622.096	0.0164388
622.174	0.0166132
622.253	0.0168244
622.331	0.0168656
622.409	0.0169458
622.487	0.0170760
622.565	0.0170326
622.643	0.0169160
622.721	0.0167614
622.799	0.0168459
622.878	0.0166844
622.956	0.0164512
623.034	0.0162004
623.112	0.0157973
623.190	0.0156534
623.268	0.0153655
623.346	0.0151347
623.424	0.0147973
623.503	0.0146997
623.581	0.0145141
623.659	0.0143164
623.737	0.0142820
623.815	0.0141946
623.893	0.0142766
623.971	0.0141666
624.049	0.0142332
624.128	0.0143848
624.206	0.0145486
624.284	0.0145597
624.362	0.0148380
624.440	0.0151316
624.518	0.0152501
624.596	0.0155479
624.674	0.0158868
624.753	0.0161031
624.831	0.0165515
624.909	0.0167143
624.987	0.0168977
625.065	0.0172747
625.143	0.0176537
625.221	0.0180695
625.299	0.0183233
625.378	0.0186382
625.456	0.0188602
625.534	0.0191618
625.612	0.0193851
625.690	0.0194014
625.768	0.0194248
625.846	0.0195477
625.924	0.0195800
626.003	0.0192094
626.081	0.0191724
626.159	0.0187453
626.237	0.0184499
626.315	0.0180556
626.393	0.0177990
626.471	0.0172851
626.549	0.0168282
626.628	0.0165806
626.706	0.0159870
626.784	0.0155694
626.862	0.0153622
626.940	0.0150722
627.018	0.0147291
627.096	0.0146780
627.174	0.0143031
627.253	0.0142827
627.331	0.0142715
627.409	0.0143172
627.487	0.0143013
627.565	0.0142517
627.643	0.0143102
627.721	0.0144737
627.799	0.0146318
627.878	0.0146887
627.956	0.0150634
628.034	0.0153384
628.112	0.0153647
628.190	0.0157754
628.268	0.0161977
628.346	0.0164933
628.424	0.0169092
628.503	0.0172408
628.581	0.0174982
628.659	0.0179619
628.737	0.0183897
628.815	0.0186094
628.893	0.0187079
628.971	0.0188938
629.049	0.0189114
629.128	0.0190408
629.206	0.0189592
629.284	0.0188757
629.362	0.0187449
629.440	0.0186210
629.518	0.0185808
629.596	0.0183556
629.674	0.0182314
629.753	0.0180639
629.831	0.0179382
629.909	0.0178052
629.987	0.0175048
630.065	0.0173321
630.143	0.0170429
630.221	0.0165786
630.299	0.0162804
630.378	0.0158006
630.456	0.0155800
630.534	0.0152573
630.612	0.0149866
630.690	0.0147253
630.768	0.0145761
630.846	0.0142591
630.924	0.0142379
631.003	0.0139583
631.081	0.0139256
631.159	0.0139855
631.237	0.0141990
631.315	0.0141911
631.393	0.0144164
631.471	0.0146053
631.549	0.0146118
631.628	0.0149141
631.706	0.0151022
631.784	0.0152377
631.862	0.0156029
631.940	0.0157230
632.018	0.0159528
632.096	0.0160887
632.174	0.0163295
632.253	0.0167802
632.331	0.0169496
632.409	0.0172400
632.487	0.0174684
632.565	0.0177361
632.643	0.0179475
632.721	0.0183247
632.799	0.0184288
632.878	0.0185975
632.956	0.0187426
633.034	0.0187097
633.112	0.0187823
633.190	0.0188945
633.268	0.0188277
633.346	0.0186864
633.424	0.0187064
633.503	0.0185356
633.581	0.0186051
633.659	0.0183508
633.737	0.0183267
633.815	0.0182246
633.893	0.0181137
633.971	0.0179852
634.049	0.0177619
634.128	0.0175987
634.206	0.0175591
634.284	0.0172874
634.362	0.0171581
634.440	0.0169322
634.518	0.0167505
634.596	0.0164003
634.674	0.0162838
634.753	0.0161045
634.831	0.0157544
634.909	0.0154557
634.987	0.0153259
635.065	0.0149845
635.143	0.0148618
635.221	0.0145369
635.299	0.0144136
635.378	0.0141727
635.456	0.0141475
635.534	0.0139742
635.612	0.0138740
635.690	0.0138217
635.768	0.0139597
635.846	0.0139426
635.924	0.0140716
636.003	0.0142649
636.081	0.0142963
636.159	0.0146432
636.237	0.0148526
636.315	0.0150504
636.393	0.0151646
636.471	0.0156667
636.549	0.0159923
636.628	0.0161628
636.706	0.0164360
636.784	0.0167285
636.862	0.0168505
636.940	0.0171851
637.018	0.0173505
637.096	0.0175188
637.174	0.0175378
637.253	0.0174948
637.331	0.0178838
637.409	0.0177621
637.487	0.0179220
637.565	0.0179397
637.643	0.0181368
637.721	0.0182599
637.799	0.0184464
637.878	0.0185224
637.956	0.0186840
638.034	0.0187926
638.112	0.0187601
638.190	0.0188483
638.268	0.0190163
638.346	0.0189306
638.424	0.0189348
638.503	0.0185286
638.581	0.0183721
638.659	0.0182133
638.737	0.0178731
638.815	0.0174895
638.893	0.0171778
638.971	0.0167532
639.049	0.0164467
639.128	0.0163632
639.206	0.0160596
639.284	0.0158790
639.362	0.0156643
639.440	0.0156123
639.518	0.0156203
639.596	0.0155779
639.674	0.0154205
639.753	0.0153646
639.831	0.0154192
639.909	0.0154681
639.987	0.0154072
640.065	0.0153587
640.143	0.0153222
640.221	0.0155080
640.299	0.0155298
640.378	0.0156750
640.456	0.0155184
640.534	0.0156276
640.612	0.0158961
640.690	0.0158561
640.768	0.0161695
640.846	0.0163638
640.924	0.0164697
641.003	0.0168542
641.081	0.0170952
641.159	0.0171643
641.237	0.0173604
641.315	0.0175098
641.393	0.0174370
641.471	0.0175762
641.549	0.0176153
641.628	0.0176958
641.706	0.0174535
641.784	0.0174078
641.862	0.0171445
641.940	0.0170495
642.018	0.0167470
642.096	0.0163523
642.174	0.0163783
642.253	0.0162358
642.331	0.0159924
642.409	0.0157839
642.487	0.0157436
642.565	0.0156901
642.643	0.0154864
642.721	0.0152253
642.799	0.0154414
642.878	0.0152811
642.956	0.0153441
643.034	0.0151775
643.112	0.0151093
643.190	0.0151221
643.268	0.0152635
643.346	0.0154563
643.424	0.0153358
643.503	0.0154425
643.581	0.0155200
643.659	0.0156379
643.737	0.0158352
643.815	0.0158759
643.893	0.0159984
643.971	0.0161877
644.049	0.0162562
644.128	0.0164823
644.206	0.0166714
644.284	0.0169164
644.362	0.0172885
644.440	0.0173691
644.518	0.0175212
644.596	0.0177674
644.674	0.0179735
644.753	0.0181823
644.831	0.0182085
644.909	0.0183753
644.987	0.0183141
645.065	0.0183997
645.143	0.0184287
645.221	0.0184378
645.299	0.0183802
645.378	0.0184428
645.456	0.0186081
645.534	0.0184642
645.612	0.0182545
645.690	0.0184116
645.768	0.0181638
645.846	0.0180299
645.924	0.0178359
646.003	0.0178579
646.081	0.0175552
646.159	0.0173289
646.237	0.0171172
646.315	0.0168334
646.393	0.0164439
646.471	0.0161572
646.549	0.0159350
646.628	0.0158097
646.706	0.0152901
646.784	0.0151269
646.862	0.0149769
646.940	0.0148402
647.018	0.0146667
647.096	0.0147671
647.174	0.0146165
647.253	0.0144736
647.331	0.0145259
647.409	0.0147923
647.487	0.0147556
647.565	0.0149494
647.643	0.0148845
647.721	0.0147839
647.799	0.0150748
647.878	0.0149075
647.956	0.0149946
648.034	0.0149314
648.112	0.0151120
648.190	0.0151636
648.268	0.0151859
648.346	0.0154460
648.424	0.0155698
648.503	0.0156449
648.581	0.0157537
648.659	0.0158746
648.737	0.0162482
648.815	0.0163879
648.893	0.0164890
648.971	0.0165675
649.049	0.0167959
649.128	0.0168399
649.206	0.0168980
649.284	0.0167017
649.362	0.0166776
649.440	0.0166832
649.518	0.0166652
649.596	0.0166946
649.674	0.0167014
649.753	0.0165040
649.831	0.0167923
649.909	0.0168053
649.987	0.0169456
650.065	0.0170222
650.143	0.0171262
650.221	0.0172946
650.299	0.0173885
650.378	0.0174335
650.456	0.0173518
650.534	0.0175478
650.612	0.0175744
650.690	0.0173859
650.768	0.0174854
650.846	0.0176034
650.924	0.0174715
651.003	0.0173918
651.081	0.0173251
651.159	0.0174181
651.237	0.0173038
651.315	0.0173418
651.393	0.0173205
651.471	0.0172211
651.549	0.0170770
651.628	0.0172752
651.706	0.0171091
651.784	0.0173210
651.862	0.0172456
651.940	0.0171846
652.018	0.0172820
652.096	0.0171910
652.174	0.0172194
652.253	0.0171410
652.331	0.0170832
652.409	0.0169679
652.487	0.0169153
652.565	0.0168227
652.643	0.0167807
652.721	0.0166470
652.799	0.0165886
652.878	0.0165529
652.956	0.0166195
653.034	0.0165379
653.112	0.0164329
653.190	0.0164571
653.268	0.0162492
653.346	0.0162384
653.424	0.0161462
653.503	0.0159784
653.581	0.0157925
653.659	0.0157047
653.737	0.0155953
653.815	0.0154465
653.893	0.0152742
653.971	0.0151893
654.049	0.0151463
654.128	0.0151137
654.206	0.0152045
654.284	0.0150521
654.362	0.0150475
654.440	0.0151701
654.518	0.0152711
654.596	0.0154481
654.674	0.0155182
654.753	0.0155826
654.831	0.0160355
654.909	0.0160371
654.987	0.0162814
655.065	0.0164230
655.143	0.0165311
655.221	0.0166763
655.299	0.0170199
655.378	0.0170490
655.456	0.0172272
655.534	0.0173032
655.612	0.0174572
655.690	0.0174952
655.768	0.0175041
655.846	0.0177415
655.924	0.0178910
656.003	0.0177700
656.081	0.0176268
656.159	0.0177928
656.237	0.0176192
656.315	0.0174967
656.393	0.0173967
656.471	0.0173117
656.549	0.0171976
656.628	0.0169366
656.706	0.0167641
656.784	0.0166116
656.862	0.0163088
656.940	0.0162524
657.018	0.0162818
657.096	0.0160009
657.174	0.0161139
657.253	0.0159767
657.331	0.0159338
657.409	0.0159356
657.487	0.0160179
657.565	0.0161578
657.643	0.0161425
657.721	0.0161477
657.799	0.0165121
657.878	0.0166143
657.956	0.0168285
658.034	0.0169568
658.112	0.0172158
658.190	0.0174120
658.268	0.0174984
658.346	0.0177857
658.424	0.0178616
658.503	0.0180274
658.581	0.0181535
658.659	0.0184199
658.737	0.0184008
658.815	0.0184966
658.893	0.0184431
658.971	0.0184760
659.049	0.0184658
659.128	0.0184723
659.206	0.0182507
659.284	0.0183126
659.362	0.0180499
659.440	0.0178321
659.518	0.0174570
659.596	0.0172577
659.674	0.0169991
659.753	0.0166832
659.831	0.0162594
659.909	0.0160574
659.987	0.0157020
660.065	0.0151389
660.143	0.0149569
660.221	0.0147235
660.299	0.0145573
660.378	0.0142026
660.456	0.0141499
660.534	0.0140901
660.612	0.0140675
660.690	0.0141231
660.768	0.0140549
660.846	0.0142715
660.924	0.0143204
661.003	0.0145437
661.081	0.0148937
661.159	0.0149364
661.237	0.0151599
661.315	0.0154709
661.393	0.0157013
661.471	0.0159112
661.549	0.0161462
661.628	0.0164914
661.706	0.0165863
661.784	0.0167205
661.862	0.0168162
661.940	0.0170062
662.018	0.0170058
662.096	0.0171744
662.174	0.0172769
662.253	0.0174123
662.331	0.0174158
662.409	0.0172915
662.487	0.0174527
662.565	0.0174620
662.643	0.0173556
662.721	0.0174986
662.799	0.0173455
662.878	0.0170686
662.956	0.0172110
663.034	0.0171012
663.112	0.0169630
663.190	0.0167715
663.268	0.0166438
663.346	0.0165821
663.424	0.0163666
663.503	0.0161904
663.581	0.0161259
663.659	0.0162047
663.737	0.0162589
663.815	0.0162281
663.893	0.0162654
663.971	0.0164153
664.049	0.0164066
664.128	0.0164120
664.206	0.0164827
664.284	0.0166106
664.362	0.0166368
664.440	0.0167441
664.518	0.0167399
664.596	0.0169026
664.674	0.0168655
664.753	0.0167773
664.831	0.0169199
664.909	0.0169748
664.987	0.0171551
665.065	0.0172963
665.143	0.0171807
665.221	0.0171301
665.299	0.0173874
665.378	0.0173289
665.456	0.0173637
665.534	0.0174346
665.612	0.0174306
665.690	0.0173811
665.768	0.0174098
665.846	0.0172337
665.924	0.0172690
666.003	0.0171619
666.081	0.0171530
666.159	0.0169225
666.237	0.0170259
666.315	0.0168006
666.393	0.0164474
666.471	0.0164062
666.549	0.0161745
666.628	0.0160552
666.706	0.0157816
666.784	0.0156219
666.862	0.0154640
666.940	0.0152228
667.018	0.0151054
667.096	0.0148247
667.174	0.0147627
667.253	0.0145435
667.331	0.0146516
667.409	0.0146407
667.487	0.0145722
667.565	0.0146165
667.643	0.0147347
667.721	0.0148359
667.799	0.0149834
667.878	0.0150355
667.956	0.0153257
668.034	0.0154821
668.112	0.0155799
668.190	0.0156252
668.268	0.0158772
668.346	0.0161813
668.424	0.0163637
668.503	0.0164410
668.581	0.0166500
668.659	0.0169693
668.737	0.0170884
668.815	0.0172165
668.893	0.0172397
668.971	0.0173682
669.049	0.0176141
669.128	0.0174895
669.206	0.0176752
669.284	0.0178923
669.362	0.0178803
669.440	0.0178565
669.518	0.0177403
669.596	0.0177717
669.674	0.0177110
669.753	0.0175903
669.831	0.0176049
669.909	0.0175523
669.987	0.0174494
670.065	0.0172076
670.143	0.0171597
670.221	0.0169382
670.299	0.0168539
670.378	0.0168886
670.456	0.0167074
670.534	0.0164583
670.612	0.0164322
670.690	0.0162798
670.768	0.0162170
670.846	0.0161677
670.924	0.0160923
671.003	0.0160158
671.081	0.0161858
671.159	0.0161181
671.237	0.0159280
671.315	0.0160058
671.393	0.0161827
671.471	0.0161423
671.549	0.0160193
671.628	0.0160371
671.706	0.0162253
671.784	0.0162541
671.862	0.0163132
671.940	0.0162750
672.018	0.0163724
672.096	0.0163087
672.174	0.0163983
672.253	0.0165073
672.331	0.0165505
672.409	0.0164819
672.487	0.0166203
672.565	0.0165273
672.643	0.0164728
672.721	0.0163850
672.799	0.0163990
672.878	0.0163116
672.956	0.0163020
673.034	0.0162370
673.112	0.0164228
673.190	0.0162886
673.268	0.0161395
673.346	0.0161141
673.424	0.0162676
673.503	0.0161686
673.581	0.0161083
673.659	0.0160989
673.737	0.0161748
673.815	0.0161039
673.893	0.0159296
673.971	0.0158591
674.049	0.0159266
674.128	0.0158603
674.206	0.0158323
674.284	0.0157184
674.362	0.0158908
674.440	0.0159792
674.518	0.0159672
674.596	0.0159950
674.674	0.0160883
674.753	0.0160761
674.831	0.0163348
674.909	0.0163117
674.987	0.0164909
675.065	0.0166231
675.143	0.0167252
675.221	0.0167789
675.299	0.0169680
675.378	0.0168708
675.456	0.0169116
675.534	0.0171474
675.612	0.0171727
675.690	0.0171442
675.768	0.0171349
675.846	0.0169947
675.924	0.0170082
676.003	0.0171289
676.081	0.0172153
676.159	0.0172723
676.237	0.0171678
676.315	0.0172794
676.393	0.0174272
676.471	0.0175673
676.549	0.0174805
676.628	0.0175773
676.706	0.0174710
676.784	0.0175758
676.862	0.0175559
676.940	0.0175928
677.018	0.0176460
677.096	0.0174464
677.174	0.0172556
677.253	0.0173070
677.331	0.0171664
677.409	0.0169152
677.487	0.0168140
677.565	0.0166724
677.643	0.0163553
677.721	0.0161787
677.799	0.0159960
677.878	0.0158131
677.956	0.0158073
678.034	0.0156855
678.112	0.0154754
678.190	0.0154844
678.268	0.0153979
678.346	0.0153584
678.424	0.0155025
678.503	0.0154374
678.581	0.0155791
678.659	0.0155859
678.737	0.0155260
678.815	0.0155598
678.893	0.0157926
678.971	0.0159181
679.049	0.0160528
679.128	0.0161441
679.206	0.0161736
679.284	0.0161749
679.362	0.0163888
679.440	0.0164268
679.518	0.0165986
679.596	0.0165779
679.674	0.0166227
679.753	0.0168597
679.831	0.0168365
679.909	0.0168977
679.987	0.0171062
680.065	0.0169990
680.143	0.0170236
680.221	0.0171126
680.299	0.0171297
680.378	0.0170874
680.456	0.0171641
680.534	0.0170010
680.612	0.0168096
680.690	0.0168518
680.768	0.0169651
680.846	0.0169880
680.924	0.0168702
681.003	0.0168357
681.081	0.0167580
681.159	0.0166912
681.237	0.0167230
681.315	0.0166189
681.393	0.0165632
681.471	0.0164931
681.549	0.0163231
681.628	0.0165591
681.706	0.0165863
681.784	0.0165397
681.862	0.0164712
681.940	0.0165276
682.018	0.0166035
682.096	0.0165588
682.174	0.0164982
682.253	0.0166794
682.331	0.0167175
682.409	0.0166507
682.487	0.0167108
682.565	0.0164712
682.643	0.0166506
682.721	0.0167227
682.799	0.0166585
682.878	0.0166148
682.956	0.0164945
683.034	0.0163839
683.112	0.0163066
683.190	0.0162991
683.268	0.0162691
683.346	0.0162598
683.424	0.0162682
683.503	0.0163996
683.581	0.0162709
683.659	0.0162181
683.737	0.0163655
683.815	0.0163787
683.893	0.0163216
683.971	0.0163576
684.049	0.0163900
684.128	0.0164686
684.206	0.0164327
684.284	0.0165104
684.362	0.0165012
684.440	0.0164684
684.518	0.0164659
684.596	0.0164852
684.674	0.0163702
684.753	0.0163185
684.831	0.0163778
684.909	0.0163213
684.987	0.0162774
685.065	0.0160667
685.143	0.0162675
685.221	0.0163370
685.299	0.0161079
685.378	0.0160176
685.456	0.0160561
685.534	0.0160648
685.612	0.0160486
685.690	0.0161038
685.768	0.0159207
685.846	0.0162317
685.924	0.0162306
686.003	0.0162650
686.081	0.0163885
686.159	0.0165080
686.237	0.0164812
686.315	0.0164286
686.393	0.0164810
686.471	0.0166508
686.549	0.0166639
686.628	0.0166532
686.706	0.0165810
686.784	0.0168267
686.862	0.0167389
686.940	0.0167755
687.018	0.0168713
687.096	0.0169037
687.174	0.0168509
687.253	0.0169506
687.331	0.0168829
687.409	0.0169045
687.487	0.0169944
687.565	0.0169331
687.643	0.0170509
687.721	0.0169810
687.799	0.0171079
687.878	0.0170805
687.956	0.0171770
688.034	0.0170869
688.112	0.0170234
688.190	0.0171954
688.268	0.0170814
688.346	0.0171837
688.424	0.0171800
688.503	0.0171310
688.581	0.0170502
688.659	0.0168660
688.737	0.0167924
688.815	0.0167367
688.893	0.0166190
688.971	0.0165955
689.049	0.0165140
689.128	0.0164655
689.206	0.0162128
689.284	0.0161576
689.362	0.0161865
689.440	0.0161257
689.518	0.0161729
689.596	0.0161131
689.674	0.0160741
689.753	0.0160970
689.831	0.0160789
689.909	0.0160951
689.987	0.0160594
690.065	0.0161444
690.143	0.0160889
690.221	0.0160068
690.299	0.0161722
690.378	0.0160768
690.456	0.0160082
690.534	0.0161944
690.612	0.0163411
690.690	0.0162402
690.768	0.0162183
690.846	0.0163660
690.924	0.0163286
691.003	0.0162510
691.081	0.0163881
691.159	0.0163490
691.237	0.0165570
691.315	0.0165259
691.393	0.0166026
691.471	0.0166360
691.549	0.0166352
691.628	0.0166626
691.706	0.0167100
691.784	0.0168301
691.862	0.0168324
691.940	0.0168018
692.018	0.0167794
692.096	0.0166939
692.174	0.0168413
692.253	0.0169857
692.331	0.0168205
692.409	0.0169118
692.487	0.0168890
692.565	0.0170016
692.643	0.0171326
692.721	0.0171658
692.799	0.0170831
692.878	0.0172122
692.956	0.0171609
693.034	0.0170175
693.112	0.0170065
693.190	0.0168571
693.268	0.0169749
693.346	0.0168929
693.424	0.0167501
693.503	0.0167098
693.581	0.0165750
693.659	0.0166351
693.737	0.0163746
693.815	0.0164151
693.893	0.0163664
693.971	0.0162588
694.049	0.0162129
694.128	0.0160680
694.206	0.0161755
694.284	0.0161042
694.362	0.0162122
694.440	0.0161652
694.518	0.0161045
694.596	0.0162065
694.674	0.0163213
694.753	0.0162940
694.831	0.0162354
694.909	0.0163821
694.987	0.0162561
695.065	0.0163144
695.143	0.0163955
695.221	0.0164419
695.299	0.0164747
695.378	0.0165169
695.456	0.0164992
695.534	0.0165284
695.612	0.0165897
695.690	0.0164175
695.768	0.0166324
695.846	0.0166586
695.924	0.0165459
696.003	0.0165314
696.081	0.0164116
696.159	0.0164826
696.237	0.0165500
696.315	0.0164532
696.393	0.0164686
696.471	0.0165343
696.549	0.0164428
696.628	0.0164223
696.706	0.0163463
696.784	0.0163412
696.862	0.0164246
696.940	0.0164621
697.018	0.0166125
697.096	0.0166661
697.174	0.0164896
697.253	0.0166260
697.331	0.0167387
697.409	0.0167508
697.487	0.0166887
697.565	0.0168176
697.643	0.0167640
697.721	0.0169034
697.799	0.0168428
697.878	0.0167451
697.956	0.0166911
698.034	0.0166119
698.112	0.0167842
698.190	0.0168269
698.268	0.0166804
698.346	0.0166154
698.424	0.0166176
698.503	0.0165002
698.581	0.0164908
698.659	0.0165512
698.737	0.0166640
698.815	0.0166269
698.893	0.0166105
698.971	0.0164900
699.049	0.0164291
699.128	0.0163368
699.206	0.0164209
699.284	0.0162875
699.362	0.0163725
699.440	0.0163618
699.518	0.0162623
699.596	0.0162367
699.674	0.0161851
699.753	0.0162797
699.831	0.0162229
699.909	0.0162070
699.987	0.0162331
700.065	0.0162224
700.143	0.0163770
700.221	0.0163217
700.299	0.0162899
700.378	0.0163601
700.456	0.0165218
700.534	0.0163678
700.612	0.0164896
700.690	0.0163092
700.768	0.0163025
700.846	0.0164275
700.924	0.0164671
701.003	0.0163750
701.081	0.0164627
701.159	0.0164871
701.237	0.0164103
701.315	0.0165180
701.393	0.0164658
701.471	0.0163538
701.549	0.0163956
701.628	0.0164890
701.706	0.0164748
701.784	0.0165378
701.862	0.0163592
701.940	0.0164292
702.018	0.0164436
702.096	0.0164076
702.174	0.0166022
702.253	0.0163786
702.331	0.0163421
702.409	0.0164702
702.487	0.0163144
702.565	0.0164818
702.643	0.0164502
702.721	0.0164220
702.799	0.0164185
702.878	0.0163260
702.956	0.0164700
703.034	0.0164450
703.112	0.0164258
703.190	0.0165026
703.268	0.0164977
703.346	0.0165518
703.424	0.0164857
703.503	0.0165389
703.581	0.0166604
703.659	0.0166215
703.737	0.0165944
703.815	0.0166831
703.893	0.0166825
703.971	0.0167105
704.049	0.0166139
704.128	0.0167389
704.206	0.0168621
704.284	0.0168293
704.362	0.0169357
704.440	0.0168748
704.518	0.0168975
704.596	0.0169426
704.674	0.0169741
704.753	0.0170293
704.831	0.0170459
704.909	0.0170071
704.987	0.0169251
705.065	0.0168954
705.143	0.0170853
705.221	0.0168530
705.299	0.0167241
705.378	0.0167908
705.456	0.0166854
705.534	0.0167342
705.612	0.0165331
705.690	0.0163892
705.768	0.0164468
705.846	0.0165363
705.924	0.0164137
706.003	0.0164331
706.081	0.0162661
706.159	0.0162272
706.237	0.0161874
706.315	0.0160792
706.393	0.0163226
706.471	0.0162543
706.549	0.0160858
706.628	0.0161549
706.706	0.0162097
706.784	0.0161691
706.862	0.0161455
706.940	0.0161732
707.018	0.0161637
707.096	0.0163591
707.174	0.0162461
707.253	0.0164078
707.331	0.0163028
707.409	0.0162959
707.487	0.0163358
707.565	0.0164119
707.643	0.0165833
707.721	0.0165941
707.799	0.0167285
707.878	0.0166245
707.956	0.0166283
708.034	0.0167307
708.112	0.0166490
708.190	0.0168310
708.268	0.0168564
708.346	0.0166891
708.424	0.0166016
708.503	0.0167442
708.581	0.0166827
708.659	0.0168110
708.737	0.0168098
708.815	0.0168588
708.893	0.0167272
708.971	0.0169121
709.049	0.0168506
709.128	0.0169434
709.206	0.0168552
709.284	0.0168582
709.362	0.0169184
709.440	0.0167324
709.518	0.0166957
709.596	0.0169418
709.674	0.0166015
709.753	0.0166157
709.831	0.0166149
709.909	0.0165431
709.987	0.0164818
710.065	0.0165371
710.143	0.0164427
710.221	0.0163425
710.299	0.0163725
710.378	0.0164799
710.456	0.0162870
710.534	0.0163368
710.612	0.0163461
710.690	0.0162878
710.768	0.0162605
710.846	0.0160458
710.924	0.0161662
711.003	0.0161459
711.081	0.0162138
711.159	0.0162573
711.237	0.0162206
711.315	0.0161436
711.393	0.0162012
711.471	0.0163770
711.549	0.0162157
711.628	0.0162255
711.706	0.0162715
711.784	0.0164265
711.862	0.0163103
711.940	0.0165170
712.018	0.0165134
712.096	0.0163646
712.174	0.0165312
712.253	0.0166512
712.331	0.0167400
712.409	0.0169384
712.487	0.0167816
712.565	0.0168580
712.643	0.0168980
712.721	0.0171049
712.799	0.0169724
712.878	0.0169208
712.956	0.0170412
713.034	0.0172153
713.112	0.0172858
713.190	0.0170567
713.268	0.0171108
713.346	0.0171458
713.424	0.0171283
713.503	0.0169508
713.581	0.0169636
713.659	0.0171688
713.737	0.0170277
713.815	0.0170223
713.893	0.0168565
713.971	0.0168267
714.049	0.0167180
714.128	0.0167818
714.206	0.0166479
714.284	0.0166135
714.362	0.0164136
714.440	0.0162901
714.518	0.0163215
714.596	0.0163829
714.674	0.0162637
714.753	0.0160844
714.831	0.0162975
714.909	0.0160166
714.987	0.0161972
715.065	0.0160457
715.143	0.0161470
715.221	0.0160686
715.299	0.0161964
715.378	0.0161537
715.456	0.0162997
715.534	0.0162164
715.612	0.0163462
715.690	0.0163350
715.768	0.0165344
715.846	0.0165195
715.924	0.0167839
716.003	0.0166825
716.081	0.0167792
716.159	0.0167968
716.237	0.0167918
716.315	0.0168167
716.393	0.0170031
716.471	0.0168655
716.549	0.0170383
716.628	0.0170147
716.706	0.0170609
716.784	0.0170539
716.862	0.0168083
716.940	0.0170499
717.018	0.0170638
717.096	0.0171204
717.174	0.0168053
717.253	0.0168694
717.331	0.0166875
717.409	0.0167921
717.487	0.0166548
717.565	0.0166697
717.643	0.0166496
717.721	0.0166799
717.799	0.0165443
717.878	0.0165712
717.956	0.0164823
718.034	0.0166160
718.112	0.0166692
718.190	0.0165969
718.268	0.0166217
718.346	0.0166654
718.424	0.0165951
718.503	0.0166075
718.581	0.0167747
718.659	0.0167224
718.737	0.0167505
718.815	0.0168312
718.893	0.0167505
718.971	0.0166836
719.049	0.0169245
719.128	0.0168845
719.206	0.0167300
719.284	0.0167976
719.362	0.0169225
719.440	0.0169218
719.518	0.0167483
719.596	0.0166719
719.674	0.0167532
719.753	0.0166732
719.831	0.0167074
719.909	0.0166058
719.987	0.0164965
720.065	0.0164816
720.143	0.0164604
720.221	0.0162463
720.299	0.0161771
720.378	0.0162145
720.456	0.0161420
720.534	0.0161099
720.612	0.0160165
720.690	0.0161365
720.768	0.0160660
720.846	0.0161534
720.924	0.0161508
721.003	0.0161119
721.081	0.0160413
721.159	0.0162401
721.237	0.0161437
721.315	0.0162352
721.393	0.0160057
721.471	0.0162061
721.549	0.0163193
721.628	0.0164577
721.706	0.0164716
721.784	0.0165034
721.862	0.0165811
721.940	0.0165664
722.018	0.0166436
722.096	0.0167581
722.174	0.0168235
722.253	0.0168793
722.331	0.0169321
722.409	0.0169719
722.487	0.0170135
722.565	0.0169703
722.643	0.0169839
722.721	0.0169681
722.799	0.0169259
722.878	0.0168738
722.956	0.0169012
723.034	0.0169789
723.112	0.0170076
723.190	0.0166245
723.268	0.0167894
723.346	0.0167366
723.424	0.0165269
723.503	0.0166977
723.581	0.0166048
723.659	0.0163280
723.737	0.0163725
723.815	0.0163869
723.893	0.0162628
723.971	0.0162852
724.049	0.0161898
724.128	0.0161722
724.206	0.0161681
724.284	0.0161862
724.362	0.0163057
724.440	0.0160915
724.518	0.0161792
724.596	0.0162129
724.674	0.0161693
724.753	0.0161594
724.831	0.0162946
724.909	0.0163898
724.987	0.0162801
725.065	0.0163818
725.143	0.0163961
725.221	0.0165657
725.299	0.0166211
725.378	0.0165611
725.456	0.0165398
725.534	0.0166599
725.612	0.0166570
725.690	0.0166611
725.768	0.0165868
725.846	0.0167633
725.924	0.0166011
726.003	0.0166633
726.081	0.0165544
726.159	0.0166544
726.237	0.0165147
726.315	0.0166364
726.393	0.0167045
726.471	0.0165755
726.549	0.0164875
726.628	0.0165205
726.706	0.0164526
726.784	0.0165279
726.862	0.0164277
726.940	0.0163544
727.018	0.0164223
727.096	0.0162722
727.174	0.0160941
727.253	0.0160891
727.331	0.0161369
727.409	0.0160928
727.487	0.0159821
727.565	0.0160335
727.643	0.0158961
727.721	0.0161236
727.799	0.0160077
727.878	0.0160155
727.956	0.0160960
728.034	0.0162245
728.112	0.0162082
728.190	0.0161362
728.268	0.0163277
728.346	0.0164312
728.424	0.0163494
728.503	0.0165083
728.581	0.0166290
728.659	0.0165475
728.737	0.0166798
728.815	0.0167340
728.893	0.0167197
728.971	0.0167091
729.049	0.0168444
729.128	0.0168656
729.206	0.0170233
729.284	0.0170422
729.362	0.0170744
729.440	0.0170734
729.518	0.0171180
729.596	0.0170617
729.674	0.0170150
729.753	0.0172087
729.831	0.0171561
729.909	0.0170656
729.987	0.0169712
730.065	0.0171299
730.143	0.0171151
730.221	0.0170657
730.299	0.0169769
730.378	0.0168205
730.456	0.0170209
730.534	0.0168703
730.612	0.0168837
730.690	0.0168177
730.768	0.0168958
730.846	0.0167642
730.924	0.0166756
731.003	0.0166161
731.081	0.0166520
731.159	0.0165541
731.237	0.0163871
731.315	0.0166734
731.393	0.0165407
731.471	0.0163951
731.549	0.0164240
731.628	0.0164713
731.706	0.0164167
731.784	0.0163054
731.862	0.0163946
731.940	0.0162707
732.018	0.0163972
732.096	0.0163440
732.174	0.0162487
732.253	0.0163361
732.331	0.0163232
732.409	0.0164706
732.487	0.0162008
732.565	0.0163045
732.643	0.0163248
732.721	0.0162757
732.799	0.0162909
732.878	0.0163658
732.956	0.0165134
733.034	0.0162601
733.112	0.0163365
733.190	0.0164008
733.268	0.0164329
733.346	0.0165273
733.424	0.0165673
733.503	0.0164919
733.581	0.0165647
733.659	0.0167459
733.737	0.0166379
733.815	0.0165961
733.893	0.0167653
733.971	0.0165274
734.049	0.0166953
734.128	0.0168418
734.206	0.0167821
734.284	0.0168359
734.362	0.0168584
734.440	0.0167657
734.518	0.0168015
734.596	0.0169169
734.674	0.0169646
734.753	0.0168562
734.831	0.0167546
734.909	0.0167538
734.987	0.0168317
735.065	0.0167585
735.143	0.0166871
735.221	0.0166641
735.299	0.0165078
735.378	0.0165902
735.456	0.0166297
735.534	0.0165797
735.612	0.0163791
735.690	0.0163734
735.768	0.0164803
735.846	0.0164828
735.924	0.0163020
736.003	0.0163620
736.081	0.0165524
736.159	0.0163641
736.237	0.0162254
736.315	0.0162376
736.393	0.0161153
736.471	0.0162402
736.549	0.0162569
736.628	0.0162523
736.706	0.0161566
736.784	0.0163574
736.862	0.0162403
736.940	0.0163117
737.018	0.0163233
737.096	0.0165694
737.174	0.0165226
737.253	0.0163714
737.331	0.0166191
737.409	0.0166458
737.487	0.0166750
737.565	0.0165681
737.643	0.0165908
737.721	0.0166998
737.799	0.0167498
737.878	0.0166451
737.956	0.0166196
738.034	0.0166558
738.112	0.0167966
738.190	0.0168227
738.268	0.0166515
738.346	0.0165211
738.424	0.0165463
738.503	0.0166520
738.581	0.0165701
738.659	0.0164760
738.737	0.0164493
738.815	0.0164831
738.893	0.0163350
738.971	0.0164939
739.049	0.0164514
739.128	0.0163469
739.206	0.0164068
739.284	0.0164588
739.362	0.0163750
739.440	0.0163000
739.518	0.0164674
739.596	0.0163502
739.674	0.0163667
739.753	0.0165009
739.831	0.0164704
739.909	0.0164605
739.987	0.0165333
740.065	0.0165742
740.143	0.0164911
740.221	0.0164587
740.299	0.0165616
740.378	0.0167218
740.456	0.0166415
740.534	0.0166998
740.612	0.0167914
740.690	0.0167597
740.768	0.0168019
740.846	0.0170773
740.924	0.0171676
741.003	0.0169440
741.081	0.0170524
741.159	0.0171176
741.237	0.0169285
741.315	0.0171926
741.393	0.0171494
741.471	0.0170771
741.549	0.0171054
741.628	0.0169508
741.706	0.0169278
741.784	0.0170368
741.862	0.0169948
741.940	0.0169537
742.018	0.0169707
742.096	0.0168642
742.174	0.0168710
742.253	0.0168759
742.331	0.0168204
742.409	0.0165999
742.487	0.0166508
742.565	0.0165051
742.643	0.0165327
742.721	0.0165030
742.799	0.0164981
742.878	0.0165025
742.956	0.0163580
743.034	0.0163942
743.112	0.0162981
743.190	0.0162626
743.268	0.0162141
743.346	0.0162514
743.424	0.0163567
743.503	0.0163013
743.581	0.0165065
743.659	0.0163667
743.737	0.0162553
743.815	0.0162670
743.893	0.0162825
743.971	0.0162722
744.049	0.0162921
744.128	0.0162814
744.206	0.0163188
744.284	0.0162027
744.362	0.0162710
744.440	0.0161604
744.518	0.0162005
744.596	0.0162985
744.674	0.0162804
744.753	0.0161019
744.831	0.0162470
744.909	0.0162920
744.987	0.0163141
745.065	0.0163190
745.143	0.0162814
745.221	0.0164413
745.299	0.0162837
745.378	0.0162222
745.456	0.0164531
745.534	0.0163058
745.612	0.0162884
745.690	0.0164278
745.768	0.0163525
745.846	0.0164310
745.924	0.0162704
746.003	0.0162685
746.081	0.0164865
746.159	0.0165266
746.237	0.0165733
746.315	0.0163802
746.393	0.0164685
746.471	0.0165251
746.549	0.0165261
746.628	0.0165829
746.706	0.0166660
746.784	0.0167504
746.862	0.0166618
746.940	0.0168720
747.018	0.0168592
747.096	0.0169411
747.174	0.0167843
747.253	0.0167950
747.331	0.0166672
747.409	0.0167143
747.487	0.0168192
747.565	0.0167493
747.643	0.0166485
747.721	0.0166885
747.799	0.0166586
747.878	0.0165999
747.956	0.0166502
748.034	0.0165913
748.112	0.0165797
748.190	0.0166608
748.268	0.0166595
748.346	0.0165170
748.424	0.0165682
748.503	0.0165828
748.581	0.0166031
748.659	0.0165810
748.737	0.0167063
748.815	0.0166123
748.893	0.0166900
748.971	0.0165472
749.049	0.0165613
749.128	0.0165877
749.206	0.0165476
749.284	0.0166927
749.362	0.0166827
749.440	0.0165353
749.518	0.0166717
749.596	0.0165470
749.674	0.0164503
749.753	0.0165990
749.831	0.0165819
749.909	0.0166564
749.987	0.0165591
750.065	0.0164472
750.143	0.0165420
750.221	0.0165012
750.299	0.0164306
750.378	0.0163516
750.456	0.0164412
750.534	0.0163886
750.612	0.0162372
750.690	0.0162608
750.768	0.0162441
750.846	0.0163207
750.924	0.0161446
751.003	0.0161607
751.081	0.0161791
751.159	0.0163668
751.237	0.0162279
751.315	0.0161179
751.393	0.0161531
751.471	0.0163097
751.549	0.0163315
751.628	0.0161835
751.706	0.0162678
751.784	0.0163914
751.862	0.0163773
751.940	0.0163177
752.018	0.0163361
752.096	0.0163979
752.174	0.0164347
752.253	0.0163620
752.331	0.0164159
752.409	0.0165084
752.487	0.0163484
752.565	0.0163816
752.643	0.0164768
752.721	0.0163383
752.799	0.0164576
752.878	0.0164378
752.956	0.0163649
753.034	0.0162563
753.112	0.0164387
753.190	0.0163773
753.268	0.0164169
753.346	0.0164626
753.424	0.0164438
753.503	0.0164690
753.581	0.0165698
753.659	0.0164570
753.737	0.0165107
753.815	0.0164589
753.893	0.0164038
753.971	0.0164606
754.049	0.0165265
754.128	0.0164510
754.206	0.0165777
754.284	0.0165832
754.362	0.0166183
754.440	0.0165588
754.518	0.0166222
754.596	0.0166231
754.674	0.0165861
754.753	0.0166380
754.831	0.0166882
754.909	0.0166932
754.987	0.0167146
755.065	0.0166405
755.143	0.0167294
755.221	0.0165963
755.299	0.0166969
755.378	0.0168253
755.456	0.0166938
755.534	0.0165693
755.612	0.0166434
755.690	0.0167773
755.768	0.0166583
755.846	0.0166260
755.924	0.0165766
756.003	0.0165324
756.081	0.0164679
756.159	0.0164452
756.237	0.0165202
756.315	0.0163354
756.393	0.0164561
756.471	0.0163135
756.549	0.0162691
756.628	0.0163895
756.706	0.0163143
756.784	0.0163218
756.862	0.0162002
756.940	0.0163165
757.018	0.0161519
757.096	0.0162613
757.174	0.0163075
757.253	0.0161822
757.331	0.0162280
757.409	0.0164053
757.487	0.0163332
757.565	0.0163197
757.643	0.0166421
757.721	0.0164611
757.799	0.0165047
757.878	0.0164567
757.956	0.0166894
758.034	0.0166834
758.112	0.0167355
758.190	0.0167629
758.268	0.0165789
758.346	0.0167197
758.424	0.0168517
758.503	0.0167094
758.581	0.0168925
758.659	0.0167177
758.737	0.0167729
758.815	0.0168303
758.893	0.0168326
758.971	0.0168595
759.049	0.0168064
759.128	0.0167220
759.206	0.0168393
759.284	0.0167045
759.362	0.0166766
759.440	0.0166714
759.518	0.0166847
759.596	0.0166579
759.674	0.0165554
759.753	0.0165001
759.831	0.0164822
759.909	0.0164827
759.987	0.0165123
760.065	0.0164713
760.143	0.0163839
760.221	0.0163547
760.299	0.0163588
760.378	0.0164186
760.456	0.0164579
760.534	0.0163648
760.612	0.0162757
760.690	0.0163306
760.768	0.0162545
760.846	0.0162990
760.924	0.0163780
761.003	0.0164101
761.081	0.0163779
761.159	0.0164280
761.237	0.0163341
761.315	0.0163210
761.393	0.0164764
761.471	0.0163358
761.549	0.0163300
761.628	0.0164429
761.706	0.0165694
761.784	0.0165394
761.862	0.0167442
761.940	0.0165926
762.018	0.0166039
762.096	0.0165229
762.174	0.0165755
762.253	0.0165630
762.331	0.0167486
762.409	0.0165636
762.487	0.0165757
762.565	0.0167143
762.643	0.0166344
762.721	0.0166354
762.799	0.0165945
762.878	0.0166914
762.956	0.0165461
763.034	0.0165060
763.112	0.0164990
763.190	0.0164620
763.268	0.0165963
763.346	0.0165839
763.424	0.0163698
763.503	0.0163887
763.581	0.0163147
763.659	0.0163580
763.737	0.0163943
763.815	0.0164329
763.893	0.0163295
763.971	0.0163408
764.049	0.0163599
764.128	0.0162807
764.206	0.0164283
764.284	0.0163989
764.362	0.0165919
764.440	0.0165066
764.518	0.0165105
764.596	0.0166122
764.674	0.0165400
764.753	0.0166339
764.831	0.0168689
764.909	0.0167863
764.987	0.0166360
765.065	0.0168081
765.143	0.0167368
765.221	0.0167170
765.299	0.0168269
765.378	0.0169135
765.456	0.0170055
765.534	0.0168406
765.612	0.0167970
765.690	0.0169836
765.768	0.0168244
765.846	0.0167863
765.924	0.0168513
766.003	0.0167037
766.081	0.0167539
766.159	0.0169402
766.237	0.0168150
766.315	0.0167469
766.393	0.0167471
766.471	0.0166031
766.549	0.0166308
766.628	0.0166764
766.706	0.0166295
766.784	0.0165017
766.862	0.0164767
766.940	0.0165517
767.018	0.0165936
767.096	0.0165125
767.174	0.0165692
767.253	0.0165877
767.331	0.0164301
767.409	0.0165293
767.487	0.0166058
767.565	0.0165619
767.643	0.0163766
767.721	0.0163961
767.799	0.0164021
767.878	0.0165540
767.956	0.0164223
768.034	0.0163335
768.112	0.0163606
768.190	0.0164877
768.268	0.0163641
768.346	0.0164483
768.424	0.0163727
768.503	0.0164291
768.581	0.0163490
768.659	0.0164012
768.737	0.0164388
768.815	0.0164648
768.893	0.0163541
768.971	0.0163498
769.049	0.0165233
769.128	0.0163621
769.206	0.0163076
769.284	0.0165034
769.362	0.0163786
769.440	0.0163955
769.518	0.0163184
769.596	0.0163848
769.674	0.0163005
769.753	0.0164250
769.831	0.0162068
769.909	0.0163409
769.987	0.0162457
770.065	0.0164523
770.143	0.0163036
770.221	0.0163157
770.299	0.0164699
770.378	0.0164053
770.456	0.0164737
770.534	0.0164685
770.612	0.0163267
770.690	0.0165655
770.768	0.0164522
770.846	0.0164491
770.924	0.0166107
771.003	0.0167930
771.081	0.0165585
771.159	0.0165726
771.237	0.0165431
771.315	0.0166119
771.393	0.0166405
771.471	0.0166740
771.549	0.0166579
771.628	0.0166332
771.706	0.0165911
771.784	0.0167939
771.862	0.0167976
771.940	0.0167722
772.018	0.0167448
772.096	0.0168581
772.174	0.0167954
772.253	0.0168204
772.331	0.0168028
772.409	0.0167857
772.487	0.0166985
772.565	0.0167189
772.643	0.0166308
772.721	0.0166998
772.799	0.0166080
772.878	0.0165965
772.956	0.0167440
773.034	0.0167336
773.112	0.0166988
773.190	0.0166729
773.268	0.0165858
773.346	0.0164461
773.424	0.0163874
773.503	0.0165218
773.581	0.0164772
773.659	0.0164182
773.737	0.0163707
773.815	0.0163891
773.893	0.0163425
773.971	0.0163495
774.049	0.0161649
774.128	0.0161535
774.206	0.0161739
774.284	0.0161145
774.362	0.0161961
774.440	0.0160986
774.518	0.0159956
774.596	0.0161749
774.674	0.0162980
774.753	0.0162267
774.831	0.0160801
774.909	0.0161137
774.987	0.0161980
775.065	0.0162740
775.143	0.0163077
775.221	0.0162647
775.299	0.0163307
775.378	0.0162785
775.456	0.0163443
775.534	0.0163935
775.612	0.0162292
775.690	0.0162794
775.768	0.0163011
775.846	0.0163510
775.924	0.0163994
776.003	0.0162915
776.081	0.0161993
776.159	0.0163982
776.237	0.0164912
776.315	0.0161564
776.393	0.0162859
776.471	0.0164487
776.549	0.0164706
776.628	0.0163010
776.706	0.0164316
776.784	0.0163644
776.862	0.0164493
776.940	0.0164381
777.018	0.0163750
777.096	0.0163769
777.174	0.0164963
777.253	0.0163608
777.331	0.0163592
777.409	0.0164424
777.487	0.0164997
777.565	0.0163969
777.643	0.0164648
777.721	0.0164938
777.799	0.0163326
777.878	0.0163213
777.956	0.0162769
778.034	0.0164247
778.112	0.0163017
778.190	0.0163625
778.268	0.0162511
778.346	0.0163966
778.424	0.0163988
778.503	0.0165147
778.581	0.0164651
778.659	0.0164999
778.737	0.0164810
778.815	0.0163876
778.893	0.0163652
778.971	0.0163343
779.049	0.0164806
779.128	0.0165131
779.206	0.0165270
779.284	0.0165540
779.362	0.0164281
779.440	0.0164384
779.518	0.0164772
779.596	0.0165836
779.674	0.0165890
779.753	0.0165974
779.831	0.0166211
779.909	0.0165849
779.987	0.0166737
780.065	0.0166904
780.143	0.0167255
780.221	0.0166971
780.299	0.0166727
780.378	0.0166509
780.456	0.0167480
780.534	0.0167210
780.612	0.0167485
780.690	0.0168638
780.768	0.0167331
780.846	0.0166498
780.924	0.0167398
781.003	0.0168005
781.081	0.0167446
781.159	0.0166835
781.237	0.0166493
781.315	0.0165439
781.393	0.0164940
781.471	0.0165422
781.549	0.0164833
781.628	0.0165813
781.706	0.0165606
781.784	0.0165762
781.862	0.0164472
781.940	0.0164993
782.018	0.0166122
782.096	0.0164874
782.174	0.0164893
782.253	0.0164252
782.331	0.0165363
782.409	0.0164940
782.487	0.0166464
782.565	0.0167318
782.643	0.0166051
782.721	0.0165578
782.799	0.0166816
782.878	0.0166190
782.956	0.0166616
783.034	0.0165565
783.112	0.0166248
783.190	0.0166834
783.268	0.0167246
783.346	0.0166633
783.424	0.0168627
783.503	0.0167958
783.581	0.0167519
783.659	0.0167865
783.737	0.0167752
783.815	0.0167508
783.893	0.0167794
783.971	0.0166507
784.049	0.0167653
784.128	0.0166608
784.206	0.0167349
784.284	0.0166334
784.362	0.0165286
784.440	0.0165775
784.518	0.0167066
784.596	0.0165805
784.674	0.0168597
784.753	0.0167263
784.831	0.0165735
784.909	0.0167215
784.987	0.0165420
785.065	0.0165125
785.143	0.0164600
785.221	0.0165378
785.299	0.0165540
785.378	0.0164584
785.456	0.0164343
785.534	0.0164351
785.612	0.0165678
785.690	0.0165510
785.768	0.0163532
785.846	0.0163840
785.924	0.0165524
786.003	0.0163976
786.081	0.0163831
786.159	0.0164748
786.237	0.0164623
786.315	0.0165608
786.393	0.0166035
786.471	0.0163687
786.549	0.0163755
786.628	0.0163865
786.706	0.0164433
786.784	0.0163496
786.862	0.0162130
786.940	0.0165682
787.018	0.0165095
787.096	0.0163521
787.174	0.0163899
787.253	0.0165981
787.331	0.0166353
787.409	0.0164236
787.487	0.0165563
787.565	0.0166395
787.643	0.0165025
787.721	0.0164794
787.799	0.0165137
787.878	0.0166039
787.956	0.0166648
788.034	0.0166568
788.112	0.0164447
788.190	0.0164439
788.268	0.0166141
788.346	0.0165025
788.424	0.0164831
788.503	0.0164783
788.581	0.0167841
788.659	0.0166624
788.737	0.0166053
788.815	0.0166854
788.893	0.0165878
788.971	0.0167250
789.049	0.0166254
789.128	0.0166772
789.206	0.0165767
789.284	0.0166597
789.362	0.0165536
789.440	0.0165750
789.518	0.0166059
789.596	0.0165412
789.674	0.0166758
789.753	0.0167075
789.831	0.0166644
789.909	0.0166266
789.987	0.0165143
790.065	0.0165908
790.143	0.0166698
790.221	0.0164421
790.299	0.0164271
790.378	0.0164487
790.456	0.0164727
790.534	0.0164653
790.612	0.0164837
790.690	0.0164491
790.768	0.0164921
790.846	0.0164577
790.924	0.0164706
791.003	0.0164539
791.081	0.0163629
791.159	0.0164243
791.237	0.0163190
791.315	0.0162862
791.393	0.0163558
791.471	0.0163299
791.549	0.0163658
791.628	0.0164009
791.706	0.0164159
791.784	0.0164271
791.862	0.0165874
791.940	0.0165594
792.018	0.0166065
792.096	0.0165806
792.174	0.0165361
792.253	0.0165394
792.331	0.0166155
792.409	0.0166646
792.487	0.0166607
792.565	0.0165542
792.643	0.0165115
792.721	0.0165591
792.799	0.0164297
792.878	0.0164655
792.956	0.0165926
793.034	0.0166062
793.112	0.0165057
793.190	0.0165227
793.268	0.0163864
793.346	0.0165150
793.424	0.0163560
793.503	0.0164940
793.581	0.0164745
793.659	0.0164640
793.737	0.0164441
793.815	0.0161899
793.893	0.0163370
793.971	0.0164539
794.049	0.0164964
794.128	0.0165222
794.206	0.0164732
794.284	0.0166308
794.362	0.0165742
794.440	0.0165810
794.518	0.0164305
794.596	0.0165873
794.674	0.0166801
794.753	0.0166763
794.831	0.0167445
794.909	0.0166689
794.987	0.0166940
795.065	0.0167830
795.143	0.0168034
795.221	0.0167350
795.299	0.0167974
795.378	0.0168523
795.456	0.0167849
795.534	0.0168346
795.612	0.0169028
795.690	0.0169040
795.768	0.0168485
795.846	0.0168654
795.924	0.0167359
796.003	0.0167781
796.081	0.0169090
796.159	0.0168126
796.237	0.0168730
796.315	0.0167931
796.393	0.0166751
796.471	0.0167269
796.549	0.0166731
796.628	0.0166205
796.706	0.0166413
796.784	0.0165753
796.862	0.0166743
796.940	0.0166087
797.018	0.0166370
797.096	0.0164745
797.174	0.0164928
797.253	0.0165543
797.331	0.0164696
797.409	0.0163962
797.487	0.0165778
797.565	0.0164814
797.643	0.0165221
797.721	0.0165273
797.799	0.0165381
797.878	0.0164072
797.956	0.0164665
798.034	0.0164870
798.112	0.0165253
798.190	0.0165030
798.268	0.0164305
798.346	0.0165967
798.424	0.0165648
798.503	0.0164439
798.581	0.0164843
798.659	0.0165726
798.737	0.0166496
798.815	0.0165182
798.893	0.0163992
798.971	0.0164763
799.049	0.0165837
799.128	0.0163888
799.206	0.0164093
799.284	0.0163803
799.362	0.0165667
799.440	0.0164033
799.518	0.0164326
799.596	0.0164762
799.674	0.0164086
799.753	0.0163981
799.831	0.0164340
799.909	0.0163698
799.987	0.0163558
800.065	0.0162934
800.143	0.0163208
800.221	0.0164086
800.299	0.0163291
800.378	0.0163357
800.456	0.0164091
800.534	0.0163749
800.612	0.0164011
800.690	0.0164423
800.768	0.0163367
800.846	0.0164661
800.924	0.0164159
801.003	0.0164451
801.081	0.0164556
801.159	0.0164729
801.237	0.0165005
801.315	0.0165750
801.393	0.0164565
801.471	0.0164994
801.549	0.0166393
801.628	0.0164001
801.706	0.0164220
801.784	0.0165323
801.862	0.0166328
801.940	0.0166659
802.018	0.0166016
802.096	0.0165609
802.174	0.0165026
802.253	0.0164896
802.331	0.0165441
802.409	0.0166808
802.487	0.0167068
802.565	0.0165439
802.643	0.0166244
802.721	0.0166975
802.799	0.0167189
802.878	0.0166849
802.956	0.0166998
803.034	0.0167744
803.112	0.0166614
803.190	0.0166768
803.268	0.0168748
803.346	0.0166589
803.424	0.0166047
803.503	0.0166561
803.581	0.0167271
803.659	0.0165694
803.737	0.0166216
803.815	0.0165824
803.893	0.0165892
803.971	0.0166741
804.049	0.0166286
804.128	0.0167844
804.206	0.0165030
804.284	0.0166161
804.362	0.0167228
804.440	0.0166077
804.518	0.0166315
804.596	0.0165007
804.674	0.0167178
804.753	0.0167140
804.831	0.0166797
804.909	0.0166576
804.987	0.0167310
805.065	0.0166340
805.143	0.0165162
805.221	0.0166273
805.299	0.0166020
805.378	0.0164928
805.456	0.0163670
805.534	0.0164260
805.612	0.0164350
805.690	0.0164568
805.768	0.0164239
805.846	0.0164980
805.924	0.0165231
806.003	0.0164849
806.081	0.0165119
806.159	0.0163451
806.237	0.0164365
806.315	0.0163407
806.393	0.0163988
806.471	0.0164749
806.549	0.0163148
806.628	0.0164363
806.706	0.0165194
806.784	0.0165929
806.862	0.0163940
806.940	0.0165566
807.018	0.0165804
807.096	0.0165762
807.174	0.0167479
807.253	0.0167466
807.331	0.0167563
807.409	0.0167490
807.487	0.0168876
807.565	0.0168024
807.643	0.0168011
807.721	0.0169973
807.799	0.0169095
807.878	0.0168866
807.956	0.0168896
808.034	0.0170245
808.112	0.0168505
808.190	0.0168800
808.268	0.0170028
808.346	0.0170478
808.424	0.0168954
808.503	0.0169080
808.581	0.0167286
808.659	0.0167276
808.737	0.0166152
808.815	0.0167751
808.893	0.0166692
808.971	0.0164864
809.049	0.0166381
809.128	0.0166078
809.206	0.0164590
809.284	0.0164064
809.362	0.0163638
809.440	0.0163712
809.518	0.0163432
809.596	0.0163781
809.674	0.0162766
809.753	0.0161182
809.831	0.0162714
809.909	0.0161578
809.987	0.0161272
810.065	0.0161926
810.143	0.0161983
810.221	0.0162525
810.299	0.0163312
810.378	0.0163529
810.456	0.0164221
810.534	0.0164434
810.612	0.0163816
810.690	0.0165385
810.768	0.0165565
810.846	0.0165108
810.924	0.0165311
811.003	0.0166013
811.081	0.0166499
811.159	0.0168313
811.237	0.0168479
811.315	0.0168436
811.393	0.0168182
811.471	0.0168289
811.549	0.0168919
811.628	0.0168818
811.706	0.0168620
811.784	0.0167554
811.862	0.0166980
811.940	0.0168167
812.018	0.0168987
812.096	0.0168235
812.174	0.0166564
812.253	0.0167038
812.331	0.0166207
812.409	0.0166181
812.487	0.0167613
812.565	0.0165865
812.643	0.0164883
812.721	0.0164973
812.799	0.0164671
812.878	0.0163951
812.956	0.0164591
813.034	0.0164950
813.112	0.0163159
813.190	0.0164678
813.268	0.0164870
813.346	0.0164508
813.424	0.0165557
813.503	0.0165789
813.581	0.0167053
813.659	0.0166891
813.737	0.0167113
813.815	0.0167638
813.893	0.0167869
813.971	0.0168085
814.049	0.0168524
814.128	0.0168239
814.206	0.0169233
814.284	0.0167795
814.362	0.0168238
814.440	0.0167327
814.518	0.0168101
814.596	0.0166867
814.674	0.0166747
814.753	0.0166586
814.831	0.0166194
814.909	0.0164799
814.987	0.0161653
815.065	0.0161661
815.143	0.0163490
815.221	0.0162092
815.299	0.0161746
815.378	0.0161069
815.456	0.0160671
815.534	0.0160802
815.612	0.0161880
815.690	0.0162369
815.768	0.0162350
815.846	0.0161718
815.924	0.0160455
816.003	0.0161608
816.081	0.0161471
816.159	0.0164178
816.237	0.0164318
816.315	0.0163854
816.393	0.0163548
816.471	0.0164455
816.549	0.0165353
816.628	0.0165209
816.706	0.0166354
816.784	0.0165217
816.862	0.0164727
816.940	0.0165018
817.018	0.0165603
817.096	0.0166439
817.174	0.0165560
817.253	0.0165257
817.331	0.0165444
817.409	0.0165428
817.487	0.0166142
817.565	0.0165794
817.643	0.0164133
817.721	0.0164431
817.799	0.0165260
817.878	0.0165161
817.956	0.0165079
818.034	0.0164340
818.112	0.0163483
818.190	0.0164164
818.268	0.0163533
818.346	0.0164461
818.424	0.0164456
818.503	0.0162952
818.581	0.0165048
818.659	0.0165356
818.737	0.0162685
818.815	0.0164268
818.893	0.0163772
818.971	0.0165757
819.049	0.0166109
819.128	0.0165367
819.206	0.0166525
819.284	0.0166898
819.362	0.0167094
819.440	0.0167318
819.518	0.0169010
819.596	0.0169152
819.674	0.0168568
819.753	0.0168832
819.831	0.0170323
819.909	0.0170002
819.987	0.0170633
820.065	0.0170753
820.143	0.0171166
820.221	0.0171410
820.299	0.0172520
820.378	0.0171493
820.456	0.0171205
820.534	0.0170782
820.612	0.0171198
820.690	0.0170896
820.768	0.0169319
820.846	0.0171062
820.924	0.0170061
821.003	0.0168389
821.081	0.0168829
821.159	0.0168212
821.237	0.0167834
821.315	0.0166880
821.393	0.0166796
821.471	0.0166141
821.549	0.0164356
821.628	0.0165112
821.706	0.0165743
821.784	0.0164730
821.862	0.0165223
821.940	0.0164645
822.018	0.0163347
822.096	0.0163725
822.174	0.0162004
822.253	0.0162724
822.331	0.0162394
822.409	0.0162244
822.487	0.0161729
822.565	0.0162781
822.643	0.0162038
822.721	0.0161816
822.799	0.0163116
822.878	0.0163189
822.956	0.0162283
823.034	0.0164007
823.112	0.0165350
823.190	0.0163728
823.268	0.0164655
823.346	0.0164966
823.424	0.0165424
823.503	0.0165498
823.581	0.0164793
823.659	0.0163911
823.737	0.0165356
823.815	0.0166151
823.893	0.0165942
823.971	0.0164356
824.049	0.0166312
824.128	0.0165521
824.206	0.0167167
824.284	0.0167463
824.362	0.0167603
824.440	0.0166602
824.518	0.0168267
824.596	0.0168291
824.674	0.0167638
824.753	0.0168615
824.831	0.0168977
824.909	0.0168273
824.987	0.0170328
825.065	0.0167406
825.143	0.0167544
825.221	0.0167966
825.299	0.0169246
825.378	0.0168300
825.456	0.0168468
825.534	0.0170008
825.612	0.0169769
825.690	0.0167653
825.768	0.0168412
825.846	0.0169337
825.924	0.0168746
826.003	0.0169537
826.081	0.0169698
826.159	0.0168003
826.237	0.0169412
826.315	0.0168777
826.393	0.0167323
826.471	0.0168578
826.549	0.0168152
826.628	0.0167439
826.706	0.0167736
826.784	0.0166261
826.862	0.0166759
826.940	0.0167409
827.018	0.0166931
827.096	0.0167923
827.174	0.0166723
827.253	0.0166511
827.331	0.0166697
827.409	0.0164783
827.487	0.0166851
827.565	0.0164693
827.643	0.0166043
827.721	0.0165319
827.799	0.0165209
827.878	0.0166376
827.956	0.0165788
828.034	0.0166527
828.112	0.0166698
828.190	0.0167176
828.268	0.0165647
828.346	0.0166586
828.424	0.0166634
828.503	0.0167143
828.581	0.0167464
828.659	0.0166335
828.737	0.0167104
828.815	0.0166824
828.893	0.0167408
828.971	0.0166943
829.049	0.0166743
829.128	0.0165678
829.206	0.0165020
829.284	0.0166259
829.362	0.0164515
829.440	0.0166029
829.518	0.0165399
829.596	0.0166303
829.674	0.0166457
829.753	0.0165391
829.831	0.0165237
829.909	0.0166029
829.987	0.0165965
830.065	0.0165646
830.143	0.0166661
830.221	0.0165681
830.299	0.0165617
830.378	0.0164943
830.456	0.0165961
830.534	0.0163937
830.612	0.0164340
830.690	0.0163699
830.768	0.0163438
830.846	0.0161786
830.924	0.0162671
831.003	0.0162581
831.081	0.0162748
831.159	0.0161636
831.237	0.0160813
831.315	0.0163519
831.393	0.0163356
831.471	0.0162216
831.549	0.0163358
831.628	0.0162331
831.706	0.0162207
831.784	0.0163892
831.862	0.0166287
831.940	0.0165204
832.018	0.0164670
832.096	0.0164926
832.174	0.0166560
832.253	0.0166742
832.331	0.0165208
832.409	0.0168196
832.487	0.0167405
832.565	0.0165990
832.643	0.0168159
832.721	0.0167088
832.799	0.0169016
832.878	0.0167812
832.956	0.0167408
833.034	0.0169320
833.112	0.0167495
833.190	0.0167397
833.268	0.0166865
833.346	0.0166547
833.424	0.0167223
833.503	0.0166340
833.581	0.0165144
833.659	0.0165282
833.737	0.0165704
833.815	0.0165550
833.893	0.0165306
833.971	0.0165157
834.049	0.0164963
834.128	0.0163837
834.206	0.0164134
834.284	0.0165740
834.362	0.0165395
834.440	0.0164552
834.518	0.0165210
834.596	0.0165694
834.674	0.0164944
834.753	0.0164484
834.831	0.0165308
834.909	0.0165665
834.987	0.0164449
835.065	0.0164852
835.143	0.0164364
835.221	0.0163496
835.299	0.0165083
835.378	0.0163956
835.456	0.0163852
835.534	0.0162573
835.612	0.0164447
835.690	0.0164263
835.768	0.0163772
835.846	0.0164067
835.924	0.0163159
836.003	0.0165374
836.081	0.0164571
836.159	0.0164813
836.237	0.0164312
836.315	0.0165028
836.393	0.0165227
836.471	0.0163464
836.549	0.0165134
836.628	0.0164664
836.706	0.0165128
836.784	0.0165736
836.862	0.0165821
836.940	0.0167840
837.018	0.0165182
837.096	0.0166729
837.174	0.0165275
837.253	0.0166682
837.331	0.0168430
837.409	0.0167919
837.487	0.0168365
837.565	0.0169352
837.643	0.0168528
837.721	0.0167818
837.799	0.0168184
837.878	0.0169415
837.956	0.0167970
838.034	0.0168649
838.112	0.0166226
838.190	0.0166394
838.268	0.0167769
838.346	0.0167001
838.424	0.0166583
838.503	0.0166350
838.581	0.0166248
838.659	0.0167776
838.737	0.0164008
838.815	0.0164989
838.893	0.0165456
838.971	0.0165091
839.049	0.0163580
839.128	0.0165563
839.206	0.0164143
839.284	0.0163092
839.362	0.0164199
839.440	0.0163776
839.518	0.0163430
839.596	0.0163712
839.674	0.0163367
839.753	0.0162373
839.831	0.0162920
839.909	0.0163707
839.987	0.0162244
840.065	0.0161919
840.143	0.0162457
840.221	0.0163380
840.299	0.0163087
840.378	0.0163911
840.456	0.0163885
840.534	0.0163483
840.612	0.0163064
840.690	0.0163830
840.768	0.0165800
840.846	0.0165020
840.924	0.0164130
841.003	0.0165298
841.081	0.0164840
841.159	0.0164497
841.237	0.0165161
841.315	0.0165383
841.393	0.0164320
841.471	0.0164343
841.549	0.0165363
841.628	0.0164065
841.706	0.0165547
841.784	0.0165455
841.862	0.0165363
841.940	0.0165764
842.018	0.0166154
842.096	0.0164698
842.174	0.0165260
842.253	0.0165722
842.331	0.0166585
842.409	0.0165170
842.487	0.0165185
842.565	0.0164776
842.643	0.0163922
842.721	0.0165549
842.799	0.0164508
842.878	0.0165994
842.956	0.0165620
843.034	0.0164809
843.112	0.0166702
843.190	0.0165372
843.268	0.0164711
843.346	0.0166359
843.424	0.0166473
843.503	0.0165747
843.581	0.0166433
843.659	0.0166400
843.737	0.0165471
843.815	0.0166256
843.893	0.0167348
843.971	0.0167587
844.049	0.0167529
844.128	0.0168782
844.206	0.0168045
844.284	0.0168254
844.362	0.0167842
844.440	0.0168090
844.518	0.0168934
844.596	0.0169171
844.674	0.0168522
844.753	0.0169815
844.831	0.0169321
844.909	0.0169151
844.987	0.0169704
845.065	0.0170082
845.143	0.0169530
845.221	0.0169586
845.299	0.0169405
845.378	0.0169093
845.456	0.0170445
845.534	0.0169329
845.612	0.0169424
845.690	0.0169740
845.768	0.0168777
845.846	0.0168434
845.924	0.0168253
846.003	0.0167849
846.081	0.0168908
846.159	0.0167607
846.237	0.0167339
846.315	0.0166334
846.393	0.0167771
846.471	0.0166790
846.549	0.0167454
846.628	0.0166258
846.706	0.0165488
846.784	0.0164989
846.862	0.0164119
846.940	0.0165063
847.018	0.0166782
847.096	0.0165447
847.174	0.0163808
847.253	0.0163689
847.331	0.0164001
847.409	0.0163262
847.487	0.0163139
847.565	0.0162920
847.643	0.0164162
847.721	0.0163519
847.799	0.0161224
847.878	0.0162881
847.956	0.0163257
848.034	0.0162347
848.112	0.0161253
848.190	0.0162273
848.268	0.0162776
848.346	0.0163060
848.424	0.0160657
848.503	0.0162024
848.581	0.0163031
848.659	0.0162437
848.737	0.0161926
848.815	0.0163168
848.893	0.0161802
848.971	0.0161765
849.049	0.0162827
849.128	0.0161890
849.206	0.0162742
849.284	0.0163601
849.362	0.0163045
849.440	0.0162867
849.518	0.0163741
849.596	0.0162837
849.674	0.0164886
849.753	0.0165148
849.831	0.0166798
849.909	0.0164590
849.987	0.0166407
850.065	0.0166157
850.143	0.0167155
850.221	0.0166654
850.299	0.0167975
850.378	0.0167362
850.456	0.0168014
850.534	0.0166982
850.612	0.0167046
850.690	0.0167249
850.768	0.0167828
850.846	0.0169942
850.924	0.0169073
851.003	0.0168787
851.081	0.0168145
851.159	0.0167856
851.237	0.0168095
851.315	0.0169090
851.393	0.0168140
851.471	0.0168820
851.549	0.0168313
851.628	0.0166268
851.706	0.0166504
851.784	0.0167557
851.862	0.0164912
851.940	0.0166150
852.018	0.0166602
852.096	0.0164729
852.174	0.0164046
852.253	0.0165280
852.331	0.0164618
852.409	0.0163651
852.487	0.0163221
852.565	0.0164426
852.643	0.0163431
852.721	0.0164396
852.799	0.0165292
852.878	0.0163940
852.956	0.0164212
853.034	0.0164832
853.112	0.0164236
853.190	0.0163074
853.268	0.0164739
853.346	0.0163972
853.424	0.0162474
853.503	0.0163564
853.581	0.0164049
853.659	0.0162128
853.737	0.0163243
853.815	0.0163982
853.893	0.0164337
853.971	0.0163795
854.049	0.0164346
854.128	0.0164514
854.206	0.0165587
854.284	0.0163612
854.362	0.0164432
854.440	0.0163927
854.518	0.0164509
854.596	0.0164941
854.674	0.0165408
854.753	0.0164554
854.831	0.0166313
854.909	0.0165242
854.987	0.0164758
855.065	0.0164813
855.143	0.0164822
855.221	0.0165101
855.299	0.0166372
855.378	0.0165497
855.456	0.0166003
855.534	0.0166138
855.612	0.0165810
855.690	0.0165362
855.768	0.0165549
855.846	0.0165298
855.924	0.0165975
856.003	0.0166478
856.081	0.0166759
856.159	0.0165272
856.237	0.0165554
856.315	0.0166789
856.393	0.0165099
856.471	0.0165099
856.549	0.0165250
856.628	0.0164111
856.706	0.0164915
856.784	0.0164323
856.862	0.0165739
856.940	0.0163358
857.018	0.0165321
857.096	0.0165195
857.174	0.0163842
857.253	0.0164032
857.331	0.0163051
857.409	0.0163100
857.487	0.0164059
857.565	0.0163328
857.643	0.0164210
857.721	0.0164320
857.799	0.0164035
857.878	0.0163058
857.956	0.0164324
858.034	0.0163660
858.112	0.0163042
858.190	0.0164020
858.268	0.0164159
858.346	0.0163211
858.424	0.0164215
858.503	0.0164927
858.581	0.0165185
858.659	0.0164410
858.737	0.0165813
858.815	0.0164911
858.893	0.0166859
858.971	0.0165047
859.049	0.0165455
859.128	0.0167513
859.206	0.0166231
859.284	0.0165779
859.362	0.0166643
859.440	0.0165919
859.518	0.0167645
859.596	0.0167005
859.674	0.0166405
859.753	0.0164968
859.831	0.0165969
859.909	0.0165961
