06/01/2022	17:43:47	Ver.	4.1	UNKNOWN
Optical Delay	539.986900	Delta X		0.078125	Sweeps	1	Scan Rate	0/0
Coordinates	Axis 1	NaN	Axis 2	NaN	Axis 3	NaN	Axis 4	NaN	Axis 5	NaN	Axis 6	0.000000
TX Power	0.000000	RX Power	0.000000

539.987	0.0163728
540.065	0.0164248
540.143	0.0162637
540.221	0.0162812
540.299	0.0164507
540.378	0.0162689
540.456	0.0162954
540.534	0.0163262
540.612	0.0164774
540.690	0.0162760
540.768	0.0163232
540.846	0.0163533
540.924	0.0163377
541.003	0.0163160
541.081	0.0163708
541.159	0.0162944
541.237	0.0164352
541.315	0.0163318
541.393	0.0163069
541.471	0.0161900
541.549	0.0163367
541.628	0.0163567
541.706	0.0161864
541.784	0.0162794
541.862	0.0163979
541.940	0.0163747
542.018	0.0163153
542.096	0.0162922
542.174	0.0163046
542.253	0.0164023
542.331	0.0163333
542.409	0.0162914
542.487	0.0162486
542.565	0.0163177
542.643	0.0162382
542.721	0.0162458
542.799	0.0163160
542.878	0.0163007
542.956	0.0162312
543.034	0.0160356
543.112	0.0163306
543.190	0.0163439
543.268	0.0162158
543.346	0.0163013
543.424	0.0162774
543.503	0.0162565
543.581	0.0162637
543.659	0.0162444
543.737	0.0162800
543.815	0.0162730
543.893	0.0163239
543.971	0.0162984
544.049	0.0161906
544.128	0.0163798
544.206	0.0162672
544.284	0.0162989
544.362	0.0162049
544.440	0.0162729
544.518	0.0163747
544.596	0.0163101
544.674	0.0164120
544.753	0.0164346
544.831	0.0163145
544.909	0.0162948
544.987	0.0163452
545.065	0.0164629
545.143	0.0164680
545.221	0.0162928
545.299	0.0164362
545.378	0.0164129
545.456	0.0163592
545.534	0.0164465
545.612	0.0164753
545.690	0.0164812
545.768	0.0163220
545.846	0.0164202
545.924	0.0163682
546.003	0.0163731
546.081	0.0163665
546.159	0.0162746
546.237	0.0162295
546.315	0.0164266
546.393	0.0163171
546.471	0.0164140
546.549	0.0164407
546.628	0.0164019
546.706	0.0162419
546.784	0.0164388
546.862	0.0163356
546.940	0.0161586
547.018	0.0163274
547.096	0.0162167
547.174	0.0162799
547.253	0.0164005
547.331	0.0163393
547.409	0.0163237
547.487	0.0162608
547.565	0.0162503
547.643	0.0162816
547.721	0.0163041
547.799	0.0163444
547.878	0.0163124
547.956	0.0161980
548.034	0.0163136
548.112	0.0163539
548.190	0.0161810
548.268	0.0162267
548.346	0.0163676
548.424	0.0164194
548.503	0.0162547
548.581	0.0164622
548.659	0.0164717
548.737	0.0163349
548.815	0.0163517
548.893	0.0163257
548.971	0.0164553
549.049	0.0163966
549.128	0.0162413
549.206	0.0163750
549.284	0.0163760
549.362	0.0163974
549.440	0.0163615
549.518	0.0163989
549.596	0.0164609
549.674	0.0163529
549.753	0.0161539
549.831	0.0163642
549.909	0.0164645
549.987	0.0163538
550.065	0.0163000
550.143	0.0163588
550.221	0.0164226
550.299	0.0165423
550.378	0.0163163
550.456	0.0163853
550.534	0.0164205
550.612	0.0164953
550.690	0.0164609
550.768	0.0163744
550.846	0.0165107
550.924	0.0164275
551.003	0.0163274
551.081	0.0164585
551.159	0.0165543
551.237	0.0164877
551.315	0.0164683
551.393	0.0164261
551.471	0.0165273
551.549	0.0163739
551.628	0.0165531
551.706	0.0164886
551.784	0.0165477
551.862	0.0165253
551.940	0.0165231
552.018	0.0164942
552.096	0.0165888
552.174	0.0165752
552.253	0.0167297
552.331	0.0165926
552.409	0.0166942
552.487	0.0166492
552.565	0.0166413
552.643	0.0165920
552.721	0.0167213
552.799	0.0166077
552.878	0.0167369
552.956	0.0166451
553.034	0.0165136
553.112	0.0166613
553.190	0.0166504
553.268	0.0165502
553.346	0.0166370
553.424	0.0165369
553.503	0.0164864
553.581	0.0165007
553.659	0.0166376
553.737	0.0165869
553.815	0.0165073
553.893	0.0166747
553.971	0.0164990
554.049	0.0164740
554.128	0.0164942
554.206	0.0164387
554.284	0.0165091
554.362	0.0165263
554.440	0.0164017
554.518	0.0165125
554.596	0.0164655
554.674	0.0164667
554.753	0.0162890
554.831	0.0164179
554.909	0.0164293
554.987	0.0163960
555.065	0.0164486
555.143	0.0163056
555.221	0.0162849
555.299	0.0164674
555.378	0.0164112
555.456	0.0162247
555.534	0.0165353
555.612	0.0164857
555.690	0.0164220
555.768	0.0164914
555.846	0.0165687
555.924	0.0164194
556.003	0.0164359
556.081	0.0163971
556.159	0.0165440
556.237	0.0164537
556.315	0.0163891
556.393	0.0162624
556.471	0.0164172
556.549	0.0163557
556.628	0.0165096
556.706	0.0162044
556.784	0.0164226
556.862	0.0164600
556.940	0.0164281
557.018	0.0162767
557.096	0.0163755
557.174	0.0164420
557.253	0.0164217
557.331	0.0163731
557.409	0.0163547
557.487	0.0164027
557.565	0.0164465
557.643	0.0164683
557.721	0.0164037
557.799	0.0162611
557.878	0.0163846
557.956	0.0164868
558.034	0.0163634
558.112	0.0164880
558.190	0.0162985
558.268	0.0164418
558.346	0.0163224
558.424	0.0164088
558.503	0.0162560
558.581	0.0164187
558.659	0.0163439
558.737	0.0163396
558.815	0.0163360
558.893	0.0162431
558.971	0.0163903
559.049	0.0163112
559.128	0.0161800
559.206	0.0162057
559.284	0.0162973
559.362	0.0162594
559.440	0.0162951
559.518	0.0163035
559.596	0.0162723
559.674	0.0163382
559.753	0.0161945
559.831	0.0163657
559.909	0.0162135
559.987	0.0162553
560.065	0.0161267
560.143	0.0164392
560.221	0.0162753
560.299	0.0164870
560.378	0.0163734
560.456	0.0163040
560.534	0.0163010
560.612	0.0162740
560.690	0.0162943
560.768	0.0164343
560.846	0.0164484
560.924	0.0164116
561.003	0.0164491
561.081	0.0162189
561.159	0.0162788
561.237	0.0165853
561.315	0.0163998
561.393	0.0163105
561.471	0.0164944
561.549	0.0164600
561.628	0.0163263
561.706	0.0164419
561.784	0.0163869
561.862	0.0165165
561.940	0.0162956
562.018	0.0163404
562.096	0.0164900
562.174	0.0164287
562.253	0.0163891
562.331	0.0164561
562.409	0.0163431
562.487	0.0164516
562.565	0.0164851
562.643	0.0163741
562.721	0.0163646
562.799	0.0164682
562.878	0.0164694
562.956	0.0164081
563.034	0.0164924
563.112	0.0164629
563.190	0.0163641
563.268	0.0164041
563.346	0.0164401
563.424	0.0164482
563.503	0.0163555
563.581	0.0164072
563.659	0.0163988
563.737	0.0164440
563.815	0.0165028
563.893	0.0163299
563.971	0.0164281
564.049	0.0163449
564.128	0.0163464
564.206	0.0163816
564.284	0.0163218
564.362	0.0163567
564.440	0.0162204
564.518	0.0162737
564.596	0.0163375
564.674	0.0162807
564.753	0.0163160
564.831	0.0162272
564.909	0.0163058
564.987	0.0163767
565.065	0.0162697
565.143	0.0162770
565.221	0.0163326
565.299	0.0162937
565.378	0.0163898
565.456	0.0161911
565.534	0.0163972
565.612	0.0162391
565.690	0.0162649
565.768	0.0163152
565.846	0.0162671
565.924	0.0164629
566.003	0.0162501
566.081	0.0163743
566.159	0.0163232
566.237	0.0162691
566.315	0.0164238
566.393	0.0163409
566.471	0.0164700
566.549	0.0164781
566.628	0.0163088
566.706	0.0163235
566.784	0.0163010
566.862	0.0163725
566.940	0.0164005
567.018	0.0164539
567.096	0.0163729
567.174	0.0164218
567.253	0.0164476
567.331	0.0165019
567.409	0.0163465
567.487	0.0162768
567.565	0.0163683
567.643	0.0164877
567.721	0.0164130
567.799	0.0162866
567.878	0.0164589
567.956	0.0164117
568.034	0.0163978
568.112	0.0163862
568.190	0.0162597
568.268	0.0162280
568.346	0.0163842
568.424	0.0163121
568.503	0.0164315
568.581	0.0164125
568.659	0.0162752
568.737	0.0161612
568.815	0.0163571
568.893	0.0162319
568.971	0.0163106
569.049	0.0161678
569.128	0.0162954
569.206	0.0162310
569.284	0.0162530
569.362	0.0162917
569.440	0.0161498
569.518	0.0162295
569.596	0.0161623
569.674	0.0160780
569.753	0.0163345
569.831	0.0163425
569.909	0.0161404
569.987	0.0162637
570.065	0.0161619
570.143	0.0162215
570.221	0.0161934
570.299	0.0161506
570.378	0.0163174
570.456	0.0162634
570.534	0.0162607
570.612	0.0162939
570.690	0.0164505
570.768	0.0164171
570.846	0.0162470
570.924	0.0163107
571.003	0.0163425
571.081	0.0162160
571.159	0.0161983
571.237	0.0163108
571.315	0.0163412
571.393	0.0162630
571.471	0.0162109
571.549	0.0161779
571.628	0.0163133
571.706	0.0161603
571.784	0.0162189
571.862	0.0164131
571.940	0.0161086
572.018	0.0161509
572.096	0.0161576
572.174	0.0162715
572.253	0.0162628
572.331	0.0161828
572.409	0.0161997
572.487	0.0163618
572.565	0.0163988
572.643	0.0162851
572.721	0.0163808
572.799	0.0162349
572.878	0.0161714
572.956	0.0162958
573.034	0.0163670
573.112	0.0164145
573.190	0.0164108
573.268	0.0162632
573.346	0.0164684
573.424	0.0163364
573.503	0.0163020
573.581	0.0162746
573.659	0.0164555
573.737	0.0164370
573.815	0.0162470
573.893	0.0163316
573.971	0.0163026
574.049	0.0161259
574.128	0.0163107
574.206	0.0163628
574.284	0.0162569
574.362	0.0163081
574.440	0.0161962
574.518	0.0162897
574.596	0.0163387
574.674	0.0163831
574.753	0.0163466
574.831	0.0161651
574.909	0.0162194
574.987	0.0163693
575.065	0.0163987
575.143	0.0163775
575.221	0.0164324
575.299	0.0165894
575.378	0.0164626
575.456	0.0164219
575.534	0.0164075
575.612	0.0164381
575.690	0.0164184
575.768	0.0163989
575.846	0.0163552
575.924	0.0163190
576.003	0.0163954
576.081	0.0164222
576.159	0.0163702
576.237	0.0164816
576.315	0.0164577
576.393	0.0164877
576.471	0.0163828
576.549	0.0162334
576.628	0.0163353
576.706	0.0164049
576.784	0.0163812
576.862	0.0164130
576.940	0.0162376
577.018	0.0163416
577.096	0.0164920
577.174	0.0163655
577.253	0.0163558
577.331	0.0165254
577.409	0.0163768
577.487	0.0164108
577.565	0.0164143
577.643	0.0163974
577.721	0.0163769
577.799	0.0164594
577.878	0.0164104
577.956	0.0163789
578.034	0.0164741
578.112	0.0164297
578.190	0.0165202
578.268	0.0162749
578.346	0.0163953
578.424	0.0165310
578.503	0.0165197
578.581	0.0164088
578.659	0.0164371
578.737	0.0164620
578.815	0.0164223
578.893	0.0164231
578.971	0.0163674
579.049	0.0164626
579.128	0.0164301
579.206	0.0163818
579.284	0.0163881
579.362	0.0162437
579.440	0.0162846
579.518	0.0162668
579.596	0.0163120
579.674	0.0164799
579.753	0.0162621
579.831	0.0163003
579.909	0.0162255
579.987	0.0163187
580.065	0.0162893
580.143	0.0161588
580.221	0.0163542
580.299	0.0162229
580.378	0.0161969
580.456	0.0162753
580.534	0.0161122
580.612	0.0162428
580.690	0.0162204
580.768	0.0162733
580.846	0.0162590
580.924	0.0163752
581.003	0.0162276
581.081	0.0160787
581.159	0.0162292
581.237	0.0161574
581.315	0.0162278
581.393	0.0161758
581.471	0.0162112
581.549	0.0163206
581.628	0.0163464
581.706	0.0163658
581.784	0.0161221
581.862	0.0162297
581.940	0.0163622
582.018	0.0162899
582.096	0.0162085
582.174	0.0162561
582.253	0.0162069
582.331	0.0163144
582.409	0.0163130
582.487	0.0163109
582.565	0.0163087
582.643	0.0164301
582.721	0.0163828
582.799	0.0163865
582.878	0.0164336
582.956	0.0163318
583.034	0.0163041
583.112	0.0162811
583.190	0.0162816
583.268	0.0164139
583.346	0.0162806
583.424	0.0163158
583.503	0.0162648
583.581	0.0162695
583.659	0.0163250
583.737	0.0162713
583.815	0.0162302
583.893	0.0161846
583.971	0.0162186
584.049	0.0161942
584.128	0.0162334
584.206	0.0162041
584.284	0.0161377
584.362	0.0161086
584.440	0.0161777
584.518	0.0161922
584.596	0.0162518
584.674	0.0160998
584.753	0.0161723
584.831	0.0162433
584.909	0.0162004
584.987	0.0163094
585.065	0.0162361
585.143	0.0162894
585.221	0.0162455
585.299	0.0162279
585.378	0.0162764
585.456	0.0161335
585.534	0.0162434
585.612	0.0162536
585.690	0.0161977
585.768	0.0162126
585.846	0.0161757
585.924	0.0163650
586.003	0.0161452
586.081	0.0160804
586.159	0.0160845
586.237	0.0161459
586.315	0.0160972
586.393	0.0160645
586.471	0.0161483
586.549	0.0161807
586.628	0.0161436
586.706	0.0160546
586.784	0.0161685
586.862	0.0161861
586.940	0.0162168
587.018	0.0162341
587.096	0.0161703
587.174	0.0163216
587.253	0.0162071
587.331	0.0162947
587.409	0.0164304
587.487	0.0163806
587.565	0.0164760
587.643	0.0162744
587.721	0.0163835
587.799	0.0164676
587.878	0.0164556
587.956	0.0165325
588.034	0.0164948
588.112	0.0163777
588.190	0.0166147
588.268	0.0164535
588.346	0.0165614
588.424	0.0165919
588.503	0.0164027
588.581	0.0165516
588.659	0.0165546
588.737	0.0166396
588.815	0.0166577
588.893	0.0167477
588.971	0.0167882
589.049	0.0167515
589.128	0.0166907
589.206	0.0166447
589.284	0.0166732
589.362	0.0168423
589.440	0.0167879
589.518	0.0166293
589.596	0.0167117
589.674	0.0167079
589.753	0.0164639
589.831	0.0164838
589.909	0.0165892
589.987	0.0163591
590.065	0.0164610
590.143	0.0164745
590.221	0.0164397
590.299	0.0163921
590.378	0.0163672
590.456	0.0165332
590.534	0.0166032
590.612	0.0166048
590.690	0.0165558
590.768	0.0165642
590.846	0.0166461
590.924	0.0163663
591.003	0.0164537
591.081	0.0166006
591.159	0.0165836
591.237	0.0165656
591.315	0.0164336
591.393	0.0164003
591.471	0.0163227
591.549	0.0163715
591.628	0.0164217
591.706	0.0163607
591.784	0.0163060
591.862	0.0164651
591.940	0.0164217
592.018	0.0162529
592.096	0.0163361
592.174	0.0162747
592.253	0.0163727
592.331	0.0162982
592.409	0.0163168
592.487	0.0162922
592.565	0.0163425
592.643	0.0163754
592.721	0.0163722
592.799	0.0164004
592.878	0.0162553
592.956	0.0161783
593.034	0.0162392
593.112	0.0163377
593.190	0.0162421
593.268	0.0162847
593.346	0.0163011
593.424	0.0163075
593.503	0.0161763
593.581	0.0162944
593.659	0.0163288
593.737	0.0163279
593.815	0.0163394
593.893	0.0162259
593.971	0.0162087
594.049	0.0161141
594.128	0.0161074
594.206	0.0160506
594.284	0.0162117
594.362	0.0162651
594.440	0.0161445
594.518	0.0160425
594.596	0.0161384
594.674	0.0159274
594.753	0.0160335
594.831	0.0160813
594.909	0.0160394
594.987	0.0160838
595.065	0.0159834
595.143	0.0160510
595.221	0.0159882
595.299	0.0158929
595.378	0.0160336
595.456	0.0159695
595.534	0.0158962
595.612	0.0158173
595.690	0.0159402
595.768	0.0158585
595.846	0.0158993
595.924	0.0157830
596.003	0.0158730
596.081	0.0158410
596.159	0.0158717
596.237	0.0160085
596.315	0.0158491
596.393	0.0159892
596.471	0.0160812
596.549	0.0161217
596.628	0.0162373
596.706	0.0163889
596.784	0.0163335
596.862	0.0164332
596.940	0.0165054
597.018	0.0166546
597.096	0.0165065
597.174	0.0164739
597.253	0.0164785
597.331	0.0164914
597.409	0.0162321
597.487	0.0160580
597.565	0.0160281
597.643	0.0159660
597.721	0.0158557
597.799	0.0157529
597.878	0.0156512
597.956	0.0153557
598.034	0.0153332
598.112	0.0154078
598.190	0.0153841
598.268	0.0154143
598.346	0.0155012
598.424	0.0154872
598.503	0.0156523
598.581	0.0158849
598.659	0.0159037
598.737	0.0160576
598.815	0.0163670
598.893	0.0166180
598.971	0.0167771
599.049	0.0170486
599.128	0.0171866
599.206	0.0171719
599.284	0.0172253
599.362	0.0174235
599.440	0.0174991
599.518	0.0174361
599.596	0.0171851
599.674	0.0171671
599.753	0.0170522
599.831	0.0168951
599.909	0.0166493
599.987	0.0165183
600.065	0.0163488
600.143	0.0158494
600.221	0.0156332
600.299	0.0155289
600.378	0.0154173
600.456	0.0150897
600.534	0.0149706
600.612	0.0149178
600.690	0.0147755
600.768	0.0148643
600.846	0.0148593
600.924	0.0148776
601.003	0.0149358
601.081	0.0150262
601.159	0.0151721
601.237	0.0153265
601.315	0.0155851
601.393	0.0156380
601.471	0.0157861
601.549	0.0159321
601.628	0.0161572
601.706	0.0163401
601.784	0.0164388
601.862	0.0165907
601.940	0.0168536
602.018	0.0170096
602.096	0.0169078
602.174	0.0171279
602.253	0.0173676
602.331	0.0173969
602.409	0.0173585
602.487	0.0175114
602.565	0.0174954
602.643	0.0175668
602.721	0.0175834
602.799	0.0175197
602.878	0.0174881
602.956	0.0174453
603.034	0.0173863
603.112	0.0173736
603.190	0.0171252
603.268	0.0171349
603.346	0.0170130
603.424	0.0168293
603.503	0.0165677
603.581	0.0163867
603.659	0.0163045
603.737	0.0160743
603.815	0.0156738
603.893	0.0153901
603.971	0.0154581
604.049	0.0151942
604.128	0.0150393
604.206	0.0148212
604.284	0.0146548
604.362	0.0146367
604.440	0.0146012
604.518	0.0147608
604.596	0.0148900
604.674	0.0150031
604.753	0.0150532
604.831	0.0151851
604.909	0.0154025
604.987	0.0156503
605.065	0.0157233
605.143	0.0159066
605.221	0.0161371
605.299	0.0164449
605.378	0.0165249
605.456	0.0167588
605.534	0.0168823
605.612	0.0170198
605.690	0.0171500
605.768	0.0173201
605.846	0.0174207
605.924	0.0176482
606.003	0.0176557
606.081	0.0176998
606.159	0.0177652
606.237	0.0178032
606.315	0.0177973
606.393	0.0179089
606.471	0.0179153
606.549	0.0177190
606.628	0.0174910
606.706	0.0174178
606.784	0.0173184
606.862	0.0172060
606.940	0.0169962
607.018	0.0166656
607.096	0.0165576
607.174	0.0163144
607.253	0.0161949
607.331	0.0160765
607.409	0.0158527
607.487	0.0156947
607.565	0.0156740
607.643	0.0156197
607.721	0.0153946
607.799	0.0153300
607.878	0.0152171
607.956	0.0152319
608.034	0.0150005
608.112	0.0149968
608.190	0.0149245
608.268	0.0149014
608.346	0.0148208
608.424	0.0148627
608.503	0.0148293
608.581	0.0148914
608.659	0.0149820
608.737	0.0149998
608.815	0.0150619
608.893	0.0153184
608.971	0.0154581
609.049	0.0155855
609.128	0.0156860
609.206	0.0159513
609.284	0.0161585
609.362	0.0164413
609.440	0.0165749
609.518	0.0168967
609.596	0.0173284
609.674	0.0174084
609.753	0.0176480
609.831	0.0178820
609.909	0.0179704
609.987	0.0181820
610.065	0.0181550
610.143	0.0182320
610.221	0.0181931
610.299	0.0182332
610.378	0.0181574
610.456	0.0180114
610.534	0.0179585
610.612	0.0178111
610.690	0.0175552
610.768	0.0175703
610.846	0.0173728
610.924	0.0172549
611.003	0.0172970
611.081	0.0172208
611.159	0.0170467
611.237	0.0169131
611.315	0.0168468
611.393	0.0168600
611.471	0.0167147
611.549	0.0165658
611.628	0.0164974
611.706	0.0165704
611.784	0.0165855
611.862	0.0162558
611.940	0.0160777
612.018	0.0160180
612.096	0.0157953
612.174	0.0157424
612.253	0.0157118
612.331	0.0154223
612.409	0.0152454
612.487	0.0151957
612.565	0.0151975
612.643	0.0149117
612.721	0.0149103
612.799	0.0147777
612.878	0.0145168
612.956	0.0146323
613.034	0.0143774
613.112	0.0143452
613.190	0.0142935
613.268	0.0142631
613.346	0.0141531
613.424	0.0142509
613.503	0.0143357
613.581	0.0145909
613.659	0.0147545
613.737	0.0148598
613.815	0.0150313
613.893	0.0154053
613.971	0.0157755
614.049	0.0160487
614.128	0.0164896
614.206	0.0168417
614.284	0.0172724
614.362	0.0176702
614.440	0.0180967
614.518	0.0184934
614.596	0.0188083
614.674	0.0191107
614.753	0.0193691
614.831	0.0195055
614.909	0.0196856
614.987	0.0197761
615.065	0.0199080
615.143	0.0198647
615.221	0.0197608
615.299	0.0198179
615.378	0.0196938
615.456	0.0195747
615.534	0.0193726
615.612	0.0192099
615.690	0.0188055
615.768	0.0183362
615.846	0.0179474
615.924	0.0175925
616.003	0.0169715
616.081	0.0164479
616.159	0.0157896
616.237	0.0152039
616.315	0.0145242
616.393	0.0141895
616.471	0.0135342
616.549	0.0129466
616.628	0.0125569
616.706	0.0121395
616.784	0.0117802
616.862	0.0115639
616.940	0.0113443
617.018	0.0114023
617.096	0.0112980
617.174	0.0113818
617.253	0.0116523
617.331	0.0118681
617.409	0.0121358
617.487	0.0125223
617.565	0.0131097
617.643	0.0136760
617.721	0.0140807
617.799	0.0146264
617.878	0.0152412
617.956	0.0157350
618.034	0.0166033
618.112	0.0171333
618.190	0.0174827
618.268	0.0179458
618.346	0.0185422
618.424	0.0187386
618.503	0.0192373
618.581	0.0194752
618.659	0.0195595
618.737	0.0198892
618.815	0.0199615
618.893	0.0198593
618.971	0.0198664
619.049	0.0198776
619.128	0.0198234
619.206	0.0193712
619.284	0.0190067
619.362	0.0188000
619.440	0.0184478
619.518	0.0179144
619.596	0.0174704
619.674	0.0170482
619.753	0.0164859
619.831	0.0162209
619.909	0.0159336
619.987	0.0153769
620.065	0.0153348
620.143	0.0151227
620.221	0.0151512
620.299	0.0152456
620.378	0.0153223
620.456	0.0155370
620.534	0.0158332
620.612	0.0159176
620.690	0.0161263
620.768	0.0163344
620.846	0.0164925
620.924	0.0166126
621.003	0.0166706
621.081	0.0166145
621.159	0.0166706
621.237	0.0167348
621.315	0.0164341
621.393	0.0164072
621.471	0.0162119
621.549	0.0158187
621.628	0.0157373
621.706	0.0153721
621.784	0.0153218
621.862	0.0150509
621.940	0.0149284
622.018	0.0146524
622.096	0.0144276
622.174	0.0144159
622.253	0.0143950
622.331	0.0143787
622.409	0.0142799
622.487	0.0142558
622.565	0.0144317
622.643	0.0145232
622.721	0.0146996
622.799	0.0148540
622.878	0.0149770
622.956	0.0153133
623.034	0.0155688
623.112	0.0158431
623.190	0.0160374
623.268	0.0163015
623.346	0.0167006
623.424	0.0168992
623.503	0.0171671
623.581	0.0173917
623.659	0.0178406
623.737	0.0180572
623.815	0.0182657
623.893	0.0186078
623.971	0.0188425
624.049	0.0189130
624.128	0.0191941
624.206	0.0191994
624.284	0.0193505
624.362	0.0194530
624.440	0.0193273
624.518	0.0191103
624.596	0.0190993
624.674	0.0187897
624.753	0.0185388
624.831	0.0180735
624.909	0.0175899
624.987	0.0172446
625.065	0.0167385
625.143	0.0164129
625.221	0.0159480
625.299	0.0155927
625.378	0.0151458
625.456	0.0149152
625.534	0.0147323
625.612	0.0145287
625.690	0.0144676
625.768	0.0143749
625.846	0.0143539
625.924	0.0143027
626.003	0.0143504
626.081	0.0143554
626.159	0.0143828
626.237	0.0144398
626.315	0.0144454
626.393	0.0146642
626.471	0.0147079
626.549	0.0147929
626.628	0.0151397
626.706	0.0152940
626.784	0.0154878
626.862	0.0158189
626.940	0.0163453
627.018	0.0165468
627.096	0.0168566
627.174	0.0172253
627.253	0.0176377
627.331	0.0178667
627.409	0.0179220
627.487	0.0181794
627.565	0.0182229
627.643	0.0182064
627.721	0.0184743
627.799	0.0184017
627.878	0.0182959
627.956	0.0182693
628.034	0.0180743
628.112	0.0180024
628.190	0.0179742
628.268	0.0177474
628.346	0.0175401
628.424	0.0173173
628.503	0.0170996
628.581	0.0168701
628.659	0.0167188
628.737	0.0164266
628.815	0.0161990
628.893	0.0159070
628.971	0.0157694
629.049	0.0153886
629.128	0.0151152
629.206	0.0149363
629.284	0.0145065
629.362	0.0144582
629.440	0.0142617
629.518	0.0143079
629.596	0.0142870
629.674	0.0142372
629.753	0.0141767
629.831	0.0143718
629.909	0.0144930
629.987	0.0143837
630.065	0.0146304
630.143	0.0148067
630.221	0.0149192
630.299	0.0150689
630.378	0.0151506
630.456	0.0153691
630.534	0.0154693
630.612	0.0157006
630.690	0.0157272
630.768	0.0159227
630.846	0.0161830
630.924	0.0162555
631.003	0.0163847
631.081	0.0167372
631.159	0.0168182
631.237	0.0169554
631.315	0.0171458
631.393	0.0175002
631.471	0.0177914
631.549	0.0179600
631.628	0.0181709
631.706	0.0183809
631.784	0.0186470
631.862	0.0187111
631.940	0.0188197
632.018	0.0188400
632.096	0.0190043
632.174	0.0191212
632.253	0.0191238
632.331	0.0191495
632.409	0.0189697
632.487	0.0188870
632.565	0.0186263
632.643	0.0186750
632.721	0.0184908
632.799	0.0182853
632.878	0.0180597
632.956	0.0177007
633.034	0.0174437
633.112	0.0172871
633.190	0.0168015
633.268	0.0165064
633.346	0.0162010
633.424	0.0159075
633.503	0.0154401
633.581	0.0150086
633.659	0.0147645
633.737	0.0143575
633.815	0.0138636
633.893	0.0135101
633.971	0.0132539
634.049	0.0129443
634.128	0.0126118
634.206	0.0126124
634.284	0.0124307
634.362	0.0124599
634.440	0.0125951
634.518	0.0128362
634.596	0.0128739
634.674	0.0132111
634.753	0.0136105
634.831	0.0139839
634.909	0.0144272
634.987	0.0148481
635.065	0.0153273
635.143	0.0157420
635.221	0.0160329
635.299	0.0164049
635.378	0.0167588
635.456	0.0169738
635.534	0.0171882
635.612	0.0173590
635.690	0.0175180
635.768	0.0177397
635.846	0.0179094
635.924	0.0180725
636.003	0.0181759
636.081	0.0183252
636.159	0.0184399
636.237	0.0186855
636.315	0.0188834
636.393	0.0188746
636.471	0.0190281
636.549	0.0191099
636.628	0.0190886
636.706	0.0191953
636.784	0.0190775
636.862	0.0190687
636.940	0.0188408
637.018	0.0184164
637.096	0.0182307
637.174	0.0180853
637.253	0.0174626
637.331	0.0170467
637.409	0.0167679
637.487	0.0165073
637.565	0.0160738
637.643	0.0158929
637.721	0.0156700
637.799	0.0153310
637.878	0.0152465
637.956	0.0150307
638.034	0.0148806
638.112	0.0149782
638.190	0.0149766
638.268	0.0148869
638.346	0.0150089
638.424	0.0151434
638.503	0.0152010
638.581	0.0151859
638.659	0.0152682
638.737	0.0152708
638.815	0.0155027
638.893	0.0155895
638.971	0.0156107
639.049	0.0156581
639.128	0.0155295
639.206	0.0156419
639.284	0.0156216
639.362	0.0157965
639.440	0.0157751
639.518	0.0159972
639.596	0.0160437
639.674	0.0161238
639.753	0.0163311
639.831	0.0165440
639.909	0.0166154
639.987	0.0166274
640.065	0.0167582
640.143	0.0168075
640.221	0.0168980
640.299	0.0170083
640.378	0.0168462
640.456	0.0167521
640.534	0.0168484
640.612	0.0167278
640.690	0.0164868
640.768	0.0163969
640.846	0.0162962
640.924	0.0161368
641.003	0.0159627
641.081	0.0159042
641.159	0.0159637
641.237	0.0156837
641.315	0.0155070
641.393	0.0157207
641.471	0.0154051
641.549	0.0155476
641.628	0.0153902
641.706	0.0153992
641.784	0.0153876
641.862	0.0153666
641.940	0.0152908
642.018	0.0153024
642.096	0.0153675
642.174	0.0153538
642.253	0.0154423
642.331	0.0154043
642.409	0.0155956
642.487	0.0159073
642.565	0.0157813
642.643	0.0159342
642.721	0.0161649
642.799	0.0164010
642.878	0.0165967
642.956	0.0166415
643.034	0.0166241
643.112	0.0168378
643.190	0.0169330
643.268	0.0170240
643.346	0.0171347
643.424	0.0170228
643.503	0.0171616
643.581	0.0173896
643.659	0.0173809
643.737	0.0174918
643.815	0.0175604
643.893	0.0176582
643.971	0.0178241
644.049	0.0179382
644.128	0.0179845
644.206	0.0182298
644.284	0.0182552
644.362	0.0181535
644.440	0.0182234
644.518	0.0181268
644.596	0.0180047
644.674	0.0178558
644.753	0.0175406
644.831	0.0174897
644.909	0.0172041
644.987	0.0168069
645.065	0.0164500
645.143	0.0162683
645.221	0.0160728
645.299	0.0157127
645.378	0.0154570
645.456	0.0153909
645.534	0.0151778
645.612	0.0151285
645.690	0.0150058
645.768	0.0147677
645.846	0.0148730
645.924	0.0148998
646.003	0.0149588
646.081	0.0149059
646.159	0.0150698
646.237	0.0150681
646.315	0.0152036
646.393	0.0152025
646.471	0.0152262
646.549	0.0153265
646.628	0.0153101
646.706	0.0154333
646.784	0.0153259
646.862	0.0153568
646.940	0.0154311
647.018	0.0154695
647.096	0.0155428
647.174	0.0156137
647.253	0.0156206
647.331	0.0157730
647.409	0.0158320
647.487	0.0157750
647.565	0.0158286
647.643	0.0159116
647.721	0.0160095
647.799	0.0160367
647.878	0.0159938
647.956	0.0160324
648.034	0.0161082
648.112	0.0162217
648.190	0.0163103
648.268	0.0165514
648.346	0.0166533
648.424	0.0168495
648.503	0.0170466
648.581	0.0172707
648.659	0.0174486
648.737	0.0174916
648.815	0.0176205
648.893	0.0176711
648.971	0.0178828
649.049	0.0180190
649.128	0.0179289
649.206	0.0178426
649.284	0.0179513
649.362	0.0177351
649.440	0.0176504
649.518	0.0176476
649.596	0.0176587
649.674	0.0175591
649.753	0.0176458
649.831	0.0176892
649.909	0.0175068
649.987	0.0175116
650.065	0.0174975
650.143	0.0173941
650.221	0.0173531
650.299	0.0172964
650.378	0.0172186
650.456	0.0170680
650.534	0.0170076
650.612	0.0167509
650.690	0.0166195
650.768	0.0166705
650.846	0.0164378
650.924	0.0163113
651.003	0.0162206
651.081	0.0160746
651.159	0.0161976
651.237	0.0158791
651.315	0.0159026
651.393	0.0158660
651.471	0.0157934
651.549	0.0159055
651.628	0.0156962
651.706	0.0156618
651.784	0.0156189
651.862	0.0155363
651.940	0.0155126
652.018	0.0153668
652.096	0.0153062
652.174	0.0153593
652.253	0.0153207
652.331	0.0152461
652.409	0.0152267
652.487	0.0153569
652.565	0.0154115
652.643	0.0152811
652.721	0.0152447
652.799	0.0153905
652.878	0.0155980
652.956	0.0157833
653.034	0.0157930
653.112	0.0158347
653.190	0.0160069
653.268	0.0160455
653.346	0.0160379
653.424	0.0162383
653.503	0.0163400
653.581	0.0163335
653.659	0.0164298
653.737	0.0165881
653.815	0.0165718
653.893	0.0165985
653.971	0.0166416
654.049	0.0166378
654.128	0.0167986
654.206	0.0166664
654.284	0.0167101
654.362	0.0167426
654.440	0.0167503
654.518	0.0165553
654.596	0.0167285
654.674	0.0165620
654.753	0.0165993
654.831	0.0167004
654.909	0.0168193
654.987	0.0166143
655.065	0.0167744
655.143	0.0167062
655.221	0.0168143
655.299	0.0167543
655.378	0.0168402
655.456	0.0168085
655.534	0.0169289
655.612	0.0169234
655.690	0.0168330
655.768	0.0167488
655.846	0.0166692
655.924	0.0164424
656.003	0.0163239
656.081	0.0161879
656.159	0.0159727
656.237	0.0158183
656.315	0.0158066
656.393	0.0156615
656.471	0.0156379
656.549	0.0156367
656.628	0.0157962
656.706	0.0158538
656.784	0.0159232
656.862	0.0160442
656.940	0.0162315
657.018	0.0164577
657.096	0.0167545
657.174	0.0168159
657.253	0.0172169
657.331	0.0172333
657.409	0.0174969
657.487	0.0176785
657.565	0.0177231
657.643	0.0179134
657.721	0.0179147
657.799	0.0178083
657.878	0.0179013
657.956	0.0177338
658.034	0.0176672
658.112	0.0174362
658.190	0.0172335
658.268	0.0170242
658.346	0.0167591
658.424	0.0165022
658.503	0.0161514
658.581	0.0158521
658.659	0.0157050
658.737	0.0153249
658.815	0.0151667
658.893	0.0150114
658.971	0.0147248
659.049	0.0146542
659.128	0.0145827
659.206	0.0142819
659.284	0.0142934
659.362	0.0142870
659.440	0.0142847
659.518	0.0144326
659.596	0.0144450
659.674	0.0145359
659.753	0.0146777
659.831	0.0148335
659.909	0.0148803
659.987	0.0151607
660.065	0.0151797
660.143	0.0154707
660.221	0.0155740
660.299	0.0157234
660.378	0.0158817
660.456	0.0160638
660.534	0.0161386
660.612	0.0163219
660.690	0.0161875
660.768	0.0164372
660.846	0.0165653
660.924	0.0166570
661.003	0.0166766
661.081	0.0167500
661.159	0.0168372
661.237	0.0167991
661.315	0.0165955
661.393	0.0167779
661.471	0.0168095
661.549	0.0167883
661.628	0.0165712
661.706	0.0165787
661.784	0.0166623
661.862	0.0165433
661.940	0.0164951
662.018	0.0164225
662.096	0.0163632
662.174	0.0163927
662.253	0.0165863
662.331	0.0165016
662.409	0.0165093
662.487	0.0165930
662.565	0.0166053
662.643	0.0165644
662.721	0.0165659
662.799	0.0167120
662.878	0.0166914
662.956	0.0166129
663.034	0.0167034
663.112	0.0168846
663.190	0.0167947
663.268	0.0169018
663.346	0.0170213
663.424	0.0170043
663.503	0.0171269
663.581	0.0171019
663.659	0.0171837
663.737	0.0170492
663.815	0.0171056
663.893	0.0172489
663.971	0.0171840
664.049	0.0170475
664.128	0.0171095
664.206	0.0169188
664.284	0.0168887
664.362	0.0168209
664.440	0.0167905
664.518	0.0165065
664.596	0.0164056
664.674	0.0164543
664.753	0.0162981
664.831	0.0162215
664.909	0.0160860
664.987	0.0158618
665.065	0.0156590
665.143	0.0156001
665.221	0.0154564
665.299	0.0153465
665.378	0.0152035
665.456	0.0150740
665.534	0.0148424
665.612	0.0147851
665.690	0.0148553
665.768	0.0147088
665.846	0.0146356
665.924	0.0147430
666.003	0.0147947
666.081	0.0148401
666.159	0.0149652
666.237	0.0150645
666.315	0.0149869
666.393	0.0152126
666.471	0.0154018
666.549	0.0154662
666.628	0.0155144
666.706	0.0156024
666.784	0.0155735
666.862	0.0157606
666.940	0.0159933
667.018	0.0159473
667.096	0.0162074
667.174	0.0161401
667.253	0.0163564
667.331	0.0165456
667.409	0.0166041
667.487	0.0167669
667.565	0.0169678
667.643	0.0170036
667.721	0.0169884
667.799	0.0170509
667.878	0.0172932
667.956	0.0173450
668.034	0.0173837
668.112	0.0173183
668.190	0.0174061
668.268	0.0173344
668.346	0.0173925
668.424	0.0172662
668.503	0.0171316
668.581	0.0168804
668.659	0.0168524
668.737	0.0167461
668.815	0.0167650
668.893	0.0165820
668.971	0.0162160
669.049	0.0161037
669.128	0.0163284
669.206	0.0161890
669.284	0.0161990
669.362	0.0161248
669.440	0.0159544
669.518	0.0160581
669.596	0.0161505
669.674	0.0160752
669.753	0.0162495
669.831	0.0161998
669.909	0.0161494
669.987	0.0162503
670.065	0.0163483
670.143	0.0164094
670.221	0.0164877
670.299	0.0165269
670.378	0.0165915
670.456	0.0167633
670.534	0.0167485
670.612	0.0168279
670.690	0.0167751
670.768	0.0168223
670.846	0.0168965
670.924	0.0168830
671.003	0.0169692
671.081	0.0168633
671.159	0.0168374
671.237	0.0166650
671.315	0.0169314
671.393	0.0166624
671.471	0.0166643
671.549	0.0165422
671.628	0.0164867
671.706	0.0162439
671.784	0.0162350
671.862	0.0162015
671.940	0.0159836
672.018	0.0159846
672.096	0.0158361
672.174	0.0159463
672.253	0.0157275
672.331	0.0156310
672.409	0.0156449
672.487	0.0155849
672.565	0.0157307
672.643	0.0155765
672.721	0.0156935
672.799	0.0156487
672.878	0.0156584
672.956	0.0158058
673.034	0.0158123
673.112	0.0158135
673.190	0.0157639
673.268	0.0158582
673.346	0.0158762
673.424	0.0159909
673.503	0.0160468
673.581	0.0160657
673.659	0.0161802
673.737	0.0162576
673.815	0.0163334
673.893	0.0164040
673.971	0.0164651
674.049	0.0165695
674.128	0.0166342
674.206	0.0166653
674.284	0.0166695
674.362	0.0166900
674.440	0.0168414
674.518	0.0168081
674.596	0.0168382
674.674	0.0168304
674.753	0.0168777
674.831	0.0169000
674.909	0.0168653
674.987	0.0170818
675.065	0.0170470
675.143	0.0170044
675.221	0.0170181
675.299	0.0171181
675.378	0.0170633
675.456	0.0172137
675.534	0.0171796
675.612	0.0170927
675.690	0.0172332
675.768	0.0170447
675.846	0.0169882
675.924	0.0169415
676.003	0.0169102
676.081	0.0167809
676.159	0.0164482
676.237	0.0164137
676.315	0.0162941
676.393	0.0162062
676.471	0.0160520
676.549	0.0159852
676.628	0.0157857
676.706	0.0154790
676.784	0.0155361
676.862	0.0155548
676.940	0.0153181
677.018	0.0153619
677.096	0.0152721
677.174	0.0154136
677.253	0.0154719
677.331	0.0154819
677.409	0.0156299
677.487	0.0156036
677.565	0.0157129
677.643	0.0156959
677.721	0.0157653
677.799	0.0159609
677.878	0.0159299
677.956	0.0159430
678.034	0.0159087
678.112	0.0160498
678.190	0.0159608
678.268	0.0161243
678.346	0.0161233
678.424	0.0161168
678.503	0.0161147
678.581	0.0161440
678.659	0.0161062
678.737	0.0162746
678.815	0.0162311
678.893	0.0163931
678.971	0.0162607
679.049	0.0162286
679.128	0.0163948
679.206	0.0163558
679.284	0.0164777
679.362	0.0164574
679.440	0.0164805
679.518	0.0164655
679.596	0.0164201
679.674	0.0164482
679.753	0.0163435
679.831	0.0163286
679.909	0.0164429
679.987	0.0163349
680.065	0.0162554
680.143	0.0162117
680.221	0.0161401
680.299	0.0162714
680.378	0.0163607
680.456	0.0162827
680.534	0.0162815
680.612	0.0163335
680.690	0.0164410
680.768	0.0163441
680.846	0.0164007
680.924	0.0166308
681.003	0.0165784
681.081	0.0165367
681.159	0.0166219
681.237	0.0166753
681.315	0.0166862
681.393	0.0166248
681.471	0.0167142
681.549	0.0165552
681.628	0.0165582
681.706	0.0167234
681.784	0.0166723
681.862	0.0165908
681.940	0.0164565
682.018	0.0163724
682.096	0.0164671
682.174	0.0165332
682.253	0.0163305
682.331	0.0164371
682.409	0.0163961
682.487	0.0163790
682.565	0.0163117
682.643	0.0163583
682.721	0.0163936
682.799	0.0163589
682.878	0.0165175
682.956	0.0163561
683.034	0.0160956
683.112	0.0161884
683.190	0.0162221
683.268	0.0160287
683.346	0.0159618
683.424	0.0159401
683.503	0.0159748
683.581	0.0159104
683.659	0.0158584
683.737	0.0157954
683.815	0.0158645
683.893	0.0159393
683.971	0.0159724
684.049	0.0158497
684.128	0.0159251
684.206	0.0160377
684.284	0.0160719
684.362	0.0161222
684.440	0.0159795
684.518	0.0162754
684.596	0.0161619
684.674	0.0161057
684.753	0.0162813
684.831	0.0162369
684.909	0.0161784
684.987	0.0162764
685.065	0.0162183
685.143	0.0164032
685.221	0.0164030
685.299	0.0162984
685.378	0.0164248
685.456	0.0164204
685.534	0.0162803
685.612	0.0163101
685.690	0.0162625
685.768	0.0164486
685.846	0.0164822
685.924	0.0163121
686.003	0.0164101
686.081	0.0163617
686.159	0.0164262
686.237	0.0165813
686.315	0.0166092
686.393	0.0166670
686.471	0.0166406
686.549	0.0167068
686.628	0.0167498
686.706	0.0167046
686.784	0.0166115
686.862	0.0168549
686.940	0.0167127
687.018	0.0167361
687.096	0.0166225
687.174	0.0166315
687.253	0.0166297
687.331	0.0165517
687.409	0.0166682
687.487	0.0166132
687.565	0.0164302
687.643	0.0164803
687.721	0.0165229
687.799	0.0164118
687.878	0.0164133
687.956	0.0163303
688.034	0.0163215
688.112	0.0162772
688.190	0.0163740
688.268	0.0162299
688.346	0.0161993
688.424	0.0160712
688.503	0.0161790
688.581	0.0159789
688.659	0.0159776
688.737	0.0159891
688.815	0.0159062
688.893	0.0159074
688.971	0.0159203
689.049	0.0160136
689.128	0.0159403
689.206	0.0159222
689.284	0.0159384
689.362	0.0160477
689.440	0.0160339
689.518	0.0160275
689.596	0.0161102
689.674	0.0159961
689.753	0.0159790
689.831	0.0160213
689.909	0.0159812
689.987	0.0160559
690.065	0.0160061
690.143	0.0160487
690.221	0.0160956
690.299	0.0159521
690.378	0.0160558
690.456	0.0161517
690.534	0.0162010
690.612	0.0159750
690.690	0.0160934
690.768	0.0161572
690.846	0.0163158
690.924	0.0162602
691.003	0.0162005
691.081	0.0164809
691.159	0.0164418
691.237	0.0165597
691.315	0.0164803
691.393	0.0164923
691.471	0.0165326
691.549	0.0167544
691.628	0.0167800
691.706	0.0167588
691.784	0.0168445
691.862	0.0168357
691.940	0.0168396
692.018	0.0168507
692.096	0.0169175
692.174	0.0168539
692.253	0.0167296
692.331	0.0167277
692.409	0.0167784
692.487	0.0166567
692.565	0.0165035
692.643	0.0165605
692.721	0.0163966
692.799	0.0162816
692.878	0.0162957
692.956	0.0163048
693.034	0.0163992
693.112	0.0161407
693.190	0.0159983
693.268	0.0160530
693.346	0.0160262
693.424	0.0161127
693.503	0.0161739
693.581	0.0161552
693.659	0.0160645
693.737	0.0160104
693.815	0.0161806
693.893	0.0160323
693.971	0.0161414
694.049	0.0161870
694.128	0.0161636
694.206	0.0161420
694.284	0.0160651
694.362	0.0161861
694.440	0.0161555
694.518	0.0160262
694.596	0.0160154
694.674	0.0161263
694.753	0.0158932
694.831	0.0159840
694.909	0.0161476
694.987	0.0160979
695.065	0.0160896
695.143	0.0163164
695.221	0.0161611
695.299	0.0161942
695.378	0.0162897
695.456	0.0163274
695.534	0.0162462
695.612	0.0163115
695.690	0.0163110
695.768	0.0163931
695.846	0.0163517
695.924	0.0162476
696.003	0.0164496
696.081	0.0164043
696.159	0.0163261
696.237	0.0162500
696.315	0.0161735
696.393	0.0163734
696.471	0.0162904
696.549	0.0163763
696.628	0.0164178
696.706	0.0164346
696.784	0.0164814
696.862	0.0164520
696.940	0.0165845
697.018	0.0164597
697.096	0.0164632
697.174	0.0164961
697.253	0.0162840
697.331	0.0164375
697.409	0.0164002
697.487	0.0164854
697.565	0.0164143
697.643	0.0163779
697.721	0.0163005
697.799	0.0162888
697.878	0.0162568
697.956	0.0164557
698.034	0.0163780
698.112	0.0163161
698.190	0.0163238
698.268	0.0163577
698.346	0.0165829
698.424	0.0163812
698.503	0.0164221
698.581	0.0165325
698.659	0.0164520
698.737	0.0164944
698.815	0.0165247
698.893	0.0165391
698.971	0.0164857
699.049	0.0164398
699.128	0.0164922
699.206	0.0165009
699.284	0.0164565
699.362	0.0166232
699.440	0.0165750
699.518	0.0166580
699.596	0.0164624
699.674	0.0167147
699.753	0.0164758
699.831	0.0165234
699.909	0.0165569
699.987	0.0164304
700.065	0.0166162
700.143	0.0164249
700.221	0.0164615
700.299	0.0164986
700.378	0.0165571
700.456	0.0163805
700.534	0.0162827
700.612	0.0162250
700.690	0.0160789
700.768	0.0161426
700.846	0.0161651
700.924	0.0160904
701.003	0.0160001
701.081	0.0161761
701.159	0.0162162
701.237	0.0162620
701.315	0.0162505
701.393	0.0162177
701.471	0.0162466
701.549	0.0162183
701.628	0.0162730
701.706	0.0162675
701.784	0.0162262
701.862	0.0163932
701.940	0.0162074
702.018	0.0162664
702.096	0.0162757
702.174	0.0163565
702.253	0.0164237
702.331	0.0162833
702.409	0.0163378
702.487	0.0164190
702.565	0.0165174
702.643	0.0164877
702.721	0.0164397
702.799	0.0164945
702.878	0.0165077
702.956	0.0165476
703.034	0.0167424
703.112	0.0168054
703.190	0.0165625
703.268	0.0167398
703.346	0.0167441
703.424	0.0166920
703.503	0.0165647
703.581	0.0165960
703.659	0.0166312
703.737	0.0165008
703.815	0.0164933
703.893	0.0164674
703.971	0.0163734
704.049	0.0165248
704.128	0.0163411
704.206	0.0162489
704.284	0.0164506
704.362	0.0161684
704.440	0.0162745
704.518	0.0163670
704.596	0.0162364
704.674	0.0161271
704.753	0.0161715
704.831	0.0160275
704.909	0.0159089
704.987	0.0160863
705.065	0.0159618
705.143	0.0159730
705.221	0.0159968
705.299	0.0159760
705.378	0.0159374
705.456	0.0159277
705.534	0.0159052
705.612	0.0160104
705.690	0.0161230
705.768	0.0159959
705.846	0.0160909
705.924	0.0161723
706.003	0.0161601
706.081	0.0162302
706.159	0.0162903
706.237	0.0163360
706.315	0.0162959
706.393	0.0163245
706.471	0.0164225
706.549	0.0163886
706.628	0.0164356
706.706	0.0163335
706.784	0.0165498
706.862	0.0165632
706.940	0.0164627
707.018	0.0164835
707.096	0.0164494
707.174	0.0165443
707.253	0.0166698
707.331	0.0166742
707.409	0.0164210
707.487	0.0166431
707.565	0.0164854
707.643	0.0167336
707.721	0.0166439
707.799	0.0166059
707.878	0.0166632
707.956	0.0166626
708.034	0.0167600
708.112	0.0166332
708.190	0.0165633
708.268	0.0165971
708.346	0.0166333
708.424	0.0166243
708.503	0.0165289
708.581	0.0164297
708.659	0.0165154
708.737	0.0165175
708.815	0.0165381
708.893	0.0164841
708.971	0.0163955
709.049	0.0163057
709.128	0.0163211
709.206	0.0164020
709.284	0.0163454
709.362	0.0162204
709.440	0.0163089
709.518	0.0162114
709.596	0.0162403
709.674	0.0161412
709.753	0.0160550
709.831	0.0161812
709.909	0.0160891
709.987	0.0161302
710.065	0.0162045
710.143	0.0161511
710.221	0.0162047
710.299	0.0163443
710.378	0.0162685
710.456	0.0162905
710.534	0.0163328
710.612	0.0163960
710.690	0.0164110
710.768	0.0166100
710.846	0.0164892
710.924	0.0165117
711.003	0.0165159
711.081	0.0164594
711.159	0.0165351
711.237	0.0166722
711.315	0.0167110
711.393	0.0167820
711.471	0.0167471
711.549	0.0166820
711.628	0.0167437
711.706	0.0167676
711.784	0.0168454
711.862	0.0168910
711.940	0.0167881
712.018	0.0169402
712.096	0.0169205
712.174	0.0169006
712.253	0.0167754
712.331	0.0168447
712.409	0.0168420
712.487	0.0165833
712.565	0.0165430
712.643	0.0164056
712.721	0.0163624
712.799	0.0163404
712.878	0.0161815
712.956	0.0161018
713.034	0.0160069
713.112	0.0158952
713.190	0.0159608
713.268	0.0157452
713.346	0.0157487
713.424	0.0157791
713.503	0.0158100
713.581	0.0157201
713.659	0.0157148
713.737	0.0158076
713.815	0.0157209
713.893	0.0157195
713.971	0.0157335
714.049	0.0158013
714.128	0.0159309
714.206	0.0158009
714.284	0.0159521
714.362	0.0160818
714.440	0.0162816
714.518	0.0163371
714.596	0.0163092
714.674	0.0163705
714.753	0.0164762
714.831	0.0165879
714.909	0.0166788
714.987	0.0166530
715.065	0.0166883
715.143	0.0166574
715.221	0.0167361
715.299	0.0166615
715.378	0.0167152
715.456	0.0168860
715.534	0.0167074
715.612	0.0167283
715.690	0.0166647
715.768	0.0166819
715.846	0.0166018
715.924	0.0164688
716.003	0.0164490
716.081	0.0166065
716.159	0.0163332
716.237	0.0163938
716.315	0.0164243
716.393	0.0164412
716.471	0.0164079
716.549	0.0163557
716.628	0.0163681
716.706	0.0163472
716.784	0.0164875
716.862	0.0165405
716.940	0.0165204
717.018	0.0163818
717.096	0.0164980
717.174	0.0164834
717.253	0.0164993
717.331	0.0164253
717.409	0.0165835
717.487	0.0164767
717.565	0.0166056
717.643	0.0164703
717.721	0.0162807
717.799	0.0163270
717.878	0.0163237
717.956	0.0162719
718.034	0.0163288
718.112	0.0163194
718.190	0.0162357
718.268	0.0160316
718.346	0.0161264
718.424	0.0160705
718.503	0.0160339
718.581	0.0160713
718.659	0.0158659
718.737	0.0159197
718.815	0.0157963
718.893	0.0157281
718.971	0.0157582
719.049	0.0157800
719.128	0.0157758
719.206	0.0156510
719.284	0.0158036
719.362	0.0157497
719.440	0.0157574
719.518	0.0158424
719.596	0.0157867
719.674	0.0158300
719.753	0.0159589
719.831	0.0159471
719.909	0.0159708
719.987	0.0159660
720.065	0.0161650
720.143	0.0162125
720.221	0.0160030
720.299	0.0162774
720.378	0.0163387
720.456	0.0163291
720.534	0.0163183
720.612	0.0164390
720.690	0.0164600
720.768	0.0164423
720.846	0.0166932
720.924	0.0166621
721.003	0.0167256
721.081	0.0165514
721.159	0.0165881
721.237	0.0165648
721.315	0.0166246
721.393	0.0166087
721.471	0.0166448
721.549	0.0165881
721.628	0.0165862
721.706	0.0166022
721.784	0.0163814
721.862	0.0165234
721.940	0.0163914
722.018	0.0162793
722.096	0.0162994
722.174	0.0163182
722.253	0.0163825
722.331	0.0162550
722.409	0.0161372
722.487	0.0163061
722.565	0.0162349
722.643	0.0161998
722.721	0.0162969
722.799	0.0161698
722.878	0.0161994
722.956	0.0161440
723.034	0.0162437
723.112	0.0162209
723.190	0.0164301
723.268	0.0165287
723.346	0.0164410
723.424	0.0164497
723.503	0.0165614
723.581	0.0166512
723.659	0.0166077
723.737	0.0166244
723.815	0.0166579
723.893	0.0166824
723.971	0.0168173
724.049	0.0168004
724.128	0.0168156
724.206	0.0169550
724.284	0.0168742
724.362	0.0168233
724.440	0.0168752
724.518	0.0170191
724.596	0.0169836
724.674	0.0168571
724.753	0.0166845
724.831	0.0167747
724.909	0.0166926
724.987	0.0166895
725.065	0.0165804
725.143	0.0165970
725.221	0.0165714
725.299	0.0164934
725.378	0.0165601
725.456	0.0163624
725.534	0.0161787
725.612	0.0163223
725.690	0.0162865
725.768	0.0163389
725.846	0.0160455
725.924	0.0161094
726.003	0.0160825
726.081	0.0160889
726.159	0.0162539
726.237	0.0161244
726.315	0.0161225
726.393	0.0160430
726.471	0.0160418
726.549	0.0161185
726.628	0.0160320
726.706	0.0161370
726.784	0.0161736
726.862	0.0161224
726.940	0.0161771
727.018	0.0162012
727.096	0.0162742
727.174	0.0161850
727.253	0.0163300
727.331	0.0162658
727.409	0.0163468
727.487	0.0163908
727.565	0.0164390
727.643	0.0163279
727.721	0.0165308
727.799	0.0166167
727.878	0.0165837
727.956	0.0165050
728.034	0.0164841
728.112	0.0164645
728.190	0.0165827
728.268	0.0166647
728.346	0.0166796
728.424	0.0165538
728.503	0.0165340
728.581	0.0165825
728.659	0.0165820
728.737	0.0165610
728.815	0.0164526
728.893	0.0163238
728.971	0.0162866
729.049	0.0162192
729.128	0.0164955
729.206	0.0164705
729.284	0.0162933
729.362	0.0161787
729.440	0.0162487
729.518	0.0162362
729.596	0.0162836
729.674	0.0162567
729.753	0.0162326
729.831	0.0161560
729.909	0.0163685
729.987	0.0162303
730.065	0.0161874
730.143	0.0161112
730.221	0.0161716
730.299	0.0160036
730.378	0.0159933
730.456	0.0159653
730.534	0.0159940
730.612	0.0159508
730.690	0.0158634
730.768	0.0158648
730.846	0.0159044
730.924	0.0159966
731.003	0.0159151
731.081	0.0157514
731.159	0.0159495
731.237	0.0159450
731.315	0.0160635
731.393	0.0159737
731.471	0.0159499
731.549	0.0159799
731.628	0.0160944
731.706	0.0161469
731.784	0.0161945
731.862	0.0162395
731.940	0.0163757
732.018	0.0162611
732.096	0.0163895
732.174	0.0164295
732.253	0.0165775
732.331	0.0164780
732.409	0.0166335
732.487	0.0167433
732.565	0.0167534
732.643	0.0168356
732.721	0.0168507
732.799	0.0167477
732.878	0.0169357
732.956	0.0169531
733.034	0.0169606
733.112	0.0169274
733.190	0.0170924
733.268	0.0169988
733.346	0.0168707
733.424	0.0170129
733.503	0.0168352
733.581	0.0167987
733.659	0.0166806
733.737	0.0166444
733.815	0.0168484
733.893	0.0167247
733.971	0.0166122
734.049	0.0165823
734.128	0.0164314
734.206	0.0165183
734.284	0.0165505
734.362	0.0163985
734.440	0.0163305
734.518	0.0162350
734.596	0.0165556
734.674	0.0164003
734.753	0.0163224
734.831	0.0164436
734.909	0.0162958
734.987	0.0162012
735.065	0.0161695
735.143	0.0162251
735.221	0.0162608
735.299	0.0162236
735.378	0.0162701
735.456	0.0162530
735.534	0.0162144
735.612	0.0162512
735.690	0.0162175
735.768	0.0162704
735.846	0.0163024
735.924	0.0164875
736.003	0.0163528
736.081	0.0162348
736.159	0.0162649
736.237	0.0161854
736.315	0.0162971
736.393	0.0162070
736.471	0.0161830
736.549	0.0163517
736.628	0.0161917
736.706	0.0162700
736.784	0.0162194
736.862	0.0162618
736.940	0.0162522
737.018	0.0161797
737.096	0.0161585
737.174	0.0160445
737.253	0.0161678
737.331	0.0159234
737.409	0.0160815
737.487	0.0159819
737.565	0.0159536
737.643	0.0159879
737.721	0.0158817
737.799	0.0160397
737.878	0.0161493
737.956	0.0160280
738.034	0.0159612
738.112	0.0159880
738.190	0.0161002
738.268	0.0160603
738.346	0.0160856
738.424	0.0161266
738.503	0.0160748
738.581	0.0161947
738.659	0.0162968
738.737	0.0163083
738.815	0.0163420
738.893	0.0162939
738.971	0.0163416
739.049	0.0163548
739.128	0.0163978
739.206	0.0164020
739.284	0.0164754
739.362	0.0167010
739.440	0.0165797
739.518	0.0166072
739.596	0.0166837
739.674	0.0166233
739.753	0.0167725
739.831	0.0166496
739.909	0.0167040
739.987	0.0165977
740.065	0.0167014
740.143	0.0167852
740.221	0.0167191
740.299	0.0165292
740.378	0.0164687
740.456	0.0165916
740.534	0.0164605
740.612	0.0164608
740.690	0.0164784
740.768	0.0164545
740.846	0.0164011
740.924	0.0163870
741.003	0.0161954
741.081	0.0163194
741.159	0.0161238
741.237	0.0160723
741.315	0.0160929
741.393	0.0162064
741.471	0.0161093
741.549	0.0161965
741.628	0.0161441
741.706	0.0162071
741.784	0.0161741
741.862	0.0161941
741.940	0.0161979
742.018	0.0161774
742.096	0.0160506
742.174	0.0160226
742.253	0.0160265
742.331	0.0160304
742.409	0.0160650
742.487	0.0159694
742.565	0.0159648
742.643	0.0160062
742.721	0.0159444
742.799	0.0159806
742.878	0.0160240
742.956	0.0160668
743.034	0.0159861
743.112	0.0158696
743.190	0.0159909
743.268	0.0160087
743.346	0.0160650
743.424	0.0160462
743.503	0.0159525
743.581	0.0160725
743.659	0.0161079
743.737	0.0160822
743.815	0.0159974
743.893	0.0159761
743.971	0.0160088
744.049	0.0160213
744.128	0.0160864
744.206	0.0159512
744.284	0.0160624
744.362	0.0160178
744.440	0.0162425
744.518	0.0160998
744.596	0.0158728
744.674	0.0161025
744.753	0.0162887
744.831	0.0161994
744.909	0.0161313
744.987	0.0163846
745.065	0.0164283
745.143	0.0164588
745.221	0.0164356
745.299	0.0163296
745.378	0.0163712
745.456	0.0165257
745.534	0.0164996
745.612	0.0165643
745.690	0.0164314
745.768	0.0165006
745.846	0.0165377
745.924	0.0165559
746.003	0.0163908
746.081	0.0163338
746.159	0.0163375
746.237	0.0163768
746.315	0.0163529
746.393	0.0164818
746.471	0.0162524
746.549	0.0164593
746.628	0.0164123
746.706	0.0164314
746.784	0.0162096
746.862	0.0164293
746.940	0.0164176
747.018	0.0164937
747.096	0.0163593
747.174	0.0164239
747.253	0.0162735
747.331	0.0164754
747.409	0.0165120
747.487	0.0164504
747.565	0.0164787
747.643	0.0163412
747.721	0.0164630
747.799	0.0164538
747.878	0.0163957
747.956	0.0163056
748.034	0.0163141
748.112	0.0162186
748.190	0.0162129
748.268	0.0163017
748.346	0.0162314
748.424	0.0162801
748.503	0.0161690
748.581	0.0162043
748.659	0.0162063
748.737	0.0160997
748.815	0.0161356
748.893	0.0162313
748.971	0.0162486
749.049	0.0160931
749.128	0.0161549
749.206	0.0160814
749.284	0.0160329
749.362	0.0161404
749.440	0.0161198
749.518	0.0161575
749.596	0.0160813
749.674	0.0161029
749.753	0.0163107
749.831	0.0161004
749.909	0.0160150
749.987	0.0161240
750.065	0.0161792
750.143	0.0161182
750.221	0.0162125
750.299	0.0162711
750.378	0.0161380
750.456	0.0162409
750.534	0.0162719
750.612	0.0162656
750.690	0.0163718
750.768	0.0161804
750.846	0.0162059
750.924	0.0162339
751.003	0.0163428
751.081	0.0163297
751.159	0.0163536
751.237	0.0161246
751.315	0.0162943
751.393	0.0163739
751.471	0.0163322
751.549	0.0163783
751.628	0.0163917
751.706	0.0162657
751.784	0.0162863
751.862	0.0164026
751.940	0.0164562
752.018	0.0163142
752.096	0.0162890
752.174	0.0161823
752.253	0.0164242
752.331	0.0162841
752.409	0.0163666
752.487	0.0161898
752.565	0.0162733
752.643	0.0162048
752.721	0.0163324
752.799	0.0162203
752.878	0.0162841
752.956	0.0163534
753.034	0.0163481
753.112	0.0163775
753.190	0.0163126
753.268	0.0164203
753.346	0.0164523
753.424	0.0165148
753.503	0.0166025
753.581	0.0166656
753.659	0.0166309
753.737	0.0166535
753.815	0.0166121
753.893	0.0165185
753.971	0.0165952
754.049	0.0165231
754.128	0.0164879
754.206	0.0166546
754.284	0.0165408
754.362	0.0166028
754.440	0.0165720
754.518	0.0166673
754.596	0.0165345
754.674	0.0164963
754.753	0.0163084
754.831	0.0164700
754.909	0.0163733
754.987	0.0161933
755.065	0.0161971
755.143	0.0162135
755.221	0.0161429
755.299	0.0161873
755.378	0.0161055
755.456	0.0160206
755.534	0.0161016
755.612	0.0161195
755.690	0.0160207
755.768	0.0161083
755.846	0.0161282
755.924	0.0160646
756.003	0.0159915
756.081	0.0160611
756.159	0.0161297
756.237	0.0162324
756.315	0.0162225
756.393	0.0162305
756.471	0.0162943
756.549	0.0163113
756.628	0.0163154
756.706	0.0164232
756.784	0.0163537
756.862	0.0164114
756.940	0.0165226
757.018	0.0165414
757.096	0.0164384
757.174	0.0164801
757.253	0.0167022
757.331	0.0167044
757.409	0.0165629
757.487	0.0166178
757.565	0.0165780
757.643	0.0166777
757.721	0.0165416
757.799	0.0164388
757.878	0.0164036
757.956	0.0165114
758.034	0.0164841
758.112	0.0163371
758.190	0.0163683
758.268	0.0163206
758.346	0.0163142
758.424	0.0163458
758.503	0.0163067
758.581	0.0162292
758.659	0.0162157
758.737	0.0161723
758.815	0.0163142
758.893	0.0161347
758.971	0.0161516
759.049	0.0162556
759.128	0.0162173
759.206	0.0163284
759.284	0.0162226
759.362	0.0160642
759.440	0.0162480
759.518	0.0161137
759.596	0.0161663
759.674	0.0161665
759.753	0.0162174
759.831	0.0163432
759.909	0.0163165
759.987	0.0161527
760.065	0.0163666
760.143	0.0163676
760.221	0.0162788
760.299	0.0164026
760.378	0.0163837
760.456	0.0162496
760.534	0.0164881
760.612	0.0165604
760.690	0.0165217
760.768	0.0163760
760.846	0.0164780
760.924	0.0166192
761.003	0.0163603
761.081	0.0164599
761.159	0.0164568
761.237	0.0164278
761.315	0.0164289
761.393	0.0164636
761.471	0.0163535
761.549	0.0165001
761.628	0.0162867
761.706	0.0162369
761.784	0.0163547
761.862	0.0162894
761.940	0.0162332
762.018	0.0163176
762.096	0.0162224
762.174	0.0162262
762.253	0.0162358
762.331	0.0161713
762.409	0.0162125
762.487	0.0163026
762.565	0.0161568
762.643	0.0161788
762.721	0.0163260
762.799	0.0161760
762.878	0.0161068
762.956	0.0162808
763.034	0.0163134
763.112	0.0162592
763.190	0.0164589
763.268	0.0164292
763.346	0.0162601
763.424	0.0162615
763.503	0.0164467
763.581	0.0165359
763.659	0.0164002
763.737	0.0163706
763.815	0.0165815
763.893	0.0166866
763.971	0.0166244
764.049	0.0165448
764.128	0.0163596
764.206	0.0165735
764.284	0.0166403
764.362	0.0165501
764.440	0.0165692
764.518	0.0166501
764.596	0.0166400
764.674	0.0164487
764.753	0.0163185
764.831	0.0165392
764.909	0.0166349
764.987	0.0165001
765.065	0.0165047
765.143	0.0165915
765.221	0.0163403
765.299	0.0165736
765.378	0.0165005
765.456	0.0163323
765.534	0.0162589
765.612	0.0162784
765.690	0.0163081
765.768	0.0161805
765.846	0.0161977
765.924	0.0162964
766.003	0.0161899
766.081	0.0161856
766.159	0.0161466
766.237	0.0161712
766.315	0.0161940
766.393	0.0162001
766.471	0.0160789
766.549	0.0161105
766.628	0.0162047
766.706	0.0160615
766.784	0.0162724
766.862	0.0162057
766.940	0.0161477
767.018	0.0162959
767.096	0.0162868
767.174	0.0162154
767.253	0.0163167
767.331	0.0161217
767.409	0.0162011
767.487	0.0162027
767.565	0.0161480
767.643	0.0161411
767.721	0.0160199
767.799	0.0160902
767.878	0.0160737
767.956	0.0160561
768.034	0.0159581
768.112	0.0158894
768.190	0.0157592
768.268	0.0157695
768.346	0.0159583
768.424	0.0157027
768.503	0.0158851
768.581	0.0159367
768.659	0.0159957
768.737	0.0159882
768.815	0.0159449
768.893	0.0159586
768.971	0.0158517
769.049	0.0160804
769.128	0.0159451
769.206	0.0159795
769.284	0.0159143
769.362	0.0161280
769.440	0.0161684
769.518	0.0161936
769.596	0.0160464
769.674	0.0161402
769.753	0.0160950
769.831	0.0161674
769.909	0.0162928
769.987	0.0162354
770.065	0.0161792
770.143	0.0163155
770.221	0.0162508
770.299	0.0163672
770.378	0.0164345
770.456	0.0163827
770.534	0.0164231
770.612	0.0164362
770.690	0.0163468
770.768	0.0163874
770.846	0.0163684
770.924	0.0164926
771.003	0.0164023
771.081	0.0164022
771.159	0.0165157
771.237	0.0164252
771.315	0.0164036
771.393	0.0163699
771.471	0.0165453
771.549	0.0164552
771.628	0.0163200
771.706	0.0163850
771.784	0.0164017
771.862	0.0161639
771.940	0.0163280
772.018	0.0162682
772.096	0.0163520
772.174	0.0163251
772.253	0.0161258
772.331	0.0161543
772.409	0.0161658
772.487	0.0160260
772.565	0.0161245
772.643	0.0160788
772.721	0.0159881
772.799	0.0162332
772.878	0.0160128
772.956	0.0159780
773.034	0.0161684
773.112	0.0159955
773.190	0.0160915
773.268	0.0161033
773.346	0.0160652
773.424	0.0161418
773.503	0.0160148
773.581	0.0161198
773.659	0.0160901
773.737	0.0160580
773.815	0.0161219
773.893	0.0161726
773.971	0.0162962
774.049	0.0162462
774.128	0.0162096
774.206	0.0161301
774.284	0.0161059
774.362	0.0162298
774.440	0.0161737
774.518	0.0162092
774.596	0.0162249
774.674	0.0163804
774.753	0.0163872
774.831	0.0162372
774.909	0.0163685
774.987	0.0163332
775.065	0.0163638
775.143	0.0163998
775.221	0.0163804
775.299	0.0163199
775.378	0.0164690
775.456	0.0164626
775.534	0.0165408
775.612	0.0165279
775.690	0.0164642
775.768	0.0164437
775.846	0.0164760
775.924	0.0163705
776.003	0.0164942
776.081	0.0165373
776.159	0.0166254
776.237	0.0164812
776.315	0.0164799
776.393	0.0164227
776.471	0.0163171
776.549	0.0164170
776.628	0.0163692
776.706	0.0164130
776.784	0.0164313
776.862	0.0165100
776.940	0.0164893
777.018	0.0165307
777.096	0.0164538
777.174	0.0163906
777.253	0.0165444
777.331	0.0165223
777.409	0.0164724
777.487	0.0164149
777.565	0.0163761
777.643	0.0163621
777.721	0.0165057
777.799	0.0165806
777.878	0.0165253
777.956	0.0165691
778.034	0.0165636
778.112	0.0165043
778.190	0.0164713
778.268	0.0166491
778.346	0.0166142
778.424	0.0164304
778.503	0.0166483
778.581	0.0167438
778.659	0.0166401
778.737	0.0166065
778.815	0.0166658
778.893	0.0166386
778.971	0.0166775
779.049	0.0166352
779.128	0.0166370
779.206	0.0166076
779.284	0.0165598
779.362	0.0166557
779.440	0.0166280
779.518	0.0164420
779.596	0.0164755
779.674	0.0164433
779.753	0.0164766
779.831	0.0164617
779.909	0.0163783
779.987	0.0164647
780.065	0.0163415
780.143	0.0162865
780.221	0.0163704
780.299	0.0162215
780.378	0.0162466
780.456	0.0160816
780.534	0.0162408
780.612	0.0161684
780.690	0.0160403
780.768	0.0160168
780.846	0.0159010
780.924	0.0160097
781.003	0.0160654
781.081	0.0160137
781.159	0.0159340
781.237	0.0158871
781.315	0.0159475
781.393	0.0159983
781.471	0.0160393
781.549	0.0161053
781.628	0.0160534
781.706	0.0161161
781.784	0.0161111
781.862	0.0160768
781.940	0.0161242
782.018	0.0161070
782.096	0.0162775
782.174	0.0162656
782.253	0.0161686
782.331	0.0163040
782.409	0.0163391
782.487	0.0161951
782.565	0.0162855
782.643	0.0163670
782.721	0.0163634
782.799	0.0162763
782.878	0.0162050
782.956	0.0163776
783.034	0.0163449
783.112	0.0163226
783.190	0.0163306
783.268	0.0161451
783.346	0.0162375
783.424	0.0162834
783.503	0.0162805
783.581	0.0162185
783.659	0.0163116
783.737	0.0162340
783.815	0.0163329
783.893	0.0162993
783.971	0.0162016
784.049	0.0161071
784.128	0.0161520
784.206	0.0162608
784.284	0.0163099
784.362	0.0162465
784.440	0.0161146
784.518	0.0161315
784.596	0.0163270
784.674	0.0163335
784.753	0.0161960
784.831	0.0162164
784.909	0.0163843
784.987	0.0162746
785.065	0.0162859
785.143	0.0164199
785.221	0.0163387
785.299	0.0162782
785.378	0.0163026
785.456	0.0163577
785.534	0.0162639
785.612	0.0164355
785.690	0.0164171
785.768	0.0163811
785.846	0.0163541
785.924	0.0164066
786.003	0.0165477
786.081	0.0165587
786.159	0.0165036
786.237	0.0165601
786.315	0.0164041
786.393	0.0164033
786.471	0.0164181
786.549	0.0163220
786.628	0.0165105
786.706	0.0165009
786.784	0.0165169
786.862	0.0165801
786.940	0.0165433
787.018	0.0165464
787.096	0.0165724
787.174	0.0165492
787.253	0.0165219
787.331	0.0165528
787.409	0.0165834
787.487	0.0165817
787.565	0.0166055
787.643	0.0165403
787.721	0.0165613
787.799	0.0163179
787.878	0.0164465
787.956	0.0164970
788.034	0.0164539
788.112	0.0165464
788.190	0.0163596
788.268	0.0164964
788.346	0.0165092
788.424	0.0163400
788.503	0.0164781
788.581	0.0163817
788.659	0.0163417
788.737	0.0164253
788.815	0.0164585
788.893	0.0163088
788.971	0.0164273
789.049	0.0163845
789.128	0.0162642
789.206	0.0161811
789.284	0.0161295
789.362	0.0162109
789.440	0.0162910
789.518	0.0163116
789.596	0.0162885
789.674	0.0161113
789.753	0.0160823
789.831	0.0162496
789.909	0.0163779
789.987	0.0161625
790.065	0.0161127
790.143	0.0162079
790.221	0.0162788
790.299	0.0163533
790.378	0.0162838
790.456	0.0162280
790.534	0.0165076
790.612	0.0163750
790.690	0.0163203
790.768	0.0164510
790.846	0.0165258
790.924	0.0163093
791.003	0.0164137
791.081	0.0163690
791.159	0.0163823
791.237	0.0164582
791.315	0.0163387
791.393	0.0164517
791.471	0.0163309
791.549	0.0164217
791.628	0.0162332
791.706	0.0161552
791.784	0.0161187
791.862	0.0162351
791.940	0.0160531
792.018	0.0162292
792.096	0.0161668
792.174	0.0161517
792.253	0.0161464
792.331	0.0161476
792.409	0.0161922
792.487	0.0160782
792.565	0.0160310
792.643	0.0162967
792.721	0.0162686
792.799	0.0162231
792.878	0.0162986
792.956	0.0162946
793.034	0.0162057
793.112	0.0163129
793.190	0.0163622
793.268	0.0165820
793.346	0.0163947
793.424	0.0163175
793.503	0.0164324
793.581	0.0165882
793.659	0.0164362
793.737	0.0165658
793.815	0.0165567
793.893	0.0165895
793.971	0.0165621
794.049	0.0164771
794.128	0.0166041
794.206	0.0167458
794.284	0.0165023
794.362	0.0164235
794.440	0.0165395
794.518	0.0164930
794.596	0.0163208
794.674	0.0165283
794.753	0.0165906
794.831	0.0163902
794.909	0.0163940
794.987	0.0165620
795.065	0.0163968
795.143	0.0163995
795.221	0.0163060
795.299	0.0163256
795.378	0.0162363
795.456	0.0162037
795.534	0.0162527
795.612	0.0162072
795.690	0.0160989
795.768	0.0160920
795.846	0.0161053
795.924	0.0160920
796.003	0.0162520
796.081	0.0161906
796.159	0.0162098
796.237	0.0161742
796.315	0.0162088
796.393	0.0162083
796.471	0.0161676
796.549	0.0162000
796.628	0.0162736
796.706	0.0163651
796.784	0.0164649
796.862	0.0161205
796.940	0.0162066
797.018	0.0162752
797.096	0.0161829
797.174	0.0162019
797.253	0.0162711
797.331	0.0162145
797.409	0.0161827
797.487	0.0162601
797.565	0.0162508
797.643	0.0162143
797.721	0.0162002
797.799	0.0163014
797.878	0.0163025
797.956	0.0162420
798.034	0.0161199
798.112	0.0161609
798.190	0.0162038
798.268	0.0162247
798.346	0.0161430
798.424	0.0161723
798.503	0.0160826
798.581	0.0161742
798.659	0.0162827
798.737	0.0162479
798.815	0.0161849
798.893	0.0160789
798.971	0.0161213
799.049	0.0161992
799.128	0.0160357
799.206	0.0160999
799.284	0.0161603
799.362	0.0162277
799.440	0.0160951
799.518	0.0161858
799.596	0.0162743
799.674	0.0161962
799.753	0.0162681
799.831	0.0162081
799.909	0.0161507
799.987	0.0164726
800.065	0.0162244
800.143	0.0163026
800.221	0.0164745
800.299	0.0164351
800.378	0.0163013
800.456	0.0164013
800.534	0.0164364
800.612	0.0164143
800.690	0.0164701
800.768	0.0165938
800.846	0.0164440
800.924	0.0165713
801.003	0.0165683
801.081	0.0164671
801.159	0.0165581
801.237	0.0165182
801.315	0.0164638
801.393	0.0165234
801.471	0.0165929
801.549	0.0165879
801.628	0.0166339
801.706	0.0166384
801.784	0.0164169
801.862	0.0165212
801.940	0.0164651
802.018	0.0164111
802.096	0.0164386
802.174	0.0163979
802.253	0.0162269
802.331	0.0163412
802.409	0.0163721
802.487	0.0161369
802.565	0.0163010
802.643	0.0162866
802.721	0.0163188
802.799	0.0163404
802.878	0.0162857
802.956	0.0164530
803.034	0.0162962
803.112	0.0164584
803.190	0.0164272
803.268	0.0163599
803.346	0.0163765
803.424	0.0163326
803.503	0.0163805
803.581	0.0163708
803.659	0.0164118
803.737	0.0162753
803.815	0.0163853
803.893	0.0163432
803.971	0.0162540
804.049	0.0164156
804.128	0.0162903
804.206	0.0161857
804.284	0.0161740
804.362	0.0162183
804.440	0.0161066
804.518	0.0163220
804.596	0.0161834
804.674	0.0160689
804.753	0.0161447
804.831	0.0160114
804.909	0.0159666
804.987	0.0161603
805.065	0.0161256
805.143	0.0160908
805.221	0.0160262
805.299	0.0160597
805.378	0.0160763
805.456	0.0161031
805.534	0.0161064
805.612	0.0161474
805.690	0.0162589
805.768	0.0162022
805.846	0.0163268
805.924	0.0162898
806.003	0.0163528
806.081	0.0163397
806.159	0.0163326
806.237	0.0164368
806.315	0.0164221
806.393	0.0165767
806.471	0.0164989
806.549	0.0163548
806.628	0.0165218
806.706	0.0164878
806.784	0.0164793
806.862	0.0163908
806.940	0.0164227
807.018	0.0165466
807.096	0.0165083
807.174	0.0165322
807.253	0.0165660
807.331	0.0164691
807.409	0.0162850
807.487	0.0164146
807.565	0.0163560
807.643	0.0164467
807.721	0.0164386
807.799	0.0162411
807.878	0.0162525
807.956	0.0162354
808.034	0.0163363
808.112	0.0161880
808.190	0.0161653
808.268	0.0162733
808.346	0.0162112
808.424	0.0161409
808.503	0.0162848
808.581	0.0162614
808.659	0.0162378
808.737	0.0163115
808.815	0.0162315
808.893	0.0163603
808.971	0.0164164
809.049	0.0163734
809.128	0.0165788
809.206	0.0164447
809.284	0.0164439
809.362	0.0164329
809.440	0.0164066
809.518	0.0164163
809.596	0.0165024
809.674	0.0164517
809.753	0.0164869
809.831	0.0165669
809.909	0.0164468
809.987	0.0164187
810.065	0.0164674
810.143	0.0165045
810.221	0.0165495
810.299	0.0165314
810.378	0.0164772
810.456	0.0165924
810.534	0.0165926
810.612	0.0164448
810.690	0.0164060
810.768	0.0164250
810.846	0.0163300
810.924	0.0162684
811.003	0.0164119
811.081	0.0162303
811.159	0.0161111
811.237	0.0162547
811.315	0.0161210
811.393	0.0161565
811.471	0.0160648
811.549	0.0161320
811.628	0.0159559
811.706	0.0161390
811.784	0.0160729
811.862	0.0162731
811.940	0.0162595
812.018	0.0162570
812.096	0.0162759
812.174	0.0162505
812.253	0.0165115
812.331	0.0164363
812.409	0.0166240
812.487	0.0163925
812.565	0.0164927
812.643	0.0165649
812.721	0.0164584
812.799	0.0164336
812.878	0.0165002
812.956	0.0163821
813.034	0.0162910
813.112	0.0162831
813.190	0.0163135
813.268	0.0160648
813.346	0.0161440
813.424	0.0161690
813.503	0.0161685
813.581	0.0160588
813.659	0.0160396
813.737	0.0161034
813.815	0.0160420
813.893	0.0161829
813.971	0.0161530
814.049	0.0160406
814.128	0.0162225
814.206	0.0161409
814.284	0.0162833
814.362	0.0162740
814.440	0.0163242
814.518	0.0163795
814.596	0.0163786
814.674	0.0163860
814.753	0.0164848
814.831	0.0165147
814.909	0.0164384
814.987	0.0165327
815.065	0.0164202
815.143	0.0164989
815.221	0.0165344
815.299	0.0164928
815.378	0.0165840
815.456	0.0165865
815.534	0.0166717
815.612	0.0165226
815.690	0.0166631
815.768	0.0165896
815.846	0.0165314
815.924	0.0164458
816.003	0.0165893
816.081	0.0164606
816.159	0.0166335
816.237	0.0164636
816.315	0.0164134
816.393	0.0164896
816.471	0.0163479
816.549	0.0164914
816.628	0.0163216
816.706	0.0162725
816.784	0.0161806
816.862	0.0162586
816.940	0.0162247
817.018	0.0161961
817.096	0.0163152
817.174	0.0163144
817.253	0.0162964
817.331	0.0163332
817.409	0.0163079
817.487	0.0161782
817.565	0.0163611
817.643	0.0164691
817.721	0.0165275
817.799	0.0166381
817.878	0.0165098
817.956	0.0166082
818.034	0.0165612
818.112	0.0165286
818.190	0.0166827
818.268	0.0166917
818.346	0.0166810
818.424	0.0166799
818.503	0.0167358
818.581	0.0167913
818.659	0.0169534
818.737	0.0168277
818.815	0.0167076
818.893	0.0167352
818.971	0.0168298
819.049	0.0167511
819.128	0.0167467
819.206	0.0168064
819.284	0.0167514
819.362	0.0166775
819.440	0.0166691
819.518	0.0165810
819.596	0.0165836
819.674	0.0164513
819.753	0.0163493
819.831	0.0163086
819.909	0.0163428
819.987	0.0164197
820.065	0.0159789
820.143	0.0162838
820.221	0.0162999
820.299	0.0162970
820.378	0.0162877
820.456	0.0162227
820.534	0.0161035
820.612	0.0164114
820.690	0.0161703
820.768	0.0160641
820.846	0.0161922
820.924	0.0162846
821.003	0.0161102
821.081	0.0160535
821.159	0.0161292
821.237	0.0162421
821.315	0.0161293
821.393	0.0161310
821.471	0.0162251
821.549	0.0160777
821.628	0.0161628
821.706	0.0163575
821.784	0.0162421
821.862	0.0162477
821.940	0.0163294
822.018	0.0163210
822.096	0.0163015
822.174	0.0164417
822.253	0.0164828
822.331	0.0164374
822.409	0.0163828
822.487	0.0162515
822.565	0.0162112
822.643	0.0164958
822.721	0.0162248
822.799	0.0163392
822.878	0.0163769
822.956	0.0163509
823.034	0.0164263
823.112	0.0163354
823.190	0.0162885
823.268	0.0165025
823.346	0.0164182
823.424	0.0164050
823.503	0.0162852
823.581	0.0163566
823.659	0.0166243
823.737	0.0164254
823.815	0.0164145
823.893	0.0164480
823.971	0.0162644
824.049	0.0164452
824.128	0.0164243
824.206	0.0163201
824.284	0.0164805
824.362	0.0163894
824.440	0.0164930
824.518	0.0163852
824.596	0.0164754
824.674	0.0163571
824.753	0.0163029
824.831	0.0163123
824.909	0.0163335
824.987	0.0162788
825.065	0.0162025
825.143	0.0162613
825.221	0.0162099
825.299	0.0161732
825.378	0.0162875
825.456	0.0161526
825.534	0.0162302
825.612	0.0161744
825.690	0.0161929
825.768	0.0161009
825.846	0.0161491
825.924	0.0161861
826.003	0.0160711
826.081	0.0161108
826.159	0.0161394
826.237	0.0161642
826.315	0.0161848
826.393	0.0162877
826.471	0.0163186
826.549	0.0164300
826.628	0.0162464
826.706	0.0164780
826.784	0.0165785
826.862	0.0164120
826.940	0.0164152
827.018	0.0165331
827.096	0.0165606
827.174	0.0165830
827.253	0.0165788
827.331	0.0164693
827.409	0.0164635
827.487	0.0165852
827.565	0.0165442
827.643	0.0165173
827.721	0.0165324
827.799	0.0164598
827.878	0.0165641
827.956	0.0166364
828.034	0.0166003
828.112	0.0164924
828.190	0.0164153
828.268	0.0165062
828.346	0.0163661
828.424	0.0163020
828.503	0.0164206
828.581	0.0163477
828.659	0.0162869
828.737	0.0162102
828.815	0.0162183
828.893	0.0161143
828.971	0.0161201
829.049	0.0159973
829.128	0.0159512
829.206	0.0158999
829.284	0.0159326
829.362	0.0159226
829.440	0.0159121
829.518	0.0158858
829.596	0.0158501
829.674	0.0159338
829.753	0.0159523
829.831	0.0159644
829.909	0.0159330
829.987	0.0161234
830.065	0.0160074
830.143	0.0162241
830.221	0.0161283
830.299	0.0162425
830.378	0.0162192
830.456	0.0163292
830.534	0.0163303
830.612	0.0163778
830.690	0.0163538
830.768	0.0164949
830.846	0.0165783
830.924	0.0164758
831.003	0.0163045
831.081	0.0164360
831.159	0.0166149
831.237	0.0165988
831.315	0.0164491
831.393	0.0164569
831.471	0.0165267
831.549	0.0164378
831.628	0.0165602
831.706	0.0164156
831.784	0.0164636
831.862	0.0163663
831.940	0.0165502
832.018	0.0165170
832.096	0.0163203
832.174	0.0162126
832.253	0.0162365
832.331	0.0162826
832.409	0.0162503
832.487	0.0161231
832.565	0.0161622
832.643	0.0161912
832.721	0.0162703
832.799	0.0162283
832.878	0.0161220
832.956	0.0161487
833.034	0.0161871
833.112	0.0161768
833.190	0.0162003
833.268	0.0161814
833.346	0.0161304
833.424	0.0160338
833.503	0.0161276
833.581	0.0161750
833.659	0.0160331
833.737	0.0159584
833.815	0.0160378
833.893	0.0161333
833.971	0.0160128
834.049	0.0160051
834.128	0.0159953
834.206	0.0159351
834.284	0.0157814
834.362	0.0159803
834.440	0.0159792
834.518	0.0159264
834.596	0.0159270
834.674	0.0159246
834.753	0.0160233
834.831	0.0158964
834.909	0.0160172
834.987	0.0159490
835.065	0.0159967
835.143	0.0158861
835.221	0.0160866
835.299	0.0160789
835.378	0.0161015
835.456	0.0162336
835.534	0.0163612
835.612	0.0163783
835.690	0.0162684
835.768	0.0163642
835.846	0.0164750
835.924	0.0164742
836.003	0.0165976
836.081	0.0166959
836.159	0.0166470
836.237	0.0166751
836.315	0.0166280
836.393	0.0166408
836.471	0.0167191
836.549	0.0167136
836.628	0.0165763
836.706	0.0166213
836.784	0.0167304
836.862	0.0165538
836.940	0.0166469
837.018	0.0164310
837.096	0.0164978
837.174	0.0165504
837.253	0.0165517
837.331	0.0164292
837.409	0.0163768
837.487	0.0163528
837.565	0.0165079
837.643	0.0164751
837.721	0.0164248
837.799	0.0163958
837.878	0.0165967
837.956	0.0165871
838.034	0.0164636
838.112	0.0164381
838.190	0.0164642
838.268	0.0164402
838.346	0.0166047
838.424	0.0165807
838.503	0.0163705
838.581	0.0163145
838.659	0.0163867
838.737	0.0164048
838.815	0.0163810
838.893	0.0163855
838.971	0.0163660
839.049	0.0164211
839.128	0.0164233
839.206	0.0164883
839.284	0.0163691
839.362	0.0163840
839.440	0.0165126
839.518	0.0165002
839.596	0.0162902
839.674	0.0164737
839.753	0.0164320
839.831	0.0164133
839.909	0.0164102
839.987	0.0164427
840.065	0.0166251
840.143	0.0164980
840.221	0.0165816
840.299	0.0165520
840.378	0.0166560
840.456	0.0165827
840.534	0.0165500
840.612	0.0165755
840.690	0.0165103
840.768	0.0163277
840.846	0.0164544
840.924	0.0165485
841.003	0.0164142
841.081	0.0162872
841.159	0.0164108
841.237	0.0163676
841.315	0.0163754
841.393	0.0163368
841.471	0.0163838
841.549	0.0163644
841.628	0.0162426
841.706	0.0162055
841.784	0.0163530
841.862	0.0163955
841.940	0.0162034
842.018	0.0161361
842.096	0.0161015
842.174	0.0160530
842.253	0.0162519
842.331	0.0160328
842.409	0.0160293
842.487	0.0161482
842.565	0.0161011
842.643	0.0159747
842.721	0.0160590
842.799	0.0160355
842.878	0.0162336
842.956	0.0160337
843.034	0.0160281
843.112	0.0162448
843.190	0.0162514
843.268	0.0162592
843.346	0.0163177
843.424	0.0161890
843.503	0.0162784
843.581	0.0163905
843.659	0.0164522
843.737	0.0163239
843.815	0.0163906
843.893	0.0164108
843.971	0.0164870
844.049	0.0164086
844.128	0.0165064
844.206	0.0166039
844.284	0.0164455
844.362	0.0165228
844.440	0.0164729
844.518	0.0163158
844.596	0.0163760
844.674	0.0165497
844.753	0.0163763
844.831	0.0163336
844.909	0.0163972
844.987	0.0163055
845.065	0.0163088
845.143	0.0161462
845.221	0.0161916
845.299	0.0163022
845.378	0.0162097
845.456	0.0162823
845.534	0.0162403
845.612	0.0161783
845.690	0.0160616
845.768	0.0160938
845.846	0.0160692
845.924	0.0159819
846.003	0.0159703
846.081	0.0159945
846.159	0.0161528
846.237	0.0161418
846.315	0.0159820
846.393	0.0159032
846.471	0.0160635
846.549	0.0159669
846.628	0.0159202
846.706	0.0161053
846.784	0.0160323
846.862	0.0159361
846.940	0.0159226
847.018	0.0159546
847.096	0.0157995
847.174	0.0159949
847.253	0.0161123
847.331	0.0159923
847.409	0.0159049
847.487	0.0161017
847.565	0.0160480
847.643	0.0160050
847.721	0.0159461
847.799	0.0160928
847.878	0.0160228
847.956	0.0159512
848.034	0.0160238
848.112	0.0160120
848.190	0.0161085
848.268	0.0160143
848.346	0.0159222
848.424	0.0162907
848.503	0.0162415
848.581	0.0163066
848.659	0.0163275
848.737	0.0163524
848.815	0.0164455
848.893	0.0163914
848.971	0.0165135
849.049	0.0165446
849.128	0.0166129
849.206	0.0165421
849.284	0.0165681
849.362	0.0165221
849.440	0.0165801
849.518	0.0165779
849.596	0.0165620
849.674	0.0165043
849.753	0.0165611
849.831	0.0165900
849.909	0.0165242
849.987	0.0163477
850.065	0.0163805
850.143	0.0163172
850.221	0.0164105
850.299	0.0164173
850.378	0.0162153
850.456	0.0161864
850.534	0.0162415
850.612	0.0162850
850.690	0.0162348
850.768	0.0162747
850.846	0.0160912
850.924	0.0161755
851.003	0.0162015
851.081	0.0161162
851.159	0.0162475
851.237	0.0162298
851.315	0.0162169
851.393	0.0162309
851.471	0.0162863
851.549	0.0164297
851.628	0.0163204
851.706	0.0162382
851.784	0.0162403
851.862	0.0160519
851.940	0.0161852
852.018	0.0162876
852.096	0.0162666
852.174	0.0162959
852.253	0.0162929
852.331	0.0161210
852.409	0.0162093
852.487	0.0162656
852.565	0.0161819
852.643	0.0161217
852.721	0.0162426
852.799	0.0160633
852.878	0.0162203
852.956	0.0162373
853.034	0.0162154
853.112	0.0161995
853.190	0.0162360
853.268	0.0163570
853.346	0.0161703
853.424	0.0161646
853.503	0.0162039
853.581	0.0162215
853.659	0.0161997
853.737	0.0163062
853.815	0.0162860
853.893	0.0161958
853.971	0.0162566
854.049	0.0164114
854.128	0.0163836
854.206	0.0163819
854.284	0.0163342
854.362	0.0164634
854.440	0.0163285
854.518	0.0163160
854.596	0.0164624
854.674	0.0163240
854.753	0.0162648
854.831	0.0162113
854.909	0.0162840
854.987	0.0162290
855.065	0.0162545
855.143	0.0162804
855.221	0.0161809
855.299	0.0162424
855.378	0.0161707
855.456	0.0162169
855.534	0.0161448
855.612	0.0160617
855.690	0.0160716
855.768	0.0159461
855.846	0.0160519
855.924	0.0160391
856.003	0.0161297
856.081	0.0161713
856.159	0.0159807
856.237	0.0159853
856.315	0.0161396
856.393	0.0159502
856.471	0.0160362
856.549	0.0159852
856.628	0.0161197
856.706	0.0161958
856.784	0.0160891
856.862	0.0160978
856.940	0.0161301
857.018	0.0162875
857.096	0.0161647
857.174	0.0161144
857.253	0.0161477
857.331	0.0163246
857.409	0.0161929
857.487	0.0162323
857.565	0.0163152
857.643	0.0164144
857.721	0.0164631
857.799	0.0163768
857.878	0.0163063
857.956	0.0164526
858.034	0.0165823
858.112	0.0165902
858.190	0.0164801
858.268	0.0164513
858.346	0.0164858
858.424	0.0164424
858.503	0.0164248
858.581	0.0165605
858.659	0.0164585
858.737	0.0165308
858.815	0.0164440
858.893	0.0164606
858.971	0.0164766
859.049	0.0165355
859.128	0.0163384
859.206	0.0163566
859.284	0.0164635
859.362	0.0162260
859.440	0.0163215
859.518	0.0163928
859.596	0.0162823
859.674	0.0162226
859.753	0.0161948
859.831	0.0161811
859.909	0.0162122
