05/24/2022	20:38:31	Ver.	4.1	UNKNOWN
Optical Delay	599.988409	Delta X		0.078125	Sweeps	1	Scan Rate	0/0
Coordinates	Axis 1	NaN	Axis 2	NaN	Axis 3	NaN	Axis 4	NaN	Axis 5	NaN	Axis 6	0.000000
TX Power	0.000000	RX Power	0.000000

599.988	0.0164742
600.067	0.0163877
600.145	0.0164162
600.223	0.0163438
600.301	0.0162918
600.379	0.0162929
600.457	0.0163043
600.535	0.0163037
600.613	0.0162495
600.692	0.0162615
600.770	0.0162924
600.848	0.0162364
600.926	0.0164019
601.004	0.0162887
601.082	0.0161918
601.160	0.0162580
601.238	0.0161977
601.317	0.0160717
601.395	0.0162399
601.473	0.0161855
601.551	0.0161526
601.629	0.0160688
601.707	0.0161711
601.785	0.0162127
601.863	0.0162486
601.942	0.0161672
602.020	0.0162446
602.098	0.0163798
602.176	0.0163964
602.254	0.0163280
602.332	0.0162425
602.410	0.0163046
602.488	0.0162524
602.567	0.0162505
602.645	0.0163541
602.723	0.0163256
602.801	0.0162988
602.879	0.0162034
602.957	0.0162867
603.035	0.0163120
603.113	0.0164201
603.192	0.0163841
603.270	0.0163632
603.348	0.0162123
603.426	0.0163357
603.504	0.0163858
603.582	0.0163014
603.660	0.0162302
603.738	0.0163840
603.817	0.0162720
603.895	0.0162179
603.973	0.0162739
604.051	0.0162157
604.129	0.0161696
604.207	0.0162035
604.285	0.0161760
604.363	0.0161259
604.442	0.0161783
604.520	0.0163266
604.598	0.0162844
604.676	0.0161851
604.754	0.0164252
604.832	0.0163071
604.910	0.0163944
604.988	0.0164481
605.067	0.0163797
605.145	0.0164040
605.223	0.0163758
605.301	0.0163559
605.379	0.0164417
605.457	0.0165092
605.535	0.0164659
605.613	0.0164864
605.692	0.0163048
605.770	0.0163615
605.848	0.0164526
605.926	0.0164236
606.004	0.0165238
606.082	0.0161968
606.160	0.0161979
606.238	0.0164587
606.317	0.0161803
606.395	0.0161947
606.473	0.0162416
606.551	0.0163020
606.629	0.0162627
606.707	0.0161558
606.785	0.0161565
606.863	0.0162080
606.942	0.0163448
607.020	0.0165504
607.098	0.0164122
607.176	0.0162645
607.254	0.0165127
607.332	0.0164516
607.410	0.0164832
607.488	0.0163680
607.567	0.0164515
607.645	0.0164818
607.723	0.0163960
607.801	0.0165241
607.879	0.0163012
607.957	0.0161555
608.035	0.0164204
608.113	0.0163534
608.192	0.0162084
608.270	0.0162010
608.348	0.0162356
608.426	0.0163126
608.504	0.0162733
608.582	0.0162666
608.660	0.0162997
608.738	0.0163864
608.817	0.0163273
608.895	0.0162528
608.973	0.0163712
609.051	0.0161863
609.129	0.0162503
609.207	0.0163985
609.285	0.0163436
609.363	0.0164989
609.442	0.0163881
609.520	0.0164485
609.598	0.0163380
609.676	0.0164137
609.754	0.0164352
609.832	0.0164702
609.910	0.0164137
609.988	0.0162885
610.067	0.0164791
610.145	0.0163622
610.223	0.0163494
610.301	0.0162793
610.379	0.0163010
610.457	0.0161926
610.535	0.0162599
610.613	0.0162646
610.692	0.0161887
610.770	0.0160152
610.848	0.0161417
610.926	0.0162498
611.004	0.0160873
611.082	0.0161894
611.160	0.0163179
611.238	0.0161406
611.317	0.0163407
611.395	0.0162866
611.473	0.0163515
611.551	0.0164067
611.629	0.0163200
611.707	0.0163454
611.785	0.0163856
611.863	0.0165646
611.942	0.0164677
612.020	0.0163774
612.098	0.0162764
612.176	0.0163688
612.254	0.0162991
612.332	0.0164462
612.410	0.0164315
612.488	0.0162302
612.567	0.0162609
612.645	0.0163825
612.723	0.0163538
612.801	0.0162128
612.879	0.0163167
612.957	0.0163657
613.035	0.0163503
613.113	0.0162794
613.192	0.0163605
613.270	0.0164371
613.348	0.0164366
613.426	0.0162961
613.504	0.0163634
613.582	0.0163892
613.660	0.0163555
613.738	0.0163575
613.817	0.0162634
613.895	0.0162680
613.973	0.0163358
614.051	0.0163491
614.129	0.0162950
614.207	0.0163286
614.285	0.0162563
614.363	0.0163275
614.442	0.0162437
614.520	0.0162950
614.598	0.0163548
614.676	0.0163351
614.754	0.0163720
614.832	0.0165788
614.910	0.0163410
614.988	0.0163863
615.067	0.0164333
615.145	0.0164332
615.223	0.0165790
615.301	0.0164958
615.379	0.0165756
615.457	0.0164995
615.535	0.0165714
615.613	0.0166060
615.692	0.0165547
615.770	0.0166206
615.848	0.0164574
615.926	0.0164034
616.004	0.0165771
616.082	0.0165868
616.160	0.0165053
616.238	0.0165417
616.317	0.0164868
616.395	0.0165479
616.473	0.0165892
616.551	0.0165943
616.629	0.0166119
616.707	0.0164452
616.785	0.0165489
616.863	0.0166937
616.942	0.0166320
617.020	0.0164570
617.098	0.0167188
617.176	0.0167211
617.254	0.0167603
617.332	0.0166148
617.410	0.0166987
617.488	0.0166463
617.567	0.0167467
617.645	0.0167886
617.723	0.0167896
617.801	0.0166243
617.879	0.0166878
617.957	0.0165755
618.035	0.0164931
618.113	0.0166798
618.192	0.0166124
618.270	0.0165406
618.348	0.0166661
618.426	0.0167013
618.504	0.0166285
618.582	0.0165595
618.660	0.0165778
618.738	0.0165927
618.817	0.0165408
618.895	0.0164641
618.973	0.0163760
619.051	0.0165458
619.129	0.0165279
619.207	0.0164272
619.285	0.0166123
619.363	0.0167020
619.442	0.0163827
619.520	0.0164784
619.598	0.0167609
619.676	0.0167088
619.754	0.0166656
619.832	0.0165434
619.910	0.0165347
619.988	0.0166850
620.067	0.0166483
620.145	0.0164946
620.223	0.0164816
620.301	0.0164487
620.379	0.0164568
620.457	0.0165260
620.535	0.0164532
620.613	0.0164088
620.692	0.0162809
620.770	0.0164928
620.848	0.0164606
620.926	0.0164494
621.004	0.0164944
621.082	0.0164777
621.160	0.0164307
621.238	0.0163657
621.317	0.0165405
621.395	0.0165398
621.473	0.0164761
621.551	0.0164713
621.629	0.0164892
621.707	0.0164762
621.785	0.0165382
621.863	0.0165238
621.942	0.0164405
622.020	0.0165543
622.098	0.0164999
622.176	0.0165562
622.254	0.0164784
622.332	0.0164740
622.410	0.0164523
622.488	0.0165458
622.567	0.0165799
622.645	0.0165034
622.723	0.0164664
622.801	0.0164558
622.879	0.0164503
622.957	0.0163800
623.035	0.0164426
623.113	0.0165280
623.192	0.0164634
623.270	0.0161736
623.348	0.0163512
623.426	0.0163531
623.504	0.0162351
623.582	0.0163035
623.660	0.0162089
623.738	0.0163489
623.817	0.0163573
623.895	0.0162763
623.973	0.0163279
624.051	0.0161824
624.129	0.0162872
624.207	0.0162365
624.285	0.0163617
624.363	0.0163754
624.442	0.0163361
624.520	0.0162929
624.598	0.0162962
624.676	0.0165170
624.754	0.0164390
624.832	0.0163151
624.910	0.0162196
624.988	0.0164086
625.067	0.0163508
625.145	0.0162220
625.223	0.0162191
625.301	0.0162943
625.379	0.0162244
625.457	0.0163008
625.535	0.0164447
625.613	0.0163482
625.692	0.0162930
625.770	0.0162758
625.848	0.0163547
625.926	0.0164322
626.004	0.0164275
626.082	0.0162262
626.160	0.0162604
626.238	0.0163065
626.317	0.0162378
626.395	0.0162968
626.473	0.0163123
626.551	0.0161585
626.629	0.0163199
626.707	0.0164152
626.785	0.0161760
626.863	0.0162398
626.942	0.0163051
627.020	0.0164507
627.098	0.0164098
627.176	0.0163240
627.254	0.0163499
627.332	0.0163503
627.410	0.0163561
627.488	0.0164510
627.567	0.0163924
627.645	0.0162492
627.723	0.0162801
627.801	0.0165060
627.879	0.0161523
627.957	0.0163121
628.035	0.0163377
628.113	0.0162146
628.192	0.0163380
628.270	0.0163488
628.348	0.0162644
628.426	0.0162633
628.504	0.0163300
628.582	0.0162286
628.660	0.0162823
628.738	0.0163109
628.817	0.0163770
628.895	0.0163882
628.973	0.0162666
629.051	0.0163660
629.129	0.0163699
629.207	0.0164522
629.285	0.0164165
629.363	0.0163952
629.442	0.0163609
629.520	0.0163529
629.598	0.0163874
629.676	0.0163353
629.754	0.0163940
629.832	0.0165077
629.910	0.0164933
629.988	0.0165419
630.067	0.0163808
630.145	0.0166049
630.223	0.0168147
630.301	0.0167564
630.379	0.0166190
630.457	0.0168172
630.535	0.0168711
630.613	0.0168890
630.692	0.0167281
630.770	0.0167361
630.848	0.0166195
630.926	0.0167143
631.004	0.0167995
631.082	0.0164890
631.160	0.0166581
631.238	0.0167445
631.317	0.0166052
631.395	0.0167271
631.473	0.0165668
631.551	0.0166451
631.629	0.0166566
631.707	0.0166234
631.785	0.0166417
631.863	0.0167004
631.942	0.0164333
632.020	0.0166376
632.098	0.0165345
632.176	0.0164452
632.254	0.0162866
632.332	0.0163469
632.410	0.0161195
632.488	0.0161189
632.567	0.0160928
632.645	0.0160166
632.723	0.0160413
632.801	0.0160542
632.879	0.0159424
632.957	0.0160211
633.035	0.0160896
633.113	0.0161140
633.192	0.0161803
633.270	0.0161555
633.348	0.0162418
633.426	0.0164610
633.504	0.0164616
633.582	0.0163605
633.660	0.0164298
633.738	0.0165475
633.817	0.0167470
633.895	0.0166733
633.973	0.0166721
634.051	0.0165498
634.129	0.0166709
634.207	0.0165811
634.285	0.0165900
634.363	0.0165863
634.442	0.0165413
634.520	0.0164309
634.598	0.0161291
634.676	0.0161645
634.754	0.0160086
634.832	0.0158910
634.910	0.0158073
634.988	0.0157854
635.067	0.0156811
635.145	0.0157101
635.223	0.0155142
635.301	0.0153506
635.379	0.0154553
635.457	0.0155217
635.535	0.0155781
635.613	0.0154654
635.692	0.0155482
635.770	0.0157302
635.848	0.0157682
635.926	0.0159966
636.004	0.0160221
636.082	0.0160304
636.160	0.0162157
636.238	0.0165076
636.317	0.0167213
636.395	0.0167304
636.473	0.0171322
636.551	0.0173983
636.629	0.0174065
636.707	0.0176501
636.785	0.0177717
636.863	0.0180045
636.942	0.0180486
637.020	0.0182512
637.098	0.0182905
637.176	0.0182086
637.254	0.0182585
637.332	0.0182333
637.410	0.0181684
637.488	0.0181358
637.567	0.0179606
637.645	0.0176904
637.723	0.0174962
637.801	0.0174129
637.879	0.0170741
637.957	0.0169036
638.035	0.0166733
638.113	0.0163265
638.192	0.0161324
638.270	0.0157514
638.348	0.0156656
638.426	0.0153979
638.504	0.0150440
638.582	0.0149220
638.660	0.0147762
638.738	0.0145273
638.817	0.0143835
638.895	0.0145113
638.973	0.0144786
639.051	0.0143441
639.129	0.0145265
639.207	0.0145922
639.285	0.0148679
639.363	0.0150168
639.442	0.0152544
639.520	0.0155477
639.598	0.0157642
639.676	0.0162705
639.754	0.0165186
639.832	0.0166891
639.910	0.0171864
639.988	0.0176954
640.067	0.0178721
640.145	0.0182149
640.223	0.0185539
640.301	0.0188651
640.379	0.0190665
640.457	0.0192743
640.535	0.0192596
640.613	0.0192411
640.692	0.0192628
640.770	0.0192436
640.848	0.0188099
640.926	0.0187105
641.004	0.0184519
641.082	0.0180334
641.160	0.0175069
641.238	0.0170448
641.317	0.0166759
641.395	0.0161267
641.473	0.0156104
641.551	0.0152588
641.629	0.0148496
641.707	0.0143913
641.785	0.0140176
641.863	0.0138669
641.942	0.0137374
642.020	0.0133379
642.098	0.0132508
642.176	0.0132333
642.254	0.0134383
642.332	0.0134217
642.410	0.0134843
642.488	0.0136961
642.567	0.0139090
642.645	0.0141825
642.723	0.0144712
642.801	0.0148219
642.879	0.0153154
642.957	0.0157011
643.035	0.0160123
643.113	0.0167729
643.192	0.0171640
643.270	0.0176408
643.348	0.0178739
643.426	0.0183418
643.504	0.0186200
643.582	0.0188826
643.660	0.0191293
643.738	0.0192137
643.817	0.0193182
643.895	0.0192661
643.973	0.0193738
644.051	0.0193385
644.129	0.0190179
644.207	0.0187801
644.285	0.0185192
644.363	0.0183919
644.442	0.0182178
644.520	0.0176561
644.598	0.0175677
644.676	0.0171426
644.754	0.0169096
644.832	0.0167063
644.910	0.0163579
644.988	0.0160124
645.067	0.0157458
645.145	0.0156931
645.223	0.0153078
645.301	0.0151015
645.379	0.0149459
645.457	0.0148756
645.535	0.0147926
645.613	0.0147160
645.692	0.0147530
645.770	0.0148243
645.848	0.0147740
645.926	0.0150277
646.004	0.0149432
646.082	0.0151580
646.160	0.0153029
646.238	0.0152862
646.317	0.0155891
646.395	0.0156838
646.473	0.0157410
646.551	0.0159259
646.629	0.0159731
646.707	0.0160758
646.785	0.0162762
646.863	0.0163321
646.942	0.0163583
647.020	0.0162974
647.098	0.0163472
647.176	0.0167023
647.254	0.0166332
647.332	0.0164848
647.410	0.0166946
647.488	0.0167580
647.567	0.0166542
647.645	0.0168317
647.723	0.0167538
647.801	0.0166854
647.879	0.0166248
647.957	0.0167358
648.035	0.0168209
648.113	0.0168488
648.192	0.0169827
648.270	0.0170728
648.348	0.0170626
648.426	0.0171574
648.504	0.0172498
648.582	0.0171327
648.660	0.0173701
648.738	0.0173243
648.817	0.0175995
648.895	0.0176331
648.973	0.0175793
649.051	0.0176897
649.129	0.0176984
649.207	0.0178608
649.285	0.0178880
649.363	0.0178207
649.442	0.0177322
649.520	0.0177171
649.598	0.0176917
649.676	0.0175753
649.754	0.0172719
649.832	0.0171891
649.910	0.0170836
649.988	0.0166888
650.067	0.0165824
650.145	0.0162283
650.223	0.0160966
650.301	0.0158331
650.379	0.0157375
650.457	0.0153850
650.535	0.0150783
650.613	0.0149629
650.692	0.0146785
650.770	0.0146104
650.848	0.0145366
650.926	0.0144695
651.004	0.0144160
651.082	0.0143305
651.160	0.0144761
651.238	0.0147851
651.317	0.0149789
651.395	0.0151023
651.473	0.0154065
651.551	0.0158286
651.629	0.0161324
651.707	0.0165257
651.785	0.0168967
651.863	0.0171890
651.942	0.0175628
652.020	0.0177304
652.098	0.0178636
652.176	0.0180431
652.254	0.0181519
652.332	0.0184162
652.410	0.0184689
652.488	0.0185885
652.567	0.0187421
652.645	0.0186832
652.723	0.0187263
652.801	0.0186038
652.879	0.0185609
652.957	0.0183614
653.035	0.0179629
653.113	0.0177436
653.192	0.0174471
653.270	0.0172279
653.348	0.0168748
653.426	0.0164809
653.504	0.0162762
653.582	0.0158631
653.660	0.0155846
653.738	0.0155094
653.817	0.0152457
653.895	0.0149292
653.973	0.0148824
654.051	0.0147518
654.129	0.0146352
654.207	0.0147002
654.285	0.0147029
654.363	0.0149239
654.442	0.0150049
654.520	0.0151257
654.598	0.0152326
654.676	0.0155753
654.754	0.0158139
654.832	0.0160080
654.910	0.0163226
654.988	0.0165561
655.067	0.0167574
655.145	0.0170623
655.223	0.0171001
655.301	0.0172929
655.379	0.0175099
655.457	0.0174874
655.535	0.0175585
655.613	0.0174905
655.692	0.0175573
655.770	0.0175988
655.848	0.0176207
655.926	0.0175698
656.004	0.0176874
656.082	0.0175850
656.160	0.0174852
656.238	0.0174421
656.317	0.0173212
656.395	0.0172924
656.473	0.0173099
656.551	0.0171893
656.629	0.0171288
656.707	0.0170546
656.785	0.0170668
656.863	0.0169751
656.942	0.0168142
657.020	0.0166507
657.098	0.0165949
657.176	0.0164417
657.254	0.0163006
657.332	0.0162624
657.410	0.0162100
657.488	0.0159863
657.567	0.0157755
657.645	0.0157909
657.723	0.0156921
657.801	0.0156480
657.879	0.0156181
657.957	0.0155109
658.035	0.0156860
658.113	0.0157220
658.192	0.0157383
658.270	0.0158411
658.348	0.0161108
658.426	0.0159692
658.504	0.0162092
658.582	0.0161965
658.660	0.0161913
658.738	0.0163868
658.817	0.0161593
658.895	0.0163453
658.973	0.0163319
659.051	0.0161858
659.129	0.0162762
659.207	0.0161176
659.285	0.0160638
659.363	0.0159864
659.442	0.0159948
659.520	0.0158784
659.598	0.0158556
659.676	0.0157341
659.754	0.0156618
659.832	0.0157097
659.910	0.0156157
659.988	0.0156403
660.067	0.0156364
660.145	0.0156944
660.223	0.0159000
660.301	0.0159955
660.379	0.0162328
660.457	0.0163364
660.535	0.0165930
660.613	0.0166856
660.692	0.0169240
660.770	0.0171671
660.848	0.0175639
660.926	0.0177925
661.004	0.0178354
661.082	0.0181879
661.160	0.0182720
661.238	0.0182752
661.317	0.0184084
661.395	0.0183720
661.473	0.0184065
661.551	0.0183921
661.629	0.0183598
661.707	0.0182977
661.785	0.0183401
661.863	0.0181207
661.942	0.0179780
662.020	0.0178488
662.098	0.0175587
662.176	0.0173359
662.254	0.0170746
662.332	0.0168075
662.410	0.0165290
662.488	0.0163029
662.567	0.0160247
662.645	0.0159525
662.723	0.0156127
662.801	0.0152751
662.879	0.0152524
662.957	0.0149123
663.035	0.0149240
663.113	0.0147783
663.192	0.0146458
663.270	0.0146481
663.348	0.0144285
663.426	0.0144832
663.504	0.0145592
663.582	0.0147633
663.660	0.0146377
663.738	0.0148170
663.817	0.0149987
663.895	0.0150624
663.973	0.0149891
664.051	0.0149712
664.129	0.0151172
664.207	0.0151244
664.285	0.0150212
664.363	0.0150072
664.442	0.0150466
664.520	0.0150344
664.598	0.0150359
664.676	0.0151500
664.754	0.0152539
664.832	0.0153970
664.910	0.0155507
664.988	0.0157135
665.067	0.0158042
665.145	0.0162186
665.223	0.0163628
665.301	0.0165826
665.379	0.0167016
665.457	0.0167831
665.535	0.0168967
665.613	0.0172877
665.692	0.0173526
665.770	0.0174855
665.848	0.0176295
665.926	0.0178835
666.004	0.0180058
666.082	0.0182346
666.160	0.0185365
666.238	0.0186452
666.317	0.0188960
666.395	0.0190197
666.473	0.0191924
666.551	0.0191938
666.629	0.0194611
666.707	0.0194504
666.785	0.0193522
666.863	0.0195127
666.942	0.0193531
667.020	0.0194164
667.098	0.0190838
667.176	0.0191310
667.254	0.0189007
667.332	0.0184853
667.410	0.0182864
667.488	0.0179762
667.567	0.0178273
667.645	0.0173663
667.723	0.0171807
667.801	0.0166338
667.879	0.0159946
667.957	0.0157250
668.035	0.0153210
668.113	0.0147668
668.192	0.0143066
668.270	0.0138588
668.348	0.0133521
668.426	0.0132206
668.504	0.0129048
668.582	0.0125826
668.660	0.0124635
668.738	0.0123301
668.817	0.0123447
668.895	0.0123923
668.973	0.0124400
669.051	0.0126627
669.129	0.0127652
669.207	0.0130907
669.285	0.0134097
669.363	0.0137650
669.442	0.0142409
669.520	0.0146678
669.598	0.0150507
669.676	0.0155050
669.754	0.0162849
669.832	0.0166893
669.910	0.0170622
669.988	0.0175175
670.067	0.0179404
670.145	0.0183047
670.223	0.0185768
670.301	0.0186971
670.379	0.0187786
670.457	0.0189073
670.535	0.0190479
670.613	0.0189919
670.692	0.0189684
670.770	0.0186890
670.848	0.0186822
670.926	0.0186651
671.004	0.0184940
671.082	0.0183237
671.160	0.0180044
671.238	0.0179995
671.317	0.0178721
671.395	0.0175856
671.473	0.0174954
671.551	0.0172753
671.629	0.0172356
671.707	0.0170482
671.785	0.0169588
671.863	0.0168307
671.942	0.0166492
672.020	0.0165215
672.098	0.0165066
672.176	0.0165277
672.254	0.0165495
672.332	0.0165421
672.410	0.0165961
672.488	0.0166046
672.567	0.0166539
672.645	0.0166527
672.723	0.0167388
672.801	0.0167530
672.879	0.0168520
672.957	0.0169342
673.035	0.0170188
673.113	0.0169437
673.192	0.0169892
673.270	0.0170395
673.348	0.0170877
673.426	0.0169714
673.504	0.0168695
673.582	0.0167657
673.660	0.0166991
673.738	0.0164252
673.817	0.0164229
673.895	0.0163310
673.973	0.0162569
674.051	0.0161494
674.129	0.0158987
674.207	0.0157405
674.285	0.0156976
674.363	0.0155565
674.442	0.0154591
674.520	0.0153534
674.598	0.0152831
674.676	0.0150604
674.754	0.0150684
674.832	0.0149525
674.910	0.0150063
674.988	0.0148672
675.067	0.0147023
675.145	0.0147916
675.223	0.0147316
675.301	0.0147797
675.379	0.0149035
675.457	0.0149454
675.535	0.0152438
675.613	0.0155093
675.692	0.0157347
675.770	0.0160369
675.848	0.0162306
675.926	0.0164957
676.004	0.0167136
676.082	0.0171369
676.160	0.0172973
676.238	0.0174644
676.317	0.0178341
676.395	0.0179300
676.473	0.0182033
676.551	0.0182693
676.629	0.0181441
676.707	0.0180585
676.785	0.0181245
676.863	0.0181337
676.942	0.0180577
677.020	0.0179344
677.098	0.0177306
677.176	0.0175466
677.254	0.0174301
677.332	0.0171345
677.410	0.0170730
677.488	0.0170795
677.567	0.0168285
677.645	0.0169485
677.723	0.0168764
677.801	0.0167934
677.879	0.0166452
677.957	0.0168371
678.035	0.0169893
678.113	0.0169177
678.192	0.0168653
678.270	0.0169387
678.348	0.0169496
678.426	0.0168786
678.504	0.0167882
678.582	0.0165578
678.660	0.0164990
678.738	0.0164793
678.817	0.0163715
678.895	0.0160648
678.973	0.0160456
679.051	0.0158856
679.129	0.0157677
679.207	0.0158247
679.285	0.0158105
679.363	0.0156864
679.442	0.0155536
679.520	0.0158474
679.598	0.0158890
679.676	0.0157382
679.754	0.0160111
679.832	0.0160488
679.910	0.0159662
679.988	0.0160354
680.067	0.0159407
680.145	0.0161649
680.223	0.0160289
680.301	0.0161018
680.379	0.0160660
680.457	0.0160519
680.535	0.0161657
680.613	0.0160976
680.692	0.0159179
680.770	0.0158504
680.848	0.0158337
680.926	0.0157281
681.004	0.0156922
681.082	0.0156699
681.160	0.0153426
681.238	0.0153614
681.317	0.0153790
681.395	0.0153183
681.473	0.0152857
681.551	0.0154328
681.629	0.0153369
681.707	0.0153308
681.785	0.0155028
681.863	0.0156618
681.942	0.0157688
682.020	0.0159770
682.098	0.0162112
682.176	0.0163288
682.254	0.0165373
682.332	0.0166047
682.410	0.0168008
682.488	0.0170238
682.567	0.0170860
682.645	0.0171384
682.723	0.0174393
682.801	0.0174050
682.879	0.0172990
682.957	0.0174712
683.035	0.0175752
683.113	0.0175591
683.192	0.0176645
683.270	0.0176683
683.348	0.0175750
683.426	0.0176546
683.504	0.0174953
683.582	0.0176472
683.660	0.0175181
683.738	0.0174613
683.817	0.0173608
683.895	0.0174764
683.973	0.0172798
684.051	0.0172165
684.129	0.0170908
684.207	0.0170920
684.285	0.0170228
684.363	0.0168745
684.442	0.0169452
684.520	0.0167641
684.598	0.0167491
684.676	0.0165673
684.754	0.0163732
684.832	0.0160519
684.910	0.0159349
684.988	0.0158045
685.067	0.0155988
685.145	0.0156204
685.223	0.0155591
685.301	0.0151833
685.379	0.0148859
685.457	0.0150171
685.535	0.0147849
685.613	0.0148199
685.692	0.0147668
685.770	0.0148189
685.848	0.0149910
685.926	0.0149350
686.004	0.0152171
686.082	0.0154105
686.160	0.0156081
686.238	0.0156895
686.317	0.0159686
686.395	0.0162647
686.473	0.0162868
686.551	0.0163978
686.629	0.0164773
686.707	0.0167062
686.785	0.0169024
686.863	0.0169642
686.942	0.0170240
687.020	0.0172135
687.098	0.0171825
687.176	0.0172694
687.254	0.0171764
687.332	0.0173313
687.410	0.0171898
687.488	0.0171059
687.567	0.0170418
687.645	0.0171098
687.723	0.0169431
687.801	0.0168849
687.879	0.0169433
687.957	0.0167551
688.035	0.0166264
688.113	0.0166058
688.192	0.0163567
688.270	0.0164242
688.348	0.0161433
688.426	0.0161145
688.504	0.0160738
688.582	0.0159464
688.660	0.0158588
688.738	0.0157879
688.817	0.0157166
688.895	0.0158064
688.973	0.0157418
689.051	0.0155991
689.129	0.0155933
689.207	0.0157277
689.285	0.0156789
689.363	0.0158412
689.442	0.0159685
689.520	0.0159192
689.598	0.0160072
689.676	0.0162544
689.754	0.0161789
689.832	0.0164304
689.910	0.0164619
689.988	0.0165430
690.067	0.0166380
690.145	0.0165767
690.223	0.0165782
690.301	0.0167244
690.379	0.0168356
690.457	0.0167962
690.535	0.0166674
690.613	0.0168109
690.692	0.0169084
690.770	0.0171075
690.848	0.0170214
690.926	0.0169549
691.004	0.0170777
691.082	0.0172480
691.160	0.0172061
691.238	0.0172099
691.317	0.0174348
691.395	0.0174479
691.473	0.0174721
691.551	0.0175064
691.629	0.0175543
691.707	0.0176099
691.785	0.0174557
691.863	0.0174664
691.942	0.0172005
692.020	0.0170652
692.098	0.0170274
692.176	0.0169189
692.254	0.0165628
692.332	0.0163058
692.410	0.0162292
692.488	0.0158896
692.567	0.0156970
692.645	0.0156702
692.723	0.0152798
692.801	0.0152697
692.879	0.0151831
692.957	0.0151492
693.035	0.0151160
693.113	0.0151600
693.192	0.0151571
693.270	0.0150117
693.348	0.0152031
693.426	0.0152932
693.504	0.0152744
693.582	0.0154150
693.660	0.0155451
693.738	0.0155900
693.817	0.0157185
693.895	0.0158236
693.973	0.0157943
694.051	0.0159778
694.129	0.0160777
694.207	0.0161557
694.285	0.0162675
694.363	0.0164850
694.442	0.0165468
694.520	0.0167527
694.598	0.0168407
694.676	0.0170140
694.754	0.0171481
694.832	0.0172533
694.910	0.0173167
694.988	0.0174442
695.067	0.0175580
695.145	0.0176491
695.223	0.0175055
695.301	0.0175085
695.379	0.0174421
695.457	0.0172896
695.535	0.0172517
695.613	0.0170804
695.692	0.0171678
695.770	0.0169340
695.848	0.0170882
695.926	0.0169737
696.004	0.0169574
696.082	0.0171654
696.160	0.0169363
696.238	0.0169727
696.317	0.0170335
696.395	0.0168221
696.473	0.0169598
696.551	0.0167174
696.629	0.0166116
696.707	0.0166005
696.785	0.0166247
696.863	0.0165189
696.942	0.0163412
697.020	0.0162330
697.098	0.0161536
697.176	0.0161958
697.254	0.0161700
697.332	0.0159507
697.410	0.0160166
697.488	0.0160922
697.567	0.0159710
697.645	0.0159769
697.723	0.0159173
697.801	0.0160812
697.879	0.0161045
697.957	0.0161474
698.035	0.0162428
698.113	0.0161721
698.192	0.0162093
698.270	0.0163924
698.348	0.0163098
698.426	0.0164890
698.504	0.0165224
698.582	0.0163564
698.660	0.0165034
698.738	0.0164420
698.817	0.0164013
698.895	0.0165382
698.973	0.0163107
699.051	0.0161471
699.129	0.0163432
699.207	0.0162457
699.285	0.0162546
699.363	0.0161378
699.442	0.0161771
699.520	0.0161372
699.598	0.0162529
699.676	0.0161513
699.754	0.0161234
699.832	0.0161975
699.910	0.0161042
699.988	0.0160641
700.067	0.0162490
700.145	0.0162650
700.223	0.0161777
700.301	0.0160906
700.379	0.0160072
700.457	0.0160110
700.535	0.0161266
700.613	0.0159473
700.692	0.0159220
700.770	0.0159832
700.848	0.0159141
700.926	0.0159042
701.004	0.0160126
701.082	0.0160233
701.160	0.0160793
701.238	0.0159495
701.317	0.0161534
701.395	0.0162444
701.473	0.0163849
701.551	0.0165290
701.629	0.0164568
701.707	0.0165495
701.785	0.0167816
701.863	0.0168253
701.942	0.0167554
702.020	0.0169586
702.098	0.0169234
702.176	0.0169889
702.254	0.0171619
702.332	0.0169866
702.410	0.0169092
702.488	0.0168178
702.567	0.0168064
702.645	0.0166286
702.723	0.0167718
702.801	0.0165826
702.879	0.0165590
702.957	0.0162824
703.035	0.0162106
703.113	0.0164513
703.192	0.0163376
703.270	0.0162441
703.348	0.0163786
703.426	0.0162920
703.504	0.0162062
703.582	0.0160388
703.660	0.0162190
703.738	0.0161789
703.817	0.0159965
703.895	0.0161788
703.973	0.0160587
704.051	0.0160336
704.129	0.0162432
704.207	0.0161510
704.285	0.0161428
704.363	0.0162186
704.442	0.0162832
704.520	0.0162740
704.598	0.0165536
704.676	0.0165539
704.754	0.0164868
704.832	0.0165428
704.910	0.0165624
704.988	0.0166320
705.067	0.0167729
705.145	0.0165729
705.223	0.0166941
705.301	0.0165955
705.379	0.0165646
705.457	0.0166103
705.535	0.0167479
705.613	0.0166462
705.692	0.0167287
705.770	0.0165296
705.848	0.0165583
705.926	0.0163815
706.004	0.0163474
706.082	0.0163380
706.160	0.0162788
706.238	0.0160876
706.317	0.0161243
706.395	0.0161119
706.473	0.0161446
706.551	0.0160499
706.629	0.0160876
706.707	0.0161507
706.785	0.0160551
706.863	0.0162313
706.942	0.0163055
707.020	0.0161456
707.098	0.0164573
707.176	0.0164688
707.254	0.0162637
707.332	0.0163149
707.410	0.0163582
707.488	0.0163956
707.567	0.0164720
707.645	0.0165132
707.723	0.0165247
707.801	0.0164757
707.879	0.0165131
707.957	0.0164804
708.035	0.0166110
708.113	0.0166424
708.192	0.0165485
708.270	0.0166428
708.348	0.0166009
708.426	0.0167645
708.504	0.0167336
708.582	0.0167555
708.660	0.0167167
708.738	0.0166171
708.817	0.0167544
708.895	0.0169437
708.973	0.0168481
709.051	0.0168589
709.129	0.0169152
709.207	0.0169115
709.285	0.0167540
709.363	0.0168138
709.442	0.0166575
709.520	0.0167023
709.598	0.0166051
709.676	0.0165646
709.754	0.0163312
709.832	0.0164304
709.910	0.0162914
709.988	0.0162124
710.067	0.0162623
710.145	0.0163976
710.223	0.0163666
710.301	0.0163339
710.379	0.0163850
710.457	0.0163522
710.535	0.0162848
710.613	0.0162910
710.692	0.0164877
710.770	0.0163992
710.848	0.0162811
710.926	0.0161755
711.004	0.0163319
711.082	0.0162711
711.160	0.0162142
711.238	0.0161446
711.317	0.0161335
711.395	0.0161388
711.473	0.0159474
711.551	0.0160073
711.629	0.0160158
711.707	0.0159383
711.785	0.0158450
711.863	0.0159111
711.942	0.0159007
712.020	0.0157568
712.098	0.0157729
712.176	0.0159965
712.254	0.0159636
712.332	0.0159416
712.410	0.0158997
712.488	0.0158381
712.567	0.0157983
712.645	0.0159669
712.723	0.0159895
712.801	0.0160073
712.879	0.0159946
712.957	0.0159373
713.035	0.0160680
713.113	0.0162059
713.192	0.0162099
713.270	0.0162302
713.348	0.0164297
713.426	0.0166638
713.504	0.0166570
713.582	0.0166917
713.660	0.0168464
713.738	0.0169140
713.817	0.0169924
713.895	0.0168816
713.973	0.0170719
714.051	0.0170155
714.129	0.0171149
714.207	0.0173000
714.285	0.0171833
714.363	0.0171751
714.442	0.0171498
714.520	0.0172089
714.598	0.0170356
714.676	0.0172298
714.754	0.0170722
714.832	0.0168850
714.910	0.0169987
714.988	0.0168338
715.067	0.0168280
715.145	0.0167194
715.223	0.0167141
715.301	0.0166885
715.379	0.0166711
715.457	0.0164225
715.535	0.0165701
715.613	0.0164859
715.692	0.0166654
715.770	0.0166539
715.848	0.0165295
715.926	0.0166776
716.004	0.0166953
716.082	0.0165658
716.160	0.0166376
716.238	0.0164139
716.317	0.0164503
716.395	0.0164131
716.473	0.0163776
716.551	0.0162514
716.629	0.0162065
716.707	0.0160422
716.785	0.0161726
716.863	0.0160227
716.942	0.0159772
717.020	0.0159457
717.098	0.0159711
717.176	0.0159842
717.254	0.0160609
717.332	0.0159468
717.410	0.0159660
717.488	0.0160551
717.567	0.0160577
717.645	0.0159731
717.723	0.0160384
717.801	0.0160683
717.879	0.0161914
717.957	0.0162218
718.035	0.0163198
718.113	0.0162757
718.192	0.0162866
718.270	0.0162712
718.348	0.0164888
718.426	0.0164135
718.504	0.0164096
718.582	0.0163771
718.660	0.0163568
718.738	0.0164133
718.817	0.0165389
718.895	0.0165108
718.973	0.0165939
719.051	0.0164098
719.129	0.0167278
719.207	0.0166978
719.285	0.0166599
719.363	0.0166242
719.442	0.0166892
719.520	0.0168039
719.598	0.0165861
719.676	0.0167159
719.754	0.0164886
719.832	0.0165004
719.910	0.0165192
719.988	0.0165396
720.067	0.0165719
720.145	0.0164773
720.223	0.0165131
720.301	0.0165596
720.379	0.0163499
720.457	0.0165723
720.535	0.0166544
720.613	0.0166153
720.692	0.0164589
720.770	0.0165790
720.848	0.0167190
720.926	0.0166833
721.004	0.0166569
721.082	0.0167011
721.160	0.0166784
721.238	0.0165636
721.317	0.0166850
721.395	0.0166014
721.473	0.0165822
721.551	0.0163610
721.629	0.0164617
721.707	0.0164246
721.785	0.0163681
721.863	0.0163155
721.942	0.0163631
722.020	0.0162141
722.098	0.0162504
722.176	0.0163062
722.254	0.0163329
722.332	0.0161732
722.410	0.0162994
722.488	0.0162865
722.567	0.0163136
722.645	0.0162540
722.723	0.0163087
722.801	0.0161311
722.879	0.0163050
722.957	0.0163072
723.035	0.0163109
723.113	0.0162885
723.192	0.0162740
723.270	0.0163866
723.348	0.0163782
723.426	0.0165028
723.504	0.0164150
723.582	0.0163282
723.660	0.0164068
723.738	0.0164469
723.817	0.0163682
723.895	0.0164064
723.973	0.0165244
724.051	0.0163467
724.129	0.0162806
724.207	0.0164672
724.285	0.0164125
724.363	0.0163952
724.442	0.0164427
724.520	0.0164108
724.598	0.0164325
724.676	0.0165218
724.754	0.0165128
724.832	0.0165098
724.910	0.0164889
724.988	0.0165813
725.067	0.0166119
725.145	0.0165727
725.223	0.0167413
725.301	0.0166525
725.379	0.0166397
725.457	0.0165973
725.535	0.0166629
725.613	0.0166681
725.692	0.0166647
725.770	0.0166953
725.848	0.0168418
725.926	0.0167463
726.004	0.0168678
726.082	0.0167344
726.160	0.0167934
726.238	0.0166795
726.317	0.0166329
726.395	0.0167587
726.473	0.0165868
726.551	0.0166947
726.629	0.0165638
726.707	0.0165411
726.785	0.0165949
726.863	0.0165805
726.942	0.0165572
727.020	0.0165109
727.098	0.0164799
727.176	0.0161523
727.254	0.0164085
727.332	0.0163274
727.410	0.0163538
727.488	0.0162899
727.567	0.0161691
727.645	0.0162416
727.723	0.0162801
727.801	0.0163322
727.879	0.0164072
727.957	0.0163345
728.035	0.0163578
728.113	0.0163187
728.192	0.0163425
728.270	0.0162677
728.348	0.0162817
728.426	0.0162968
728.504	0.0162168
728.582	0.0162461
728.660	0.0162570
728.738	0.0161517
728.817	0.0162681
728.895	0.0161612
728.973	0.0162773
729.051	0.0161694
729.129	0.0161250
729.207	0.0163422
729.285	0.0163575
729.363	0.0164549
729.442	0.0164220
729.520	0.0165137
729.598	0.0164764
729.676	0.0164367
729.754	0.0165303
729.832	0.0165022
729.910	0.0164514
729.988	0.0165569
730.067	0.0165469
730.145	0.0165941
730.223	0.0164547
730.301	0.0164526
730.379	0.0164754
730.457	0.0164581
730.535	0.0164567
730.613	0.0164127
730.692	0.0164616
730.770	0.0166219
730.848	0.0165195
730.926	0.0164128
731.004	0.0166095
731.082	0.0165094
731.160	0.0164361
731.238	0.0165246
731.317	0.0165656
731.395	0.0164278
731.473	0.0166019
731.551	0.0165569
731.629	0.0165274
731.707	0.0166154
731.785	0.0166570
731.863	0.0166506
731.942	0.0165573
732.020	0.0167598
732.098	0.0166452
732.176	0.0167094
732.254	0.0166898
732.332	0.0167323
732.410	0.0166812
732.488	0.0168560
732.567	0.0167822
732.645	0.0166105
732.723	0.0168005
732.801	0.0166232
732.879	0.0166342
732.957	0.0166483
733.035	0.0166792
733.113	0.0167296
733.192	0.0167304
733.270	0.0168050
733.348	0.0166938
733.426	0.0166776
733.504	0.0167802
733.582	0.0168389
733.660	0.0166977
733.738	0.0166344
733.817	0.0166416
733.895	0.0166018
733.973	0.0165165
734.051	0.0164725
734.129	0.0165102
734.207	0.0165555
734.285	0.0164877
734.363	0.0163817
734.442	0.0164223
734.520	0.0163359
734.598	0.0162675
734.676	0.0163836
734.754	0.0163827
734.832	0.0165385
734.910	0.0163771
734.988	0.0162270
735.067	0.0163026
735.145	0.0163404
735.223	0.0162389
735.301	0.0161932
735.379	0.0163035
735.457	0.0162963
735.535	0.0161293
735.613	0.0163722
735.692	0.0162199
735.770	0.0161095
735.848	0.0160918
735.926	0.0163377
736.004	0.0164053
736.082	0.0162698
736.160	0.0163088
736.238	0.0164576
736.317	0.0165504
736.395	0.0164618
736.473	0.0165279
736.551	0.0166188
736.629	0.0164608
736.707	0.0164352
736.785	0.0167423
736.863	0.0166119
736.942	0.0165038
737.020	0.0166310
737.098	0.0165185
737.176	0.0165507
737.254	0.0164861
737.332	0.0164182
737.410	0.0164893
737.488	0.0163081
737.567	0.0164658
737.645	0.0163910
737.723	0.0163447
737.801	0.0163957
737.879	0.0163794
737.957	0.0163001
738.035	0.0161495
738.113	0.0161823
738.192	0.0161784
738.270	0.0161796
738.348	0.0162246
738.426	0.0161973
738.504	0.0160565
738.582	0.0160315
738.660	0.0160870
738.738	0.0160749
738.817	0.0161347
738.895	0.0161798
738.973	0.0162003
739.051	0.0162045
739.129	0.0161706
739.207	0.0161463
739.285	0.0160600
739.363	0.0162040
739.442	0.0163188
739.520	0.0163041
739.598	0.0163663
739.676	0.0163621
739.754	0.0163448
739.832	0.0165532
739.910	0.0165585
739.988	0.0165820
740.067	0.0166122
740.145	0.0165941
740.223	0.0166718
740.301	0.0167988
740.379	0.0168107
740.457	0.0168390
740.535	0.0167538
740.613	0.0169303
740.692	0.0169073
740.770	0.0168785
740.848	0.0168250
740.926	0.0167506
741.004	0.0168341
741.082	0.0168031
741.160	0.0167406
741.238	0.0167096
741.317	0.0166356
741.395	0.0166096
741.473	0.0165517
741.551	0.0164912
741.629	0.0164212
741.707	0.0164731
741.785	0.0164184
741.863	0.0163960
741.942	0.0164306
742.020	0.0163502
742.098	0.0163450
742.176	0.0161328
742.254	0.0163425
742.332	0.0162236
742.410	0.0162810
742.488	0.0161461
742.567	0.0161323
742.645	0.0161052
742.723	0.0161266
742.801	0.0161541
742.879	0.0160866
742.957	0.0162299
743.035	0.0161454
743.113	0.0161234
743.192	0.0162267
743.270	0.0160650
743.348	0.0162115
743.426	0.0162190
743.504	0.0162261
743.582	0.0162656
743.660	0.0161303
743.738	0.0163587
743.817	0.0162527
743.895	0.0162012
743.973	0.0162263
744.051	0.0163001
744.129	0.0161853
744.207	0.0162335
744.285	0.0160649
744.363	0.0162463
744.442	0.0163120
744.520	0.0163067
744.598	0.0161594
744.676	0.0163056
744.754	0.0163004
744.832	0.0162991
744.910	0.0163052
744.988	0.0162990
745.067	0.0164157
745.145	0.0165563
745.223	0.0163557
745.301	0.0163820
745.379	0.0165456
745.457	0.0166390
745.535	0.0166276
745.613	0.0167667
745.692	0.0167638
745.770	0.0168142
745.848	0.0168906
745.926	0.0169347
746.004	0.0168423
746.082	0.0169997
746.160	0.0169202
746.238	0.0168463
746.317	0.0169636
746.395	0.0168799
746.473	0.0167452
746.551	0.0168665
746.629	0.0167657
746.707	0.0167867
746.785	0.0166467
746.863	0.0165495
746.942	0.0165601
747.020	0.0164959
747.098	0.0165022
747.176	0.0164838
747.254	0.0164546
747.332	0.0166460
747.410	0.0165708
747.488	0.0163652
747.567	0.0163879
747.645	0.0163529
747.723	0.0165563
747.801	0.0167227
747.879	0.0165755
747.957	0.0163941
748.035	0.0166837
748.113	0.0166293
748.192	0.0165746
748.270	0.0166605
748.348	0.0167044
748.426	0.0166955
748.504	0.0166708
748.582	0.0167596
748.660	0.0167917
748.738	0.0168587
748.817	0.0167891
748.895	0.0168901
748.973	0.0166802
749.051	0.0167834
749.129	0.0168462
749.207	0.0168156
749.285	0.0167001
749.363	0.0167789
749.442	0.0167546
749.520	0.0166070
749.598	0.0164985
749.676	0.0166267
749.754	0.0163667
749.832	0.0164748
749.910	0.0163432
749.988	0.0163994
750.067	0.0163174
750.145	0.0163908
750.223	0.0162242
750.301	0.0163567
750.379	0.0163812
750.457	0.0161021
750.535	0.0161067
750.613	0.0160059
750.692	0.0161683
750.770	0.0159869
750.848	0.0160152
750.926	0.0159628
751.004	0.0162779
751.082	0.0162197
751.160	0.0161983
751.238	0.0162830
751.317	0.0163488
751.395	0.0163007
751.473	0.0163622
751.551	0.0164043
751.629	0.0163245
751.707	0.0163136
751.785	0.0164452
751.863	0.0163811
751.942	0.0163737
752.020	0.0164327
752.098	0.0165121
752.176	0.0165091
752.254	0.0166073
752.332	0.0165366
752.410	0.0165037
752.488	0.0164018
752.567	0.0165112
752.645	0.0167735
752.723	0.0166713
752.801	0.0166537
752.879	0.0167188
752.957	0.0167029
753.035	0.0166635
753.113	0.0168673
753.192	0.0168644
753.270	0.0166234
753.348	0.0168418
753.426	0.0167673
753.504	0.0167290
753.582	0.0166837
753.660	0.0165563
753.738	0.0165456
753.817	0.0166110
753.895	0.0166048
753.973	0.0165130
754.051	0.0165343
754.129	0.0165221
754.207	0.0165495
754.285	0.0165060
754.363	0.0164291
754.442	0.0164995
754.520	0.0163665
754.598	0.0165148
754.676	0.0163742
754.754	0.0164437
754.832	0.0164229
754.910	0.0163008
754.988	0.0161645
755.067	0.0164560
755.145	0.0163583
755.223	0.0164287
755.301	0.0164511
755.379	0.0163140
755.457	0.0164800
755.535	0.0164720
755.613	0.0163415
755.692	0.0164604
755.770	0.0164489
755.848	0.0163552
755.926	0.0164656
756.004	0.0164404
756.082	0.0165485
756.160	0.0164790
756.238	0.0163938
756.317	0.0163860
756.395	0.0163705
756.473	0.0164362
756.551	0.0163857
756.629	0.0162492
756.707	0.0161932
756.785	0.0163589
756.863	0.0163564
756.942	0.0163312
757.020	0.0163339
757.098	0.0163066
757.176	0.0162705
757.254	0.0162450
757.332	0.0164375
757.410	0.0163046
757.488	0.0164074
757.567	0.0164192
757.645	0.0162907
757.723	0.0164655
757.801	0.0164226
757.879	0.0164840
757.957	0.0164762
758.035	0.0164025
758.113	0.0165877
758.192	0.0164461
758.270	0.0165334
758.348	0.0165142
758.426	0.0165929
758.504	0.0166297
758.582	0.0166554
758.660	0.0165727
758.738	0.0165257
758.817	0.0165166
758.895	0.0165777
758.973	0.0164438
759.051	0.0163116
759.129	0.0164880
759.207	0.0164103
759.285	0.0163101
759.363	0.0163783
759.442	0.0162875
759.520	0.0162840
759.598	0.0160630
759.676	0.0162574
759.754	0.0161759
759.832	0.0161149
759.910	0.0160834
759.988	0.0162245
760.067	0.0161224
760.145	0.0160252
760.223	0.0162382
760.301	0.0162067
760.379	0.0161333
760.457	0.0162157
760.535	0.0161406
760.613	0.0161638
760.692	0.0162760
760.770	0.0161977
760.848	0.0162614
760.926	0.0163385
761.004	0.0163861
761.082	0.0164375
761.160	0.0163463
761.238	0.0165219
761.317	0.0164583
761.395	0.0164442
761.473	0.0164607
761.551	0.0165849
761.629	0.0165483
761.707	0.0166187
761.785	0.0166698
761.863	0.0166548
761.942	0.0166671
762.020	0.0166794
762.098	0.0167326
762.176	0.0167160
762.254	0.0167058
762.332	0.0167086
762.410	0.0167085
762.488	0.0165544
762.567	0.0168513
762.645	0.0166011
762.723	0.0166943
762.801	0.0166407
762.879	0.0167706
762.957	0.0167249
763.035	0.0166652
763.113	0.0166132
763.192	0.0165754
763.270	0.0166515
763.348	0.0166541
763.426	0.0166784
763.504	0.0165955
763.582	0.0167334
763.660	0.0165779
763.738	0.0165413
763.817	0.0165405
763.895	0.0164608
763.973	0.0165568
764.051	0.0165457
764.129	0.0164658
764.207	0.0164704
764.285	0.0164191
764.363	0.0162705
764.442	0.0163429
764.520	0.0162167
764.598	0.0162757
764.676	0.0163110
764.754	0.0161851
764.832	0.0161705
764.910	0.0161641
764.988	0.0161497
765.067	0.0161864
765.145	0.0160375
765.223	0.0160787
765.301	0.0160490
765.379	0.0159978
765.457	0.0159998
765.535	0.0160863
765.613	0.0161273
765.692	0.0161420
765.770	0.0161424
765.848	0.0161118
765.926	0.0163107
766.004	0.0161510
766.082	0.0161962
766.160	0.0160503
766.238	0.0162319
766.317	0.0163489
766.395	0.0163415
766.473	0.0164429
766.551	0.0165096
766.629	0.0164594
766.707	0.0164539
766.785	0.0166106
766.863	0.0165261
766.942	0.0165266
767.020	0.0167075
767.098	0.0168077
767.176	0.0167058
767.254	0.0167133
767.332	0.0167804
767.410	0.0167309
767.488	0.0166719
767.567	0.0167734
767.645	0.0166370
767.723	0.0167178
767.801	0.0167362
767.879	0.0167841
767.957	0.0166138
768.035	0.0166118
768.113	0.0166105
768.192	0.0165321
768.270	0.0164835
768.348	0.0164143
768.426	0.0164484
768.504	0.0164185
768.582	0.0163592
768.660	0.0162968
768.738	0.0163352
768.817	0.0165238
768.895	0.0165006
768.973	0.0163924
769.051	0.0163113
769.129	0.0163503
769.207	0.0163971
769.285	0.0163773
769.363	0.0163332
769.442	0.0164487
769.520	0.0163518
769.598	0.0163682
769.676	0.0162267
769.754	0.0164353
769.832	0.0163612
769.910	0.0163586
769.988	0.0163951
770.067	0.0165178
770.145	0.0164741
770.223	0.0164706
770.301	0.0164525
770.379	0.0163047
770.457	0.0164265
770.535	0.0164161
770.613	0.0164281
770.692	0.0163963
770.770	0.0163843
770.848	0.0163110
770.926	0.0164041
771.004	0.0162466
771.082	0.0163060
771.160	0.0162944
771.238	0.0161030
771.317	0.0161787
771.395	0.0161604
771.473	0.0160783
771.551	0.0160673
771.629	0.0161211
771.707	0.0161185
771.785	0.0162151
771.863	0.0161209
771.942	0.0160970
772.020	0.0161996
772.098	0.0162866
772.176	0.0161366
772.254	0.0162345
772.332	0.0162573
772.410	0.0163291
772.488	0.0164201
772.567	0.0162789
772.645	0.0165129
772.723	0.0164745
772.801	0.0164988
772.879	0.0166052
772.957	0.0165887
773.035	0.0166236
773.113	0.0166987
773.192	0.0168211
773.270	0.0167314
773.348	0.0168266
773.426	0.0168844
773.504	0.0167797
773.582	0.0169276
773.660	0.0169859
773.738	0.0168141
773.817	0.0168832
773.895	0.0168584
773.973	0.0168827
774.051	0.0169092
774.129	0.0167780
774.207	0.0167880
774.285	0.0167453
774.363	0.0167576
774.442	0.0166931
774.520	0.0167231
774.598	0.0166872
774.676	0.0165419
774.754	0.0165850
774.832	0.0163861
774.910	0.0165358
774.988	0.0164958
775.067	0.0165051
775.145	0.0164558
775.223	0.0163546
775.301	0.0165991
775.379	0.0165561
775.457	0.0163126
775.535	0.0164925
775.613	0.0164500
775.692	0.0164520
775.770	0.0164977
775.848	0.0164350
775.926	0.0164405
776.004	0.0164546
776.082	0.0164393
776.160	0.0164438
776.238	0.0164838
776.317	0.0165912
776.395	0.0165002
776.473	0.0165265
776.551	0.0164641
776.629	0.0164601
776.707	0.0164935
776.785	0.0164299
776.863	0.0164101
776.942	0.0162875
777.020	0.0161720
777.098	0.0162231
777.176	0.0162900
777.254	0.0163441
777.332	0.0161762
777.410	0.0162565
777.488	0.0162168
777.567	0.0162698
777.645	0.0162903
777.723	0.0162988
777.801	0.0162112
777.879	0.0162195
777.957	0.0162051
778.035	0.0161111
778.113	0.0162212
778.192	0.0162718
778.270	0.0161596
778.348	0.0161172
778.426	0.0161716
778.504	0.0162033
778.582	0.0161719
778.660	0.0163763
778.738	0.0162545
778.817	0.0163920
778.895	0.0162799
778.973	0.0162595
779.051	0.0162701
779.129	0.0162435
779.207	0.0163233
779.285	0.0164635
779.363	0.0163853
779.442	0.0163276
779.520	0.0164542
779.598	0.0164268
779.676	0.0163041
779.754	0.0164951
779.832	0.0163687
779.910	0.0164082
779.988	0.0164302
780.067	0.0164523
780.145	0.0164340
780.223	0.0163201
780.301	0.0164059
780.379	0.0163982
780.457	0.0165463
780.535	0.0162808
780.613	0.0163129
780.692	0.0165102
780.770	0.0164340
780.848	0.0163480
780.926	0.0163187
781.004	0.0164945
781.082	0.0162229
781.160	0.0162067
781.238	0.0163468
781.317	0.0162399
781.395	0.0162483
781.473	0.0162528
781.551	0.0162498
781.629	0.0163456
781.707	0.0162106
781.785	0.0163268
781.863	0.0162155
781.942	0.0162926
782.020	0.0163266
782.098	0.0162670
782.176	0.0163216
782.254	0.0162789
782.332	0.0162364
782.410	0.0162854
782.488	0.0164350
782.567	0.0164902
782.645	0.0164238
782.723	0.0164581
782.801	0.0165194
782.879	0.0165462
782.957	0.0165609
783.035	0.0166100
783.113	0.0165116
783.192	0.0165970
783.270	0.0165609
783.348	0.0165081
783.426	0.0165971
783.504	0.0166235
783.582	0.0165845
783.660	0.0167574
783.738	0.0166273
783.817	0.0166634
783.895	0.0166919
783.973	0.0164500
784.051	0.0165518
784.129	0.0165675
784.207	0.0166307
784.285	0.0165292
784.363	0.0164873
784.442	0.0165200
784.520	0.0164297
784.598	0.0164828
784.676	0.0165057
784.754	0.0164100
784.832	0.0163455
784.910	0.0163944
784.988	0.0164748
785.067	0.0163923
785.145	0.0166055
785.223	0.0165701
785.301	0.0165401
785.379	0.0164366
785.457	0.0164315
785.535	0.0164244
785.613	0.0165263
785.692	0.0164745
785.770	0.0164122
785.848	0.0166782
785.926	0.0165083
786.004	0.0163801
786.082	0.0165318
786.160	0.0164307
786.238	0.0165128
786.317	0.0163351
786.395	0.0163696
786.473	0.0162944
786.551	0.0162710
786.629	0.0164655
786.707	0.0163897
786.785	0.0164326
786.863	0.0164272
786.942	0.0164841
787.020	0.0164261
787.098	0.0164894
787.176	0.0164626
787.254	0.0165431
787.332	0.0165349
787.410	0.0164555
787.488	0.0164343
787.567	0.0166492
787.645	0.0167215
787.723	0.0166167
787.801	0.0166712
787.879	0.0165920
787.957	0.0165639
788.035	0.0166012
788.113	0.0165762
788.192	0.0166026
788.270	0.0167123
788.348	0.0166544
788.426	0.0165296
788.504	0.0166718
788.582	0.0167564
788.660	0.0167388
788.738	0.0166191
788.817	0.0165965
788.895	0.0165849
788.973	0.0164951
789.051	0.0164908
789.129	0.0165730
789.207	0.0166241
789.285	0.0165263
789.363	0.0164182
789.442	0.0163385
789.520	0.0163719
789.598	0.0163851
789.676	0.0163232
789.754	0.0161831
789.832	0.0162098
789.910	0.0162103
789.988	0.0163511
790.067	0.0163028
790.145	0.0161943
790.223	0.0160944
790.301	0.0162893
790.379	0.0163114
790.457	0.0163984
790.535	0.0163037
790.613	0.0163131
790.692	0.0164883
790.770	0.0164085
790.848	0.0163363
790.926	0.0163665
791.004	0.0163744
791.082	0.0164375
791.160	0.0166798
791.238	0.0165527
791.317	0.0166085
791.395	0.0166657
791.473	0.0165266
791.551	0.0165441
791.629	0.0166508
791.707	0.0166737
791.785	0.0166309
791.863	0.0167252
791.942	0.0167194
792.020	0.0167277
792.098	0.0168146
792.176	0.0167038
792.254	0.0166853
792.332	0.0166697
792.410	0.0166779
792.488	0.0166037
792.567	0.0166070
792.645	0.0166548
792.723	0.0167025
792.801	0.0165773
792.879	0.0165223
792.957	0.0165942
793.035	0.0165485
793.113	0.0165622
793.192	0.0165436
793.270	0.0165433
793.348	0.0166352
793.426	0.0167740
793.504	0.0166153
793.582	0.0165666
793.660	0.0165114
793.738	0.0164870
793.817	0.0166302
793.895	0.0167237
793.973	0.0167049
794.051	0.0166778
794.129	0.0165328
794.207	0.0165273
794.285	0.0167290
794.363	0.0166734
794.442	0.0164968
794.520	0.0166362
794.598	0.0167498
794.676	0.0168980
794.754	0.0167727
794.832	0.0167173
794.910	0.0168382
794.988	0.0167833
795.067	0.0167369
795.145	0.0167564
795.223	0.0167558
795.301	0.0167107
795.379	0.0167197
795.457	0.0166586
795.535	0.0167440
795.613	0.0166191
795.692	0.0166670
795.770	0.0165513
795.848	0.0164979
795.926	0.0163947
796.004	0.0165731
796.082	0.0165211
796.160	0.0164713
796.238	0.0165503
796.317	0.0165175
796.395	0.0164311
796.473	0.0163564
796.551	0.0164487
796.629	0.0162949
796.707	0.0164268
796.785	0.0165339
796.863	0.0163087
796.942	0.0164614
797.020	0.0163057
797.098	0.0162443
797.176	0.0163636
797.254	0.0162646
797.332	0.0164061
797.410	0.0162852
797.488	0.0162535
797.567	0.0163480
797.645	0.0163616
797.723	0.0163799
797.801	0.0164351
797.879	0.0162517
797.957	0.0163910
798.035	0.0163754
798.113	0.0165302
798.192	0.0165735
798.270	0.0166056
798.348	0.0164288
798.426	0.0164724
798.504	0.0166157
798.582	0.0165004
798.660	0.0166393
798.738	0.0166127
798.817	0.0165002
798.895	0.0165884
798.973	0.0164709
799.051	0.0164651
799.129	0.0166558
799.207	0.0164054
799.285	0.0165238
799.363	0.0165488
799.442	0.0164195
799.520	0.0164060
799.598	0.0163964
799.676	0.0163480
799.754	0.0163122
799.832	0.0163685
799.910	0.0163257
799.988	0.0164838
800.067	0.0164230
800.145	0.0163184
800.223	0.0162930
800.301	0.0163258
800.379	0.0162529
800.457	0.0162597
800.535	0.0163168
800.613	0.0160398
800.692	0.0161959
800.770	0.0161595
800.848	0.0161570
800.926	0.0160365
801.004	0.0161671
801.082	0.0160622
801.160	0.0160527
801.238	0.0160119
801.317	0.0161057
801.395	0.0159619
801.473	0.0160322
801.551	0.0160390
801.629	0.0160598
801.707	0.0159293
801.785	0.0159443
801.863	0.0159223
801.942	0.0160480
802.020	0.0159898
802.098	0.0160401
802.176	0.0159978
802.254	0.0160543
802.332	0.0161714
802.410	0.0161879
802.488	0.0162543
802.567	0.0163602
802.645	0.0163459
802.723	0.0163474
802.801	0.0165386
802.879	0.0163450
802.957	0.0163895
803.035	0.0165793
803.113	0.0164791
803.192	0.0164688
803.270	0.0164146
803.348	0.0165775
803.426	0.0165979
803.504	0.0165230
803.582	0.0166319
803.660	0.0166755
803.738	0.0164830
803.817	0.0165549
803.895	0.0166049
803.973	0.0166929
804.051	0.0165923
804.129	0.0167368
804.207	0.0165865
804.285	0.0166793
804.363	0.0165733
804.442	0.0166360
804.520	0.0166567
804.598	0.0167036
804.676	0.0166777
804.754	0.0166141
804.832	0.0165324
804.910	0.0167336
804.988	0.0165807
805.067	0.0165878
805.145	0.0166487
805.223	0.0166427
805.301	0.0165744
805.379	0.0166424
805.457	0.0165913
805.535	0.0166705
805.613	0.0165815
805.692	0.0164639
805.770	0.0166073
805.848	0.0165400
805.926	0.0165760
806.004	0.0167249
806.082	0.0166407
806.160	0.0164948
806.238	0.0165469
806.317	0.0164332
806.395	0.0164898
806.473	0.0166534
806.551	0.0164565
806.629	0.0165620
806.707	0.0165427
806.785	0.0165921
806.863	0.0164622
806.942	0.0165672
807.020	0.0165232
807.098	0.0165018
807.176	0.0165469
807.254	0.0164695
807.332	0.0165670
807.410	0.0165588
807.488	0.0164659
807.567	0.0163929
807.645	0.0164835
807.723	0.0165734
807.801	0.0165532
807.879	0.0166790
807.957	0.0166186
808.035	0.0164729
808.113	0.0164445
808.192	0.0165481
808.270	0.0166250
808.348	0.0166452
808.426	0.0165066
808.504	0.0166514
808.582	0.0165356
808.660	0.0164631
808.738	0.0166181
808.817	0.0165574
808.895	0.0165713
808.973	0.0166085
809.051	0.0167245
809.129	0.0166985
809.207	0.0165186
809.285	0.0164473
809.363	0.0166103
809.442	0.0165110
809.520	0.0166241
809.598	0.0166023
809.676	0.0164735
809.754	0.0166395
809.832	0.0166215
809.910	0.0167216
809.988	0.0165925
810.067	0.0165241
810.145	0.0166724
810.223	0.0166814
810.301	0.0166531
810.379	0.0168253
810.457	0.0166090
810.535	0.0167044
810.613	0.0166846
810.692	0.0165284
810.770	0.0165049
810.848	0.0165948
810.926	0.0165958
811.004	0.0166209
811.082	0.0166831
811.160	0.0166215
811.238	0.0164650
811.317	0.0165013
811.395	0.0164502
811.473	0.0164541
811.551	0.0164791
811.629	0.0165040
811.707	0.0164753
811.785	0.0164973
811.863	0.0166611
811.942	0.0166188
812.020	0.0164924
812.098	0.0166670
812.176	0.0164436
812.254	0.0166608
812.332	0.0165036
812.410	0.0166109
812.488	0.0166064
812.567	0.0166253
812.645	0.0164927
812.723	0.0165675
812.801	0.0165262
812.879	0.0165955
812.957	0.0165638
813.035	0.0164008
813.113	0.0165133
813.192	0.0164607
813.270	0.0164757
813.348	0.0163077
813.426	0.0163595
813.504	0.0164359
813.582	0.0164184
813.660	0.0163183
813.738	0.0162637
813.817	0.0162946
813.895	0.0162661
813.973	0.0163659
814.051	0.0161913
814.129	0.0162711
814.207	0.0162174
814.285	0.0163995
814.363	0.0162839
814.442	0.0163528
814.520	0.0162405
814.598	0.0162653
814.676	0.0162186
814.754	0.0162523
814.832	0.0164026
814.910	0.0163474
814.988	0.0163818
815.067	0.0162659
815.145	0.0163694
815.223	0.0164064
815.301	0.0164414
815.379	0.0162691
815.457	0.0161764
815.535	0.0163963
815.613	0.0164675
815.692	0.0164261
815.770	0.0164856
815.848	0.0163470
815.926	0.0163699
816.004	0.0164128
816.082	0.0164207
816.160	0.0164869
816.238	0.0166741
816.317	0.0166183
816.395	0.0164879
816.473	0.0165816
816.551	0.0165543
816.629	0.0165222
816.707	0.0165040
816.785	0.0164252
816.863	0.0164754
816.942	0.0164893
817.020	0.0163845
817.098	0.0163310
817.176	0.0163912
817.254	0.0166196
817.332	0.0164966
817.410	0.0164900
817.488	0.0163901
817.567	0.0163092
817.645	0.0165698
817.723	0.0164206
817.801	0.0163767
817.879	0.0164430
817.957	0.0165211
818.035	0.0163896
818.113	0.0163130
818.192	0.0164201
818.270	0.0163071
818.348	0.0163110
818.426	0.0163583
818.504	0.0161430
818.582	0.0163091
818.660	0.0163762
818.738	0.0163177
818.817	0.0164667
818.895	0.0163688
818.973	0.0162807
819.051	0.0164305
819.129	0.0164465
819.207	0.0163345
819.285	0.0163763
819.363	0.0163774
819.442	0.0165372
819.520	0.0166115
819.598	0.0164462
819.676	0.0165414
819.754	0.0164219
819.832	0.0164272
819.910	0.0164871
819.988	0.0164979
820.067	0.0165208
820.145	0.0165195
820.223	0.0166239
820.301	0.0165523
820.379	0.0164690
820.457	0.0166023
820.535	0.0166630
820.613	0.0166671
820.692	0.0165599
820.770	0.0166505
820.848	0.0166824
820.926	0.0166405
821.004	0.0168818
821.082	0.0167307
821.160	0.0166235
821.238	0.0167661
821.317	0.0166250
821.395	0.0165989
821.473	0.0166045
821.551	0.0166496
821.629	0.0167694
821.707	0.0167868
821.785	0.0168443
821.863	0.0167088
821.942	0.0166529
822.020	0.0166343
822.098	0.0167007
822.176	0.0167421
822.254	0.0166827
822.332	0.0166463
822.410	0.0165096
822.488	0.0167221
822.567	0.0166196
822.645	0.0165896
822.723	0.0165783
822.801	0.0166202
822.879	0.0164120
822.957	0.0164455
823.035	0.0164680
823.113	0.0163352
823.192	0.0164422
823.270	0.0164916
823.348	0.0163447
823.426	0.0163547
823.504	0.0163789
823.582	0.0164653
823.660	0.0162682
823.738	0.0163582
823.817	0.0163498
823.895	0.0164505
823.973	0.0163274
824.051	0.0163853
824.129	0.0162550
824.207	0.0162606
824.285	0.0162527
824.363	0.0164123
824.442	0.0164624
824.520	0.0164542
824.598	0.0162716
824.676	0.0163995
824.754	0.0164698
824.832	0.0163380
824.910	0.0164864
824.988	0.0166975
825.067	0.0165404
825.145	0.0165517
825.223	0.0165051
825.301	0.0166485
825.379	0.0166321
825.457	0.0166063
825.535	0.0166649
825.613	0.0165889
825.692	0.0166690
825.770	0.0166106
825.848	0.0165845
825.926	0.0166493
826.004	0.0165526
826.082	0.0164845
826.160	0.0164532
826.238	0.0163700
826.317	0.0165587
826.395	0.0164456
826.473	0.0165022
826.551	0.0165373
826.629	0.0164958
826.707	0.0166296
826.785	0.0166138
826.863	0.0164678
826.942	0.0165176
827.020	0.0165439
827.098	0.0164494
827.176	0.0165087
827.254	0.0165090
827.332	0.0164894
827.410	0.0164716
827.488	0.0165305
827.567	0.0165144
827.645	0.0164481
827.723	0.0165486
827.801	0.0164802
827.879	0.0164968
827.957	0.0165827
828.035	0.0165126
828.113	0.0164977
828.192	0.0165044
828.270	0.0165853
828.348	0.0163894
828.426	0.0164066
828.504	0.0164929
828.582	0.0165820
828.660	0.0165750
828.738	0.0166615
828.817	0.0165116
828.895	0.0165205
828.973	0.0165559
829.051	0.0164743
829.129	0.0164570
829.207	0.0164195
829.285	0.0164128
829.363	0.0165314
829.442	0.0164520
829.520	0.0163831
829.598	0.0164388
829.676	0.0163306
829.754	0.0164471
829.832	0.0164079
829.910	0.0163298
829.988	0.0162931
830.067	0.0164781
830.145	0.0164257
830.223	0.0163577
830.301	0.0163946
830.379	0.0162489
830.457	0.0163192
830.535	0.0162785
830.613	0.0163107
830.692	0.0162119
830.770	0.0163168
830.848	0.0163295
830.926	0.0163003
831.004	0.0163260
831.082	0.0163442
831.160	0.0164027
831.238	0.0162525
831.317	0.0164655
831.395	0.0164460
831.473	0.0166473
831.551	0.0166506
831.629	0.0166435
831.707	0.0165357
831.785	0.0166640
831.863	0.0167905
831.942	0.0168659
832.020	0.0167796
832.098	0.0167895
832.176	0.0166772
832.254	0.0167963
832.332	0.0168396
832.410	0.0168610
832.488	0.0168259
832.567	0.0167874
832.645	0.0167675
832.723	0.0167519
832.801	0.0167364
832.879	0.0166629
832.957	0.0165989
833.035	0.0165896
833.113	0.0167454
833.192	0.0165676
833.270	0.0165811
833.348	0.0165410
833.426	0.0165256
833.504	0.0165847
833.582	0.0164059
833.660	0.0165488
833.738	0.0166960
833.817	0.0166183
833.895	0.0165435
833.973	0.0164782
834.051	0.0165009
834.129	0.0166045
834.207	0.0164884
834.285	0.0164748
834.363	0.0165112
834.442	0.0164924
834.520	0.0164585
834.598	0.0164968
834.676	0.0165324
834.754	0.0165612
834.832	0.0164915
834.910	0.0165225
834.988	0.0166117
835.067	0.0166333
835.145	0.0166057
835.223	0.0165379
835.301	0.0167407
835.379	0.0166781
835.457	0.0166313
835.535	0.0165034
835.613	0.0167194
835.692	0.0165202
835.770	0.0165363
835.848	0.0166170
835.926	0.0164128
836.004	0.0165252
836.082	0.0163348
836.160	0.0164123
836.238	0.0163523
836.317	0.0162044
836.395	0.0163307
836.473	0.0163635
836.551	0.0163613
836.629	0.0162338
836.707	0.0162742
836.785	0.0163281
836.863	0.0161913
836.942	0.0163441
837.020	0.0163033
837.098	0.0163839
837.176	0.0165263
837.254	0.0164221
837.332	0.0162995
837.410	0.0162553
837.488	0.0163908
837.567	0.0164735
837.645	0.0165671
837.723	0.0163831
837.801	0.0165089
837.879	0.0165435
837.957	0.0166261
838.035	0.0163446
838.113	0.0164896
838.192	0.0164262
838.270	0.0164699
838.348	0.0164224
838.426	0.0163541
838.504	0.0163938
838.582	0.0163496
838.660	0.0163379
838.738	0.0165057
838.817	0.0164588
838.895	0.0164861
838.973	0.0164217
839.051	0.0164307
839.129	0.0164117
839.207	0.0163663
839.285	0.0164202
839.363	0.0164990
839.442	0.0165211
839.520	0.0165089
839.598	0.0164428
839.676	0.0164407
839.754	0.0165452
839.832	0.0166080
839.910	0.0164574
839.988	0.0164786
840.067	0.0165604
840.145	0.0165644
840.223	0.0166640
840.301	0.0166068
840.379	0.0164546
840.457	0.0164975
840.535	0.0164706
840.613	0.0164536
840.692	0.0164601
840.770	0.0164211
840.848	0.0164800
840.926	0.0164284
841.004	0.0163115
841.082	0.0163055
841.160	0.0164005
841.238	0.0162889
841.317	0.0163791
841.395	0.0163417
841.473	0.0162013
841.551	0.0162964
841.629	0.0162949
841.707	0.0162655
841.785	0.0163947
841.863	0.0162334
841.942	0.0163937
842.020	0.0163472
842.098	0.0163887
842.176	0.0163751
842.254	0.0163869
842.332	0.0165134
842.410	0.0165462
842.488	0.0165085
842.567	0.0165347
842.645	0.0164709
842.723	0.0163818
842.801	0.0164245
842.879	0.0165427
842.957	0.0164658
843.035	0.0165575
843.113	0.0166523
843.192	0.0165174
843.270	0.0164461
843.348	0.0165647
843.426	0.0166792
843.504	0.0166219
843.582	0.0165483
843.660	0.0166106
843.738	0.0166492
843.817	0.0165881
843.895	0.0165894
843.973	0.0165652
844.051	0.0165280
844.129	0.0165873
844.207	0.0166534
844.285	0.0166174
844.363	0.0164138
844.442	0.0165200
844.520	0.0164436
844.598	0.0165168
844.676	0.0164907
844.754	0.0162840
844.832	0.0163544
844.910	0.0163229
844.988	0.0162583
845.067	0.0162717
845.145	0.0163313
845.223	0.0162482
845.301	0.0160903
845.379	0.0160817
845.457	0.0162865
845.535	0.0161548
845.613	0.0161576
845.692	0.0162760
845.770	0.0162344
845.848	0.0162923
845.926	0.0163580
846.004	0.0163335
846.082	0.0164142
846.160	0.0165369
846.238	0.0163854
846.317	0.0164642
846.395	0.0166130
846.473	0.0165183
846.551	0.0165498
846.629	0.0165590
846.707	0.0165025
846.785	0.0167007
846.863	0.0166576
846.942	0.0165749
847.020	0.0167130
847.098	0.0167390
847.176	0.0165923
847.254	0.0167519
847.332	0.0167603
847.410	0.0166431
847.488	0.0165704
847.567	0.0166520
847.645	0.0165974
847.723	0.0166646
847.801	0.0166737
847.879	0.0165593
847.957	0.0165202
848.035	0.0166428
848.113	0.0163196
848.192	0.0164298
848.270	0.0164440
848.348	0.0162997
848.426	0.0166800
848.504	0.0164596
848.582	0.0164793
848.660	0.0164093
848.738	0.0165712
848.817	0.0164978
848.895	0.0166083
848.973	0.0165350
849.051	0.0165991
849.129	0.0164404
849.207	0.0165839
849.285	0.0166795
849.363	0.0165113
849.442	0.0167603
849.520	0.0166175
849.598	0.0165961
849.676	0.0165616
849.754	0.0166747
849.832	0.0167379
849.910	0.0168433
849.988	0.0167151
850.067	0.0167846
850.145	0.0170403
850.223	0.0168143
850.301	0.0168053
850.379	0.0168587
850.457	0.0168546
850.535	0.0166694
850.613	0.0167732
850.692	0.0167121
850.770	0.0166297
850.848	0.0167981
850.926	0.0165777
851.004	0.0165075
851.082	0.0165253
851.160	0.0163790
851.238	0.0163370
851.317	0.0163785
851.395	0.0161946
851.473	0.0163598
851.551	0.0161652
851.629	0.0161691
851.707	0.0161064
851.785	0.0162074
851.863	0.0161660
851.942	0.0161950
852.020	0.0160803
852.098	0.0160760
852.176	0.0162605
852.254	0.0162708
852.332	0.0162732
852.410	0.0163604
852.488	0.0163289
852.567	0.0163203
852.645	0.0162697
852.723	0.0164394
852.801	0.0165305
852.879	0.0164174
852.957	0.0165125
853.035	0.0164323
853.113	0.0165927
853.192	0.0165792
853.270	0.0166302
853.348	0.0166591
853.426	0.0165390
853.504	0.0165207
853.582	0.0165306
853.660	0.0164065
853.738	0.0164748
853.817	0.0164698
853.895	0.0166240
853.973	0.0166324
854.051	0.0163953
854.129	0.0164227
854.207	0.0164452
854.285	0.0164299
854.363	0.0164317
854.442	0.0163938
854.520	0.0164877
854.598	0.0163748
854.676	0.0162607
854.754	0.0162424
854.832	0.0162953
854.910	0.0164476
854.988	0.0163614
855.067	0.0163082
855.145	0.0163116
855.223	0.0164764
855.301	0.0164056
855.379	0.0163334
855.457	0.0163218
855.535	0.0164524
855.613	0.0165364
855.692	0.0163879
855.770	0.0164720
855.848	0.0163921
855.926	0.0165955
856.004	0.0163189
856.082	0.0164206
856.160	0.0164774
856.238	0.0165378
856.317	0.0164680
856.395	0.0164353
856.473	0.0163819
856.551	0.0163012
856.629	0.0165332
856.707	0.0163641
856.785	0.0165514
856.863	0.0165405
856.942	0.0163570
857.020	0.0164869
857.098	0.0163897
857.176	0.0165128
857.254	0.0165788
857.332	0.0164732
857.410	0.0164664
857.488	0.0165632
857.567	0.0165907
857.645	0.0163969
857.723	0.0164699
857.801	0.0165450
857.879	0.0164468
857.957	0.0164988
858.035	0.0166652
858.113	0.0165716
858.192	0.0164684
858.270	0.0164442
858.348	0.0164698
858.426	0.0164548
858.504	0.0163915
858.582	0.0164940
858.660	0.0164810
858.738	0.0164489
858.817	0.0162483
858.895	0.0162959
858.973	0.0162388
859.051	0.0163329
859.129	0.0161323
859.207	0.0162326
859.285	0.0161710
859.363	0.0161645
859.442	0.0161307
859.520	0.0162151
859.598	0.0161819
859.676	0.0160697
859.754	0.0160977
859.832	0.0161288
859.910	0.0159418
859.988	0.0159532
860.067	0.0159841
860.145	0.0160694
860.223	0.0161646
860.301	0.0160938
860.379	0.0160450
860.457	0.0161248
860.535	0.0160793
860.613	0.0163470
860.692	0.0161994
860.770	0.0162790
860.848	0.0162372
860.926	0.0163609
861.004	0.0163924
861.082	0.0163669
861.160	0.0162559
861.238	0.0163676
861.317	0.0164536
861.395	0.0165366
861.473	0.0165388
861.551	0.0165711
861.629	0.0166273
861.707	0.0166319
861.785	0.0166284
861.863	0.0165777
861.942	0.0166592
862.020	0.0166128
862.098	0.0166972
862.176	0.0167975
862.254	0.0166075
862.332	0.0165530
862.410	0.0165556
862.488	0.0166301
862.567	0.0166763
862.645	0.0166293
862.723	0.0166135
862.801	0.0165812
862.879	0.0166042
862.957	0.0166755
863.035	0.0165274
863.113	0.0166745
863.192	0.0166451
863.270	0.0165586
863.348	0.0166502
863.426	0.0166072
863.504	0.0167305
863.582	0.0166360
863.660	0.0165405
863.738	0.0165028
863.817	0.0166887
863.895	0.0165927
863.973	0.0166947
864.051	0.0165446
864.129	0.0165685
864.207	0.0166148
864.285	0.0166845
864.363	0.0165995
864.442	0.0165076
864.520	0.0164010
864.598	0.0164581
864.676	0.0165712
864.754	0.0164456
864.832	0.0165324
864.910	0.0164518
864.988	0.0163520
865.067	0.0162964
865.145	0.0165446
865.223	0.0164099
865.301	0.0163302
865.379	0.0162213
865.457	0.0162646
865.535	0.0163078
865.613	0.0161348
865.692	0.0162455
865.770	0.0163453
865.848	0.0163097
865.926	0.0163016
866.004	0.0163536
866.082	0.0162650
866.160	0.0162801
866.238	0.0163709
866.317	0.0164351
866.395	0.0162549
866.473	0.0163866
866.551	0.0163961
866.629	0.0164268
866.707	0.0164758
866.785	0.0162103
866.863	0.0162791
866.942	0.0164256
867.020	0.0163564
867.098	0.0164474
867.176	0.0163206
867.254	0.0163936
867.332	0.0164412
867.410	0.0164644
867.488	0.0163017
867.567	0.0162836
867.645	0.0164972
867.723	0.0164776
867.801	0.0165469
867.879	0.0164743
867.957	0.0163610
868.035	0.0164765
868.113	0.0165019
868.192	0.0163504
868.270	0.0164314
868.348	0.0162812
868.426	0.0164636
868.504	0.0164461
868.582	0.0164034
868.660	0.0163039
868.738	0.0163766
868.817	0.0163979
868.895	0.0162272
868.973	0.0162314
869.051	0.0164183
869.129	0.0163770
869.207	0.0163185
869.285	0.0163491
869.363	0.0162958
869.442	0.0162629
869.520	0.0163668
869.598	0.0163530
869.676	0.0163406
869.754	0.0164140
869.832	0.0163073
869.910	0.0163862
869.988	0.0165289
870.067	0.0165500
870.145	0.0164301
870.223	0.0163849
870.301	0.0164539
870.379	0.0164480
870.457	0.0165948
870.535	0.0164761
870.613	0.0165008
870.692	0.0163795
870.770	0.0164634
870.848	0.0164198
870.926	0.0163627
871.004	0.0164109
871.082	0.0164733
871.160	0.0166099
871.238	0.0164588
871.317	0.0164521
871.395	0.0163717
871.473	0.0165134
871.551	0.0164942
871.629	0.0163848
871.707	0.0163745
871.785	0.0163885
871.863	0.0164097
871.942	0.0164014
872.020	0.0164133
872.098	0.0163663
872.176	0.0164670
872.254	0.0163610
872.332	0.0163972
872.410	0.0164557
872.488	0.0163248
872.567	0.0163203
872.645	0.0163963
872.723	0.0162685
872.801	0.0162336
872.879	0.0162902
872.957	0.0163348
873.035	0.0163583
873.113	0.0162883
873.192	0.0163405
873.270	0.0163142
873.348	0.0164558
873.426	0.0163384
873.504	0.0163515
873.582	0.0163712
873.660	0.0163840
873.738	0.0163091
873.817	0.0164763
873.895	0.0165291
873.973	0.0163928
874.051	0.0164503
874.129	0.0164156
874.207	0.0164320
874.285	0.0163902
874.363	0.0164225
874.442	0.0164063
874.520	0.0163994
874.598	0.0162869
874.676	0.0162718
874.754	0.0162919
874.832	0.0161961
874.910	0.0162889
874.988	0.0163098
875.067	0.0162374
875.145	0.0161629
875.223	0.0162824
875.301	0.0161926
875.379	0.0162157
875.457	0.0162093
875.535	0.0161195
875.613	0.0162735
875.692	0.0161885
875.770	0.0163237
875.848	0.0163059
875.926	0.0163129
876.004	0.0162223
876.082	0.0162188
876.160	0.0162271
876.238	0.0162218
876.317	0.0163374
876.395	0.0162158
876.473	0.0161707
876.551	0.0161320
876.629	0.0163130
876.707	0.0162453
876.785	0.0164546
876.863	0.0161755
876.942	0.0161957
877.020	0.0162621
877.098	0.0161595
877.176	0.0162845
877.254	0.0163309
877.332	0.0161763
877.410	0.0161848
877.488	0.0163948
877.567	0.0162314
877.645	0.0163395
877.723	0.0163789
877.801	0.0164420
877.879	0.0164742
877.957	0.0165797
878.035	0.0165069
878.113	0.0165079
878.192	0.0164085
878.270	0.0164424
878.348	0.0165284
878.426	0.0164753
878.504	0.0165923
878.582	0.0166323
878.660	0.0165674
878.738	0.0165907
878.817	0.0165556
878.895	0.0167211
878.973	0.0167034
879.051	0.0166575
879.129	0.0166868
879.207	0.0166271
879.285	0.0166492
879.363	0.0166709
879.442	0.0166505
879.520	0.0166314
879.598	0.0166956
879.676	0.0166901
879.754	0.0167330
879.832	0.0167460
879.910	0.0166071
879.988	0.0164896
880.067	0.0165107
880.145	0.0163720
880.223	0.0164666
880.301	0.0164317
880.379	0.0164957
880.457	0.0163837
880.535	0.0163171
880.613	0.0162265
880.692	0.0163038
880.770	0.0162319
880.848	0.0161318
880.926	0.0160887
881.004	0.0162231
881.082	0.0162515
881.160	0.0160641
881.238	0.0161808
881.317	0.0161810
881.395	0.0161238
881.473	0.0161884
881.551	0.0162354
881.629	0.0162254
881.707	0.0162448
881.785	0.0163239
881.863	0.0162892
881.942	0.0164095
882.020	0.0162848
882.098	0.0164533
882.176	0.0164421
882.254	0.0165095
882.332	0.0165549
882.410	0.0164374
882.488	0.0164043
882.567	0.0165498
882.645	0.0165917
882.723	0.0165670
882.801	0.0165334
882.879	0.0165959
882.957	0.0164843
883.035	0.0166995
883.113	0.0166844
883.192	0.0165992
883.270	0.0166382
883.348	0.0166669
883.426	0.0165393
883.504	0.0165431
883.582	0.0166056
883.660	0.0165845
883.738	0.0165736
883.817	0.0164764
883.895	0.0165454
883.973	0.0164902
884.051	0.0163809
884.129	0.0163745
884.207	0.0164224
884.285	0.0164230
884.363	0.0163554
884.442	0.0163652
884.520	0.0163992
884.598	0.0163168
884.676	0.0163912
884.754	0.0162893
884.832	0.0162077
884.910	0.0163053
884.988	0.0164038
885.067	0.0163084
885.145	0.0163412
885.223	0.0162771
885.301	0.0163220
885.379	0.0162756
885.457	0.0162922
885.535	0.0163537
885.613	0.0161930
885.692	0.0162245
885.770	0.0163414
885.848	0.0164169
885.926	0.0164679
886.004	0.0162765
886.082	0.0163610
886.160	0.0165163
886.238	0.0165531
886.317	0.0164606
886.395	0.0163805
886.473	0.0164021
886.551	0.0164588
886.629	0.0165731
886.707	0.0165805
886.785	0.0165289
886.863	0.0165369
886.942	0.0165305
887.020	0.0165350
887.098	0.0164985
887.176	0.0164942
887.254	0.0164587
887.332	0.0164846
887.410	0.0164896
887.488	0.0164861
887.567	0.0164745
887.645	0.0165565
887.723	0.0165514
887.801	0.0165753
887.879	0.0166692
887.957	0.0166442
888.035	0.0165205
888.113	0.0164482
888.192	0.0164290
888.270	0.0165482
888.348	0.0165800
888.426	0.0164757
888.504	0.0164944
888.582	0.0164608
888.660	0.0164913
888.738	0.0163419
888.817	0.0162737
888.895	0.0163182
888.973	0.0164436
889.051	0.0163242
889.129	0.0163736
889.207	0.0164671
889.285	0.0163947
889.363	0.0163184
889.442	0.0163270
889.520	0.0163378
889.598	0.0163231
889.676	0.0164045
889.754	0.0163696
889.832	0.0164469
889.910	0.0164465
889.988	0.0164265
890.067	0.0163902
890.145	0.0166560
890.223	0.0164270
890.301	0.0164439
890.379	0.0163609
890.457	0.0164442
890.535	0.0164433
890.613	0.0163843
890.692	0.0164098
890.770	0.0163630
890.848	0.0163501
890.926	0.0165297
891.004	0.0163462
891.082	0.0163231
891.160	0.0163001
891.238	0.0163870
891.317	0.0163766
891.395	0.0162664
891.473	0.0162849
891.551	0.0163447
891.629	0.0161947
891.707	0.0161500
891.785	0.0162002
891.863	0.0162955
891.942	0.0162379
892.020	0.0161559
892.098	0.0161149
892.176	0.0161443
892.254	0.0162798
892.332	0.0161504
892.410	0.0161276
892.488	0.0162029
892.567	0.0161584
892.645	0.0161745
892.723	0.0163058
892.801	0.0163490
892.879	0.0163250
892.957	0.0163275
893.035	0.0163439
893.113	0.0164742
893.192	0.0164540
893.270	0.0165466
893.348	0.0166032
893.426	0.0165991
893.504	0.0165758
893.582	0.0167947
893.660	0.0166882
893.738	0.0166523
893.817	0.0166754
893.895	0.0166715
893.973	0.0165791
894.051	0.0166444
894.129	0.0165803
894.207	0.0166737
894.285	0.0166932
894.363	0.0166998
894.442	0.0166896
894.520	0.0166336
894.598	0.0165395
894.676	0.0167200
894.754	0.0167361
894.832	0.0165085
894.910	0.0166993
894.988	0.0166796
895.067	0.0167650
895.145	0.0165948
895.223	0.0167139
895.301	0.0167193
895.379	0.0166347
895.457	0.0166270
895.535	0.0165486
895.613	0.0167307
895.692	0.0167519
895.770	0.0166322
895.848	0.0165269
895.926	0.0167818
896.004	0.0167305
896.082	0.0167513
896.160	0.0166972
896.238	0.0166781
896.317	0.0167809
896.395	0.0167056
896.473	0.0166386
896.551	0.0166943
896.629	0.0166958
896.707	0.0166979
896.785	0.0165575
896.863	0.0165903
896.942	0.0164182
897.020	0.0165347
897.098	0.0164909
897.176	0.0165813
897.254	0.0166053
897.332	0.0163451
897.410	0.0164373
897.488	0.0163818
897.567	0.0164270
897.645	0.0163703
897.723	0.0163361
897.801	0.0164233
897.879	0.0163403
897.957	0.0163078
898.035	0.0163900
898.113	0.0163787
898.192	0.0164672
898.270	0.0162470
898.348	0.0162972
898.426	0.0162926
898.504	0.0163777
898.582	0.0163860
898.660	0.0164770
898.738	0.0163947
898.817	0.0164057
898.895	0.0164766
898.973	0.0164329
899.051	0.0164521
899.129	0.0164689
899.207	0.0163904
899.285	0.0165832
899.363	0.0165637
899.442	0.0164554
899.520	0.0165643
899.598	0.0163954
899.676	0.0165228
899.754	0.0163747
899.832	0.0164095
899.910	0.0165071
899.988	0.0164470
900.067	0.0165231
900.145	0.0164404
900.223	0.0163692
900.301	0.0163651
900.379	0.0164704
900.457	0.0164261
900.535	0.0163504
900.613	0.0165018
900.692	0.0163857
900.770	0.0164117
900.848	0.0165013
900.926	0.0164259
901.004	0.0163728
901.082	0.0164333
901.160	0.0162720
901.238	0.0165395
901.317	0.0164668
901.395	0.0163336
901.473	0.0163699
901.551	0.0164594
901.629	0.0164181
901.707	0.0164462
901.785	0.0164797
901.863	0.0164272
901.942	0.0165258
902.020	0.0165327
902.098	0.0163906
902.176	0.0164104
902.254	0.0163478
902.332	0.0164247
902.410	0.0164363
902.488	0.0164023
902.567	0.0164094
902.645	0.0164166
902.723	0.0164166
902.801	0.0163712
902.879	0.0163434
902.957	0.0164165
903.035	0.0164029
903.113	0.0162612
903.192	0.0164017
903.270	0.0161528
903.348	0.0161259
903.426	0.0162065
903.504	0.0162230
903.582	0.0161567
903.660	0.0162045
903.738	0.0163236
903.817	0.0162242
903.895	0.0161828
903.973	0.0162564
904.051	0.0163459
904.129	0.0163190
904.207	0.0161942
904.285	0.0163408
904.363	0.0163047
904.442	0.0162678
904.520	0.0163447
904.598	0.0163478
904.676	0.0164762
904.754	0.0164922
904.832	0.0164395
904.910	0.0163406
904.988	0.0164631
905.067	0.0166115
905.145	0.0166081
905.223	0.0166444
905.301	0.0166924
905.379	0.0165832
905.457	0.0166421
905.535	0.0165889
905.613	0.0167467
905.692	0.0166504
905.770	0.0166904
905.848	0.0167138
905.926	0.0167519
906.004	0.0166582
906.082	0.0167542
906.160	0.0169057
906.238	0.0166834
906.317	0.0166046
906.395	0.0167058
906.473	0.0167221
906.551	0.0167507
906.629	0.0166847
906.707	0.0166486
906.785	0.0164760
906.863	0.0166791
906.942	0.0166138
907.020	0.0166694
907.098	0.0165433
907.176	0.0164812
907.254	0.0164705
907.332	0.0164678
907.410	0.0165845
907.488	0.0164644
907.567	0.0163966
907.645	0.0163068
907.723	0.0162844
907.801	0.0163667
907.879	0.0163407
907.957	0.0164095
908.035	0.0164832
908.113	0.0162798
908.192	0.0163647
908.270	0.0164094
908.348	0.0164090
908.426	0.0163448
908.504	0.0162114
908.582	0.0163043
908.660	0.0163887
908.738	0.0162305
908.817	0.0164058
908.895	0.0164442
908.973	0.0164584
909.051	0.0164227
909.129	0.0163019
909.207	0.0165173
909.285	0.0163890
909.363	0.0165524
909.442	0.0164790
909.520	0.0164501
909.598	0.0162840
909.676	0.0164435
909.754	0.0163392
909.832	0.0165839
909.910	0.0164032
909.988	0.0163528
910.067	0.0165180
910.145	0.0164936
910.223	0.0163036
910.301	0.0164474
910.379	0.0164824
910.457	0.0164187
910.535	0.0164531
910.613	0.0164861
910.692	0.0165067
910.770	0.0163931
910.848	0.0164038
910.926	0.0165090
911.004	0.0165559
911.082	0.0166393
911.160	0.0165955
911.238	0.0165698
911.317	0.0165229
911.395	0.0165070
911.473	0.0165888
911.551	0.0166731
911.629	0.0166737
911.707	0.0167110
911.785	0.0165778
911.863	0.0166244
911.942	0.0166617
912.020	0.0165577
912.098	0.0166077
912.176	0.0167787
912.254	0.0165064
912.332	0.0166743
912.410	0.0165089
912.488	0.0166298
912.567	0.0165610
912.645	0.0166870
912.723	0.0167793
912.801	0.0166214
912.879	0.0166164
912.957	0.0167677
913.035	0.0167007
913.113	0.0165154
913.192	0.0166506
913.270	0.0168055
913.348	0.0165501
913.426	0.0166512
913.504	0.0168340
913.582	0.0165548
913.660	0.0166590
913.738	0.0167738
913.817	0.0166397
913.895	0.0167702
913.973	0.0166956
914.051	0.0167090
914.129	0.0165390
914.207	0.0166304
914.285	0.0166370
914.363	0.0166646
914.442	0.0166341
914.520	0.0163844
914.598	0.0165013
914.676	0.0165827
914.754	0.0165507
914.832	0.0165889
914.910	0.0164456
914.988	0.0163970
915.067	0.0165013
915.145	0.0163379
915.223	0.0163371
915.301	0.0164512
915.379	0.0163252
915.457	0.0162685
915.535	0.0163885
915.613	0.0164803
915.692	0.0163313
915.770	0.0161655
915.848	0.0163712
915.926	0.0163897
916.004	0.0163165
916.082	0.0163836
916.160	0.0162053
916.238	0.0161707
916.317	0.0162401
916.395	0.0164512
916.473	0.0163670
916.551	0.0162019
916.629	0.0162682
916.707	0.0163341
916.785	0.0164259
916.863	0.0165179
916.942	0.0165475
917.020	0.0164588
917.098	0.0164402
917.176	0.0164718
917.254	0.0164477
917.332	0.0164998
917.410	0.0165195
917.488	0.0165283
917.567	0.0164233
917.645	0.0166155
917.723	0.0165213
917.801	0.0165250
917.879	0.0164667
917.957	0.0164803
918.035	0.0165510
918.113	0.0163779
918.192	0.0165380
918.270	0.0164011
918.348	0.0164417
918.426	0.0165221
918.504	0.0166147
918.582	0.0165578
918.660	0.0165600
918.738	0.0165958
918.817	0.0164964
918.895	0.0164605
918.973	0.0165871
919.051	0.0165460
919.129	0.0165538
919.207	0.0166331
919.285	0.0165953
919.363	0.0165651
919.442	0.0166603
919.520	0.0167240
919.598	0.0167247
919.676	0.0167116
919.754	0.0167406
919.832	0.0166945
919.910	0.0166810
