05/24/2022	20:39:11	Ver.	4.1	UNKNOWN
Optical Delay	599.981738	Delta X		0.078125	Sweeps	1	Scan Rate	0/0
Coordinates	Axis 1	NaN	Axis 2	NaN	Axis 3	NaN	Axis 4	NaN	Axis 5	NaN	Axis 6	0.000000
TX Power	0.000000	RX Power	0.000000

599.982	0.0161072
600.060	0.0160551
600.138	0.0160503
600.216	0.0160398
600.294	0.0160086
600.372	0.0159834
600.450	0.0160437
600.529	0.0160267
600.607	0.0160487
600.685	0.0160231
600.763	0.0158450
600.841	0.0160265
600.919	0.0159496
600.997	0.0159857
601.075	0.0159934
601.154	0.0159151
601.232	0.0160001
601.310	0.0159897
601.388	0.0159043
601.466	0.0159824
601.544	0.0161626
601.622	0.0159885
601.700	0.0159535
601.779	0.0159863
601.857	0.0162460
601.935	0.0161563
602.013	0.0161063
602.091	0.0159856
602.169	0.0160419
602.247	0.0159345
602.325	0.0160336
602.404	0.0160559
602.482	0.0161069
602.560	0.0160654
602.638	0.0159058
602.716	0.0159079
602.794	0.0158532
602.872	0.0159692
602.950	0.0159731
603.029	0.0159933
603.107	0.0158173
603.185	0.0158443
603.263	0.0158823
603.341	0.0159208
603.419	0.0161906
603.497	0.0159851
603.575	0.0160683
603.654	0.0160326
603.732	0.0161623
603.810	0.0160730
603.888	0.0160023
603.966	0.0160745
604.044	0.0160726
604.122	0.0160878
604.200	0.0159457
604.279	0.0160708
604.357	0.0161163
604.435	0.0158637
604.513	0.0160822
604.591	0.0160992
604.669	0.0159579
604.747	0.0159993
604.825	0.0160114
604.904	0.0160976
604.982	0.0159227
605.060	0.0160511
605.138	0.0159358
605.216	0.0159972
605.294	0.0160555
605.372	0.0160157
605.450	0.0159594
605.529	0.0159007
605.607	0.0160677
605.685	0.0160185
605.763	0.0161567
605.841	0.0160426
605.919	0.0161196
605.997	0.0162164
606.075	0.0160441
606.154	0.0161621
606.232	0.0161781
606.310	0.0161504
606.388	0.0161572
606.466	0.0161741
606.544	0.0160835
606.622	0.0160006
606.700	0.0162233
606.779	0.0163013
606.857	0.0162891
606.935	0.0161930
607.013	0.0160595
607.091	0.0159821
607.169	0.0162529
607.247	0.0161134
607.325	0.0160342
607.404	0.0160718
607.482	0.0161778
607.560	0.0160104
607.638	0.0160735
607.716	0.0161605
607.794	0.0161186
607.872	0.0159266
607.950	0.0162125
608.029	0.0161060
608.107	0.0160539
608.185	0.0161964
608.263	0.0162305
608.341	0.0163474
608.419	0.0161906
608.497	0.0161884
608.575	0.0162147
608.654	0.0162235
608.732	0.0161560
608.810	0.0161330
608.888	0.0162496
608.966	0.0162370
609.044	0.0161884
609.122	0.0163263
609.200	0.0162423
609.279	0.0162445
609.357	0.0163122
609.435	0.0161986
609.513	0.0163892
609.591	0.0162251
609.669	0.0162403
609.747	0.0163035
609.825	0.0164152
609.904	0.0164864
609.982	0.0163585
610.060	0.0162997
610.138	0.0163699
610.216	0.0162937
610.294	0.0163166
610.372	0.0163551
610.450	0.0163772
610.529	0.0163786
610.607	0.0162986
610.685	0.0163886
610.763	0.0164231
610.841	0.0164291
610.919	0.0163113
610.997	0.0164458
611.075	0.0165053
611.154	0.0162735
611.232	0.0163488
611.310	0.0163997
611.388	0.0163827
611.466	0.0164616
611.544	0.0164188
611.622	0.0164172
611.700	0.0163943
611.779	0.0164199
611.857	0.0163393
611.935	0.0163332
612.013	0.0163863
612.091	0.0163290
612.169	0.0163606
612.247	0.0162766
612.325	0.0163705
612.404	0.0164512
612.482	0.0162100
612.560	0.0161459
612.638	0.0163338
612.716	0.0163337
612.794	0.0161888
612.872	0.0162411
612.950	0.0161624
613.029	0.0162592
613.107	0.0161842
613.185	0.0160539
613.263	0.0161123
613.341	0.0161756
613.419	0.0160909
613.497	0.0162915
613.575	0.0162746
613.654	0.0161380
613.732	0.0161629
613.810	0.0162209
613.888	0.0162404
613.966	0.0162002
614.044	0.0162616
614.122	0.0161369
614.200	0.0162045
614.279	0.0161111
614.357	0.0162012
614.435	0.0161755
614.513	0.0161723
614.591	0.0162928
614.669	0.0162508
614.747	0.0160280
614.825	0.0162181
614.904	0.0160934
614.982	0.0160469
615.060	0.0161369
615.138	0.0160673
615.216	0.0159423
615.294	0.0161279
615.372	0.0160802
615.450	0.0160185
615.529	0.0159657
615.607	0.0160406
615.685	0.0160078
615.763	0.0160981
615.841	0.0161769
615.919	0.0161485
615.997	0.0160738
616.075	0.0160667
616.154	0.0159232
616.232	0.0161266
616.310	0.0161383
616.388	0.0160616
616.466	0.0160947
616.544	0.0160740
616.622	0.0160150
616.700	0.0159913
616.779	0.0160820
616.857	0.0160558
616.935	0.0160487
617.013	0.0160037
617.091	0.0161180
617.169	0.0159632
617.247	0.0159398
617.325	0.0160892
617.404	0.0160705
617.482	0.0160070
617.560	0.0160281
617.638	0.0160754
617.716	0.0160895
617.794	0.0160393
617.872	0.0160753
617.950	0.0162231
618.029	0.0161656
618.107	0.0161268
618.185	0.0160454
618.263	0.0161287
618.341	0.0161039
618.419	0.0160822
618.497	0.0160607
618.575	0.0161108
618.654	0.0161183
618.732	0.0160305
618.810	0.0160661
618.888	0.0160130
618.966	0.0159940
619.044	0.0160789
619.122	0.0161845
619.200	0.0160411
619.279	0.0160222
619.357	0.0161005
619.435	0.0161258
619.513	0.0160691
619.591	0.0161134
619.669	0.0161008
619.747	0.0161864
619.825	0.0161808
619.904	0.0160221
619.982	0.0161643
620.060	0.0161656
620.138	0.0160757
620.216	0.0161200
620.294	0.0161481
620.372	0.0161036
620.450	0.0161174
620.529	0.0160910
620.607	0.0160117
620.685	0.0161188
620.763	0.0161483
620.841	0.0161790
620.919	0.0161849
620.997	0.0161887
621.075	0.0161586
621.154	0.0161931
621.232	0.0161926
621.310	0.0160241
621.388	0.0161470
621.466	0.0162601
621.544	0.0162466
621.622	0.0161201
621.700	0.0161651
621.779	0.0162329
621.857	0.0161788
621.935	0.0162288
622.013	0.0162180
622.091	0.0161853
622.169	0.0161042
622.247	0.0164107
622.325	0.0164252
622.404	0.0162670
622.482	0.0162797
622.560	0.0163174
622.638	0.0164182
622.716	0.0164008
622.794	0.0163857
622.872	0.0163813
622.950	0.0162978
623.029	0.0163404
623.107	0.0164126
623.185	0.0163309
623.263	0.0163042
623.341	0.0164442
623.419	0.0164568
623.497	0.0163573
623.575	0.0163229
623.654	0.0163361
623.732	0.0162328
623.810	0.0163714
623.888	0.0162712
623.966	0.0162709
624.044	0.0162019
624.122	0.0161494
624.200	0.0162641
624.279	0.0162005
624.357	0.0161645
624.435	0.0162555
624.513	0.0160671
624.591	0.0161391
624.669	0.0161444
624.747	0.0162025
624.825	0.0160654
624.904	0.0160099
624.982	0.0160181
625.060	0.0161749
625.138	0.0160121
625.216	0.0159552
625.294	0.0160141
625.372	0.0159058
625.450	0.0160305
625.529	0.0160783
625.607	0.0159731
625.685	0.0160320
625.763	0.0160181
625.841	0.0160384
625.919	0.0160548
625.997	0.0159928
626.075	0.0160314
626.154	0.0160088
626.232	0.0159862
626.310	0.0159884
626.388	0.0161018
626.466	0.0159666
626.544	0.0160307
626.622	0.0158817
626.700	0.0159650
626.779	0.0159085
626.857	0.0160835
626.935	0.0159332
627.013	0.0158569
627.091	0.0160654
627.169	0.0160213
627.247	0.0158492
627.325	0.0158235
627.404	0.0159127
627.482	0.0158730
627.560	0.0159684
627.638	0.0158836
627.716	0.0157838
627.794	0.0156543
627.872	0.0157015
627.950	0.0157252
628.029	0.0158722
628.107	0.0157238
628.185	0.0157259
628.263	0.0155225
628.341	0.0156321
628.419	0.0158114
628.497	0.0158937
628.575	0.0159524
628.654	0.0160016
628.732	0.0162057
628.810	0.0162115
628.888	0.0161539
628.966	0.0163679
629.044	0.0163992
629.122	0.0162555
629.200	0.0163282
629.279	0.0164287
629.357	0.0163792
629.435	0.0164275
629.513	0.0163431
629.591	0.0164137
629.669	0.0165304
629.747	0.0164413
629.825	0.0164848
629.904	0.0165271
629.982	0.0166280
630.060	0.0165185
630.138	0.0165382
630.216	0.0165426
630.294	0.0165745
630.372	0.0164244
630.450	0.0164832
630.529	0.0164439
630.607	0.0162930
630.685	0.0162414
630.763	0.0163396
630.841	0.0161677
630.919	0.0160056
630.997	0.0161779
631.075	0.0160332
631.154	0.0162510
631.232	0.0162350
631.310	0.0160842
631.388	0.0160453
631.466	0.0160567
631.544	0.0161185
631.622	0.0161990
631.700	0.0161494
631.779	0.0162339
631.857	0.0162598
631.935	0.0162566
632.013	0.0161857
632.091	0.0163699
632.169	0.0162409
632.247	0.0161229
632.325	0.0162997
632.404	0.0164487
632.482	0.0162716
632.560	0.0160899
632.638	0.0162811
632.716	0.0162255
632.794	0.0161478
632.872	0.0161369
632.950	0.0162291
633.029	0.0158714
633.107	0.0157957
633.185	0.0157375
633.263	0.0156612
633.341	0.0156666
633.419	0.0156083
633.497	0.0155125
633.575	0.0155998
633.654	0.0154615
633.732	0.0155599
633.810	0.0155535
633.888	0.0155129
633.966	0.0156723
634.044	0.0157258
634.122	0.0156424
634.200	0.0158152
634.279	0.0158559
634.357	0.0159188
634.435	0.0161432
634.513	0.0161299
634.591	0.0163101
634.669	0.0164406
634.747	0.0164864
634.825	0.0166209
634.904	0.0169228
634.982	0.0170537
635.060	0.0171184
635.138	0.0174744
635.216	0.0175377
635.294	0.0177206
635.372	0.0178069
635.450	0.0177865
635.529	0.0176694
635.607	0.0178548
635.685	0.0176134
635.763	0.0175652
635.841	0.0174566
635.919	0.0173512
635.997	0.0172504
636.075	0.0169341
636.154	0.0167828
636.232	0.0163868
636.310	0.0165543
636.388	0.0161997
636.466	0.0159179
636.544	0.0157150
636.622	0.0155609
636.700	0.0153127
636.779	0.0149892
636.857	0.0147604
636.935	0.0146858
637.013	0.0142951
637.091	0.0141880
637.169	0.0140919
637.247	0.0140349
637.325	0.0139674
637.404	0.0139015
637.482	0.0141520
637.560	0.0141032
637.638	0.0142661
637.716	0.0145706
637.794	0.0147980
637.872	0.0149564
637.950	0.0152839
638.029	0.0157134
638.107	0.0158440
638.185	0.0162651
638.263	0.0166255
638.341	0.0169555
638.419	0.0173849
638.497	0.0176835
638.575	0.0178647
638.654	0.0182434
638.732	0.0186633
638.810	0.0187665
638.888	0.0189747
638.966	0.0190768
639.044	0.0189133
639.122	0.0190886
639.200	0.0190298
639.279	0.0189813
639.357	0.0187002
639.435	0.0182314
639.513	0.0180299
639.591	0.0175714
639.669	0.0173540
639.747	0.0167594
639.825	0.0163070
639.904	0.0157596
639.982	0.0154038
640.060	0.0150795
640.138	0.0145860
640.216	0.0141496
640.294	0.0139062
640.372	0.0135213
640.450	0.0133649
640.529	0.0130930
640.607	0.0129516
640.685	0.0129703
640.763	0.0129971
640.841	0.0130671
640.919	0.0131710
640.997	0.0134661
641.075	0.0136303
641.154	0.0139427
641.232	0.0143359
641.310	0.0144598
641.388	0.0149579
641.466	0.0153648
641.544	0.0157984
641.622	0.0163737
641.700	0.0167747
641.779	0.0173146
641.857	0.0177541
641.935	0.0182071
642.013	0.0185420
642.091	0.0190261
642.169	0.0193734
642.247	0.0193484
642.325	0.0196324
642.404	0.0196314
642.482	0.0195570
642.560	0.0194650
642.638	0.0193270
642.716	0.0189460
642.794	0.0186320
642.872	0.0184136
642.950	0.0182119
643.029	0.0178081
643.107	0.0173337
643.185	0.0171940
643.263	0.0167863
643.341	0.0164791
643.419	0.0160637
643.497	0.0157208
643.575	0.0155071
643.654	0.0151882
643.732	0.0149506
643.810	0.0147203
643.888	0.0144366
643.966	0.0143262
644.044	0.0142927
644.122	0.0142471
644.200	0.0143664
644.279	0.0143846
644.357	0.0144591
644.435	0.0145815
644.513	0.0148392
644.591	0.0150207
644.669	0.0151722
644.747	0.0154273
644.825	0.0157024
644.904	0.0158020
644.982	0.0159081
645.060	0.0160939
645.138	0.0162291
645.216	0.0162029
645.294	0.0164265
645.372	0.0164877
645.450	0.0165755
645.529	0.0166730
645.607	0.0167783
645.685	0.0168903
645.763	0.0168052
645.841	0.0167779
645.919	0.0167572
645.997	0.0167070
646.075	0.0168787
646.154	0.0166478
646.232	0.0165333
646.310	0.0165968
646.388	0.0164735
646.466	0.0162831
646.544	0.0162321
646.622	0.0162902
646.700	0.0164783
646.779	0.0163208
646.857	0.0165640
646.935	0.0166181
647.013	0.0166940
647.091	0.0167637
647.169	0.0170332
647.247	0.0171432
647.325	0.0173740
647.404	0.0174382
647.482	0.0174586
647.560	0.0176914
647.638	0.0177454
647.716	0.0176767
647.794	0.0175050
647.872	0.0176069
647.950	0.0175864
648.029	0.0175058
648.107	0.0174581
648.185	0.0171846
648.263	0.0170382
648.341	0.0167704
648.419	0.0165631
648.497	0.0163136
648.575	0.0160335
648.654	0.0157864
648.732	0.0156435
648.810	0.0153172
648.888	0.0151740
648.966	0.0147964
649.044	0.0145840
649.122	0.0144392
649.200	0.0142931
649.279	0.0140477
649.357	0.0139901
649.435	0.0138400
649.513	0.0138384
649.591	0.0137785
649.669	0.0137440
649.747	0.0138806
649.825	0.0139272
649.904	0.0142857
649.982	0.0144514
650.060	0.0147273
650.138	0.0149603
650.216	0.0153938
650.294	0.0155622
650.372	0.0161241
650.450	0.0165740
650.529	0.0168816
650.607	0.0171386
650.685	0.0174985
650.763	0.0177663
650.841	0.0179605
650.919	0.0180496
650.997	0.0182838
651.075	0.0183459
651.154	0.0182647
651.232	0.0181840
651.310	0.0181491
651.388	0.0181491
651.466	0.0180071
651.544	0.0178616
651.622	0.0177090
651.700	0.0174271
651.779	0.0171635
651.857	0.0168362
651.935	0.0169246
652.013	0.0167264
652.091	0.0163393
652.169	0.0161276
652.247	0.0159572
652.325	0.0158313
652.404	0.0155062
652.482	0.0153188
652.560	0.0151945
652.638	0.0150235
652.716	0.0149510
652.794	0.0147740
652.872	0.0146445
652.950	0.0147133
653.029	0.0147285
653.107	0.0146988
653.185	0.0145821
653.263	0.0147478
653.341	0.0147955
653.419	0.0150025
653.497	0.0150725
653.575	0.0152811
653.654	0.0152660
653.732	0.0154777
653.810	0.0157571
653.888	0.0159669
653.966	0.0161053
654.044	0.0161036
654.122	0.0161623
654.200	0.0163844
654.279	0.0162997
654.357	0.0165340
654.435	0.0164821
654.513	0.0165538
654.591	0.0167060
654.669	0.0165399
654.747	0.0167583
654.825	0.0169841
654.904	0.0170513
654.982	0.0170683
655.060	0.0172488
655.138	0.0173486
655.216	0.0176376
655.294	0.0175204
655.372	0.0175974
655.450	0.0176874
655.529	0.0174879
655.607	0.0173914
655.685	0.0173155
655.763	0.0170121
655.841	0.0170499
655.919	0.0168601
655.997	0.0166773
656.075	0.0163984
656.154	0.0161939
656.232	0.0160777
656.310	0.0158394
656.388	0.0154742
656.466	0.0153015
656.544	0.0152079
656.622	0.0147906
656.700	0.0148410
656.779	0.0147137
656.857	0.0147567
656.935	0.0145808
657.013	0.0144617
657.091	0.0145241
657.169	0.0147319
657.247	0.0146671
657.325	0.0146429
657.404	0.0148307
657.482	0.0148291
657.560	0.0151391
657.638	0.0151109
657.716	0.0151733
657.794	0.0153755
657.872	0.0154346
657.950	0.0156342
658.029	0.0158636
658.107	0.0159772
658.185	0.0162028
658.263	0.0163220
658.341	0.0166876
658.419	0.0167447
658.497	0.0168324
658.575	0.0170518
658.654	0.0170321
658.732	0.0171497
658.810	0.0171589
658.888	0.0170966
658.966	0.0170910
659.044	0.0170942
659.122	0.0172185
659.200	0.0172386
659.279	0.0171454
659.357	0.0171923
659.435	0.0172504
659.513	0.0172511
659.591	0.0171459
659.669	0.0172431
659.747	0.0173951
659.825	0.0173586
659.904	0.0173828
659.982	0.0173472
660.060	0.0173462
660.138	0.0172812
660.216	0.0171030
660.294	0.0171748
660.372	0.0170376
660.450	0.0169184
660.529	0.0167336
660.607	0.0167259
660.685	0.0165218
660.763	0.0165311
660.841	0.0164649
660.919	0.0164707
660.997	0.0162601
661.075	0.0161819
661.154	0.0160999
661.232	0.0159748
661.310	0.0159694
661.388	0.0157350
661.466	0.0154789
661.544	0.0153737
661.622	0.0154130
661.700	0.0151006
661.779	0.0150240
661.857	0.0149150
661.935	0.0149955
662.013	0.0149120
662.091	0.0149048
662.169	0.0149638
662.247	0.0149109
662.325	0.0149937
662.404	0.0149861
662.482	0.0150594
662.560	0.0150755
662.638	0.0149835
662.716	0.0148960
662.794	0.0148859
662.872	0.0150365
662.950	0.0149017
663.029	0.0149940
663.107	0.0151677
663.185	0.0152586
663.263	0.0154061
663.341	0.0154941
663.419	0.0155987
663.497	0.0157875
663.575	0.0159838
663.654	0.0161085
663.732	0.0162857
663.810	0.0164918
663.888	0.0167606
663.966	0.0170354
664.044	0.0170116
664.122	0.0172620
664.200	0.0173102
664.279	0.0174435
664.357	0.0177725
664.435	0.0177064
664.513	0.0178632
664.591	0.0180650
664.669	0.0181176
664.747	0.0180652
664.825	0.0180188
664.904	0.0178957
664.982	0.0179745
665.060	0.0180299
665.138	0.0179058
665.216	0.0178956
665.294	0.0176987
665.372	0.0175429
665.450	0.0177200
665.529	0.0176134
665.607	0.0174093
665.685	0.0173881
665.763	0.0173341
665.841	0.0171591
665.919	0.0171316
665.997	0.0170561
666.075	0.0171416
666.154	0.0168637
666.232	0.0168325
666.310	0.0168014
666.388	0.0167339
666.466	0.0167870
666.544	0.0167039
666.622	0.0165757
666.700	0.0164983
666.779	0.0164614
666.857	0.0164063
666.935	0.0160806
667.013	0.0158254
667.091	0.0155479
667.169	0.0151991
667.247	0.0149568
667.325	0.0145993
667.404	0.0142378
667.482	0.0140279
667.560	0.0136249
667.638	0.0133473
667.716	0.0131544
667.794	0.0130953
667.872	0.0129582
667.950	0.0130756
668.029	0.0127424
668.107	0.0128669
668.185	0.0130322
668.263	0.0132420
668.341	0.0135063
668.419	0.0136407
668.497	0.0138695
668.575	0.0141638
668.654	0.0145428
668.732	0.0149220
668.810	0.0153208
668.888	0.0157703
668.966	0.0160712
669.044	0.0165364
669.122	0.0170308
669.200	0.0173302
669.279	0.0175694
669.357	0.0180745
669.435	0.0184061
669.513	0.0187392
669.591	0.0189360
669.669	0.0191501
669.747	0.0192941
669.825	0.0193410
669.904	0.0195236
669.982	0.0193854
670.060	0.0194091
670.138	0.0191375
670.216	0.0189845
670.294	0.0186593
670.372	0.0185332
670.450	0.0182713
670.529	0.0179189
670.607	0.0175363
670.685	0.0172989
670.763	0.0171218
670.841	0.0168430
670.919	0.0165585
670.997	0.0164980
671.075	0.0163419
671.154	0.0162161
671.232	0.0160177
671.310	0.0159081
671.388	0.0159055
671.466	0.0158409
671.544	0.0157469
671.622	0.0156258
671.700	0.0155044
671.779	0.0153680
671.857	0.0153548
671.935	0.0153008
672.013	0.0148997
672.091	0.0148985
672.169	0.0147887
672.247	0.0145049
672.325	0.0145792
672.404	0.0145737
672.482	0.0145649
672.560	0.0144467
672.638	0.0141946
672.716	0.0143385
672.794	0.0143093
672.872	0.0142783
672.950	0.0145070
673.029	0.0145000
673.107	0.0143782
673.185	0.0146487
673.263	0.0147631
673.341	0.0147758
673.419	0.0149869
673.497	0.0149862
673.575	0.0150252
673.654	0.0151207
673.732	0.0153577
673.810	0.0156049
673.888	0.0158504
673.966	0.0158853
674.044	0.0160953
674.122	0.0161259
674.200	0.0163551
674.279	0.0163996
674.357	0.0164543
674.435	0.0166011
674.513	0.0167077
674.591	0.0167722
674.669	0.0168157
674.747	0.0169622
674.825	0.0170521
674.904	0.0170261
674.982	0.0171592
675.060	0.0172549
675.138	0.0172934
675.216	0.0171570
675.294	0.0172879
675.372	0.0171367
675.450	0.0171464
675.529	0.0172013
675.607	0.0171343
675.685	0.0171090
675.763	0.0171334
675.841	0.0170737
675.919	0.0168613
675.997	0.0170544
676.075	0.0169673
676.154	0.0168473
676.232	0.0168114
676.310	0.0168620
676.388	0.0170007
676.466	0.0169198
676.544	0.0168311
676.622	0.0168965
676.700	0.0167471
676.779	0.0169083
676.857	0.0166739
676.935	0.0165672
677.013	0.0164236
677.091	0.0163987
677.169	0.0163084
677.247	0.0161700
677.325	0.0158016
677.404	0.0158651
677.482	0.0156691
677.560	0.0155487
677.638	0.0155399
677.716	0.0152472
677.794	0.0153757
677.872	0.0153210
677.950	0.0152502
678.029	0.0153242
678.107	0.0153905
678.185	0.0153355
678.263	0.0154202
678.341	0.0155034
678.419	0.0154559
678.497	0.0154319
678.575	0.0154340
678.654	0.0153722
678.732	0.0155587
678.810	0.0154678
678.888	0.0154467
678.966	0.0154413
679.044	0.0154740
679.122	0.0155561
679.200	0.0155624
679.279	0.0154215
679.357	0.0154363
679.435	0.0156467
679.513	0.0155735
679.591	0.0156528
679.669	0.0157177
679.747	0.0156246
679.825	0.0157972
679.904	0.0158031
679.982	0.0158326
680.060	0.0158135
680.138	0.0157635
680.216	0.0158426
680.294	0.0158829
680.372	0.0158754
680.450	0.0158418
680.529	0.0158973
680.607	0.0160298
680.685	0.0160217
680.763	0.0159364
680.841	0.0159003
680.919	0.0159554
680.997	0.0160056
681.075	0.0160869
681.154	0.0162082
681.232	0.0161008
681.310	0.0160964
681.388	0.0162451
681.466	0.0164083
681.544	0.0164498
681.622	0.0165665
681.700	0.0165949
681.779	0.0168405
681.857	0.0167695
681.935	0.0168497
682.013	0.0169872
682.091	0.0170946
682.169	0.0171469
682.247	0.0173206
682.325	0.0173399
682.404	0.0173975
682.482	0.0173602
682.560	0.0174812
682.638	0.0176881
682.716	0.0176485
682.794	0.0177613
682.872	0.0176955
682.950	0.0176708
683.029	0.0176991
683.107	0.0176608
683.185	0.0173890
683.263	0.0173706
683.341	0.0170892
683.419	0.0169783
683.497	0.0165476
683.575	0.0165501
683.654	0.0161527
683.732	0.0159550
683.810	0.0156861
683.888	0.0154664
683.966	0.0151454
684.044	0.0149041
684.122	0.0145515
684.200	0.0145575
684.279	0.0143179
684.357	0.0142076
684.435	0.0141732
684.513	0.0139884
684.591	0.0140198
684.669	0.0139085
684.747	0.0141556
684.825	0.0143441
684.904	0.0143941
684.982	0.0145305
685.060	0.0146286
685.138	0.0148260
685.216	0.0149776
685.294	0.0151160
685.372	0.0153635
685.450	0.0155785
685.529	0.0157738
685.607	0.0158560
685.685	0.0159069
685.763	0.0160899
685.841	0.0163123
685.919	0.0164404
685.997	0.0165784
686.075	0.0166734
686.154	0.0169066
686.232	0.0171688
686.310	0.0171630
686.388	0.0172214
686.466	0.0174686
686.544	0.0175307
686.622	0.0175468
686.700	0.0176418
686.779	0.0176989
686.857	0.0176702
686.935	0.0177491
687.013	0.0176730
687.091	0.0175819
687.169	0.0173434
687.247	0.0172233
687.325	0.0170384
687.404	0.0169444
687.482	0.0167125
687.560	0.0167599
687.638	0.0165327
687.716	0.0163177
687.794	0.0161951
687.872	0.0161938
687.950	0.0161546
688.029	0.0158890
688.107	0.0157656
688.185	0.0156172
688.263	0.0154263
688.341	0.0155765
688.419	0.0155689
688.497	0.0154120
688.575	0.0153499
688.654	0.0152258
688.732	0.0154467
688.810	0.0154793
688.888	0.0154967
688.966	0.0155620
689.044	0.0156493
689.122	0.0156583
689.200	0.0158123
689.279	0.0159908
689.357	0.0161662
689.435	0.0164322
689.513	0.0165710
689.591	0.0167138
689.669	0.0167496
689.747	0.0170698
689.825	0.0172043
689.904	0.0173948
689.982	0.0172017
690.060	0.0174027
690.138	0.0174990
690.216	0.0171634
690.294	0.0171051
690.372	0.0172807
690.450	0.0170457
690.529	0.0170529
690.607	0.0167643
690.685	0.0167569
690.763	0.0165000
690.841	0.0163517
690.919	0.0162154
690.997	0.0162914
691.075	0.0162793
691.154	0.0160535
691.232	0.0160026
691.310	0.0157974
691.388	0.0158574
691.466	0.0157299
691.544	0.0155858
691.622	0.0155913
691.700	0.0154578
691.779	0.0153886
691.857	0.0155191
691.935	0.0155018
692.013	0.0153680
692.091	0.0152880
692.169	0.0153555
692.247	0.0152282
692.325	0.0149988
692.404	0.0150812
692.482	0.0151642
692.560	0.0152202
692.638	0.0150111
692.716	0.0150159
692.794	0.0152203
692.872	0.0151867
692.950	0.0153659
693.029	0.0155318
693.107	0.0156463
693.185	0.0158564
693.263	0.0160519
693.341	0.0161717
693.419	0.0163736
693.497	0.0164888
693.575	0.0166009
693.654	0.0167476
693.732	0.0168213
693.810	0.0169106
693.888	0.0168710
693.966	0.0169342
694.044	0.0170737
694.122	0.0170072
694.200	0.0169000
694.279	0.0170491
694.357	0.0170017
694.435	0.0170137
694.513	0.0170231
694.591	0.0169796
694.669	0.0168863
694.747	0.0167660
694.825	0.0166765
694.904	0.0167753
694.982	0.0165708
695.060	0.0167574
695.138	0.0165752
695.216	0.0164112
695.294	0.0164529
695.372	0.0163799
695.450	0.0162328
695.529	0.0161480
695.607	0.0160469
695.685	0.0158627
695.763	0.0159688
695.841	0.0158398
695.919	0.0157835
695.997	0.0159187
696.075	0.0156363
696.154	0.0154961
696.232	0.0156828
696.310	0.0156427
696.388	0.0155274
696.466	0.0156056
696.544	0.0157007
696.622	0.0157162
696.700	0.0157472
696.779	0.0157277
696.857	0.0158472
696.935	0.0158438
697.013	0.0156774
697.091	0.0158776
697.169	0.0158952
697.247	0.0157957
697.325	0.0158569
697.404	0.0158591
697.482	0.0159281
697.560	0.0159727
697.638	0.0158526
697.716	0.0160051
697.794	0.0159882
697.872	0.0160446
697.950	0.0159665
698.029	0.0160678
698.107	0.0161552
698.185	0.0161362
698.263	0.0161407
698.341	0.0161940
698.419	0.0161744
698.497	0.0160488
698.575	0.0161540
698.654	0.0161550
698.732	0.0161229
698.810	0.0160780
698.888	0.0161076
698.966	0.0161304
699.044	0.0161517
699.122	0.0160699
699.200	0.0160191
699.279	0.0161806
699.357	0.0160867
699.435	0.0160482
699.513	0.0160798
699.591	0.0159927
699.669	0.0160426
699.747	0.0159705
699.825	0.0161355
699.904	0.0160302
699.982	0.0161407
700.060	0.0164657
700.138	0.0164751
700.216	0.0165308
700.294	0.0166332
700.372	0.0165893
700.450	0.0165869
700.529	0.0169062
700.607	0.0166901
700.685	0.0167500
700.763	0.0168900
700.841	0.0167110
700.919	0.0168423
700.997	0.0164996
701.075	0.0165791
701.154	0.0166747
701.232	0.0166853
701.310	0.0165816
701.388	0.0164540
701.466	0.0164907
701.544	0.0164552
701.622	0.0163282
701.700	0.0162831
701.779	0.0161753
701.857	0.0162798
701.935	0.0160857
702.013	0.0159599
702.091	0.0160523
702.169	0.0159566
702.247	0.0158673
702.325	0.0158862
702.404	0.0158148
702.482	0.0157343
702.560	0.0158086
702.638	0.0159029
702.716	0.0157333
702.794	0.0156544
702.872	0.0158163
702.950	0.0159553
703.029	0.0157266
703.107	0.0158648
703.185	0.0159352
703.263	0.0157131
703.341	0.0157383
703.419	0.0159781
703.497	0.0159953
703.575	0.0159660
703.654	0.0160910
703.732	0.0161958
703.810	0.0161194
703.888	0.0160820
703.966	0.0161816
704.044	0.0161858
704.122	0.0159734
704.200	0.0159058
704.279	0.0159625
704.357	0.0158306
704.435	0.0159129
704.513	0.0158701
704.591	0.0156226
704.669	0.0157036
704.747	0.0157801
704.825	0.0157859
704.904	0.0158750
704.982	0.0158077
705.060	0.0159996
705.138	0.0159006
705.216	0.0159116
705.294	0.0159316
705.372	0.0161351
705.450	0.0160270
705.529	0.0163570
705.607	0.0162982
705.685	0.0162191
705.763	0.0163276
705.841	0.0164584
705.919	0.0164177
705.997	0.0164224
706.075	0.0162064
706.154	0.0161742
706.232	0.0161627
706.310	0.0162778
706.388	0.0160549
706.466	0.0161832
706.544	0.0162558
706.622	0.0161150
706.700	0.0160778
706.779	0.0161221
706.857	0.0160973
706.935	0.0161456
707.013	0.0161549
707.091	0.0162535
707.169	0.0163443
707.247	0.0162794
707.325	0.0162816
707.404	0.0164130
707.482	0.0165724
707.560	0.0166743
707.638	0.0167275
707.716	0.0166710
707.794	0.0167414
707.872	0.0167772
707.950	0.0167237
708.029	0.0167622
708.107	0.0166972
708.185	0.0168911
708.263	0.0167609
708.341	0.0168069
708.419	0.0166687
708.497	0.0168258
708.575	0.0167756
708.654	0.0167232
708.732	0.0168163
708.810	0.0166198
708.888	0.0166444
708.966	0.0165757
709.044	0.0166137
709.122	0.0162878
709.200	0.0165403
709.279	0.0165427
709.357	0.0162846
709.435	0.0162285
709.513	0.0161347
709.591	0.0159139
709.669	0.0159472
709.747	0.0160041
709.825	0.0160403
709.904	0.0159180
709.982	0.0158730
710.060	0.0156325
710.138	0.0158100
710.216	0.0158611
710.294	0.0158743
710.372	0.0158375
710.450	0.0158665
710.529	0.0159968
710.607	0.0158490
710.685	0.0159561
710.763	0.0159488
710.841	0.0158802
710.919	0.0157718
710.997	0.0156427
711.075	0.0157111
711.154	0.0156500
711.232	0.0155016
711.310	0.0154456
711.388	0.0154178
711.466	0.0154819
711.544	0.0153775
711.622	0.0155200
711.700	0.0154404
711.779	0.0153418
711.857	0.0156281
711.935	0.0155018
712.013	0.0157240
712.091	0.0158371
712.169	0.0158660
712.247	0.0160118
712.325	0.0160404
712.404	0.0161987
712.482	0.0163440
712.560	0.0163960
712.638	0.0164449
712.716	0.0165460
712.794	0.0165767
712.872	0.0166125
712.950	0.0165850
713.029	0.0166469
713.107	0.0167538
713.185	0.0168483
713.263	0.0165254
713.341	0.0166035
713.419	0.0167047
713.497	0.0168558
713.575	0.0168128
713.654	0.0166007
713.732	0.0166889
713.810	0.0166797
713.888	0.0167709
713.966	0.0166753
714.044	0.0166289
714.122	0.0167392
714.200	0.0167039
714.279	0.0168329
714.357	0.0166702
714.435	0.0166285
714.513	0.0165612
714.591	0.0165652
714.669	0.0164247
714.747	0.0164306
714.825	0.0163059
714.904	0.0161831
714.982	0.0161170
715.060	0.0159854
715.138	0.0160030
715.216	0.0158304
715.294	0.0156757
715.372	0.0156815
715.450	0.0155894
715.529	0.0157690
715.607	0.0155860
715.685	0.0155841
715.763	0.0157568
715.841	0.0156314
715.919	0.0157322
715.997	0.0158511
716.075	0.0158031
716.154	0.0157189
716.232	0.0159212
716.310	0.0158837
716.388	0.0159830
716.466	0.0160075
716.544	0.0158681
716.622	0.0161163
716.700	0.0160776
716.779	0.0160049
716.857	0.0160956
716.935	0.0160816
717.013	0.0158478
717.091	0.0160574
717.169	0.0161161
717.247	0.0161711
717.325	0.0162822
717.404	0.0163622
717.482	0.0163018
717.560	0.0161903
717.638	0.0162157
717.716	0.0162877
717.794	0.0162542
717.872	0.0162591
717.950	0.0163742
718.029	0.0163717
718.107	0.0163817
718.185	0.0164556
718.263	0.0164317
718.341	0.0164359
718.419	0.0164365
718.497	0.0165253
718.575	0.0164454
718.654	0.0164967
718.732	0.0165307
718.810	0.0165133
718.888	0.0164728
718.966	0.0165989
719.044	0.0165621
719.122	0.0165678
719.200	0.0164935
719.279	0.0165536
719.357	0.0165392
719.435	0.0166832
719.513	0.0165515
719.591	0.0166164
719.669	0.0166345
719.747	0.0164196
719.825	0.0164584
719.904	0.0164013
719.982	0.0162896
720.060	0.0162727
720.138	0.0162582
720.216	0.0162035
720.294	0.0160881
720.372	0.0160503
720.450	0.0160717
720.529	0.0159557
720.607	0.0160850
720.685	0.0160480
720.763	0.0158626
720.841	0.0159153
720.919	0.0159193
720.997	0.0159783
721.075	0.0161148
721.154	0.0160849
721.232	0.0161016
721.310	0.0161069
721.388	0.0161880
721.466	0.0159138
721.544	0.0162231
721.622	0.0162729
721.700	0.0160797
721.779	0.0161575
721.857	0.0160663
721.935	0.0159192
722.013	0.0160950
722.091	0.0162646
722.169	0.0160542
722.247	0.0159196
722.325	0.0160787
722.404	0.0160375
722.482	0.0160547
722.560	0.0159964
722.638	0.0161297
722.716	0.0160636
722.794	0.0160114
722.872	0.0159814
722.950	0.0159972
723.029	0.0162366
723.107	0.0161581
723.185	0.0161176
723.263	0.0162148
723.341	0.0161470
723.419	0.0161295
723.497	0.0161620
723.575	0.0161920
723.654	0.0162049
723.732	0.0160767
723.810	0.0161865
723.888	0.0163754
723.966	0.0164214
724.044	0.0164033
724.122	0.0163253
724.200	0.0164111
724.279	0.0163880
724.357	0.0164805
724.435	0.0162691
724.513	0.0163380
724.591	0.0164677
724.669	0.0164584
724.747	0.0163525
724.825	0.0163588
724.904	0.0162688
724.982	0.0163724
725.060	0.0163983
725.138	0.0163690
725.216	0.0162860
725.294	0.0162677
725.372	0.0161512
725.450	0.0162756
725.529	0.0161507
725.607	0.0162634
725.685	0.0160876
725.763	0.0161502
725.841	0.0161179
725.919	0.0163849
725.997	0.0163270
726.075	0.0162308
726.154	0.0164980
726.232	0.0162286
726.310	0.0162827
726.388	0.0163574
726.466	0.0163786
726.544	0.0165240
726.622	0.0164653
726.700	0.0163849
726.779	0.0163197
726.857	0.0164627
726.935	0.0163465
727.013	0.0162034
727.091	0.0163308
727.169	0.0162497
727.247	0.0161889
727.325	0.0162886
727.404	0.0163206
727.482	0.0162516
727.560	0.0161715
727.638	0.0161282
727.716	0.0160345
727.794	0.0161901
727.872	0.0160885
727.950	0.0160770
728.029	0.0160863
728.107	0.0160696
728.185	0.0159983
728.263	0.0159871
728.341	0.0160491
728.419	0.0161174
728.497	0.0160416
728.575	0.0160830
728.654	0.0160777
728.732	0.0160615
728.810	0.0159536
728.888	0.0159403
728.966	0.0160524
729.044	0.0160774
729.122	0.0159785
729.200	0.0159086
729.279	0.0160642
729.357	0.0160218
729.435	0.0159682
729.513	0.0160296
729.591	0.0158722
729.669	0.0159259
729.747	0.0159371
729.825	0.0160078
729.904	0.0160207
729.982	0.0160105
730.060	0.0160822
730.138	0.0160445
730.216	0.0161908
730.294	0.0161089
730.372	0.0159927
730.450	0.0160611
730.529	0.0161327
730.607	0.0160850
730.685	0.0159489
730.763	0.0161221
730.841	0.0161218
730.919	0.0160596
730.997	0.0161446
731.075	0.0161376
731.154	0.0162103
731.232	0.0161082
731.310	0.0161664
731.388	0.0160670
731.466	0.0161890
731.544	0.0162931
731.622	0.0163095
731.700	0.0163580
731.779	0.0163279
731.857	0.0162466
731.935	0.0162206
732.013	0.0163050
732.091	0.0163897
732.169	0.0163147
732.247	0.0162991
732.325	0.0162679
732.404	0.0162943
732.482	0.0162868
732.560	0.0162552
732.638	0.0161872
732.716	0.0160706
732.794	0.0159660
732.872	0.0160443
732.950	0.0160291
733.029	0.0159697
733.107	0.0159595
733.185	0.0158144
733.263	0.0158501
733.341	0.0157354
733.419	0.0158410
733.497	0.0157132
733.575	0.0157294
733.654	0.0158019
733.732	0.0156338
733.810	0.0157867
733.888	0.0156599
733.966	0.0157079
734.044	0.0157699
734.122	0.0158418
734.200	0.0158669
734.279	0.0158136
734.357	0.0158771
734.435	0.0159258
734.513	0.0159625
734.591	0.0160081
734.669	0.0161208
734.747	0.0161691
734.825	0.0160623
734.904	0.0162083
734.982	0.0163095
735.060	0.0162430
735.138	0.0163736
735.216	0.0164043
735.294	0.0163519
735.372	0.0164109
735.450	0.0164283
735.529	0.0163220
735.607	0.0163432
735.685	0.0164896
735.763	0.0164717
735.841	0.0162518
735.919	0.0162849
735.997	0.0162609
736.075	0.0161957
736.154	0.0163188
736.232	0.0162433
736.310	0.0161990
736.388	0.0162169
736.466	0.0160821
736.544	0.0160683
736.622	0.0160713
736.700	0.0160966
736.779	0.0160573
736.857	0.0160764
736.935	0.0159527
737.013	0.0158022
737.091	0.0158716
737.169	0.0158912
737.247	0.0158498
737.325	0.0156583
737.404	0.0157849
737.482	0.0159643
737.560	0.0157846
737.638	0.0159415
737.716	0.0158813
737.794	0.0160862
737.872	0.0159247
737.950	0.0160904
738.029	0.0161861
738.107	0.0161630
738.185	0.0162053
738.263	0.0163160
738.341	0.0163989
738.419	0.0164124
738.497	0.0166907
738.575	0.0165005
738.654	0.0164970
738.732	0.0166220
738.810	0.0165812
738.888	0.0166523
738.966	0.0165424
739.044	0.0166007
739.122	0.0165519
739.200	0.0165554
739.279	0.0165006
739.357	0.0166053
739.435	0.0166138
739.513	0.0165063
739.591	0.0165821
739.669	0.0165125
739.747	0.0164371
739.825	0.0164864
739.904	0.0164221
739.982	0.0163384
740.060	0.0163850
740.138	0.0164161
740.216	0.0163088
740.294	0.0163601
740.372	0.0162494
740.450	0.0162833
740.529	0.0161436
740.607	0.0163630
740.685	0.0161387
740.763	0.0161431
740.841	0.0161235
740.919	0.0162706
740.997	0.0163065
741.075	0.0161423
741.154	0.0160373
741.232	0.0160816
741.310	0.0160716
741.388	0.0160979
741.466	0.0161611
741.544	0.0161246
741.622	0.0160992
741.700	0.0160867
741.779	0.0161285
741.857	0.0161878
741.935	0.0161577
742.013	0.0160087
742.091	0.0161804
742.169	0.0162560
742.247	0.0162094
742.325	0.0162189
742.404	0.0163470
742.482	0.0161279
742.560	0.0161443
742.638	0.0162988
742.716	0.0159113
742.794	0.0158780
742.872	0.0159765
742.950	0.0160378
743.029	0.0159656
743.107	0.0160499
743.185	0.0159277
743.263	0.0159730
743.341	0.0160952
743.419	0.0159381
743.497	0.0161134
743.575	0.0161682
743.654	0.0161272
743.732	0.0162562
743.810	0.0161143
743.888	0.0162182
743.966	0.0162945
744.044	0.0161781
744.122	0.0163010
744.200	0.0164031
744.279	0.0161976
744.357	0.0162041
744.435	0.0162863
744.513	0.0162051
744.591	0.0162835
744.669	0.0161557
744.747	0.0163694
744.825	0.0162425
744.904	0.0162292
744.982	0.0162154
745.060	0.0161749
745.138	0.0161866
745.216	0.0162875
745.294	0.0161163
745.372	0.0160710
745.450	0.0161214
745.529	0.0161417
745.607	0.0162462
745.685	0.0161388
745.763	0.0160770
745.841	0.0159915
745.919	0.0160031
745.997	0.0158698
746.075	0.0160278
746.154	0.0159887
746.232	0.0160329
746.310	0.0161141
746.388	0.0160336
746.466	0.0159061
746.544	0.0161141
746.622	0.0159304
746.700	0.0159788
746.779	0.0161517
746.857	0.0160456
746.935	0.0162547
747.013	0.0161942
747.091	0.0162655
747.169	0.0164354
747.247	0.0162698
747.325	0.0163153
747.404	0.0163268
747.482	0.0162547
747.560	0.0163892
747.638	0.0164849
747.716	0.0163341
747.794	0.0163711
747.872	0.0163155
747.950	0.0165011
748.029	0.0165520
748.107	0.0164182
748.185	0.0163619
748.263	0.0163985
748.341	0.0164394
748.419	0.0164194
748.497	0.0162201
748.575	0.0162564
748.654	0.0162559
748.732	0.0162084
748.810	0.0162670
748.888	0.0162231
748.966	0.0161200
749.044	0.0160224
749.122	0.0160954
749.200	0.0161333
749.279	0.0158742
749.357	0.0159287
749.435	0.0160646
749.513	0.0159215
749.591	0.0158520
749.669	0.0158981
749.747	0.0158933
749.825	0.0158547
749.904	0.0159573
749.982	0.0159356
750.060	0.0157571
750.138	0.0158397
750.216	0.0159259
750.294	0.0158951
750.372	0.0160490
750.450	0.0160381
750.529	0.0159283
750.607	0.0160069
750.685	0.0160534
750.763	0.0160419
750.841	0.0159550
750.919	0.0160509
750.997	0.0162125
751.075	0.0161291
751.154	0.0161715
751.232	0.0162485
751.310	0.0162643
751.388	0.0162397
751.466	0.0162414
751.544	0.0163525
751.622	0.0162581
751.700	0.0163674
751.779	0.0163659
751.857	0.0164119
751.935	0.0164687
752.013	0.0164708
752.091	0.0163728
752.169	0.0163275
752.247	0.0163750
752.325	0.0162762
752.404	0.0163732
752.482	0.0163429
752.560	0.0162395
752.638	0.0162129
752.716	0.0161491
752.794	0.0161465
752.872	0.0162101
752.950	0.0161965
753.029	0.0161990
753.107	0.0162473
753.185	0.0162029
753.263	0.0160474
753.341	0.0160780
753.419	0.0160312
753.497	0.0159631
753.575	0.0160678
753.654	0.0161508
753.732	0.0160479
753.810	0.0160074
753.888	0.0160513
753.966	0.0161874
754.044	0.0162107
754.122	0.0162204
754.200	0.0161900
754.279	0.0162229
754.357	0.0163102
754.435	0.0161898
754.513	0.0162914
754.591	0.0163325
754.669	0.0163687
754.747	0.0162199
754.825	0.0162700
754.904	0.0161806
754.982	0.0161916
755.060	0.0161816
755.138	0.0160953
755.216	0.0161916
755.294	0.0160949
755.372	0.0160600
755.450	0.0160408
755.529	0.0161506
755.607	0.0161599
755.685	0.0160103
755.763	0.0159975
755.841	0.0159753
755.919	0.0160818
755.997	0.0161150
756.075	0.0160971
756.154	0.0160025
756.232	0.0161217
756.310	0.0161523
756.388	0.0161703
756.466	0.0160754
756.544	0.0160111
756.622	0.0161066
756.700	0.0161370
756.779	0.0161471
756.857	0.0163808
756.935	0.0162643
757.013	0.0161565
757.091	0.0162101
757.169	0.0163764
757.247	0.0163979
757.325	0.0162862
757.404	0.0162609
757.482	0.0162110
757.560	0.0161643
757.638	0.0161219
757.716	0.0161387
757.794	0.0161963
757.872	0.0161858
757.950	0.0160728
758.029	0.0160254
758.107	0.0161000
758.185	0.0160439
758.263	0.0160450
758.341	0.0159329
758.419	0.0160090
758.497	0.0159479
758.575	0.0160566
758.654	0.0159436
758.732	0.0159167
758.810	0.0161153
758.888	0.0162071
758.966	0.0160185
759.044	0.0161194
759.122	0.0160786
759.200	0.0161965
759.279	0.0160768
759.357	0.0160889
759.435	0.0162181
759.513	0.0162130
759.591	0.0161163
759.669	0.0161975
759.747	0.0162536
759.825	0.0161857
759.904	0.0162025
759.982	0.0162516
760.060	0.0163457
760.138	0.0163190
760.216	0.0162022
760.294	0.0163596
760.372	0.0162830
760.450	0.0162720
760.529	0.0164017
760.607	0.0162391
760.685	0.0162203
760.763	0.0160718
760.841	0.0162183
760.919	0.0162315
760.997	0.0161763
761.075	0.0162042
761.154	0.0160966
761.232	0.0161409
761.310	0.0160900
761.388	0.0161205
761.466	0.0160422
761.544	0.0160440
761.622	0.0161099
761.700	0.0160148
761.779	0.0159431
761.857	0.0160162
761.935	0.0158939
762.013	0.0159119
762.091	0.0159563
762.169	0.0159816
762.247	0.0159447
762.325	0.0159609
762.404	0.0158137
762.482	0.0158485
762.560	0.0157806
762.638	0.0159963
762.716	0.0159197
762.794	0.0158553
762.872	0.0158412
762.950	0.0159306
763.029	0.0160680
763.107	0.0159962
763.185	0.0158141
763.263	0.0160724
763.341	0.0160355
763.419	0.0160039
763.497	0.0160947
763.575	0.0160016
763.654	0.0158523
763.732	0.0158458
763.810	0.0159924
763.888	0.0159074
763.966	0.0158082
764.044	0.0157885
764.122	0.0158001
764.200	0.0158566
764.279	0.0157999
764.357	0.0158553
764.435	0.0157663
764.513	0.0158277
764.591	0.0158420
764.669	0.0157985
764.747	0.0157294
764.825	0.0157875
764.904	0.0159293
764.982	0.0159154
765.060	0.0159317
765.138	0.0161374
765.216	0.0160519
765.294	0.0160248
765.372	0.0162401
765.450	0.0162298
765.529	0.0162266
765.607	0.0163127
765.685	0.0163741
765.763	0.0163552
765.841	0.0164091
765.919	0.0165405
765.997	0.0165135
766.075	0.0165417
766.154	0.0166777
766.232	0.0165628
766.310	0.0166562
766.388	0.0166219
766.466	0.0165437
766.544	0.0165575
766.622	0.0166293
766.700	0.0165729
766.779	0.0165246
766.857	0.0164755
766.935	0.0163284
767.013	0.0164159
767.091	0.0163361
767.169	0.0163544
767.247	0.0164242
767.325	0.0162663
767.404	0.0163323
767.482	0.0163103
767.560	0.0162585
767.638	0.0162791
767.716	0.0163084
767.794	0.0161872
767.872	0.0162357
767.950	0.0162643
768.029	0.0161445
768.107	0.0161648
768.185	0.0161649
768.263	0.0160329
768.341	0.0161914
768.419	0.0160955
768.497	0.0161079
768.575	0.0160108
768.654	0.0160971
768.732	0.0161118
768.810	0.0159995
768.888	0.0160448
768.966	0.0159342
769.044	0.0159422
769.122	0.0160113
769.200	0.0160129
769.279	0.0159946
769.357	0.0159142
769.435	0.0158038
769.513	0.0158935
769.591	0.0159167
769.669	0.0158195
769.747	0.0158337
769.825	0.0157402
769.904	0.0158267
769.982	0.0158233
770.060	0.0157953
770.138	0.0158611
770.216	0.0158158
770.294	0.0157142
770.372	0.0156789
770.450	0.0157984
770.529	0.0158272
770.607	0.0158108
770.685	0.0157545
770.763	0.0158997
770.841	0.0158318
770.919	0.0158051
770.997	0.0159380
771.075	0.0159750
771.154	0.0159298
771.232	0.0160114
771.310	0.0160928
771.388	0.0161033
771.466	0.0161481
771.544	0.0161555
771.622	0.0162368
771.700	0.0162133
771.779	0.0164175
771.857	0.0162972
771.935	0.0161739
772.013	0.0163442
772.091	0.0163588
772.169	0.0163958
772.247	0.0163889
772.325	0.0163763
772.404	0.0163384
772.482	0.0163462
772.560	0.0164523
772.638	0.0163877
772.716	0.0164269
772.794	0.0163591
772.872	0.0163145
772.950	0.0164073
773.029	0.0163909
773.107	0.0163358
773.185	0.0162668
773.263	0.0161224
773.341	0.0162061
773.419	0.0162691
773.497	0.0162320
773.575	0.0162502
773.654	0.0161556
773.732	0.0163341
773.810	0.0161506
773.888	0.0161297
773.966	0.0162538
774.044	0.0160803
774.122	0.0161247
774.200	0.0162302
774.279	0.0160854
774.357	0.0162443
774.435	0.0162154
774.513	0.0161517
774.591	0.0159859
774.669	0.0159611
774.747	0.0161855
774.825	0.0160880
774.904	0.0162033
774.982	0.0160364
775.060	0.0161716
775.138	0.0162160
775.216	0.0161696
775.294	0.0162481
775.372	0.0161280
775.450	0.0160325
775.529	0.0161451
775.607	0.0162528
775.685	0.0161663
775.763	0.0160119
775.841	0.0159927
775.919	0.0161398
775.997	0.0161023
776.075	0.0160918
776.154	0.0161485
776.232	0.0160510
776.310	0.0161091
776.388	0.0161388
776.466	0.0161191
776.544	0.0161517
776.622	0.0160413
776.700	0.0160905
776.779	0.0160184
776.857	0.0161140
776.935	0.0161136
777.013	0.0160867
777.091	0.0160595
777.169	0.0160041
777.247	0.0161016
777.325	0.0161468
777.404	0.0161803
777.482	0.0161608
777.560	0.0161041
777.638	0.0159527
777.716	0.0162061
777.794	0.0161280
777.872	0.0162189
777.950	0.0162054
778.029	0.0160827
778.107	0.0162228
778.185	0.0162264
778.263	0.0163669
778.341	0.0162325
778.419	0.0161224
778.497	0.0163181
778.575	0.0164069
778.654	0.0163798
778.732	0.0162113
778.810	0.0163338
778.888	0.0163757
778.966	0.0163969
779.044	0.0163835
779.122	0.0163885
779.200	0.0163218
779.279	0.0163343
779.357	0.0163371
779.435	0.0163253
779.513	0.0163286
779.591	0.0163060
779.669	0.0161651
779.747	0.0162522
779.825	0.0161849
779.904	0.0162656
779.982	0.0162649
780.060	0.0162110
780.138	0.0161818
780.216	0.0161947
780.294	0.0160893
780.372	0.0162627
780.450	0.0162057
780.529	0.0161041
780.607	0.0161118
780.685	0.0161398
780.763	0.0160854
780.841	0.0162569
780.919	0.0161802
780.997	0.0160770
781.075	0.0161089
781.154	0.0162180
781.232	0.0161651
781.310	0.0162000
781.388	0.0161594
781.466	0.0161274
781.544	0.0161359
781.622	0.0161423
781.700	0.0160755
781.779	0.0162170
781.857	0.0162054
781.935	0.0161456
782.013	0.0161283
782.091	0.0161697
782.169	0.0161404
782.247	0.0161385
782.325	0.0163190
782.404	0.0163221
782.482	0.0163476
782.560	0.0162424
782.638	0.0161480
782.716	0.0161678
782.794	0.0163307
782.872	0.0162337
782.950	0.0162147
783.029	0.0161644
783.107	0.0162817
783.185	0.0160806
783.263	0.0161562
783.341	0.0161243
783.419	0.0162100
783.497	0.0163486
783.575	0.0161528
783.654	0.0161298
783.732	0.0161095
783.810	0.0161723
783.888	0.0161344
783.966	0.0161793
784.044	0.0161098
784.122	0.0161185
784.200	0.0160784
784.279	0.0160756
784.357	0.0161097
784.435	0.0160316
784.513	0.0159689
784.591	0.0159179
784.669	0.0159658
784.747	0.0160274
784.825	0.0158983
784.904	0.0159541
784.982	0.0161336
785.060	0.0159906
785.138	0.0159730
785.216	0.0160717
785.294	0.0161655
785.372	0.0160039
785.450	0.0159711
785.529	0.0160007
785.607	0.0160754
785.685	0.0160889
785.763	0.0161307
785.841	0.0160870
785.919	0.0161808
785.997	0.0161273
786.075	0.0160716
786.154	0.0161372
786.232	0.0161564
786.310	0.0162611
786.388	0.0162148
786.466	0.0161757
786.544	0.0163618
786.622	0.0164345
786.700	0.0163476
786.779	0.0164249
786.857	0.0163947
786.935	0.0163492
787.013	0.0164469
787.091	0.0164183
787.169	0.0164182
787.247	0.0164475
787.325	0.0164874
787.404	0.0163537
787.482	0.0165305
787.560	0.0165516
787.638	0.0164518
787.716	0.0165188
787.794	0.0163551
787.872	0.0162893
787.950	0.0164809
788.029	0.0164304
788.107	0.0163657
788.185	0.0164782
788.263	0.0164964
788.341	0.0164206
788.419	0.0164489
788.497	0.0163967
788.575	0.0164954
788.654	0.0164043
788.732	0.0163373
788.810	0.0162160
788.888	0.0162920
788.966	0.0162502
789.044	0.0162124
789.122	0.0162865
789.200	0.0164091
789.279	0.0163294
789.357	0.0163556
789.435	0.0161340
789.513	0.0161261
789.591	0.0161690
789.669	0.0163048
789.747	0.0161532
789.825	0.0161371
789.904	0.0161555
789.982	0.0160867
790.060	0.0162408
790.138	0.0161082
790.216	0.0161002
790.294	0.0162115
790.372	0.0160976
790.450	0.0160349
790.529	0.0160545
790.607	0.0160722
790.685	0.0161241
790.763	0.0159791
790.841	0.0160818
790.919	0.0160762
790.997	0.0159153
791.075	0.0160865
791.154	0.0158305
791.232	0.0159203
791.310	0.0160281
791.388	0.0159935
791.466	0.0160081
791.544	0.0159787
791.622	0.0157919
791.700	0.0160600
791.779	0.0160292
791.857	0.0159055
791.935	0.0159772
792.013	0.0158266
792.091	0.0157404
792.169	0.0158948
792.247	0.0159404
792.325	0.0158205
792.404	0.0158380
792.482	0.0158292
792.560	0.0158359
792.638	0.0158741
792.716	0.0160296
792.794	0.0158794
792.872	0.0159642
792.950	0.0161369
793.029	0.0160857
793.107	0.0159579
793.185	0.0161052
793.263	0.0160670
793.341	0.0160217
793.419	0.0159797
793.497	0.0161200
793.575	0.0161163
793.654	0.0161676
793.732	0.0160938
793.810	0.0160526
793.888	0.0160130
793.966	0.0159496
794.044	0.0159285
794.122	0.0159109
794.200	0.0159753
794.279	0.0158733
794.357	0.0158460
794.435	0.0159114
794.513	0.0159386
794.591	0.0159383
794.669	0.0158458
794.747	0.0159409
794.825	0.0159633
794.904	0.0158967
794.982	0.0161041
795.060	0.0158755
795.138	0.0159044
795.216	0.0159689
795.294	0.0158309
795.372	0.0160568
795.450	0.0158763
795.529	0.0159025
795.607	0.0159985
795.685	0.0160002
795.763	0.0159303
795.841	0.0160297
795.919	0.0159732
795.997	0.0162310
796.075	0.0160942
796.154	0.0161398
796.232	0.0160844
796.310	0.0161665
796.388	0.0160799
796.466	0.0162233
796.544	0.0162154
796.622	0.0160703
796.700	0.0161842
796.779	0.0161767
796.857	0.0164119
796.935	0.0162630
797.013	0.0164479
797.091	0.0163806
797.169	0.0162685
797.247	0.0164431
797.325	0.0164368
797.404	0.0163499
797.482	0.0162726
797.560	0.0163801
797.638	0.0163557
797.716	0.0163354
797.794	0.0162782
797.872	0.0163724
797.950	0.0164025
798.029	0.0163116
798.107	0.0163966
798.185	0.0162547
798.263	0.0163425
798.341	0.0163100
798.419	0.0163085
798.497	0.0163526
798.575	0.0161221
798.654	0.0163411
798.732	0.0162445
798.810	0.0160558
798.888	0.0162509
798.966	0.0162375
799.044	0.0162881
799.122	0.0162717
799.200	0.0161786
799.279	0.0161980
799.357	0.0162829
799.435	0.0160863
799.513	0.0162204
799.591	0.0162642
799.669	0.0160221
799.747	0.0162296
799.825	0.0160808
799.904	0.0160251
799.982	0.0160806
800.060	0.0161986
800.138	0.0161749
800.216	0.0160867
800.294	0.0160732
800.372	0.0159808
800.450	0.0160225
800.529	0.0158591
800.607	0.0159756
800.685	0.0160596
800.763	0.0160093
800.841	0.0159743
800.919	0.0160926
800.997	0.0161537
801.075	0.0161122
801.154	0.0161054
801.232	0.0160564
801.310	0.0160658
801.388	0.0161982
801.466	0.0160071
801.544	0.0161723
801.622	0.0161875
801.700	0.0162971
801.779	0.0162822
801.857	0.0162347
801.935	0.0161089
802.013	0.0163482
802.091	0.0163658
802.169	0.0163349
802.247	0.0161808
802.325	0.0163995
802.404	0.0163538
802.482	0.0161491
802.560	0.0162860
802.638	0.0163227
802.716	0.0161979
802.794	0.0162572
802.872	0.0162594
802.950	0.0163622
803.029	0.0162126
803.107	0.0162456
803.185	0.0162155
803.263	0.0162668
803.341	0.0162624
803.419	0.0162582
803.497	0.0163135
803.575	0.0162900
803.654	0.0162366
803.732	0.0162791
803.810	0.0161130
803.888	0.0161606
803.966	0.0163770
804.044	0.0162014
804.122	0.0162426
804.200	0.0162261
804.279	0.0163098
804.357	0.0162680
804.435	0.0163181
804.513	0.0163653
804.591	0.0163032
804.669	0.0163300
804.747	0.0161902
804.825	0.0163698
804.904	0.0164180
804.982	0.0163078
805.060	0.0162931
805.138	0.0162883
805.216	0.0162222
805.294	0.0162415
805.372	0.0162292
805.450	0.0162021
805.529	0.0162754
805.607	0.0161425
805.685	0.0159892
805.763	0.0162352
805.841	0.0160883
805.919	0.0161112
805.997	0.0159834
806.075	0.0160500
806.154	0.0161065
806.232	0.0160759
806.310	0.0161253
806.388	0.0160426
806.466	0.0160820
806.544	0.0159814
806.622	0.0160025
806.700	0.0160581
806.779	0.0159867
806.857	0.0159711
806.935	0.0160771
807.013	0.0159982
807.091	0.0160210
807.169	0.0160011
807.247	0.0159105
807.325	0.0159942
807.404	0.0159497
807.482	0.0159601
807.560	0.0159441
807.638	0.0161884
807.716	0.0161549
807.794	0.0161990
807.872	0.0162302
807.950	0.0160369
808.029	0.0161437
808.107	0.0161884
808.185	0.0162747
808.263	0.0161192
808.341	0.0163131
808.419	0.0163085
808.497	0.0161713
808.575	0.0163409
808.654	0.0163370
808.732	0.0162331
808.810	0.0163135
808.888	0.0162668
808.966	0.0161467
809.044	0.0162454
809.122	0.0163918
809.200	0.0162811
809.279	0.0162618
809.357	0.0161330
809.435	0.0162890
809.513	0.0161647
809.591	0.0160990
809.669	0.0161489
809.747	0.0160115
809.825	0.0161762
809.904	0.0161149
809.982	0.0160647
810.060	0.0161695
810.138	0.0160675
810.216	0.0161511
810.294	0.0162405
810.372	0.0160175
810.450	0.0160564
810.529	0.0159833
810.607	0.0160926
810.685	0.0160922
810.763	0.0160143
810.841	0.0159265
810.919	0.0160725
810.997	0.0161745
811.075	0.0161179
811.154	0.0160836
811.232	0.0159933
811.310	0.0160130
811.388	0.0161333
811.466	0.0161823
811.544	0.0160461
811.622	0.0161940
811.700	0.0162167
811.779	0.0162687
811.857	0.0162844
811.935	0.0161490
812.013	0.0162647
812.091	0.0162666
812.169	0.0163212
812.247	0.0163078
812.325	0.0161652
812.404	0.0163499
812.482	0.0163155
812.560	0.0162057
812.638	0.0162945
812.716	0.0163905
812.794	0.0163560
812.872	0.0162678
812.950	0.0162746
813.029	0.0162797
813.107	0.0161285
813.185	0.0162402
813.263	0.0162463
813.341	0.0161439
813.419	0.0161576
813.497	0.0162057
813.575	0.0163149
813.654	0.0161948
813.732	0.0162159
813.810	0.0162019
813.888	0.0162685
813.966	0.0161641
814.044	0.0161150
814.122	0.0161604
814.200	0.0162026
814.279	0.0163673
814.357	0.0162727
814.435	0.0162540
814.513	0.0161829
814.591	0.0162126
814.669	0.0163168
814.747	0.0163124
814.825	0.0163743
814.904	0.0161886
814.982	0.0162138
815.060	0.0162180
815.138	0.0162128
815.216	0.0162346
815.294	0.0162095
815.372	0.0164802
815.450	0.0163449
815.529	0.0163838
815.607	0.0163030
815.685	0.0163773
815.763	0.0162291
815.841	0.0163828
815.919	0.0163358
815.997	0.0161129
816.075	0.0162164
816.154	0.0163433
816.232	0.0161657
816.310	0.0162108
816.388	0.0163107
816.466	0.0162197
816.544	0.0164100
816.622	0.0161629
816.700	0.0161879
816.779	0.0161539
816.857	0.0164391
816.935	0.0163371
817.013	0.0161856
817.091	0.0162215
817.169	0.0162673
817.247	0.0162416
817.325	0.0162604
817.404	0.0161261
817.482	0.0160929
817.560	0.0161311
817.638	0.0161140
817.716	0.0162526
817.794	0.0162144
817.872	0.0162414
817.950	0.0162016
818.029	0.0162249
818.107	0.0162149
818.185	0.0161739
818.263	0.0161481
818.341	0.0160973
818.419	0.0161236
818.497	0.0160390
818.575	0.0161800
818.654	0.0162206
818.732	0.0162305
818.810	0.0160207
818.888	0.0161449
818.966	0.0163071
819.044	0.0162022
819.122	0.0161757
819.200	0.0161639
819.279	0.0161251
819.357	0.0161488
819.435	0.0161890
819.513	0.0161884
819.591	0.0162376
819.669	0.0162865
819.747	0.0162374
819.825	0.0161324
819.904	0.0162838
819.982	0.0162830
820.060	0.0162831
820.138	0.0161909
820.216	0.0162257
820.294	0.0161854
820.372	0.0161378
820.450	0.0162670
820.529	0.0161796
820.607	0.0162766
820.685	0.0162469
820.763	0.0161723
820.841	0.0159761
820.919	0.0160976
820.997	0.0162614
821.075	0.0162160
821.154	0.0162357
821.232	0.0160580
821.310	0.0159647
821.388	0.0160724
821.466	0.0160897
821.544	0.0159874
821.622	0.0160053
821.700	0.0159817
821.779	0.0160836
821.857	0.0160634
821.935	0.0159875
822.013	0.0160995
822.091	0.0160241
822.169	0.0160662
822.247	0.0160365
822.325	0.0160577
822.404	0.0160762
822.482	0.0162038
822.560	0.0161462
822.638	0.0160410
822.716	0.0159570
822.794	0.0161225
822.872	0.0161617
822.950	0.0160903
823.029	0.0161794
823.107	0.0162043
823.185	0.0161848
823.263	0.0162717
823.341	0.0162526
823.419	0.0162649
823.497	0.0161398
823.575	0.0161984
823.654	0.0163422
823.732	0.0163358
823.810	0.0162517
823.888	0.0163085
823.966	0.0164227
824.044	0.0164896
824.122	0.0165105
824.200	0.0163462
824.279	0.0163524
824.357	0.0163974
824.435	0.0163764
824.513	0.0162587
824.591	0.0163022
824.669	0.0162741
824.747	0.0164039
824.825	0.0163731
824.904	0.0163859
824.982	0.0162206
825.060	0.0163809
825.138	0.0163761
825.216	0.0161164
825.294	0.0163326
825.372	0.0162254
825.450	0.0161938
825.529	0.0163277
825.607	0.0162393
825.685	0.0162584
825.763	0.0162444
825.841	0.0163363
825.919	0.0162917
825.997	0.0162444
826.075	0.0164399
826.154	0.0163853
826.232	0.0161464
826.310	0.0162865
826.388	0.0163207
826.466	0.0162614
826.544	0.0161868
826.622	0.0163816
826.700	0.0164182
826.779	0.0162321
826.857	0.0163407
826.935	0.0162503
827.013	0.0162318
827.091	0.0163203
827.169	0.0162852
827.247	0.0162524
827.325	0.0161286
827.404	0.0161675
827.482	0.0162667
827.560	0.0162273
827.638	0.0161030
827.716	0.0161144
827.794	0.0161285
827.872	0.0159601
827.950	0.0159131
828.029	0.0158691
828.107	0.0158799
828.185	0.0158340
828.263	0.0158401
828.341	0.0157565
828.419	0.0158025
828.497	0.0158067
828.575	0.0157361
828.654	0.0158971
828.732	0.0157793
828.810	0.0158139
828.888	0.0157523
828.966	0.0157944
829.044	0.0159404
829.122	0.0158978
829.200	0.0158351
829.279	0.0157888
829.357	0.0158458
829.435	0.0159036
829.513	0.0158691
829.591	0.0159644
829.669	0.0160119
829.747	0.0160294
829.825	0.0160736
829.904	0.0160947
829.982	0.0159785
830.060	0.0161489
830.138	0.0161642
830.216	0.0162598
830.294	0.0162473
830.372	0.0162124
830.450	0.0161275
830.529	0.0163256
830.607	0.0161780
830.685	0.0161596
830.763	0.0162118
830.841	0.0163128
830.919	0.0162108
830.997	0.0162611
831.075	0.0162508
831.154	0.0161665
831.232	0.0162637
831.310	0.0162384
831.388	0.0161739
831.466	0.0161049
831.544	0.0160603
831.622	0.0159972
831.700	0.0161414
831.779	0.0161714
831.857	0.0160608
831.935	0.0161057
832.013	0.0161288
832.091	0.0161331
832.169	0.0160503
832.247	0.0160802
832.325	0.0160452
832.404	0.0161217
832.482	0.0160751
832.560	0.0161160
832.638	0.0161612
832.716	0.0160793
832.794	0.0159896
832.872	0.0161256
832.950	0.0162895
833.029	0.0162653
833.107	0.0161848
833.185	0.0162334
833.263	0.0162045
833.341	0.0163852
833.419	0.0164764
833.497	0.0162572
833.575	0.0164549
833.654	0.0162848
833.732	0.0164563
833.810	0.0163476
833.888	0.0164234
833.966	0.0164062
834.044	0.0163969
834.122	0.0163374
834.200	0.0163000
834.279	0.0163580
834.357	0.0163061
834.435	0.0161527
834.513	0.0161147
834.591	0.0161959
834.669	0.0161495
834.747	0.0161270
834.825	0.0161449
834.904	0.0161654
834.982	0.0161595
835.060	0.0162196
835.138	0.0160219
835.216	0.0161894
835.294	0.0161565
835.372	0.0161124
835.450	0.0162003
835.529	0.0161565
835.607	0.0161706
835.685	0.0161716
835.763	0.0162325
835.841	0.0163094
835.919	0.0163012
835.997	0.0162482
836.075	0.0163170
836.154	0.0163132
836.232	0.0163254
836.310	0.0163898
836.388	0.0162113
836.466	0.0164220
836.544	0.0164200
836.622	0.0163360
836.700	0.0163415
836.779	0.0162496
836.857	0.0163804
836.935	0.0163338
837.013	0.0162633
837.091	0.0162539
837.169	0.0161650
837.247	0.0162756
837.325	0.0162502
837.404	0.0161222
837.482	0.0161967
837.560	0.0161018
837.638	0.0162282
837.716	0.0163445
837.794	0.0162269
837.872	0.0161838
837.950	0.0161166
838.029	0.0163535
838.107	0.0161137
838.185	0.0162614
838.263	0.0161688
838.341	0.0161814
838.419	0.0161908
838.497	0.0161846
838.575	0.0162193
838.654	0.0161565
838.732	0.0161890
838.810	0.0161779
838.888	0.0163867
838.966	0.0160937
839.044	0.0163837
839.122	0.0162653
839.200	0.0162052
839.279	0.0163190
839.357	0.0162945
839.435	0.0161526
839.513	0.0161766
839.591	0.0162547
839.669	0.0162193
839.747	0.0162924
839.825	0.0161650
839.904	0.0161537
839.982	0.0160295
840.060	0.0160248
840.138	0.0161601
840.216	0.0160525
840.294	0.0161151
840.372	0.0161185
840.450	0.0161290
840.529	0.0160027
840.607	0.0160936
840.685	0.0160208
840.763	0.0160603
840.841	0.0160671
840.919	0.0161327
840.997	0.0161440
841.075	0.0161610
841.154	0.0162890
841.232	0.0161620
841.310	0.0161409
841.388	0.0162675
841.466	0.0163457
841.544	0.0163387
841.622	0.0161945
841.700	0.0163049
841.779	0.0163283
841.857	0.0164049
841.935	0.0163939
842.013	0.0163014
842.091	0.0164935
842.169	0.0164848
842.247	0.0164052
842.325	0.0165657
842.404	0.0164990
842.482	0.0166871
842.560	0.0167202
842.638	0.0166258
842.716	0.0166704
842.794	0.0165441
842.872	0.0165604
842.950	0.0164456
843.029	0.0163343
843.107	0.0164534
843.185	0.0163120
843.263	0.0162267
843.341	0.0161566
843.419	0.0161183
843.497	0.0161964
843.575	0.0162092
843.654	0.0160634
843.732	0.0162685
843.810	0.0160073
843.888	0.0159909
843.966	0.0161176
844.044	0.0159905
844.122	0.0161890
844.200	0.0159109
844.279	0.0159737
844.357	0.0159339
844.435	0.0159624
844.513	0.0159432
844.591	0.0158573
844.669	0.0160454
844.747	0.0158768
844.825	0.0159239
844.904	0.0159790
844.982	0.0159653
845.060	0.0159588
845.138	0.0159552
845.216	0.0160851
845.294	0.0160615
845.372	0.0160558
845.450	0.0161118
845.529	0.0161646
845.607	0.0161031
845.685	0.0160561
845.763	0.0161361
845.841	0.0161575
845.919	0.0160921
845.997	0.0160921
846.075	0.0161759
846.154	0.0161603
846.232	0.0161901
846.310	0.0161449
846.388	0.0160029
846.466	0.0160738
846.544	0.0160506
846.622	0.0159586
846.700	0.0160927
846.779	0.0160770
846.857	0.0160098
846.935	0.0161391
847.013	0.0161643
847.091	0.0161199
847.169	0.0161530
847.247	0.0161995
847.325	0.0162595
847.404	0.0160872
847.482	0.0160338
847.560	0.0158649
847.638	0.0161903
847.716	0.0162411
847.794	0.0161685
847.872	0.0160953
847.950	0.0160285
848.029	0.0159840
848.107	0.0161326
848.185	0.0160722
848.263	0.0161697
848.341	0.0160416
848.419	0.0161178
848.497	0.0160429
848.575	0.0159577
848.654	0.0161533
848.732	0.0160205
848.810	0.0162158
848.888	0.0161785
848.966	0.0161295
849.044	0.0162111
849.122	0.0161008
849.200	0.0161774
849.279	0.0160852
849.357	0.0159902
849.435	0.0162572
849.513	0.0162797
849.591	0.0161397
849.669	0.0159874
849.747	0.0160816
849.825	0.0162278
849.904	0.0161868
849.982	0.0161832
850.060	0.0162393
850.138	0.0161065
850.216	0.0160030
850.294	0.0161349
850.372	0.0161528
850.450	0.0161864
850.529	0.0159325
850.607	0.0159801
850.685	0.0159987
850.763	0.0160194
850.841	0.0160614
850.919	0.0160556
850.997	0.0160147
851.075	0.0160384
851.154	0.0160635
851.232	0.0159081
851.310	0.0160708
851.388	0.0160114
851.466	0.0160486
851.544	0.0160829
851.622	0.0161846
851.700	0.0161823
851.779	0.0161878
851.857	0.0161057
851.935	0.0160356
852.013	0.0160423
852.091	0.0160906
852.169	0.0161573
852.247	0.0161021
852.325	0.0161846
852.404	0.0161542
852.482	0.0162915
852.560	0.0160652
852.638	0.0161735
852.716	0.0162473
852.794	0.0161095
852.872	0.0160786
852.950	0.0160810
853.029	0.0160312
853.107	0.0160466
853.185	0.0159704
853.263	0.0160204
853.341	0.0158727
853.419	0.0159579
853.497	0.0160247
853.575	0.0160020
853.654	0.0159142
853.732	0.0159581
853.810	0.0159547
853.888	0.0159145
853.966	0.0159008
854.044	0.0159145
854.122	0.0160072
854.200	0.0162087
854.279	0.0161685
854.357	0.0161447
854.435	0.0160734
854.513	0.0160484
854.591	0.0161909
854.669	0.0161866
854.747	0.0161192
854.825	0.0161523
854.904	0.0162607
854.982	0.0163123
855.060	0.0162273
855.138	0.0162819
855.216	0.0161438
855.294	0.0163251
855.372	0.0164407
855.450	0.0163770
855.529	0.0162566
855.607	0.0162994
855.685	0.0163693
855.763	0.0163167
855.841	0.0161749
855.919	0.0163141
855.997	0.0163460
856.075	0.0162971
856.154	0.0162485
856.232	0.0161920
856.310	0.0161155
856.388	0.0163129
856.466	0.0162635
856.544	0.0162463
856.622	0.0162910
856.700	0.0163676
856.779	0.0162543
856.857	0.0161751
856.935	0.0161558
857.013	0.0162174
857.091	0.0163353
857.169	0.0162934
857.247	0.0162122
857.325	0.0161168
857.404	0.0162329
857.482	0.0162386
857.560	0.0161640
857.638	0.0161262
857.716	0.0161743
857.794	0.0162312
857.872	0.0161935
857.950	0.0163011
858.029	0.0160973
858.107	0.0160515
858.185	0.0161065
858.263	0.0160982
858.341	0.0159508
858.419	0.0160098
858.497	0.0161561
858.575	0.0160423
858.654	0.0159497
858.732	0.0158971
858.810	0.0159351
858.888	0.0159645
858.966	0.0159044
859.044	0.0159123
859.122	0.0158833
859.200	0.0159318
859.279	0.0158549
859.357	0.0158764
859.435	0.0159165
859.513	0.0158130
859.591	0.0160123
859.669	0.0160061
859.747	0.0159045
859.825	0.0159750
859.904	0.0160198
859.982	0.0160844
860.060	0.0161022
860.138	0.0161391
860.216	0.0162810
860.294	0.0163361
860.372	0.0161325
860.450	0.0162314
860.529	0.0163664
860.607	0.0163400
860.685	0.0163583
860.763	0.0164030
860.841	0.0162965
860.919	0.0163764
860.997	0.0162498
861.075	0.0163262
861.154	0.0162054
861.232	0.0162117
861.310	0.0164117
861.388	0.0162036
861.466	0.0162746
861.544	0.0161752
861.622	0.0162880
861.700	0.0162051
861.779	0.0162422
861.857	0.0162434
861.935	0.0162402
862.013	0.0160764
862.091	0.0160887
862.169	0.0161713
862.247	0.0161588
862.325	0.0162337
862.404	0.0160989
862.482	0.0161217
862.560	0.0161524
862.638	0.0160894
862.716	0.0161814
862.794	0.0162924
862.872	0.0163017
862.950	0.0162737
863.029	0.0162115
863.107	0.0162055
863.185	0.0162078
863.263	0.0161942
863.341	0.0163081
863.419	0.0162095
863.497	0.0161560
863.575	0.0161634
863.654	0.0161794
863.732	0.0162834
863.810	0.0161066
863.888	0.0159815
863.966	0.0160356
864.044	0.0160388
864.122	0.0161973
864.200	0.0160209
864.279	0.0159271
864.357	0.0159547
864.435	0.0160370
864.513	0.0160809
864.591	0.0159903
864.669	0.0158904
864.747	0.0158899
864.825	0.0159602
864.904	0.0159846
864.982	0.0161230
865.060	0.0161601
865.138	0.0160802
865.216	0.0161809
865.294	0.0163405
865.372	0.0161130
865.450	0.0160968
865.529	0.0162234
865.607	0.0160526
865.685	0.0160950
865.763	0.0161414
865.841	0.0161063
865.919	0.0161337
865.997	0.0160729
866.075	0.0161485
866.154	0.0162378
866.232	0.0161173
866.310	0.0160387
866.388	0.0160574
866.466	0.0159801
866.544	0.0158943
866.622	0.0159924
866.700	0.0161523
866.779	0.0160191
866.857	0.0159657
866.935	0.0158555
867.013	0.0159245
867.091	0.0158755
867.169	0.0159360
867.247	0.0159235
867.325	0.0160194
867.404	0.0158569
867.482	0.0159090
867.560	0.0159575
867.638	0.0159438
867.716	0.0160048
867.794	0.0159874
867.872	0.0160127
867.950	0.0160555
868.029	0.0158969
868.107	0.0160348
868.185	0.0160403
868.263	0.0161861
868.341	0.0161269
868.419	0.0160854
868.497	0.0162083
868.575	0.0161153
868.654	0.0161961
868.732	0.0161536
868.810	0.0161147
868.888	0.0159975
868.966	0.0161949
869.044	0.0161395
869.122	0.0162180
869.200	0.0163482
869.279	0.0162813
869.357	0.0162204
869.435	0.0162139
869.513	0.0163170
869.591	0.0162864
869.669	0.0162762
869.747	0.0163074
869.825	0.0162871
869.904	0.0163795
869.982	0.0161683
870.060	0.0162998
870.138	0.0161926
870.216	0.0161506
870.294	0.0162824
870.372	0.0161514
870.450	0.0161114
870.529	0.0161861
870.607	0.0160301
870.685	0.0160872
870.763	0.0161404
870.841	0.0161028
870.919	0.0160545
870.997	0.0161358
871.075	0.0161452
871.154	0.0160458
871.232	0.0160726
871.310	0.0161200
871.388	0.0161142
871.466	0.0160520
871.544	0.0161359
871.622	0.0161649
871.700	0.0161406
871.779	0.0160870
871.857	0.0161356
871.935	0.0160579
872.013	0.0163097
872.091	0.0160111
872.169	0.0160099
872.247	0.0162682
872.325	0.0162165
872.404	0.0162347
872.482	0.0161697
872.560	0.0163239
872.638	0.0161263
872.716	0.0162009
872.794	0.0162754
872.872	0.0160722
872.950	0.0162107
873.029	0.0161230
873.107	0.0160085
873.185	0.0162341
873.263	0.0162796
873.341	0.0160519
873.419	0.0161147
873.497	0.0164100
873.575	0.0162874
873.654	0.0161427
873.732	0.0159986
873.810	0.0162278
873.888	0.0161449
873.966	0.0161441
874.044	0.0161723
874.122	0.0160655
874.200	0.0160116
874.279	0.0162446
874.357	0.0160784
874.435	0.0161439
874.513	0.0160231
874.591	0.0161375
874.669	0.0161816
874.747	0.0160883
874.825	0.0160870
874.904	0.0161355
874.982	0.0161287
875.060	0.0160878
875.138	0.0160128
875.216	0.0162291
875.294	0.0163103
875.372	0.0162180
875.450	0.0161753
875.529	0.0162172
875.607	0.0161703
875.685	0.0161320
875.763	0.0161319
875.841	0.0160946
875.919	0.0162119
875.997	0.0162229
876.075	0.0162146
876.154	0.0162479
876.232	0.0162713
876.310	0.0162153
876.388	0.0160712
876.466	0.0161966
876.544	0.0162642
876.622	0.0162218
876.700	0.0162517
876.779	0.0163367
876.857	0.0163634
876.935	0.0162615
877.013	0.0162127
877.091	0.0161872
877.169	0.0162594
877.247	0.0162733
877.325	0.0163394
877.404	0.0162240
877.482	0.0162306
877.560	0.0163220
877.638	0.0162772
877.716	0.0164045
877.794	0.0163212
877.872	0.0162711
877.950	0.0162188
878.029	0.0163016
878.107	0.0164699
878.185	0.0164233
878.263	0.0163706
878.341	0.0164333
878.419	0.0163405
878.497	0.0161354
878.575	0.0161664
878.654	0.0162066
878.732	0.0162782
878.810	0.0162476
878.888	0.0160569
878.966	0.0160580
879.044	0.0161491
879.122	0.0159399
879.200	0.0158773
879.279	0.0159725
879.357	0.0159766
879.435	0.0158739
879.513	0.0159308
879.591	0.0158436
879.669	0.0158176
879.747	0.0158933
879.825	0.0158161
879.904	0.0158225
879.982	0.0158376
880.060	0.0157681
880.138	0.0157944
880.216	0.0158132
880.294	0.0158807
880.372	0.0158015
880.450	0.0157536
880.529	0.0158022
880.607	0.0159222
880.685	0.0159721
880.763	0.0160805
880.841	0.0159679
880.919	0.0160512
880.997	0.0161052
881.075	0.0161459
881.154	0.0163163
881.232	0.0160863
881.310	0.0162661
881.388	0.0162010
881.466	0.0162807
881.544	0.0163687
881.622	0.0162845
881.700	0.0163336
881.779	0.0164783
881.857	0.0164507
881.935	0.0163503
882.013	0.0163601
882.091	0.0164308
882.169	0.0164217
882.247	0.0162960
882.325	0.0163557
882.404	0.0163422
882.482	0.0162597
882.560	0.0162841
882.638	0.0162064
882.716	0.0161016
882.794	0.0161790
882.872	0.0161694
882.950	0.0161897
883.029	0.0160754
883.107	0.0160789
883.185	0.0159060
883.263	0.0160854
883.341	0.0161583
883.419	0.0161332
883.497	0.0159988
883.575	0.0160316
883.654	0.0159898
883.732	0.0159990
883.810	0.0160590
883.888	0.0161071
883.966	0.0161693
884.044	0.0161230
884.122	0.0161529
884.200	0.0160876
884.279	0.0160407
884.357	0.0161269
884.435	0.0161666
884.513	0.0161076
884.591	0.0161074
884.669	0.0162218
884.747	0.0162685
884.825	0.0161930
884.904	0.0161688
884.982	0.0161376
885.060	0.0162083
885.138	0.0162888
885.216	0.0161827
885.294	0.0161378
885.372	0.0162096
885.450	0.0162426
885.529	0.0162731
885.607	0.0160989
885.685	0.0162136
885.763	0.0160711
885.841	0.0161113
885.919	0.0163285
885.997	0.0162933
886.075	0.0162099
886.154	0.0162629
886.232	0.0163399
886.310	0.0161920
886.388	0.0163148
886.466	0.0162337
886.544	0.0163315
886.622	0.0163705
886.700	0.0162550
886.779	0.0164051
886.857	0.0165376
886.935	0.0164732
887.013	0.0163309
887.091	0.0162196
887.169	0.0163612
887.247	0.0165035
887.325	0.0164629
887.404	0.0163538
887.482	0.0163290
887.560	0.0164025
887.638	0.0163265
887.716	0.0164172
887.794	0.0164990
887.872	0.0163059
887.950	0.0162348
888.029	0.0163119
888.107	0.0163170
888.185	0.0163788
888.263	0.0163826
888.341	0.0162964
888.419	0.0164053
888.497	0.0163812
888.575	0.0162985
888.654	0.0162210
888.732	0.0164851
888.810	0.0164249
888.888	0.0163140
888.966	0.0163619
889.044	0.0162968
889.122	0.0163879
889.200	0.0164318
889.279	0.0163949
889.357	0.0163683
889.435	0.0163627
889.513	0.0163628
889.591	0.0162202
889.669	0.0163708
889.747	0.0164081
889.825	0.0164138
889.904	0.0164377
889.982	0.0163561
890.060	0.0161790
890.138	0.0163477
890.216	0.0163059
890.294	0.0160802
890.372	0.0163148
890.450	0.0165080
890.529	0.0162147
890.607	0.0160577
890.685	0.0163231
890.763	0.0162701
890.841	0.0161499
890.919	0.0162505
890.997	0.0162349
891.075	0.0162527
891.154	0.0161591
891.232	0.0160595
891.310	0.0161454
891.388	0.0161903
891.466	0.0160855
891.544	0.0162340
891.622	0.0163076
891.700	0.0163218
891.779	0.0162354
891.857	0.0161717
891.935	0.0162355
892.013	0.0162829
892.091	0.0163319
892.169	0.0162241
892.247	0.0162939
892.325	0.0162717
892.404	0.0162294
892.482	0.0162726
892.560	0.0161193
892.638	0.0161348
892.716	0.0161870
892.794	0.0161592
892.872	0.0161212
892.950	0.0161862
893.029	0.0161264
893.107	0.0159732
893.185	0.0160652
893.263	0.0161173
893.341	0.0159697
893.419	0.0160435
893.497	0.0161474
893.575	0.0160080
893.654	0.0158890
893.732	0.0159235
893.810	0.0160004
893.888	0.0159650
893.966	0.0159530
894.044	0.0160102
894.122	0.0160085
894.200	0.0159444
894.279	0.0159627
894.357	0.0160552
894.435	0.0160792
894.513	0.0159515
894.591	0.0161903
894.669	0.0160946
894.747	0.0160983
894.825	0.0162347
894.904	0.0163120
894.982	0.0163669
895.060	0.0163539
895.138	0.0162206
895.216	0.0162791
895.294	0.0162193
895.372	0.0163103
895.450	0.0163600
895.529	0.0162965
895.607	0.0163289
895.685	0.0162759
895.763	0.0162577
895.841	0.0161375
895.919	0.0162627
895.997	0.0160879
896.075	0.0160553
896.154	0.0160240
896.232	0.0157785
896.310	0.0160703
896.388	0.0160966
896.466	0.0160619
896.544	0.0160075
896.622	0.0159625
896.700	0.0160682
896.779	0.0159800
896.857	0.0160395
896.935	0.0161256
897.013	0.0161229
897.091	0.0161086
897.169	0.0158445
897.247	0.0160542
897.325	0.0161659
897.404	0.0161014
897.482	0.0161884
897.560	0.0160772
897.638	0.0160698
897.716	0.0160056
897.794	0.0161846
897.872	0.0161619
897.950	0.0160624
898.029	0.0159811
898.107	0.0161299
898.185	0.0162244
898.263	0.0160052
898.341	0.0161578
898.419	0.0161249
898.497	0.0161125
898.575	0.0161024
898.654	0.0163364
898.732	0.0160703
898.810	0.0162546
898.888	0.0162425
898.966	0.0162667
899.044	0.0161700
899.122	0.0162601
899.200	0.0162741
899.279	0.0161800
899.357	0.0163583
899.435	0.0163345
899.513	0.0163447
899.591	0.0162121
899.669	0.0161845
899.747	0.0163444
899.825	0.0162752
899.904	0.0162415
899.982	0.0162555
900.060	0.0161625
900.138	0.0162175
900.216	0.0163747
900.294	0.0161559
900.372	0.0162511
900.450	0.0161825
900.529	0.0162299
900.607	0.0162063
900.685	0.0162482
900.763	0.0162157
900.841	0.0160992
900.919	0.0163081
900.997	0.0161633
901.075	0.0161741
901.154	0.0161903
901.232	0.0161691
901.310	0.0161018
901.388	0.0162376
901.466	0.0161481
901.544	0.0163466
901.622	0.0162638
901.700	0.0161948
901.779	0.0161264
901.857	0.0162085
901.935	0.0163113
902.013	0.0162720
902.091	0.0162638
902.169	0.0163005
902.247	0.0162667
902.325	0.0163115
902.404	0.0163124
902.482	0.0163169
902.560	0.0162207
902.638	0.0163218
902.716	0.0163103
902.794	0.0162492
902.872	0.0163002
902.950	0.0163497
903.029	0.0162740
903.107	0.0162987
903.185	0.0162556
903.263	0.0162563
903.341	0.0163442
903.419	0.0162814
903.497	0.0163595
903.575	0.0161674
903.654	0.0161994
903.732	0.0161296
903.810	0.0162941
903.888	0.0162760
903.966	0.0163035
904.044	0.0163593
904.122	0.0163644
904.200	0.0163411
904.279	0.0163912
904.357	0.0162825
904.435	0.0163764
904.513	0.0163740
904.591	0.0163735
904.669	0.0163774
904.747	0.0162337
904.825	0.0163148
904.904	0.0164172
904.982	0.0164396
905.060	0.0163332
905.138	0.0164304
905.216	0.0163631
905.294	0.0164148
905.372	0.0164441
905.450	0.0164753
905.529	0.0162862
905.607	0.0162933
905.685	0.0164175
905.763	0.0163666
905.841	0.0162629
905.919	0.0162967
905.997	0.0163150
906.075	0.0163049
906.154	0.0162753
906.232	0.0161771
906.310	0.0163668
906.388	0.0162541
906.466	0.0161160
906.544	0.0162173
906.622	0.0161307
906.700	0.0162949
906.779	0.0162016
906.857	0.0161668
906.935	0.0160620
907.013	0.0160120
907.091	0.0160825
907.169	0.0163242
907.247	0.0161780
907.325	0.0161109
907.404	0.0161802
907.482	0.0161588
907.560	0.0163389
907.638	0.0162012
907.716	0.0161031
907.794	0.0160976
907.872	0.0162259
907.950	0.0161436
908.029	0.0162206
908.107	0.0162453
908.185	0.0162833
908.263	0.0164072
908.341	0.0162523
908.419	0.0160670
908.497	0.0162630
908.575	0.0163350
908.654	0.0162393
908.732	0.0161951
908.810	0.0161045
908.888	0.0161963
908.966	0.0162188
909.044	0.0162720
909.122	0.0162212
909.200	0.0162254
909.279	0.0162067
909.357	0.0163007
909.435	0.0161523
909.513	0.0162334
909.591	0.0161587
909.669	0.0161862
909.747	0.0162392
909.825	0.0161873
909.904	0.0162120
909.982	0.0161869
910.060	0.0162476
910.138	0.0162597
910.216	0.0162717
910.294	0.0161736
910.372	0.0162023
910.450	0.0162646
910.529	0.0162572
910.607	0.0162856
910.685	0.0162551
910.763	0.0162369
910.841	0.0162946
910.919	0.0163131
910.997	0.0160452
911.075	0.0161726
911.154	0.0162022
911.232	0.0162574
911.310	0.0163792
911.388	0.0163068
911.466	0.0162810
911.544	0.0160851
911.622	0.0161547
911.700	0.0162479
911.779	0.0161272
911.857	0.0161531
911.935	0.0161957
912.013	0.0162980
912.091	0.0160558
912.169	0.0161234
912.247	0.0162508
912.325	0.0163490
912.404	0.0161774
912.482	0.0161296
912.560	0.0161643
912.638	0.0161421
912.716	0.0163007
912.794	0.0162456
912.872	0.0163588
912.950	0.0162727
913.029	0.0160984
913.107	0.0163565
913.185	0.0164115
913.263	0.0162881
913.341	0.0161967
913.419	0.0162016
913.497	0.0163174
913.575	0.0164935
913.654	0.0164905
913.732	0.0164206
913.810	0.0164320
913.888	0.0163219
913.966	0.0163075
914.044	0.0163969
914.122	0.0162846
914.200	0.0164284
914.279	0.0162954
914.357	0.0163478
914.435	0.0163527
914.513	0.0163306
914.591	0.0163098
914.669	0.0163623
914.747	0.0162068
914.825	0.0164136
914.904	0.0163277
914.982	0.0163427
915.060	0.0163087
915.138	0.0162539
915.216	0.0163605
915.294	0.0162708
915.372	0.0163291
915.450	0.0163977
915.529	0.0163129
915.607	0.0161669
915.685	0.0162507
915.763	0.0161687
915.841	0.0162259
915.919	0.0162098
915.997	0.0161897
916.075	0.0163281
916.154	0.0162099
916.232	0.0162209
916.310	0.0164111
916.388	0.0163335
916.466	0.0161404
916.544	0.0161577
916.622	0.0161481
916.700	0.0161810
916.779	0.0163033
916.857	0.0161498
916.935	0.0161654
917.013	0.0163637
917.091	0.0161648
917.169	0.0162971
917.247	0.0161297
917.325	0.0162583
917.404	0.0163592
917.482	0.0162869
917.560	0.0163371
917.638	0.0162631
917.716	0.0163216
917.794	0.0163391
917.872	0.0164233
917.950	0.0163214
918.029	0.0162780
918.107	0.0163501
918.185	0.0162575
918.263	0.0163763
918.341	0.0163690
918.419	0.0162080
918.497	0.0162220
918.575	0.0161681
918.654	0.0162309
918.732	0.0162669
918.810	0.0162089
918.888	0.0160628
918.966	0.0161303
919.044	0.0160944
919.122	0.0161419
919.200	0.0160378
919.279	0.0159681
919.357	0.0160319
919.435	0.0160134
919.513	0.0159390
919.591	0.0160127
919.669	0.0159312
919.747	0.0160894
919.825	0.0161140
919.904	0.0160493
