05/24/2022	20:40:26	Ver.	4.1	UNKNOWN
Optical Delay	599.981738	Delta X		0.078125	Sweeps	1	Scan Rate	0/0
Coordinates	Axis 1	NaN	Axis 2	NaN	Axis 3	NaN	Axis 4	NaN	Axis 5	NaN	Axis 6	0.000000
TX Power	0.000000	RX Power	0.000000

599.982	0.0163558
600.060	0.0163641
600.138	0.0163908
600.216	0.0163441
600.294	0.0163662
600.372	0.0163134
600.450	0.0163915
600.529	0.0164169
600.607	0.0164214
600.685	0.0163770
600.763	0.0163789
600.841	0.0164220
600.919	0.0164604
600.997	0.0164193
601.075	0.0164689
601.154	0.0164671
601.232	0.0163965
601.310	0.0164799
601.388	0.0165273
601.466	0.0164797
601.544	0.0165164
601.622	0.0164382
601.700	0.0163326
601.779	0.0163284
601.857	0.0164474
601.935	0.0163203
602.013	0.0163361
602.091	0.0163767
602.169	0.0163969
602.247	0.0165126
602.325	0.0164584
602.404	0.0163671
602.482	0.0163774
602.560	0.0164857
602.638	0.0164088
602.716	0.0164407
602.794	0.0164217
602.872	0.0163361
602.950	0.0164964
603.029	0.0164739
603.107	0.0165619
603.185	0.0165754
603.263	0.0165517
603.341	0.0164662
603.419	0.0163026
603.497	0.0163937
603.575	0.0164700
603.654	0.0165500
603.732	0.0164163
603.810	0.0164041
603.888	0.0163617
603.966	0.0163417
604.044	0.0164846
604.122	0.0165245
604.200	0.0164714
604.279	0.0164793
604.357	0.0163524
604.435	0.0163431
604.513	0.0163445
604.591	0.0164085
604.669	0.0163907
604.747	0.0162746
604.825	0.0163909
604.904	0.0164732
604.982	0.0164967
605.060	0.0164361
605.138	0.0163107
605.216	0.0163937
605.294	0.0164317
605.372	0.0164494
605.450	0.0163732
605.529	0.0165652
605.607	0.0164020
605.685	0.0164735
605.763	0.0164993
605.841	0.0164570
605.919	0.0164126
605.997	0.0165774
606.075	0.0164632
606.154	0.0165148
606.232	0.0163799
606.310	0.0163638
606.388	0.0165251
606.466	0.0165794
606.544	0.0164405
606.622	0.0163314
606.700	0.0163999
606.779	0.0165668
606.857	0.0162197
606.935	0.0163116
607.013	0.0162783
607.091	0.0162577
607.169	0.0163954
607.247	0.0164398
607.325	0.0164211
607.404	0.0163726
607.482	0.0163954
607.560	0.0162917
607.638	0.0161573
607.716	0.0162756
607.794	0.0162753
607.872	0.0160665
607.950	0.0162745
608.029	0.0163326
608.107	0.0162228
608.185	0.0163390
608.263	0.0161163
608.341	0.0163193
608.419	0.0163961
608.497	0.0163174
608.575	0.0162573
608.654	0.0163846
608.732	0.0162504
608.810	0.0162964
608.888	0.0163547
608.966	0.0162659
609.044	0.0162784
609.122	0.0162303
609.200	0.0163371
609.279	0.0163096
609.357	0.0162880
609.435	0.0163245
609.513	0.0164438
609.591	0.0162154
609.669	0.0162278
609.747	0.0162572
609.825	0.0162157
609.904	0.0163226
609.982	0.0163027
610.060	0.0162530
610.138	0.0164249
610.216	0.0161848
610.294	0.0163739
610.372	0.0163706
610.450	0.0164237
610.529	0.0162942
610.607	0.0162844
610.685	0.0163338
610.763	0.0164079
610.841	0.0163026
610.919	0.0164174
610.997	0.0165464
611.075	0.0162799
611.154	0.0163166
611.232	0.0164445
611.310	0.0163898
611.388	0.0164498
611.466	0.0163326
611.544	0.0162976
611.622	0.0163719
611.700	0.0163046
611.779	0.0162133
611.857	0.0161744
611.935	0.0162205
612.013	0.0160862
612.091	0.0162079
612.169	0.0160536
612.247	0.0159553
612.325	0.0160367
612.404	0.0159426
612.482	0.0160630
612.560	0.0159498
612.638	0.0160390
612.716	0.0159811
612.794	0.0161145
612.872	0.0160178
612.950	0.0160249
613.029	0.0160963
613.107	0.0160408
613.185	0.0162125
613.263	0.0160564
613.341	0.0160477
613.419	0.0161640
613.497	0.0161504
613.575	0.0161105
613.654	0.0161970
613.732	0.0160968
613.810	0.0161356
613.888	0.0162786
613.966	0.0161595
614.044	0.0162450
614.122	0.0161845
614.200	0.0161709
614.279	0.0162386
614.357	0.0161993
614.435	0.0162475
614.513	0.0162738
614.591	0.0163560
614.669	0.0163635
614.747	0.0162495
614.825	0.0163303
614.904	0.0161447
614.982	0.0161810
615.060	0.0162364
615.138	0.0160950
615.216	0.0161721
615.294	0.0163190
615.372	0.0162531
615.450	0.0161662
615.529	0.0161454
615.607	0.0162491
615.685	0.0162499
615.763	0.0162189
615.841	0.0162180
615.919	0.0160200
615.997	0.0160778
616.075	0.0161626
616.154	0.0161034
616.232	0.0161749
616.310	0.0161989
616.388	0.0162973
616.466	0.0162477
616.544	0.0161245
616.622	0.0161942
616.700	0.0160094
616.779	0.0160409
616.857	0.0161985
616.935	0.0161922
617.013	0.0162931
617.091	0.0163046
617.169	0.0162383
617.247	0.0163390
617.325	0.0163730
617.404	0.0164453
617.482	0.0162634
617.560	0.0163063
617.638	0.0163531
617.716	0.0163081
617.794	0.0164742
617.872	0.0164425
617.950	0.0163363
618.029	0.0163187
618.107	0.0163403
618.185	0.0162447
618.263	0.0162366
618.341	0.0164585
618.419	0.0163939
618.497	0.0162247
618.575	0.0161839
618.654	0.0161205
618.732	0.0160946
618.810	0.0161954
618.888	0.0162283
618.966	0.0160641
619.044	0.0161150
619.122	0.0162866
619.200	0.0160847
619.279	0.0159378
619.357	0.0161758
619.435	0.0161555
619.513	0.0162416
619.591	0.0161614
619.669	0.0161003
619.747	0.0161405
619.825	0.0161555
619.904	0.0161831
619.982	0.0160900
620.060	0.0161848
620.138	0.0161601
620.216	0.0162424
620.294	0.0162759
620.372	0.0161743
620.450	0.0161548
620.529	0.0160275
620.607	0.0159690
620.685	0.0160812
620.763	0.0161527
620.841	0.0161038
620.919	0.0158927
620.997	0.0161446
621.075	0.0160511
621.154	0.0161746
621.232	0.0160764
621.310	0.0160072
621.388	0.0162176
621.466	0.0162409
621.544	0.0161964
621.622	0.0163036
621.700	0.0163460
621.779	0.0164654
621.857	0.0163692
621.935	0.0164311
622.013	0.0164061
622.091	0.0164065
622.169	0.0163598
622.247	0.0165118
622.325	0.0166565
622.404	0.0163986
622.482	0.0164870
622.560	0.0163856
622.638	0.0164085
622.716	0.0164876
622.794	0.0164436
622.872	0.0165259
622.950	0.0164145
623.029	0.0164534
623.107	0.0164040
623.185	0.0164704
623.263	0.0164065
623.341	0.0163622
623.419	0.0165619
623.497	0.0164973
623.575	0.0164702
623.654	0.0165878
623.732	0.0164631
623.810	0.0165259
623.888	0.0164295
623.966	0.0164515
624.044	0.0164975
624.122	0.0166700
624.200	0.0165598
624.279	0.0164471
624.357	0.0165460
624.435	0.0165386
624.513	0.0166077
624.591	0.0166685
624.669	0.0165974
624.747	0.0167503
624.825	0.0167057
624.904	0.0165492
624.982	0.0166163
625.060	0.0165434
625.138	0.0164815
625.216	0.0163727
625.294	0.0162947
625.372	0.0162933
625.450	0.0163107
625.529	0.0164231
625.607	0.0162709
625.685	0.0161671
625.763	0.0161912
625.841	0.0163058
625.919	0.0162280
625.997	0.0163471
626.075	0.0164131
626.154	0.0161884
626.232	0.0163284
626.310	0.0162161
626.388	0.0164304
626.466	0.0165120
626.544	0.0164639
626.622	0.0164723
626.700	0.0163893
626.779	0.0163691
626.857	0.0163431
626.935	0.0164560
627.013	0.0164382
627.091	0.0163912
627.169	0.0162901
627.247	0.0162773
627.325	0.0163692
627.404	0.0163748
627.482	0.0162238
627.560	0.0164278
627.638	0.0163883
627.716	0.0163697
627.794	0.0163461
627.872	0.0163795
627.950	0.0164624
628.029	0.0163639
628.107	0.0162392
628.185	0.0162212
628.263	0.0163145
628.341	0.0161507
628.419	0.0162354
628.497	0.0161670
628.575	0.0160205
628.654	0.0160983
628.732	0.0162323
628.810	0.0163081
628.888	0.0160601
628.966	0.0162226
629.044	0.0162509
629.122	0.0162259
629.200	0.0163944
629.279	0.0163669
629.357	0.0165499
629.435	0.0165101
629.513	0.0165606
629.591	0.0166144
629.669	0.0165863
629.747	0.0166074
629.825	0.0167402
629.904	0.0166457
629.982	0.0166792
630.060	0.0166422
630.138	0.0166370
630.216	0.0166766
630.294	0.0167344
630.372	0.0167052
630.450	0.0166092
630.529	0.0163832
630.607	0.0163438
630.685	0.0162270
630.763	0.0159338
630.841	0.0160049
630.919	0.0159573
630.997	0.0158705
631.075	0.0158028
631.154	0.0157815
631.232	0.0157533
631.310	0.0158322
631.388	0.0159576
631.466	0.0158340
631.544	0.0158593
631.622	0.0160348
631.700	0.0160025
631.779	0.0160945
631.857	0.0163133
631.935	0.0162700
632.013	0.0162940
632.091	0.0164397
632.169	0.0164961
632.247	0.0166765
632.325	0.0168081
632.404	0.0167214
632.482	0.0168444
632.560	0.0169314
632.638	0.0170467
632.716	0.0172504
632.794	0.0172565
632.872	0.0174683
632.950	0.0175294
633.029	0.0175767
633.107	0.0176546
633.185	0.0176569
633.263	0.0176012
633.341	0.0173946
633.419	0.0175185
633.497	0.0172613
633.575	0.0171186
633.654	0.0170010
633.732	0.0166642
633.810	0.0165883
633.888	0.0165147
633.966	0.0163729
634.044	0.0159955
634.122	0.0159283
634.200	0.0157091
634.279	0.0155574
634.357	0.0153758
634.435	0.0152428
634.513	0.0150597
634.591	0.0149849
634.669	0.0148032
634.747	0.0146741
634.825	0.0146404
634.904	0.0146452
634.982	0.0145573
635.060	0.0144231
635.138	0.0145551
635.216	0.0148483
635.294	0.0151047
635.372	0.0151685
635.450	0.0153283
635.529	0.0156418
635.607	0.0158103
635.685	0.0162189
635.763	0.0164005
635.841	0.0166786
635.919	0.0171209
635.997	0.0175514
636.075	0.0175314
636.154	0.0180106
636.232	0.0183263
636.310	0.0185896
636.388	0.0187446
636.466	0.0188680
636.544	0.0189507
636.622	0.0189011
636.700	0.0189458
636.779	0.0190408
636.857	0.0189334
636.935	0.0186642
637.013	0.0183857
637.091	0.0183596
637.169	0.0179057
637.247	0.0177740
637.325	0.0173290
637.404	0.0169699
637.482	0.0165482
637.560	0.0160713
637.638	0.0157601
637.716	0.0152866
637.794	0.0148466
637.872	0.0144831
637.950	0.0141794
638.029	0.0139722
638.107	0.0136064
638.185	0.0133611
638.263	0.0133247
638.341	0.0130676
638.419	0.0129452
638.497	0.0129695
638.575	0.0130981
638.654	0.0132454
638.732	0.0135001
638.810	0.0135970
638.888	0.0139257
638.966	0.0142738
639.044	0.0145187
639.122	0.0151731
639.200	0.0155163
639.279	0.0160023
639.357	0.0163684
639.435	0.0168723
639.513	0.0175071
639.591	0.0179157
639.669	0.0183797
639.747	0.0187628
639.825	0.0192416
639.904	0.0193385
639.982	0.0196549
640.060	0.0197917
640.138	0.0198892
640.216	0.0198653
640.294	0.0196848
640.372	0.0196507
640.450	0.0194089
640.529	0.0189517
640.607	0.0186355
640.685	0.0183166
640.763	0.0178281
640.841	0.0173544
640.919	0.0169081
640.997	0.0164533
641.075	0.0160590
641.154	0.0156071
641.232	0.0153228
641.310	0.0149113
641.388	0.0146921
641.466	0.0142903
641.544	0.0141541
641.622	0.0138624
641.700	0.0135160
641.779	0.0136957
641.857	0.0135820
641.935	0.0135977
642.013	0.0138188
642.091	0.0138435
642.169	0.0140710
642.247	0.0142904
642.325	0.0146210
642.404	0.0148380
642.482	0.0152349
642.560	0.0154974
642.638	0.0157095
642.716	0.0160490
642.794	0.0163251
642.872	0.0163401
642.950	0.0166951
643.029	0.0168269
643.107	0.0169233
643.185	0.0169238
643.263	0.0171519
643.341	0.0170639
643.419	0.0170556
643.497	0.0170656
643.575	0.0171724
643.654	0.0170505
643.732	0.0170670
643.810	0.0170015
643.888	0.0169450
643.966	0.0167719
644.044	0.0168352
644.122	0.0166641
644.200	0.0164627
644.279	0.0164785
644.357	0.0163553
644.435	0.0163023
644.513	0.0162414
644.591	0.0160838
644.669	0.0164243
644.747	0.0163862
644.825	0.0164166
644.904	0.0164086
644.982	0.0166018
645.060	0.0168917
645.138	0.0168839
645.216	0.0172099
645.294	0.0176456
645.372	0.0176624
645.450	0.0178240
645.529	0.0179229
645.607	0.0179183
645.685	0.0180502
645.763	0.0179780
645.841	0.0178616
645.919	0.0175787
645.997	0.0174718
646.075	0.0171889
646.154	0.0169198
646.232	0.0166698
646.310	0.0163161
646.388	0.0158958
646.466	0.0157953
646.544	0.0155018
646.622	0.0153194
646.700	0.0151313
646.779	0.0150600
646.857	0.0149310
646.935	0.0145968
647.013	0.0142863
647.091	0.0141581
647.169	0.0141603
647.247	0.0141219
647.325	0.0139552
647.404	0.0139004
647.482	0.0140470
647.560	0.0141191
647.638	0.0141457
647.716	0.0143339
647.794	0.0147588
647.872	0.0149399
647.950	0.0153368
648.029	0.0156135
648.107	0.0159826
648.185	0.0163808
648.263	0.0167346
648.341	0.0170823
648.419	0.0173087
648.497	0.0175925
648.575	0.0177091
648.654	0.0180424
648.732	0.0182563
648.810	0.0181793
648.888	0.0185582
648.966	0.0185728
649.044	0.0185557
649.122	0.0185892
649.200	0.0186057
649.279	0.0185734
649.357	0.0183200
649.435	0.0181983
649.513	0.0179208
649.591	0.0176318
649.669	0.0174977
649.747	0.0173851
649.825	0.0169818
649.904	0.0166339
649.982	0.0164773
650.060	0.0161206
650.138	0.0161301
650.216	0.0159674
650.294	0.0157109
650.372	0.0157882
650.450	0.0155018
650.529	0.0155115
650.607	0.0155167
650.685	0.0153983
650.763	0.0154606
650.841	0.0153748
650.919	0.0153434
650.997	0.0151846
651.075	0.0151296
651.154	0.0151983
651.232	0.0152573
651.310	0.0149671
651.388	0.0150557
651.466	0.0151512
651.544	0.0150779
651.622	0.0149617
651.700	0.0150662
651.779	0.0150307
651.857	0.0150497
651.935	0.0149408
652.013	0.0150420
652.091	0.0152708
652.169	0.0153748
652.247	0.0154625
652.325	0.0155495
652.404	0.0156562
652.482	0.0160424
652.560	0.0162996
652.638	0.0163526
652.716	0.0166427
652.794	0.0169714
652.872	0.0172523
652.950	0.0175457
653.029	0.0177824
653.107	0.0181389
653.185	0.0184298
653.263	0.0185996
653.341	0.0188230
653.419	0.0189248
653.497	0.0190412
653.575	0.0191553
653.654	0.0192921
653.732	0.0191193
653.810	0.0190032
653.888	0.0188786
653.966	0.0185516
654.044	0.0183109
654.122	0.0177796
654.200	0.0175019
654.279	0.0172333
654.357	0.0168981
654.435	0.0164260
654.513	0.0158761
654.591	0.0153152
654.669	0.0150050
654.747	0.0147169
654.825	0.0141900
654.904	0.0138595
654.982	0.0135890
655.060	0.0135097
655.138	0.0132983
655.216	0.0132495
655.294	0.0131626
655.372	0.0131491
655.450	0.0134364
655.529	0.0138210
655.607	0.0139048
655.685	0.0141771
655.763	0.0146315
655.841	0.0150050
655.919	0.0154167
655.997	0.0158067
656.075	0.0161794
656.154	0.0168456
656.232	0.0172321
656.310	0.0176524
656.388	0.0180290
656.466	0.0184087
656.544	0.0185706
656.622	0.0188673
656.700	0.0189604
656.779	0.0192064
656.857	0.0191586
656.935	0.0193500
657.013	0.0192491
657.091	0.0190572
657.169	0.0189322
657.247	0.0185625
657.325	0.0184852
657.404	0.0180877
657.482	0.0177666
657.560	0.0173511
657.638	0.0170728
657.716	0.0166370
657.794	0.0162096
657.872	0.0159594
657.950	0.0155685
658.029	0.0153087
658.107	0.0151502
658.185	0.0150842
658.263	0.0147267
658.341	0.0146492
658.419	0.0147566
658.497	0.0145371
658.575	0.0146620
658.654	0.0146991
658.732	0.0148062
658.810	0.0148838
658.888	0.0150949
658.966	0.0154051
659.044	0.0155552
659.122	0.0157269
659.200	0.0160383
659.279	0.0161491
659.357	0.0163194
659.435	0.0165731
659.513	0.0167392
659.591	0.0166063
659.669	0.0167316
659.747	0.0166469
659.825	0.0166988
659.904	0.0165830
659.982	0.0164741
660.060	0.0161805
660.138	0.0160547
660.216	0.0158894
660.294	0.0157259
660.372	0.0154983
660.450	0.0153830
660.529	0.0153039
660.607	0.0152743
660.685	0.0153021
660.763	0.0152306
660.841	0.0151678
660.919	0.0151744
660.997	0.0153270
661.075	0.0152007
661.154	0.0154658
661.232	0.0154194
661.310	0.0154335
661.388	0.0155132
661.466	0.0156774
661.544	0.0158464
661.622	0.0159172
661.700	0.0161752
661.779	0.0162613
661.857	0.0166116
661.935	0.0168089
662.013	0.0171458
662.091	0.0173059
662.169	0.0174358
662.247	0.0176483
662.325	0.0178064
662.404	0.0178450
662.482	0.0178780
662.560	0.0179504
662.638	0.0180058
662.716	0.0179801
662.794	0.0179859
662.872	0.0180087
662.950	0.0178905
663.029	0.0177493
663.107	0.0177581
663.185	0.0175157
663.263	0.0174096
663.341	0.0172585
663.419	0.0170318
663.497	0.0166405
663.575	0.0164237
663.654	0.0163238
663.732	0.0159245
663.810	0.0156541
663.888	0.0155682
663.966	0.0153774
664.044	0.0152168
664.122	0.0152470
664.200	0.0151884
664.279	0.0152851
664.357	0.0153449
664.435	0.0152663
664.513	0.0155274
664.591	0.0157803
664.669	0.0158133
664.747	0.0160038
664.825	0.0160971
664.904	0.0160720
664.982	0.0162206
665.060	0.0165243
665.138	0.0164761
665.216	0.0165144
665.294	0.0164510
665.372	0.0166926
665.450	0.0166346
665.529	0.0165208
665.607	0.0164898
665.685	0.0163554
665.763	0.0161787
665.841	0.0161037
665.919	0.0158355
665.997	0.0156960
666.075	0.0155042
666.154	0.0152652
666.232	0.0148564
666.310	0.0147831
666.388	0.0145341
666.466	0.0142495
666.544	0.0141692
666.622	0.0139679
666.700	0.0139460
666.779	0.0138242
666.857	0.0139529
666.935	0.0140225
667.013	0.0141033
667.091	0.0143456
667.169	0.0144985
667.247	0.0146539
667.325	0.0150509
667.404	0.0154750
667.482	0.0157714
667.560	0.0160936
667.638	0.0166615
667.716	0.0168405
667.794	0.0172978
667.872	0.0174945
667.950	0.0178961
668.029	0.0183469
668.107	0.0186871
668.185	0.0189267
668.263	0.0190691
668.341	0.0192543
668.419	0.0194630
668.497	0.0196603
668.575	0.0197861
668.654	0.0198563
668.732	0.0196894
668.810	0.0195833
668.888	0.0196608
668.966	0.0194927
669.044	0.0191703
669.122	0.0188049
669.200	0.0185445
669.279	0.0184076
669.357	0.0179629
669.435	0.0175483
669.513	0.0171903
669.591	0.0167790
669.669	0.0162810
669.747	0.0157970
669.825	0.0155454
669.904	0.0150600
669.982	0.0146259
670.060	0.0143018
670.138	0.0140565
670.216	0.0138456
670.294	0.0135188
670.372	0.0133427
670.450	0.0130951
670.529	0.0129557
670.607	0.0127573
670.685	0.0125663
670.763	0.0126140
670.841	0.0123579
670.919	0.0123608
670.997	0.0123750
671.075	0.0125512
671.154	0.0127128
671.232	0.0128417
671.310	0.0132357
671.388	0.0135629
671.466	0.0139166
671.544	0.0143146
671.622	0.0148663
671.700	0.0152545
671.779	0.0155624
671.857	0.0161113
671.935	0.0165783
672.013	0.0170323
672.091	0.0174770
672.169	0.0180602
672.247	0.0182601
672.325	0.0184794
672.404	0.0187565
672.482	0.0189738
672.560	0.0190553
672.638	0.0192133
672.716	0.0191753
672.794	0.0191692
672.872	0.0191461
672.950	0.0190115
673.029	0.0189257
673.107	0.0187025
673.185	0.0184662
673.263	0.0182920
673.341	0.0179202
673.419	0.0177198
673.497	0.0175485
673.575	0.0173434
673.654	0.0171404
673.732	0.0168494
673.810	0.0166309
673.888	0.0164493
673.966	0.0163669
674.044	0.0162455
674.122	0.0162151
674.200	0.0160506
674.279	0.0161880
674.357	0.0161005
674.435	0.0160175
674.513	0.0160648
674.591	0.0162315
674.669	0.0162533
674.747	0.0161683
674.825	0.0161562
674.904	0.0161437
674.982	0.0162291
675.060	0.0161148
675.138	0.0159996
675.216	0.0161342
675.294	0.0158659
675.372	0.0160346
675.450	0.0160285
675.529	0.0160124
675.607	0.0161185
675.685	0.0160298
675.763	0.0158920
675.841	0.0159184
675.919	0.0159737
675.997	0.0159643
676.075	0.0160406
676.154	0.0158312
676.232	0.0157494
676.310	0.0157226
676.388	0.0158026
676.466	0.0158663
676.544	0.0156630
676.622	0.0158709
676.700	0.0156593
676.779	0.0158968
676.857	0.0157099
676.935	0.0159368
677.013	0.0158463
677.091	0.0157629
677.169	0.0157845
677.247	0.0158306
677.325	0.0158691
677.404	0.0158169
677.482	0.0158709
677.560	0.0158189
677.638	0.0158480
677.716	0.0160104
677.794	0.0160558
677.872	0.0162096
677.950	0.0163146
678.029	0.0163194
678.107	0.0164928
678.185	0.0167206
678.263	0.0167463
678.341	0.0168962
678.419	0.0170802
678.497	0.0171261
678.575	0.0170517
678.654	0.0171324
678.732	0.0172946
678.810	0.0171238
678.888	0.0170523
678.966	0.0170733
679.044	0.0169889
679.122	0.0168607
679.200	0.0168629
679.279	0.0165466
679.357	0.0165740
679.435	0.0165607
679.513	0.0163338
679.591	0.0163371
679.669	0.0163400
679.747	0.0164518
679.825	0.0163461
679.904	0.0164569
679.982	0.0164297
680.060	0.0165801
680.138	0.0166399
680.216	0.0168347
680.294	0.0168127
680.372	0.0169206
680.450	0.0169110
680.529	0.0172845
680.607	0.0172547
680.685	0.0172651
680.763	0.0174793
680.841	0.0175284
680.919	0.0173685
680.997	0.0173337
681.075	0.0175436
681.154	0.0174142
681.232	0.0171909
681.310	0.0171055
681.388	0.0170055
681.466	0.0168932
681.544	0.0167107
681.622	0.0164297
681.700	0.0164294
681.779	0.0162540
681.857	0.0160909
681.935	0.0159992
682.013	0.0159007
682.091	0.0157247
682.169	0.0155242
682.247	0.0154954
682.325	0.0155626
682.404	0.0154591
682.482	0.0152674
682.560	0.0153455
682.638	0.0151357
682.716	0.0152908
682.794	0.0151871
682.872	0.0151422
682.950	0.0152097
683.029	0.0152922
683.107	0.0152922
683.185	0.0153040
683.263	0.0152811
683.341	0.0153098
683.419	0.0153952
683.497	0.0152776
683.575	0.0152766
683.654	0.0152900
683.732	0.0152679
683.810	0.0153642
683.888	0.0155910
683.966	0.0154712
684.044	0.0155430
684.122	0.0154220
684.200	0.0157799
684.279	0.0158125
684.357	0.0159502
684.435	0.0160251
684.513	0.0160395
684.591	0.0162056
684.669	0.0163855
684.747	0.0166205
684.825	0.0167734
684.904	0.0169792
684.982	0.0170852
685.060	0.0171439
685.138	0.0173472
685.216	0.0174622
685.294	0.0175357
685.372	0.0175389
685.450	0.0176938
685.529	0.0176344
685.607	0.0177267
685.685	0.0175698
685.763	0.0175637
685.841	0.0175076
685.919	0.0174084
685.997	0.0173897
686.075	0.0171766
686.154	0.0170309
686.232	0.0169887
686.310	0.0167239
686.388	0.0166109
686.466	0.0162875
686.544	0.0162321
686.622	0.0160504
686.700	0.0158844
686.779	0.0158215
686.857	0.0158014
686.935	0.0154878
687.013	0.0154479
687.091	0.0154592
687.169	0.0154809
687.247	0.0154433
687.325	0.0155399
687.404	0.0154620
687.482	0.0153623
687.560	0.0154333
687.638	0.0156409
687.716	0.0156398
687.794	0.0157718
687.872	0.0157681
687.950	0.0156824
688.029	0.0158603
688.107	0.0159182
688.185	0.0160614
688.263	0.0160623
688.341	0.0160846
688.419	0.0161295
688.497	0.0161768
688.575	0.0163113
688.654	0.0164601
688.732	0.0165076
688.810	0.0163058
688.888	0.0163335
688.966	0.0164108
689.044	0.0165406
689.122	0.0164589
689.200	0.0163571
689.279	0.0163514
689.357	0.0163680
689.435	0.0163198
689.513	0.0164381
689.591	0.0163994
689.669	0.0163982
689.747	0.0163567
689.825	0.0163566
689.904	0.0162901
689.982	0.0161919
690.060	0.0162210
690.138	0.0162088
690.216	0.0159984
690.294	0.0157742
690.372	0.0159103
690.450	0.0156833
690.529	0.0157240
690.607	0.0156711
690.685	0.0156804
690.763	0.0157107
690.841	0.0158530
690.919	0.0158355
690.997	0.0158569
691.075	0.0160148
691.154	0.0161620
691.232	0.0161839
691.310	0.0162341
691.388	0.0164901
691.466	0.0163549
691.544	0.0164977
691.622	0.0164682
691.700	0.0164867
691.779	0.0166615
691.857	0.0165934
691.935	0.0167296
692.013	0.0166474
692.091	0.0167484
692.169	0.0167097
692.247	0.0166794
692.325	0.0166220
692.404	0.0167194
692.482	0.0166567
692.560	0.0165651
692.638	0.0165101
692.716	0.0165035
692.794	0.0165291
692.872	0.0161996
692.950	0.0163354
693.029	0.0162291
693.107	0.0163295
693.185	0.0163000
693.263	0.0163391
693.341	0.0164617
693.419	0.0164173
693.497	0.0164722
693.575	0.0164877
693.654	0.0164658
693.732	0.0166248
693.810	0.0166515
693.888	0.0166083
693.966	0.0165562
694.044	0.0166129
694.122	0.0163661
694.200	0.0164396
694.279	0.0165081
694.357	0.0163490
694.435	0.0162799
694.513	0.0161726
694.591	0.0161395
694.669	0.0160072
694.747	0.0160204
694.825	0.0159744
694.904	0.0158351
694.982	0.0156738
695.060	0.0156480
695.138	0.0155744
695.216	0.0155069
695.294	0.0155840
695.372	0.0154670
695.450	0.0155457
695.529	0.0156944
695.607	0.0156080
695.685	0.0157381
695.763	0.0156782
695.841	0.0157336
695.919	0.0159932
695.997	0.0160486
696.075	0.0160917
696.154	0.0162200
696.232	0.0163496
696.310	0.0164653
696.388	0.0168208
696.466	0.0168894
696.544	0.0168495
696.622	0.0170012
696.700	0.0168915
696.779	0.0169632
696.857	0.0169851
696.935	0.0169195
697.013	0.0169180
697.091	0.0167657
697.169	0.0167297
697.247	0.0167617
697.325	0.0166632
697.404	0.0165436
697.482	0.0167149
697.560	0.0164317
697.638	0.0164657
697.716	0.0164547
697.794	0.0165218
697.872	0.0164019
697.950	0.0163128
698.029	0.0162980
698.107	0.0162725
698.185	0.0162889
698.263	0.0161790
698.341	0.0161710
698.419	0.0161026
698.497	0.0162271
698.575	0.0162772
698.654	0.0162262
698.732	0.0162960
698.810	0.0164823
698.888	0.0165541
698.966	0.0165187
699.044	0.0167290
699.122	0.0167017
699.200	0.0167353
699.279	0.0167988
699.357	0.0169250
699.435	0.0169776
699.513	0.0167889
699.591	0.0168666
699.669	0.0168771
699.747	0.0167848
699.825	0.0165699
699.904	0.0164899
699.982	0.0165782
700.060	0.0164026
700.138	0.0163620
700.216	0.0163181
700.294	0.0162751
700.372	0.0159997
700.450	0.0160546
700.529	0.0160651
700.607	0.0159265
700.685	0.0159562
700.763	0.0158415
700.841	0.0159189
700.919	0.0158656
700.997	0.0158301
701.075	0.0157897
701.154	0.0158733
701.232	0.0158533
701.310	0.0157601
701.388	0.0159521
701.466	0.0159615
701.544	0.0158567
701.622	0.0160551
701.700	0.0161430
701.779	0.0160106
701.857	0.0162354
701.935	0.0162022
702.013	0.0160684
702.091	0.0160217
702.169	0.0162427
702.247	0.0163276
702.325	0.0162251
702.404	0.0162861
702.482	0.0163413
702.560	0.0163432
702.638	0.0164713
702.716	0.0164429
702.794	0.0165195
702.872	0.0164279
702.950	0.0164432
703.029	0.0165105
703.107	0.0165804
703.185	0.0165085
703.263	0.0162566
703.341	0.0163432
703.419	0.0163568
703.497	0.0161727
703.575	0.0161754
703.654	0.0160424
703.732	0.0161562
703.810	0.0161382
703.888	0.0162024
703.966	0.0161331
704.044	0.0162146
704.122	0.0162150
704.200	0.0161429
704.279	0.0163594
704.357	0.0163053
704.435	0.0163924
704.513	0.0163544
704.591	0.0164011
704.669	0.0165702
704.747	0.0164192
704.825	0.0164812
704.904	0.0166065
704.982	0.0165610
705.060	0.0165794
705.138	0.0165294
705.216	0.0165334
705.294	0.0166552
705.372	0.0167004
705.450	0.0165298
705.529	0.0165585
705.607	0.0165302
705.685	0.0165478
705.763	0.0165355
705.841	0.0166438
705.919	0.0163946
705.997	0.0165159
706.075	0.0166151
706.154	0.0167154
706.232	0.0166119
706.310	0.0165730
706.388	0.0165403
706.466	0.0165508
706.544	0.0166814
706.622	0.0167731
706.700	0.0167278
706.779	0.0167068
706.857	0.0167516
706.935	0.0167211
707.013	0.0166231
707.091	0.0167675
707.169	0.0165971
707.247	0.0165482
707.325	0.0166457
707.404	0.0163760
707.482	0.0164564
707.560	0.0162678
707.638	0.0163321
707.716	0.0162274
707.794	0.0161404
707.872	0.0160809
707.950	0.0161562
708.029	0.0160763
708.107	0.0159528
708.185	0.0159213
708.263	0.0160545
708.341	0.0159952
708.419	0.0160582
708.497	0.0160419
708.575	0.0158458
708.654	0.0159495
708.732	0.0159618
708.810	0.0159582
708.888	0.0158087
708.966	0.0160431
709.044	0.0160962
709.122	0.0160017
709.200	0.0161555
709.279	0.0161309
709.357	0.0162007
709.435	0.0162211
709.513	0.0162495
709.591	0.0162279
709.669	0.0163276
709.747	0.0163293
709.825	0.0164151
709.904	0.0163850
709.982	0.0165099
710.060	0.0165211
710.138	0.0163762
710.216	0.0163898
710.294	0.0166005
710.372	0.0164532
710.450	0.0164500
710.529	0.0164547
710.607	0.0163980
710.685	0.0165195
710.763	0.0164413
710.841	0.0164996
710.919	0.0164983
710.997	0.0165177
711.075	0.0165308
711.154	0.0165314
711.232	0.0165518
711.310	0.0164438
711.388	0.0164693
711.466	0.0165675
711.544	0.0166351
711.622	0.0166050
711.700	0.0167361
711.779	0.0166766
711.857	0.0166216
711.935	0.0165753
712.013	0.0167214
712.091	0.0167250
712.169	0.0168750
712.247	0.0167851
712.325	0.0167104
712.404	0.0165672
712.482	0.0167339
712.560	0.0166322
712.638	0.0163501
712.716	0.0162985
712.794	0.0163177
712.872	0.0164055
712.950	0.0161698
713.029	0.0161492
713.107	0.0161047
713.185	0.0160735
713.263	0.0160712
713.341	0.0160831
713.419	0.0160032
713.497	0.0159576
713.575	0.0159050
713.654	0.0158601
713.732	0.0160017
713.810	0.0160109
713.888	0.0160436
713.966	0.0160114
714.044	0.0159538
714.122	0.0159407
714.200	0.0160273
714.279	0.0160580
714.357	0.0160386
714.435	0.0160230
714.513	0.0161382
714.591	0.0163085
714.669	0.0162416
714.747	0.0162656
714.825	0.0163197
714.904	0.0164186
714.982	0.0165855
715.060	0.0165223
715.138	0.0165272
715.216	0.0165022
715.294	0.0165454
715.372	0.0163666
715.450	0.0164225
715.529	0.0162702
715.607	0.0162873
715.685	0.0161983
715.763	0.0162296
715.841	0.0161913
715.919	0.0161269
715.997	0.0160984
716.075	0.0159662
716.154	0.0160467
716.232	0.0159139
716.310	0.0158805
716.388	0.0160417
716.466	0.0160280
716.544	0.0160784
716.622	0.0159547
716.700	0.0160236
716.779	0.0160537
716.857	0.0162364
716.935	0.0163528
717.013	0.0162622
717.091	0.0163292
717.169	0.0163265
717.247	0.0163786
717.325	0.0163932
717.404	0.0165005
717.482	0.0166095
717.560	0.0165088
717.638	0.0166714
717.716	0.0166131
717.794	0.0165944
717.872	0.0165366
717.950	0.0166162
718.029	0.0167046
718.107	0.0166901
718.185	0.0166666
718.263	0.0167763
718.341	0.0167898
718.419	0.0168549
718.497	0.0166351
718.575	0.0166703
718.654	0.0166854
718.732	0.0166230
718.810	0.0166801
718.888	0.0166077
718.966	0.0164513
719.044	0.0165768
719.122	0.0165409
719.200	0.0165617
719.279	0.0164102
719.357	0.0163269
719.435	0.0162921
719.513	0.0164231
719.591	0.0162934
719.669	0.0162765
719.747	0.0162743
719.825	0.0161599
719.904	0.0162404
719.982	0.0161530
720.060	0.0160239
720.138	0.0160314
720.216	0.0161124
720.294	0.0160973
720.372	0.0158786
720.450	0.0158836
720.529	0.0159195
720.607	0.0160053
720.685	0.0160098
720.763	0.0159010
720.841	0.0160039
720.919	0.0158527
720.997	0.0160173
721.075	0.0160038
721.154	0.0159196
721.232	0.0160584
721.310	0.0160030
721.388	0.0161017
721.466	0.0160110
721.544	0.0162150
721.622	0.0162381
721.700	0.0161672
721.779	0.0163170
721.857	0.0162879
721.935	0.0162402
722.013	0.0162640
722.091	0.0162482
722.169	0.0163335
722.247	0.0161890
722.325	0.0164045
722.404	0.0163795
722.482	0.0163250
722.560	0.0163962
722.638	0.0163273
722.716	0.0163811
722.794	0.0163060
722.872	0.0162810
722.950	0.0163126
723.029	0.0162640
723.107	0.0163630
723.185	0.0160710
723.263	0.0161873
723.341	0.0162399
723.419	0.0161458
723.497	0.0162257
723.575	0.0162880
723.654	0.0162265
723.732	0.0161571
723.810	0.0162358
723.888	0.0161602
723.966	0.0160967
724.044	0.0162305
724.122	0.0161510
724.200	0.0161874
724.279	0.0162727
724.357	0.0163647
724.435	0.0161840
724.513	0.0163245
724.591	0.0163380
724.669	0.0163825
724.747	0.0163799
724.825	0.0165096
724.904	0.0165289
724.982	0.0163772
725.060	0.0165257
725.138	0.0165185
725.216	0.0164338
725.294	0.0165802
725.372	0.0165979
725.450	0.0165225
725.529	0.0166203
725.607	0.0167037
725.685	0.0166860
725.763	0.0165354
725.841	0.0165141
725.919	0.0163931
725.997	0.0165246
726.075	0.0163876
726.154	0.0162712
726.232	0.0163403
726.310	0.0163641
726.388	0.0163979
726.466	0.0161555
726.544	0.0161730
726.622	0.0161150
726.700	0.0160248
726.779	0.0160037
726.857	0.0159885
726.935	0.0160352
727.013	0.0157790
727.091	0.0159409
727.169	0.0158646
727.247	0.0158193
727.325	0.0159230
727.404	0.0158141
727.482	0.0158582
727.560	0.0159392
727.638	0.0157327
727.716	0.0157529
727.794	0.0160764
727.872	0.0159647
727.950	0.0160703
728.029	0.0162626
728.107	0.0163368
728.185	0.0161385
728.263	0.0163316
728.341	0.0164975
728.419	0.0164661
728.497	0.0164919
728.575	0.0165413
728.654	0.0165622
728.732	0.0166537
728.810	0.0167256
728.888	0.0165391
728.966	0.0166610
729.044	0.0167490
729.122	0.0166565
729.200	0.0164833
729.279	0.0166637
729.357	0.0164680
729.435	0.0166352
729.513	0.0165983
729.591	0.0165190
729.669	0.0165296
729.747	0.0165952
729.825	0.0165204
729.904	0.0168188
729.982	0.0166846
730.060	0.0165759
730.138	0.0165975
730.216	0.0166555
730.294	0.0167813
730.372	0.0167447
730.450	0.0167312
730.529	0.0167101
730.607	0.0168105
730.685	0.0166891
730.763	0.0166281
730.841	0.0165800
730.919	0.0165724
730.997	0.0165846
731.075	0.0165756
731.154	0.0163681
731.232	0.0163760
731.310	0.0164739
731.388	0.0163207
731.466	0.0163084
731.544	0.0162514
731.622	0.0160605
731.700	0.0161012
731.779	0.0160522
731.857	0.0161344
731.935	0.0161392
732.013	0.0159481
732.091	0.0160217
732.169	0.0160063
732.247	0.0159615
732.325	0.0160519
732.404	0.0159930
732.482	0.0161557
732.560	0.0161293
732.638	0.0162417
732.716	0.0162518
732.794	0.0162114
732.872	0.0163533
732.950	0.0162633
733.029	0.0163445
733.107	0.0163932
733.185	0.0163803
733.263	0.0164127
733.341	0.0163975
733.419	0.0164720
733.497	0.0164346
733.575	0.0164560
733.654	0.0163900
733.732	0.0164156
733.810	0.0164854
733.888	0.0163637
733.966	0.0163564
734.044	0.0163042
734.122	0.0162361
734.200	0.0161544
734.279	0.0162535
734.357	0.0161932
734.435	0.0161401
734.513	0.0161690
734.591	0.0160930
734.669	0.0161056
734.747	0.0159057
734.825	0.0160033
734.904	0.0159508
734.982	0.0159267
735.060	0.0159025
735.138	0.0159106
735.216	0.0159956
735.294	0.0160685
735.372	0.0161688
735.450	0.0159904
735.529	0.0162135
735.607	0.0162879
735.685	0.0163232
735.763	0.0163663
735.841	0.0164641
735.919	0.0166486
735.997	0.0166574
736.075	0.0166933
736.154	0.0167751
736.232	0.0167131
736.310	0.0166589
736.388	0.0167245
736.466	0.0168005
736.544	0.0168737
736.622	0.0168617
736.700	0.0167617
736.779	0.0169353
736.857	0.0168141
736.935	0.0167521
737.013	0.0167755
737.091	0.0167783
737.169	0.0166996
737.247	0.0166898
737.325	0.0165346
737.404	0.0165288
737.482	0.0165101
737.560	0.0166090
737.638	0.0164278
737.716	0.0164590
737.794	0.0162414
737.872	0.0161578
737.950	0.0164459
738.029	0.0163686
738.107	0.0162747
738.185	0.0161607
738.263	0.0161602
738.341	0.0161181
738.419	0.0162281
738.497	0.0161373
738.575	0.0161968
738.654	0.0163128
738.732	0.0161836
738.810	0.0162206
738.888	0.0162594
738.966	0.0162300
739.044	0.0164371
739.122	0.0162419
739.200	0.0161060
739.279	0.0162252
739.357	0.0163187
739.435	0.0163379
739.513	0.0163425
739.591	0.0163128
739.669	0.0161358
739.747	0.0162713
739.825	0.0162984
739.904	0.0163342
739.982	0.0163570
740.060	0.0163296
740.138	0.0162964
740.216	0.0161780
740.294	0.0162734
740.372	0.0162482
740.450	0.0162634
740.529	0.0162541
740.607	0.0162468
740.685	0.0162928
740.763	0.0163674
740.841	0.0162117
740.919	0.0161791
740.997	0.0162389
741.075	0.0161308
741.154	0.0163353
741.232	0.0162510
741.310	0.0161650
741.388	0.0163203
741.466	0.0162998
741.544	0.0163304
741.622	0.0162530
741.700	0.0163255
741.779	0.0162685
741.857	0.0163782
741.935	0.0163584
742.013	0.0163295
742.091	0.0161604
742.169	0.0163217
742.247	0.0163187
742.325	0.0164651
742.404	0.0163150
742.482	0.0162306
742.560	0.0162341
742.638	0.0162070
742.716	0.0162292
742.794	0.0162637
742.872	0.0162437
742.950	0.0162069
743.029	0.0161623
743.107	0.0161938
743.185	0.0163280
743.263	0.0163846
743.341	0.0162766
743.419	0.0162659
743.497	0.0161810
743.575	0.0160978
743.654	0.0162359
743.732	0.0161174
743.810	0.0160172
743.888	0.0160526
743.966	0.0161328
744.044	0.0161987
744.122	0.0162344
744.200	0.0161488
744.279	0.0162573
744.357	0.0161498
744.435	0.0163173
744.513	0.0161419
744.591	0.0162392
744.669	0.0163444
744.747	0.0163612
744.825	0.0164455
744.904	0.0163251
744.982	0.0162690
745.060	0.0163937
745.138	0.0165077
745.216	0.0165628
745.294	0.0164857
745.372	0.0166240
745.450	0.0166595
745.529	0.0165518
745.607	0.0167152
745.685	0.0165974
745.763	0.0165344
745.841	0.0165103
745.919	0.0165991
745.997	0.0165319
746.075	0.0164870
746.154	0.0164153
746.232	0.0164478
746.310	0.0164753
746.388	0.0165889
746.466	0.0163158
746.544	0.0163103
746.622	0.0164001
746.700	0.0163181
746.779	0.0162037
746.857	0.0162418
746.935	0.0161498
747.013	0.0162143
747.091	0.0161098
747.169	0.0160170
747.247	0.0161037
747.325	0.0161187
747.404	0.0160697
747.482	0.0161591
747.560	0.0160138
747.638	0.0160842
747.716	0.0160934
747.794	0.0161192
747.872	0.0160567
747.950	0.0160540
748.029	0.0159362
748.107	0.0160218
748.185	0.0159903
748.263	0.0160355
748.341	0.0159103
748.419	0.0160191
748.497	0.0160886
748.575	0.0161568
748.654	0.0159863
748.732	0.0160670
748.810	0.0161649
748.888	0.0162331
748.966	0.0163224
749.044	0.0162321
749.122	0.0162759
749.200	0.0163023
749.279	0.0163939
749.357	0.0163267
749.435	0.0162984
749.513	0.0162595
749.591	0.0162920
749.669	0.0163614
749.747	0.0163708
749.825	0.0164407
749.904	0.0163790
749.982	0.0161701
750.060	0.0163074
750.138	0.0163467
750.216	0.0162680
750.294	0.0162682
750.372	0.0163345
750.450	0.0161504
750.529	0.0162750
750.607	0.0163126
750.685	0.0160534
750.763	0.0160912
750.841	0.0160020
750.919	0.0160698
750.997	0.0160207
751.075	0.0159672
751.154	0.0160820
751.232	0.0161065
751.310	0.0159496
751.388	0.0157621
751.466	0.0158809
751.544	0.0159736
751.622	0.0160204
751.700	0.0160387
751.779	0.0160710
751.857	0.0161030
751.935	0.0160329
752.013	0.0158780
752.091	0.0160370
752.169	0.0161353
752.247	0.0162810
752.325	0.0161304
752.404	0.0161623
752.482	0.0162093
752.560	0.0163273
752.638	0.0163436
752.716	0.0163720
752.794	0.0165322
752.872	0.0164053
752.950	0.0165083
753.029	0.0163908
753.107	0.0164545
753.185	0.0165329
753.263	0.0165549
753.341	0.0164436
753.419	0.0165851
753.497	0.0163689
753.575	0.0165113
753.654	0.0164763
753.732	0.0166361
753.810	0.0165044
753.888	0.0164713
753.966	0.0163341
754.044	0.0165282
754.122	0.0162659
754.200	0.0162290
754.279	0.0163890
754.357	0.0162848
754.435	0.0163198
754.513	0.0161234
754.591	0.0161245
754.669	0.0160661
754.747	0.0161588
754.825	0.0161745
754.904	0.0160811
754.982	0.0160807
755.060	0.0161139
755.138	0.0161449
755.216	0.0161086
755.294	0.0161495
755.372	0.0161061
755.450	0.0160062
755.529	0.0161341
755.607	0.0160336
755.685	0.0162048
755.763	0.0160178
755.841	0.0160078
755.919	0.0163070
755.997	0.0160560
756.075	0.0163003
756.154	0.0162590
756.232	0.0162198
756.310	0.0162341
756.388	0.0161626
756.466	0.0162627
756.544	0.0162329
756.622	0.0163596
756.700	0.0162853
756.779	0.0162378
756.857	0.0162274
756.935	0.0162389
757.013	0.0162938
757.091	0.0163465
757.169	0.0164201
757.247	0.0162864
757.325	0.0164764
757.404	0.0164863
757.482	0.0164022
757.560	0.0164365
757.638	0.0165370
757.716	0.0165442
757.794	0.0165369
757.872	0.0165604
757.950	0.0166335
758.029	0.0166293
758.107	0.0167108
758.185	0.0165868
758.263	0.0165905
758.341	0.0165971
758.419	0.0165714
758.497	0.0165174
758.575	0.0166846
758.654	0.0164907
758.732	0.0165623
758.810	0.0165517
758.888	0.0166661
758.966	0.0165501
759.044	0.0165738
759.122	0.0166403
759.200	0.0165326
759.279	0.0164752
759.357	0.0165123
759.435	0.0166457
759.513	0.0164329
759.591	0.0165070
759.669	0.0164071
759.747	0.0164156
759.825	0.0164082
759.904	0.0164308
759.982	0.0165186
760.060	0.0163915
760.138	0.0162789
760.216	0.0163772
760.294	0.0162132
760.372	0.0160806
760.450	0.0162338
760.529	0.0162313
760.607	0.0162698
760.685	0.0162149
760.763	0.0162662
760.841	0.0162559
760.919	0.0162305
760.997	0.0162756
761.075	0.0163319
761.154	0.0162914
761.232	0.0163006
761.310	0.0163239
761.388	0.0163152
761.466	0.0163222
761.544	0.0162070
761.622	0.0163021
761.700	0.0162628
761.779	0.0162968
761.857	0.0162014
761.935	0.0163179
762.013	0.0162356
762.091	0.0163142
762.169	0.0163190
762.247	0.0161980
762.325	0.0162298
762.404	0.0163445
762.482	0.0162267
762.560	0.0161601
762.638	0.0160976
762.716	0.0161774
762.794	0.0162991
762.872	0.0161416
762.950	0.0161578
763.029	0.0162054
763.107	0.0160972
763.185	0.0161411
763.263	0.0160664
763.341	0.0159849
763.419	0.0160963
763.497	0.0161206
763.575	0.0161695
763.654	0.0161916
763.732	0.0161913
763.810	0.0162169
763.888	0.0162567
763.966	0.0162631
764.044	0.0164201
764.122	0.0164038
764.200	0.0165140
764.279	0.0165048
764.357	0.0165617
764.435	0.0165235
764.513	0.0165736
764.591	0.0164517
764.669	0.0165295
764.747	0.0167249
764.825	0.0167034
764.904	0.0166678
764.982	0.0167226
765.060	0.0167680
765.138	0.0169568
765.216	0.0167225
765.294	0.0166110
765.372	0.0168048
765.450	0.0167033
765.529	0.0168494
765.607	0.0168164
765.685	0.0167044
765.763	0.0166006
765.841	0.0166169
765.919	0.0165849
765.997	0.0165128
766.075	0.0163967
766.154	0.0166067
766.232	0.0164834
766.310	0.0165216
766.388	0.0164352
766.466	0.0164716
766.544	0.0163923
766.622	0.0164030
766.700	0.0164365
766.779	0.0162580
766.857	0.0162376
766.935	0.0161852
767.013	0.0162400
767.091	0.0161653
767.169	0.0159276
767.247	0.0159352
767.325	0.0159808
767.404	0.0158494
767.482	0.0159183
767.560	0.0158737
767.638	0.0157642
767.716	0.0158783
767.794	0.0156220
767.872	0.0158559
767.950	0.0159019
768.029	0.0158736
768.107	0.0159767
768.185	0.0160808
768.263	0.0160217
768.341	0.0160624
768.419	0.0161509
768.497	0.0162957
768.575	0.0161926
768.654	0.0161732
768.732	0.0163716
768.810	0.0163412
768.888	0.0163469
768.966	0.0164332
769.044	0.0162881
769.122	0.0164953
769.200	0.0164838
769.279	0.0165558
769.357	0.0165579
769.435	0.0166297
769.513	0.0165286
769.591	0.0165721
769.669	0.0166434
769.747	0.0166880
769.825	0.0166578
769.904	0.0166824
769.982	0.0166117
770.060	0.0166112
770.138	0.0165604
770.216	0.0166412
770.294	0.0164855
770.372	0.0166818
770.450	0.0167184
770.529	0.0165916
770.607	0.0164822
770.685	0.0164545
770.763	0.0165147
770.841	0.0164870
770.919	0.0163873
770.997	0.0164656
771.075	0.0165474
771.154	0.0163811
771.232	0.0162065
771.310	0.0163664
771.388	0.0162708
771.466	0.0163319
771.544	0.0163667
771.622	0.0163439
771.700	0.0164568
771.779	0.0163802
771.857	0.0163576
771.935	0.0164034
772.013	0.0164346
772.091	0.0164149
772.169	0.0162524
772.247	0.0163211
772.325	0.0163144
772.404	0.0163330
772.482	0.0163979
772.560	0.0163171
772.638	0.0163754
772.716	0.0163159
772.794	0.0164064
772.872	0.0163416
772.950	0.0161460
773.029	0.0162277
773.107	0.0162955
773.185	0.0163976
773.263	0.0161440
773.341	0.0160884
773.419	0.0162771
773.497	0.0161805
773.575	0.0162954
773.654	0.0162566
773.732	0.0162322
773.810	0.0161913
773.888	0.0161561
773.966	0.0162702
774.044	0.0162029
774.122	0.0162522
774.200	0.0164016
774.279	0.0162585
774.357	0.0162943
774.435	0.0163709
774.513	0.0162724
774.591	0.0162642
774.669	0.0163098
774.747	0.0163052
774.825	0.0163647
774.904	0.0163076
774.982	0.0162583
775.060	0.0163089
775.138	0.0163150
775.216	0.0164680
775.294	0.0165034
775.372	0.0163252
775.450	0.0165747
775.529	0.0165924
775.607	0.0164940
775.685	0.0164768
775.763	0.0166198
775.841	0.0165760
775.919	0.0166521
775.997	0.0164850
776.075	0.0165920
776.154	0.0166924
776.232	0.0165723
776.310	0.0166212
776.388	0.0165511
776.466	0.0165378
776.544	0.0165597
776.622	0.0164411
776.700	0.0165099
776.779	0.0165054
776.857	0.0164014
776.935	0.0165228
777.013	0.0165298
777.091	0.0166198
777.169	0.0164315
777.247	0.0165141
777.325	0.0166094
777.404	0.0163489
777.482	0.0163597
777.560	0.0165137
777.638	0.0165267
777.716	0.0164612
777.794	0.0165264
777.872	0.0164700
777.950	0.0162645
778.029	0.0163121
778.107	0.0164842
778.185	0.0164811
778.263	0.0164532
778.341	0.0163380
778.419	0.0164624
778.497	0.0163324
778.575	0.0162352
778.654	0.0162930
778.732	0.0164016
778.810	0.0162864
778.888	0.0164114
778.966	0.0162682
779.044	0.0161726
779.122	0.0162382
779.200	0.0163011
779.279	0.0162549
779.357	0.0162350
779.435	0.0163362
779.513	0.0163180
779.591	0.0161236
779.669	0.0162421
779.747	0.0162618
779.825	0.0162009
779.904	0.0161929
779.982	0.0162835
780.060	0.0163192
780.138	0.0162281
780.216	0.0162939
780.294	0.0162987
780.372	0.0161001
780.450	0.0164503
780.529	0.0164762
780.607	0.0163601
780.685	0.0163816
780.763	0.0165044
780.841	0.0164863
780.919	0.0164744
780.997	0.0165022
781.075	0.0164833
781.154	0.0164095
781.232	0.0163658
781.310	0.0164977
781.388	0.0164790
781.466	0.0165305
781.544	0.0164433
781.622	0.0162672
781.700	0.0163711
781.779	0.0164965
781.857	0.0164003
781.935	0.0164498
782.013	0.0163415
782.091	0.0164345
782.169	0.0163107
782.247	0.0163039
782.325	0.0163448
782.404	0.0161755
782.482	0.0163122
782.560	0.0162362
782.638	0.0161666
782.716	0.0162561
782.794	0.0162125
782.872	0.0161808
782.950	0.0161394
783.029	0.0162139
783.107	0.0162268
783.185	0.0161877
783.263	0.0161579
783.341	0.0162451
783.419	0.0163284
783.497	0.0161746
783.575	0.0161991
783.654	0.0160838
783.732	0.0160472
783.810	0.0161033
783.888	0.0160726
783.966	0.0159833
784.044	0.0159805
784.122	0.0161711
784.200	0.0161111
784.279	0.0160814
784.357	0.0160800
784.435	0.0162120
784.513	0.0161337
784.591	0.0159562
784.669	0.0160966
784.747	0.0160312
784.825	0.0161171
784.904	0.0160534
784.982	0.0161184
785.060	0.0161903
785.138	0.0161623
785.216	0.0162062
785.294	0.0161912
785.372	0.0162185
785.450	0.0160165
785.529	0.0162155
785.607	0.0162590
785.685	0.0161031
785.763	0.0161768
785.841	0.0163556
785.919	0.0163293
785.997	0.0162715
786.075	0.0163961
786.154	0.0163050
786.232	0.0163213
786.310	0.0164368
786.388	0.0164397
786.466	0.0164550
786.544	0.0162818
786.622	0.0164390
786.700	0.0165478
786.779	0.0165159
786.857	0.0165153
786.935	0.0164621
787.013	0.0163480
787.091	0.0164836
787.169	0.0165253
787.247	0.0164115
787.325	0.0163560
787.404	0.0164352
787.482	0.0165361
787.560	0.0164111
787.638	0.0165051
787.716	0.0165089
787.794	0.0164497
787.872	0.0163168
787.950	0.0165292
788.029	0.0163536
788.107	0.0164619
788.185	0.0164345
788.263	0.0164278
788.341	0.0164266
788.419	0.0164982
788.497	0.0165668
788.575	0.0164156
788.654	0.0162875
788.732	0.0163547
788.810	0.0162728
788.888	0.0163143
788.966	0.0163976
789.044	0.0162366
789.122	0.0162767
789.200	0.0164317
789.279	0.0163805
789.357	0.0163296
789.435	0.0163666
789.513	0.0164844
789.591	0.0162936
789.669	0.0165180
789.747	0.0165712
789.825	0.0165023
789.904	0.0163801
789.982	0.0164552
790.060	0.0164614
790.138	0.0164590
790.216	0.0164944
790.294	0.0164128
790.372	0.0165443
790.450	0.0165006
790.529	0.0164234
790.607	0.0163585
790.685	0.0162837
790.763	0.0164281
790.841	0.0163551
790.919	0.0162899
790.997	0.0162540
791.075	0.0162801
791.154	0.0163116
791.232	0.0163295
791.310	0.0162966
791.388	0.0162614
791.466	0.0161653
791.544	0.0162282
791.622	0.0163223
791.700	0.0162398
791.779	0.0162894
791.857	0.0163088
791.935	0.0162118
792.013	0.0163074
792.091	0.0164098
792.169	0.0162722
792.247	0.0163468
792.325	0.0163295
792.404	0.0161794
792.482	0.0163113
792.560	0.0162889
792.638	0.0163017
792.716	0.0162949
792.794	0.0163477
792.872	0.0163638
792.950	0.0163163
793.029	0.0164209
793.107	0.0163522
793.185	0.0162559
793.263	0.0162296
793.341	0.0162418
793.419	0.0163557
793.497	0.0164144
793.575	0.0164368
793.654	0.0163995
793.732	0.0163780
793.810	0.0162993
793.888	0.0163940
793.966	0.0164491
794.044	0.0165877
794.122	0.0164470
794.200	0.0163768
794.279	0.0164133
794.357	0.0165157
794.435	0.0165144
794.513	0.0165893
794.591	0.0164553
794.669	0.0165131
794.747	0.0165829
794.825	0.0165670
794.904	0.0165259
794.982	0.0164545
795.060	0.0165791
795.138	0.0167736
795.216	0.0167870
795.294	0.0166345
795.372	0.0166054
795.450	0.0166267
795.529	0.0167126
795.607	0.0167576
795.685	0.0168226
795.763	0.0167577
795.841	0.0166611
795.919	0.0166193
795.997	0.0167182
796.075	0.0165993
796.154	0.0165432
796.232	0.0166115
796.310	0.0165282
796.388	0.0165840
796.466	0.0163989
796.544	0.0166032
796.622	0.0165261
796.700	0.0164012
796.779	0.0165249
796.857	0.0164983
796.935	0.0163004
797.013	0.0162233
797.091	0.0162887
797.169	0.0163956
797.247	0.0162598
797.325	0.0162609
797.404	0.0163225
797.482	0.0162619
797.560	0.0162260
797.638	0.0162744
797.716	0.0163180
797.794	0.0163007
797.872	0.0163145
797.950	0.0163110
798.029	0.0162793
798.107	0.0162176
798.185	0.0162201
798.263	0.0162627
798.341	0.0163610
798.419	0.0162905
798.497	0.0162550
798.575	0.0164032
798.654	0.0163387
798.732	0.0162659
798.810	0.0163977
798.888	0.0163372
798.966	0.0162794
799.044	0.0163412
799.122	0.0164764
799.200	0.0163902
799.279	0.0163573
799.357	0.0165191
799.435	0.0163728
799.513	0.0165382
799.591	0.0163790
799.669	0.0163742
799.747	0.0164030
799.825	0.0163418
799.904	0.0164659
799.982	0.0163609
800.060	0.0165282
800.138	0.0163750
800.216	0.0164464
800.294	0.0163580
800.372	0.0162253
800.450	0.0162402
800.529	0.0162840
800.607	0.0163250
800.685	0.0162396
800.763	0.0162264
800.841	0.0163536
800.919	0.0162196
800.997	0.0163894
801.075	0.0161583
801.154	0.0161184
801.232	0.0162337
801.310	0.0162955
801.388	0.0162712
801.466	0.0163950
801.544	0.0163617
801.622	0.0163717
801.700	0.0163741
801.779	0.0164008
801.857	0.0163361
801.935	0.0164422
802.013	0.0163789
802.091	0.0164990
802.169	0.0164070
802.247	0.0163139
802.325	0.0163815
802.404	0.0164404
802.482	0.0164703
802.560	0.0163787
802.638	0.0163083
802.716	0.0165250
802.794	0.0164532
802.872	0.0162755
802.950	0.0163697
803.029	0.0162840
803.107	0.0164028
803.185	0.0163315
803.263	0.0163550
803.341	0.0163622
803.419	0.0164288
803.497	0.0164715
803.575	0.0164655
803.654	0.0163987
803.732	0.0163517
803.810	0.0163773
803.888	0.0163804
803.966	0.0163022
804.044	0.0164297
804.122	0.0163876
804.200	0.0162408
804.279	0.0162845
804.357	0.0162972
804.435	0.0162312
804.513	0.0164304
804.591	0.0164411
804.669	0.0163304
804.747	0.0162808
804.825	0.0163273
804.904	0.0163155
804.982	0.0162047
805.060	0.0162648
805.138	0.0162716
805.216	0.0162862
805.294	0.0162707
805.372	0.0162522
805.450	0.0162586
805.529	0.0162216
805.607	0.0162598
805.685	0.0162926
805.763	0.0163338
805.841	0.0163301
805.919	0.0164320
805.997	0.0161758
806.075	0.0163356
806.154	0.0164088
806.232	0.0162861
806.310	0.0163135
806.388	0.0162128
806.466	0.0162716
806.544	0.0162576
806.622	0.0164297
806.700	0.0165739
806.779	0.0163036
806.857	0.0165699
806.935	0.0164881
807.013	0.0165188
807.091	0.0163095
807.169	0.0163741
807.247	0.0167044
807.325	0.0165749
807.404	0.0165263
807.482	0.0163768
807.560	0.0165513
807.638	0.0165216
807.716	0.0164746
807.794	0.0164480
807.872	0.0163619
807.950	0.0165323
808.029	0.0164798
808.107	0.0165169
808.185	0.0164872
808.263	0.0164289
808.341	0.0164246
808.419	0.0165604
808.497	0.0164603
808.575	0.0163593
808.654	0.0164084
808.732	0.0163804
808.810	0.0164865
808.888	0.0164175
808.966	0.0161860
809.044	0.0162655
809.122	0.0163007
809.200	0.0162612
809.279	0.0161861
809.357	0.0162564
809.435	0.0161649
809.513	0.0161625
809.591	0.0160994
809.669	0.0162271
809.747	0.0160340
809.825	0.0160286
809.904	0.0160514
809.982	0.0160963
810.060	0.0160781
810.138	0.0161250
810.216	0.0161544
810.294	0.0160603
810.372	0.0163042
810.450	0.0162791
810.529	0.0161082
810.607	0.0162293
810.685	0.0162038
810.763	0.0162754
810.841	0.0164022
810.919	0.0162524
810.997	0.0163370
811.075	0.0163815
811.154	0.0162260
811.232	0.0162141
811.310	0.0162619
811.388	0.0163660
811.466	0.0163372
811.544	0.0164499
811.622	0.0163137
811.700	0.0163079
811.779	0.0163395
811.857	0.0163535
811.935	0.0164105
812.013	0.0162909
812.091	0.0163264
812.169	0.0164003
812.247	0.0162229
812.325	0.0161779
812.404	0.0162907
812.482	0.0161591
812.560	0.0163235
812.638	0.0162891
812.716	0.0162521
812.794	0.0162431
812.872	0.0163649
812.950	0.0161921
813.029	0.0163384
813.107	0.0163467
813.185	0.0163033
813.263	0.0164327
813.341	0.0162054
813.419	0.0162831
813.497	0.0162029
813.575	0.0162935
813.654	0.0164356
813.732	0.0163600
813.810	0.0163687
813.888	0.0163161
813.966	0.0164066
814.044	0.0162860
814.122	0.0163354
814.200	0.0163574
814.279	0.0162881
814.357	0.0163097
814.435	0.0163627
814.513	0.0163444
814.591	0.0163706
814.669	0.0162648
814.747	0.0163476
814.825	0.0164652
814.904	0.0162926
814.982	0.0164246
815.060	0.0164051
815.138	0.0162862
815.216	0.0162823
815.294	0.0163141
815.372	0.0164391
815.450	0.0164069
815.529	0.0163364
815.607	0.0163496
815.685	0.0163085
815.763	0.0163517
815.841	0.0164673
815.919	0.0163844
815.997	0.0163068
816.075	0.0164484
816.154	0.0162115
816.232	0.0163492
816.310	0.0163931
816.388	0.0164588
816.466	0.0164194
816.544	0.0163266
816.622	0.0163311
816.700	0.0164422
816.779	0.0164013
816.857	0.0164032
816.935	0.0162928
817.013	0.0162961
817.091	0.0163989
817.169	0.0164054
817.247	0.0163691
817.325	0.0164220
817.404	0.0163981
817.482	0.0162913
817.560	0.0163214
817.638	0.0162989
817.716	0.0163188
817.794	0.0165816
817.872	0.0163977
817.950	0.0163881
818.029	0.0163522
818.107	0.0162785
818.185	0.0163929
818.263	0.0164955
818.341	0.0162824
818.419	0.0162825
818.497	0.0164562
818.575	0.0164529
818.654	0.0163547
818.732	0.0163670
818.810	0.0164116
818.888	0.0164466
818.966	0.0163473
819.044	0.0163982
819.122	0.0163944
819.200	0.0164389
819.279	0.0163920
819.357	0.0164465
819.435	0.0165556
819.513	0.0165305
819.591	0.0163680
819.669	0.0165479
819.747	0.0165810
819.825	0.0164371
819.904	0.0163937
819.982	0.0163609
820.060	0.0165002
820.138	0.0164758
820.216	0.0162966
820.294	0.0163650
820.372	0.0164224
820.450	0.0164627
820.529	0.0163161
820.607	0.0163050
820.685	0.0163767
820.763	0.0163496
820.841	0.0163474
820.919	0.0163999
820.997	0.0163820
821.075	0.0163145
821.154	0.0163053
821.232	0.0164296
821.310	0.0162713
821.388	0.0163125
821.466	0.0163696
821.544	0.0163811
821.622	0.0163657
821.700	0.0162550
821.779	0.0164289
821.857	0.0163155
821.935	0.0162849
822.013	0.0162861
822.091	0.0163246
822.169	0.0163097
822.247	0.0162974
822.325	0.0162902
822.404	0.0162115
822.482	0.0162839
822.560	0.0163914
822.638	0.0162429
822.716	0.0162015
822.794	0.0162589
822.872	0.0163855
822.950	0.0162772
823.029	0.0163168
823.107	0.0164008
823.185	0.0163131
823.263	0.0164590
823.341	0.0163815
823.419	0.0164207
823.497	0.0163744
823.575	0.0163501
823.654	0.0163945
823.732	0.0162713
823.810	0.0164520
823.888	0.0165164
823.966	0.0162817
824.044	0.0164629
824.122	0.0164916
824.200	0.0166128
824.279	0.0165557
824.357	0.0165142
824.435	0.0165707
824.513	0.0164975
824.591	0.0166072
824.669	0.0167095
824.747	0.0165735
824.825	0.0166254
824.904	0.0165856
824.982	0.0166930
825.060	0.0165758
825.138	0.0166669
825.216	0.0164384
825.294	0.0164376
825.372	0.0164084
825.450	0.0162484
825.529	0.0162318
825.607	0.0163919
825.685	0.0163189
825.763	0.0162236
825.841	0.0162993
825.919	0.0161639
825.997	0.0162618
826.075	0.0163288
826.154	0.0162804
826.232	0.0160717
826.310	0.0162828
826.388	0.0163472
826.466	0.0162746
826.544	0.0162016
826.622	0.0161855
826.700	0.0163094
826.779	0.0162641
826.857	0.0162754
826.935	0.0162554
827.013	0.0163684
827.091	0.0164065
827.169	0.0162810
827.247	0.0161735
827.325	0.0162085
827.404	0.0162521
827.482	0.0163473
827.560	0.0163277
827.638	0.0163438
827.716	0.0163226
827.794	0.0163652
827.872	0.0162243
827.950	0.0162566
828.029	0.0164567
828.107	0.0162668
828.185	0.0163291
828.263	0.0162833
828.341	0.0163161
828.419	0.0162206
828.497	0.0162701
828.575	0.0161409
828.654	0.0162279
828.732	0.0163446
828.810	0.0162172
828.888	0.0163300
828.966	0.0162298
829.044	0.0163181
829.122	0.0162597
829.200	0.0160973
829.279	0.0162830
829.357	0.0161219
829.435	0.0162092
829.513	0.0162030
829.591	0.0162518
829.669	0.0160861
829.747	0.0161073
829.825	0.0161779
829.904	0.0161126
829.982	0.0161335
830.060	0.0160899
830.138	0.0161774
830.216	0.0161967
830.294	0.0161610
830.372	0.0162310
830.450	0.0160556
830.529	0.0162139
830.607	0.0162595
830.685	0.0163683
830.763	0.0163752
830.841	0.0163717
830.919	0.0163591
830.997	0.0163502
831.075	0.0164104
831.154	0.0164087
831.232	0.0165269
831.310	0.0166021
831.388	0.0165060
831.466	0.0164053
831.544	0.0164071
831.622	0.0165704
831.700	0.0164437
831.779	0.0165873
831.857	0.0165066
831.935	0.0164270
832.013	0.0165076
832.091	0.0163968
832.169	0.0164042
832.247	0.0164062
832.325	0.0163293
832.404	0.0163998
832.482	0.0163452
832.560	0.0162003
832.638	0.0162085
832.716	0.0161673
832.794	0.0163486
832.872	0.0161164
832.950	0.0160808
833.029	0.0162032
833.107	0.0161638
833.185	0.0161544
833.263	0.0162348
833.341	0.0161945
833.419	0.0162936
833.497	0.0161739
833.575	0.0161318
833.654	0.0162134
833.732	0.0162660
833.810	0.0163375
833.888	0.0162614
833.966	0.0162413
834.044	0.0164661
834.122	0.0164108
834.200	0.0164970
834.279	0.0163879
834.357	0.0163577
834.435	0.0164825
834.513	0.0164396
834.591	0.0165138
834.669	0.0165446
834.747	0.0163217
834.825	0.0162982
834.904	0.0163932
834.982	0.0163840
835.060	0.0163551
835.138	0.0163047
835.216	0.0164428
835.294	0.0163956
835.372	0.0162427
835.450	0.0163367
835.529	0.0164901
835.607	0.0164230
835.685	0.0162814
835.763	0.0162688
835.841	0.0163051
835.919	0.0164572
835.997	0.0163688
836.075	0.0162906
836.154	0.0163628
836.232	0.0163505
836.310	0.0163544
836.388	0.0163544
836.466	0.0164291
836.544	0.0164577
836.622	0.0164608
836.700	0.0164023
836.779	0.0164839
836.857	0.0164513
836.935	0.0164756
837.013	0.0163947
837.091	0.0163797
837.169	0.0163452
837.247	0.0163565
837.325	0.0163610
837.404	0.0165137
837.482	0.0163222
837.560	0.0163277
837.638	0.0162467
837.716	0.0163492
837.794	0.0161844
837.872	0.0160817
837.950	0.0162892
838.029	0.0161761
838.107	0.0160741
838.185	0.0159226
838.263	0.0161102
838.341	0.0161179
838.419	0.0159688
838.497	0.0160603
838.575	0.0161044
838.654	0.0160731
838.732	0.0160915
838.810	0.0159478
838.888	0.0160428
838.966	0.0160416
839.044	0.0162144
839.122	0.0159992
839.200	0.0159296
839.279	0.0159895
839.357	0.0161197
839.435	0.0160560
839.513	0.0160488
839.591	0.0161578
839.669	0.0162676
839.747	0.0162825
839.825	0.0162930
839.904	0.0163019
839.982	0.0162075
840.060	0.0163565
840.138	0.0163139
840.216	0.0163642
840.294	0.0163640
840.372	0.0162466
840.450	0.0162654
840.529	0.0163107
840.607	0.0163391
840.685	0.0163061
840.763	0.0163034
840.841	0.0164374
840.919	0.0162736
840.997	0.0162469
841.075	0.0161752
841.154	0.0161375
841.232	0.0162669
841.310	0.0162696
841.388	0.0161382
841.466	0.0161086
841.544	0.0161091
841.622	0.0162399
841.700	0.0162519
841.779	0.0160552
841.857	0.0160361
841.935	0.0161257
842.013	0.0160905
842.091	0.0161135
842.169	0.0161689
842.247	0.0161956
842.325	0.0161234
842.404	0.0162220
842.482	0.0161780
842.560	0.0162015
842.638	0.0161201
842.716	0.0161505
842.794	0.0160596
842.872	0.0162683
842.950	0.0163008
843.029	0.0162028
843.107	0.0161826
843.185	0.0161420
843.263	0.0161887
843.341	0.0162938
843.419	0.0162360
843.497	0.0163631
843.575	0.0160928
843.654	0.0162060
843.732	0.0162833
843.810	0.0162486
843.888	0.0162364
843.966	0.0162533
844.044	0.0162845
844.122	0.0163764
844.200	0.0162083
844.279	0.0162951
844.357	0.0163404
844.435	0.0164190
844.513	0.0163988
844.591	0.0165324
844.669	0.0165675
844.747	0.0164529
844.825	0.0166370
844.904	0.0164803
844.982	0.0164445
845.060	0.0164503
845.138	0.0165709
845.216	0.0165166
845.294	0.0165996
845.372	0.0164924
845.450	0.0165189
845.529	0.0164717
845.607	0.0165138
845.685	0.0164799
845.763	0.0163242
845.841	0.0162629
845.919	0.0162357
845.997	0.0163692
846.075	0.0163242
846.154	0.0159980
846.232	0.0161487
846.310	0.0160651
846.388	0.0159515
846.466	0.0161449
846.544	0.0160316
846.622	0.0159691
846.700	0.0159880
846.779	0.0160184
846.857	0.0158642
846.935	0.0159774
847.013	0.0160615
847.091	0.0160526
847.169	0.0159327
847.247	0.0159911
847.325	0.0161031
847.404	0.0161669
847.482	0.0161240
847.560	0.0161273
847.638	0.0161668
847.716	0.0163445
847.794	0.0164265
847.872	0.0163021
847.950	0.0162777
848.029	0.0164122
848.107	0.0165215
848.185	0.0162744
848.263	0.0164297
848.341	0.0163963
848.419	0.0163467
848.497	0.0164410
848.575	0.0164330
848.654	0.0164062
848.732	0.0164661
848.810	0.0164198
848.888	0.0163270
848.966	0.0165350
849.044	0.0163895
849.122	0.0164475
849.200	0.0164163
849.279	0.0164119
849.357	0.0162584
849.435	0.0163541
849.513	0.0162584
849.591	0.0161935
849.669	0.0163473
849.747	0.0163352
849.825	0.0162484
849.904	0.0162021
849.982	0.0162260
850.060	0.0161630
850.138	0.0162655
850.216	0.0162879
850.294	0.0161845
850.372	0.0160647
850.450	0.0162061
850.529	0.0162344
850.607	0.0162470
850.685	0.0162048
850.763	0.0162344
850.841	0.0162698
850.919	0.0162129
850.997	0.0162521
851.075	0.0162136
851.154	0.0161546
851.232	0.0161385
851.310	0.0162433
851.388	0.0162578
851.466	0.0161096
851.544	0.0161633
851.622	0.0161588
851.700	0.0162463
851.779	0.0162511
851.857	0.0160703
851.935	0.0162376
852.013	0.0162836
852.091	0.0162492
852.169	0.0162122
852.247	0.0163042
852.325	0.0163505
852.404	0.0163001
852.482	0.0162075
852.560	0.0164513
852.638	0.0163992
852.716	0.0163144
852.794	0.0163646
852.872	0.0166010
852.950	0.0163719
853.029	0.0163838
853.107	0.0164292
853.185	0.0163390
853.263	0.0163036
853.341	0.0164413
853.419	0.0163577
853.497	0.0165053
853.575	0.0164474
853.654	0.0164759
853.732	0.0163247
853.810	0.0163796
853.888	0.0163892
853.966	0.0163097
854.044	0.0162917
854.122	0.0163400
854.200	0.0164249
854.279	0.0162897
854.357	0.0162421
854.435	0.0161878
854.513	0.0162206
854.591	0.0161389
854.669	0.0162756
854.747	0.0163605
854.825	0.0162728
854.904	0.0162883
854.982	0.0164075
855.060	0.0163230
855.138	0.0162256
855.216	0.0163576
855.294	0.0162908
855.372	0.0163604
855.450	0.0161806
855.529	0.0162952
855.607	0.0161762
855.685	0.0162065
855.763	0.0163255
855.841	0.0162573
855.919	0.0162212
855.997	0.0162780
856.075	0.0162334
856.154	0.0162772
856.232	0.0162595
856.310	0.0162713
856.388	0.0162773
856.466	0.0162463
856.544	0.0163908
856.622	0.0161539
856.700	0.0163901
856.779	0.0163426
856.857	0.0163136
856.935	0.0163622
857.013	0.0164439
857.091	0.0163626
857.169	0.0163777
857.247	0.0164414
857.325	0.0163377
857.404	0.0164005
857.482	0.0163355
857.560	0.0163857
857.638	0.0163006
857.716	0.0163142
857.794	0.0163906
857.872	0.0163010
857.950	0.0163097
858.029	0.0163525
858.107	0.0163494
858.185	0.0162582
858.263	0.0163657
858.341	0.0162805
858.419	0.0162730
858.497	0.0163874
858.575	0.0163448
858.654	0.0163564
858.732	0.0161344
858.810	0.0161916
858.888	0.0163631
858.966	0.0164448
859.044	0.0163957
859.122	0.0163328
859.200	0.0162444
859.279	0.0163893
859.357	0.0164243
859.435	0.0163905
859.513	0.0162483
859.591	0.0164355
859.669	0.0163750
859.747	0.0164644
859.825	0.0163889
859.904	0.0164935
859.982	0.0164389
860.060	0.0164611
860.138	0.0164337
860.216	0.0165013
860.294	0.0164295
860.372	0.0163216
860.450	0.0163774
860.529	0.0162968
860.607	0.0164541
860.685	0.0163682
860.763	0.0163120
860.841	0.0163291
860.919	0.0162974
860.997	0.0163166
861.075	0.0163594
861.154	0.0161248
861.232	0.0161801
861.310	0.0161839
861.388	0.0161693
861.466	0.0161070
861.544	0.0161650
861.622	0.0159977
861.700	0.0160719
861.779	0.0160771
861.857	0.0160016
861.935	0.0161049
862.013	0.0160190
862.091	0.0159309
862.169	0.0160715
862.247	0.0161426
862.325	0.0159644
862.404	0.0160588
862.482	0.0162293
862.560	0.0161984
862.638	0.0160828
862.716	0.0162035
862.794	0.0161427
862.872	0.0161010
862.950	0.0161256
863.029	0.0162061
863.107	0.0163661
863.185	0.0162181
863.263	0.0162917
863.341	0.0163357
863.419	0.0166100
863.497	0.0164404
863.575	0.0163770
863.654	0.0164513
863.732	0.0164304
863.810	0.0165434
863.888	0.0164534
863.966	0.0165096
864.044	0.0165785
864.122	0.0165758
864.200	0.0165556
864.279	0.0165118
864.357	0.0164560
864.435	0.0165104
864.513	0.0163651
864.591	0.0165811
864.669	0.0164634
864.747	0.0162930
864.825	0.0162969
864.904	0.0164037
864.982	0.0164378
865.060	0.0162884
865.138	0.0163316
865.216	0.0163757
865.294	0.0161922
865.372	0.0163612
865.450	0.0162896
865.529	0.0161715
865.607	0.0161438
865.685	0.0162659
865.763	0.0162564
865.841	0.0161919
865.919	0.0162182
865.997	0.0161727
866.075	0.0162270
866.154	0.0162957
866.232	0.0162516
866.310	0.0160844
866.388	0.0163361
866.466	0.0162569
866.544	0.0163213
866.622	0.0161794
866.700	0.0162633
866.779	0.0163396
866.857	0.0163651
866.935	0.0161768
867.013	0.0164565
867.091	0.0163761
867.169	0.0162238
867.247	0.0163028
867.325	0.0163277
867.404	0.0164340
867.482	0.0165511
867.560	0.0162673
867.638	0.0163096
867.716	0.0162907
867.794	0.0162162
867.872	0.0163699
867.950	0.0163942
868.029	0.0163465
868.107	0.0163626
868.185	0.0162051
868.263	0.0162849
868.341	0.0162083
868.419	0.0162297
868.497	0.0161318
868.575	0.0162458
868.654	0.0161494
868.732	0.0162242
868.810	0.0164170
868.888	0.0160782
868.966	0.0161716
869.044	0.0161669
869.122	0.0162568
869.200	0.0162753
869.279	0.0162313
869.357	0.0161108
869.435	0.0161325
869.513	0.0162054
869.591	0.0160037
869.669	0.0161687
869.747	0.0161937
869.825	0.0161477
869.904	0.0161563
869.982	0.0162990
870.060	0.0161190
870.138	0.0160224
870.216	0.0161931
870.294	0.0162303
870.372	0.0162168
870.450	0.0163087
870.529	0.0160755
870.607	0.0161735
870.685	0.0163107
870.763	0.0161561
870.841	0.0162309
870.919	0.0160988
870.997	0.0161784
871.075	0.0161923
871.154	0.0161472
871.232	0.0162314
871.310	0.0161485
871.388	0.0162019
871.466	0.0162935
871.544	0.0161217
871.622	0.0161774
871.700	0.0162387
871.779	0.0161775
871.857	0.0163025
871.935	0.0163673
872.013	0.0162437
872.091	0.0163213
872.169	0.0162592
872.247	0.0164286
872.325	0.0164042
872.404	0.0163012
872.482	0.0165484
872.560	0.0163592
872.638	0.0164969
872.716	0.0165236
872.794	0.0164180
872.872	0.0163947
872.950	0.0163748
873.029	0.0164168
873.107	0.0163106
873.185	0.0164288
873.263	0.0163975
873.341	0.0163894
873.419	0.0163627
873.497	0.0164426
873.575	0.0163350
873.654	0.0164054
873.732	0.0163777
873.810	0.0163094
873.888	0.0162436
873.966	0.0163554
874.044	0.0162829
874.122	0.0162506
874.200	0.0164406
874.279	0.0162182
874.357	0.0163329
874.435	0.0163821
874.513	0.0163017
874.591	0.0162751
874.669	0.0164411
874.747	0.0163355
874.825	0.0163581
874.904	0.0163478
874.982	0.0163832
875.060	0.0163812
875.138	0.0162469
875.216	0.0162762
875.294	0.0163316
875.372	0.0163643
875.450	0.0162286
875.529	0.0163110
875.607	0.0163767
875.685	0.0163287
875.763	0.0164378
875.841	0.0163204
875.919	0.0162869
875.997	0.0163934
876.075	0.0162569
876.154	0.0162639
876.232	0.0162959
876.310	0.0163306
876.388	0.0162019
876.466	0.0163187
876.544	0.0162981
876.622	0.0164281
876.700	0.0163107
876.779	0.0163055
876.857	0.0162813
876.935	0.0163239
877.013	0.0163166
877.091	0.0164426
877.169	0.0165253
877.247	0.0164886
877.325	0.0163287
877.404	0.0163744
877.482	0.0165892
877.560	0.0166370
877.638	0.0164634
877.716	0.0164775
877.794	0.0165526
877.872	0.0165992
877.950	0.0166042
878.029	0.0165320
878.107	0.0164866
878.185	0.0166093
878.263	0.0165572
878.341	0.0164812
878.419	0.0165484
878.497	0.0165456
878.575	0.0165056
878.654	0.0163178
878.732	0.0164883
878.810	0.0164234
878.888	0.0167072
878.966	0.0167159
879.044	0.0164808
879.122	0.0164964
879.200	0.0165945
879.279	0.0165914
879.357	0.0166953
879.435	0.0165943
879.513	0.0165952
879.591	0.0166078
879.669	0.0166060
879.747	0.0165294
879.825	0.0166206
879.904	0.0165700
879.982	0.0165282
880.060	0.0165134
880.138	0.0164529
880.216	0.0164764
880.294	0.0164654
880.372	0.0164951
880.450	0.0164568
880.529	0.0164609
880.607	0.0164295
880.685	0.0163219
880.763	0.0163339
880.841	0.0163509
880.919	0.0162089
880.997	0.0162614
881.075	0.0162074
881.154	0.0162981
881.232	0.0161773
881.310	0.0162138
881.388	0.0162648
881.466	0.0162487
881.544	0.0162783
881.622	0.0162714
881.700	0.0162729
881.779	0.0162929
881.857	0.0161768
881.935	0.0162421
882.013	0.0161194
882.091	0.0161675
882.169	0.0162143
882.247	0.0161613
882.325	0.0161954
882.404	0.0161811
882.482	0.0162450
882.560	0.0162306
882.638	0.0162395
882.716	0.0161645
882.794	0.0162331
882.872	0.0161767
882.950	0.0163129
883.029	0.0162054
883.107	0.0162959
883.185	0.0161796
883.263	0.0162700
883.341	0.0163367
883.419	0.0163937
883.497	0.0162921
883.575	0.0163400
883.654	0.0162521
883.732	0.0162489
883.810	0.0162757
883.888	0.0163660
883.966	0.0163039
884.044	0.0162318
884.122	0.0163013
884.200	0.0163956
884.279	0.0163668
884.357	0.0163561
884.435	0.0162991
884.513	0.0163854
884.591	0.0164442
884.669	0.0164534
884.747	0.0163344
884.825	0.0162666
884.904	0.0162606
884.982	0.0163416
885.060	0.0163421
885.138	0.0164143
885.216	0.0163977
885.294	0.0163525
885.372	0.0163380
885.450	0.0163685
885.529	0.0162597
885.607	0.0163366
885.685	0.0164309
885.763	0.0164948
885.841	0.0162998
885.919	0.0164432
885.997	0.0165105
886.075	0.0162852
886.154	0.0163113
886.232	0.0162909
886.310	0.0164843
886.388	0.0163635
886.466	0.0163645
886.544	0.0163684
886.622	0.0164046
886.700	0.0163934
886.779	0.0164917
886.857	0.0163960
886.935	0.0164037
887.013	0.0163374
887.091	0.0163621
887.169	0.0163417
887.247	0.0163246
887.325	0.0163045
887.404	0.0164044
887.482	0.0164340
887.560	0.0163811
887.638	0.0164217
887.716	0.0163827
887.794	0.0163009
887.872	0.0164215
887.950	0.0165394
888.029	0.0162282
888.107	0.0163303
888.185	0.0161921
888.263	0.0162537
888.341	0.0161869
888.419	0.0162226
888.497	0.0162480
888.575	0.0161421
888.654	0.0161626
888.732	0.0160966
888.810	0.0160940
888.888	0.0161608
888.966	0.0161759
889.044	0.0159875
889.122	0.0160017
889.200	0.0160483
889.279	0.0160941
889.357	0.0162080
889.435	0.0162940
889.513	0.0161127
889.591	0.0163580
889.669	0.0163317
889.747	0.0162493
889.825	0.0163683
889.904	0.0163834
889.982	0.0164477
890.060	0.0164461
890.138	0.0164505
890.216	0.0163417
890.294	0.0164782
890.372	0.0164758
890.450	0.0165073
890.529	0.0166060
890.607	0.0165247
890.685	0.0166058
890.763	0.0165556
890.841	0.0165020
890.919	0.0165215
890.997	0.0166104
891.075	0.0165207
891.154	0.0164413
891.232	0.0164986
891.310	0.0163416
891.388	0.0164510
891.466	0.0163039
891.544	0.0164528
891.622	0.0164027
891.700	0.0164568
891.779	0.0163251
891.857	0.0164285
891.935	0.0163119
892.013	0.0162680
892.091	0.0163853
892.169	0.0163469
892.247	0.0164558
892.325	0.0163834
892.404	0.0164353
892.482	0.0164799
892.560	0.0164748
892.638	0.0164414
892.716	0.0165939
892.794	0.0165739
892.872	0.0164227
892.950	0.0164944
893.029	0.0164486
893.107	0.0165854
893.185	0.0165514
893.263	0.0166977
893.341	0.0166901
893.419	0.0166261
893.497	0.0164685
893.575	0.0164735
893.654	0.0166780
893.732	0.0164393
893.810	0.0164423
893.888	0.0165146
893.966	0.0165621
894.044	0.0166073
894.122	0.0163737
894.200	0.0163708
894.279	0.0165598
894.357	0.0164515
894.435	0.0164066
894.513	0.0164508
894.591	0.0163558
894.669	0.0163390
894.747	0.0163744
894.825	0.0163181
894.904	0.0163492
894.982	0.0164378
895.060	0.0164500
895.138	0.0163741
895.216	0.0164154
895.294	0.0165084
895.372	0.0163621
895.450	0.0165345
895.529	0.0164388
895.607	0.0164416
895.685	0.0165221
895.763	0.0166221
895.841	0.0166267
895.919	0.0163911
895.997	0.0164745
896.075	0.0164644
896.154	0.0165638
896.232	0.0165483
896.310	0.0164689
896.388	0.0163583
896.466	0.0164767
896.544	0.0164571
896.622	0.0163505
896.700	0.0163702
896.779	0.0163313
896.857	0.0161403
896.935	0.0163499
897.013	0.0163286
897.091	0.0163296
897.169	0.0162154
897.247	0.0161488
897.325	0.0162851
897.404	0.0163262
897.482	0.0164056
897.560	0.0162012
897.638	0.0161600
897.716	0.0162414
897.794	0.0161847
897.872	0.0162651
897.950	0.0162699
898.029	0.0162711
898.107	0.0164933
898.185	0.0163761
898.263	0.0163375
898.341	0.0163129
898.419	0.0164112
898.497	0.0163297
898.575	0.0164616
898.654	0.0163043
898.732	0.0161861
898.810	0.0163438
898.888	0.0163583
898.966	0.0162624
899.044	0.0162963
899.122	0.0162550
899.200	0.0161887
899.279	0.0162315
899.357	0.0161476
899.435	0.0160569
899.513	0.0161490
899.591	0.0161992
899.669	0.0161230
899.747	0.0160706
899.825	0.0160580
899.904	0.0161034
899.982	0.0161469
900.060	0.0160821
900.138	0.0161198
900.216	0.0160748
900.294	0.0160580
900.372	0.0160450
900.450	0.0160275
900.529	0.0161726
900.607	0.0160701
900.685	0.0160756
900.763	0.0161401
900.841	0.0161180
900.919	0.0161306
900.997	0.0162077
901.075	0.0162236
901.154	0.0160906
901.232	0.0162180
901.310	0.0162510
901.388	0.0162119
901.466	0.0162068
901.544	0.0162430
901.622	0.0162772
901.700	0.0162447
901.779	0.0163056
901.857	0.0163132
901.935	0.0162894
902.013	0.0162616
902.091	0.0163654
902.169	0.0163404
902.247	0.0164076
902.325	0.0163862
902.404	0.0162526
902.482	0.0163356
902.560	0.0163770
902.638	0.0162724
902.716	0.0164375
902.794	0.0163531
902.872	0.0163329
902.950	0.0164277
903.029	0.0164073
903.107	0.0164655
903.185	0.0164311
903.263	0.0165514
903.341	0.0165230
903.419	0.0166345
903.497	0.0163898
903.575	0.0165562
903.654	0.0165077
903.732	0.0165374
903.810	0.0164865
903.888	0.0163506
903.966	0.0165451
904.044	0.0164950
904.122	0.0163993
904.200	0.0164265
904.279	0.0163019
904.357	0.0162780
904.435	0.0162857
904.513	0.0161360
904.591	0.0162373
904.669	0.0162214
904.747	0.0162907
904.825	0.0161458
904.904	0.0161813
904.982	0.0162750
905.060	0.0161596
905.138	0.0162492
905.216	0.0162742
905.294	0.0163287
905.372	0.0163114
905.450	0.0163440
905.529	0.0161928
905.607	0.0163213
905.685	0.0163245
905.763	0.0164054
905.841	0.0162339
905.919	0.0164893
905.997	0.0164018
906.075	0.0164229
906.154	0.0165369
906.232	0.0164819
906.310	0.0165620
906.388	0.0164700
906.466	0.0165484
906.544	0.0164513
906.622	0.0166949
906.700	0.0166977
906.779	0.0165772
906.857	0.0166576
906.935	0.0165940
907.013	0.0165516
907.091	0.0166119
907.169	0.0165737
907.247	0.0165219
907.325	0.0164161
907.404	0.0163692
907.482	0.0165153
907.560	0.0164578
907.638	0.0164992
907.716	0.0163634
907.794	0.0164336
907.872	0.0165411
907.950	0.0164635
908.029	0.0164342
908.107	0.0164673
908.185	0.0163996
908.263	0.0163533
908.341	0.0164923
908.419	0.0164590
908.497	0.0162804
908.575	0.0163919
908.654	0.0164212
908.732	0.0164433
908.810	0.0165079
908.888	0.0164533
908.966	0.0165681
909.044	0.0163576
909.122	0.0164337
909.200	0.0164801
909.279	0.0165170
909.357	0.0165208
909.435	0.0164330
909.513	0.0164854
909.591	0.0163583
909.669	0.0163734
909.747	0.0163652
909.825	0.0162984
909.904	0.0163894
909.982	0.0164397
910.060	0.0162695
910.138	0.0162280
910.216	0.0162366
910.294	0.0163205
910.372	0.0163126
910.450	0.0161605
910.529	0.0160877
910.607	0.0161632
910.685	0.0162373
910.763	0.0162422
910.841	0.0161937
910.919	0.0161379
910.997	0.0161288
911.075	0.0161927
911.154	0.0160538
911.232	0.0161071
911.310	0.0160624
911.388	0.0161182
911.466	0.0162703
911.544	0.0162775
911.622	0.0161253
911.700	0.0160621
911.779	0.0162440
911.857	0.0163328
911.935	0.0162511
912.013	0.0161506
912.091	0.0162707
912.169	0.0163926
912.247	0.0163551
912.325	0.0163667
912.404	0.0162997
912.482	0.0162601
912.560	0.0163931
912.638	0.0164658
912.716	0.0164336
912.794	0.0162431
912.872	0.0162881
912.950	0.0162106
913.029	0.0163758
913.107	0.0164747
913.185	0.0163906
913.263	0.0164304
913.341	0.0164255
913.419	0.0165270
913.497	0.0163127
913.575	0.0164981
913.654	0.0164299
913.732	0.0164673
913.810	0.0165161
913.888	0.0165204
913.966	0.0164551
914.044	0.0165071
914.122	0.0164233
914.200	0.0165375
914.279	0.0165023
914.357	0.0163953
914.435	0.0164091
914.513	0.0164667
914.591	0.0163174
914.669	0.0165529
914.747	0.0164976
914.825	0.0165411
914.904	0.0164668
914.982	0.0162650
915.060	0.0163428
915.138	0.0162668
915.216	0.0163544
915.294	0.0161964
915.372	0.0162634
915.450	0.0164220
915.529	0.0162468
915.607	0.0164512
915.685	0.0163760
915.763	0.0163352
915.841	0.0163001
915.919	0.0161285
915.997	0.0163676
916.075	0.0162834
916.154	0.0162764
916.232	0.0161086
916.310	0.0162058
916.388	0.0163164
916.466	0.0162415
916.544	0.0162327
916.622	0.0163563
916.700	0.0162431
916.779	0.0162521
916.857	0.0163052
916.935	0.0162112
917.013	0.0162377
917.091	0.0162299
917.169	0.0162767
917.247	0.0162063
917.325	0.0163105
917.404	0.0162293
917.482	0.0163702
917.560	0.0163277
917.638	0.0162688
917.716	0.0162383
917.794	0.0161653
917.872	0.0161855
917.950	0.0161259
918.029	0.0161108
918.107	0.0162072
918.185	0.0161734
918.263	0.0161307
918.341	0.0163883
918.419	0.0162720
918.497	0.0163004
918.575	0.0163402
918.654	0.0163197
918.732	0.0163294
918.810	0.0164224
918.888	0.0163155
918.966	0.0164346
919.044	0.0164507
919.122	0.0162360
919.200	0.0162909
919.279	0.0164055
919.357	0.0164023
919.435	0.0163908
919.513	0.0165076
919.591	0.0164484
919.669	0.0163436
919.747	0.0162776
919.825	0.0165030
919.904	0.0163504
