05/24/2022	20:43:41	Ver.	4.1	UNKNOWN
Optical Delay	599.981738	Delta X		0.078125	Sweeps	1	Scan Rate	0/0
Coordinates	Axis 1	NaN	Axis 2	NaN	Axis 3	NaN	Axis 4	NaN	Axis 5	NaN	Axis 6	0.000000
TX Power	0.000000	RX Power	0.000000

599.982	0.0155058
600.060	0.0155024
600.138	0.0154566
600.216	0.0154051
600.294	0.0155199
600.372	0.0154188
600.450	0.0154301
600.529	0.0152830
600.607	0.0155318
600.685	0.0154924
600.763	0.0154173
600.841	0.0153981
600.919	0.0153404
600.997	0.0153893
601.075	0.0153716
601.154	0.0154379
601.232	0.0154292
601.310	0.0154986
601.388	0.0153291
601.466	0.0155190
601.544	0.0155780
601.622	0.0155346
601.700	0.0154837
601.779	0.0154155
601.857	0.0154276
601.935	0.0155316
602.013	0.0154141
602.091	0.0154093
602.169	0.0154202
602.247	0.0154194
602.325	0.0155436
602.404	0.0154047
602.482	0.0153034
602.560	0.0154677
602.638	0.0153515
602.716	0.0154386
602.794	0.0154704
602.872	0.0153030
602.950	0.0155263
603.029	0.0154569
603.107	0.0153812
603.185	0.0154388
603.263	0.0153673
603.341	0.0153432
603.419	0.0153300
603.497	0.0153620
603.575	0.0154479
603.654	0.0154222
603.732	0.0153152
603.810	0.0153425
603.888	0.0153846
603.966	0.0152832
604.044	0.0153829
604.122	0.0154933
604.200	0.0154726
604.279	0.0153713
604.357	0.0153764
604.435	0.0154682
604.513	0.0153018
604.591	0.0153944
604.669	0.0154550
604.747	0.0152141
604.825	0.0153871
604.904	0.0154781
604.982	0.0154806
605.060	0.0154243
605.138	0.0154530
605.216	0.0154540
605.294	0.0154372
605.372	0.0154445
605.450	0.0153856
605.529	0.0156150
605.607	0.0155117
605.685	0.0155280
605.763	0.0153870
605.841	0.0155368
605.919	0.0155470
605.997	0.0155390
606.075	0.0155349
606.154	0.0155107
606.232	0.0155593
606.310	0.0155734
606.388	0.0154784
606.466	0.0155958
606.544	0.0154245
606.622	0.0156097
606.700	0.0154761
606.779	0.0154951
606.857	0.0152464
606.935	0.0154161
607.013	0.0154148
607.091	0.0153920
607.169	0.0154317
607.247	0.0154088
607.325	0.0153868
607.404	0.0152719
607.482	0.0153156
607.560	0.0154716
607.638	0.0153585
607.716	0.0154272
607.794	0.0153750
607.872	0.0153733
607.950	0.0153361
608.029	0.0153891
608.107	0.0154575
608.185	0.0154358
608.263	0.0154369
608.341	0.0155112
608.419	0.0155652
608.497	0.0155739
608.575	0.0155265
608.654	0.0155182
608.732	0.0154805
608.810	0.0155698
608.888	0.0154371
608.966	0.0155003
609.044	0.0154791
609.122	0.0154823
609.200	0.0154660
609.279	0.0153389
609.357	0.0153119
609.435	0.0154048
609.513	0.0154309
609.591	0.0154201
609.669	0.0152757
609.747	0.0154244
609.825	0.0153198
609.904	0.0153529
609.982	0.0154208
610.060	0.0154513
610.138	0.0153354
610.216	0.0153661
610.294	0.0153806
610.372	0.0154131
610.450	0.0153979
610.529	0.0154205
610.607	0.0152800
610.685	0.0152989
610.763	0.0153906
610.841	0.0154146
610.919	0.0154417
610.997	0.0154166
611.075	0.0153009
611.154	0.0152639
611.232	0.0151526
611.310	0.0152945
611.388	0.0152717
611.466	0.0154271
611.544	0.0152889
611.622	0.0151950
611.700	0.0153372
611.779	0.0154643
611.857	0.0154063
611.935	0.0154747
612.013	0.0155498
612.091	0.0153792
612.169	0.0154949
612.247	0.0154784
612.325	0.0152950
612.404	0.0154597
612.482	0.0153291
612.560	0.0153195
612.638	0.0154064
612.716	0.0153708
612.794	0.0152885
612.872	0.0152727
612.950	0.0153558
613.029	0.0152862
613.107	0.0152363
613.185	0.0154137
613.263	0.0152396
613.341	0.0154172
613.419	0.0153897
613.497	0.0153194
613.575	0.0154413
613.654	0.0153840
613.732	0.0155518
613.810	0.0154149
613.888	0.0153600
613.966	0.0153303
614.044	0.0153279
614.122	0.0154491
614.200	0.0154607
614.279	0.0155371
614.357	0.0154234
614.435	0.0153382
614.513	0.0154865
614.591	0.0153458
614.669	0.0152401
614.747	0.0152634
614.825	0.0152170
614.904	0.0152744
614.982	0.0152483
615.060	0.0152806
615.138	0.0152919
615.216	0.0152592
615.294	0.0151311
615.372	0.0151818
615.450	0.0152197
615.529	0.0154082
615.607	0.0153290
615.685	0.0153432
615.763	0.0152387
615.841	0.0154104
615.919	0.0154532
615.997	0.0153297
616.075	0.0154078
616.154	0.0154056
616.232	0.0152292
616.310	0.0154893
616.388	0.0154993
616.466	0.0155753
616.544	0.0154581
616.622	0.0154086
616.700	0.0154407
616.779	0.0155193
616.857	0.0154585
616.935	0.0153206
617.013	0.0153815
617.091	0.0154282
617.169	0.0153565
617.247	0.0153684
617.325	0.0155292
617.404	0.0154005
617.482	0.0153085
617.560	0.0154622
617.638	0.0154327
617.716	0.0155154
617.794	0.0154763
617.872	0.0153616
617.950	0.0153647
618.029	0.0153871
618.107	0.0153693
618.185	0.0154703
618.263	0.0154550
618.341	0.0153240
618.419	0.0152490
618.497	0.0153389
618.575	0.0154160
618.654	0.0154020
618.732	0.0155058
618.810	0.0154861
618.888	0.0156137
618.966	0.0156421
619.044	0.0156579
619.122	0.0157288
619.200	0.0157146
619.279	0.0157346
619.357	0.0157106
619.435	0.0157964
619.513	0.0157394
619.591	0.0157283
619.669	0.0157710
619.747	0.0156758
619.825	0.0155821
619.904	0.0157242
619.982	0.0155757
620.060	0.0153337
620.138	0.0155001
620.216	0.0153985
620.294	0.0153677
620.372	0.0153326
620.450	0.0152705
620.529	0.0153450
620.607	0.0154253
620.685	0.0153567
620.763	0.0153802
620.841	0.0153021
620.919	0.0153903
620.997	0.0154719
621.075	0.0155451
621.154	0.0155566
621.232	0.0154432
621.310	0.0155431
621.388	0.0154048
621.466	0.0155380
621.544	0.0155029
621.622	0.0154804
621.700	0.0154250
621.779	0.0153493
621.857	0.0154179
621.935	0.0155270
622.013	0.0152774
622.091	0.0154658
622.169	0.0155499
622.247	0.0154768
622.325	0.0155154
622.404	0.0155239
622.482	0.0155791
622.560	0.0156992
622.638	0.0155973
622.716	0.0155148
622.794	0.0157124
622.872	0.0156527
622.950	0.0156627
623.029	0.0157252
623.107	0.0156513
623.185	0.0157528
623.263	0.0156877
623.341	0.0156191
623.419	0.0156174
623.497	0.0156159
623.575	0.0155207
623.654	0.0154776
623.732	0.0155676
623.810	0.0155725
623.888	0.0155399
623.966	0.0153259
624.044	0.0152794
624.122	0.0151989
624.200	0.0151796
624.279	0.0151064
624.357	0.0150240
624.435	0.0148035
624.513	0.0147656
624.591	0.0149240
624.669	0.0149409
624.747	0.0147970
624.825	0.0148379
624.904	0.0148501
624.982	0.0149399
625.060	0.0150988
625.138	0.0151662
625.216	0.0153801
625.294	0.0153274
625.372	0.0155399
625.450	0.0154762
625.529	0.0155340
625.607	0.0156305
625.685	0.0155959
625.763	0.0157256
625.841	0.0158176
625.919	0.0158446
625.997	0.0158540
626.075	0.0159879
626.154	0.0160938
626.232	0.0161337
626.310	0.0160397
626.388	0.0160946
626.466	0.0160934
626.544	0.0159525
626.622	0.0160115
626.700	0.0159999
626.779	0.0159750
626.857	0.0157014
626.935	0.0155261
627.013	0.0152625
627.091	0.0151950
627.169	0.0151671
627.247	0.0149878
627.325	0.0147485
627.404	0.0146161
627.482	0.0143467
627.560	0.0143589
627.638	0.0143752
627.716	0.0144549
627.794	0.0144377
627.872	0.0143319
627.950	0.0144904
628.029	0.0144915
628.107	0.0144218
628.185	0.0145541
628.263	0.0145007
628.341	0.0146011
628.419	0.0146410
628.497	0.0146530
628.575	0.0147433
628.654	0.0147668
628.732	0.0148608
628.810	0.0150880
628.888	0.0151892
628.966	0.0152821
629.044	0.0157548
629.122	0.0158543
629.200	0.0161353
629.279	0.0163160
629.357	0.0164877
629.435	0.0166347
629.513	0.0170555
629.591	0.0171181
629.669	0.0171191
629.747	0.0171240
629.825	0.0172504
629.904	0.0172565
629.982	0.0172229
630.060	0.0170912
630.138	0.0172055
630.216	0.0171547
630.294	0.0169670
630.372	0.0167356
630.450	0.0166303
630.529	0.0163648
630.607	0.0161397
630.685	0.0158883
630.763	0.0155807
630.841	0.0155034
630.919	0.0149922
630.997	0.0148867
631.075	0.0145930
631.154	0.0141829
631.232	0.0139017
631.310	0.0137000
631.388	0.0134181
631.466	0.0133337
631.544	0.0129658
631.622	0.0129884
631.700	0.0128857
631.779	0.0129710
631.857	0.0127407
631.935	0.0127603
632.013	0.0129658
632.091	0.0129553
632.169	0.0130931
632.247	0.0132547
632.325	0.0135807
632.404	0.0138634
632.482	0.0142220
632.560	0.0144598
632.638	0.0147866
632.716	0.0152236
632.794	0.0156834
632.872	0.0159818
632.950	0.0165206
633.029	0.0169480
633.107	0.0172186
633.185	0.0175975
633.263	0.0179614
633.341	0.0180627
633.419	0.0182051
633.497	0.0185945
633.575	0.0185722
633.654	0.0186657
633.732	0.0185375
633.810	0.0183517
633.888	0.0183637
633.966	0.0181767
634.044	0.0180179
634.122	0.0176251
634.200	0.0174062
634.279	0.0171702
634.357	0.0167778
634.435	0.0163964
634.513	0.0161156
634.591	0.0157652
634.669	0.0152512
634.747	0.0148532
634.825	0.0144553
634.904	0.0139076
634.982	0.0135976
635.060	0.0132816
635.138	0.0129065
635.216	0.0127017
635.294	0.0123827
635.372	0.0121770
635.450	0.0119687
635.529	0.0120588
635.607	0.0120026
635.685	0.0119985
635.763	0.0122201
635.841	0.0123963
635.919	0.0126138
635.997	0.0128516
636.075	0.0130362
636.154	0.0131268
636.232	0.0136445
636.310	0.0139742
636.388	0.0144168
636.466	0.0146855
636.544	0.0151760
636.622	0.0155357
636.700	0.0158821
636.779	0.0163956
636.857	0.0166457
636.935	0.0170463
637.013	0.0171460
637.091	0.0174868
637.169	0.0176533
637.247	0.0178532
637.325	0.0177885
637.404	0.0179302
637.482	0.0179343
637.560	0.0178104
637.638	0.0177143
637.716	0.0174631
637.794	0.0172764
637.872	0.0172086
637.950	0.0168948
638.029	0.0166924
638.107	0.0163393
638.185	0.0163458
638.263	0.0160415
638.341	0.0158829
638.419	0.0159056
638.497	0.0156464
638.575	0.0154576
638.654	0.0154723
638.732	0.0154430
638.810	0.0152663
638.888	0.0151332
638.966	0.0150454
639.044	0.0149238
639.122	0.0147910
639.200	0.0147073
639.279	0.0147451
639.357	0.0149066
639.435	0.0149043
639.513	0.0149277
639.591	0.0148170
639.669	0.0149088
639.747	0.0149947
639.825	0.0150388
639.904	0.0149236
639.982	0.0148756
640.060	0.0147413
640.138	0.0147646
640.216	0.0146801
640.294	0.0146730
640.372	0.0145124
640.450	0.0143763
640.529	0.0141107
640.607	0.0142297
640.685	0.0141858
640.763	0.0141862
640.841	0.0141492
640.919	0.0139538
640.997	0.0141217
641.075	0.0140338
641.154	0.0143144
641.232	0.0143521
641.310	0.0142956
641.388	0.0144324
641.466	0.0145583
641.544	0.0147941
641.622	0.0150315
641.700	0.0151539
641.779	0.0153494
641.857	0.0154794
641.935	0.0157646
642.013	0.0160685
642.091	0.0163204
642.169	0.0164211
642.247	0.0166416
642.325	0.0168324
642.404	0.0169736
642.482	0.0171075
642.560	0.0171114
642.638	0.0173074
642.716	0.0173926
642.794	0.0173611
642.872	0.0175307
642.950	0.0173476
643.029	0.0172355
643.107	0.0172395
643.185	0.0170432
643.263	0.0170084
643.341	0.0167818
643.419	0.0168132
643.497	0.0165647
643.575	0.0161955
643.654	0.0161477
643.732	0.0158156
643.810	0.0156828
643.888	0.0155807
643.966	0.0151888
644.044	0.0152103
644.122	0.0148982
644.200	0.0148388
644.279	0.0146499
644.357	0.0145711
644.435	0.0143320
644.513	0.0141507
644.591	0.0141166
644.669	0.0140097
644.747	0.0139362
644.825	0.0140248
644.904	0.0139227
644.982	0.0140215
645.060	0.0140121
645.138	0.0139754
645.216	0.0140559
645.294	0.0141254
645.372	0.0140895
645.450	0.0141823
645.529	0.0142908
645.607	0.0144099
645.685	0.0146090
645.763	0.0145670
645.841	0.0147339
645.919	0.0149161
645.997	0.0150025
646.075	0.0150899
646.154	0.0153525
646.232	0.0153391
646.310	0.0155733
646.388	0.0156710
646.466	0.0157196
646.544	0.0159270
646.622	0.0160535
646.700	0.0160802
646.779	0.0162691
646.857	0.0163234
646.935	0.0162652
647.013	0.0163214
647.091	0.0165359
647.169	0.0163951
647.247	0.0163562
647.325	0.0165959
647.404	0.0164265
647.482	0.0163534
647.560	0.0163756
647.638	0.0163539
647.716	0.0163510
647.794	0.0163708
647.872	0.0162772
647.950	0.0164339
648.029	0.0166795
648.107	0.0167089
648.185	0.0166277
648.263	0.0166444
648.341	0.0166266
648.419	0.0164734
648.497	0.0164198
648.575	0.0163305
648.654	0.0160154
648.732	0.0157851
648.810	0.0156241
648.888	0.0152319
648.966	0.0151305
649.044	0.0148943
649.122	0.0147404
649.200	0.0145827
649.279	0.0144174
649.357	0.0144059
649.435	0.0144354
649.513	0.0143433
649.591	0.0143753
649.669	0.0144938
649.747	0.0143629
649.825	0.0144028
649.904	0.0143459
649.982	0.0144145
650.060	0.0144717
650.138	0.0144927
650.216	0.0144162
650.294	0.0144788
650.372	0.0146314
650.450	0.0146246
650.529	0.0147320
650.607	0.0147366
650.685	0.0147821
650.763	0.0149409
650.841	0.0149081
650.919	0.0151890
650.997	0.0153861
651.075	0.0153633
651.154	0.0155791
651.232	0.0156327
651.310	0.0157706
651.388	0.0161373
651.466	0.0162229
651.544	0.0162910
651.622	0.0164877
651.700	0.0165462
651.779	0.0166366
651.857	0.0165511
651.935	0.0163830
652.013	0.0164342
652.091	0.0163943
652.169	0.0163399
652.247	0.0162299
652.325	0.0162729
652.404	0.0162061
652.482	0.0161198
652.560	0.0160012
652.638	0.0161001
652.716	0.0162968
652.794	0.0164009
652.872	0.0163718
652.950	0.0164968
653.029	0.0164005
653.107	0.0164336
653.185	0.0163862
653.263	0.0161813
653.341	0.0159868
653.419	0.0159090
653.497	0.0156653
653.575	0.0152184
653.654	0.0148756
653.732	0.0146699
653.810	0.0144180
653.888	0.0141571
653.966	0.0139117
654.044	0.0139193
654.122	0.0134592
654.200	0.0135831
654.279	0.0136567
654.357	0.0135708
654.435	0.0137714
654.513	0.0137613
654.591	0.0139620
654.669	0.0141803
654.747	0.0143468
654.825	0.0145364
654.904	0.0145901
654.982	0.0148653
655.060	0.0151982
655.138	0.0151900
655.216	0.0155477
655.294	0.0155064
655.372	0.0158836
655.450	0.0160345
655.529	0.0163145
655.607	0.0164508
655.685	0.0164963
655.763	0.0168636
655.841	0.0170471
655.919	0.0171362
655.997	0.0171150
656.075	0.0170963
656.154	0.0170255
656.232	0.0168732
656.310	0.0165966
656.388	0.0162298
656.466	0.0160787
656.544	0.0157523
656.622	0.0156337
656.700	0.0153674
656.779	0.0151266
656.857	0.0150255
656.935	0.0149514
657.013	0.0147291
657.091	0.0146996
657.169	0.0146928
657.247	0.0147504
657.325	0.0146918
657.404	0.0146316
657.482	0.0146317
657.560	0.0146501
657.638	0.0147109
657.716	0.0146040
657.794	0.0145534
657.872	0.0146954
657.950	0.0148439
658.029	0.0148951
658.107	0.0148931
658.185	0.0149483
658.263	0.0151039
658.341	0.0151357
658.419	0.0152106
658.497	0.0152373
658.575	0.0154603
658.654	0.0153905
658.732	0.0152412
658.810	0.0153960
658.888	0.0154536
658.966	0.0153511
659.044	0.0152273
659.122	0.0152808
659.200	0.0152742
659.279	0.0151590
659.357	0.0150344
659.435	0.0149821
659.513	0.0151064
659.591	0.0149529
659.669	0.0147818
659.747	0.0147397
659.825	0.0146033
659.904	0.0145213
659.982	0.0145819
660.060	0.0145600
660.138	0.0145773
660.216	0.0149079
660.294	0.0148798
660.372	0.0149123
660.450	0.0151633
660.529	0.0153399
660.607	0.0153266
660.685	0.0154597
660.763	0.0155688
660.841	0.0157442
660.919	0.0157600
660.997	0.0157578
661.075	0.0157690
661.154	0.0156462
661.232	0.0156398
661.310	0.0156689
661.388	0.0157129
661.466	0.0157270
661.544	0.0157362
661.622	0.0157379
661.700	0.0157617
661.779	0.0158230
661.857	0.0156458
661.935	0.0159487
662.013	0.0160396
662.091	0.0160097
662.169	0.0160402
662.247	0.0160107
662.325	0.0160690
662.404	0.0162122
662.482	0.0163123
662.560	0.0162486
662.638	0.0161367
662.716	0.0160540
662.794	0.0160355
662.872	0.0161832
662.950	0.0161305
663.029	0.0159449
663.107	0.0158824
663.185	0.0157581
663.263	0.0158257
663.341	0.0157481
663.419	0.0156322
663.497	0.0155505
663.575	0.0153876
663.654	0.0153351
663.732	0.0152486
663.810	0.0152641
663.888	0.0152285
663.966	0.0151063
664.044	0.0150415
664.122	0.0150981
664.200	0.0150551
664.279	0.0149104
664.357	0.0150587
664.435	0.0151015
664.513	0.0150316
664.591	0.0150640
664.669	0.0151229
664.747	0.0153333
664.825	0.0151234
664.904	0.0152847
664.982	0.0154887
665.060	0.0155122
665.138	0.0154388
665.216	0.0155044
665.294	0.0154597
665.372	0.0154229
665.450	0.0153895
665.529	0.0153840
665.607	0.0154655
665.685	0.0153116
665.763	0.0150217
665.841	0.0150751
665.919	0.0149506
665.997	0.0147705
666.075	0.0145624
666.154	0.0145892
666.232	0.0144352
666.310	0.0143041
666.388	0.0141979
666.466	0.0142186
666.544	0.0142191
666.622	0.0141217
666.700	0.0141875
666.779	0.0141977
666.857	0.0142484
666.935	0.0143287
667.013	0.0143491
667.091	0.0144773
667.169	0.0145766
667.247	0.0147256
667.325	0.0148120
667.404	0.0148659
667.482	0.0150137
667.560	0.0152522
667.638	0.0154887
667.716	0.0155191
667.794	0.0159235
667.872	0.0162908
667.950	0.0166393
668.029	0.0169604
668.107	0.0172186
668.185	0.0177629
668.263	0.0180772
668.341	0.0182393
668.419	0.0185436
668.497	0.0186317
668.575	0.0187135
668.654	0.0188282
668.732	0.0187180
668.810	0.0185963
668.888	0.0184510
668.966	0.0182393
669.044	0.0179208
669.122	0.0177604
669.200	0.0172159
669.279	0.0168794
669.357	0.0164395
669.435	0.0162476
669.513	0.0156928
669.591	0.0152870
669.669	0.0149393
669.747	0.0144579
669.825	0.0140295
669.904	0.0137742
669.982	0.0133182
670.060	0.0129655
670.138	0.0128771
670.216	0.0126382
670.294	0.0124471
670.372	0.0123294
670.450	0.0123083
670.529	0.0122854
670.607	0.0122294
670.685	0.0123542
670.763	0.0125832
670.841	0.0124829
670.919	0.0127199
670.997	0.0128957
671.075	0.0131283
671.154	0.0133424
671.232	0.0135521
671.310	0.0139328
671.388	0.0140206
671.466	0.0143681
671.544	0.0149329
671.622	0.0150159
671.700	0.0154166
671.779	0.0157938
671.857	0.0159683
671.935	0.0161657
672.013	0.0164668
672.091	0.0165995
672.169	0.0169843
672.247	0.0167807
672.325	0.0169159
672.404	0.0171247
672.482	0.0170830
672.560	0.0170489
672.638	0.0170318
672.716	0.0170514
672.794	0.0168948
672.872	0.0169585
672.950	0.0171223
673.029	0.0169698
673.107	0.0169691
673.185	0.0171264
673.263	0.0171823
673.341	0.0170634
673.419	0.0169743
673.497	0.0168712
673.575	0.0168369
673.654	0.0168259
673.732	0.0167042
673.810	0.0166840
673.888	0.0165395
673.966	0.0163675
674.044	0.0161646
674.122	0.0160970
674.200	0.0160047
674.279	0.0159029
674.357	0.0157858
674.435	0.0157555
674.513	0.0155781
674.591	0.0154805
674.669	0.0154221
674.747	0.0152258
674.825	0.0151551
674.904	0.0150063
674.982	0.0147287
675.060	0.0146077
675.138	0.0144166
675.216	0.0140618
675.294	0.0139292
675.372	0.0137975
675.450	0.0135785
675.529	0.0134738
675.607	0.0132486
675.685	0.0133343
675.763	0.0134515
675.841	0.0135158
675.919	0.0136963
675.997	0.0137986
676.075	0.0140829
676.154	0.0142323
676.232	0.0145061
676.310	0.0147810
676.388	0.0151018
676.466	0.0151430
676.544	0.0154153
676.622	0.0156477
676.700	0.0157706
676.779	0.0158485
676.857	0.0158702
676.935	0.0159552
677.013	0.0159245
677.091	0.0158495
677.169	0.0158887
677.247	0.0159340
677.325	0.0157559
677.404	0.0158289
677.482	0.0157587
677.560	0.0155977
677.638	0.0156110
677.716	0.0155542
677.794	0.0154494
677.872	0.0155479
677.950	0.0154755
678.029	0.0154751
678.107	0.0154192
678.185	0.0154362
678.263	0.0155305
678.341	0.0153231
678.419	0.0154524
678.497	0.0155643
678.575	0.0154420
678.654	0.0155938
678.732	0.0156325
678.810	0.0154979
678.888	0.0155029
678.966	0.0155267
679.044	0.0155804
679.122	0.0156403
679.200	0.0156345
679.279	0.0157177
679.357	0.0156438
679.435	0.0155701
679.513	0.0157363
679.591	0.0158010
679.669	0.0157745
679.747	0.0155693
679.825	0.0155623
679.904	0.0154494
679.982	0.0154676
680.060	0.0154144
680.138	0.0152219
680.216	0.0152699
680.294	0.0152126
680.372	0.0151239
680.450	0.0150862
680.529	0.0151617
680.607	0.0151363
680.685	0.0152804
680.763	0.0153075
680.841	0.0153721
680.919	0.0154198
680.997	0.0155296
681.075	0.0155781
681.154	0.0157305
681.232	0.0158140
681.310	0.0158764
681.388	0.0159184
681.466	0.0157915
681.544	0.0160652
681.622	0.0159746
681.700	0.0159244
681.779	0.0159457
681.857	0.0160658
681.935	0.0160924
682.013	0.0161337
682.091	0.0159076
682.169	0.0159311
682.247	0.0159978
682.325	0.0158806
682.404	0.0158793
682.482	0.0157788
682.560	0.0158169
682.638	0.0155763
682.716	0.0153349
682.794	0.0153385
682.872	0.0151155
682.950	0.0149906
683.029	0.0146148
683.107	0.0145375
683.185	0.0144297
683.263	0.0143644
683.341	0.0140910
683.419	0.0139847
683.497	0.0139491
683.575	0.0140115
683.654	0.0139533
683.732	0.0139820
683.810	0.0141577
683.888	0.0143090
683.966	0.0143651
684.044	0.0145481
684.122	0.0146164
684.200	0.0147156
684.279	0.0148891
684.357	0.0152122
684.435	0.0152139
684.513	0.0153345
684.591	0.0156680
684.669	0.0158843
684.747	0.0160336
684.825	0.0160561
684.904	0.0163072
684.982	0.0163366
685.060	0.0165939
685.138	0.0165343
685.216	0.0165795
685.294	0.0166512
685.372	0.0166041
685.450	0.0165357
685.529	0.0163358
685.607	0.0163243
685.685	0.0162046
685.763	0.0158548
685.841	0.0158034
685.919	0.0157466
685.997	0.0155328
686.075	0.0153546
686.154	0.0152438
686.232	0.0151166
686.310	0.0149394
686.388	0.0148822
686.466	0.0147688
686.544	0.0148243
686.622	0.0146320
686.700	0.0149044
686.779	0.0149845
686.857	0.0148007
686.935	0.0149308
687.013	0.0147633
687.091	0.0150034
687.169	0.0150967
687.247	0.0151929
687.325	0.0152628
687.404	0.0154529
687.482	0.0156279
687.560	0.0157593
687.638	0.0158001
687.716	0.0161327
687.794	0.0162187
687.872	0.0161197
687.950	0.0164484
688.029	0.0164470
688.107	0.0164841
688.185	0.0163596
688.263	0.0163689
688.341	0.0163527
688.419	0.0162359
688.497	0.0159837
688.575	0.0159737
688.654	0.0159282
688.732	0.0157188
688.810	0.0155357
688.888	0.0153971
688.966	0.0152936
689.044	0.0152030
689.122	0.0150168
689.200	0.0148537
689.279	0.0148379
689.357	0.0148236
689.435	0.0146836
689.513	0.0146902
689.591	0.0145406
689.669	0.0145485
689.747	0.0147337
689.825	0.0146764
689.904	0.0146565
689.982	0.0146124
690.060	0.0146758
690.138	0.0148140
690.216	0.0145961
690.294	0.0147190
690.372	0.0148367
690.450	0.0146748
690.529	0.0147340
690.607	0.0146973
690.685	0.0146708
690.763	0.0148837
690.841	0.0148910
690.919	0.0148052
690.997	0.0147859
691.075	0.0150596
691.154	0.0152640
691.232	0.0150758
691.310	0.0153261
691.388	0.0154134
691.466	0.0155063
691.544	0.0156556
691.622	0.0157548
691.700	0.0158051
691.779	0.0159058
691.857	0.0160876
691.935	0.0161744
692.013	0.0162416
692.091	0.0161974
692.169	0.0163031
692.247	0.0162673
692.325	0.0162148
692.404	0.0163110
692.482	0.0160729
692.560	0.0161330
692.638	0.0161478
692.716	0.0161798
692.794	0.0160968
692.872	0.0160654
692.950	0.0158305
693.029	0.0158347
693.107	0.0158192
693.185	0.0157851
693.263	0.0155874
693.341	0.0154964
693.419	0.0153731
693.497	0.0153017
693.575	0.0152399
693.654	0.0152369
693.732	0.0153139
693.810	0.0152367
693.888	0.0152148
693.966	0.0151029
694.044	0.0151456
694.122	0.0152341
694.200	0.0151000
694.279	0.0150434
694.357	0.0152149
694.435	0.0149712
694.513	0.0151292
694.591	0.0149189
694.669	0.0149602
694.747	0.0150256
694.825	0.0151351
694.904	0.0149593
694.982	0.0150180
695.060	0.0149435
695.138	0.0148752
695.216	0.0148595
695.294	0.0150314
695.372	0.0150571
695.450	0.0150175
695.529	0.0150352
695.607	0.0151521
695.685	0.0150951
695.763	0.0150858
695.841	0.0152583
695.919	0.0152714
695.997	0.0153829
696.075	0.0154266
696.154	0.0154979
696.232	0.0156092
696.310	0.0155518
696.388	0.0155435
696.466	0.0153876
696.544	0.0153992
696.622	0.0154024
696.700	0.0155257
696.779	0.0155309
696.857	0.0154227
696.935	0.0155385
697.013	0.0153429
697.091	0.0154985
697.169	0.0153344
697.247	0.0152615
697.325	0.0151775
697.404	0.0153475
697.482	0.0153102
697.560	0.0153642
697.638	0.0154105
697.716	0.0154616
697.794	0.0153236
697.872	0.0154295
697.950	0.0155078
698.029	0.0155071
698.107	0.0153635
698.185	0.0154721
698.263	0.0154399
698.341	0.0154567
698.419	0.0155530
698.497	0.0155827
698.575	0.0154832
698.654	0.0154606
698.732	0.0153883
698.810	0.0152600
698.888	0.0153690
698.966	0.0153482
699.044	0.0152658
699.122	0.0154018
699.200	0.0152100
699.279	0.0152587
699.357	0.0153271
699.435	0.0154392
699.513	0.0152639
699.591	0.0152936
699.669	0.0154615
699.747	0.0155466
699.825	0.0155285
699.904	0.0155790
699.982	0.0155830
700.060	0.0154977
700.138	0.0155164
700.216	0.0155205
700.294	0.0155562
700.372	0.0155400
700.450	0.0156038
700.529	0.0155487
700.607	0.0155431
700.685	0.0157064
700.763	0.0155703
700.841	0.0155110
700.919	0.0156136
700.997	0.0155093
701.075	0.0154647
701.154	0.0153661
701.232	0.0153513
701.310	0.0153128
701.388	0.0152799
701.466	0.0153056
701.544	0.0152856
701.622	0.0150809
701.700	0.0150515
701.779	0.0150719
701.857	0.0151869
701.935	0.0152122
702.013	0.0151022
702.091	0.0152832
702.169	0.0151772
702.247	0.0152771
702.325	0.0154349
702.404	0.0154725
702.482	0.0153043
702.560	0.0155148
702.638	0.0155531
702.716	0.0157713
702.794	0.0157390
702.872	0.0156543
702.950	0.0155402
703.029	0.0155708
703.107	0.0156387
703.185	0.0156029
703.263	0.0156054
703.341	0.0157085
703.419	0.0156832
703.497	0.0156248
703.575	0.0155357
703.654	0.0157150
703.732	0.0156126
703.810	0.0154533
703.888	0.0155386
703.966	0.0153517
704.044	0.0153810
704.122	0.0153889
704.200	0.0152998
704.279	0.0153223
704.357	0.0151700
704.435	0.0152509
704.513	0.0151340
704.591	0.0151875
704.669	0.0152052
704.747	0.0153032
704.825	0.0153026
704.904	0.0152300
704.982	0.0153439
705.060	0.0153646
705.138	0.0153024
705.216	0.0153873
705.294	0.0154173
705.372	0.0154341
705.450	0.0155019
705.529	0.0155289
705.607	0.0155283
705.685	0.0154196
705.763	0.0152527
705.841	0.0153419
705.919	0.0152507
705.997	0.0153844
706.075	0.0152664
706.154	0.0152951
706.232	0.0152710
706.310	0.0150640
706.388	0.0151929
706.466	0.0151492
706.544	0.0152331
706.622	0.0152033
706.700	0.0152878
706.779	0.0150986
706.857	0.0151524
706.935	0.0151752
707.013	0.0151838
707.091	0.0151148
707.169	0.0150647
707.247	0.0151730
707.325	0.0152206
707.404	0.0151376
707.482	0.0152689
707.560	0.0152435
707.638	0.0153539
707.716	0.0152827
707.794	0.0153312
707.872	0.0153278
707.950	0.0153646
708.029	0.0152659
708.107	0.0154533
708.185	0.0155235
708.263	0.0155306
708.341	0.0156921
708.419	0.0155986
708.497	0.0156290
708.575	0.0156133
708.654	0.0155453
708.732	0.0156207
708.810	0.0156864
708.888	0.0156401
708.966	0.0156374
709.044	0.0154350
709.122	0.0154784
709.200	0.0155576
709.279	0.0152417
709.357	0.0154666
709.435	0.0154374
709.513	0.0153591
709.591	0.0153880
709.669	0.0152759
709.747	0.0154268
709.825	0.0152354
709.904	0.0153419
709.982	0.0153423
710.060	0.0154311
710.138	0.0155396
710.216	0.0153565
710.294	0.0154188
710.372	0.0155004
710.450	0.0155807
710.529	0.0155181
710.607	0.0154686
710.685	0.0154413
710.763	0.0154303
710.841	0.0154015
710.919	0.0155070
710.997	0.0154860
711.075	0.0154452
711.154	0.0154395
711.232	0.0153924
711.310	0.0154595
711.388	0.0153619
711.466	0.0153793
711.544	0.0154336
711.622	0.0154059
711.700	0.0153840
711.779	0.0153151
711.857	0.0152451
711.935	0.0154640
712.013	0.0154072
712.091	0.0153889
712.169	0.0153406
712.247	0.0155070
712.325	0.0152962
712.404	0.0154131
712.482	0.0153519
712.560	0.0153824
712.638	0.0153257
712.716	0.0153432
712.794	0.0153986
712.872	0.0152925
712.950	0.0153313
713.029	0.0153580
713.107	0.0154304
713.185	0.0154520
713.263	0.0153853
713.341	0.0154438
713.419	0.0155238
713.497	0.0156436
713.575	0.0155764
713.654	0.0156031
713.732	0.0154064
713.810	0.0155453
713.888	0.0154887
713.966	0.0155735
714.044	0.0155741
714.122	0.0155714
714.200	0.0154307
714.279	0.0154462
714.357	0.0154546
714.435	0.0154197
714.513	0.0154504
714.591	0.0153670
714.669	0.0155325
714.747	0.0154488
714.825	0.0154285
714.904	0.0153915
714.982	0.0153858
715.060	0.0152737
715.138	0.0153503
715.216	0.0154009
715.294	0.0153459
715.372	0.0151835
715.450	0.0151083
715.529	0.0150668
715.607	0.0152023
715.685	0.0153532
715.763	0.0152776
715.841	0.0153004
715.919	0.0150671
715.997	0.0152937
716.075	0.0153143
716.154	0.0154156
716.232	0.0151418
716.310	0.0152486
716.388	0.0151332
716.466	0.0151315
716.544	0.0152911
716.622	0.0152352
716.700	0.0151842
716.779	0.0151544
716.857	0.0152006
716.935	0.0151646
717.013	0.0151746
717.091	0.0152261
717.169	0.0152539
717.247	0.0150923
717.325	0.0151856
717.404	0.0152916
717.482	0.0153546
717.560	0.0154724
717.638	0.0153239
717.716	0.0152397
717.794	0.0154760
717.872	0.0153899
717.950	0.0152722
718.029	0.0153437
718.107	0.0155683
718.185	0.0154166
718.263	0.0153436
718.341	0.0152643
718.419	0.0152305
718.497	0.0154118
718.575	0.0153281
718.654	0.0153267
718.732	0.0153539
718.810	0.0152882
718.888	0.0153407
718.966	0.0153461
719.044	0.0153855
719.122	0.0152859
719.200	0.0153991
719.279	0.0153016
719.357	0.0153389
719.435	0.0152608
719.513	0.0153691
719.591	0.0154434
719.669	0.0153455
719.747	0.0154304
719.825	0.0154073
719.904	0.0154336
719.982	0.0152915
720.060	0.0153314
720.138	0.0153550
720.216	0.0154066
720.294	0.0154005
720.372	0.0152577
720.450	0.0152930
720.529	0.0154986
720.607	0.0153779
720.685	0.0152869
720.763	0.0154230
720.841	0.0154259
720.919	0.0154436
720.997	0.0154115
721.075	0.0153751
721.154	0.0153209
721.232	0.0155299
721.310	0.0155577
721.388	0.0155103
721.466	0.0153323
721.544	0.0155318
721.622	0.0154720
721.700	0.0154836
721.779	0.0155635
721.857	0.0156348
721.935	0.0154710
722.013	0.0155720
722.091	0.0156349
722.169	0.0156225
722.247	0.0156693
722.325	0.0157445
722.404	0.0156510
722.482	0.0154848
722.560	0.0156314
722.638	0.0155795
722.716	0.0154360
722.794	0.0155922
722.872	0.0156052
722.950	0.0154661
723.029	0.0155573
723.107	0.0154562
723.185	0.0154353
723.263	0.0153614
723.341	0.0154743
723.419	0.0154429
723.497	0.0153843
723.575	0.0153436
723.654	0.0154770
723.732	0.0154193
723.810	0.0152835
723.888	0.0153809
723.966	0.0153061
724.044	0.0154405
724.122	0.0154527
724.200	0.0153067
724.279	0.0153185
724.357	0.0152807
724.435	0.0152481
724.513	0.0153658
724.591	0.0153667
724.669	0.0152641
724.747	0.0150306
724.825	0.0149451
724.904	0.0150262
724.982	0.0150748
725.060	0.0149190
725.138	0.0150529
725.216	0.0152120
725.294	0.0149876
725.372	0.0149274
725.450	0.0149701
725.529	0.0151131
725.607	0.0150897
725.685	0.0151525
725.763	0.0151325
725.841	0.0150021
725.919	0.0151123
725.997	0.0152773
726.075	0.0151168
726.154	0.0151889
726.232	0.0153101
726.310	0.0152824
726.388	0.0152171
726.466	0.0152837
726.544	0.0152251
726.622	0.0152131
726.700	0.0153093
726.779	0.0153975
726.857	0.0155573
726.935	0.0153937
727.013	0.0153180
727.091	0.0155115
727.169	0.0154916
727.247	0.0155316
727.325	0.0154003
727.404	0.0154517
727.482	0.0154370
727.560	0.0154571
727.638	0.0154904
727.716	0.0154990
727.794	0.0154378
727.872	0.0154874
727.950	0.0154887
728.029	0.0154591
728.107	0.0154790
728.185	0.0154308
728.263	0.0153751
728.341	0.0154098
728.419	0.0154246
728.497	0.0152746
728.575	0.0152046
728.654	0.0153963
728.732	0.0153696
728.810	0.0153947
728.888	0.0153071
728.966	0.0153780
729.044	0.0152634
729.122	0.0153500
729.200	0.0153897
729.279	0.0155212
729.357	0.0155357
729.435	0.0156403
729.513	0.0155847
729.591	0.0154471
729.669	0.0156312
729.747	0.0157129
729.825	0.0156416
729.904	0.0157552
729.982	0.0157424
730.060	0.0157906
730.138	0.0157112
730.216	0.0158913
730.294	0.0156948
730.372	0.0157730
730.450	0.0158601
730.529	0.0157497
730.607	0.0156551
730.685	0.0157604
730.763	0.0155963
730.841	0.0154450
730.919	0.0155634
730.997	0.0155916
731.075	0.0156411
731.154	0.0156155
731.232	0.0153541
731.310	0.0152604
731.388	0.0153339
731.466	0.0152962
731.544	0.0152138
731.622	0.0150937
731.700	0.0150566
731.779	0.0152311
731.857	0.0151405
731.935	0.0150909
732.013	0.0149900
732.091	0.0150225
732.169	0.0149083
732.247	0.0148607
732.325	0.0148653
732.404	0.0150793
732.482	0.0150225
732.560	0.0149988
732.638	0.0151046
732.716	0.0152425
732.794	0.0152113
732.872	0.0153557
732.950	0.0153466
733.029	0.0153687
733.107	0.0154322
733.185	0.0154836
733.263	0.0154694
733.341	0.0157166
733.419	0.0156808
733.497	0.0156478
733.575	0.0155923
733.654	0.0157610
733.732	0.0158158
733.810	0.0158517
733.888	0.0156867
733.966	0.0158566
734.044	0.0158678
734.122	0.0157104
734.200	0.0159927
734.279	0.0159303
734.357	0.0157880
734.435	0.0158315
734.513	0.0158516
734.591	0.0159361
734.669	0.0158716
734.747	0.0155772
734.825	0.0157696
734.904	0.0158115
734.982	0.0158451
735.060	0.0157932
735.138	0.0156603
735.216	0.0156549
735.294	0.0155778
735.372	0.0155859
735.450	0.0155912
735.529	0.0155206
735.607	0.0154239
735.685	0.0153435
735.763	0.0152637
735.841	0.0152445
735.919	0.0151457
735.997	0.0152117
736.075	0.0151485
736.154	0.0152428
736.232	0.0151195
736.310	0.0151891
736.388	0.0151995
736.466	0.0151452
736.544	0.0150773
736.622	0.0151456
736.700	0.0151118
736.779	0.0151662
736.857	0.0153238
736.935	0.0151892
737.013	0.0151028
737.091	0.0153049
737.169	0.0151904
737.247	0.0151543
737.325	0.0152118
737.404	0.0152695
737.482	0.0152032
737.560	0.0152277
737.638	0.0152447
737.716	0.0153325
737.794	0.0153692
737.872	0.0153365
737.950	0.0153368
738.029	0.0153429
738.107	0.0154423
738.185	0.0155186
738.263	0.0155064
738.341	0.0154448
738.419	0.0155437
738.497	0.0154855
738.575	0.0154803
738.654	0.0155602
738.732	0.0155044
738.810	0.0155407
738.888	0.0154651
738.966	0.0154346
739.044	0.0156181
739.122	0.0156274
739.200	0.0156818
739.279	0.0155915
739.357	0.0154372
739.435	0.0155970
739.513	0.0155387
739.591	0.0154811
739.669	0.0156188
739.747	0.0156801
739.825	0.0156680
739.904	0.0155625
739.982	0.0155797
740.060	0.0156441
740.138	0.0155416
740.216	0.0156676
740.294	0.0155744
740.372	0.0156991
740.450	0.0156995
740.529	0.0155304
740.607	0.0155363
740.685	0.0154695
740.763	0.0154590
740.841	0.0153534
740.919	0.0153964
740.997	0.0154070
741.075	0.0154115
741.154	0.0152972
741.232	0.0153507
741.310	0.0153417
741.388	0.0152749
741.466	0.0153024
741.544	0.0153627
741.622	0.0152317
741.700	0.0152554
741.779	0.0151792
741.857	0.0153075
741.935	0.0152850
742.013	0.0152183
742.091	0.0153908
742.169	0.0153110
742.247	0.0153568
742.325	0.0154476
742.404	0.0154413
742.482	0.0153553
742.560	0.0155343
742.638	0.0155351
742.716	0.0155038
742.794	0.0155256
742.872	0.0155323
742.950	0.0155147
743.029	0.0156059
743.107	0.0154546
743.185	0.0156145
743.263	0.0155327
743.341	0.0155666
743.419	0.0156631
743.497	0.0155473
743.575	0.0155500
743.654	0.0154369
743.732	0.0154640
743.810	0.0154778
743.888	0.0155550
743.966	0.0156207
744.044	0.0156354
744.122	0.0155897
744.200	0.0156941
744.279	0.0156975
744.357	0.0157113
744.435	0.0156056
744.513	0.0157024
744.591	0.0157826
744.669	0.0157307
744.747	0.0157697
744.825	0.0156741
744.904	0.0156976
744.982	0.0157838
745.060	0.0156558
745.138	0.0156021
745.216	0.0155749
745.294	0.0155965
745.372	0.0155864
745.450	0.0156818
745.529	0.0156403
745.607	0.0157185
745.685	0.0155907
745.763	0.0154856
745.841	0.0155128
745.919	0.0154716
745.997	0.0154463
746.075	0.0153804
746.154	0.0153194
746.232	0.0154844
746.310	0.0154050
746.388	0.0154778
746.466	0.0152444
746.544	0.0153515
746.622	0.0152806
746.700	0.0151823
746.779	0.0152474
746.857	0.0153987
746.935	0.0151937
747.013	0.0152061
747.091	0.0151675
747.169	0.0153471
747.247	0.0152130
747.325	0.0152355
747.404	0.0152662
747.482	0.0152112
747.560	0.0152205
747.638	0.0152536
747.716	0.0152422
747.794	0.0153616
747.872	0.0153727
747.950	0.0152724
748.029	0.0153348
748.107	0.0154418
748.185	0.0154729
748.263	0.0156320
748.341	0.0154949
748.419	0.0154873
748.497	0.0155569
748.575	0.0155657
748.654	0.0156297
748.732	0.0154770
748.810	0.0155109
748.888	0.0155946
748.966	0.0155920
749.044	0.0156413
749.122	0.0155991
749.200	0.0154967
749.279	0.0156431
749.357	0.0155318
749.435	0.0155022
749.513	0.0154382
749.591	0.0154267
749.669	0.0154369
749.747	0.0154614
749.825	0.0154927
749.904	0.0154591
749.982	0.0153030
750.060	0.0153117
750.138	0.0152370
750.216	0.0152245
750.294	0.0152346
750.372	0.0152486
750.450	0.0152216
750.529	0.0151923
750.607	0.0152325
750.685	0.0151974
750.763	0.0152927
750.841	0.0153592
750.919	0.0153848
750.997	0.0154617
751.075	0.0154118
751.154	0.0153555
751.232	0.0155935
751.310	0.0156137
751.388	0.0155740
751.466	0.0155578
751.544	0.0156678
751.622	0.0156108
751.700	0.0158540
751.779	0.0156950
751.857	0.0158406
751.935	0.0157857
752.013	0.0157131
752.091	0.0157217
752.169	0.0157658
752.247	0.0158140
752.325	0.0158082
752.404	0.0156558
752.482	0.0159229
752.560	0.0156896
752.638	0.0157477
752.716	0.0155244
752.794	0.0155569
752.872	0.0154165
752.950	0.0155878
753.029	0.0153794
753.107	0.0154936
753.185	0.0155285
753.263	0.0154559
753.341	0.0153949
753.419	0.0154922
753.497	0.0153376
753.575	0.0152857
753.654	0.0153922
753.732	0.0153801
753.810	0.0155521
753.888	0.0154945
753.966	0.0153963
754.044	0.0155517
754.122	0.0156039
754.200	0.0154482
754.279	0.0155534
754.357	0.0154996
754.435	0.0156018
754.513	0.0154296
754.591	0.0155609
754.669	0.0153395
754.747	0.0155000
754.825	0.0154983
754.904	0.0154109
754.982	0.0153884
755.060	0.0155699
755.138	0.0154752
755.216	0.0154810
755.294	0.0153014
755.372	0.0154599
755.450	0.0155495
755.529	0.0153983
755.607	0.0153485
755.685	0.0151795
755.763	0.0153223
755.841	0.0152791
755.919	0.0153453
755.997	0.0152112
756.075	0.0152532
756.154	0.0153578
756.232	0.0152993
756.310	0.0153231
756.388	0.0152868
756.466	0.0152908
756.544	0.0151871
756.622	0.0153394
756.700	0.0152379
756.779	0.0152103
756.857	0.0152016
756.935	0.0153201
757.013	0.0152731
757.091	0.0152820
757.169	0.0153460
757.247	0.0152267
757.325	0.0152457
757.404	0.0153570
757.482	0.0152799
757.560	0.0152769
757.638	0.0153702
757.716	0.0153712
757.794	0.0151488
757.872	0.0152675
757.950	0.0153693
758.029	0.0153243
758.107	0.0151424
758.185	0.0153895
758.263	0.0153004
758.341	0.0153378
758.419	0.0152548
758.497	0.0152557
758.575	0.0155634
758.654	0.0153694
758.732	0.0153653
758.810	0.0154242
758.888	0.0154578
758.966	0.0154750
759.044	0.0154366
759.122	0.0155196
759.200	0.0155856
759.279	0.0156800
759.357	0.0157406
759.435	0.0157066
759.513	0.0157252
759.591	0.0155431
759.669	0.0157834
759.747	0.0156779
759.825	0.0157454
759.904	0.0157561
759.982	0.0156980
760.060	0.0157393
760.138	0.0156364
760.216	0.0156416
760.294	0.0155553
760.372	0.0156346
760.450	0.0155753
760.529	0.0155208
760.607	0.0155431
760.685	0.0154855
760.763	0.0155506
760.841	0.0154762
760.919	0.0154797
760.997	0.0154915
761.075	0.0153384
761.154	0.0154841
761.232	0.0153653
761.310	0.0153557
761.388	0.0152912
761.466	0.0154479
761.544	0.0153204
761.622	0.0152545
761.700	0.0152808
761.779	0.0152015
761.857	0.0152733
761.935	0.0152301
762.013	0.0151121
762.091	0.0150401
762.169	0.0151693
762.247	0.0150671
762.325	0.0150666
762.404	0.0150800
762.482	0.0150726
762.560	0.0151550
762.638	0.0149988
762.716	0.0149438
762.794	0.0150562
762.872	0.0151895
762.950	0.0151498
763.029	0.0151198
763.107	0.0151786
763.185	0.0151560
763.263	0.0151475
763.341	0.0151231
763.419	0.0152323
763.497	0.0152636
763.575	0.0151962
763.654	0.0152562
763.732	0.0153343
763.810	0.0154800
763.888	0.0154865
763.966	0.0153898
764.044	0.0154517
764.122	0.0153803
764.200	0.0156374
764.279	0.0156059
764.357	0.0156714
764.435	0.0156615
764.513	0.0156888
764.591	0.0158957
764.669	0.0158073
764.747	0.0158182
764.825	0.0159224
764.904	0.0158292
764.982	0.0159140
765.060	0.0159497
765.138	0.0159120
765.216	0.0160811
765.294	0.0159557
765.372	0.0161122
765.450	0.0160191
765.529	0.0160241
765.607	0.0159222
765.685	0.0160258
765.763	0.0158078
765.841	0.0158187
765.919	0.0157235
765.997	0.0156622
766.075	0.0157414
766.154	0.0155786
766.232	0.0155193
766.310	0.0154292
766.388	0.0154877
766.466	0.0155026
766.544	0.0152622
766.622	0.0153581
766.700	0.0152583
766.779	0.0151646
766.857	0.0152740
766.935	0.0151471
767.013	0.0151098
767.091	0.0151769
767.169	0.0150568
767.247	0.0151431
767.325	0.0152735
767.404	0.0152171
767.482	0.0151205
767.560	0.0152200
767.638	0.0151743
767.716	0.0150401
767.794	0.0149640
767.872	0.0152100
767.950	0.0153107
768.029	0.0152570
768.107	0.0152509
768.185	0.0152184
768.263	0.0153928
768.341	0.0154329
768.419	0.0154204
768.497	0.0155445
768.575	0.0155181
768.654	0.0154346
768.732	0.0154687
768.810	0.0155952
768.888	0.0155511
768.966	0.0156736
769.044	0.0157438
769.122	0.0155541
769.200	0.0156471
769.279	0.0156835
769.357	0.0156691
769.435	0.0157430
769.513	0.0157645
769.591	0.0158248
769.669	0.0158356
769.747	0.0156881
769.825	0.0158495
769.904	0.0157362
769.982	0.0156635
770.060	0.0157487
770.138	0.0156944
770.216	0.0156799
770.294	0.0157146
770.372	0.0155745
770.450	0.0153539
770.529	0.0156705
770.607	0.0155795
770.685	0.0155379
770.763	0.0154529
770.841	0.0156278
770.919	0.0153499
770.997	0.0154176
771.075	0.0154480
771.154	0.0152834
771.232	0.0153483
771.310	0.0154081
771.388	0.0152459
771.466	0.0152264
771.544	0.0151626
771.622	0.0150886
771.700	0.0150582
771.779	0.0152598
771.857	0.0152310
771.935	0.0150426
772.013	0.0151095
772.091	0.0152068
772.169	0.0150940
772.247	0.0149624
772.325	0.0151215
772.404	0.0150765
772.482	0.0151792
772.560	0.0150471
772.638	0.0149847
772.716	0.0151628
772.794	0.0151180
772.872	0.0149854
772.950	0.0151096
773.029	0.0151022
773.107	0.0150478
773.185	0.0150410
773.263	0.0151366
773.341	0.0150101
773.419	0.0150842
773.497	0.0151210
773.575	0.0151173
773.654	0.0151651
773.732	0.0150800
773.810	0.0150893
773.888	0.0151817
773.966	0.0151911
774.044	0.0152373
774.122	0.0152504
774.200	0.0152744
774.279	0.0152197
774.357	0.0153341
774.435	0.0152371
774.513	0.0154408
774.591	0.0153256
774.669	0.0154868
774.747	0.0152801
774.825	0.0153735
774.904	0.0154647
774.982	0.0154995
775.060	0.0154649
775.138	0.0154070
775.216	0.0153544
775.294	0.0155701
775.372	0.0154059
775.450	0.0155885
775.529	0.0155457
775.607	0.0155009
775.685	0.0155737
775.763	0.0154610
775.841	0.0154134
775.919	0.0154484
775.997	0.0154762
776.075	0.0154766
776.154	0.0156190
776.232	0.0154335
776.310	0.0154070
776.388	0.0153384
776.466	0.0152764
776.544	0.0155899
776.622	0.0154704
776.700	0.0155442
776.779	0.0155009
776.857	0.0155855
776.935	0.0155673
777.013	0.0154087
777.091	0.0153619
777.169	0.0153951
777.247	0.0154484
777.325	0.0153464
777.404	0.0155656
777.482	0.0152982
777.560	0.0154164
777.638	0.0153928
777.716	0.0153467
777.794	0.0155181
777.872	0.0152780
777.950	0.0153172
778.029	0.0153161
778.107	0.0152602
778.185	0.0154538
778.263	0.0153883
778.341	0.0152609
778.419	0.0153953
778.497	0.0153742
778.575	0.0152019
778.654	0.0153095
778.732	0.0153929
778.810	0.0154269
778.888	0.0154322
778.966	0.0154038
779.044	0.0154194
779.122	0.0154878
779.200	0.0154104
779.279	0.0153332
779.357	0.0153395
779.435	0.0153560
779.513	0.0154707
779.591	0.0155055
779.669	0.0154064
779.747	0.0153823
779.825	0.0154626
779.904	0.0153290
779.982	0.0152831
780.060	0.0153798
780.138	0.0153608
780.216	0.0154165
780.294	0.0153269
780.372	0.0152653
780.450	0.0153130
780.529	0.0154356
780.607	0.0153854
780.685	0.0153068
780.763	0.0153584
780.841	0.0152073
780.919	0.0154898
780.997	0.0153156
781.075	0.0152627
781.154	0.0154443
781.232	0.0154101
781.310	0.0153677
781.388	0.0154371
781.466	0.0154183
781.544	0.0154501
781.622	0.0155645
781.700	0.0153545
781.779	0.0154482
781.857	0.0155246
781.935	0.0154296
782.013	0.0154271
782.091	0.0152657
782.169	0.0154050
782.247	0.0154976
782.325	0.0152241
782.404	0.0153143
782.482	0.0153542
782.560	0.0152361
782.638	0.0151843
782.716	0.0152785
782.794	0.0152146
782.872	0.0150949
782.950	0.0150779
783.029	0.0150590
783.107	0.0151485
783.185	0.0151992
783.263	0.0151861
783.341	0.0151423
783.419	0.0151560
783.497	0.0150510
783.575	0.0151345
783.654	0.0152859
783.732	0.0152648
783.810	0.0150356
783.888	0.0152603
783.966	0.0151076
784.044	0.0152267
784.122	0.0151518
784.200	0.0151199
784.279	0.0152937
784.357	0.0153286
784.435	0.0152724
784.513	0.0152467
784.591	0.0152848
784.669	0.0154178
784.747	0.0152261
784.825	0.0153203
784.904	0.0152702
784.982	0.0153911
785.060	0.0153319
785.138	0.0152918
785.216	0.0154216
785.294	0.0152880
785.372	0.0154533
785.450	0.0154636
785.529	0.0153400
785.607	0.0154473
785.685	0.0152624
785.763	0.0153529
785.841	0.0154456
785.919	0.0154044
785.997	0.0153464
786.075	0.0153503
786.154	0.0154587
786.232	0.0154652
786.310	0.0152515
786.388	0.0154351
786.466	0.0153539
786.544	0.0153265
786.622	0.0153139
786.700	0.0152528
786.779	0.0154264
786.857	0.0152724
786.935	0.0153320
787.013	0.0152749
787.091	0.0153245
787.169	0.0153654
787.247	0.0153123
787.325	0.0154023
787.404	0.0152410
787.482	0.0153186
787.560	0.0153579
787.638	0.0153279
787.716	0.0153156
787.794	0.0153516
787.872	0.0153540
787.950	0.0153988
788.029	0.0154202
788.107	0.0153799
788.185	0.0153947
788.263	0.0154170
788.341	0.0154408
788.419	0.0155702
788.497	0.0155444
788.575	0.0155213
788.654	0.0154598
788.732	0.0154716
788.810	0.0154770
788.888	0.0155880
788.966	0.0156341
789.044	0.0155453
789.122	0.0157250
789.200	0.0156203
789.279	0.0156098
789.357	0.0156737
789.435	0.0156242
789.513	0.0155487
789.591	0.0155858
789.669	0.0155470
789.747	0.0155979
789.825	0.0156466
789.904	0.0155212
789.982	0.0155757
790.060	0.0155015
790.138	0.0155009
790.216	0.0155898
790.294	0.0155198
790.372	0.0155214
790.450	0.0154606
790.529	0.0153413
790.607	0.0154179
790.685	0.0154826
790.763	0.0153724
790.841	0.0154448
790.919	0.0153925
790.997	0.0154276
791.075	0.0154825
791.154	0.0154396
791.232	0.0153972
791.310	0.0154639
791.388	0.0152823
791.466	0.0153954
791.544	0.0153300
791.622	0.0153374
791.700	0.0152132
791.779	0.0154172
791.857	0.0154372
791.935	0.0153692
792.013	0.0152728
792.091	0.0152341
792.169	0.0153361
792.247	0.0154034
792.325	0.0153133
792.404	0.0152405
792.482	0.0154066
792.560	0.0151958
792.638	0.0153578
792.716	0.0152592
792.794	0.0151346
792.872	0.0151615
792.950	0.0152587
793.029	0.0151836
793.107	0.0152902
793.185	0.0151055
793.263	0.0153561
793.341	0.0151360
793.419	0.0153506
793.497	0.0153522
793.575	0.0152975
793.654	0.0153128
793.732	0.0152206
793.810	0.0152975
793.888	0.0152370
793.966	0.0152184
794.044	0.0154111
794.122	0.0153233
794.200	0.0152649
794.279	0.0151992
794.357	0.0152831
794.435	0.0152336
794.513	0.0152180
794.591	0.0153906
794.669	0.0154621
794.747	0.0153125
794.825	0.0153249
794.904	0.0153626
794.982	0.0152773
795.060	0.0153415
795.138	0.0154179
795.216	0.0153417
795.294	0.0153139
795.372	0.0154494
795.450	0.0154194
795.529	0.0153960
795.607	0.0154102
795.685	0.0154728
795.763	0.0154733
795.841	0.0153614
795.919	0.0154223
795.997	0.0154046
796.075	0.0154156
796.154	0.0154705
796.232	0.0154170
796.310	0.0153711
796.388	0.0154696
796.466	0.0153796
796.544	0.0153037
796.622	0.0153372
796.700	0.0153174
796.779	0.0154444
796.857	0.0155182
796.935	0.0154644
797.013	0.0154774
797.091	0.0152314
797.169	0.0154674
797.247	0.0153934
797.325	0.0152605
797.404	0.0153831
797.482	0.0154402
797.560	0.0152760
797.638	0.0151346
797.716	0.0151613
797.794	0.0154050
797.872	0.0153861
797.950	0.0152591
798.029	0.0154412
798.107	0.0153509
798.185	0.0153300
798.263	0.0152092
798.341	0.0153150
798.419	0.0153043
798.497	0.0152650
798.575	0.0152835
798.654	0.0153050
798.732	0.0153591
798.810	0.0153037
798.888	0.0153172
798.966	0.0152159
799.044	0.0152472
799.122	0.0153146
799.200	0.0154210
799.279	0.0154182
799.357	0.0154622
799.435	0.0153150
799.513	0.0152876
799.591	0.0153273
799.669	0.0154270
799.747	0.0151542
799.825	0.0154572
799.904	0.0153735
799.982	0.0153242
800.060	0.0152744
800.138	0.0154297
800.216	0.0153484
800.294	0.0152967
800.372	0.0154006
800.450	0.0152827
800.529	0.0152905
800.607	0.0153890
800.685	0.0152768
800.763	0.0152592
800.841	0.0152267
800.919	0.0153994
800.997	0.0153138
801.075	0.0152193
801.154	0.0151488
801.232	0.0154059
801.310	0.0154706
801.388	0.0152937
801.466	0.0154645
801.544	0.0153577
801.622	0.0154044
801.700	0.0154738
801.779	0.0154432
801.857	0.0154086
801.935	0.0154395
802.013	0.0153343
802.091	0.0154557
802.169	0.0154874
802.247	0.0153378
802.325	0.0153377
802.404	0.0153981
802.482	0.0154916
802.560	0.0155167
802.638	0.0156102
802.716	0.0155425
802.794	0.0154170
802.872	0.0154884
802.950	0.0154729
803.029	0.0153844
803.107	0.0154419
803.185	0.0154659
803.263	0.0154793
803.341	0.0153386
803.419	0.0154050
803.497	0.0155076
803.575	0.0155669
803.654	0.0153806
803.732	0.0154650
803.810	0.0153585
803.888	0.0154921
803.966	0.0155299
804.044	0.0152682
804.122	0.0153600
804.200	0.0154128
804.279	0.0153053
804.357	0.0153499
804.435	0.0155104
804.513	0.0154967
804.591	0.0153938
804.669	0.0154119
804.747	0.0154417
804.825	0.0154494
804.904	0.0155114
804.982	0.0155271
805.060	0.0153814
805.138	0.0155356
805.216	0.0155003
805.294	0.0154719
805.372	0.0154057
805.450	0.0154423
805.529	0.0155135
805.607	0.0154564
805.685	0.0155518
805.763	0.0154939
805.841	0.0154850
805.919	0.0155862
805.997	0.0156494
806.075	0.0155075
806.154	0.0155847
806.232	0.0155299
806.310	0.0155686
806.388	0.0155399
806.466	0.0154115
806.544	0.0155775
806.622	0.0155418
806.700	0.0155437
806.779	0.0155157
806.857	0.0154489
806.935	0.0155373
807.013	0.0155898
807.091	0.0154445
807.169	0.0156184
807.247	0.0154547
807.325	0.0155598
807.404	0.0153349
807.482	0.0154331
807.560	0.0154169
807.638	0.0154810
807.716	0.0153401
807.794	0.0154324
807.872	0.0155193
807.950	0.0154269
808.029	0.0152904
808.107	0.0154276
808.185	0.0153852
808.263	0.0153055
808.341	0.0153326
808.419	0.0154186
808.497	0.0154181
808.575	0.0154765
808.654	0.0152374
808.732	0.0153259
808.810	0.0153815
808.888	0.0153978
808.966	0.0153943
809.044	0.0153648
809.122	0.0154232
809.200	0.0153793
809.279	0.0152903
809.357	0.0153943
809.435	0.0154672
809.513	0.0153963
809.591	0.0155946
809.669	0.0154177
809.747	0.0154729
809.825	0.0153033
809.904	0.0154685
809.982	0.0155105
810.060	0.0154485
810.138	0.0154443
810.216	0.0152211
810.294	0.0154137
810.372	0.0152963
810.450	0.0153881
810.529	0.0153656
810.607	0.0153884
810.685	0.0153105
810.763	0.0154321
810.841	0.0154211
810.919	0.0153109
810.997	0.0153659
811.075	0.0154631
811.154	0.0153711
811.232	0.0153468
811.310	0.0153965
811.388	0.0152812
811.466	0.0152875
811.544	0.0154168
811.622	0.0152740
811.700	0.0153177
811.779	0.0153856
811.857	0.0153327
811.935	0.0153550
812.013	0.0152647
812.091	0.0154303
812.169	0.0154831
812.247	0.0154660
812.325	0.0154333
812.404	0.0152798
812.482	0.0153796
812.560	0.0153545
812.638	0.0154682
812.716	0.0152823
812.794	0.0154036
812.872	0.0154223
812.950	0.0153742
813.029	0.0154361
813.107	0.0153116
813.185	0.0154008
813.263	0.0154209
813.341	0.0153614
813.419	0.0151908
813.497	0.0152518
813.575	0.0152589
813.654	0.0153604
813.732	0.0154179
813.810	0.0152902
813.888	0.0153011
813.966	0.0155766
814.044	0.0154955
814.122	0.0154496
814.200	0.0154372
814.279	0.0153886
814.357	0.0154740
814.435	0.0154307
814.513	0.0153224
814.591	0.0155573
814.669	0.0153652
814.747	0.0155046
814.825	0.0156113
814.904	0.0155421
814.982	0.0154405
815.060	0.0154742
815.138	0.0153864
815.216	0.0155477
815.294	0.0155235
815.372	0.0154439
815.450	0.0154119
815.529	0.0153128
815.607	0.0153574
815.685	0.0152750
815.763	0.0153913
815.841	0.0153727
815.919	0.0154330
815.997	0.0153234
816.075	0.0153282
816.154	0.0154543
816.232	0.0153458
816.310	0.0152959
816.388	0.0154065
816.466	0.0154178
816.544	0.0154437
816.622	0.0152454
816.700	0.0153559
816.779	0.0153936
816.857	0.0154063
816.935	0.0153271
817.013	0.0155217
817.091	0.0155047
817.169	0.0155331
817.247	0.0153032
817.325	0.0153918
817.404	0.0153264
817.482	0.0153343
817.560	0.0155569
817.638	0.0154330
817.716	0.0154961
817.794	0.0155231
817.872	0.0154914
817.950	0.0154207
818.029	0.0154307
818.107	0.0156044
818.185	0.0154924
818.263	0.0155519
818.341	0.0156080
818.419	0.0154109
818.497	0.0155580
818.575	0.0155161
818.654	0.0156271
818.732	0.0154926
818.810	0.0154828
818.888	0.0154833
818.966	0.0154147
819.044	0.0154321
819.122	0.0153696
819.200	0.0153603
819.279	0.0155830
819.357	0.0154536
819.435	0.0154871
819.513	0.0153564
819.591	0.0152798
819.669	0.0153056
819.747	0.0155434
819.825	0.0153154
819.904	0.0154394
819.982	0.0154352
820.060	0.0154915
820.138	0.0153559
820.216	0.0153657
820.294	0.0153373
820.372	0.0153158
820.450	0.0154830
820.529	0.0153877
820.607	0.0154081
820.685	0.0153664
820.763	0.0154745
820.841	0.0154746
820.919	0.0155425
820.997	0.0154681
821.075	0.0155077
821.154	0.0155676
821.232	0.0154038
821.310	0.0154168
821.388	0.0154932
821.466	0.0153681
821.544	0.0155103
821.622	0.0154458
821.700	0.0154985
821.779	0.0154060
821.857	0.0153815
821.935	0.0154981
822.013	0.0153836
822.091	0.0154774
822.169	0.0154607
822.247	0.0154235
822.325	0.0153535
822.404	0.0153377
822.482	0.0153706
822.560	0.0154495
822.638	0.0154011
822.716	0.0154007
822.794	0.0153413
822.872	0.0153663
822.950	0.0153329
823.029	0.0154076
823.107	0.0155069
823.185	0.0154319
823.263	0.0152967
823.341	0.0154327
823.419	0.0154980
823.497	0.0154002
823.575	0.0155149
823.654	0.0154284
823.732	0.0153923
823.810	0.0155344
823.888	0.0153851
823.966	0.0156233
824.044	0.0155374
824.122	0.0154195
824.200	0.0155486
824.279	0.0157269
824.357	0.0156561
824.435	0.0154260
824.513	0.0155428
824.591	0.0155159
824.669	0.0156164
824.747	0.0155516
824.825	0.0155064
824.904	0.0155941
824.982	0.0155859
825.060	0.0155711
825.138	0.0155258
825.216	0.0155406
825.294	0.0154523
825.372	0.0154502
825.450	0.0154908
825.529	0.0155404
825.607	0.0153454
825.685	0.0152921
825.763	0.0154960
825.841	0.0154679
825.919	0.0153495
825.997	0.0153654
826.075	0.0151472
826.154	0.0152119
826.232	0.0153587
826.310	0.0151895
826.388	0.0152671
826.466	0.0152546
826.544	0.0151553
826.622	0.0152126
826.700	0.0151588
826.779	0.0150679
826.857	0.0151750
826.935	0.0151041
827.013	0.0150948
827.091	0.0152578
827.169	0.0152060
827.247	0.0152007
827.325	0.0152507
827.404	0.0152632
827.482	0.0152043
827.560	0.0152794
827.638	0.0152974
827.716	0.0153124
827.794	0.0152611
827.872	0.0153603
827.950	0.0153562
828.029	0.0153457
828.107	0.0154972
828.185	0.0154530
828.263	0.0154473
828.341	0.0154866
828.419	0.0155880
828.497	0.0156223
828.575	0.0155438
828.654	0.0154515
828.732	0.0155408
828.810	0.0155321
828.888	0.0154655
828.966	0.0155696
829.044	0.0154541
829.122	0.0155408
829.200	0.0154418
829.279	0.0154475
829.357	0.0154501
829.435	0.0155040
829.513	0.0153992
829.591	0.0152994
829.669	0.0154548
829.747	0.0153711
829.825	0.0152512
829.904	0.0154073
829.982	0.0154971
830.060	0.0155063
830.138	0.0154070
830.216	0.0153244
830.294	0.0154791
830.372	0.0155106
830.450	0.0154990
830.529	0.0153648
830.607	0.0154128
830.685	0.0154620
830.763	0.0155398
830.841	0.0155516
830.919	0.0155600
830.997	0.0156087
831.075	0.0156757
831.154	0.0154579
831.232	0.0154607
831.310	0.0155575
831.388	0.0155939
831.466	0.0155689
831.544	0.0155558
831.622	0.0156690
831.700	0.0155539
831.779	0.0155428
831.857	0.0154807
831.935	0.0154018
832.013	0.0155186
832.091	0.0153535
832.169	0.0153683
832.247	0.0152857
832.325	0.0152916
832.404	0.0152705
832.482	0.0152227
832.560	0.0153976
832.638	0.0152503
832.716	0.0150477
832.794	0.0152370
832.872	0.0151487
832.950	0.0152995
833.029	0.0151781
833.107	0.0151499
833.185	0.0151437
833.263	0.0152946
833.341	0.0152644
833.419	0.0153487
833.497	0.0152535
833.575	0.0153182
833.654	0.0152366
833.732	0.0153381
833.810	0.0153280
833.888	0.0153664
833.966	0.0153600
834.044	0.0153920
834.122	0.0152501
834.200	0.0153295
834.279	0.0153484
834.357	0.0154480
834.435	0.0155025
834.513	0.0154186
834.591	0.0154202
834.669	0.0154670
834.747	0.0156000
834.825	0.0155766
834.904	0.0155509
834.982	0.0156378
835.060	0.0155549
835.138	0.0155546
835.216	0.0155264
835.294	0.0154707
835.372	0.0154673
835.450	0.0154391
835.529	0.0155336
835.607	0.0154733
835.685	0.0154209
835.763	0.0154831
835.841	0.0155766
835.919	0.0155824
835.997	0.0156251
836.075	0.0155042
836.154	0.0155693
836.232	0.0156422
836.310	0.0156239
836.388	0.0155920
836.466	0.0154671
836.544	0.0154408
836.622	0.0155247
836.700	0.0156487
836.779	0.0154659
836.857	0.0154227
836.935	0.0154150
837.013	0.0154095
837.091	0.0152811
837.169	0.0152904
837.247	0.0153251
837.325	0.0154246
837.404	0.0152832
837.482	0.0154604
837.560	0.0153532
837.638	0.0153595
837.716	0.0154258
837.794	0.0154941
837.872	0.0154877
837.950	0.0153771
838.029	0.0153801
838.107	0.0154657
838.185	0.0154112
838.263	0.0154497
838.341	0.0155217
838.419	0.0155805
838.497	0.0154993
838.575	0.0155477
838.654	0.0155892
838.732	0.0155815
838.810	0.0155901
838.888	0.0155156
838.966	0.0155833
839.044	0.0156242
839.122	0.0154617
839.200	0.0155162
839.279	0.0155945
839.357	0.0155724
839.435	0.0155234
839.513	0.0154799
839.591	0.0155169
839.669	0.0156251
839.747	0.0154733
839.825	0.0153867
839.904	0.0154673
839.982	0.0154582
840.060	0.0154777
840.138	0.0154389
840.216	0.0152794
840.294	0.0154300
840.372	0.0152494
840.450	0.0152016
840.529	0.0151830
840.607	0.0150921
840.685	0.0152645
840.763	0.0151950
840.841	0.0150806
840.919	0.0150883
840.997	0.0151669
841.075	0.0151318
841.154	0.0150408
841.232	0.0151759
841.310	0.0151868
841.388	0.0152048
841.466	0.0152608
841.544	0.0151247
841.622	0.0152106
841.700	0.0153455
841.779	0.0154476
841.857	0.0152806
841.935	0.0153611
842.013	0.0154287
842.091	0.0153265
842.169	0.0155164
842.247	0.0154574
842.325	0.0154321
842.404	0.0155436
842.482	0.0156149
842.560	0.0155338
842.638	0.0155505
842.716	0.0155820
842.794	0.0155915
842.872	0.0155508
842.950	0.0157274
843.029	0.0155907
843.107	0.0156958
843.185	0.0156654
843.263	0.0155708
843.341	0.0156833
843.419	0.0156258
843.497	0.0156793
843.575	0.0156796
843.654	0.0156712
843.732	0.0155582
843.810	0.0154955
843.888	0.0155479
843.966	0.0155095
844.044	0.0155926
844.122	0.0156184
844.200	0.0155067
844.279	0.0154649
844.357	0.0155318
844.435	0.0154204
844.513	0.0155664
844.591	0.0156010
844.669	0.0155885
844.747	0.0155331
844.825	0.0155078
844.904	0.0153278
844.982	0.0156112
845.060	0.0153606
845.138	0.0153860
845.216	0.0154384
845.294	0.0153987
845.372	0.0154101
845.450	0.0154153
845.529	0.0153268
845.607	0.0153402
845.685	0.0152531
845.763	0.0152313
845.841	0.0153458
845.919	0.0153098
845.997	0.0153371
846.075	0.0153714
846.154	0.0152461
846.232	0.0153940
846.310	0.0154578
846.388	0.0154507
846.466	0.0153029
846.544	0.0154423
846.622	0.0155618
846.700	0.0155766
846.779	0.0155284
846.857	0.0155164
846.935	0.0156792
847.013	0.0156325
847.091	0.0155732
847.169	0.0155383
847.247	0.0155282
847.325	0.0156891
847.404	0.0155185
847.482	0.0156712
847.560	0.0157576
847.638	0.0156589
847.716	0.0155515
847.794	0.0155161
847.872	0.0154897
847.950	0.0154768
848.029	0.0153205
848.107	0.0154935
848.185	0.0153606
848.263	0.0152497
848.341	0.0152086
848.419	0.0153059
848.497	0.0151750
848.575	0.0152267
848.654	0.0152283
848.732	0.0151875
848.810	0.0150639
848.888	0.0153399
848.966	0.0151895
849.044	0.0151305
849.122	0.0151275
849.200	0.0152860
849.279	0.0151728
849.357	0.0152467
849.435	0.0152187
849.513	0.0151862
849.591	0.0153443
849.669	0.0152152
849.747	0.0153194
849.825	0.0152176
849.904	0.0153748
849.982	0.0155724
850.060	0.0154152
850.138	0.0153896
850.216	0.0155863
850.294	0.0156593
850.372	0.0156341
850.450	0.0155728
850.529	0.0155802
850.607	0.0155994
850.685	0.0155250
850.763	0.0155817
850.841	0.0155272
850.919	0.0155840
850.997	0.0155635
851.075	0.0155787
851.154	0.0155885
851.232	0.0155894
851.310	0.0154542
851.388	0.0154845
851.466	0.0155711
851.544	0.0155208
851.622	0.0154389
851.700	0.0153910
851.779	0.0154330
851.857	0.0153702
851.935	0.0154945
852.013	0.0153712
852.091	0.0153382
852.169	0.0155022
852.247	0.0154076
852.325	0.0153309
852.404	0.0153457
852.482	0.0153902
852.560	0.0153741
852.638	0.0152897
852.716	0.0154526
852.794	0.0153436
852.872	0.0152952
852.950	0.0153044
853.029	0.0152497
853.107	0.0153261
853.185	0.0152330
853.263	0.0152685
853.341	0.0152274
853.419	0.0153434
853.497	0.0152367
853.575	0.0151413
853.654	0.0152891
853.732	0.0153130
853.810	0.0153244
853.888	0.0151377
853.966	0.0153840
854.044	0.0154956
854.122	0.0153410
854.200	0.0152796
854.279	0.0154581
854.357	0.0155497
854.435	0.0154431
854.513	0.0155151
854.591	0.0155196
854.669	0.0154355
854.747	0.0154965
854.825	0.0155313
854.904	0.0156232
854.982	0.0154137
855.060	0.0155195
855.138	0.0155589
855.216	0.0154575
855.294	0.0154225
855.372	0.0154050
855.450	0.0154975
855.529	0.0154759
855.607	0.0154070
855.685	0.0154784
855.763	0.0155573
855.841	0.0153667
855.919	0.0153844
855.997	0.0153889
856.075	0.0154083
856.154	0.0154118
856.232	0.0154922
856.310	0.0152750
856.388	0.0155470
856.466	0.0153172
856.544	0.0153467
856.622	0.0153578
856.700	0.0153419
856.779	0.0153146
856.857	0.0153363
856.935	0.0154298
857.013	0.0152768
857.091	0.0153654
857.169	0.0151012
857.247	0.0151865
857.325	0.0151897
857.404	0.0153230
857.482	0.0154112
857.560	0.0153114
857.638	0.0153574
857.716	0.0152914
857.794	0.0152904
857.872	0.0153745
857.950	0.0152360
858.029	0.0154520
858.107	0.0153431
858.185	0.0152367
858.263	0.0152173
858.341	0.0153396
858.419	0.0153291
858.497	0.0153426
858.575	0.0153102
858.654	0.0152993
858.732	0.0153168
858.810	0.0152952
858.888	0.0153107
858.966	0.0154217
859.044	0.0153915
859.122	0.0154540
859.200	0.0154929
859.279	0.0155342
859.357	0.0154715
859.435	0.0155530
859.513	0.0155099
859.591	0.0155907
859.669	0.0156541
859.747	0.0155145
859.825	0.0156734
859.904	0.0154749
859.982	0.0156223
860.060	0.0156271
860.138	0.0156734
860.216	0.0155941
860.294	0.0157229
860.372	0.0156744
860.450	0.0155141
860.529	0.0155907
860.607	0.0155849
860.685	0.0155891
860.763	0.0155525
860.841	0.0155341
860.919	0.0154139
860.997	0.0154008
861.075	0.0153734
861.154	0.0153487
861.232	0.0152023
861.310	0.0152291
861.388	0.0152847
861.466	0.0153567
861.544	0.0153319
861.622	0.0150838
861.700	0.0151301
861.779	0.0152634
861.857	0.0152112
861.935	0.0153371
862.013	0.0152666
862.091	0.0153886
862.169	0.0151894
862.247	0.0153060
862.325	0.0154783
862.404	0.0153965
862.482	0.0154635
862.560	0.0154162
862.638	0.0153876
862.716	0.0155876
862.794	0.0155180
862.872	0.0154367
862.950	0.0154164
863.029	0.0157536
863.107	0.0156012
863.185	0.0156480
863.263	0.0156340
863.341	0.0157133
863.419	0.0156787
863.497	0.0156037
863.575	0.0156393
863.654	0.0155959
863.732	0.0155930
863.810	0.0157531
863.888	0.0154993
863.966	0.0154974
864.044	0.0155391
864.122	0.0155799
864.200	0.0155989
864.279	0.0156130
864.357	0.0154779
864.435	0.0155279
864.513	0.0154221
864.591	0.0154250
864.669	0.0154815
864.747	0.0154126
864.825	0.0155115
864.904	0.0153609
864.982	0.0155062
865.060	0.0155486
865.138	0.0154401
865.216	0.0153590
865.294	0.0154390
865.372	0.0153449
865.450	0.0153002
865.529	0.0155514
865.607	0.0155107
865.685	0.0154324
865.763	0.0153235
865.841	0.0153304
865.919	0.0153538
865.997	0.0153353
866.075	0.0155157
866.154	0.0155312
866.232	0.0153764
866.310	0.0153628
866.388	0.0154868
866.466	0.0154311
866.544	0.0154034
866.622	0.0154465
866.700	0.0155070
866.779	0.0154244
866.857	0.0153067
866.935	0.0153468
867.013	0.0153742
867.091	0.0154857
867.169	0.0153466
867.247	0.0153249
867.325	0.0154153
867.404	0.0153658
867.482	0.0153336
867.560	0.0153957
867.638	0.0154819
867.716	0.0153871
867.794	0.0153391
867.872	0.0155020
867.950	0.0156264
868.029	0.0155013
868.107	0.0155795
868.185	0.0154527
868.263	0.0155102
868.341	0.0155221
868.419	0.0155744
868.497	0.0155318
868.575	0.0154694
868.654	0.0154781
868.732	0.0155566
868.810	0.0154607
868.888	0.0155045
868.966	0.0156181
869.044	0.0153970
869.122	0.0154455
869.200	0.0155904
869.279	0.0155100
869.357	0.0154499
869.435	0.0153428
869.513	0.0154436
869.591	0.0155440
869.669	0.0153422
869.747	0.0153947
869.825	0.0155084
869.904	0.0153799
869.982	0.0153963
870.060	0.0153317
870.138	0.0153648
870.216	0.0153229
870.294	0.0153835
870.372	0.0153161
870.450	0.0152943
870.529	0.0153993
870.607	0.0153298
870.685	0.0152427
870.763	0.0153200
870.841	0.0153954
870.919	0.0153353
870.997	0.0153193
871.075	0.0153229
871.154	0.0152724
871.232	0.0152682
871.310	0.0153589
871.388	0.0154356
871.466	0.0153613
871.544	0.0153432
871.622	0.0152826
871.700	0.0153966
871.779	0.0153767
871.857	0.0153677
871.935	0.0153173
872.013	0.0152508
872.091	0.0151347
872.169	0.0153234
872.247	0.0152863
872.325	0.0153788
872.404	0.0153307
872.482	0.0152377
872.560	0.0153408
872.638	0.0153438
872.716	0.0154896
872.794	0.0154057
872.872	0.0154940
872.950	0.0154203
873.029	0.0155396
873.107	0.0154189
873.185	0.0154440
873.263	0.0155792
873.341	0.0154909
873.419	0.0155420
873.497	0.0155060
873.575	0.0155021
873.654	0.0153675
873.732	0.0155103
873.810	0.0155008
873.888	0.0154105
873.966	0.0155386
874.044	0.0153217
874.122	0.0154037
874.200	0.0153148
874.279	0.0152739
874.357	0.0154028
874.435	0.0154329
874.513	0.0152208
874.591	0.0153207
874.669	0.0152641
874.747	0.0151246
874.825	0.0151752
874.904	0.0151729
874.982	0.0152831
875.060	0.0151825
875.138	0.0153181
875.216	0.0152937
875.294	0.0152731
875.372	0.0153374
875.450	0.0152496
875.529	0.0154045
875.607	0.0153925
875.685	0.0154178
875.763	0.0154238
875.841	0.0155694
875.919	0.0155346
875.997	0.0155087
876.075	0.0154424
876.154	0.0155879
876.232	0.0154929
876.310	0.0154929
876.388	0.0155666
876.466	0.0155518
876.544	0.0154053
876.622	0.0156819
876.700	0.0154306
876.779	0.0153893
876.857	0.0155619
876.935	0.0153960
877.013	0.0153432
877.091	0.0154133
877.169	0.0154137
877.247	0.0152882
877.325	0.0153619
877.404	0.0154650
877.482	0.0153192
877.560	0.0152963
877.638	0.0152959
877.716	0.0152804
877.794	0.0152234
877.872	0.0152374
877.950	0.0152830
878.029	0.0152531
878.107	0.0153916
878.185	0.0153046
878.263	0.0152417
878.341	0.0152621
878.419	0.0153584
878.497	0.0152551
878.575	0.0153555
878.654	0.0153953
878.732	0.0154803
878.810	0.0153334
878.888	0.0154567
878.966	0.0154271
879.044	0.0154520
879.122	0.0155302
879.200	0.0154608
879.279	0.0155008
879.357	0.0154413
879.435	0.0156185
879.513	0.0154299
879.591	0.0153851
879.669	0.0154984
879.747	0.0153747
879.825	0.0153496
879.904	0.0153948
879.982	0.0154704
880.060	0.0155009
880.138	0.0154971
880.216	0.0153939
880.294	0.0154461
880.372	0.0155659
880.450	0.0153518
880.529	0.0153138
880.607	0.0155108
880.685	0.0153717
880.763	0.0154359
880.841	0.0153481
880.919	0.0154027
880.997	0.0153732
881.075	0.0154259
881.154	0.0153997
881.232	0.0154636
881.310	0.0152385
881.388	0.0154211
881.466	0.0153359
881.544	0.0153553
881.622	0.0153878
881.700	0.0154080
881.779	0.0152523
881.857	0.0153932
881.935	0.0153690
882.013	0.0152602
882.091	0.0153761
882.169	0.0154137
882.247	0.0153311
882.325	0.0152295
882.404	0.0152882
882.482	0.0153877
882.560	0.0152700
882.638	0.0153316
882.716	0.0153748
882.794	0.0152376
882.872	0.0152952
882.950	0.0154769
883.029	0.0153793
883.107	0.0153555
883.185	0.0153263
883.263	0.0154331
883.341	0.0152401
883.419	0.0154586
883.497	0.0155486
883.575	0.0156066
883.654	0.0154319
883.732	0.0155811
883.810	0.0154757
883.888	0.0155816
883.966	0.0156670
884.044	0.0154552
884.122	0.0153748
884.200	0.0155226
884.279	0.0154519
884.357	0.0154189
884.435	0.0151978
884.513	0.0153297
884.591	0.0155128
884.669	0.0154159
884.747	0.0152755
884.825	0.0152635
884.904	0.0151786
884.982	0.0152547
885.060	0.0152344
885.138	0.0152944
885.216	0.0153111
885.294	0.0153729
885.372	0.0151176
885.450	0.0152510
885.529	0.0153265
885.607	0.0153470
885.685	0.0152283
885.763	0.0152151
885.841	0.0152299
885.919	0.0151940
885.997	0.0153393
886.075	0.0153008
886.154	0.0152562
886.232	0.0153161
886.310	0.0152921
886.388	0.0154139
886.466	0.0154451
886.544	0.0154749
886.622	0.0154813
886.700	0.0154646
886.779	0.0155109
886.857	0.0155418
886.935	0.0154276
887.013	0.0156206
887.091	0.0154987
887.169	0.0155923
887.247	0.0155250
887.325	0.0155747
887.404	0.0154983
887.482	0.0155334
887.560	0.0156842
887.638	0.0155210
887.716	0.0156006
887.794	0.0155313
887.872	0.0155484
887.950	0.0154342
888.029	0.0155164
888.107	0.0154810
888.185	0.0152465
888.263	0.0155007
888.341	0.0155247
888.419	0.0154010
888.497	0.0154774
888.575	0.0154965
888.654	0.0153898
888.732	0.0154451
888.810	0.0154978
888.888	0.0155033
888.966	0.0155904
889.044	0.0154732
889.122	0.0155768
889.200	0.0156097
889.279	0.0155376
889.357	0.0155124
889.435	0.0155938
889.513	0.0155438
889.591	0.0155881
889.669	0.0156760
889.747	0.0157160
889.825	0.0155885
889.904	0.0155109
889.982	0.0156025
890.060	0.0155627
890.138	0.0155151
890.216	0.0154904
890.294	0.0155647
890.372	0.0154204
890.450	0.0154399
890.529	0.0154404
890.607	0.0155344
890.685	0.0153364
890.763	0.0153149
890.841	0.0153782
890.919	0.0154303
890.997	0.0152953
891.075	0.0153584
891.154	0.0153306
891.232	0.0151870
891.310	0.0152898
891.388	0.0154007
891.466	0.0154625
891.544	0.0153627
891.622	0.0154588
891.700	0.0154742
891.779	0.0154852
891.857	0.0153791
891.935	0.0153558
892.013	0.0153974
892.091	0.0152904
892.169	0.0154714
892.247	0.0154280
892.325	0.0153648
892.404	0.0152933
892.482	0.0153651
892.560	0.0153962
892.638	0.0154420
892.716	0.0154610
892.794	0.0154179
892.872	0.0153651
892.950	0.0154515
893.029	0.0154862
893.107	0.0153825
893.185	0.0152966
893.263	0.0152625
893.341	0.0153330
893.419	0.0154066
893.497	0.0153754
893.575	0.0152586
893.654	0.0153360
893.732	0.0153599
893.810	0.0153547
893.888	0.0153535
893.966	0.0153085
894.044	0.0154501
894.122	0.0153327
894.200	0.0153290
894.279	0.0155126
894.357	0.0153664
894.435	0.0154879
894.513	0.0154999
894.591	0.0155402
894.669	0.0153846
894.747	0.0153049
894.825	0.0154779
894.904	0.0154750
894.982	0.0154383
895.060	0.0154710
895.138	0.0154063
895.216	0.0155502
895.294	0.0155092
895.372	0.0154185
895.450	0.0154760
895.529	0.0153971
895.607	0.0154520
895.685	0.0153872
895.763	0.0153793
895.841	0.0153967
895.919	0.0154629
895.997	0.0154047
896.075	0.0153528
896.154	0.0153298
896.232	0.0154382
896.310	0.0153757
896.388	0.0152918
896.466	0.0154990
896.544	0.0154145
896.622	0.0153387
896.700	0.0152804
896.779	0.0153111
896.857	0.0153599
896.935	0.0153599
897.013	0.0154133
897.091	0.0151760
897.169	0.0151345
897.247	0.0152048
897.325	0.0152626
897.404	0.0152307
897.482	0.0153534
897.560	0.0152870
897.638	0.0151768
897.716	0.0151018
897.794	0.0152085
897.872	0.0153809
897.950	0.0153133
898.029	0.0150911
898.107	0.0152017
898.185	0.0152984
898.263	0.0151642
898.341	0.0151252
898.419	0.0150905
898.497	0.0151173
898.575	0.0151840
898.654	0.0152903
898.732	0.0151660
898.810	0.0152953
898.888	0.0151957
898.966	0.0151628
899.044	0.0152538
899.122	0.0152209
899.200	0.0153628
899.279	0.0151196
899.357	0.0152084
899.435	0.0151201
899.513	0.0153268
899.591	0.0153618
899.669	0.0152003
899.747	0.0153318
899.825	0.0152152
899.904	0.0152801
899.982	0.0152454
900.060	0.0152796
900.138	0.0153580
900.216	0.0154074
900.294	0.0153137
900.372	0.0154192
900.450	0.0155063
900.529	0.0152925
900.607	0.0152969
900.685	0.0153236
900.763	0.0153735
900.841	0.0152473
900.919	0.0153922
900.997	0.0153426
901.075	0.0152899
901.154	0.0153416
901.232	0.0152533
901.310	0.0152917
901.388	0.0154078
901.466	0.0152995
901.544	0.0152795
901.622	0.0152580
901.700	0.0152961
901.779	0.0152908
901.857	0.0154768
901.935	0.0154589
902.013	0.0155130
902.091	0.0155000
902.169	0.0155931
902.247	0.0155124
902.325	0.0155868
902.404	0.0154975
902.482	0.0155373
902.560	0.0154118
902.638	0.0154502
902.716	0.0155202
902.794	0.0155727
902.872	0.0154050
902.950	0.0153889
903.029	0.0155301
903.107	0.0155669
903.185	0.0155918
903.263	0.0154812
903.341	0.0152605
903.419	0.0154054
903.497	0.0153386
903.575	0.0154082
903.654	0.0153945
903.732	0.0152894
903.810	0.0151873
903.888	0.0153418
903.966	0.0153780
904.044	0.0152022
904.122	0.0151651
904.200	0.0151871
904.279	0.0151305
904.357	0.0151389
904.435	0.0150855
904.513	0.0150089
904.591	0.0151063
904.669	0.0151546
904.747	0.0152121
904.825	0.0150883
904.904	0.0152712
904.982	0.0152984
905.060	0.0151741
905.138	0.0151272
905.216	0.0151414
905.294	0.0151723
905.372	0.0151540
905.450	0.0150883
905.529	0.0151356
905.607	0.0152212
905.685	0.0152081
905.763	0.0151898
905.841	0.0152380
905.919	0.0152059
905.997	0.0153223
906.075	0.0153819
906.154	0.0152725
906.232	0.0151499
906.310	0.0153091
906.388	0.0153188
906.466	0.0151820
906.544	0.0151309
906.622	0.0152637
906.700	0.0151910
906.779	0.0154141
906.857	0.0153149
906.935	0.0153834
907.013	0.0153389
907.091	0.0153612
907.169	0.0153490
907.247	0.0155325
907.325	0.0154059
907.404	0.0154232
907.482	0.0154323
907.560	0.0154308
907.638	0.0155355
907.716	0.0154983
907.794	0.0154976
907.872	0.0155174
907.950	0.0155537
908.029	0.0155601
908.107	0.0155038
908.185	0.0155671
908.263	0.0156194
908.341	0.0154257
908.419	0.0154704
908.497	0.0155464
908.575	0.0156815
908.654	0.0156284
908.732	0.0155365
908.810	0.0155257
908.888	0.0154228
908.966	0.0153757
909.044	0.0154556
909.122	0.0154310
909.200	0.0153773
909.279	0.0154665
909.357	0.0154432
909.435	0.0154375
909.513	0.0154760
909.591	0.0154926
909.669	0.0155188
909.747	0.0154063
909.825	0.0154271
909.904	0.0152996
909.982	0.0154729
910.060	0.0153788
910.138	0.0152506
910.216	0.0153961
910.294	0.0153445
910.372	0.0155161
910.450	0.0152827
910.529	0.0153840
910.607	0.0153619
910.685	0.0153152
910.763	0.0153291
910.841	0.0154095
910.919	0.0154199
910.997	0.0153815
911.075	0.0153316
911.154	0.0152779
911.232	0.0153689
911.310	0.0154208
911.388	0.0153524
911.466	0.0153466
911.544	0.0155052
911.622	0.0155378
911.700	0.0154268
911.779	0.0155205
911.857	0.0153886
911.935	0.0155108
912.013	0.0154294
912.091	0.0153148
912.169	0.0153865
912.247	0.0155022
912.325	0.0154102
912.404	0.0154159
912.482	0.0152073
912.560	0.0155555
912.638	0.0155328
912.716	0.0154952
912.794	0.0153662
912.872	0.0154721
912.950	0.0155986
913.029	0.0154104
913.107	0.0155190
913.185	0.0155065
913.263	0.0154392
913.341	0.0153340
913.419	0.0154485
913.497	0.0153944
913.575	0.0154729
913.654	0.0153963
913.732	0.0153054
913.810	0.0153226
913.888	0.0152844
913.966	0.0154353
914.044	0.0152960
914.122	0.0153533
914.200	0.0154476
914.279	0.0153889
914.357	0.0152621
914.435	0.0153277
914.513	0.0152293
914.591	0.0152830
914.669	0.0153986
914.747	0.0152407
914.825	0.0153091
914.904	0.0152476
914.982	0.0153860
915.060	0.0153008
915.138	0.0153985
915.216	0.0154311
915.294	0.0152661
915.372	0.0153859
915.450	0.0153451
915.529	0.0153010
915.607	0.0155435
915.685	0.0154045
915.763	0.0154486
915.841	0.0154267
915.919	0.0155058
915.997	0.0154832
916.075	0.0152614
916.154	0.0153377
916.232	0.0154642
916.310	0.0153994
916.388	0.0154793
916.466	0.0154577
916.544	0.0154809
916.622	0.0154513
916.700	0.0154299
916.779	0.0155225
916.857	0.0154375
916.935	0.0153542
917.013	0.0153867
917.091	0.0155644
917.169	0.0155442
917.247	0.0155987
917.325	0.0155463
917.404	0.0155476
917.482	0.0153421
917.560	0.0155111
917.638	0.0154810
917.716	0.0155079
917.794	0.0153752
917.872	0.0156149
917.950	0.0156094
918.029	0.0154349
918.107	0.0154401
918.185	0.0154671
918.263	0.0154967
918.341	0.0155612
918.419	0.0155856
918.497	0.0155788
918.575	0.0155533
918.654	0.0155251
918.732	0.0155376
918.810	0.0154699
918.888	0.0154414
918.966	0.0153642
919.044	0.0154768
919.122	0.0154728
919.200	0.0154041
919.279	0.0153149
919.357	0.0153851
919.435	0.0153692
919.513	0.0152940
919.591	0.0153270
919.669	0.0152731
919.747	0.0151129
919.825	0.0153095
919.904	0.0151923
