05/24/2022	20:45:01	Ver.	4.1	UNKNOWN
Optical Delay	599.981738	Delta X		0.078125	Sweeps	1	Scan Rate	0/0
Coordinates	Axis 1	NaN	Axis 2	NaN	Axis 3	NaN	Axis 4	NaN	Axis 5	NaN	Axis 6	0.000000
TX Power	0.000000	RX Power	0.000000

599.982	0.0163371
600.060	0.0162086
600.138	0.0163303
600.216	0.0164223
600.294	0.0162143
600.372	0.0162380
600.450	0.0163142
600.529	0.0162537
600.607	0.0164345
600.685	0.0164612
600.763	0.0163950
600.841	0.0163298
600.919	0.0162629
600.997	0.0163142
601.075	0.0162610
601.154	0.0163380
601.232	0.0164541
601.310	0.0163252
601.388	0.0162431
601.466	0.0161707
601.544	0.0162408
601.622	0.0163056
601.700	0.0162606
601.779	0.0161611
601.857	0.0162052
601.935	0.0161765
602.013	0.0163816
602.091	0.0164304
602.169	0.0162079
602.247	0.0161605
602.325	0.0163214
602.404	0.0162531
602.482	0.0163042
602.560	0.0162588
602.638	0.0163875
602.716	0.0163174
602.794	0.0162194
602.872	0.0163864
602.950	0.0162737
603.029	0.0163078
603.107	0.0162173
603.185	0.0162070
603.263	0.0163741
603.341	0.0164101
603.419	0.0163066
603.497	0.0163115
603.575	0.0163551
603.654	0.0163403
603.732	0.0162803
603.810	0.0162164
603.888	0.0163422
603.966	0.0162066
604.044	0.0163111
604.122	0.0164226
604.200	0.0164579
604.279	0.0164365
604.357	0.0162997
604.435	0.0163819
604.513	0.0164111
604.591	0.0163562
604.669	0.0162735
604.747	0.0163794
604.825	0.0164384
604.904	0.0163750
604.982	0.0162404
605.060	0.0161461
605.138	0.0159877
605.216	0.0161297
605.294	0.0161047
605.372	0.0160768
605.450	0.0161755
605.529	0.0160367
605.607	0.0161815
605.685	0.0162154
605.763	0.0162064
605.841	0.0161844
605.919	0.0162402
605.997	0.0163129
606.075	0.0164283
606.154	0.0164361
606.232	0.0162665
606.310	0.0163853
606.388	0.0164690
606.466	0.0164774
606.544	0.0164629
606.622	0.0163414
606.700	0.0165589
606.779	0.0164984
606.857	0.0165242
606.935	0.0164698
607.013	0.0164675
607.091	0.0166502
607.169	0.0166075
607.247	0.0165549
607.325	0.0164156
607.404	0.0165635
607.482	0.0165019
607.560	0.0165891
607.638	0.0163701
607.716	0.0164320
607.794	0.0165085
607.872	0.0164692
607.950	0.0164520
608.029	0.0164230
608.107	0.0164908
608.185	0.0165533
608.263	0.0164552
608.341	0.0164883
608.419	0.0164821
608.497	0.0165228
608.575	0.0165772
608.654	0.0164330
608.732	0.0164471
608.810	0.0165099
608.888	0.0162923
608.966	0.0166051
609.044	0.0165411
609.122	0.0163773
609.200	0.0163673
609.279	0.0164063
609.357	0.0165253
609.435	0.0164533
609.513	0.0165493
609.591	0.0165145
609.669	0.0163977
609.747	0.0163951
609.825	0.0163924
609.904	0.0163976
609.982	0.0164394
610.060	0.0165460
610.138	0.0166177
610.216	0.0164724
610.294	0.0163408
610.372	0.0164697
610.450	0.0165348
610.529	0.0164085
610.607	0.0164500
610.685	0.0163447
610.763	0.0164402
610.841	0.0164156
610.919	0.0163657
610.997	0.0164389
611.075	0.0162991
611.154	0.0163345
611.232	0.0162859
611.310	0.0163197
611.388	0.0163271
611.466	0.0162203
611.544	0.0162917
611.622	0.0163975
611.700	0.0165282
611.779	0.0164079
611.857	0.0163869
611.935	0.0163627
612.013	0.0163379
612.091	0.0165266
612.169	0.0163517
612.247	0.0162112
612.325	0.0163747
612.404	0.0163876
612.482	0.0163294
612.560	0.0162354
612.638	0.0163607
612.716	0.0161380
612.794	0.0163402
612.872	0.0161531
612.950	0.0162411
613.029	0.0161414
613.107	0.0161210
613.185	0.0162032
613.263	0.0162054
613.341	0.0161486
613.419	0.0163869
613.497	0.0161893
613.575	0.0162187
613.654	0.0163696
613.732	0.0162018
613.810	0.0162453
613.888	0.0162745
613.966	0.0163181
614.044	0.0163776
614.122	0.0162983
614.200	0.0164875
614.279	0.0165066
614.357	0.0166248
614.435	0.0164697
614.513	0.0163200
614.591	0.0165162
614.669	0.0164959
614.747	0.0163760
614.825	0.0165227
614.904	0.0164489
614.982	0.0163063
615.060	0.0162934
615.138	0.0162926
615.216	0.0162207
615.294	0.0163055
615.372	0.0161658
615.450	0.0161463
615.529	0.0162650
615.607	0.0160117
615.685	0.0162302
615.763	0.0162199
615.841	0.0162421
615.919	0.0163602
615.997	0.0162424
616.075	0.0162903
616.154	0.0161681
616.232	0.0163720
616.310	0.0162952
616.388	0.0163725
616.466	0.0164167
616.544	0.0162650
616.622	0.0162550
616.700	0.0163804
616.779	0.0162115
616.857	0.0161545
616.935	0.0161771
617.013	0.0163009
617.091	0.0162369
617.169	0.0162595
617.247	0.0162491
617.325	0.0163007
617.404	0.0163122
617.482	0.0162228
617.560	0.0165060
617.638	0.0164286
617.716	0.0164275
617.794	0.0163447
617.872	0.0164787
617.950	0.0165485
618.029	0.0165390
618.107	0.0163852
618.185	0.0164865
618.263	0.0163228
618.341	0.0163017
618.419	0.0164231
618.497	0.0163144
618.575	0.0160908
618.654	0.0160676
618.732	0.0159988
618.810	0.0160654
618.888	0.0160590
618.966	0.0161819
619.044	0.0161527
619.122	0.0160069
619.200	0.0161916
619.279	0.0162951
619.357	0.0162992
619.435	0.0162837
619.513	0.0163671
619.591	0.0163622
619.669	0.0164392
619.747	0.0165527
619.825	0.0165874
619.904	0.0166129
619.982	0.0165092
620.060	0.0163989
620.138	0.0164479
620.216	0.0165171
620.294	0.0164243
620.372	0.0163574
620.450	0.0161666
620.529	0.0163318
620.607	0.0161609
620.685	0.0162924
620.763	0.0162752
620.841	0.0162419
620.919	0.0164407
620.997	0.0163831
621.075	0.0164803
621.154	0.0164289
621.232	0.0166119
621.310	0.0166135
621.388	0.0165474
621.466	0.0166441
621.544	0.0166050
621.622	0.0165693
621.700	0.0164803
621.779	0.0165319
621.857	0.0163016
621.935	0.0164828
622.013	0.0164323
622.091	0.0163894
622.169	0.0163610
622.247	0.0163998
622.325	0.0163058
622.404	0.0163665
622.482	0.0163375
622.560	0.0162170
622.638	0.0162278
622.716	0.0162380
622.794	0.0160807
622.872	0.0160724
622.950	0.0160229
623.029	0.0158755
623.107	0.0158397
623.185	0.0158253
623.263	0.0155805
623.341	0.0157469
623.419	0.0155840
623.497	0.0155805
623.575	0.0156936
623.654	0.0158031
623.732	0.0158210
623.810	0.0158824
623.888	0.0161013
623.966	0.0161286
624.044	0.0163751
624.122	0.0163686
624.200	0.0166009
624.279	0.0165884
624.357	0.0165536
624.435	0.0166724
624.513	0.0168393
624.591	0.0169393
624.669	0.0171404
624.747	0.0170120
624.825	0.0170872
624.904	0.0171373
624.982	0.0171345
625.060	0.0171306
625.138	0.0170839
625.216	0.0170195
625.294	0.0170011
625.372	0.0168674
625.450	0.0168195
625.529	0.0166817
625.607	0.0165285
625.685	0.0165172
625.763	0.0163093
625.841	0.0162499
625.919	0.0161186
625.997	0.0158864
626.075	0.0157021
626.154	0.0156038
626.232	0.0156460
626.310	0.0155119
626.388	0.0153414
626.466	0.0153675
626.544	0.0154884
626.622	0.0154420
626.700	0.0153561
626.779	0.0153662
626.857	0.0153959
626.935	0.0154780
627.013	0.0156782
627.091	0.0155710
627.169	0.0157037
627.247	0.0158597
627.325	0.0159827
627.404	0.0159683
627.482	0.0161692
627.560	0.0163871
627.638	0.0164659
627.716	0.0166943
627.794	0.0168736
627.872	0.0171396
627.950	0.0171020
628.029	0.0174004
628.107	0.0175116
628.185	0.0176400
628.263	0.0177644
628.341	0.0179862
628.419	0.0180888
628.497	0.0179893
628.575	0.0179517
628.654	0.0177097
628.732	0.0177796
628.810	0.0176987
628.888	0.0175219
628.966	0.0174719
629.044	0.0173207
629.122	0.0171177
629.200	0.0169466
629.279	0.0167934
629.357	0.0165344
629.435	0.0163810
629.513	0.0162518
629.591	0.0159907
629.669	0.0158108
629.747	0.0158178
629.825	0.0153203
629.904	0.0151616
629.982	0.0150146
630.060	0.0147040
630.138	0.0146217
630.216	0.0143552
630.294	0.0141770
630.372	0.0141299
630.450	0.0139336
630.529	0.0138830
630.607	0.0141146
630.685	0.0141099
630.763	0.0141415
630.841	0.0143215
630.919	0.0144447
630.997	0.0146622
631.075	0.0149141
631.154	0.0151966
631.232	0.0154755
631.310	0.0160216
631.388	0.0163005
631.466	0.0165782
631.544	0.0169895
631.622	0.0171955
631.700	0.0175243
631.779	0.0179009
631.857	0.0182464
631.935	0.0184171
632.013	0.0187277
632.091	0.0189509
632.169	0.0192079
632.247	0.0193443
632.325	0.0193630
632.404	0.0193008
632.482	0.0193254
632.560	0.0193021
632.638	0.0192570
632.716	0.0191516
632.794	0.0188815
632.872	0.0186639
632.950	0.0183735
633.029	0.0180737
633.107	0.0178130
633.185	0.0173946
633.263	0.0170673
633.341	0.0164884
633.419	0.0160751
633.497	0.0158685
633.575	0.0154720
633.654	0.0151064
633.732	0.0147469
633.810	0.0143839
633.888	0.0141479
633.966	0.0139780
634.044	0.0137807
634.122	0.0136004
634.200	0.0133928
634.279	0.0132757
634.357	0.0132772
634.435	0.0130876
634.513	0.0133048
634.591	0.0133866
634.669	0.0134043
634.747	0.0134715
634.825	0.0137668
634.904	0.0141061
634.982	0.0143607
635.060	0.0146468
635.138	0.0150008
635.216	0.0155151
635.294	0.0159007
635.372	0.0161709
635.450	0.0165434
635.529	0.0168876
635.607	0.0173305
635.685	0.0176472
635.763	0.0179789
635.841	0.0183597
635.919	0.0186912
635.997	0.0187933
636.075	0.0188349
636.154	0.0191072
636.232	0.0191869
636.310	0.0192749
636.388	0.0191267
636.466	0.0190901
636.544	0.0190594
636.622	0.0187813
636.700	0.0186556
636.779	0.0185366
636.857	0.0183525
636.935	0.0178775
637.013	0.0177460
637.091	0.0174674
637.169	0.0172369
637.247	0.0170681
637.325	0.0168945
637.404	0.0164623
637.482	0.0163797
637.560	0.0162904
637.638	0.0161344
637.716	0.0158198
637.794	0.0156812
637.872	0.0155172
637.950	0.0152947
638.029	0.0150082
638.107	0.0150787
638.185	0.0150506
638.263	0.0147944
638.341	0.0150060
638.419	0.0149129
638.497	0.0147553
638.575	0.0148489
638.654	0.0148844
638.732	0.0150198
638.810	0.0148924
638.888	0.0151577
638.966	0.0151647
639.044	0.0151831
639.122	0.0152375
639.200	0.0152138
639.279	0.0152223
639.357	0.0153391
639.435	0.0151983
639.513	0.0153416
639.591	0.0154220
639.669	0.0155239
639.747	0.0157569
639.825	0.0159985
639.904	0.0160916
639.982	0.0163663
640.060	0.0165205
640.138	0.0167442
640.216	0.0168125
640.294	0.0169930
640.372	0.0170114
640.450	0.0171512
640.529	0.0172492
640.607	0.0170889
640.685	0.0171842
640.763	0.0173039
640.841	0.0172707
640.919	0.0173656
640.997	0.0173544
641.075	0.0174804
641.154	0.0175520
641.232	0.0176822
641.310	0.0177650
641.388	0.0176923
641.466	0.0178537
641.544	0.0177757
641.622	0.0178326
641.700	0.0180553
641.779	0.0179498
641.857	0.0176777
641.935	0.0175352
642.013	0.0174377
642.091	0.0173821
642.169	0.0172721
642.247	0.0169595
642.325	0.0167955
642.404	0.0166450
642.482	0.0165717
642.560	0.0163482
642.638	0.0164156
642.716	0.0163082
642.794	0.0161830
642.872	0.0161160
642.950	0.0160021
643.029	0.0157263
643.107	0.0156773
643.185	0.0156258
643.263	0.0154163
643.341	0.0154989
643.419	0.0153443
643.497	0.0151660
643.575	0.0151810
643.654	0.0152121
643.732	0.0151116
643.810	0.0151378
643.888	0.0153007
643.966	0.0151170
644.044	0.0149946
644.122	0.0152238
644.200	0.0150918
644.279	0.0151735
644.357	0.0151913
644.435	0.0152704
644.513	0.0154224
644.591	0.0154943
644.669	0.0155180
644.747	0.0156578
644.825	0.0158343
644.904	0.0159217
644.982	0.0160207
645.060	0.0159986
645.138	0.0162509
645.216	0.0164588
645.294	0.0165084
645.372	0.0166396
645.450	0.0165937
645.529	0.0167272
645.607	0.0167448
645.685	0.0167840
645.763	0.0169283
645.841	0.0169712
645.919	0.0169769
645.997	0.0171006
646.075	0.0170892
646.154	0.0169697
646.232	0.0171023
646.310	0.0170539
646.388	0.0169498
646.466	0.0169318
646.544	0.0169791
646.622	0.0168535
646.700	0.0168470
646.779	0.0167966
646.857	0.0169236
646.935	0.0166026
647.013	0.0166179
647.091	0.0165431
647.169	0.0163593
647.247	0.0165519
647.325	0.0166457
647.404	0.0165141
647.482	0.0165611
647.560	0.0165730
647.638	0.0166186
647.716	0.0165561
647.794	0.0166283
647.872	0.0166438
647.950	0.0164247
648.029	0.0163383
648.107	0.0162214
648.185	0.0162718
648.263	0.0162156
648.341	0.0160344
648.419	0.0159499
648.497	0.0160281
648.575	0.0159644
648.654	0.0160490
648.732	0.0159390
648.810	0.0159352
648.888	0.0159383
648.966	0.0160329
649.044	0.0160034
649.122	0.0159222
649.200	0.0158198
649.279	0.0156439
649.357	0.0154373
649.435	0.0152899
649.513	0.0151484
649.591	0.0147242
649.669	0.0145309
649.747	0.0144554
649.825	0.0144838
649.904	0.0143217
649.982	0.0142514
650.060	0.0142458
650.138	0.0143531
650.216	0.0144845
650.294	0.0147651
650.372	0.0149760
650.450	0.0151785
650.529	0.0153429
650.607	0.0155636
650.685	0.0157968
650.763	0.0162805
650.841	0.0166190
650.919	0.0168777
650.997	0.0171299
651.075	0.0174570
651.154	0.0178318
651.232	0.0182073
651.310	0.0181747
651.388	0.0186112
651.466	0.0189677
651.544	0.0191100
651.622	0.0191322
651.700	0.0192732
651.779	0.0192917
651.857	0.0192540
651.935	0.0191576
652.013	0.0190560
652.091	0.0189883
652.169	0.0188024
652.247	0.0184048
652.325	0.0181029
652.404	0.0178803
652.482	0.0176714
652.560	0.0173044
652.638	0.0167717
652.716	0.0164233
652.794	0.0160681
652.872	0.0156621
652.950	0.0151309
653.029	0.0146550
653.107	0.0143092
653.185	0.0138039
653.263	0.0136295
653.341	0.0133270
653.419	0.0131992
653.497	0.0130870
653.575	0.0130728
653.654	0.0129642
653.732	0.0130093
653.810	0.0132069
653.888	0.0134627
653.966	0.0138116
654.044	0.0141425
654.122	0.0145420
654.200	0.0149787
654.279	0.0154150
654.357	0.0159938
654.435	0.0163499
654.513	0.0167386
654.591	0.0173705
654.669	0.0177805
654.747	0.0181052
654.825	0.0184327
654.904	0.0186901
654.982	0.0188764
655.060	0.0190713
655.138	0.0191090
655.216	0.0191074
655.294	0.0191172
655.372	0.0187873
655.450	0.0186069
655.529	0.0182877
655.607	0.0179773
655.685	0.0176993
655.763	0.0175196
655.841	0.0171604
655.919	0.0168171
655.997	0.0166856
656.075	0.0163343
656.154	0.0161167
656.232	0.0158873
656.310	0.0156953
656.388	0.0155743
656.466	0.0152993
656.544	0.0151633
656.622	0.0148887
656.700	0.0149443
656.779	0.0151265
656.857	0.0148608
656.935	0.0147915
657.013	0.0149799
657.091	0.0150700
657.169	0.0151465
657.247	0.0152690
657.325	0.0154862
657.404	0.0156548
657.482	0.0159760
657.560	0.0161825
657.638	0.0162238
657.716	0.0163821
657.794	0.0165054
657.872	0.0167838
657.950	0.0168357
658.029	0.0169727
658.107	0.0170344
658.185	0.0168824
658.263	0.0169646
658.341	0.0169185
658.419	0.0170435
658.497	0.0170280
658.575	0.0167695
658.654	0.0165707
658.732	0.0165476
658.810	0.0164873
658.888	0.0163457
658.966	0.0162478
659.044	0.0160281
659.122	0.0159746
659.200	0.0159230
659.279	0.0158025
659.357	0.0157201
659.435	0.0156589
659.513	0.0157174
659.591	0.0157066
659.669	0.0157527
659.747	0.0159151
659.825	0.0159959
659.904	0.0160664
659.982	0.0162543
660.060	0.0163390
660.138	0.0163267
660.216	0.0164370
660.294	0.0165915
660.372	0.0167966
660.450	0.0167603
660.529	0.0167684
660.607	0.0166843
660.685	0.0166868
660.763	0.0167841
660.841	0.0165969
660.919	0.0167242
660.997	0.0168690
661.075	0.0167730
661.154	0.0167796
661.232	0.0168265
661.310	0.0167323
661.388	0.0167652
661.466	0.0166676
661.544	0.0166399
661.622	0.0169076
661.700	0.0167161
661.779	0.0164891
661.857	0.0164384
661.935	0.0165170
662.013	0.0164619
662.091	0.0165004
662.169	0.0163261
662.247	0.0163403
662.325	0.0163092
662.404	0.0161480
662.482	0.0162710
662.560	0.0164726
662.638	0.0165213
662.716	0.0163749
662.794	0.0164194
662.872	0.0162903
662.950	0.0164332
663.029	0.0163643
663.107	0.0162006
663.185	0.0161834
663.263	0.0162255
663.341	0.0159737
663.419	0.0159879
663.497	0.0160099
663.575	0.0158472
663.654	0.0157367
663.732	0.0158281
663.810	0.0158354
663.888	0.0157024
663.966	0.0156822
664.044	0.0155635
664.122	0.0155332
664.200	0.0155531
664.279	0.0155138
664.357	0.0154572
664.435	0.0156252
664.513	0.0157925
664.591	0.0158166
664.669	0.0156110
664.747	0.0158649
664.825	0.0159990
664.904	0.0160412
664.982	0.0162469
665.060	0.0163520
665.138	0.0164480
665.216	0.0166393
665.294	0.0166746
665.372	0.0167999
665.450	0.0168195
665.529	0.0169477
665.607	0.0169688
665.685	0.0170355
665.763	0.0169734
665.841	0.0170754
665.919	0.0168597
665.997	0.0169280
666.075	0.0168465
666.154	0.0165868
666.232	0.0165105
666.310	0.0163856
666.388	0.0162774
666.466	0.0162705
666.544	0.0162228
666.622	0.0160804
666.700	0.0159613
666.779	0.0159307
666.857	0.0160219
666.935	0.0160346
667.013	0.0160270
667.091	0.0163512
667.169	0.0163653
667.247	0.0166537
667.325	0.0166560
667.404	0.0168361
667.482	0.0169153
667.560	0.0170249
667.638	0.0172147
667.716	0.0172324
667.794	0.0171791
667.872	0.0173482
667.950	0.0173367
668.029	0.0171736
668.107	0.0172502
668.185	0.0171246
668.263	0.0169953
668.341	0.0170495
668.419	0.0169255
668.497	0.0169014
668.575	0.0168120
668.654	0.0167052
668.732	0.0167051
668.810	0.0167258
668.888	0.0166022
668.966	0.0164897
669.044	0.0164000
669.122	0.0162880
669.200	0.0161692
669.279	0.0159203
669.357	0.0157777
669.435	0.0156565
669.513	0.0152517
669.591	0.0151574
669.669	0.0149039
669.747	0.0148251
669.825	0.0146316
669.904	0.0144488
669.982	0.0144969
670.060	0.0144899
670.138	0.0144806
670.216	0.0145576
670.294	0.0146114
670.372	0.0147486
670.450	0.0148946
670.529	0.0149798
670.607	0.0153162
670.685	0.0155054
670.763	0.0154902
670.841	0.0156364
670.919	0.0159362
670.997	0.0158920
671.075	0.0160729
671.154	0.0163062
671.232	0.0162853
671.310	0.0164223
671.388	0.0167062
671.466	0.0168935
671.544	0.0167640
671.622	0.0168706
671.700	0.0170520
671.779	0.0171731
671.857	0.0171371
671.935	0.0172734
672.013	0.0172660
672.091	0.0172826
672.169	0.0173209
672.247	0.0172913
672.325	0.0172825
672.404	0.0174157
672.482	0.0172735
672.560	0.0171252
672.638	0.0172047
672.716	0.0173863
672.794	0.0173095
672.872	0.0173346
672.950	0.0171956
673.029	0.0173671
673.107	0.0173891
673.185	0.0173693
673.263	0.0175587
673.341	0.0172861
673.419	0.0175155
673.497	0.0173952
673.575	0.0172098
673.654	0.0174237
673.732	0.0171789
673.810	0.0170604
673.888	0.0171379
673.966	0.0169873
674.044	0.0167677
674.122	0.0165430
674.200	0.0163348
674.279	0.0163003
674.357	0.0160464
674.435	0.0159167
674.513	0.0156042
674.591	0.0154742
674.669	0.0152962
674.747	0.0150771
674.825	0.0149255
674.904	0.0148014
674.982	0.0146243
675.060	0.0144164
675.138	0.0143936
675.216	0.0144664
675.294	0.0142866
675.372	0.0141361
675.450	0.0143353
675.529	0.0141061
675.607	0.0141894
675.685	0.0143467
675.763	0.0144157
675.841	0.0143226
675.919	0.0145239
675.997	0.0145400
676.075	0.0147282
676.154	0.0148717
676.232	0.0151891
676.310	0.0153132
676.388	0.0156059
676.466	0.0159483
676.544	0.0162825
676.622	0.0163455
676.700	0.0167117
676.779	0.0168634
676.857	0.0172125
676.935	0.0173888
677.013	0.0175844
677.091	0.0175243
677.169	0.0177834
677.247	0.0178484
677.325	0.0178865
677.404	0.0178852
677.482	0.0178155
677.560	0.0176912
677.638	0.0175546
677.716	0.0176001
677.794	0.0175241
677.872	0.0172372
677.950	0.0172576
678.029	0.0171118
678.107	0.0170078
678.185	0.0169783
678.263	0.0168478
678.341	0.0167194
678.419	0.0166320
678.497	0.0164864
678.575	0.0164788
678.654	0.0164455
678.732	0.0161754
678.810	0.0160894
678.888	0.0160247
678.966	0.0158719
679.044	0.0157628
679.122	0.0156976
679.200	0.0156931
679.279	0.0155694
679.357	0.0154404
679.435	0.0154224
679.513	0.0156081
679.591	0.0153863
679.669	0.0156681
679.747	0.0155627
679.825	0.0156919
679.904	0.0157701
679.982	0.0158289
680.060	0.0160685
680.138	0.0160315
680.216	0.0161581
680.294	0.0164243
680.372	0.0165121
680.450	0.0165901
680.529	0.0167017
680.607	0.0166946
680.685	0.0166854
680.763	0.0166154
680.841	0.0166189
680.919	0.0167548
680.997	0.0167458
681.075	0.0167184
681.154	0.0168909
681.232	0.0166456
681.310	0.0167672
681.388	0.0168737
681.466	0.0170229
681.544	0.0169965
681.622	0.0167942
681.700	0.0169730
681.779	0.0169603
681.857	0.0167404
681.935	0.0166921
682.013	0.0165485
682.091	0.0164398
682.169	0.0162792
682.247	0.0161504
682.325	0.0159912
682.404	0.0158961
682.482	0.0156209
682.560	0.0155183
682.638	0.0154115
682.716	0.0152048
682.794	0.0151865
682.872	0.0152326
682.950	0.0151049
683.029	0.0151443
683.107	0.0150751
683.185	0.0151520
683.263	0.0153231
683.341	0.0153670
683.419	0.0152301
683.497	0.0154108
683.575	0.0154818
683.654	0.0155216
683.732	0.0155727
683.810	0.0158563
683.888	0.0159718
683.966	0.0162366
684.044	0.0163882
684.122	0.0164538
684.200	0.0166901
684.279	0.0167547
684.357	0.0169575
684.435	0.0171288
684.513	0.0174200
684.591	0.0174548
684.669	0.0175811
684.747	0.0176682
684.825	0.0177950
684.904	0.0178052
684.982	0.0179111
685.060	0.0177204
685.138	0.0177152
685.216	0.0175822
685.294	0.0175404
685.372	0.0173417
685.450	0.0173956
685.529	0.0171110
685.607	0.0169366
685.685	0.0166682
685.763	0.0165498
685.841	0.0164014
685.919	0.0162733
685.997	0.0158701
686.075	0.0157175
686.154	0.0157242
686.232	0.0154978
686.310	0.0154613
686.388	0.0152454
686.466	0.0151025
686.544	0.0151019
686.622	0.0151026
686.700	0.0150973
686.779	0.0150108
686.857	0.0151508
686.935	0.0153207
687.013	0.0152520
687.091	0.0155914
687.169	0.0155875
687.247	0.0156571
687.325	0.0157247
687.404	0.0158053
687.482	0.0159896
687.560	0.0163030
687.638	0.0163194
687.716	0.0163410
687.794	0.0165157
687.872	0.0165432
687.950	0.0166389
688.029	0.0166512
688.107	0.0167283
688.185	0.0167822
688.263	0.0169185
688.341	0.0169588
688.419	0.0169565
688.497	0.0170758
688.575	0.0171645
688.654	0.0169030
688.732	0.0172583
688.810	0.0170795
688.888	0.0169411
688.966	0.0169788
689.044	0.0170464
689.122	0.0168610
689.200	0.0166106
689.279	0.0165584
689.357	0.0163715
689.435	0.0161702
689.513	0.0161095
689.591	0.0160780
689.669	0.0157937
689.747	0.0156447
689.825	0.0153350
689.904	0.0153747
689.982	0.0153619
690.060	0.0152258
690.138	0.0153023
690.216	0.0153334
690.294	0.0153232
690.372	0.0154578
690.450	0.0155250
690.529	0.0155231
690.607	0.0157406
690.685	0.0157407
690.763	0.0160349
690.841	0.0162212
690.919	0.0163442
690.997	0.0165088
691.075	0.0167009
691.154	0.0166608
691.232	0.0167818
691.310	0.0168784
691.388	0.0169472
691.466	0.0169283
691.544	0.0170024
691.622	0.0169379
691.700	0.0168860
691.779	0.0169860
691.857	0.0170570
691.935	0.0167995
692.013	0.0166784
692.091	0.0168279
692.169	0.0168764
692.247	0.0168761
692.325	0.0167529
692.404	0.0169175
692.482	0.0168913
692.560	0.0169118
692.638	0.0168597
692.716	0.0168369
692.794	0.0170036
692.872	0.0168563
692.950	0.0168272
693.029	0.0169010
693.107	0.0169428
693.185	0.0167850
693.263	0.0167034
693.341	0.0165113
693.419	0.0165908
693.497	0.0164286
693.575	0.0165376
693.654	0.0164552
693.732	0.0163801
693.810	0.0163277
693.888	0.0161807
693.966	0.0160938
694.044	0.0161802
694.122	0.0161902
694.200	0.0159990
694.279	0.0160947
694.357	0.0159355
694.435	0.0159938
694.513	0.0160439
694.591	0.0159431
694.669	0.0160197
694.747	0.0159915
694.825	0.0159678
694.904	0.0160075
694.982	0.0160213
695.060	0.0160934
695.138	0.0160887
695.216	0.0163680
695.294	0.0160548
695.372	0.0160458
695.450	0.0161320
695.529	0.0161287
695.607	0.0160867
695.685	0.0161621
695.763	0.0160535
695.841	0.0160871
695.919	0.0161526
695.997	0.0161234
696.075	0.0161566
696.154	0.0158489
696.232	0.0159480
696.310	0.0159743
696.388	0.0160054
696.466	0.0161039
696.544	0.0162339
696.622	0.0160911
696.700	0.0160683
696.779	0.0160941
696.857	0.0161966
696.935	0.0160955
697.013	0.0162042
697.091	0.0162273
697.169	0.0164433
697.247	0.0163271
697.325	0.0163010
697.404	0.0163010
697.482	0.0163731
697.560	0.0165823
697.638	0.0164268
697.716	0.0165457
697.794	0.0163615
697.872	0.0164897
697.950	0.0166317
698.029	0.0166286
698.107	0.0165755
698.185	0.0166005
698.263	0.0166262
698.341	0.0166386
698.419	0.0166738
698.497	0.0167759
698.575	0.0167455
698.654	0.0167040
698.732	0.0167353
698.810	0.0167855
698.888	0.0166083
698.966	0.0166642
699.044	0.0166138
699.122	0.0166020
699.200	0.0164410
699.279	0.0165812
699.357	0.0165089
699.435	0.0163740
699.513	0.0163644
699.591	0.0162745
699.669	0.0163474
699.747	0.0162764
699.825	0.0161462
699.904	0.0160126
699.982	0.0160895
700.060	0.0161977
700.138	0.0162120
700.216	0.0160670
700.294	0.0160293
700.372	0.0159792
700.450	0.0160705
700.529	0.0159995
700.607	0.0159554
700.685	0.0159784
700.763	0.0158122
700.841	0.0159615
700.919	0.0159357
700.997	0.0160185
701.075	0.0158720
701.154	0.0159942
701.232	0.0161886
701.310	0.0161243
701.388	0.0162872
701.466	0.0162347
701.544	0.0162627
701.622	0.0163194
701.700	0.0162629
701.779	0.0164703
701.857	0.0165221
701.935	0.0166068
702.013	0.0166692
702.091	0.0167357
702.169	0.0167595
702.247	0.0166474
702.325	0.0167232
702.404	0.0167436
702.482	0.0168334
702.560	0.0167486
702.638	0.0166769
702.716	0.0165257
702.794	0.0164509
702.872	0.0164584
702.950	0.0163493
703.029	0.0160480
703.107	0.0162016
703.185	0.0161945
703.263	0.0160464
703.341	0.0161396
703.419	0.0158678
703.497	0.0161025
703.575	0.0161414
703.654	0.0160570
703.732	0.0159722
703.810	0.0162514
703.888	0.0162539
703.966	0.0163322
704.044	0.0163574
704.122	0.0163893
704.200	0.0163487
704.279	0.0165003
704.357	0.0164759
704.435	0.0165457
704.513	0.0164153
704.591	0.0164514
704.669	0.0163963
704.747	0.0163732
704.825	0.0163380
704.904	0.0163577
704.982	0.0162610
705.060	0.0162128
705.138	0.0162298
705.216	0.0162621
705.294	0.0161812
705.372	0.0160258
705.450	0.0160802
705.529	0.0161073
705.607	0.0160287
705.685	0.0161727
705.763	0.0161173
705.841	0.0159399
705.919	0.0161375
705.997	0.0161018
706.075	0.0159798
706.154	0.0159982
706.232	0.0160779
706.310	0.0159369
706.388	0.0159417
706.466	0.0159907
706.544	0.0161058
706.622	0.0160931
706.700	0.0161577
706.779	0.0163332
706.857	0.0161654
706.935	0.0162100
707.013	0.0163824
707.091	0.0164747
707.169	0.0164243
707.247	0.0165237
707.325	0.0164532
707.404	0.0163799
707.482	0.0165326
707.560	0.0165973
707.638	0.0166687
707.716	0.0166059
707.794	0.0166898
707.872	0.0166787
707.950	0.0166944
708.029	0.0165948
708.107	0.0166988
708.185	0.0166253
708.263	0.0166486
708.341	0.0166178
708.419	0.0167069
708.497	0.0166518
708.575	0.0166711
708.654	0.0165971
708.732	0.0164782
708.810	0.0166914
708.888	0.0165793
708.966	0.0165739
709.044	0.0163686
709.122	0.0166006
709.200	0.0166112
709.279	0.0164259
709.357	0.0163706
709.435	0.0163601
709.513	0.0162291
709.591	0.0164363
709.669	0.0164890
709.747	0.0163335
709.825	0.0163696
709.904	0.0163870
709.982	0.0163157
710.060	0.0163138
710.138	0.0161971
710.216	0.0161919
710.294	0.0162638
710.372	0.0162961
710.450	0.0162901
710.529	0.0162697
710.607	0.0162904
710.685	0.0161224
710.763	0.0162065
710.841	0.0162415
710.919	0.0162079
710.997	0.0161225
711.075	0.0162057
711.154	0.0163187
711.232	0.0163638
711.310	0.0164848
711.388	0.0163127
711.466	0.0163457
711.544	0.0163470
711.622	0.0163734
711.700	0.0163183
711.779	0.0164025
711.857	0.0165257
711.935	0.0162119
712.013	0.0163636
712.091	0.0163416
712.169	0.0162833
712.247	0.0163491
712.325	0.0165247
712.404	0.0161870
712.482	0.0162878
712.560	0.0163097
712.638	0.0162237
712.716	0.0162636
712.794	0.0160814
712.872	0.0162440
712.950	0.0162781
713.029	0.0161771
713.107	0.0161015
713.185	0.0162556
713.263	0.0163317
713.341	0.0163277
713.419	0.0161672
713.497	0.0162359
713.575	0.0162933
713.654	0.0164006
713.732	0.0163139
713.810	0.0162379
713.888	0.0161930
713.966	0.0162663
714.044	0.0163984
714.122	0.0163713
714.200	0.0163044
714.279	0.0163531
714.357	0.0163805
714.435	0.0164192
714.513	0.0164645
714.591	0.0165110
714.669	0.0164198
714.747	0.0164245
714.825	0.0166630
714.904	0.0166306
714.982	0.0164925
715.060	0.0166188
715.138	0.0165289
715.216	0.0165697
715.294	0.0165713
715.372	0.0165578
715.450	0.0163950
715.529	0.0164438
715.607	0.0164800
715.685	0.0165099
715.763	0.0163714
715.841	0.0162759
715.919	0.0163113
715.997	0.0162861
716.075	0.0162203
716.154	0.0162256
716.232	0.0163743
716.310	0.0161270
716.388	0.0162008
716.466	0.0161657
716.544	0.0161407
716.622	0.0161705
716.700	0.0161137
716.779	0.0160785
716.857	0.0159991
716.935	0.0161324
717.013	0.0161597
717.091	0.0160120
717.169	0.0161216
717.247	0.0160914
717.325	0.0161280
717.404	0.0160501
717.482	0.0161459
717.560	0.0162141
717.638	0.0161406
717.716	0.0162317
717.794	0.0162732
717.872	0.0162504
717.950	0.0161724
718.029	0.0162950
718.107	0.0162994
718.185	0.0162184
718.263	0.0163749
718.341	0.0163302
718.419	0.0164022
718.497	0.0163604
718.575	0.0163231
718.654	0.0163541
718.732	0.0162481
718.810	0.0163792
718.888	0.0162302
718.966	0.0161976
719.044	0.0162074
719.122	0.0162950
719.200	0.0162288
719.279	0.0162180
719.357	0.0161253
719.435	0.0163251
719.513	0.0161431
719.591	0.0161346
719.669	0.0160838
719.747	0.0162122
719.825	0.0161874
719.904	0.0161530
719.982	0.0162742
720.060	0.0162498
720.138	0.0162356
720.216	0.0163055
720.294	0.0165202
720.372	0.0164637
720.450	0.0164079
720.529	0.0165649
720.607	0.0165372
720.685	0.0166628
720.763	0.0166778
720.841	0.0165911
720.919	0.0167506
720.997	0.0167480
721.075	0.0168780
721.154	0.0167661
721.232	0.0168790
721.310	0.0168356
721.388	0.0168700
721.466	0.0169576
721.544	0.0168897
721.622	0.0167431
721.700	0.0166080
721.779	0.0167934
721.857	0.0167415
721.935	0.0167175
722.013	0.0166090
722.091	0.0164995
722.169	0.0165182
722.247	0.0164471
722.325	0.0163625
722.404	0.0162264
722.482	0.0164121
722.560	0.0162449
722.638	0.0160684
722.716	0.0160435
722.794	0.0161139
722.872	0.0162350
722.950	0.0162389
723.029	0.0160957
723.107	0.0161467
723.185	0.0162569
723.263	0.0160873
723.341	0.0161375
723.419	0.0161183
723.497	0.0161046
723.575	0.0162650
723.654	0.0163348
723.732	0.0163954
723.810	0.0161883
723.888	0.0162243
723.966	0.0162936
724.044	0.0163028
724.122	0.0163142
724.200	0.0165450
724.279	0.0165752
724.357	0.0166029
724.435	0.0164116
724.513	0.0163698
724.591	0.0166099
724.669	0.0165507
724.747	0.0163571
724.825	0.0166140
724.904	0.0165864
724.982	0.0165133
725.060	0.0166434
725.138	0.0164957
725.216	0.0164236
725.294	0.0166367
725.372	0.0164732
725.450	0.0163615
725.529	0.0164436
725.607	0.0164465
725.685	0.0162574
725.763	0.0163101
725.841	0.0165067
725.919	0.0163429
725.997	0.0162045
726.075	0.0162392
726.154	0.0162452
726.232	0.0162792
726.310	0.0161829
726.388	0.0161869
726.466	0.0161125
726.544	0.0161293
726.622	0.0161430
726.700	0.0162518
726.779	0.0161504
726.857	0.0160820
726.935	0.0160982
727.013	0.0160992
727.091	0.0161264
727.169	0.0161576
727.247	0.0161244
727.325	0.0162341
727.404	0.0163479
727.482	0.0163274
727.560	0.0164800
727.638	0.0162735
727.716	0.0162234
727.794	0.0164503
727.872	0.0164549
727.950	0.0165447
728.029	0.0165191
728.107	0.0166969
728.185	0.0166470
728.263	0.0167380
728.341	0.0167223
728.419	0.0166210
728.497	0.0169866
728.575	0.0168474
728.654	0.0168964
728.732	0.0169154
728.810	0.0169548
728.888	0.0169817
728.966	0.0169328
729.044	0.0169604
729.122	0.0169018
729.200	0.0169427
729.279	0.0169144
729.357	0.0167827
729.435	0.0167727
729.513	0.0167033
729.591	0.0167245
729.669	0.0166029
729.747	0.0165541
729.825	0.0165532
729.904	0.0164587
729.982	0.0165772
730.060	0.0163740
730.138	0.0164010
730.216	0.0163522
730.294	0.0162004
730.372	0.0162953
730.450	0.0160829
730.529	0.0160642
730.607	0.0160654
730.685	0.0159869
730.763	0.0160739
730.841	0.0159714
730.919	0.0159013
730.997	0.0159659
731.075	0.0158427
731.154	0.0160254
731.232	0.0160009
731.310	0.0160725
731.388	0.0159978
731.466	0.0161268
731.544	0.0162196
731.622	0.0161483
731.700	0.0162015
731.779	0.0162048
731.857	0.0162529
731.935	0.0161847
732.013	0.0163485
732.091	0.0163185
732.169	0.0162865
732.247	0.0164228
732.325	0.0164746
732.404	0.0163703
732.482	0.0164758
732.560	0.0165665
732.638	0.0165461
732.716	0.0165772
732.794	0.0166451
732.872	0.0164397
732.950	0.0166098
733.029	0.0165617
733.107	0.0165637
733.185	0.0165432
733.263	0.0165184
733.341	0.0165132
733.419	0.0165762
733.497	0.0165755
733.575	0.0164526
733.654	0.0164112
733.732	0.0164599
733.810	0.0165509
733.888	0.0164110
733.966	0.0164878
734.044	0.0164883
734.122	0.0164487
734.200	0.0164194
734.279	0.0165101
734.357	0.0164873
734.435	0.0164336
734.513	0.0163625
734.591	0.0163367
734.669	0.0165488
734.747	0.0164499
734.825	0.0163985
734.904	0.0163334
734.982	0.0163907
735.060	0.0162643
735.138	0.0162156
735.216	0.0162476
735.294	0.0163443
735.372	0.0163528
735.450	0.0163574
735.529	0.0162216
735.607	0.0162055
735.685	0.0162411
735.763	0.0163490
735.841	0.0163528
735.919	0.0161789
735.997	0.0160981
736.075	0.0162836
736.154	0.0161484
736.232	0.0162772
736.310	0.0162125
736.388	0.0161608
736.466	0.0161956
736.544	0.0161037
736.622	0.0163048
736.700	0.0161522
736.779	0.0160768
736.857	0.0160019
736.935	0.0160112
737.013	0.0161159
737.091	0.0162255
737.169	0.0161265
737.247	0.0161021
737.325	0.0162394
737.404	0.0163084
737.482	0.0162518
737.560	0.0160054
737.638	0.0162338
737.716	0.0162513
737.794	0.0161500
737.872	0.0162712
737.950	0.0164301
738.029	0.0163151
738.107	0.0164830
738.185	0.0163683
738.263	0.0162337
738.341	0.0164631
738.419	0.0164396
738.497	0.0163551
738.575	0.0163982
738.654	0.0164658
738.732	0.0163136
738.810	0.0163439
738.888	0.0164687
738.966	0.0163934
739.044	0.0163624
739.122	0.0164626
739.200	0.0163049
739.279	0.0162691
739.357	0.0161431
739.435	0.0163158
739.513	0.0164575
739.591	0.0162051
739.669	0.0162751
739.747	0.0161595
739.825	0.0161899
739.904	0.0164433
739.982	0.0163296
740.060	0.0163161
740.138	0.0163342
740.216	0.0163409
740.294	0.0162134
740.372	0.0163071
740.450	0.0162775
740.529	0.0163269
740.607	0.0164925
740.685	0.0163002
740.763	0.0165527
740.841	0.0165331
740.919	0.0164018
740.997	0.0165582
741.075	0.0165839
741.154	0.0165604
741.232	0.0164674
741.310	0.0165277
741.388	0.0167528
741.466	0.0166656
741.544	0.0167013
741.622	0.0166376
741.700	0.0167210
741.779	0.0166523
741.857	0.0166966
741.935	0.0167362
742.013	0.0167881
742.091	0.0166022
742.169	0.0166403
742.247	0.0167588
742.325	0.0168671
742.404	0.0166899
742.482	0.0166628
742.560	0.0165718
742.638	0.0165038
742.716	0.0165079
742.794	0.0165828
742.872	0.0165931
742.950	0.0165591
743.029	0.0164169
743.107	0.0164334
743.185	0.0164201
743.263	0.0164312
743.341	0.0164034
743.419	0.0163455
743.497	0.0163794
743.575	0.0164243
743.654	0.0164047
743.732	0.0163053
743.810	0.0162374
743.888	0.0162698
743.966	0.0163770
744.044	0.0163300
744.122	0.0163245
744.200	0.0162199
744.279	0.0163506
744.357	0.0164191
744.435	0.0164450
744.513	0.0164658
744.591	0.0163988
744.669	0.0164148
744.747	0.0164204
744.825	0.0164269
744.904	0.0165591
744.982	0.0164387
745.060	0.0163973
745.138	0.0165006
745.216	0.0166158
745.294	0.0166170
745.372	0.0165564
745.450	0.0164341
745.529	0.0163911
745.607	0.0164668
745.685	0.0164058
745.763	0.0163979
745.841	0.0164127
745.919	0.0163175
745.997	0.0162027
746.075	0.0163251
746.154	0.0161118
746.232	0.0162527
746.310	0.0161388
746.388	0.0160343
746.466	0.0160571
746.544	0.0162424
746.622	0.0161285
746.700	0.0161539
746.779	0.0161826
746.857	0.0161726
746.935	0.0161912
747.013	0.0161630
747.091	0.0162295
747.169	0.0163339
747.247	0.0162890
747.325	0.0164008
747.404	0.0163625
747.482	0.0163400
747.560	0.0164243
747.638	0.0164046
747.716	0.0164973
747.794	0.0164864
747.872	0.0167338
747.950	0.0166558
748.029	0.0164291
748.107	0.0165695
748.185	0.0166816
748.263	0.0167452
748.341	0.0166982
748.419	0.0168018
748.497	0.0168072
748.575	0.0168470
748.654	0.0166039
748.732	0.0165738
748.810	0.0165877
748.888	0.0165871
748.966	0.0163937
749.044	0.0164523
749.122	0.0165615
749.200	0.0164062
749.279	0.0163335
749.357	0.0163216
749.435	0.0162743
749.513	0.0163464
749.591	0.0162144
749.669	0.0161442
749.747	0.0160680
749.825	0.0161203
749.904	0.0161079
749.982	0.0160735
750.060	0.0161628
750.138	0.0159664
750.216	0.0160407
750.294	0.0158990
750.372	0.0159084
750.450	0.0161311
750.529	0.0160050
750.607	0.0159303
750.685	0.0160371
750.763	0.0160275
750.841	0.0161128
750.919	0.0162283
750.997	0.0162315
751.075	0.0163335
751.154	0.0161874
751.232	0.0162408
751.310	0.0163860
751.388	0.0164539
751.466	0.0164497
751.544	0.0163498
751.622	0.0163303
751.700	0.0164460
751.779	0.0164556
751.857	0.0164298
751.935	0.0162902
752.013	0.0164629
752.091	0.0164153
752.169	0.0165623
752.247	0.0164725
752.325	0.0163853
752.404	0.0165426
752.482	0.0164734
752.560	0.0164605
752.638	0.0164018
752.716	0.0165355
752.794	0.0165144
752.872	0.0164687
752.950	0.0164198
753.029	0.0162969
753.107	0.0165460
753.185	0.0164996
753.263	0.0162641
753.341	0.0164056
753.419	0.0163754
753.497	0.0163985
753.575	0.0163419
753.654	0.0163914
753.732	0.0164429
753.810	0.0164124
753.888	0.0163309
753.966	0.0163575
754.044	0.0162566
754.122	0.0163224
754.200	0.0163604
754.279	0.0162886
754.357	0.0162635
754.435	0.0164013
754.513	0.0164210
754.591	0.0163295
754.669	0.0162599
754.747	0.0164560
754.825	0.0164825
754.904	0.0164616
754.982	0.0164525
755.060	0.0164718
755.138	0.0164400
755.216	0.0164883
755.294	0.0164732
755.372	0.0164053
755.450	0.0165164
755.529	0.0163155
755.607	0.0164129
755.685	0.0163070
755.763	0.0163639
755.841	0.0161695
755.919	0.0163354
755.997	0.0162298
756.075	0.0162925
756.154	0.0162385
756.232	0.0162692
756.310	0.0162347
756.388	0.0161842
756.466	0.0161998
756.544	0.0160873
756.622	0.0162703
756.700	0.0162093
756.779	0.0160979
756.857	0.0161915
756.935	0.0162685
757.013	0.0161227
757.091	0.0160603
757.169	0.0160400
757.247	0.0161527
757.325	0.0161905
757.404	0.0162239
757.482	0.0161864
757.560	0.0163432
757.638	0.0162341
757.716	0.0163495
757.794	0.0164661
757.872	0.0163910
757.950	0.0163208
758.029	0.0163915
758.107	0.0164663
758.185	0.0166344
758.263	0.0163756
758.341	0.0165952
758.419	0.0165730
758.497	0.0164812
758.575	0.0164750
758.654	0.0165111
758.732	0.0165385
758.810	0.0166014
758.888	0.0166473
758.966	0.0166301
759.044	0.0165855
759.122	0.0164390
759.200	0.0166070
759.279	0.0164700
759.357	0.0164836
759.435	0.0164988
759.513	0.0164124
759.591	0.0164110
759.669	0.0164572
759.747	0.0164062
759.825	0.0164922
759.904	0.0161934
759.982	0.0162598
760.060	0.0163256
760.138	0.0163166
760.216	0.0163156
760.294	0.0162170
760.372	0.0161930
760.450	0.0161963
760.529	0.0161765
760.607	0.0161325
760.685	0.0162462
760.763	0.0162752
760.841	0.0161481
760.919	0.0161787
760.997	0.0160495
761.075	0.0161541
761.154	0.0163065
761.232	0.0161920
761.310	0.0160968
761.388	0.0161131
761.466	0.0161740
761.544	0.0162193
761.622	0.0160968
761.700	0.0162012
761.779	0.0161307
761.857	0.0161090
761.935	0.0160612
762.013	0.0162141
762.091	0.0161644
762.169	0.0159251
762.247	0.0159698
762.325	0.0158938
762.404	0.0160516
762.482	0.0160986
762.560	0.0158731
762.638	0.0159452
762.716	0.0159824
762.794	0.0160291
762.872	0.0159420
762.950	0.0159725
763.029	0.0161240
763.107	0.0160529
763.185	0.0161232
763.263	0.0161149
763.341	0.0160900
763.419	0.0161028
763.497	0.0162197
763.575	0.0161042
763.654	0.0161732
763.732	0.0162953
763.810	0.0163171
763.888	0.0162820
763.966	0.0161750
764.044	0.0164803
764.122	0.0162991
764.200	0.0163145
764.279	0.0162748
764.357	0.0163081
764.435	0.0162901
764.513	0.0162767
764.591	0.0163260
764.669	0.0164480
764.747	0.0163900
764.825	0.0162587
764.904	0.0164101
764.982	0.0163850
765.060	0.0163165
765.138	0.0164095
765.216	0.0163583
765.294	0.0163115
765.372	0.0163303
765.450	0.0163328
765.529	0.0162169
765.607	0.0162277
765.685	0.0163747
765.763	0.0162851
765.841	0.0163608
765.919	0.0162519
765.997	0.0161764
766.075	0.0162761
766.154	0.0163789
766.232	0.0161864
766.310	0.0160829
766.388	0.0162344
766.466	0.0163617
766.544	0.0161809
766.622	0.0161850
766.700	0.0162815
766.779	0.0161531
766.857	0.0163894
766.935	0.0162965
767.013	0.0162302
767.091	0.0163010
767.169	0.0163213
767.247	0.0163332
767.325	0.0164359
767.404	0.0164356
767.482	0.0163431
767.560	0.0165543
767.638	0.0163943
767.716	0.0164740
767.794	0.0165091
767.872	0.0164806
767.950	0.0164182
768.029	0.0164159
768.107	0.0165707
768.185	0.0165755
768.263	0.0164964
768.341	0.0165014
768.419	0.0163752
768.497	0.0164721
768.575	0.0165200
768.654	0.0164592
768.732	0.0165530
768.810	0.0164175
768.888	0.0166548
768.966	0.0165984
769.044	0.0164991
769.122	0.0164830
769.200	0.0164790
769.279	0.0165878
769.357	0.0164740
769.435	0.0164783
769.513	0.0165465
769.591	0.0166466
769.669	0.0165896
769.747	0.0166393
769.825	0.0165584
769.904	0.0165423
769.982	0.0164483
770.060	0.0164562
770.138	0.0164507
770.216	0.0162999
770.294	0.0163702
770.372	0.0164868
770.450	0.0164415
770.529	0.0164375
770.607	0.0163002
770.685	0.0162019
770.763	0.0161629
770.841	0.0163067
770.919	0.0162951
770.997	0.0161613
771.075	0.0161877
771.154	0.0161528
771.232	0.0161315
771.310	0.0160339
771.388	0.0160442
771.466	0.0160603
771.544	0.0159991
771.622	0.0160955
771.700	0.0159743
771.779	0.0159536
771.857	0.0159673
771.935	0.0159486
772.013	0.0159803
772.091	0.0159996
772.169	0.0159557
772.247	0.0161890
772.325	0.0162962
772.404	0.0159184
772.482	0.0160486
772.560	0.0161836
772.638	0.0161942
772.716	0.0161541
772.794	0.0161013
772.872	0.0162148
772.950	0.0162946
773.029	0.0162124
773.107	0.0162991
773.185	0.0163292
773.263	0.0162749
773.341	0.0163559
773.419	0.0164345
773.497	0.0163937
773.575	0.0164963
773.654	0.0166135
773.732	0.0164594
773.810	0.0165973
773.888	0.0165289
773.966	0.0165093
774.044	0.0165163
774.122	0.0165390
774.200	0.0165932
774.279	0.0166774
774.357	0.0166026
774.435	0.0165949
774.513	0.0165923
774.591	0.0166786
774.669	0.0165704
774.747	0.0167213
774.825	0.0165749
774.904	0.0163905
774.982	0.0165356
775.060	0.0164421
775.138	0.0164332
775.216	0.0163881
775.294	0.0164272
775.372	0.0162755
775.450	0.0162737
775.529	0.0161826
775.607	0.0162379
775.685	0.0161449
775.763	0.0162237
775.841	0.0160400
775.919	0.0160616
775.997	0.0161005
776.075	0.0160469
776.154	0.0161277
776.232	0.0161219
776.310	0.0159328
776.388	0.0160868
776.466	0.0160500
776.544	0.0161733
776.622	0.0162119
776.700	0.0160593
776.779	0.0159314
776.857	0.0160226
776.935	0.0159258
777.013	0.0160099
777.091	0.0160062
777.169	0.0161015
777.247	0.0159579
777.325	0.0161350
777.404	0.0161109
777.482	0.0162922
777.560	0.0160936
777.638	0.0162487
777.716	0.0162212
777.794	0.0162285
777.872	0.0162510
777.950	0.0161163
778.029	0.0161876
778.107	0.0161715
778.185	0.0163039
778.263	0.0162755
778.341	0.0163264
778.419	0.0161509
778.497	0.0162164
778.575	0.0162601
778.654	0.0162904
778.732	0.0161243
778.810	0.0161568
778.888	0.0163080
778.966	0.0162559
779.044	0.0162274
779.122	0.0163248
779.200	0.0162687
779.279	0.0161555
779.357	0.0163309
779.435	0.0163850
779.513	0.0162709
779.591	0.0161649
779.669	0.0160920
779.747	0.0163045
779.825	0.0162813
779.904	0.0162531
779.982	0.0163269
780.060	0.0162870
780.138	0.0162212
780.216	0.0161826
780.294	0.0163474
780.372	0.0162595
780.450	0.0162652
780.529	0.0163156
780.607	0.0161941
780.685	0.0162817
780.763	0.0163788
780.841	0.0163365
780.919	0.0162445
780.997	0.0162818
781.075	0.0164014
781.154	0.0163271
781.232	0.0162850
781.310	0.0164971
781.388	0.0164011
781.466	0.0163525
781.544	0.0163405
781.622	0.0164298
781.700	0.0163422
781.779	0.0162361
781.857	0.0161984
781.935	0.0162239
782.013	0.0163543
782.091	0.0163103
782.169	0.0161510
782.247	0.0161303
782.325	0.0161459
782.404	0.0161926
782.482	0.0161031
782.560	0.0162314
782.638	0.0161948
782.716	0.0160394
782.794	0.0160239
782.872	0.0160820
782.950	0.0159769
783.029	0.0161105
783.107	0.0160432
783.185	0.0161392
783.263	0.0160384
783.341	0.0161485
783.419	0.0161230
783.497	0.0160186
783.575	0.0161118
783.654	0.0162160
783.732	0.0162657
783.810	0.0161362
783.888	0.0163039
783.966	0.0161002
784.044	0.0161504
784.122	0.0163591
784.200	0.0162550
784.279	0.0162889
784.357	0.0162383
784.435	0.0162903
784.513	0.0162820
784.591	0.0163351
784.669	0.0164623
784.747	0.0164318
784.825	0.0164066
784.904	0.0164151
784.982	0.0164864
785.060	0.0163639
785.138	0.0165999
785.216	0.0164586
785.294	0.0164714
785.372	0.0164350
785.450	0.0163583
785.529	0.0164125
785.607	0.0164900
785.685	0.0164021
785.763	0.0162530
785.841	0.0162864
785.919	0.0163293
785.997	0.0162254
786.075	0.0162479
786.154	0.0162846
786.232	0.0162737
786.310	0.0161835
786.388	0.0162469
786.466	0.0163900
786.544	0.0163667
786.622	0.0164351
786.700	0.0163631
786.779	0.0162149
786.857	0.0162412
786.935	0.0162051
787.013	0.0163319
787.091	0.0162116
787.169	0.0163140
787.247	0.0162999
787.325	0.0163612
787.404	0.0162573
787.482	0.0163177
787.560	0.0162724
787.638	0.0162978
787.716	0.0164526
787.794	0.0164100
787.872	0.0163751
787.950	0.0165228
788.029	0.0165051
788.107	0.0163768
788.185	0.0164274
788.263	0.0165368
788.341	0.0163364
788.419	0.0164853
788.497	0.0164530
788.575	0.0163583
788.654	0.0163863
788.732	0.0164630
788.810	0.0164409
788.888	0.0163750
788.966	0.0164339
789.044	0.0164055
789.122	0.0163541
789.200	0.0163023
789.279	0.0163120
789.357	0.0162175
789.435	0.0163646
789.513	0.0164033
789.591	0.0164185
789.669	0.0162843
789.747	0.0163095
789.825	0.0163531
789.904	0.0164149
789.982	0.0165046
790.060	0.0163695
790.138	0.0164121
790.216	0.0164516
790.294	0.0164027
790.372	0.0163911
790.450	0.0163297
790.529	0.0164648
790.607	0.0163575
790.685	0.0163879
790.763	0.0164547
790.841	0.0165172
790.919	0.0162154
790.997	0.0163902
791.075	0.0163475
791.154	0.0164801
791.232	0.0164075
791.310	0.0162528
791.388	0.0164018
791.466	0.0164616
791.544	0.0163022
791.622	0.0162653
791.700	0.0163686
791.779	0.0162901
791.857	0.0164386
791.935	0.0163723
792.013	0.0161787
792.091	0.0162639
792.169	0.0163229
792.247	0.0163271
792.325	0.0163431
792.404	0.0163343
792.482	0.0162559
792.560	0.0162166
792.638	0.0163410
792.716	0.0162962
792.794	0.0164219
792.872	0.0161703
792.950	0.0161649
793.029	0.0161380
793.107	0.0163149
793.185	0.0161288
793.263	0.0161803
793.341	0.0163103
793.419	0.0162590
793.497	0.0162559
793.575	0.0162439
793.654	0.0163515
793.732	0.0164222
793.810	0.0163991
793.888	0.0164079
793.966	0.0163920
794.044	0.0164581
794.122	0.0163446
794.200	0.0163501
794.279	0.0164777
794.357	0.0164313
794.435	0.0163805
794.513	0.0162711
794.591	0.0165327
794.669	0.0166724
794.747	0.0164809
794.825	0.0164587
794.904	0.0164477
794.982	0.0164225
795.060	0.0164815
795.138	0.0164410
795.216	0.0165363
795.294	0.0163436
795.372	0.0165118
795.450	0.0165199
795.529	0.0163490
795.607	0.0163994
795.685	0.0163914
795.763	0.0163093
795.841	0.0163979
795.919	0.0164052
795.997	0.0162605
796.075	0.0163954
796.154	0.0163234
796.232	0.0163618
796.310	0.0164232
796.388	0.0161826
796.466	0.0161983
796.544	0.0164388
796.622	0.0163786
796.700	0.0162791
796.779	0.0163146
796.857	0.0163208
796.935	0.0163071
797.013	0.0162194
797.091	0.0162528
797.169	0.0162917
797.247	0.0163873
797.325	0.0163881
797.404	0.0163136
797.482	0.0164779
797.560	0.0162825
797.638	0.0164197
797.716	0.0163608
797.794	0.0164537
797.872	0.0164384
797.950	0.0165051
798.029	0.0164909
798.107	0.0164735
798.185	0.0164929
798.263	0.0164207
798.341	0.0165089
798.419	0.0164156
798.497	0.0163760
798.575	0.0165662
798.654	0.0164022
798.732	0.0163776
798.810	0.0162878
798.888	0.0163235
798.966	0.0164069
799.044	0.0164019
799.122	0.0163210
799.200	0.0162731
799.279	0.0162357
799.357	0.0162976
799.435	0.0161112
799.513	0.0163065
799.591	0.0162150
799.669	0.0163132
799.747	0.0163273
799.825	0.0161292
799.904	0.0161831
799.982	0.0161523
800.060	0.0162009
800.138	0.0163400
800.216	0.0162685
800.294	0.0160676
800.372	0.0160693
800.450	0.0162168
800.529	0.0162234
800.607	0.0160741
800.685	0.0162241
800.763	0.0162515
800.841	0.0162798
800.919	0.0162666
800.997	0.0163023
801.075	0.0162022
801.154	0.0162361
801.232	0.0162820
801.310	0.0161679
801.388	0.0162869
801.466	0.0163712
801.544	0.0161886
801.622	0.0160892
801.700	0.0162551
801.779	0.0160979
801.857	0.0162190
801.935	0.0162263
802.013	0.0161613
802.091	0.0161571
802.169	0.0161954
802.247	0.0162285
802.325	0.0162663
802.404	0.0163061
802.482	0.0162196
802.560	0.0162093
802.638	0.0160806
802.716	0.0160876
802.794	0.0161706
802.872	0.0161832
802.950	0.0160765
803.029	0.0161364
803.107	0.0160790
803.185	0.0161309
803.263	0.0161420
803.341	0.0161328
803.419	0.0161691
803.497	0.0161375
803.575	0.0161050
803.654	0.0163137
803.732	0.0162273
803.810	0.0161783
803.888	0.0162490
803.966	0.0163394
804.044	0.0163274
804.122	0.0163496
804.200	0.0163261
804.279	0.0164068
804.357	0.0163615
804.435	0.0163428
804.513	0.0163460
804.591	0.0162627
804.669	0.0163358
804.747	0.0163604
804.825	0.0163826
804.904	0.0161775
804.982	0.0162733
805.060	0.0162238
805.138	0.0163774
805.216	0.0164354
805.294	0.0162566
805.372	0.0164268
805.450	0.0164673
805.529	0.0163260
805.607	0.0161431
805.685	0.0163619
805.763	0.0165129
805.841	0.0163596
805.919	0.0163931
805.997	0.0162819
806.075	0.0164294
806.154	0.0164503
806.232	0.0163570
806.310	0.0163837
806.388	0.0164129
806.466	0.0162926
806.544	0.0162714
806.622	0.0162114
806.700	0.0163461
806.779	0.0162278
806.857	0.0163899
806.935	0.0162562
807.013	0.0161795
807.091	0.0162466
807.169	0.0162415
807.247	0.0162424
807.325	0.0163480
807.404	0.0163062
807.482	0.0162074
807.560	0.0162730
807.638	0.0164041
807.716	0.0165146
807.794	0.0164659
807.872	0.0163262
807.950	0.0162238
808.029	0.0164033
808.107	0.0164108
808.185	0.0163609
808.263	0.0164325
808.341	0.0163232
808.419	0.0163094
808.497	0.0162608
808.575	0.0162971
808.654	0.0164504
808.732	0.0164236
808.810	0.0162257
808.888	0.0163093
808.966	0.0164547
809.044	0.0165128
809.122	0.0163034
809.200	0.0163589
809.279	0.0163614
809.357	0.0163651
809.435	0.0163580
809.513	0.0162270
809.591	0.0163901
809.669	0.0163155
809.747	0.0162980
809.825	0.0165359
809.904	0.0163361
809.982	0.0164555
810.060	0.0163275
810.138	0.0163323
810.216	0.0163194
810.294	0.0163743
810.372	0.0163913
810.450	0.0165916
810.529	0.0164043
810.607	0.0163172
810.685	0.0164796
810.763	0.0165184
810.841	0.0164229
810.919	0.0166808
810.997	0.0166073
811.075	0.0164703
811.154	0.0165952
811.232	0.0166266
811.310	0.0166283
811.388	0.0165168
811.466	0.0165494
811.544	0.0167020
811.622	0.0166301
811.700	0.0165740
811.779	0.0166506
811.857	0.0166889
811.935	0.0165825
812.013	0.0164685
812.091	0.0164238
812.169	0.0165855
812.247	0.0165549
812.325	0.0165958
812.404	0.0165075
812.482	0.0166087
812.560	0.0163624
812.638	0.0164276
812.716	0.0164668
812.794	0.0163645
812.872	0.0164906
812.950	0.0164918
813.029	0.0163900
813.107	0.0163062
813.185	0.0161597
813.263	0.0160824
813.341	0.0162376
813.419	0.0162056
813.497	0.0162087
813.575	0.0162266
813.654	0.0162332
813.732	0.0161921
813.810	0.0161498
813.888	0.0162609
813.966	0.0161913
814.044	0.0162586
814.122	0.0161690
814.200	0.0162823
814.279	0.0163659
814.357	0.0161834
814.435	0.0161585
814.513	0.0162788
814.591	0.0161504
814.669	0.0162315
814.747	0.0162789
814.825	0.0162811
814.904	0.0161935
814.982	0.0161775
815.060	0.0162796
815.138	0.0161947
815.216	0.0161594
815.294	0.0162589
815.372	0.0164062
815.450	0.0161145
815.529	0.0163271
815.607	0.0162463
815.685	0.0161683
815.763	0.0162633
815.841	0.0163636
815.919	0.0163722
815.997	0.0163515
816.075	0.0162719
816.154	0.0163009
816.232	0.0162096
816.310	0.0162616
816.388	0.0163966
816.466	0.0163754
816.544	0.0162436
816.622	0.0162537
816.700	0.0163418
816.779	0.0163726
816.857	0.0163413
816.935	0.0163679
817.013	0.0163046
817.091	0.0162617
817.169	0.0162341
817.247	0.0164286
817.325	0.0162546
817.404	0.0162403
817.482	0.0163307
817.560	0.0162616
817.638	0.0162840
817.716	0.0163302
817.794	0.0162313
817.872	0.0162466
817.950	0.0163490
818.029	0.0163498
818.107	0.0163944
818.185	0.0163540
818.263	0.0163426
818.341	0.0162859
818.419	0.0163419
818.497	0.0163330
818.575	0.0165353
818.654	0.0162811
818.732	0.0164396
818.810	0.0164983
818.888	0.0164872
818.966	0.0164314
819.044	0.0163857
819.122	0.0164482
819.200	0.0163113
819.279	0.0163782
819.357	0.0166074
819.435	0.0163936
819.513	0.0163182
819.591	0.0164270
819.669	0.0163486
819.747	0.0164970
819.825	0.0165399
819.904	0.0164615
819.982	0.0164895
820.060	0.0163950
820.138	0.0164918
820.216	0.0164055
820.294	0.0165392
820.372	0.0163332
820.450	0.0162970
820.529	0.0162611
820.607	0.0163780
820.685	0.0163005
820.763	0.0162588
820.841	0.0161972
820.919	0.0162593
820.997	0.0161977
821.075	0.0162743
821.154	0.0161255
821.232	0.0161535
821.310	0.0162287
821.388	0.0161279
821.466	0.0161085
821.544	0.0162383
821.622	0.0160782
821.700	0.0161768
821.779	0.0162834
821.857	0.0161333
821.935	0.0161740
822.013	0.0161895
822.091	0.0161948
822.169	0.0161528
822.247	0.0163103
822.325	0.0163438
822.404	0.0162206
822.482	0.0160952
822.560	0.0163573
822.638	0.0163541
822.716	0.0164158
822.794	0.0162885
822.872	0.0162132
822.950	0.0163614
823.029	0.0166214
823.107	0.0165017
823.185	0.0164299
823.263	0.0164964
823.341	0.0164768
823.419	0.0164839
823.497	0.0164303
823.575	0.0164208
823.654	0.0164819
823.732	0.0165960
823.810	0.0164253
823.888	0.0165160
823.966	0.0165944
824.044	0.0165401
824.122	0.0165107
824.200	0.0164707
824.279	0.0164260
824.357	0.0164105
824.435	0.0164214
824.513	0.0164081
824.591	0.0165179
824.669	0.0162817
824.747	0.0163623
824.825	0.0164321
824.904	0.0162237
824.982	0.0161639
825.060	0.0163541
825.138	0.0163857
825.216	0.0162771
825.294	0.0163186
825.372	0.0163568
825.450	0.0161811
825.529	0.0163976
825.607	0.0162383
825.685	0.0163488
825.763	0.0162593
825.841	0.0161780
825.919	0.0162102
825.997	0.0162851
826.075	0.0162408
826.154	0.0163019
826.232	0.0162579
826.310	0.0163711
826.388	0.0164198
826.466	0.0164014
826.544	0.0163120
826.622	0.0163493
826.700	0.0163887
826.779	0.0165535
826.857	0.0164934
826.935	0.0165669
827.013	0.0166138
827.091	0.0164336
827.169	0.0165768
827.247	0.0165840
827.325	0.0166512
827.404	0.0166879
827.482	0.0165575
827.560	0.0166779
827.638	0.0165582
827.716	0.0165439
827.794	0.0165153
827.872	0.0164761
827.950	0.0165185
828.029	0.0166934
828.107	0.0166243
828.185	0.0165498
828.263	0.0164108
828.341	0.0164096
828.419	0.0164701
828.497	0.0161997
828.575	0.0163856
828.654	0.0163295
828.732	0.0163044
828.810	0.0162327
828.888	0.0161445
828.966	0.0162777
829.044	0.0164276
829.122	0.0163640
829.200	0.0163166
829.279	0.0161594
829.357	0.0162080
829.435	0.0162219
829.513	0.0161179
829.591	0.0162885
829.669	0.0163097
829.747	0.0160743
829.825	0.0162749
829.904	0.0161256
829.982	0.0161622
830.060	0.0163441
830.138	0.0162815
830.216	0.0162945
830.294	0.0162885
830.372	0.0162267
830.450	0.0163161
830.529	0.0163651
830.607	0.0165275
830.685	0.0164207
830.763	0.0163819
830.841	0.0162988
830.919	0.0164459
830.997	0.0162031
831.075	0.0163762
831.154	0.0163537
831.232	0.0164046
831.310	0.0164084
831.388	0.0164132
831.466	0.0163486
831.544	0.0163088
831.622	0.0163965
831.700	0.0164732
831.779	0.0164056
831.857	0.0163690
831.935	0.0164054
832.013	0.0162975
832.091	0.0162586
832.169	0.0162501
832.247	0.0164481
832.325	0.0162741
832.404	0.0163243
832.482	0.0162164
832.560	0.0163074
832.638	0.0162982
832.716	0.0160550
832.794	0.0160979
832.872	0.0162283
832.950	0.0163613
833.029	0.0160889
833.107	0.0161089
833.185	0.0162119
833.263	0.0161157
833.341	0.0161731
833.419	0.0163325
833.497	0.0162270
833.575	0.0162951
833.654	0.0162461
833.732	0.0161705
833.810	0.0162917
833.888	0.0161465
833.966	0.0163187
834.044	0.0162663
834.122	0.0163599
834.200	0.0162201
834.279	0.0162104
834.357	0.0164581
834.435	0.0163381
834.513	0.0162809
834.591	0.0162505
834.669	0.0163583
834.747	0.0164866
834.825	0.0163840
834.904	0.0164715
834.982	0.0164331
835.060	0.0164270
835.138	0.0164065
835.216	0.0163860
835.294	0.0163100
835.372	0.0163711
835.450	0.0162419
835.529	0.0162519
835.607	0.0162112
835.685	0.0163145
835.763	0.0161752
835.841	0.0161506
835.919	0.0162637
835.997	0.0162268
836.075	0.0163049
836.154	0.0162897
836.232	0.0162390
836.310	0.0162157
836.388	0.0162246
836.466	0.0163319
836.544	0.0164272
836.622	0.0163274
836.700	0.0163908
836.779	0.0164364
836.857	0.0163754
836.935	0.0164240
837.013	0.0163709
837.091	0.0162884
837.169	0.0163456
837.247	0.0162665
837.325	0.0164625
837.404	0.0163936
837.482	0.0163959
837.560	0.0164861
837.638	0.0163951
837.716	0.0162679
837.794	0.0165025
837.872	0.0165060
837.950	0.0161930
838.029	0.0164824
838.107	0.0163192
838.185	0.0162782
838.263	0.0163537
838.341	0.0163510
838.419	0.0163564
838.497	0.0164426
838.575	0.0162911
838.654	0.0161581
838.732	0.0161568
838.810	0.0162304
838.888	0.0161793
838.966	0.0161666
839.044	0.0161845
839.122	0.0159760
839.200	0.0161597
839.279	0.0161803
839.357	0.0162449
839.435	0.0162183
839.513	0.0161396
839.591	0.0159807
839.669	0.0162278
839.747	0.0160625
839.825	0.0162319
839.904	0.0161307
839.982	0.0160798
840.060	0.0162255
840.138	0.0163888
840.216	0.0163858
840.294	0.0162773
840.372	0.0162759
840.450	0.0164818
840.529	0.0165722
840.607	0.0166184
840.685	0.0165486
840.763	0.0165280
840.841	0.0168024
840.919	0.0166367
840.997	0.0166202
841.075	0.0166692
841.154	0.0166132
841.232	0.0165100
841.310	0.0165150
841.388	0.0166227
841.466	0.0163745
841.544	0.0164542
841.622	0.0165826
841.700	0.0165763
841.779	0.0165434
841.857	0.0165971
841.935	0.0165411
842.013	0.0164803
842.091	0.0166049
842.169	0.0166836
842.247	0.0165645
842.325	0.0166495
842.404	0.0166482
842.482	0.0165618
842.560	0.0165960
842.638	0.0165442
842.716	0.0165704
842.794	0.0165344
842.872	0.0165434
842.950	0.0166392
843.029	0.0166071
843.107	0.0165153
843.185	0.0166029
843.263	0.0166711
843.341	0.0164874
843.419	0.0164324
843.497	0.0165621
843.575	0.0165846
843.654	0.0165044
843.732	0.0165205
843.810	0.0164494
843.888	0.0164668
843.966	0.0163821
844.044	0.0163171
844.122	0.0164367
844.200	0.0162361
844.279	0.0163677
844.357	0.0163988
844.435	0.0162120
844.513	0.0162038
844.591	0.0161700
844.669	0.0163993
844.747	0.0162018
844.825	0.0162185
844.904	0.0161928
844.982	0.0162627
845.060	0.0160887
845.138	0.0162558
845.216	0.0162090
845.294	0.0160429
845.372	0.0161319
845.450	0.0161460
845.529	0.0161598
845.607	0.0165142
845.685	0.0163526
845.763	0.0163703
845.841	0.0164131
845.919	0.0164664
845.997	0.0164648
846.075	0.0165216
846.154	0.0165865
846.232	0.0165639
846.310	0.0166053
846.388	0.0166002
846.466	0.0165841
846.544	0.0166609
846.622	0.0166432
846.700	0.0166009
846.779	0.0166383
846.857	0.0165305
846.935	0.0163448
847.013	0.0163969
847.091	0.0164305
847.169	0.0164983
847.247	0.0163467
847.325	0.0162854
847.404	0.0162817
847.482	0.0162964
847.560	0.0163559
847.638	0.0163420
847.716	0.0162522
847.794	0.0162006
847.872	0.0163064
847.950	0.0162823
848.029	0.0162466
848.107	0.0162486
848.185	0.0163293
848.263	0.0163062
848.341	0.0163597
848.419	0.0163080
848.497	0.0162764
848.575	0.0163454
848.654	0.0162131
848.732	0.0164188
848.810	0.0163056
848.888	0.0163694
848.966	0.0164512
849.044	0.0164272
849.122	0.0164237
849.200	0.0164538
849.279	0.0164388
849.357	0.0166016
849.435	0.0164854
849.513	0.0165800
849.591	0.0164899
849.669	0.0165518
849.747	0.0165458
849.825	0.0166429
849.904	0.0166159
849.982	0.0164719
850.060	0.0165334
850.138	0.0164577
850.216	0.0164909
850.294	0.0165782
850.372	0.0165554
850.450	0.0165408
850.529	0.0164104
850.607	0.0164782
850.685	0.0163973
850.763	0.0164325
850.841	0.0162838
850.919	0.0162404
850.997	0.0163771
851.075	0.0161805
851.154	0.0160572
851.232	0.0162566
851.310	0.0161648
851.388	0.0161061
851.466	0.0160852
851.544	0.0160695
851.622	0.0162411
851.700	0.0160928
851.779	0.0160882
851.857	0.0161609
851.935	0.0161724
852.013	0.0161449
852.091	0.0161885
852.169	0.0162033
852.247	0.0161263
852.325	0.0161679
852.404	0.0161349
852.482	0.0161250
852.560	0.0161523
852.638	0.0161147
852.716	0.0161956
852.794	0.0162401
852.872	0.0162421
852.950	0.0163604
853.029	0.0163426
853.107	0.0164415
853.185	0.0163676
853.263	0.0164423
853.341	0.0164214
853.419	0.0165026
853.497	0.0164348
853.575	0.0163893
853.654	0.0166161
853.732	0.0163349
853.810	0.0164098
853.888	0.0164607
853.966	0.0163223
854.044	0.0164669
854.122	0.0165664
854.200	0.0165182
854.279	0.0164771
854.357	0.0165125
854.435	0.0163554
854.513	0.0162811
854.591	0.0163538
854.669	0.0164745
854.747	0.0165422
854.825	0.0163407
854.904	0.0163196
854.982	0.0163246
855.060	0.0164333
855.138	0.0163343
855.216	0.0163503
855.294	0.0164416
855.372	0.0163989
855.450	0.0163428
855.529	0.0163338
855.607	0.0162753
855.685	0.0161967
855.763	0.0162762
855.841	0.0162894
855.919	0.0163709
855.997	0.0160929
856.075	0.0161497
856.154	0.0163406
856.232	0.0161368
856.310	0.0161681
856.388	0.0162652
856.466	0.0162572
856.544	0.0163364
856.622	0.0163129
856.700	0.0163346
856.779	0.0161487
856.857	0.0162574
856.935	0.0163084
857.013	0.0162307
857.091	0.0162951
857.169	0.0163821
857.247	0.0164528
857.325	0.0163326
857.404	0.0163436
857.482	0.0164523
857.560	0.0162929
857.638	0.0163720
857.716	0.0164699
857.794	0.0164742
857.872	0.0164417
857.950	0.0164281
858.029	0.0163926
858.107	0.0163029
858.185	0.0163569
858.263	0.0164746
858.341	0.0162642
858.419	0.0162840
858.497	0.0162348
858.575	0.0162344
858.654	0.0162983
858.732	0.0163006
858.810	0.0164325
858.888	0.0163387
858.966	0.0163242
859.044	0.0163310
859.122	0.0163573
859.200	0.0163747
859.279	0.0164323
859.357	0.0164069
859.435	0.0165133
859.513	0.0164272
859.591	0.0162923
859.669	0.0163766
859.747	0.0163506
859.825	0.0164411
859.904	0.0162870
859.982	0.0163503
860.060	0.0163017
860.138	0.0164081
860.216	0.0163795
860.294	0.0162388
860.372	0.0163570
860.450	0.0163228
860.529	0.0162845
860.607	0.0162861
860.685	0.0164254
860.763	0.0164108
860.841	0.0164227
860.919	0.0162819
860.997	0.0162576
861.075	0.0163317
861.154	0.0163649
861.232	0.0162244
861.310	0.0163875
861.388	0.0163623
861.466	0.0162387
861.544	0.0163539
861.622	0.0162909
861.700	0.0161846
861.779	0.0164155
861.857	0.0162950
861.935	0.0163876
862.013	0.0164320
862.091	0.0163965
862.169	0.0164203
862.247	0.0163583
862.325	0.0163564
862.404	0.0164958
862.482	0.0164268
862.560	0.0163376
862.638	0.0163377
862.716	0.0164028
862.794	0.0163580
862.872	0.0163397
862.950	0.0161705
863.029	0.0163626
863.107	0.0162331
863.185	0.0164175
863.263	0.0162022
863.341	0.0161797
863.419	0.0160902
863.497	0.0161565
863.575	0.0161563
863.654	0.0162639
863.732	0.0163010
863.810	0.0161656
863.888	0.0161481
863.966	0.0162827
864.044	0.0162329
864.122	0.0162545
864.200	0.0162361
864.279	0.0162810
864.357	0.0162241
864.435	0.0163876
864.513	0.0161798
864.591	0.0161508
864.669	0.0162014
864.747	0.0163137
864.825	0.0164975
864.904	0.0163361
864.982	0.0163540
865.060	0.0162704
865.138	0.0162607
865.216	0.0164702
865.294	0.0163015
865.372	0.0164926
865.450	0.0163199
865.529	0.0163498
865.607	0.0162126
865.685	0.0163382
865.763	0.0164286
865.841	0.0164786
865.919	0.0163824
865.997	0.0162833
866.075	0.0164169
866.154	0.0163670
866.232	0.0163387
866.310	0.0163905
866.388	0.0162875
866.466	0.0164057
866.544	0.0163612
866.622	0.0163786
866.700	0.0165348
866.779	0.0162698
866.857	0.0163598
866.935	0.0163284
867.013	0.0164322
867.091	0.0163680
867.169	0.0164970
867.247	0.0165273
867.325	0.0164758
867.404	0.0164970
867.482	0.0165075
867.560	0.0166420
867.638	0.0165859
867.716	0.0166929
867.794	0.0165352
867.872	0.0167178
867.950	0.0166640
868.029	0.0167128
868.107	0.0167672
868.185	0.0167072
868.263	0.0167198
868.341	0.0168156
868.419	0.0166566
868.497	0.0167496
868.575	0.0168657
868.654	0.0167297
868.732	0.0166763
868.810	0.0167084
868.888	0.0166695
868.966	0.0166867
869.044	0.0166356
869.122	0.0166260
869.200	0.0165165
869.279	0.0165537
869.357	0.0165219
869.435	0.0165770
869.513	0.0163789
869.591	0.0164086
869.669	0.0164597
869.747	0.0164066
869.825	0.0163185
869.904	0.0163675
869.982	0.0164026
870.060	0.0163497
870.138	0.0163379
870.216	0.0162450
870.294	0.0164157
870.372	0.0163065
870.450	0.0163453
870.529	0.0163869
870.607	0.0162801
870.685	0.0162684
870.763	0.0162685
870.841	0.0162142
870.919	0.0164249
870.997	0.0162761
871.075	0.0163147
871.154	0.0162263
871.232	0.0163779
871.310	0.0163326
871.388	0.0162103
871.466	0.0163100
871.544	0.0162810
871.622	0.0163973
871.700	0.0163708
871.779	0.0163231
871.857	0.0164018
871.935	0.0162222
872.013	0.0164311
872.091	0.0165615
872.169	0.0163409
872.247	0.0164197
872.325	0.0164632
872.404	0.0164168
872.482	0.0164377
872.560	0.0164441
872.638	0.0163277
872.716	0.0163259
872.794	0.0162944
872.872	0.0163794
872.950	0.0164535
873.029	0.0164091
873.107	0.0163499
873.185	0.0162607
873.263	0.0163374
873.341	0.0163538
873.419	0.0163472
873.497	0.0163655
873.575	0.0162452
873.654	0.0163659
873.732	0.0163974
873.810	0.0162581
873.888	0.0161752
873.966	0.0162267
874.044	0.0163042
874.122	0.0162307
874.200	0.0160950
874.279	0.0161476
874.357	0.0162825
874.435	0.0160209
874.513	0.0162624
874.591	0.0162653
874.669	0.0162402
874.747	0.0162061
874.825	0.0163076
874.904	0.0163010
874.982	0.0162461
875.060	0.0162753
875.138	0.0163489
875.216	0.0164212
875.294	0.0162133
875.372	0.0164049
875.450	0.0163834
875.529	0.0164259
875.607	0.0163783
875.685	0.0164108
875.763	0.0163046
875.841	0.0163622
875.919	0.0164411
875.997	0.0164051
876.075	0.0166664
876.154	0.0164900
876.232	0.0165083
876.310	0.0165788
876.388	0.0163001
876.466	0.0162765
876.544	0.0163850
876.622	0.0163440
876.700	0.0163813
876.779	0.0164663
876.857	0.0164180
876.935	0.0162808
877.013	0.0164011
877.091	0.0163762
877.169	0.0162611
877.247	0.0161328
877.325	0.0162806
877.404	0.0162700
877.482	0.0162794
877.560	0.0162860
877.638	0.0162434
877.716	0.0162488
877.794	0.0163853
877.872	0.0161630
877.950	0.0161722
878.029	0.0162644
878.107	0.0162054
878.185	0.0162877
878.263	0.0161813
878.341	0.0162805
878.419	0.0162169
878.497	0.0162002
878.575	0.0162470
878.654	0.0161633
878.732	0.0162320
878.810	0.0163594
878.888	0.0162790
878.966	0.0161358
879.044	0.0163359
879.122	0.0162793
879.200	0.0162265
879.279	0.0162668
879.357	0.0162323
879.435	0.0161370
879.513	0.0163972
879.591	0.0164426
879.669	0.0162250
879.747	0.0161803
879.825	0.0161561
879.904	0.0161970
879.982	0.0163020
880.060	0.0162972
880.138	0.0161987
880.216	0.0163158
880.294	0.0163202
880.372	0.0161877
880.450	0.0163902
880.529	0.0162977
880.607	0.0161742
880.685	0.0160784
880.763	0.0162675
880.841	0.0162853
880.919	0.0161830
880.997	0.0162225
881.075	0.0161811
881.154	0.0162013
881.232	0.0161985
881.310	0.0161008
881.388	0.0161408
881.466	0.0162421
881.544	0.0162586
881.622	0.0162981
881.700	0.0161379
881.779	0.0162441
881.857	0.0160469
881.935	0.0160873
882.013	0.0161343
882.091	0.0161453
882.169	0.0161750
882.247	0.0163235
882.325	0.0161686
882.404	0.0162509
882.482	0.0163304
882.560	0.0162302
882.638	0.0162727
882.716	0.0161581
882.794	0.0162294
882.872	0.0162192
882.950	0.0162542
883.029	0.0161453
883.107	0.0161636
883.185	0.0162528
883.263	0.0162897
883.341	0.0162882
883.419	0.0163764
883.497	0.0163377
883.575	0.0161424
883.654	0.0163104
883.732	0.0162157
883.810	0.0161675
883.888	0.0161123
883.966	0.0161347
884.044	0.0163181
884.122	0.0161971
884.200	0.0161334
884.279	0.0161966
884.357	0.0161525
884.435	0.0163226
884.513	0.0165067
884.591	0.0163200
884.669	0.0163600
884.747	0.0163982
884.825	0.0163263
884.904	0.0162554
884.982	0.0163312
885.060	0.0164545
885.138	0.0163428
885.216	0.0163306
885.294	0.0162904
885.372	0.0162851
885.450	0.0163708
885.529	0.0164622
885.607	0.0163410
885.685	0.0163496
885.763	0.0164563
885.841	0.0163849
885.919	0.0164484
885.997	0.0164016
886.075	0.0164444
886.154	0.0164084
886.232	0.0166178
886.310	0.0164065
886.388	0.0163851
886.466	0.0164677
886.544	0.0164372
886.622	0.0165888
886.700	0.0164658
886.779	0.0164429
886.857	0.0164182
886.935	0.0164052
887.013	0.0164297
887.091	0.0163822
887.169	0.0164619
887.247	0.0163834
887.325	0.0163666
887.404	0.0162642
887.482	0.0162927
887.560	0.0164209
887.638	0.0163155
887.716	0.0163726
887.794	0.0162164
887.872	0.0162654
887.950	0.0162425
888.029	0.0162962
888.107	0.0163310
888.185	0.0163248
888.263	0.0163199
888.341	0.0164588
888.419	0.0164097
888.497	0.0161540
888.575	0.0162808
888.654	0.0163548
888.732	0.0164201
888.810	0.0163159
888.888	0.0163374
888.966	0.0161456
889.044	0.0162047
889.122	0.0163069
889.200	0.0162762
889.279	0.0162100
889.357	0.0162410
889.435	0.0163169
889.513	0.0163042
889.591	0.0161456
889.669	0.0161745
889.747	0.0162764
889.825	0.0163624
889.904	0.0162423
889.982	0.0163644
890.060	0.0161836
890.138	0.0163411
890.216	0.0163850
890.294	0.0162894
890.372	0.0162697
890.450	0.0166079
890.529	0.0163975
890.607	0.0163079
890.685	0.0164424
890.763	0.0164898
890.841	0.0165258
890.919	0.0165469
890.997	0.0163714
891.075	0.0163870
891.154	0.0162466
891.232	0.0162695
891.310	0.0163728
891.388	0.0163607
891.466	0.0164634
891.544	0.0165022
891.622	0.0163758
891.700	0.0163889
891.779	0.0163257
891.857	0.0161474
891.935	0.0163953
892.013	0.0163838
892.091	0.0163410
892.169	0.0163593
892.247	0.0162222
892.325	0.0161710
892.404	0.0162323
892.482	0.0161914
892.560	0.0162273
892.638	0.0161832
892.716	0.0161423
892.794	0.0161846
892.872	0.0162565
892.950	0.0162336
893.029	0.0161446
893.107	0.0163893
893.185	0.0163988
893.263	0.0163625
893.341	0.0163393
893.419	0.0164120
893.497	0.0162265
893.575	0.0165071
893.654	0.0163472
893.732	0.0164169
893.810	0.0165354
893.888	0.0164604
893.966	0.0163502
894.044	0.0164149
894.122	0.0163195
894.200	0.0165635
894.279	0.0165266
894.357	0.0163548
894.435	0.0165525
894.513	0.0165199
894.591	0.0162607
894.669	0.0163435
894.747	0.0164371
894.825	0.0163962
894.904	0.0162289
894.982	0.0164186
895.060	0.0163970
895.138	0.0163732
895.216	0.0163171
895.294	0.0163830
895.372	0.0163743
895.450	0.0163378
895.529	0.0163116
895.607	0.0164339
895.685	0.0163474
895.763	0.0163012
895.841	0.0163929
895.919	0.0163989
895.997	0.0163407
896.075	0.0163190
896.154	0.0163702
896.232	0.0163150
896.310	0.0163573
896.388	0.0163353
896.466	0.0163716
896.544	0.0162165
896.622	0.0162295
896.700	0.0162734
896.779	0.0162993
896.857	0.0162172
896.935	0.0161287
897.013	0.0162576
897.091	0.0162633
897.169	0.0161950
897.247	0.0164259
897.325	0.0162404
897.404	0.0162884
897.482	0.0162735
897.560	0.0163157
897.638	0.0162554
897.716	0.0164056
897.794	0.0163866
897.872	0.0164156
897.950	0.0163135
898.029	0.0164147
898.107	0.0162414
898.185	0.0162865
898.263	0.0163902
898.341	0.0162648
898.419	0.0164594
898.497	0.0163448
898.575	0.0163545
898.654	0.0163217
898.732	0.0163596
898.810	0.0163531
898.888	0.0163635
898.966	0.0161895
899.044	0.0161600
899.122	0.0161649
899.200	0.0162139
899.279	0.0163302
899.357	0.0164102
899.435	0.0162025
899.513	0.0161797
899.591	0.0162933
899.669	0.0162544
899.747	0.0161046
899.825	0.0161012
899.904	0.0160663
899.982	0.0161818
900.060	0.0160886
900.138	0.0160278
900.216	0.0159033
900.294	0.0162254
900.372	0.0160320
900.450	0.0159968
900.529	0.0161759
900.607	0.0160898
900.685	0.0160622
900.763	0.0161008
900.841	0.0162853
900.919	0.0161854
900.997	0.0160709
901.075	0.0162172
901.154	0.0161431
901.232	0.0162243
901.310	0.0162550
901.388	0.0161935
901.466	0.0162561
901.544	0.0164423
901.622	0.0161873
901.700	0.0162849
901.779	0.0164224
901.857	0.0163354
901.935	0.0164669
902.013	0.0164662
902.091	0.0163246
902.169	0.0163488
902.247	0.0163534
902.325	0.0164468
902.404	0.0163429
902.482	0.0164048
902.560	0.0163007
902.638	0.0164573
902.716	0.0164041
902.794	0.0163340
902.872	0.0163119
902.950	0.0164148
903.029	0.0163422
903.107	0.0163041
903.185	0.0162168
903.263	0.0163421
903.341	0.0163801
903.419	0.0163479
903.497	0.0163070
903.575	0.0164416
903.654	0.0164251
903.732	0.0162183
903.810	0.0163506
903.888	0.0163072
903.966	0.0162852
904.044	0.0163230
904.122	0.0160895
904.200	0.0160281
904.279	0.0162865
904.357	0.0162057
904.435	0.0162370
904.513	0.0161173
904.591	0.0162157
904.669	0.0161369
904.747	0.0161631
904.825	0.0162295
904.904	0.0163383
904.982	0.0161959
905.060	0.0161738
905.138	0.0161230
905.216	0.0161697
905.294	0.0161569
905.372	0.0162817
905.450	0.0161932
905.529	0.0162455
905.607	0.0162520
905.685	0.0163815
905.763	0.0162959
905.841	0.0162952
905.919	0.0163292
905.997	0.0162299
906.075	0.0163783
906.154	0.0163670
906.232	0.0163047
906.310	0.0164857
906.388	0.0164758
906.466	0.0165929
906.544	0.0164957
906.622	0.0164330
906.700	0.0163876
906.779	0.0165298
906.857	0.0164995
906.935	0.0163398
907.013	0.0164799
907.091	0.0165533
907.169	0.0164921
907.247	0.0165629
907.325	0.0163816
907.404	0.0163824
907.482	0.0164262
907.560	0.0164243
907.638	0.0164997
907.716	0.0162880
907.794	0.0163095
907.872	0.0162728
907.950	0.0164028
908.029	0.0163224
908.107	0.0163219
908.185	0.0163506
908.263	0.0162318
908.341	0.0162438
908.419	0.0162689
908.497	0.0164089
908.575	0.0163946
908.654	0.0163750
908.732	0.0163197
908.810	0.0163571
908.888	0.0163579
908.966	0.0163432
909.044	0.0162974
909.122	0.0163840
909.200	0.0164645
909.279	0.0163374
909.357	0.0164707
909.435	0.0164983
909.513	0.0163993
909.591	0.0163341
909.669	0.0164108
909.747	0.0165044
909.825	0.0164972
909.904	0.0166160
909.982	0.0163457
910.060	0.0164480
910.138	0.0165007
910.216	0.0165566
910.294	0.0163906
910.372	0.0163735
910.450	0.0163451
910.529	0.0164221
910.607	0.0163411
910.685	0.0163438
910.763	0.0164210
910.841	0.0164713
910.919	0.0162222
910.997	0.0162923
911.075	0.0162569
911.154	0.0162973
911.232	0.0163447
911.310	0.0161585
911.388	0.0162859
911.466	0.0162941
911.544	0.0163721
911.622	0.0163116
911.700	0.0162283
911.779	0.0163255
911.857	0.0162602
911.935	0.0164050
912.013	0.0163913
912.091	0.0163102
912.169	0.0163545
912.247	0.0163709
912.325	0.0163964
912.404	0.0163156
912.482	0.0164234
912.560	0.0165211
912.638	0.0162883
912.716	0.0162843
912.794	0.0163985
912.872	0.0164621
912.950	0.0162639
913.029	0.0163209
913.107	0.0163766
913.185	0.0163613
913.263	0.0163329
913.341	0.0161655
913.419	0.0162779
913.497	0.0161884
913.575	0.0161674
913.654	0.0161613
913.732	0.0161706
913.810	0.0161379
913.888	0.0161143
913.966	0.0161764
914.044	0.0161208
914.122	0.0161842
914.200	0.0161311
914.279	0.0161482
914.357	0.0161194
914.435	0.0160942
914.513	0.0161435
914.591	0.0161063
914.669	0.0160340
914.747	0.0161347
914.825	0.0160867
914.904	0.0160371
914.982	0.0160719
915.060	0.0160573
915.138	0.0160197
915.216	0.0161198
915.294	0.0162659
915.372	0.0162060
915.450	0.0161763
915.529	0.0162086
915.607	0.0161953
915.685	0.0161646
915.763	0.0162943
915.841	0.0163055
915.919	0.0161817
915.997	0.0161237
916.075	0.0161855
916.154	0.0161537
916.232	0.0161487
916.310	0.0163180
916.388	0.0162446
916.466	0.0162525
916.544	0.0161929
916.622	0.0163078
916.700	0.0162960
916.779	0.0161581
916.857	0.0163580
916.935	0.0163546
917.013	0.0162663
917.091	0.0163583
917.169	0.0164493
917.247	0.0163678
917.325	0.0164958
917.404	0.0162965
917.482	0.0162516
917.560	0.0162741
917.638	0.0165125
917.716	0.0163351
917.794	0.0163604
917.872	0.0162883
917.950	0.0162704
918.029	0.0162727
918.107	0.0163222
918.185	0.0162521
918.263	0.0162864
918.341	0.0162926
918.419	0.0162563
918.497	0.0162235
918.575	0.0162310
918.654	0.0162344
918.732	0.0161913
918.810	0.0160492
918.888	0.0160844
918.966	0.0161635
919.044	0.0161306
919.122	0.0161030
919.200	0.0161529
919.279	0.0161292
919.357	0.0161353
919.435	0.0161951
919.513	0.0163253
919.591	0.0162856
919.669	0.0162122
919.747	0.0162356
919.825	0.0162755
919.904	0.0161817
