05/24/2022	20:47:52	Ver.	4.1	UNKNOWN
Optical Delay	599.988409	Delta X		0.078125	Sweeps	1	Scan Rate	0/0
Coordinates	Axis 1	NaN	Axis 2	NaN	Axis 3	NaN	Axis 4	NaN	Axis 5	NaN	Axis 6	0.000000
TX Power	0.000000	RX Power	0.000000

599.988	0.0163086
600.067	0.0163618
600.145	0.0162628
600.223	0.0162898
600.301	0.0163241
600.379	0.0164241
600.457	0.0162943
600.535	0.0161920
600.613	0.0163448
600.692	0.0161641
600.770	0.0163100
600.848	0.0163590
600.926	0.0164231
601.004	0.0162589
601.082	0.0164043
601.160	0.0163419
601.238	0.0164532
601.317	0.0163629
601.395	0.0163967
601.473	0.0164166
601.551	0.0165581
601.629	0.0164943
601.707	0.0164951
601.785	0.0166158
601.863	0.0164477
601.942	0.0163962
602.020	0.0165377
602.098	0.0165096
602.176	0.0164721
602.254	0.0164249
602.332	0.0165780
602.410	0.0164606
602.488	0.0164397
602.567	0.0163837
602.645	0.0165440
602.723	0.0165178
602.801	0.0162274
602.879	0.0164551
602.957	0.0163738
603.035	0.0163462
603.113	0.0163839
603.192	0.0164520
603.270	0.0162756
603.348	0.0162514
603.426	0.0164033
603.504	0.0165236
603.582	0.0163605
603.660	0.0162390
603.738	0.0163547
603.817	0.0164185
603.895	0.0163889
603.973	0.0163392
604.051	0.0163673
604.129	0.0162930
604.207	0.0164499
604.285	0.0163556
604.363	0.0164335
604.442	0.0163896
604.520	0.0162700
604.598	0.0162508
604.676	0.0162759
604.754	0.0163647
604.832	0.0164773
604.910	0.0162247
604.988	0.0163102
605.067	0.0164423
605.145	0.0163815
605.223	0.0163316
605.301	0.0163934
605.379	0.0162404
605.457	0.0164525
605.535	0.0164365
605.613	0.0163058
605.692	0.0163767
605.770	0.0163554
605.848	0.0164465
605.926	0.0163177
606.004	0.0164610
606.082	0.0163935
606.160	0.0162141
606.238	0.0163187
606.317	0.0164700
606.395	0.0164031
606.473	0.0164260
606.551	0.0164650
606.629	0.0162915
606.707	0.0162114
606.785	0.0162333
606.863	0.0163939
606.942	0.0163607
607.020	0.0161656
607.098	0.0162807
607.176	0.0162737
607.254	0.0161608
607.332	0.0162738
607.410	0.0162126
607.488	0.0161677
607.567	0.0162210
607.645	0.0160665
607.723	0.0161759
607.801	0.0162551
607.879	0.0162152
607.957	0.0163333
608.035	0.0161810
608.113	0.0162228
608.192	0.0161988
608.270	0.0162954
608.348	0.0162269
608.426	0.0161322
608.504	0.0162267
608.582	0.0161308
608.660	0.0162558
608.738	0.0162840
608.817	0.0162173
608.895	0.0162186
608.973	0.0163357
609.051	0.0163846
609.129	0.0161665
609.207	0.0160592
609.285	0.0161750
609.363	0.0163498
609.442	0.0163355
609.520	0.0160351
609.598	0.0162406
609.676	0.0163133
609.754	0.0163969
609.832	0.0164977
609.910	0.0163773
609.988	0.0164431
610.067	0.0164087
610.145	0.0163031
610.223	0.0162916
610.301	0.0163966
610.379	0.0164004
610.457	0.0165633
610.535	0.0164465
610.613	0.0163618
610.692	0.0165137
610.770	0.0165586
610.848	0.0164622
610.926	0.0163656
611.004	0.0165096
611.082	0.0164416
611.160	0.0164530
611.238	0.0165620
611.317	0.0164162
611.395	0.0165439
611.473	0.0165537
611.551	0.0164715
611.629	0.0165658
611.707	0.0164395
611.785	0.0165818
611.863	0.0165714
611.942	0.0166140
612.020	0.0166163
612.098	0.0165811
612.176	0.0163214
612.254	0.0163869
612.332	0.0164755
612.410	0.0163513
612.488	0.0162174
612.567	0.0163539
612.645	0.0162872
612.723	0.0161464
612.801	0.0162639
612.879	0.0162717
612.957	0.0163262
613.035	0.0162595
613.113	0.0161224
613.192	0.0163330
613.270	0.0164688
613.348	0.0164082
613.426	0.0165503
613.504	0.0167204
613.582	0.0165888
613.660	0.0166317
613.738	0.0166206
613.817	0.0165906
613.895	0.0166593
613.973	0.0167986
614.051	0.0167224
614.129	0.0165801
614.207	0.0165629
614.285	0.0165609
614.363	0.0164140
614.442	0.0163998
614.520	0.0163239
614.598	0.0162865
614.676	0.0163261
614.754	0.0161253
614.832	0.0162106
614.910	0.0161311
614.988	0.0162078
615.067	0.0161791
615.145	0.0161835
615.223	0.0159498
615.301	0.0160518
615.379	0.0160567
615.457	0.0160019
615.535	0.0160015
615.613	0.0160480
615.692	0.0160703
615.770	0.0162379
615.848	0.0161674
615.926	0.0160542
616.004	0.0162846
616.082	0.0161919
616.160	0.0161901
616.238	0.0160765
616.317	0.0160157
616.395	0.0160733
616.473	0.0161082
616.551	0.0159302
616.629	0.0157626
616.707	0.0158795
616.785	0.0159009
616.863	0.0156913
616.942	0.0158347
617.020	0.0156532
617.098	0.0155460
617.176	0.0157156
617.254	0.0156651
617.332	0.0156946
617.410	0.0157123
617.488	0.0157684
617.567	0.0157420
617.645	0.0159253
617.723	0.0159196
617.801	0.0160183
617.879	0.0161890
617.957	0.0163540
618.035	0.0166273
618.113	0.0165535
618.192	0.0167348
618.270	0.0168530
618.348	0.0168812
618.426	0.0170074
618.504	0.0171294
618.582	0.0170966
618.660	0.0171053
618.738	0.0169891
618.817	0.0169727
618.895	0.0168382
618.973	0.0168672
619.051	0.0167810
619.129	0.0165496
619.207	0.0164935
619.285	0.0162123
619.363	0.0160712
619.442	0.0159963
619.520	0.0159098
619.598	0.0158791
619.676	0.0156487
619.754	0.0155296
619.832	0.0154337
619.910	0.0153964
619.988	0.0152080
620.067	0.0152715
620.145	0.0152364
620.223	0.0150252
620.301	0.0150085
620.379	0.0150957
620.457	0.0149563
620.535	0.0149320
620.613	0.0152107
620.692	0.0152740
620.770	0.0153633
620.848	0.0156150
620.926	0.0158055
621.004	0.0159409
621.082	0.0162082
621.160	0.0162563
621.238	0.0167309
621.317	0.0168315
621.395	0.0169830
621.473	0.0172537
621.551	0.0172486
621.629	0.0173906
621.707	0.0175523
621.785	0.0174895
621.863	0.0176257
621.942	0.0175761
622.020	0.0176402
622.098	0.0174265
622.176	0.0175021
622.254	0.0175095
622.332	0.0173373
622.410	0.0173100
622.488	0.0170905
622.567	0.0170031
622.645	0.0168322
622.723	0.0165627
622.801	0.0165631
622.879	0.0164687
622.957	0.0163483
623.035	0.0161799
623.113	0.0160480
623.192	0.0159499
623.270	0.0158255
623.348	0.0159607
623.426	0.0157538
623.504	0.0158501
623.582	0.0158611
623.660	0.0157678
623.738	0.0159016
623.817	0.0157319
623.895	0.0157417
623.973	0.0158093
624.051	0.0158782
624.129	0.0158059
624.207	0.0157312
624.285	0.0155745
624.363	0.0154966
624.442	0.0156940
624.520	0.0156029
624.598	0.0155621
624.676	0.0154205
624.754	0.0155463
624.832	0.0155750
624.910	0.0156549
624.988	0.0157107
625.067	0.0156235
625.145	0.0156133
625.223	0.0159713
625.301	0.0160898
625.379	0.0161777
625.457	0.0162177
625.535	0.0163830
625.613	0.0165615
625.692	0.0169698
625.770	0.0170957
625.848	0.0174490
625.926	0.0176350
626.004	0.0179066
626.082	0.0181029
626.160	0.0181163
626.238	0.0184032
626.317	0.0185278
626.395	0.0185928
626.473	0.0185960
626.551	0.0186611
626.629	0.0185888
626.707	0.0184872
626.785	0.0183166
626.863	0.0181713
626.942	0.0176996
627.020	0.0175381
627.098	0.0170631
627.176	0.0168828
627.254	0.0165120
627.332	0.0160920
627.410	0.0158736
627.488	0.0156968
627.567	0.0152164
627.645	0.0149744
627.723	0.0147655
627.801	0.0146011
627.879	0.0143362
627.957	0.0142913
628.035	0.0141540
628.113	0.0139053
628.192	0.0137994
628.270	0.0138225
628.348	0.0138962
628.426	0.0139137
628.504	0.0137955
628.582	0.0139220
628.660	0.0139990
628.738	0.0141354
628.817	0.0142970
628.895	0.0145668
628.973	0.0147935
629.051	0.0149389
629.129	0.0152174
629.207	0.0156644
629.285	0.0159180
629.363	0.0162739
629.442	0.0164816
629.520	0.0168430
629.598	0.0171158
629.676	0.0174670
629.754	0.0176779
629.832	0.0179224
629.910	0.0181521
629.988	0.0183551
630.067	0.0184449
630.145	0.0186499
630.223	0.0187556
630.301	0.0187861
630.379	0.0187470
630.457	0.0188565
630.535	0.0187730
630.613	0.0187740
630.692	0.0187643
630.770	0.0188466
630.848	0.0188054
630.926	0.0186771
631.004	0.0186574
631.082	0.0186111
631.160	0.0183503
631.238	0.0183014
631.317	0.0180540
631.395	0.0177635
631.473	0.0173982
631.551	0.0171542
631.629	0.0168522
631.707	0.0165456
631.785	0.0160752
631.863	0.0155310
631.942	0.0151937
632.020	0.0149978
632.098	0.0146113
632.176	0.0143047
632.254	0.0139233
632.332	0.0135591
632.410	0.0132937
632.488	0.0131366
632.567	0.0130075
632.645	0.0129465
632.723	0.0128504
632.801	0.0128137
632.879	0.0130113
632.957	0.0130045
633.035	0.0130636
633.113	0.0132110
633.192	0.0136107
633.270	0.0137994
633.348	0.0140920
633.426	0.0145024
633.504	0.0148286
633.582	0.0152475
633.660	0.0158479
633.738	0.0162080
633.817	0.0167031
633.895	0.0170937
633.973	0.0176554
634.051	0.0178421
634.129	0.0181824
634.207	0.0184059
634.285	0.0187280
634.363	0.0188884
634.442	0.0191743
634.520	0.0190449
634.598	0.0191576
634.676	0.0190056
634.754	0.0190682
634.832	0.0190259
634.910	0.0188187
634.988	0.0185352
635.067	0.0185398
635.145	0.0183038
635.223	0.0179627
635.301	0.0178542
635.379	0.0178517
635.457	0.0175386
635.535	0.0172356
635.613	0.0170333
635.692	0.0168011
635.770	0.0165625
635.848	0.0163883
635.926	0.0161006
636.004	0.0157944
636.082	0.0156552
636.160	0.0154042
636.238	0.0153421
636.317	0.0150478
636.395	0.0148215
636.473	0.0146966
636.551	0.0145695
636.629	0.0146301
636.707	0.0145998
636.785	0.0145614
636.863	0.0145119
636.942	0.0145536
637.020	0.0145967
637.098	0.0146902
637.176	0.0147033
637.254	0.0148071
637.332	0.0148492
637.410	0.0149741
637.488	0.0152622
637.567	0.0152253
637.645	0.0155363
637.723	0.0156847
637.801	0.0157952
637.879	0.0159104
637.957	0.0161714
638.035	0.0162390
638.113	0.0163387
638.192	0.0166442
638.270	0.0167521
638.348	0.0166607
638.426	0.0167442
638.504	0.0167719
638.582	0.0168098
638.660	0.0167198
638.738	0.0167676
638.817	0.0166299
638.895	0.0165816
638.973	0.0165010
639.051	0.0165709
639.129	0.0163793
639.207	0.0162680
639.285	0.0162990
639.363	0.0161771
639.442	0.0161519
639.520	0.0161207
639.598	0.0160802
639.676	0.0161725
639.754	0.0160443
639.832	0.0160359
639.910	0.0159536
639.988	0.0158218
640.067	0.0158479
640.145	0.0158680
640.223	0.0159228
640.301	0.0159019
640.379	0.0160299
640.457	0.0161978
640.535	0.0163040
640.613	0.0162734
640.692	0.0164981
640.770	0.0165487
640.848	0.0166915
640.926	0.0167314
641.004	0.0167773
641.082	0.0168123
641.160	0.0168449
641.238	0.0166977
641.317	0.0168357
641.395	0.0167662
641.473	0.0167316
641.551	0.0169930
641.629	0.0170012
641.707	0.0169080
641.785	0.0170097
641.863	0.0171152
641.942	0.0172592
642.020	0.0171481
642.098	0.0172273
642.176	0.0171932
642.254	0.0174357
642.332	0.0172778
642.410	0.0170924
642.488	0.0170836
642.567	0.0170180
642.645	0.0169056
642.723	0.0166972
642.801	0.0165619
642.879	0.0164122
642.957	0.0162334
643.035	0.0160313
643.113	0.0160008
643.192	0.0157817
643.270	0.0157541
643.348	0.0155662
643.426	0.0154092
643.504	0.0152431
643.582	0.0150997
643.660	0.0150331
643.738	0.0147857
643.817	0.0146796
643.895	0.0143999
643.973	0.0143459
644.051	0.0142079
644.129	0.0141081
644.207	0.0141627
644.285	0.0141365
644.363	0.0140369
644.442	0.0141280
644.520	0.0142300
644.598	0.0144079
644.676	0.0144835
644.754	0.0148468
644.832	0.0151990
644.910	0.0154703
644.988	0.0156952
645.067	0.0161636
645.145	0.0164862
645.223	0.0167924
645.301	0.0172324
645.379	0.0174494
645.457	0.0175827
645.535	0.0178886
645.613	0.0180202
645.692	0.0180207
645.770	0.0182040
645.848	0.0181891
645.926	0.0182060
646.004	0.0184499
646.082	0.0184043
646.160	0.0183527
646.238	0.0182677
646.317	0.0182795
646.395	0.0182737
646.473	0.0182733
646.551	0.0181873
646.629	0.0179973
646.707	0.0178196
646.785	0.0177631
646.863	0.0176657
646.942	0.0173345
647.020	0.0173739
647.098	0.0171259
647.176	0.0168751
647.254	0.0166540
647.332	0.0164307
647.410	0.0163398
647.488	0.0161518
647.567	0.0159756
647.645	0.0156618
647.723	0.0156161
647.801	0.0155888
647.879	0.0155078
647.957	0.0152309
648.035	0.0152327
648.113	0.0151634
648.192	0.0151545
648.270	0.0149798
648.348	0.0149159
648.426	0.0149316
648.504	0.0149387
648.582	0.0148901
648.660	0.0146057
648.738	0.0146154
648.817	0.0145926
648.895	0.0145142
648.973	0.0145235
649.051	0.0146346
649.129	0.0146886
649.207	0.0145876
649.285	0.0147185
649.363	0.0149007
649.442	0.0148042
649.520	0.0150298
649.598	0.0153452
649.676	0.0154650
649.754	0.0156698
649.832	0.0158074
649.910	0.0160710
649.988	0.0164626
650.067	0.0165450
650.145	0.0167120
650.223	0.0168853
650.301	0.0170728
650.379	0.0172670
650.457	0.0174875
650.535	0.0176107
650.613	0.0177630
650.692	0.0178020
650.770	0.0179073
650.848	0.0183130
650.926	0.0183264
651.004	0.0184587
651.082	0.0184945
651.160	0.0185263
651.238	0.0185765
651.317	0.0187016
651.395	0.0184292
651.473	0.0184795
651.551	0.0184839
651.629	0.0184801
651.707	0.0183433
651.785	0.0180332
651.863	0.0178661
651.942	0.0176836
652.020	0.0174868
652.098	0.0171755
652.176	0.0168772
652.254	0.0165724
652.332	0.0163372
652.410	0.0163882
652.488	0.0161043
652.567	0.0158407
652.645	0.0155847
652.723	0.0154194
652.801	0.0150344
652.879	0.0149186
652.957	0.0147408
653.035	0.0146108
653.113	0.0143213
653.192	0.0142474
653.270	0.0140112
653.348	0.0139860
653.426	0.0140321
653.504	0.0138884
653.582	0.0139738
653.660	0.0140825
653.738	0.0139760
653.817	0.0141952
653.895	0.0143573
653.973	0.0145100
654.051	0.0147605
654.129	0.0149180
654.207	0.0150886
654.285	0.0154687
654.363	0.0157679
654.442	0.0159173
654.520	0.0163575
654.598	0.0166910
654.676	0.0170115
654.754	0.0171452
654.832	0.0174000
654.910	0.0178313
654.988	0.0179561
655.067	0.0181066
655.145	0.0182463
655.223	0.0183675
655.301	0.0183865
655.379	0.0184449
655.457	0.0184560
655.535	0.0182563
655.613	0.0181007
655.692	0.0179065
655.770	0.0177945
655.848	0.0175076
655.926	0.0171050
656.004	0.0169168
656.082	0.0166364
656.160	0.0163759
656.238	0.0161667
656.317	0.0160161
656.395	0.0156474
656.473	0.0156499
656.551	0.0154556
656.629	0.0151927
656.707	0.0151335
656.785	0.0149001
656.863	0.0148467
656.942	0.0146646
657.020	0.0149050
657.098	0.0147898
657.176	0.0148171
657.254	0.0150087
657.332	0.0152511
657.410	0.0153519
657.488	0.0154853
657.567	0.0157102
657.645	0.0158628
657.723	0.0160612
657.801	0.0163022
657.879	0.0164691
657.957	0.0167343
658.035	0.0167839
658.113	0.0169389
658.192	0.0170837
658.270	0.0169427
658.348	0.0170091
658.426	0.0169090
658.504	0.0169009
658.582	0.0168690
658.660	0.0167570
658.738	0.0166998
658.817	0.0165549
658.895	0.0164934
658.973	0.0162848
659.051	0.0161876
659.129	0.0162582
659.207	0.0160041
659.285	0.0158866
659.363	0.0157981
659.442	0.0156890
659.520	0.0157046
659.598	0.0156278
659.676	0.0155502
659.754	0.0156881
659.832	0.0158618
659.910	0.0158384
659.988	0.0159415
660.067	0.0161018
660.145	0.0161369
660.223	0.0162705
660.301	0.0162788
660.379	0.0164451
660.457	0.0164519
660.535	0.0166261
660.613	0.0165079
660.692	0.0165437
660.770	0.0165221
660.848	0.0165176
660.926	0.0164164
661.004	0.0164368
661.082	0.0163593
661.160	0.0161962
661.238	0.0161573
661.317	0.0161044
661.395	0.0161176
661.473	0.0160822
661.551	0.0161633
661.629	0.0161952
661.707	0.0161945
661.785	0.0163047
661.863	0.0165223
661.942	0.0165289
662.020	0.0167886
662.098	0.0169168
662.176	0.0169993
662.254	0.0171014
662.332	0.0170257
662.410	0.0171191
662.488	0.0171426
662.567	0.0172261
662.645	0.0173546
662.723	0.0171152
662.801	0.0170135
662.879	0.0170092
662.957	0.0170085
663.035	0.0169157
663.113	0.0167384
663.192	0.0166082
663.270	0.0165721
663.348	0.0163580
663.426	0.0163372
663.504	0.0162206
663.582	0.0159348
663.660	0.0157527
663.738	0.0157091
663.817	0.0154139
663.895	0.0151951
663.973	0.0152235
664.051	0.0149998
664.129	0.0149587
664.207	0.0146963
664.285	0.0148344
664.363	0.0148419
664.442	0.0148163
664.520	0.0149237
664.598	0.0150485
664.676	0.0151821
664.754	0.0154360
664.832	0.0155040
664.910	0.0158289
664.988	0.0161080
665.067	0.0162529
665.145	0.0163477
665.223	0.0166539
665.301	0.0168825
665.379	0.0170155
665.457	0.0171457
665.535	0.0172910
665.613	0.0174021
665.692	0.0174406
665.770	0.0176116
665.848	0.0177649
665.926	0.0177311
666.004	0.0179030
666.082	0.0176559
666.160	0.0178500
666.238	0.0177361
666.317	0.0177167
666.395	0.0174795
666.473	0.0172140
666.551	0.0170860
666.629	0.0170206
666.707	0.0168924
666.785	0.0166634
666.863	0.0165437
666.942	0.0164473
667.020	0.0162820
667.098	0.0162891
667.176	0.0160505
667.254	0.0158991
667.332	0.0157973
667.410	0.0159134
667.488	0.0158342
667.567	0.0155766
667.645	0.0156560
667.723	0.0154567
667.801	0.0152659
667.879	0.0153313
667.957	0.0153477
668.035	0.0152032
668.113	0.0151050
668.192	0.0151899
668.270	0.0151523
668.348	0.0152392
668.426	0.0151410
668.504	0.0153814
668.582	0.0155264
668.660	0.0155425
668.738	0.0155488
668.817	0.0157627
668.895	0.0160279
668.973	0.0161617
669.051	0.0161644
669.129	0.0164491
669.207	0.0167345
669.285	0.0168510
669.363	0.0169743
669.442	0.0171423
669.520	0.0173196
669.598	0.0173209
669.676	0.0175072
669.754	0.0174675
669.832	0.0175415
669.910	0.0175765
669.988	0.0175213
670.067	0.0174668
670.145	0.0174645
670.223	0.0174139
670.301	0.0174152
670.379	0.0172101
670.457	0.0171092
670.535	0.0168452
670.613	0.0167900
670.692	0.0167310
670.770	0.0166187
670.848	0.0163615
670.926	0.0163897
671.004	0.0161472
671.082	0.0160544
671.160	0.0161610
671.238	0.0161166
671.317	0.0160423
671.395	0.0160571
671.473	0.0160746
671.551	0.0159570
671.629	0.0160881
671.707	0.0160657
671.785	0.0159924
671.863	0.0160915
671.942	0.0160509
672.020	0.0158178
672.098	0.0159399
672.176	0.0158549
672.254	0.0158277
672.332	0.0157552
672.410	0.0158190
672.488	0.0156583
672.567	0.0156741
672.645	0.0157613
672.723	0.0157844
672.801	0.0158448
672.879	0.0159208
672.957	0.0159477
673.035	0.0161331
673.113	0.0162561
673.192	0.0162982
673.270	0.0160793
673.348	0.0164091
673.426	0.0163049
673.504	0.0162826
673.582	0.0161774
673.660	0.0164364
673.738	0.0164061
673.817	0.0163992
673.895	0.0165025
673.973	0.0165131
674.051	0.0165043
674.129	0.0164400
674.207	0.0165881
674.285	0.0166393
674.363	0.0167274
674.442	0.0167838
674.520	0.0169361
674.598	0.0168135
674.676	0.0170386
674.754	0.0169853
674.832	0.0170449
674.910	0.0170415
674.988	0.0171340
675.067	0.0172371
675.145	0.0171770
675.223	0.0171902
675.301	0.0169492
675.379	0.0170757
675.457	0.0170326
675.535	0.0167323
675.613	0.0167764
675.692	0.0167150
675.770	0.0166978
675.848	0.0166384
675.926	0.0163583
676.004	0.0164491
676.082	0.0163471
676.160	0.0162447
676.238	0.0162151
676.317	0.0161043
676.395	0.0161111
676.473	0.0159583
676.551	0.0159401
676.629	0.0159179
676.707	0.0158775
676.785	0.0157230
676.863	0.0156438
676.942	0.0155112
677.020	0.0155397
677.098	0.0153671
677.176	0.0152949
677.254	0.0154366
677.332	0.0153891
677.410	0.0153018
677.488	0.0154178
677.567	0.0152556
677.645	0.0154403
677.723	0.0154743
677.801	0.0156862
677.879	0.0158460
677.957	0.0159335
678.035	0.0160175
678.113	0.0162881
678.192	0.0165395
678.270	0.0167492
678.348	0.0167400
678.426	0.0169513
678.504	0.0169789
678.582	0.0172350
678.660	0.0172327
678.738	0.0172681
678.817	0.0171920
678.895	0.0172778
678.973	0.0173033
679.051	0.0172124
679.129	0.0172382
679.207	0.0172134
679.285	0.0171559
679.363	0.0169965
679.442	0.0168829
679.520	0.0168281
679.598	0.0166981
679.676	0.0166860
679.754	0.0165477
679.832	0.0164148
679.910	0.0161871
679.988	0.0161904
680.067	0.0161533
680.145	0.0160957
680.223	0.0160320
680.301	0.0160886
680.379	0.0161886
680.457	0.0160941
680.535	0.0160917
680.613	0.0159710
680.692	0.0161398
680.770	0.0161166
680.848	0.0162566
680.926	0.0161415
681.004	0.0162055
681.082	0.0164410
681.160	0.0165044
681.238	0.0165598
681.317	0.0164351
681.395	0.0165601
681.473	0.0166022
681.551	0.0166268
681.629	0.0165791
681.707	0.0164612
681.785	0.0162383
681.863	0.0163300
681.942	0.0162630
682.020	0.0160963
682.098	0.0160345
682.176	0.0160795
682.254	0.0161063
682.332	0.0161097
682.410	0.0160623
682.488	0.0160048
682.567	0.0159717
682.645	0.0161591
682.723	0.0161398
682.801	0.0162109
682.879	0.0163869
682.957	0.0163988
683.035	0.0164000
683.113	0.0164029
683.192	0.0164056
683.270	0.0166251
683.348	0.0165287
683.426	0.0163286
683.504	0.0164898
683.582	0.0163782
683.660	0.0163414
683.738	0.0164353
683.817	0.0163262
683.895	0.0164027
683.973	0.0163736
684.051	0.0163165
684.129	0.0161857
684.207	0.0161880
684.285	0.0161888
684.363	0.0161391
684.442	0.0161399
684.520	0.0162494
684.598	0.0161131
684.676	0.0159162
684.754	0.0160493
684.832	0.0160038
684.910	0.0161526
684.988	0.0160965
685.067	0.0160760
685.145	0.0161526
685.223	0.0161306
685.301	0.0163030
685.379	0.0163122
685.457	0.0162913
685.535	0.0164733
685.613	0.0163509
685.692	0.0165099
685.770	0.0165165
685.848	0.0165802
685.926	0.0165379
686.004	0.0165221
686.082	0.0166059
686.160	0.0165749
686.238	0.0165565
686.317	0.0165440
686.395	0.0164474
686.473	0.0166089
686.551	0.0164597
686.629	0.0164663
686.707	0.0165439
686.785	0.0166599
686.863	0.0166321
686.942	0.0166953
687.020	0.0164357
687.098	0.0163387
687.176	0.0165148
687.254	0.0165058
687.332	0.0164338
687.410	0.0164171
687.488	0.0164532
687.567	0.0162986
687.645	0.0163824
687.723	0.0163136
687.801	0.0163436
687.879	0.0162120
687.957	0.0162181
688.035	0.0163312
688.113	0.0160966
688.192	0.0161738
688.270	0.0161640
688.348	0.0161209
688.426	0.0162474
688.504	0.0162168
688.582	0.0160362
688.660	0.0160793
688.738	0.0160316
688.817	0.0160477
688.895	0.0158720
688.973	0.0159085
689.051	0.0158989
689.129	0.0159018
689.207	0.0159160
689.285	0.0160763
689.363	0.0161022
689.442	0.0162747
689.520	0.0163297
689.598	0.0163404
689.676	0.0165531
689.754	0.0167574
689.832	0.0168095
689.910	0.0169502
689.988	0.0170480
690.067	0.0171301
690.145	0.0172241
690.223	0.0172417
690.301	0.0172692
690.379	0.0171466
690.457	0.0170827
690.535	0.0171109
690.613	0.0170932
690.692	0.0169805
690.770	0.0170950
690.848	0.0168325
690.926	0.0167820
691.004	0.0167712
691.082	0.0166001
691.160	0.0164073
691.238	0.0164689
691.317	0.0164482
691.395	0.0161772
691.473	0.0161835
691.551	0.0163312
691.629	0.0161616
691.707	0.0160160
691.785	0.0158930
691.863	0.0158923
691.942	0.0159780
692.020	0.0158489
692.098	0.0157626
692.176	0.0157887
692.254	0.0157710
692.332	0.0157484
692.410	0.0158362
692.488	0.0158376
692.567	0.0158270
692.645	0.0160130
692.723	0.0160771
692.801	0.0161118
692.879	0.0162524
692.957	0.0163734
693.035	0.0163158
693.113	0.0164884
693.192	0.0165462
693.270	0.0165729
693.348	0.0166190
693.426	0.0166933
693.504	0.0167509
693.582	0.0167282
693.660	0.0166933
693.738	0.0167115
693.817	0.0166177
693.895	0.0166370
693.973	0.0166988
694.051	0.0164708
694.129	0.0165496
694.207	0.0164572
694.285	0.0165198
694.363	0.0164474
694.442	0.0164746
694.520	0.0165363
694.598	0.0164063
694.676	0.0163920
694.754	0.0164195
694.832	0.0162926
694.910	0.0163650
694.988	0.0164605
695.067	0.0164196
695.145	0.0162752
695.223	0.0163515
695.301	0.0164594
695.379	0.0164414
695.457	0.0165230
695.535	0.0164846
695.613	0.0163622
695.692	0.0165923
695.770	0.0166336
695.848	0.0166114
695.926	0.0167327
696.004	0.0167020
696.082	0.0167199
696.160	0.0167334
696.238	0.0167055
696.317	0.0166139
696.395	0.0167024
696.473	0.0168059
696.551	0.0168406
696.629	0.0168051
696.707	0.0166497
696.785	0.0166035
696.863	0.0166529
696.942	0.0166211
697.020	0.0164240
697.098	0.0163342
697.176	0.0164699
697.254	0.0164551
697.332	0.0162032
697.410	0.0161852
697.488	0.0160798
697.567	0.0159200
697.645	0.0158959
697.723	0.0158126
697.801	0.0158118
697.879	0.0155737
697.957	0.0157944
698.035	0.0156496
698.113	0.0154737
698.192	0.0155681
698.270	0.0157088
698.348	0.0156326
698.426	0.0155404
698.504	0.0157069
698.582	0.0157354
698.660	0.0157376
698.738	0.0157801
698.817	0.0158891
698.895	0.0158549
698.973	0.0158343
699.051	0.0159713
699.129	0.0158464
699.207	0.0158274
699.285	0.0159847
699.363	0.0160581
699.442	0.0161316
699.520	0.0161433
699.598	0.0161575
699.676	0.0161702
699.754	0.0162756
699.832	0.0163589
699.910	0.0162933
699.988	0.0164843
700.067	0.0163570
700.145	0.0163108
700.223	0.0164968
700.301	0.0165452
700.379	0.0164409
700.457	0.0165353
700.535	0.0166750
700.613	0.0165842
700.692	0.0165678
700.770	0.0166258
700.848	0.0165504
700.926	0.0166428
701.004	0.0167279
701.082	0.0166224
701.160	0.0164972
701.238	0.0167703
701.317	0.0166218
701.395	0.0165665
701.473	0.0166075
701.551	0.0166566
701.629	0.0164880
701.707	0.0166015
701.785	0.0166677
701.863	0.0165890
701.942	0.0165139
702.020	0.0167336
702.098	0.0167202
702.176	0.0165522
702.254	0.0165647
702.332	0.0166109
702.410	0.0165760
702.488	0.0166068
702.567	0.0165270
702.645	0.0164007
702.723	0.0164252
702.801	0.0163892
702.879	0.0162688
702.957	0.0162168
703.035	0.0161859
703.113	0.0161458
703.192	0.0160863
703.270	0.0161031
703.348	0.0162557
703.426	0.0162089
703.504	0.0162837
703.582	0.0160031
703.660	0.0161559
703.738	0.0161913
703.817	0.0159830
703.895	0.0162733
703.973	0.0163798
704.051	0.0163022
704.129	0.0164401
704.207	0.0162797
704.285	0.0163909
704.363	0.0162585
704.442	0.0162562
704.520	0.0162021
704.598	0.0160641
704.676	0.0162877
704.754	0.0161299
704.832	0.0161630
704.910	0.0161133
704.988	0.0160201
705.067	0.0160815
705.145	0.0161329
705.223	0.0161510
705.301	0.0160618
705.379	0.0161400
705.457	0.0162610
705.535	0.0162886
705.613	0.0161097
705.692	0.0161649
705.770	0.0160532
705.848	0.0162175
705.926	0.0162828
706.004	0.0162112
706.082	0.0163814
706.160	0.0163936
706.238	0.0164754
706.317	0.0163577
706.395	0.0163657
706.473	0.0166034
706.551	0.0165101
706.629	0.0165508
706.707	0.0164194
706.785	0.0165758
706.863	0.0165977
706.942	0.0164542
707.020	0.0163078
707.098	0.0164986
707.176	0.0164284
707.254	0.0164645
707.332	0.0164777
707.410	0.0165307
707.488	0.0163656
707.567	0.0163782
707.645	0.0162730
707.723	0.0163114
707.801	0.0164098
707.879	0.0163914
707.957	0.0163938
708.035	0.0164944
708.113	0.0164472
708.192	0.0163248
708.270	0.0163972
708.348	0.0164266
708.426	0.0166462
708.504	0.0165588
708.582	0.0165327
708.660	0.0165012
708.738	0.0165121
708.817	0.0165389
708.895	0.0165215
708.973	0.0166184
709.051	0.0166326
709.129	0.0162907
709.207	0.0165112
709.285	0.0164381
709.363	0.0163746
709.442	0.0164024
709.520	0.0165692
709.598	0.0164335
709.676	0.0165446
709.754	0.0164378
709.832	0.0165600
709.910	0.0164198
709.988	0.0164024
710.067	0.0163828
710.145	0.0162792
710.223	0.0161938
710.301	0.0163040
710.379	0.0163816
710.457	0.0162396
710.535	0.0162744
710.613	0.0162518
710.692	0.0162809
710.770	0.0163890
710.848	0.0163663
710.926	0.0163895
711.004	0.0165891
711.082	0.0165779
711.160	0.0165407
711.238	0.0165116
711.317	0.0165812
711.395	0.0165430
711.473	0.0165040
711.551	0.0165556
711.629	0.0165680
711.707	0.0165260
711.785	0.0164484
711.863	0.0165334
711.942	0.0164332
712.020	0.0162375
712.098	0.0163121
712.176	0.0163240
712.254	0.0161895
712.332	0.0161983
712.410	0.0161918
712.488	0.0162305
712.567	0.0161302
712.645	0.0161385
712.723	0.0160472
712.801	0.0160863
712.879	0.0161047
712.957	0.0161202
713.035	0.0160455
713.113	0.0160923
713.192	0.0160974
713.270	0.0161096
713.348	0.0161517
713.426	0.0162344
713.504	0.0161614
713.582	0.0161160
713.660	0.0163019
713.738	0.0162269
713.817	0.0161169
713.895	0.0161050
713.973	0.0162129
714.051	0.0163197
714.129	0.0163860
714.207	0.0164301
714.285	0.0162515
714.363	0.0162269
714.442	0.0163797
714.520	0.0163651
714.598	0.0164326
714.676	0.0164060
714.754	0.0163921
714.832	0.0163427
714.910	0.0164230
714.988	0.0164890
715.067	0.0164526
715.145	0.0162554
715.223	0.0165128
715.301	0.0163373
715.379	0.0163546
715.457	0.0164162
715.535	0.0163460
715.613	0.0163350
715.692	0.0164180
715.770	0.0164730
715.848	0.0164835
715.926	0.0163367
716.004	0.0164989
716.082	0.0164482
716.160	0.0164125
716.238	0.0163808
716.317	0.0164998
716.395	0.0164315
716.473	0.0163055
716.551	0.0163982
716.629	0.0163603
716.707	0.0162592
716.785	0.0162801
716.863	0.0162184
716.942	0.0162376
717.020	0.0162986
717.098	0.0162468
717.176	0.0162947
717.254	0.0163995
717.332	0.0160930
717.410	0.0162254
717.488	0.0162713
717.567	0.0162457
717.645	0.0161855
717.723	0.0162328
717.801	0.0162354
717.879	0.0163369
717.957	0.0161633
718.035	0.0163341
718.113	0.0163077
718.192	0.0161935
718.270	0.0162505
718.348	0.0163082
718.426	0.0162033
718.504	0.0160599
718.582	0.0162910
718.660	0.0161821
718.738	0.0160087
718.817	0.0160612
718.895	0.0161546
718.973	0.0160806
719.051	0.0160433
719.129	0.0159078
719.207	0.0159592
719.285	0.0161330
719.363	0.0159315
719.442	0.0159267
719.520	0.0159252
719.598	0.0160440
719.676	0.0160123
719.754	0.0158049
719.832	0.0158090
719.910	0.0159200
719.988	0.0160400
720.067	0.0157725
720.145	0.0159702
720.223	0.0161588
720.301	0.0159049
720.379	0.0159782
720.457	0.0161041
720.535	0.0158969
720.613	0.0159592
720.692	0.0159966
720.770	0.0159239
720.848	0.0159289
720.926	0.0159570
721.004	0.0159439
721.082	0.0160596
721.160	0.0159364
721.238	0.0159868
721.317	0.0161610
721.395	0.0161984
721.473	0.0160491
721.551	0.0161893
721.629	0.0159294
721.707	0.0160326
721.785	0.0162936
721.863	0.0162199
721.942	0.0160733
722.020	0.0162816
722.098	0.0163503
722.176	0.0163071
722.254	0.0164882
722.332	0.0164237
722.410	0.0165096
722.488	0.0165055
722.567	0.0166624
722.645	0.0166613
722.723	0.0167477
722.801	0.0167399
722.879	0.0166525
722.957	0.0167722
723.035	0.0167540
723.113	0.0166714
723.192	0.0167463
723.270	0.0166309
723.348	0.0165569
723.426	0.0165412
723.504	0.0165007
723.582	0.0164391
723.660	0.0163528
723.738	0.0162754
723.817	0.0162975
723.895	0.0164054
723.973	0.0162210
724.051	0.0162122
724.129	0.0161966
724.207	0.0162323
724.285	0.0161884
724.363	0.0160104
724.442	0.0162158
724.520	0.0160901
724.598	0.0162823
724.676	0.0162981
724.754	0.0160789
724.832	0.0160633
724.910	0.0162173
724.988	0.0162287
725.067	0.0161195
725.145	0.0161427
725.223	0.0160965
725.301	0.0161893
725.379	0.0162813
725.457	0.0162610
725.535	0.0162643
725.613	0.0162767
725.692	0.0163808
725.770	0.0163928
725.848	0.0163087
725.926	0.0163126
726.004	0.0163372
726.082	0.0165051
726.160	0.0165435
726.238	0.0163877
726.317	0.0164577
726.395	0.0164665
726.473	0.0165905
726.551	0.0166179
726.629	0.0166651
726.707	0.0167126
726.785	0.0166914
726.863	0.0166608
726.942	0.0167573
727.020	0.0166193
727.098	0.0166744
727.176	0.0166116
727.254	0.0166605
727.332	0.0167757
727.410	0.0166586
727.488	0.0167399
727.567	0.0167692
727.645	0.0166177
727.723	0.0165710
727.801	0.0166636
727.879	0.0164418
727.957	0.0164216
728.035	0.0163024
728.113	0.0164171
728.192	0.0162506
728.270	0.0162402
728.348	0.0161934
728.426	0.0161783
728.504	0.0161316
728.582	0.0159521
728.660	0.0159601
728.738	0.0158722
728.817	0.0158646
728.895	0.0158364
728.973	0.0159070
729.051	0.0158753
729.129	0.0157150
729.207	0.0158124
729.285	0.0157758
729.363	0.0157056
729.442	0.0159261
729.520	0.0159956
729.598	0.0159992
729.676	0.0159673
729.754	0.0160826
729.832	0.0159939
729.910	0.0162193
729.988	0.0161891
730.067	0.0162779
730.145	0.0163082
730.223	0.0165075
730.301	0.0164739
730.379	0.0164866
730.457	0.0164054
730.535	0.0165501
730.613	0.0165320
730.692	0.0167347
730.770	0.0166606
730.848	0.0166904
730.926	0.0167371
731.004	0.0166975
731.082	0.0167653
731.160	0.0167940
731.238	0.0166586
731.317	0.0166708
731.395	0.0168476
731.473	0.0166750
731.551	0.0166682
731.629	0.0166692
731.707	0.0166794
731.785	0.0164975
731.863	0.0165453
731.942	0.0164440
732.020	0.0164052
732.098	0.0162932
732.176	0.0162834
732.254	0.0160565
732.332	0.0162199
732.410	0.0161318
732.488	0.0159853
732.567	0.0160099
732.645	0.0158978
732.723	0.0157659
732.801	0.0158396
732.879	0.0158719
732.957	0.0159354
733.035	0.0158175
733.113	0.0157719
733.192	0.0156096
733.270	0.0158172
733.348	0.0157532
733.426	0.0157297
733.504	0.0157757
733.582	0.0157256
733.660	0.0159348
733.738	0.0158308
733.817	0.0158366
733.895	0.0158614
733.973	0.0158463
734.051	0.0160206
734.129	0.0159106
734.207	0.0158801
734.285	0.0159820
734.363	0.0159833
734.442	0.0158831
734.520	0.0160313
734.598	0.0157804
734.676	0.0160366
734.754	0.0160756
734.832	0.0159126
734.910	0.0159486
734.988	0.0161035
735.067	0.0161375
735.145	0.0160211
735.223	0.0159986
735.301	0.0160097
735.379	0.0161585
735.457	0.0160188
735.535	0.0163264
735.613	0.0162890
735.692	0.0163663
735.770	0.0164185
735.848	0.0163460
735.926	0.0164828
736.004	0.0163061
736.082	0.0163131
736.160	0.0163068
736.238	0.0163875
736.317	0.0164326
736.395	0.0165345
736.473	0.0163176
736.551	0.0164258
736.629	0.0162955
736.707	0.0164919
736.785	0.0164253
736.863	0.0163410
736.942	0.0165167
737.020	0.0164481
737.098	0.0165182
737.176	0.0166990
737.254	0.0164384
737.332	0.0164114
737.410	0.0164688
737.488	0.0165444
737.567	0.0163663
737.645	0.0164455
737.723	0.0164547
737.801	0.0164543
737.879	0.0163753
737.957	0.0163345
738.035	0.0163335
738.113	0.0163744
738.192	0.0164459
738.270	0.0164001
738.348	0.0165087
738.426	0.0164812
738.504	0.0165345
738.582	0.0165105
738.660	0.0164634
738.738	0.0165836
738.817	0.0164455
738.895	0.0162965
738.973	0.0163775
739.051	0.0163290
739.129	0.0164302
739.207	0.0163088
739.285	0.0163412
739.363	0.0162827
739.442	0.0162006
739.520	0.0164088
739.598	0.0163319
739.676	0.0160731
739.754	0.0161992
739.832	0.0162405
739.910	0.0161757
739.988	0.0160416
740.067	0.0161195
740.145	0.0161688
740.223	0.0161263
740.301	0.0162206
740.379	0.0162086
740.457	0.0160674
740.535	0.0160656
740.613	0.0160094
740.692	0.0160190
740.770	0.0160502
740.848	0.0160152
740.926	0.0159589
741.004	0.0160726
741.082	0.0160426
741.160	0.0160577
741.238	0.0160661
741.317	0.0161708
741.395	0.0161572
741.473	0.0162090
741.551	0.0162505
741.629	0.0162035
741.707	0.0162954
741.785	0.0164099
741.863	0.0163756
741.942	0.0164030
742.020	0.0165256
742.098	0.0164462
742.176	0.0165828
742.254	0.0165339
742.332	0.0165383
742.410	0.0166605
742.488	0.0166225
742.567	0.0166573
742.645	0.0167175
742.723	0.0165926
742.801	0.0166487
742.879	0.0165864
742.957	0.0166563
743.035	0.0165880
743.113	0.0165752
743.192	0.0165479
743.270	0.0165550
743.348	0.0165100
743.426	0.0165310
743.504	0.0165379
743.582	0.0166098
743.660	0.0164227
743.738	0.0164676
743.817	0.0164051
743.895	0.0163226
743.973	0.0162367
744.051	0.0163071
744.129	0.0160914
744.207	0.0161453
744.285	0.0161270
744.363	0.0161739
744.442	0.0161250
744.520	0.0161409
744.598	0.0161198
744.676	0.0160358
744.754	0.0161135
744.832	0.0161952
744.910	0.0159179
744.988	0.0158002
745.067	0.0159666
745.145	0.0160723
745.223	0.0160787
745.301	0.0160630
745.379	0.0159329
745.457	0.0159806
745.535	0.0160191
745.613	0.0158554
745.692	0.0160268
745.770	0.0160142
745.848	0.0160456
745.926	0.0159465
746.004	0.0160336
746.082	0.0160387
746.160	0.0160186
746.238	0.0160938
746.317	0.0160897
746.395	0.0162529
746.473	0.0162547
746.551	0.0163296
746.629	0.0161981
746.707	0.0164088
746.785	0.0165341
746.863	0.0164410
746.942	0.0163914
747.020	0.0164356
747.098	0.0164169
747.176	0.0163574
747.254	0.0163549
747.332	0.0165113
747.410	0.0167532
747.488	0.0165952
747.567	0.0165306
747.645	0.0164401
747.723	0.0164727
747.801	0.0163688
747.879	0.0165200
747.957	0.0165257
748.035	0.0166269
748.113	0.0164521
748.192	0.0164069
748.270	0.0165234
748.348	0.0164369
748.426	0.0163938
748.504	0.0162902
748.582	0.0163532
748.660	0.0163977
748.738	0.0162959
748.817	0.0162988
748.895	0.0162319
748.973	0.0163875
749.051	0.0162873
749.129	0.0161305
749.207	0.0162891
749.285	0.0161436
749.363	0.0160571
749.442	0.0160550
749.520	0.0159496
749.598	0.0161012
749.676	0.0159766
749.754	0.0160042
749.832	0.0159329
749.910	0.0159367
749.988	0.0160692
750.067	0.0158981
750.145	0.0159469
750.223	0.0160933
750.301	0.0159623
750.379	0.0158865
750.457	0.0159341
750.535	0.0159013
750.613	0.0158858
750.692	0.0160686
750.770	0.0161537
750.848	0.0161426
750.926	0.0161209
751.004	0.0161413
751.082	0.0162814
751.160	0.0162731
751.238	0.0163731
751.317	0.0164722
751.395	0.0165106
751.473	0.0165124
751.551	0.0165669
751.629	0.0165466
751.707	0.0165539
751.785	0.0165799
751.863	0.0165699
751.942	0.0167480
752.020	0.0166611
752.098	0.0167542
752.176	0.0166375
752.254	0.0166508
752.332	0.0168773
752.410	0.0166506
752.488	0.0167796
752.567	0.0167036
752.645	0.0166975
752.723	0.0167587
752.801	0.0166051
752.879	0.0166531
752.957	0.0166702
753.035	0.0165395
753.113	0.0166068
753.192	0.0166187
753.270	0.0164444
753.348	0.0164772
753.426	0.0165215
753.504	0.0163564
753.582	0.0162642
753.660	0.0163876
753.738	0.0162972
753.817	0.0163632
753.895	0.0164030
753.973	0.0162424
754.051	0.0163040
754.129	0.0162868
754.207	0.0164450
754.285	0.0164447
754.363	0.0162563
754.442	0.0165730
754.520	0.0163900
754.598	0.0163078
754.676	0.0163317
754.754	0.0165067
754.832	0.0164165
754.910	0.0164260
754.988	0.0163014
755.067	0.0163708
755.145	0.0163778
755.223	0.0162551
755.301	0.0163546
755.379	0.0162110
755.457	0.0162253
755.535	0.0161887
755.613	0.0161549
755.692	0.0161265
755.770	0.0162216
755.848	0.0161307
755.926	0.0161096
756.004	0.0159632
756.082	0.0160023
756.160	0.0161198
756.238	0.0159473
756.317	0.0159846
756.395	0.0159738
756.473	0.0159784
756.551	0.0159538
756.629	0.0161299
756.707	0.0159904
756.785	0.0160406
756.863	0.0160168
756.942	0.0160432
757.020	0.0160249
757.098	0.0160357
757.176	0.0161050
757.254	0.0160419
757.332	0.0161222
757.410	0.0161118
757.488	0.0160945
757.567	0.0160419
757.645	0.0161714
757.723	0.0160999
757.801	0.0163203
757.879	0.0161603
757.957	0.0161851
758.035	0.0162913
758.113	0.0162666
758.192	0.0163683
758.270	0.0163285
758.348	0.0163674
758.426	0.0163007
758.504	0.0165018
758.582	0.0165796
758.660	0.0164841
758.738	0.0166003
758.817	0.0165940
758.895	0.0163899
758.973	0.0163923
759.051	0.0166057
759.129	0.0165517
759.207	0.0166113
759.285	0.0166055
759.363	0.0164831
759.442	0.0166271
759.520	0.0166779
759.598	0.0166806
759.676	0.0165109
759.754	0.0164828
759.832	0.0163593
759.910	0.0165089
759.988	0.0163842
760.067	0.0163440
760.145	0.0163778
760.223	0.0164604
760.301	0.0162360
760.379	0.0161948
760.457	0.0161626
760.535	0.0163004
760.613	0.0161984
760.692	0.0161412
760.770	0.0162090
760.848	0.0163134
760.926	0.0162533
761.004	0.0162234
761.082	0.0161830
761.160	0.0161411
761.238	0.0161927
761.317	0.0161299
761.395	0.0162326
761.473	0.0163681
761.551	0.0163463
761.629	0.0163377
761.707	0.0161570
761.785	0.0161759
761.863	0.0163009
761.942	0.0162334
762.020	0.0162845
762.098	0.0163748
762.176	0.0161820
762.254	0.0162123
762.332	0.0163067
762.410	0.0163245
762.488	0.0162387
762.567	0.0164267
762.645	0.0162669
762.723	0.0165072
762.801	0.0163922
762.879	0.0162051
762.957	0.0164059
763.035	0.0164025
763.113	0.0162370
763.192	0.0162342
763.270	0.0162801
763.348	0.0163406
763.426	0.0163322
763.504	0.0162315
763.582	0.0162579
763.660	0.0162896
763.738	0.0161948
763.817	0.0162838
763.895	0.0162995
763.973	0.0162083
764.051	0.0163844
764.129	0.0163231
764.207	0.0162936
764.285	0.0162706
764.363	0.0162930
764.442	0.0160738
764.520	0.0160754
764.598	0.0160799
764.676	0.0162164
764.754	0.0162424
764.832	0.0160114
764.910	0.0161863
764.988	0.0163267
765.067	0.0162680
765.145	0.0161923
765.223	0.0161340
765.301	0.0161900
765.379	0.0162312
765.457	0.0162619
765.535	0.0162872
765.613	0.0161824
765.692	0.0162494
765.770	0.0163166
765.848	0.0161656
765.926	0.0163508
766.004	0.0163542
766.082	0.0163492
766.160	0.0162662
766.238	0.0163569
766.317	0.0163190
766.395	0.0163698
766.473	0.0164248
766.551	0.0163519
766.629	0.0164120
766.707	0.0165386
766.785	0.0164366
766.863	0.0164333
766.942	0.0165631
767.020	0.0166562
767.098	0.0165559
767.176	0.0163431
767.254	0.0163963
767.332	0.0164433
767.410	0.0165896
767.488	0.0165530
767.567	0.0165306
767.645	0.0166491
767.723	0.0166589
767.801	0.0167213
767.879	0.0166476
767.957	0.0167512
768.035	0.0167003
768.113	0.0166112
768.192	0.0166013
768.270	0.0166702
768.348	0.0166543
768.426	0.0164187
768.504	0.0165573
768.582	0.0166246
768.660	0.0166559
768.738	0.0164732
768.817	0.0164622
768.895	0.0165155
768.973	0.0164712
769.051	0.0164301
769.129	0.0163257
769.207	0.0164529
769.285	0.0164185
769.363	0.0163069
769.442	0.0164439
769.520	0.0163163
769.598	0.0163571
769.676	0.0162681
769.754	0.0161585
769.832	0.0162646
769.910	0.0162471
769.988	0.0161263
770.067	0.0160728
770.145	0.0159743
770.223	0.0160959
770.301	0.0160620
770.379	0.0160050
770.457	0.0161118
770.535	0.0161529
770.613	0.0161263
770.692	0.0160201
770.770	0.0161353
770.848	0.0161066
770.926	0.0160330
771.004	0.0160876
771.082	0.0160864
771.160	0.0162846
771.238	0.0162029
771.317	0.0163120
771.395	0.0162858
771.473	0.0163278
771.551	0.0162243
771.629	0.0162534
771.707	0.0162669
771.785	0.0163559
771.863	0.0163508
771.942	0.0164274
772.020	0.0164923
772.098	0.0164199
772.176	0.0163270
772.254	0.0164264
772.332	0.0164533
772.410	0.0164291
772.488	0.0163531
772.567	0.0165074
772.645	0.0164889
772.723	0.0165313
772.801	0.0164931
772.879	0.0163190
772.957	0.0165523
773.035	0.0165593
773.113	0.0163914
773.192	0.0164307
773.270	0.0164580
773.348	0.0164314
773.426	0.0164035
773.504	0.0163829
773.582	0.0163657
773.660	0.0164288
773.738	0.0163760
773.817	0.0163795
773.895	0.0163505
773.973	0.0162343
774.051	0.0163155
774.129	0.0161931
774.207	0.0162891
774.285	0.0162286
774.363	0.0161874
774.442	0.0161799
774.520	0.0161201
774.598	0.0161171
774.676	0.0162026
774.754	0.0161575
774.832	0.0161684
774.910	0.0163292
774.988	0.0161955
775.067	0.0161850
775.145	0.0163532
775.223	0.0163857
775.301	0.0162375
775.379	0.0162958
775.457	0.0163557
775.535	0.0164656
775.613	0.0163699
775.692	0.0163842
775.770	0.0163596
775.848	0.0163713
775.926	0.0163237
776.004	0.0165133
776.082	0.0164363
776.160	0.0163021
776.238	0.0163087
776.317	0.0164247
776.395	0.0165261
776.473	0.0165423
776.551	0.0163779
776.629	0.0164304
776.707	0.0163890
776.785	0.0165556
776.863	0.0164850
776.942	0.0164606
777.020	0.0163763
777.098	0.0166676
777.176	0.0165322
777.254	0.0163982
777.332	0.0164418
777.410	0.0164089
777.488	0.0165210
777.567	0.0164638
777.645	0.0163029
777.723	0.0163426
777.801	0.0164745
777.879	0.0164297
777.957	0.0162630
778.035	0.0163492
778.113	0.0162669
778.192	0.0164268
778.270	0.0163105
778.348	0.0163449
778.426	0.0163946
778.504	0.0162873
778.582	0.0164487
778.660	0.0164043
778.738	0.0162510
778.817	0.0162011
778.895	0.0162611
778.973	0.0160713
779.051	0.0163439
779.129	0.0163540
779.207	0.0162630
779.285	0.0162498
779.363	0.0162335
779.442	0.0163554
779.520	0.0161295
779.598	0.0163070
779.676	0.0162890
779.754	0.0162327
779.832	0.0162100
779.910	0.0162805
779.988	0.0163950
780.067	0.0162183
780.145	0.0162769
780.223	0.0163234
780.301	0.0161494
780.379	0.0163177
780.457	0.0162507
780.535	0.0161794
780.613	0.0163672
780.692	0.0162848
780.770	0.0163909
780.848	0.0163249
780.926	0.0162867
781.004	0.0164263
781.082	0.0163898
781.160	0.0163077
781.238	0.0163243
781.317	0.0162816
781.395	0.0162859
781.473	0.0165062
781.551	0.0164133
781.629	0.0164047
781.707	0.0163865
781.785	0.0165015
781.863	0.0163300
781.942	0.0165208
782.020	0.0165160
782.098	0.0164668
782.176	0.0163464
782.254	0.0163167
782.332	0.0163727
782.410	0.0164045
782.488	0.0164525
782.567	0.0163474
782.645	0.0164117
782.723	0.0164762
782.801	0.0164329
782.879	0.0164748
782.957	0.0163709
783.035	0.0163055
783.113	0.0164060
783.192	0.0164742
783.270	0.0164359
783.348	0.0164989
783.426	0.0164690
783.504	0.0164178
783.582	0.0164497
783.660	0.0165349
783.738	0.0165240
783.817	0.0164719
783.895	0.0164756
783.973	0.0165232
784.051	0.0166093
784.129	0.0165377
784.207	0.0163638
784.285	0.0164432
784.363	0.0163599
784.442	0.0164290
784.520	0.0165144
784.598	0.0164660
784.676	0.0162952
784.754	0.0163831
784.832	0.0164211
784.910	0.0161945
784.988	0.0163150
785.067	0.0163353
785.145	0.0162328
785.223	0.0162789
785.301	0.0162939
785.379	0.0162670
785.457	0.0162408
785.535	0.0163551
785.613	0.0163648
785.692	0.0160931
785.770	0.0161855
785.848	0.0163063
785.926	0.0162456
786.004	0.0162348
786.082	0.0162736
786.160	0.0161412
786.238	0.0162305
786.317	0.0162148
786.395	0.0162340
786.473	0.0162543
786.551	0.0163292
786.629	0.0161626
786.707	0.0162306
786.785	0.0162342
786.863	0.0162147
786.942	0.0161484
787.020	0.0161217
787.098	0.0161886
787.176	0.0160639
787.254	0.0161780
787.332	0.0160552
787.410	0.0161416
787.488	0.0162514
787.567	0.0161883
787.645	0.0161568
787.723	0.0163410
787.801	0.0163393
787.879	0.0161372
787.957	0.0161540
788.035	0.0163133
788.113	0.0162951
788.192	0.0162159
788.270	0.0163028
788.348	0.0163704
788.426	0.0162204
788.504	0.0161913
788.582	0.0161495
788.660	0.0163612
788.738	0.0160998
788.817	0.0162161
788.895	0.0164009
788.973	0.0163062
789.051	0.0161950
789.129	0.0162825
789.207	0.0161187
789.285	0.0162515
789.363	0.0162801
789.442	0.0162157
789.520	0.0162828
789.598	0.0163641
789.676	0.0160649
789.754	0.0162341
789.832	0.0162177
789.910	0.0161491
789.988	0.0163455
790.067	0.0162046
790.145	0.0161359
790.223	0.0164080
790.301	0.0164378
790.379	0.0164606
790.457	0.0163467
790.535	0.0164341
790.613	0.0164593
790.692	0.0164011
790.770	0.0165319
790.848	0.0165899
790.926	0.0165530
791.004	0.0164153
791.082	0.0163838
791.160	0.0166074
791.238	0.0166399
791.317	0.0164450
791.395	0.0165079
791.473	0.0165019
791.551	0.0164130
791.629	0.0165480
791.707	0.0164896
791.785	0.0164480
791.863	0.0164748
791.942	0.0164672
792.020	0.0164201
792.098	0.0165594
792.176	0.0164377
792.254	0.0164459
792.332	0.0164777
792.410	0.0165009
792.488	0.0163603
792.567	0.0163226
792.645	0.0165201
792.723	0.0165002
792.801	0.0165372
792.879	0.0165050
792.957	0.0166098
793.035	0.0164029
793.113	0.0163811
793.192	0.0165162
793.270	0.0164761
793.348	0.0164381
793.426	0.0163471
793.504	0.0164739
793.582	0.0164391
793.660	0.0163452
793.738	0.0164720
793.817	0.0163707
793.895	0.0163934
793.973	0.0162823
794.051	0.0164799
794.129	0.0162807
794.207	0.0162453
794.285	0.0161816
794.363	0.0162107
794.442	0.0163216
794.520	0.0161352
794.598	0.0161206
794.676	0.0163566
794.754	0.0164188
794.832	0.0162442
794.910	0.0162899
794.988	0.0162968
795.067	0.0162746
795.145	0.0163977
795.223	0.0163088
795.301	0.0163435
795.379	0.0163898
795.457	0.0163255
795.535	0.0163179
795.613	0.0163906
795.692	0.0164848
795.770	0.0162921
795.848	0.0162741
795.926	0.0164275
796.004	0.0164534
796.082	0.0163142
796.160	0.0163075
796.238	0.0164220
796.317	0.0163786
796.395	0.0163764
796.473	0.0162950
796.551	0.0161909
796.629	0.0163026
796.707	0.0163080
796.785	0.0163578
796.863	0.0164500
796.942	0.0163306
797.020	0.0164231
797.098	0.0164365
797.176	0.0162003
797.254	0.0163148
797.332	0.0164580
797.410	0.0163811
797.488	0.0164235
797.567	0.0164045
797.645	0.0163510
797.723	0.0164670
797.801	0.0164507
797.879	0.0163790
797.957	0.0163549
798.035	0.0163115
798.113	0.0163811
798.192	0.0164001
798.270	0.0164726
798.348	0.0163620
798.426	0.0163553
798.504	0.0163528
798.582	0.0164138
798.660	0.0163762
798.738	0.0163483
798.817	0.0163013
798.895	0.0163325
798.973	0.0162908
799.051	0.0163931
799.129	0.0163077
799.207	0.0162107
799.285	0.0163295
799.363	0.0161348
799.442	0.0161189
799.520	0.0162717
799.598	0.0161262
799.676	0.0161353
799.754	0.0163140
799.832	0.0160891
799.910	0.0161943
799.988	0.0162736
800.067	0.0161911
800.145	0.0161695
800.223	0.0161407
800.301	0.0162389
800.379	0.0161633
800.457	0.0161610
800.535	0.0162546
800.613	0.0162521
800.692	0.0161359
800.770	0.0160406
800.848	0.0162138
800.926	0.0162735
801.004	0.0162769
801.082	0.0161455
801.160	0.0161464
801.238	0.0162018
801.317	0.0161753
801.395	0.0161885
801.473	0.0162399
801.551	0.0162591
801.629	0.0163078
801.707	0.0162678
801.785	0.0161613
801.863	0.0162985
801.942	0.0163325
802.020	0.0162991
802.098	0.0162815
802.176	0.0163165
802.254	0.0161803
802.332	0.0162031
802.410	0.0162926
802.488	0.0162138
802.567	0.0162252
802.645	0.0161404
802.723	0.0161017
802.801	0.0160841
802.879	0.0162116
802.957	0.0160070
803.035	0.0161661
803.113	0.0162155
803.192	0.0160859
803.270	0.0162416
803.348	0.0161946
803.426	0.0162132
803.504	0.0161920
803.582	0.0161905
803.660	0.0161675
803.738	0.0161452
803.817	0.0160790
803.895	0.0162235
803.973	0.0162197
804.051	0.0161008
804.129	0.0162688
804.207	0.0162234
804.285	0.0161604
804.363	0.0162341
804.442	0.0162445
804.520	0.0162723
804.598	0.0164302
804.676	0.0163400
804.754	0.0164494
804.832	0.0165176
804.910	0.0161958
804.988	0.0163671
805.067	0.0164417
805.145	0.0162965
805.223	0.0162583
805.301	0.0164393
805.379	0.0164292
805.457	0.0164171
805.535	0.0164211
805.613	0.0163954
805.692	0.0164043
805.770	0.0164449
805.848	0.0166016
805.926	0.0165192
806.004	0.0163895
806.082	0.0164050
806.160	0.0166448
806.238	0.0165575
806.317	0.0163653
806.395	0.0163411
806.473	0.0164729
806.551	0.0163907
806.629	0.0164487
806.707	0.0164053
806.785	0.0163498
806.863	0.0163041
806.942	0.0164286
807.020	0.0164214
807.098	0.0164024
807.176	0.0163241
807.254	0.0163651
807.332	0.0165289
807.410	0.0162647
807.488	0.0163641
807.567	0.0161824
807.645	0.0163380
807.723	0.0163335
807.801	0.0163589
807.879	0.0163931
807.957	0.0165085
808.035	0.0164480
808.113	0.0164043
808.192	0.0161935
808.270	0.0160956
808.348	0.0163209
808.426	0.0162926
808.504	0.0161459
808.582	0.0164354
808.660	0.0162115
808.738	0.0162731
808.817	0.0162733
808.895	0.0162773
808.973	0.0161917
809.051	0.0162882
809.129	0.0163573
809.207	0.0162717
809.285	0.0161640
809.363	0.0161429
809.442	0.0160602
809.520	0.0162061
809.598	0.0160914
809.676	0.0161559
809.754	0.0162358
809.832	0.0162591
809.910	0.0162435
809.988	0.0160817
810.067	0.0161726
810.145	0.0163546
810.223	0.0162066
810.301	0.0162618
810.379	0.0162554
810.457	0.0162994
810.535	0.0163346
810.613	0.0163719
810.692	0.0165418
810.770	0.0163386
810.848	0.0163747
810.926	0.0164453
811.004	0.0165405
811.082	0.0163939
811.160	0.0164763
811.238	0.0163683
811.317	0.0163819
811.395	0.0164480
811.473	0.0164186
811.551	0.0164447
811.629	0.0164352
811.707	0.0164522
811.785	0.0165449
811.863	0.0165513
811.942	0.0164558
812.020	0.0164494
812.098	0.0166914
812.176	0.0166079
812.254	0.0165528
812.332	0.0165820
812.410	0.0165072
812.488	0.0165966
812.567	0.0164536
812.645	0.0166824
812.723	0.0164774
812.801	0.0165749
812.879	0.0164756
812.957	0.0165096
813.035	0.0166537
813.113	0.0165401
813.192	0.0165785
813.270	0.0166061
813.348	0.0166192
813.426	0.0165124
813.504	0.0164687
813.582	0.0165129
813.660	0.0165582
813.738	0.0164341
813.817	0.0164111
813.895	0.0164297
813.973	0.0163799
814.051	0.0163387
814.129	0.0163557
814.207	0.0164501
814.285	0.0165261
814.363	0.0162733
814.442	0.0161953
814.520	0.0161712
814.598	0.0162933
814.676	0.0164247
814.754	0.0163435
814.832	0.0160973
814.910	0.0161959
814.988	0.0161015
815.067	0.0161993
815.145	0.0162053
815.223	0.0162486
815.301	0.0163323
815.379	0.0161602
815.457	0.0161810
815.535	0.0162353
815.613	0.0160178
815.692	0.0162250
815.770	0.0161409
815.848	0.0161028
815.926	0.0160714
816.004	0.0160801
816.082	0.0161261
816.160	0.0161508
816.238	0.0161472
816.317	0.0160634
816.395	0.0162378
816.473	0.0161864
816.551	0.0161050
816.629	0.0159675
816.707	0.0161745
816.785	0.0160895
816.863	0.0161129
816.942	0.0160704
817.020	0.0162022
817.098	0.0161884
817.176	0.0163218
817.254	0.0164116
817.332	0.0162203
817.410	0.0161709
817.488	0.0163160
817.567	0.0164533
817.645	0.0164077
817.723	0.0165701
817.801	0.0164072
817.879	0.0166034
817.957	0.0165978
818.035	0.0166412
818.113	0.0166508
818.192	0.0166021
818.270	0.0166134
818.348	0.0165340
818.426	0.0166485
818.504	0.0165659
818.582	0.0166527
818.660	0.0163867
818.738	0.0164094
818.817	0.0163277
818.895	0.0164108
818.973	0.0162657
819.051	0.0163604
819.129	0.0162364
819.207	0.0162238
819.285	0.0162578
819.363	0.0162356
819.442	0.0163567
819.520	0.0161281
819.598	0.0161814
819.676	0.0161709
819.754	0.0161945
819.832	0.0161893
819.910	0.0161580
819.988	0.0161951
820.067	0.0162365
820.145	0.0162090
820.223	0.0162445
820.301	0.0162012
820.379	0.0162807
820.457	0.0162523
820.535	0.0162305
820.613	0.0164198
820.692	0.0162505
820.770	0.0163512
820.848	0.0162060
820.926	0.0163363
821.004	0.0164632
821.082	0.0164045
821.160	0.0163185
821.238	0.0163426
821.317	0.0163418
821.395	0.0162883
821.473	0.0164308
821.551	0.0164098
821.629	0.0163271
821.707	0.0163379
821.785	0.0164423
821.863	0.0163947
821.942	0.0163879
822.020	0.0163702
822.098	0.0164185
822.176	0.0163792
822.254	0.0165280
822.332	0.0163821
822.410	0.0163855
822.488	0.0164112
822.567	0.0163163
822.645	0.0165202
822.723	0.0164147
822.801	0.0164099
822.879	0.0164207
822.957	0.0164129
823.035	0.0164084
823.113	0.0163224
823.192	0.0164055
823.270	0.0162415
823.348	0.0162610
823.426	0.0163605
823.504	0.0162795
823.582	0.0161935
823.660	0.0160637
823.738	0.0159863
823.817	0.0161173
823.895	0.0160751
823.973	0.0160104
824.051	0.0159912
824.129	0.0160361
824.207	0.0161207
824.285	0.0159822
824.363	0.0159629
824.442	0.0159332
824.520	0.0159222
824.598	0.0160340
824.676	0.0161950
824.754	0.0160913
824.832	0.0160436
824.910	0.0161638
824.988	0.0161259
825.067	0.0161918
825.145	0.0162830
825.223	0.0166228
825.301	0.0164384
825.379	0.0163847
825.457	0.0164899
825.535	0.0165621
825.613	0.0165784
825.692	0.0164879
825.770	0.0166129
825.848	0.0164898
825.926	0.0165054
826.004	0.0167764
826.082	0.0165917
826.160	0.0166635
826.238	0.0165798
826.317	0.0164884
826.395	0.0164687
826.473	0.0165486
826.551	0.0165022
826.629	0.0164178
826.707	0.0163243
826.785	0.0163728
826.863	0.0163132
826.942	0.0162458
827.020	0.0161799
827.098	0.0161446
827.176	0.0162793
827.254	0.0162512
827.332	0.0162222
827.410	0.0162112
827.488	0.0162292
827.567	0.0162581
827.645	0.0161603
827.723	0.0160968
827.801	0.0162550
827.879	0.0161330
827.957	0.0160561
828.035	0.0161262
828.113	0.0161488
828.192	0.0160921
828.270	0.0163142
828.348	0.0162455
828.426	0.0161839
828.504	0.0161755
828.582	0.0162940
828.660	0.0163477
828.738	0.0163321
828.817	0.0163821
828.895	0.0164012
828.973	0.0163792
829.051	0.0164591
829.129	0.0164227
829.207	0.0165542
829.285	0.0164483
829.363	0.0164277
829.442	0.0164552
829.520	0.0165318
829.598	0.0164535
829.676	0.0165693
829.754	0.0164738
829.832	0.0164528
829.910	0.0164416
829.988	0.0164809
830.067	0.0164470
830.145	0.0164675
830.223	0.0164750
830.301	0.0162691
830.379	0.0165219
830.457	0.0164172
830.535	0.0164493
830.613	0.0162978
830.692	0.0164653
830.770	0.0162570
830.848	0.0163946
830.926	0.0163676
831.004	0.0163490
831.082	0.0162296
831.160	0.0161938
831.238	0.0160974
831.317	0.0163058
831.395	0.0162489
831.473	0.0161052
831.551	0.0160704
831.629	0.0162485
831.707	0.0162000
831.785	0.0161127
831.863	0.0162002
831.942	0.0162170
832.020	0.0160286
832.098	0.0161505
832.176	0.0162585
832.254	0.0161507
832.332	0.0161172
832.410	0.0162661
832.488	0.0161795
832.567	0.0163378
832.645	0.0161581
832.723	0.0161777
832.801	0.0162192
832.879	0.0161363
832.957	0.0163133
833.035	0.0162350
833.113	0.0163227
833.192	0.0164070
833.270	0.0162859
833.348	0.0162456
833.426	0.0162831
833.504	0.0162592
833.582	0.0163290
833.660	0.0164046
833.738	0.0163169
833.817	0.0163166
833.895	0.0162950
833.973	0.0163586
834.051	0.0163979
834.129	0.0163874
834.207	0.0163787
834.285	0.0162125
834.363	0.0163623
834.442	0.0163534
834.520	0.0162148
834.598	0.0162801
834.676	0.0162008
834.754	0.0162440
834.832	0.0162219
834.910	0.0161811
834.988	0.0163083
835.067	0.0160651
835.145	0.0161700
835.223	0.0161769
835.301	0.0161330
835.379	0.0161281
835.457	0.0160863
835.535	0.0161555
835.613	0.0161356
835.692	0.0161770
835.770	0.0162658
835.848	0.0162223
835.926	0.0161190
836.004	0.0160287
836.082	0.0161997
836.160	0.0161411
836.238	0.0160640
836.317	0.0161552
836.395	0.0161890
836.473	0.0162705
836.551	0.0161123
836.629	0.0160916
836.707	0.0162257
836.785	0.0163345
836.863	0.0162190
836.942	0.0161407
837.020	0.0163596
837.098	0.0161436
837.176	0.0163617
837.254	0.0162336
837.332	0.0162408
837.410	0.0163475
837.488	0.0163876
837.567	0.0162997
837.645	0.0162489
837.723	0.0163503
837.801	0.0164571
837.879	0.0165717
837.957	0.0164789
838.035	0.0165440
838.113	0.0165623
838.192	0.0164341
838.270	0.0164986
838.348	0.0164449
838.426	0.0166610
838.504	0.0165834
838.582	0.0165701
838.660	0.0165176
838.738	0.0166187
838.817	0.0165676
838.895	0.0165276
838.973	0.0166994
839.051	0.0164944
839.129	0.0165453
839.207	0.0164412
839.285	0.0165069
839.363	0.0165956
839.442	0.0164917
839.520	0.0163992
839.598	0.0165464
839.676	0.0164265
839.754	0.0164925
839.832	0.0163456
839.910	0.0162831
839.988	0.0163858
840.067	0.0163789
840.145	0.0164198
840.223	0.0162999
840.301	0.0164503
840.379	0.0164287
840.457	0.0164400
840.535	0.0164609
840.613	0.0163343
840.692	0.0162717
840.770	0.0164197
840.848	0.0164930
840.926	0.0164530
841.004	0.0163904
841.082	0.0165237
841.160	0.0163826
841.238	0.0164082
841.317	0.0164420
841.395	0.0165182
841.473	0.0165659
841.551	0.0166821
841.629	0.0164864
841.707	0.0164448
841.785	0.0164745
841.863	0.0164831
841.942	0.0166895
842.020	0.0165099
842.098	0.0165048
842.176	0.0167063
842.254	0.0165285
842.332	0.0164869
842.410	0.0165450
842.488	0.0165381
842.567	0.0164059
842.645	0.0164754
842.723	0.0166103
842.801	0.0165632
842.879	0.0165326
842.957	0.0163310
843.035	0.0163891
843.113	0.0163795
843.192	0.0163935
843.270	0.0164767
843.348	0.0164561
843.426	0.0165044
843.504	0.0163487
843.582	0.0162976
843.660	0.0163267
843.738	0.0164206
843.817	0.0163250
843.895	0.0162770
843.973	0.0162469
844.051	0.0162525
844.129	0.0163221
844.207	0.0162362
844.285	0.0162436
844.363	0.0161774
844.442	0.0162202
844.520	0.0161838
844.598	0.0161163
844.676	0.0161189
844.754	0.0160406
844.832	0.0160671
844.910	0.0162042
844.988	0.0160886
845.067	0.0160497
845.145	0.0161633
845.223	0.0161453
845.301	0.0161634
845.379	0.0160857
845.457	0.0161607
845.535	0.0162190
845.613	0.0162498
845.692	0.0163352
845.770	0.0161894
845.848	0.0162025
845.926	0.0163280
846.004	0.0162874
846.082	0.0162036
846.160	0.0164574
846.238	0.0164086
846.317	0.0163531
846.395	0.0164270
846.473	0.0164871
846.551	0.0165681
846.629	0.0166094
846.707	0.0164722
846.785	0.0165671
846.863	0.0165032
846.942	0.0165082
847.020	0.0165153
847.098	0.0166203
847.176	0.0165055
847.254	0.0164292
847.332	0.0165392
847.410	0.0164812
847.488	0.0164436
847.567	0.0164343
847.645	0.0164346
847.723	0.0163647
847.801	0.0162784
847.879	0.0162424
847.957	0.0164029
848.035	0.0161802
848.113	0.0162345
848.192	0.0161050
848.270	0.0162884
848.348	0.0162066
848.426	0.0159859
848.504	0.0160285
848.582	0.0162507
848.660	0.0161072
848.738	0.0161613
848.817	0.0160610
848.895	0.0160824
848.973	0.0161086
849.051	0.0161730
849.129	0.0161968
849.207	0.0162399
849.285	0.0161945
849.363	0.0162086
849.442	0.0162099
849.520	0.0161626
849.598	0.0162560
849.676	0.0161875
849.754	0.0163396
849.832	0.0163295
849.910	0.0162847
849.988	0.0163100
850.067	0.0162879
850.145	0.0161695
850.223	0.0162074
850.301	0.0161502
850.379	0.0161343
850.457	0.0162122
850.535	0.0161512
850.613	0.0160815
850.692	0.0160138
850.770	0.0161230
850.848	0.0160959
850.926	0.0161143
851.004	0.0161813
851.082	0.0162705
851.160	0.0162154
851.238	0.0160833
851.317	0.0161893
851.395	0.0161987
851.473	0.0161647
851.551	0.0162948
851.629	0.0162825
851.707	0.0161880
851.785	0.0162475
851.863	0.0163948
851.942	0.0162782
852.020	0.0163096
852.098	0.0162859
852.176	0.0163929
852.254	0.0163904
852.332	0.0162633
852.410	0.0163148
852.488	0.0163767
852.567	0.0164670
852.645	0.0165335
852.723	0.0163379
852.801	0.0163841
852.879	0.0162157
852.957	0.0163588
853.035	0.0163712
853.113	0.0165021
853.192	0.0165083
853.270	0.0163460
853.348	0.0164746
853.426	0.0163991
853.504	0.0164838
853.582	0.0164670
853.660	0.0164583
853.738	0.0163886
853.817	0.0163214
853.895	0.0163915
853.973	0.0165560
854.051	0.0165715
854.129	0.0165032
854.207	0.0163356
854.285	0.0165066
854.363	0.0164815
854.442	0.0164214
854.520	0.0163652
854.598	0.0164197
854.676	0.0162915
854.754	0.0162486
854.832	0.0162450
854.910	0.0162781
854.988	0.0163078
855.067	0.0161952
855.145	0.0163003
855.223	0.0162106
855.301	0.0161240
855.379	0.0162550
855.457	0.0162447
855.535	0.0161691
855.613	0.0162460
855.692	0.0162825
855.770	0.0162399
855.848	0.0162083
855.926	0.0162958
856.004	0.0163380
856.082	0.0161461
856.160	0.0163000
856.238	0.0162733
856.317	0.0162679
856.395	0.0164478
856.473	0.0163503
856.551	0.0163615
856.629	0.0163397
856.707	0.0163894
856.785	0.0164753
856.863	0.0164427
856.942	0.0163688
857.020	0.0164974
857.098	0.0165319
857.176	0.0166286
857.254	0.0165065
857.332	0.0164188
857.410	0.0164510
857.488	0.0164353
857.567	0.0166335
857.645	0.0165715
857.723	0.0165207
857.801	0.0164539
857.879	0.0163581
857.957	0.0164383
858.035	0.0163592
858.113	0.0163310
858.192	0.0164232
858.270	0.0163030
858.348	0.0162460
858.426	0.0162794
858.504	0.0162254
858.582	0.0162986
858.660	0.0161995
858.738	0.0161499
858.817	0.0160921
858.895	0.0161137
858.973	0.0161356
859.051	0.0162730
859.129	0.0162762
859.207	0.0163125
859.285	0.0162085
859.363	0.0161156
859.442	0.0162724
859.520	0.0163340
859.598	0.0161994
859.676	0.0162437
859.754	0.0161116
859.832	0.0162770
859.910	0.0162076
859.988	0.0162215
860.067	0.0164036
860.145	0.0163773
860.223	0.0162644
860.301	0.0162439
860.379	0.0161918
860.457	0.0163279
860.535	0.0162936
860.613	0.0162150
860.692	0.0162195
860.770	0.0164410
860.848	0.0163858
860.926	0.0163202
861.004	0.0163309
861.082	0.0164033
861.160	0.0162952
861.238	0.0163914
861.317	0.0162833
861.395	0.0162425
861.473	0.0163290
861.551	0.0162728
861.629	0.0163641
861.707	0.0162371
861.785	0.0163124
861.863	0.0163615
861.942	0.0163498
862.020	0.0163174
862.098	0.0163172
862.176	0.0164216
862.254	0.0162879
862.332	0.0162642
862.410	0.0162717
862.488	0.0163548
862.567	0.0162489
862.645	0.0163706
862.723	0.0163574
862.801	0.0163374
862.879	0.0161783
862.957	0.0163448
863.035	0.0163957
863.113	0.0164903
863.192	0.0164000
863.270	0.0164557
863.348	0.0162634
863.426	0.0163853
863.504	0.0164009
863.582	0.0164032
863.660	0.0162914
863.738	0.0162637
863.817	0.0162968
863.895	0.0164504
863.973	0.0163909
864.051	0.0162467
864.129	0.0162149
864.207	0.0161797
864.285	0.0161796
864.363	0.0163402
864.442	0.0163383
864.520	0.0162636
864.598	0.0163261
864.676	0.0162141
864.754	0.0163330
864.832	0.0163397
864.910	0.0163216
864.988	0.0164114
865.067	0.0162592
865.145	0.0161837
865.223	0.0162065
865.301	0.0163365
865.379	0.0162901
865.457	0.0162940
865.535	0.0162867
865.613	0.0162248
865.692	0.0163162
865.770	0.0162984
865.848	0.0163319
865.926	0.0163300
866.004	0.0163079
866.082	0.0163471
866.160	0.0163231
866.238	0.0162108
866.317	0.0162186
866.395	0.0161488
866.473	0.0161940
866.551	0.0162355
866.629	0.0161607
866.707	0.0161187
866.785	0.0161165
866.863	0.0161462
866.942	0.0161888
867.020	0.0160635
867.098	0.0160860
867.176	0.0159486
867.254	0.0161732
867.332	0.0160799
867.410	0.0161514
867.488	0.0161277
867.567	0.0160869
867.645	0.0160275
867.723	0.0161208
867.801	0.0161296
867.879	0.0161094
867.957	0.0161896
868.035	0.0161541
868.113	0.0160841
868.192	0.0161291
868.270	0.0161546
868.348	0.0162230
868.426	0.0162636
868.504	0.0162511
868.582	0.0161777
868.660	0.0161691
868.738	0.0162025
868.817	0.0161652
868.895	0.0161246
868.973	0.0163048
869.051	0.0161765
869.129	0.0161655
869.207	0.0161275
869.285	0.0163055
869.363	0.0161681
869.442	0.0163171
869.520	0.0162811
869.598	0.0160950
869.676	0.0161636
869.754	0.0162260
869.832	0.0162644
869.910	0.0164283
869.988	0.0163696
870.067	0.0163147
870.145	0.0164049
870.223	0.0164509
870.301	0.0163580
870.379	0.0164434
870.457	0.0164190
870.535	0.0165793
870.613	0.0163506
870.692	0.0162592
870.770	0.0164339
870.848	0.0163665
870.926	0.0163360
871.004	0.0163164
871.082	0.0164012
871.160	0.0163713
871.238	0.0161476
871.317	0.0162924
871.395	0.0165482
871.473	0.0165156
871.551	0.0164256
871.629	0.0164165
871.707	0.0163578
871.785	0.0163414
871.863	0.0163955
871.942	0.0163399
872.020	0.0164523
872.098	0.0162987
872.176	0.0162260
872.254	0.0163921
872.332	0.0164363
872.410	0.0164111
872.488	0.0163975
872.567	0.0162769
872.645	0.0164179
872.723	0.0164262
872.801	0.0163464
872.879	0.0162843
872.957	0.0163964
873.035	0.0163444
873.113	0.0164096
873.192	0.0164716
873.270	0.0164603
873.348	0.0164266
873.426	0.0163971
873.504	0.0164595
873.582	0.0164935
873.660	0.0165493
873.738	0.0164442
873.817	0.0163155
873.895	0.0163541
873.973	0.0163089
874.051	0.0163527
874.129	0.0163561
874.207	0.0163529
874.285	0.0163062
874.363	0.0163581
874.442	0.0163795
874.520	0.0162944
874.598	0.0164699
874.676	0.0165071
874.754	0.0164474
874.832	0.0162824
874.910	0.0162945
874.988	0.0163713
875.067	0.0163361
875.145	0.0163879
875.223	0.0162567
875.301	0.0163474
875.379	0.0164455
875.457	0.0163212
875.535	0.0163440
875.613	0.0164332
875.692	0.0163845
875.770	0.0162988
875.848	0.0163823
875.926	0.0164268
876.004	0.0164732
876.082	0.0163040
876.160	0.0163256
876.238	0.0163814
876.317	0.0163080
876.395	0.0162234
876.473	0.0163461
876.551	0.0161938
876.629	0.0163100
876.707	0.0164079
876.785	0.0163158
876.863	0.0162678
876.942	0.0161657
877.020	0.0161872
877.098	0.0163165
877.176	0.0164043
877.254	0.0163099
877.332	0.0161895
877.410	0.0161255
877.488	0.0161490
877.567	0.0162987
877.645	0.0162660
877.723	0.0162822
877.801	0.0163189
877.879	0.0163111
877.957	0.0162002
878.035	0.0161765
878.113	0.0162122
878.192	0.0163101
878.270	0.0163210
878.348	0.0162440
878.426	0.0162650
878.504	0.0162818
878.582	0.0163445
878.660	0.0162650
878.738	0.0162471
878.817	0.0163597
878.895	0.0162676
878.973	0.0161781
879.051	0.0162330
879.129	0.0162780
879.207	0.0162084
879.285	0.0162165
879.363	0.0162638
879.442	0.0163496
879.520	0.0162856
879.598	0.0162090
879.676	0.0163634
879.754	0.0163740
879.832	0.0162471
879.910	0.0163613
879.988	0.0163466
880.067	0.0164270
880.145	0.0164035
880.223	0.0164835
880.301	0.0164529
880.379	0.0163422
880.457	0.0163924
880.535	0.0163544
880.613	0.0164311
880.692	0.0163551
880.770	0.0163937
880.848	0.0162828
880.926	0.0163159
881.004	0.0164024
881.082	0.0164680
881.160	0.0163740
881.238	0.0163260
881.317	0.0164613
881.395	0.0165434
881.473	0.0165223
881.551	0.0164555
881.629	0.0163855
881.707	0.0163453
881.785	0.0165421
881.863	0.0165976
881.942	0.0163984
882.020	0.0163359
882.098	0.0163464
882.176	0.0163647
882.254	0.0163962
882.332	0.0163226
882.410	0.0163683
882.488	0.0164175
882.567	0.0163599
882.645	0.0162732
882.723	0.0162784
882.801	0.0162804
882.879	0.0161289
882.957	0.0161900
883.035	0.0161383
883.113	0.0162704
883.192	0.0162344
883.270	0.0163054
883.348	0.0162523
883.426	0.0162825
883.504	0.0162322
883.582	0.0161668
883.660	0.0162278
883.738	0.0163703
883.817	0.0163713
883.895	0.0162594
883.973	0.0161778
884.051	0.0161514
884.129	0.0162214
884.207	0.0162161
884.285	0.0162589
884.363	0.0161771
884.442	0.0161253
884.520	0.0162981
884.598	0.0162750
884.676	0.0162550
884.754	0.0162589
884.832	0.0163033
884.910	0.0160999
884.988	0.0162470
885.067	0.0163000
885.145	0.0162399
885.223	0.0161988
885.301	0.0162530
885.379	0.0163853
885.457	0.0163530
885.535	0.0163306
885.613	0.0163498
885.692	0.0162309
885.770	0.0162235
885.848	0.0162796
885.926	0.0162459
886.004	0.0163784
886.082	0.0164740
886.160	0.0162109
886.238	0.0162974
886.317	0.0162572
886.395	0.0162300
886.473	0.0163142
886.551	0.0162017
886.629	0.0162322
886.707	0.0161814
886.785	0.0162350
886.863	0.0163033
886.942	0.0162585
887.020	0.0160633
887.098	0.0159280
887.176	0.0160984
887.254	0.0163000
887.332	0.0162665
887.410	0.0161910
887.488	0.0161907
887.567	0.0162458
887.645	0.0162067
887.723	0.0161723
887.801	0.0161707
887.879	0.0161696
887.957	0.0161044
888.035	0.0161582
888.113	0.0160920
888.192	0.0161702
888.270	0.0161772
888.348	0.0161929
888.426	0.0161812
888.504	0.0161648
888.582	0.0161709
888.660	0.0161208
888.738	0.0161823
888.817	0.0161362
888.895	0.0160962
888.973	0.0161954
889.051	0.0161456
889.129	0.0161127
889.207	0.0161256
889.285	0.0160674
889.363	0.0160939
889.442	0.0162404
889.520	0.0162334
889.598	0.0162503
889.676	0.0163664
889.754	0.0161995
889.832	0.0162904
889.910	0.0162710
889.988	0.0163377
890.067	0.0162565
890.145	0.0162028
890.223	0.0164674
890.301	0.0163664
890.379	0.0162763
890.457	0.0163751
890.535	0.0162671
890.613	0.0162994
890.692	0.0164494
890.770	0.0164002
890.848	0.0162054
890.926	0.0161792
891.004	0.0163309
891.082	0.0163995
891.160	0.0164230
891.238	0.0164822
891.317	0.0164114
891.395	0.0163871
891.473	0.0163391
891.551	0.0163885
891.629	0.0164394
891.707	0.0162851
891.785	0.0163482
891.863	0.0163958
891.942	0.0163116
892.020	0.0162643
892.098	0.0162833
892.176	0.0161938
892.254	0.0162572
892.332	0.0161266
892.410	0.0161719
892.488	0.0162042
892.567	0.0162203
892.645	0.0161513
892.723	0.0162133
892.801	0.0162294
892.879	0.0160918
892.957	0.0161437
893.035	0.0161349
893.113	0.0160851
893.192	0.0162065
893.270	0.0162331
893.348	0.0161179
893.426	0.0161504
893.504	0.0163250
893.582	0.0162759
893.660	0.0162193
893.738	0.0161666
893.817	0.0162357
893.895	0.0161631
893.973	0.0161118
894.051	0.0163911
894.129	0.0161665
894.207	0.0164331
894.285	0.0163177
894.363	0.0163282
894.442	0.0162010
894.520	0.0162234
894.598	0.0163055
894.676	0.0162744
894.754	0.0162595
894.832	0.0161943
894.910	0.0163697
894.988	0.0163411
895.067	0.0164223
895.145	0.0165311
895.223	0.0165120
895.301	0.0164820
895.379	0.0163792
895.457	0.0164374
895.535	0.0164158
895.613	0.0164197
895.692	0.0165385
895.770	0.0164898
895.848	0.0164928
895.926	0.0163665
896.004	0.0165317
896.082	0.0164805
896.160	0.0164557
896.238	0.0164116
896.317	0.0164484
896.395	0.0164635
896.473	0.0163921
896.551	0.0163786
896.629	0.0164709
896.707	0.0166449
896.785	0.0164223
896.863	0.0165240
896.942	0.0164761
897.020	0.0164465
897.098	0.0165293
897.176	0.0163442
897.254	0.0162534
897.332	0.0162785
897.410	0.0161998
897.488	0.0163834
897.567	0.0163589
897.645	0.0162900
897.723	0.0162193
897.801	0.0163579
897.879	0.0162911
897.957	0.0163001
898.035	0.0163667
898.113	0.0163134
898.192	0.0161987
898.270	0.0164194
898.348	0.0162037
898.426	0.0163022
898.504	0.0162920
898.582	0.0163779
898.660	0.0163918
898.738	0.0162353
898.817	0.0162748
898.895	0.0161810
898.973	0.0163015
899.051	0.0163082
899.129	0.0162358
899.207	0.0161646
899.285	0.0162922
899.363	0.0162672
899.442	0.0162575
899.520	0.0162600
899.598	0.0162385
899.676	0.0162744
899.754	0.0162462
899.832	0.0163592
899.910	0.0164600
899.988	0.0163542
900.067	0.0164057
900.145	0.0163066
900.223	0.0163609
900.301	0.0162212
900.379	0.0162977
900.457	0.0161662
900.535	0.0161882
900.613	0.0161534
900.692	0.0163459
900.770	0.0162555
900.848	0.0161648
900.926	0.0162572
901.004	0.0161588
901.082	0.0162551
901.160	0.0163406
901.238	0.0163281
901.317	0.0161689
901.395	0.0164448
901.473	0.0162958
901.551	0.0163211
901.629	0.0164358
901.707	0.0163567
901.785	0.0162645
901.863	0.0164742
901.942	0.0163914
902.020	0.0163644
902.098	0.0162952
902.176	0.0163474
902.254	0.0164473
902.332	0.0163661
902.410	0.0163692
902.488	0.0164040
902.567	0.0163330
902.645	0.0164135
902.723	0.0164001
902.801	0.0164672
902.879	0.0165141
902.957	0.0164891
903.035	0.0164076
903.113	0.0163676
903.192	0.0164878
903.270	0.0164079
903.348	0.0164368
903.426	0.0164719
903.504	0.0164500
903.582	0.0164811
903.660	0.0165556
903.738	0.0164692
903.817	0.0164526
903.895	0.0164752
903.973	0.0163889
904.051	0.0164445
904.129	0.0165411
904.207	0.0164577
904.285	0.0165356
904.363	0.0165030
904.442	0.0165327
904.520	0.0166254
904.598	0.0163535
904.676	0.0164917
904.754	0.0164970
904.832	0.0164732
904.910	0.0164777
904.988	0.0164897
905.067	0.0165466
905.145	0.0164874
905.223	0.0164057
905.301	0.0163126
905.379	0.0163248
905.457	0.0164184
905.535	0.0163649
905.613	0.0163480
905.692	0.0161906
905.770	0.0164663
905.848	0.0165665
905.926	0.0164516
906.004	0.0165208
906.082	0.0164859
906.160	0.0165065
906.238	0.0165319
906.317	0.0166003
906.395	0.0165643
906.473	0.0165745
906.551	0.0164685
906.629	0.0166390
906.707	0.0166575
906.785	0.0164304
906.863	0.0165039
906.942	0.0163822
907.020	0.0164473
907.098	0.0163415
907.176	0.0163017
907.254	0.0163919
907.332	0.0163624
907.410	0.0163535
907.488	0.0162231
907.567	0.0162580
907.645	0.0162589
907.723	0.0162853
907.801	0.0164293
907.879	0.0161749
907.957	0.0163390
908.035	0.0162730
908.113	0.0161579
908.192	0.0162495
908.270	0.0163348
908.348	0.0164164
908.426	0.0163329
908.504	0.0163353
908.582	0.0162419
908.660	0.0162981
908.738	0.0163938
908.817	0.0163155
908.895	0.0163879
908.973	0.0164715
909.051	0.0162628
909.129	0.0163232
909.207	0.0162825
909.285	0.0161876
909.363	0.0162077
909.442	0.0162471
909.520	0.0162286
909.598	0.0162937
909.676	0.0161950
909.754	0.0159223
909.832	0.0160464
909.910	0.0161887
909.988	0.0161082
910.067	0.0161553
910.145	0.0161781
910.223	0.0159611
910.301	0.0161153
910.379	0.0161624
910.457	0.0161449
910.535	0.0162791
910.613	0.0161613
910.692	0.0159863
910.770	0.0161637
910.848	0.0163040
910.926	0.0161200
911.004	0.0161375
911.082	0.0162142
911.160	0.0163042
911.238	0.0162688
911.317	0.0162133
911.395	0.0162265
911.473	0.0161857
911.551	0.0161490
911.629	0.0162355
911.707	0.0161881
911.785	0.0160817
911.863	0.0160669
911.942	0.0162577
912.020	0.0161877
912.098	0.0160904
912.176	0.0162269
912.254	0.0162705
912.332	0.0160203
912.410	0.0160921
912.488	0.0160526
912.567	0.0160267
912.645	0.0159957
912.723	0.0161161
912.801	0.0160126
912.879	0.0161179
912.957	0.0159689
913.035	0.0160918
913.113	0.0160526
913.192	0.0160549
913.270	0.0160750
913.348	0.0161929
913.426	0.0161287
913.504	0.0160718
913.582	0.0162269
913.660	0.0162619
913.738	0.0163556
913.817	0.0164233
913.895	0.0163349
913.973	0.0163422
914.051	0.0163258
914.129	0.0164267
914.207	0.0163488
914.285	0.0164340
914.363	0.0164851
914.442	0.0163717
914.520	0.0164594
914.598	0.0163842
914.676	0.0164175
914.754	0.0164816
914.832	0.0164107
914.910	0.0163489
914.988	0.0161544
915.067	0.0163239
915.145	0.0164397
915.223	0.0163934
915.301	0.0161581
915.379	0.0161982
915.457	0.0163235
915.535	0.0163141
915.613	0.0162325
915.692	0.0162879
915.770	0.0162877
915.848	0.0163670
915.926	0.0162388
916.004	0.0161763
916.082	0.0160295
916.160	0.0162528
916.238	0.0160552
916.317	0.0160937
916.395	0.0161157
916.473	0.0161466
916.551	0.0159870
916.629	0.0160772
916.707	0.0161589
916.785	0.0160371
916.863	0.0161504
916.942	0.0161185
917.020	0.0159557
917.098	0.0161407
917.176	0.0160773
917.254	0.0161346
917.332	0.0160277
917.410	0.0160242
917.488	0.0161713
917.567	0.0161116
917.645	0.0160184
917.723	0.0160911
917.801	0.0161008
917.879	0.0160590
917.957	0.0161268
918.035	0.0161896
918.113	0.0162642
918.192	0.0162992
918.270	0.0162450
918.348	0.0163494
918.426	0.0164510
918.504	0.0163875
918.582	0.0164648
918.660	0.0166410
918.738	0.0166338
918.817	0.0166785
918.895	0.0166408
918.973	0.0165975
919.051	0.0165919
919.129	0.0164930
919.207	0.0165267
919.285	0.0165937
919.363	0.0166494
919.442	0.0165475
919.520	0.0165425
919.598	0.0166759
919.676	0.0166885
919.754	0.0165403
919.832	0.0165040
919.910	0.0164654
