05/24/2022	20:48:17	Ver.	4.1	UNKNOWN
Optical Delay	599.981738	Delta X		0.078125	Sweeps	1	Scan Rate	0/0
Coordinates	Axis 1	NaN	Axis 2	NaN	Axis 3	NaN	Axis 4	NaN	Axis 5	NaN	Axis 6	0.000000
TX Power	0.000000	RX Power	0.000000

599.982	0.0159787
600.060	0.0157933
600.138	0.0157098
600.216	0.0157574
600.294	0.0155574
600.372	0.0155775
600.450	0.0157895
600.529	0.0159275
600.607	0.0158738
600.685	0.0157499
600.763	0.0158324
600.841	0.0160223
600.919	0.0159231
600.997	0.0160355
601.075	0.0159772
601.154	0.0159465
601.232	0.0160355
601.310	0.0160307
601.388	0.0159412
601.466	0.0159746
601.544	0.0159774
601.622	0.0158869
601.700	0.0161462
601.779	0.0160370
601.857	0.0158746
601.935	0.0159099
602.013	0.0159746
602.091	0.0161377
602.169	0.0160825
602.247	0.0159257
602.325	0.0160751
602.404	0.0160371
602.482	0.0159779
602.560	0.0159612
602.638	0.0159935
602.716	0.0158863
602.794	0.0160020
602.872	0.0159734
602.950	0.0158984
603.029	0.0158761
603.107	0.0157053
603.185	0.0157312
603.263	0.0158443
603.341	0.0159131
603.419	0.0157769
603.497	0.0157223
603.575	0.0158289
603.654	0.0157112
603.732	0.0157414
603.810	0.0156847
603.888	0.0157557
603.966	0.0157914
604.044	0.0158556
604.122	0.0157533
604.200	0.0157931
604.279	0.0156495
604.357	0.0157178
604.435	0.0156112
604.513	0.0156647
604.591	0.0157204
604.669	0.0157268
604.747	0.0158026
604.825	0.0158076
604.904	0.0157962
604.982	0.0157745
605.060	0.0157607
605.138	0.0158613
605.216	0.0156469
605.294	0.0158129
605.372	0.0157140
605.450	0.0159039
605.529	0.0158491
605.607	0.0159658
605.685	0.0157706
605.763	0.0157908
605.841	0.0158179
605.919	0.0158594
605.997	0.0159628
606.075	0.0159032
606.154	0.0159209
606.232	0.0158966
606.310	0.0158649
606.388	0.0158771
606.466	0.0158441
606.544	0.0158638
606.622	0.0158008
606.700	0.0156756
606.779	0.0159122
606.857	0.0159518
606.935	0.0158674
607.013	0.0159290
607.091	0.0159732
607.169	0.0159841
607.247	0.0158516
607.325	0.0159567
607.404	0.0159697
607.482	0.0158802
607.560	0.0160491
607.638	0.0159910
607.716	0.0159409
607.794	0.0160076
607.872	0.0159505
607.950	0.0159177
608.029	0.0160090
608.107	0.0159464
608.185	0.0159519
608.263	0.0161576
608.341	0.0160854
608.419	0.0160116
608.497	0.0159391
608.575	0.0160410
608.654	0.0160876
608.732	0.0159882
608.810	0.0159544
608.888	0.0160918
608.966	0.0161024
609.044	0.0161032
609.122	0.0161457
609.200	0.0160287
609.279	0.0161282
609.357	0.0161613
609.435	0.0162472
609.513	0.0161022
609.591	0.0161697
609.669	0.0161929
609.747	0.0161207
609.825	0.0161257
609.904	0.0162011
609.982	0.0162070
610.060	0.0161401
610.138	0.0161379
610.216	0.0160532
610.294	0.0160096
610.372	0.0159542
610.450	0.0158891
610.529	0.0159602
610.607	0.0160271
610.685	0.0160633
610.763	0.0159564
610.841	0.0158948
610.919	0.0159406
610.997	0.0158724
611.075	0.0160840
611.154	0.0160255
611.232	0.0159813
611.310	0.0159973
611.388	0.0159647
611.466	0.0158121
611.544	0.0158554
611.622	0.0158578
611.700	0.0157526
611.779	0.0156419
611.857	0.0156708
611.935	0.0156576
612.013	0.0155378
612.091	0.0154777
612.169	0.0155242
612.247	0.0155424
612.325	0.0156245
612.404	0.0155458
612.482	0.0155155
612.560	0.0157113
612.638	0.0156335
612.716	0.0156191
612.794	0.0159820
612.872	0.0160808
612.950	0.0158871
613.029	0.0159892
613.107	0.0160741
613.185	0.0160725
613.263	0.0161684
613.341	0.0162115
613.419	0.0161291
613.497	0.0160976
613.575	0.0160988
613.654	0.0160378
613.732	0.0159350
613.810	0.0158801
613.888	0.0158598
613.966	0.0156568
614.044	0.0157391
614.122	0.0157421
614.200	0.0155032
614.279	0.0155227
614.357	0.0154778
614.435	0.0155747
614.513	0.0154174
614.591	0.0154337
614.669	0.0154893
614.747	0.0153278
614.825	0.0154105
614.904	0.0154327
614.982	0.0154754
615.060	0.0154443
615.138	0.0155566
615.216	0.0154302
615.294	0.0156225
615.372	0.0156414
615.450	0.0156020
615.529	0.0155927
615.607	0.0156053
615.685	0.0156332
615.763	0.0157204
615.841	0.0156482
615.919	0.0156342
615.997	0.0156873
616.075	0.0156384
616.154	0.0156145
616.232	0.0155711
616.310	0.0155830
616.388	0.0155185
616.466	0.0154331
616.544	0.0153465
616.622	0.0152399
616.700	0.0152292
616.779	0.0153383
616.857	0.0153150
616.935	0.0154287
617.013	0.0153591
617.091	0.0154317
617.169	0.0155261
617.247	0.0156361
617.325	0.0158060
617.404	0.0159940
617.482	0.0160445
617.560	0.0160757
617.638	0.0162804
617.716	0.0165525
617.794	0.0166598
617.872	0.0167571
617.950	0.0168366
618.029	0.0168340
618.107	0.0168543
618.185	0.0168837
618.263	0.0171078
618.341	0.0169540
618.419	0.0168007
618.497	0.0168559
618.575	0.0166534
618.654	0.0164765
618.732	0.0164462
618.810	0.0161789
618.888	0.0161356
618.966	0.0158696
619.044	0.0158442
619.122	0.0155262
619.200	0.0155080
619.279	0.0154700
619.357	0.0152797
619.435	0.0151022
619.513	0.0150111
619.591	0.0149590
619.669	0.0148520
619.747	0.0148675
619.825	0.0147072
619.904	0.0147788
619.982	0.0147962
620.060	0.0149197
620.138	0.0149248
620.216	0.0148907
620.294	0.0151366
620.372	0.0153401
620.450	0.0156359
620.529	0.0156743
620.607	0.0159016
620.685	0.0160999
620.763	0.0162186
620.841	0.0166987
620.919	0.0167748
620.997	0.0169246
621.075	0.0170879
621.154	0.0171130
621.232	0.0171739
621.310	0.0172178
621.388	0.0172408
621.466	0.0173631
621.544	0.0172478
621.622	0.0172176
621.700	0.0171864
621.779	0.0170634
621.857	0.0169096
621.935	0.0167439
622.013	0.0166957
622.091	0.0167032
622.169	0.0163660
622.247	0.0162311
622.325	0.0161205
622.404	0.0159389
622.482	0.0158451
622.560	0.0158017
622.638	0.0156232
622.716	0.0153629
622.794	0.0153788
622.872	0.0154446
622.950	0.0153594
623.029	0.0154243
623.107	0.0153635
623.185	0.0154010
623.263	0.0153366
623.341	0.0153321
623.419	0.0154452
623.497	0.0154417
623.575	0.0153619
623.654	0.0153481
623.732	0.0154116
623.810	0.0152763
623.888	0.0152760
623.966	0.0152578
624.044	0.0151447
624.122	0.0151217
624.200	0.0152062
624.279	0.0151229
624.357	0.0151134
624.435	0.0151511
624.513	0.0151699
624.591	0.0150951
624.669	0.0152552
624.747	0.0153963
624.825	0.0154787
624.904	0.0155013
624.982	0.0157439
625.060	0.0158542
625.138	0.0160485
625.216	0.0163358
625.294	0.0164481
625.372	0.0167349
625.450	0.0170528
625.529	0.0172490
625.607	0.0175639
625.685	0.0178528
625.763	0.0179606
625.841	0.0180713
625.919	0.0182619
625.997	0.0183272
626.075	0.0183500
626.154	0.0182344
626.232	0.0182958
626.310	0.0179957
626.388	0.0178919
626.466	0.0175747
626.544	0.0173399
626.622	0.0170432
626.700	0.0166604
626.779	0.0163376
626.857	0.0159538
626.935	0.0156737
627.013	0.0153081
627.091	0.0151068
627.169	0.0149112
627.247	0.0146100
627.325	0.0142567
627.404	0.0140419
627.482	0.0139062
627.560	0.0137675
627.638	0.0135239
627.716	0.0135011
627.794	0.0136002
627.872	0.0133414
627.950	0.0134008
628.029	0.0133604
628.107	0.0134364
628.185	0.0134930
628.263	0.0137870
628.341	0.0137051
628.419	0.0141750
628.497	0.0142731
628.575	0.0144825
628.654	0.0148700
628.732	0.0152431
628.810	0.0154704
628.888	0.0158337
628.966	0.0159695
629.044	0.0164798
629.122	0.0166413
629.200	0.0170105
629.279	0.0171090
629.357	0.0174960
629.435	0.0177444
629.513	0.0177550
629.591	0.0180384
629.669	0.0180183
629.747	0.0180059
629.825	0.0181205
629.904	0.0181582
629.982	0.0181981
630.060	0.0181613
630.138	0.0180811
630.216	0.0181888
630.294	0.0181258
630.372	0.0180701
630.450	0.0180486
630.529	0.0181699
630.607	0.0179917
630.685	0.0177189
630.763	0.0176601
630.841	0.0177792
630.919	0.0174303
630.997	0.0172823
631.075	0.0170121
631.154	0.0165590
631.232	0.0162668
631.310	0.0159807
631.388	0.0155058
631.466	0.0150892
631.544	0.0147601
631.622	0.0143441
631.700	0.0139047
631.779	0.0136259
631.857	0.0133500
631.935	0.0131356
632.013	0.0128023
632.091	0.0125672
632.169	0.0126003
632.247	0.0124477
632.325	0.0122083
632.404	0.0122836
632.482	0.0121968
632.560	0.0122763
632.638	0.0124014
632.716	0.0126485
632.794	0.0128819
632.872	0.0131553
632.950	0.0135335
633.029	0.0139502
633.107	0.0143423
633.185	0.0149384
633.263	0.0151416
633.341	0.0157101
633.419	0.0162764
633.497	0.0166155
633.575	0.0170490
633.654	0.0173938
633.732	0.0177900
633.810	0.0180312
633.888	0.0183671
633.966	0.0184412
634.044	0.0186007
634.122	0.0187271
634.200	0.0187511
634.279	0.0186001
634.357	0.0187086
634.435	0.0185504
634.513	0.0184787
634.591	0.0182586
634.669	0.0182194
634.747	0.0181235
634.825	0.0178728
634.904	0.0175690
634.982	0.0172945
635.060	0.0171619
635.138	0.0171206
635.216	0.0166608
635.294	0.0162499
635.372	0.0160879
635.450	0.0159138
635.529	0.0157548
635.607	0.0153923
635.685	0.0152336
635.763	0.0150413
635.841	0.0149261
635.919	0.0147045
635.997	0.0145670
636.075	0.0145261
636.154	0.0142905
636.232	0.0141847
636.310	0.0141467
636.388	0.0141155
636.466	0.0141422
636.544	0.0141837
636.622	0.0140723
636.700	0.0142557
636.779	0.0141399
636.857	0.0142476
636.935	0.0144312
637.013	0.0146637
637.091	0.0146740
637.169	0.0149382
637.247	0.0151027
637.325	0.0152181
637.404	0.0154095
637.482	0.0156498
637.560	0.0158374
637.638	0.0160455
637.716	0.0161832
637.794	0.0161424
637.872	0.0162701
637.950	0.0165250
638.029	0.0164381
638.107	0.0166484
638.185	0.0166077
638.263	0.0165705
638.341	0.0165018
638.419	0.0165551
638.497	0.0164065
638.575	0.0165216
638.654	0.0163958
638.732	0.0163126
638.810	0.0163039
638.888	0.0162711
638.966	0.0162007
639.044	0.0161877
639.122	0.0161149
639.200	0.0159958
639.279	0.0159317
639.357	0.0158202
639.435	0.0158479
639.513	0.0157481
639.591	0.0156426
639.669	0.0156663
639.747	0.0155714
639.825	0.0154983
639.904	0.0155468
639.982	0.0155578
640.060	0.0155737
640.138	0.0157231
640.216	0.0156629
640.294	0.0158729
640.372	0.0158739
640.450	0.0161009
640.529	0.0164368
640.607	0.0165132
640.685	0.0163923
640.763	0.0164727
640.841	0.0165195
640.919	0.0166998
640.997	0.0165915
641.075	0.0166314
641.154	0.0165942
641.232	0.0167139
641.310	0.0168140
641.388	0.0166991
641.466	0.0167880
641.544	0.0167733
641.622	0.0168798
641.700	0.0169465
641.779	0.0166946
641.857	0.0169326
641.935	0.0168643
642.013	0.0168137
642.091	0.0167481
642.169	0.0168096
642.247	0.0163850
642.325	0.0163703
642.404	0.0162314
642.482	0.0159357
642.560	0.0157851
642.638	0.0157297
642.716	0.0156717
642.794	0.0154536
642.872	0.0150190
642.950	0.0149373
643.029	0.0148288
643.107	0.0148242
643.185	0.0144964
643.263	0.0143826
643.341	0.0142739
643.419	0.0141608
643.497	0.0141508
643.575	0.0140372
643.654	0.0139225
643.732	0.0137518
643.810	0.0136990
643.888	0.0137013
643.966	0.0138365
644.044	0.0137995
644.122	0.0139890
644.200	0.0141102
644.279	0.0143290
644.357	0.0145818
644.435	0.0149704
644.513	0.0152427
644.591	0.0155083
644.669	0.0159504
644.747	0.0162278
644.825	0.0166261
644.904	0.0170010
644.982	0.0171819
645.060	0.0173348
645.138	0.0175094
645.216	0.0178237
645.294	0.0180252
645.372	0.0179631
645.450	0.0181079
645.529	0.0179533
645.607	0.0180505
645.685	0.0180289
645.763	0.0178114
645.841	0.0178793
645.919	0.0178557
645.997	0.0177031
646.075	0.0175337
646.154	0.0176756
646.232	0.0175472
646.310	0.0174291
646.388	0.0172831
646.466	0.0170965
646.544	0.0169140
646.622	0.0168253
646.700	0.0165723
646.779	0.0163056
646.857	0.0161568
646.935	0.0161272
647.013	0.0158867
647.091	0.0156055
647.169	0.0154332
647.247	0.0155111
647.325	0.0153687
647.404	0.0154241
647.482	0.0151614
647.560	0.0151455
647.638	0.0149488
647.716	0.0151356
647.794	0.0147956
647.872	0.0148367
647.950	0.0148898
648.029	0.0147472
648.107	0.0147917
648.185	0.0148303
648.263	0.0146355
648.341	0.0146390
648.419	0.0147694
648.497	0.0146958
648.575	0.0145380
648.654	0.0144322
648.732	0.0144317
648.810	0.0144604
648.888	0.0144642
648.966	0.0145220
649.044	0.0144843
649.122	0.0146690
649.200	0.0146083
649.279	0.0149055
649.357	0.0149612
649.435	0.0152274
649.513	0.0152588
649.591	0.0153528
649.669	0.0158088
649.747	0.0159548
649.825	0.0161104
649.904	0.0164565
649.982	0.0164971
650.060	0.0165207
650.138	0.0169145
650.216	0.0170232
650.294	0.0172256
650.372	0.0172997
650.450	0.0174905
650.529	0.0176382
650.607	0.0177435
650.685	0.0179112
650.763	0.0179988
650.841	0.0180819
650.919	0.0180824
650.997	0.0181678
651.075	0.0181242
651.154	0.0180367
651.232	0.0179860
651.310	0.0179311
651.388	0.0177662
651.466	0.0176534
651.544	0.0173500
651.622	0.0172602
651.700	0.0168598
651.779	0.0166425
651.857	0.0164322
651.935	0.0161097
652.013	0.0159746
652.091	0.0155764
652.169	0.0153674
652.247	0.0152817
652.325	0.0149805
652.404	0.0145915
652.482	0.0145324
652.560	0.0142571
652.638	0.0141151
652.716	0.0141087
652.794	0.0138898
652.872	0.0137760
652.950	0.0136545
653.029	0.0135146
653.107	0.0137465
653.185	0.0137492
653.263	0.0136362
653.341	0.0138161
653.419	0.0138915
653.497	0.0139328
653.575	0.0140933
653.654	0.0141739
653.732	0.0143531
653.810	0.0146039
653.888	0.0148020
653.966	0.0149037
654.044	0.0151926
654.122	0.0154303
654.200	0.0157658
654.279	0.0160272
654.357	0.0162081
654.435	0.0165984
654.513	0.0167690
654.591	0.0171329
654.669	0.0173425
654.747	0.0174319
654.825	0.0176088
654.904	0.0178555
654.982	0.0179008
655.060	0.0180099
655.138	0.0181087
655.216	0.0179360
655.294	0.0178060
655.372	0.0178110
655.450	0.0175999
655.529	0.0174464
655.607	0.0171959
655.685	0.0169067
655.763	0.0167592
655.841	0.0164089
655.919	0.0161933
655.997	0.0160278
656.075	0.0156952
656.154	0.0153722
656.232	0.0152058
656.310	0.0150990
656.388	0.0149824
656.466	0.0148084
656.544	0.0145654
656.622	0.0145026
656.700	0.0143989
656.779	0.0143449
656.857	0.0143742
656.935	0.0145235
657.013	0.0146482
657.091	0.0148660
657.169	0.0149667
657.247	0.0150297
657.325	0.0153057
657.404	0.0155893
657.482	0.0158814
657.560	0.0160498
657.638	0.0161727
657.716	0.0165319
657.794	0.0165563
657.872	0.0167393
657.950	0.0167629
658.029	0.0168897
658.107	0.0167611
658.185	0.0167412
658.263	0.0167409
658.341	0.0167369
658.419	0.0166055
658.497	0.0165089
658.575	0.0164915
658.654	0.0163232
658.732	0.0161471
658.810	0.0158411
658.888	0.0157746
658.966	0.0156973
659.044	0.0155421
659.122	0.0155463
659.200	0.0154269
659.279	0.0153513
659.357	0.0152433
659.435	0.0153681
659.513	0.0153009
659.591	0.0154441
659.669	0.0155507
659.747	0.0155389
659.825	0.0155035
659.904	0.0157179
659.982	0.0159412
660.060	0.0158377
660.138	0.0162208
660.216	0.0162109
660.294	0.0163304
660.372	0.0165176
660.450	0.0165034
660.529	0.0163877
660.607	0.0164423
660.685	0.0161872
660.763	0.0162905
660.841	0.0162029
660.919	0.0160658
660.997	0.0160378
661.075	0.0158092
661.154	0.0157577
661.232	0.0157745
661.310	0.0157126
661.388	0.0156636
661.466	0.0156058
661.544	0.0157310
661.622	0.0157619
661.700	0.0158215
661.779	0.0159135
661.857	0.0160897
661.935	0.0163194
662.013	0.0160634
662.091	0.0161050
662.169	0.0162268
662.247	0.0162971
662.325	0.0163479
662.404	0.0163326
662.482	0.0162593
662.560	0.0161928
662.638	0.0164031
662.716	0.0161651
662.794	0.0163776
662.872	0.0164439
662.950	0.0162444
663.029	0.0163391
663.107	0.0162471
663.185	0.0161786
663.263	0.0161937
663.341	0.0159813
663.419	0.0158186
663.497	0.0158141
663.575	0.0155192
663.654	0.0153716
663.732	0.0152468
663.810	0.0149551
663.888	0.0147715
663.966	0.0147847
664.044	0.0148794
664.122	0.0146915
664.200	0.0145759
664.279	0.0148457
664.357	0.0147823
664.435	0.0150130
664.513	0.0151613
664.591	0.0152122
664.669	0.0154678
664.747	0.0156918
664.825	0.0158387
664.904	0.0160049
664.982	0.0160556
665.060	0.0162095
665.138	0.0163420
665.216	0.0166275
665.294	0.0167212
665.372	0.0168551
665.450	0.0169786
665.529	0.0169798
665.607	0.0170962
665.685	0.0171527
665.763	0.0172810
665.841	0.0173626
665.919	0.0171364
665.997	0.0173997
666.075	0.0172747
666.154	0.0170821
666.232	0.0170010
666.310	0.0168491
666.388	0.0166383
666.466	0.0164968
666.544	0.0163952
666.622	0.0163892
666.700	0.0163378
666.779	0.0161665
666.857	0.0158036
666.935	0.0158239
667.013	0.0157987
667.091	0.0155926
667.169	0.0155607
667.247	0.0154698
667.325	0.0152991
667.404	0.0154032
667.482	0.0153071
667.560	0.0151421
667.638	0.0150841
667.716	0.0149551
667.794	0.0150560
667.872	0.0149645
667.950	0.0149093
668.029	0.0147778
668.107	0.0149595
668.185	0.0150581
668.263	0.0150354
668.341	0.0150612
668.419	0.0152296
668.497	0.0152887
668.575	0.0153900
668.654	0.0156426
668.732	0.0156278
668.810	0.0158486
668.888	0.0160645
668.966	0.0160508
669.044	0.0162669
669.122	0.0164599
669.200	0.0165078
669.279	0.0165114
669.357	0.0165868
669.435	0.0167610
669.513	0.0167146
669.591	0.0168131
669.669	0.0171240
669.747	0.0170540
669.825	0.0171238
669.904	0.0170355
669.982	0.0168743
670.060	0.0168858
670.138	0.0166996
670.216	0.0166497
670.294	0.0166393
670.372	0.0165177
670.450	0.0163081
670.529	0.0162467
670.607	0.0160824
670.685	0.0159910
670.763	0.0158658
670.841	0.0158327
670.919	0.0159547
670.997	0.0157207
671.075	0.0156895
671.154	0.0158076
671.232	0.0157386
671.310	0.0157945
671.388	0.0159128
671.466	0.0157333
671.544	0.0156862
671.622	0.0156621
671.700	0.0158083
671.779	0.0156751
671.857	0.0155164
671.935	0.0154256
672.013	0.0153551
672.091	0.0152962
672.169	0.0152879
672.247	0.0151895
672.325	0.0153065
672.404	0.0153797
672.482	0.0152748
672.560	0.0153199
672.638	0.0153335
672.716	0.0152805
672.794	0.0155110
672.872	0.0155754
672.950	0.0155860
673.029	0.0157738
673.107	0.0156743
673.185	0.0158499
673.263	0.0158566
673.341	0.0160060
673.419	0.0160352
673.497	0.0160834
673.575	0.0162261
673.654	0.0163204
673.732	0.0162852
673.810	0.0163108
673.888	0.0164342
673.966	0.0165959
674.044	0.0165311
674.122	0.0165047
674.200	0.0165563
674.279	0.0167056
674.357	0.0168187
674.435	0.0167558
674.513	0.0168063
674.591	0.0169744
674.669	0.0167322
674.747	0.0168134
674.825	0.0169221
674.904	0.0170041
674.982	0.0168064
675.060	0.0167504
675.138	0.0167506
675.216	0.0166090
675.294	0.0166322
675.372	0.0166040
675.450	0.0164648
675.529	0.0163937
675.607	0.0162542
675.685	0.0162186
675.763	0.0160136
675.841	0.0159791
675.919	0.0157980
675.997	0.0158689
676.075	0.0156804
676.154	0.0157433
676.232	0.0155666
676.310	0.0156161
676.388	0.0153609
676.466	0.0154391
676.544	0.0154258
676.622	0.0152620
676.700	0.0150318
676.779	0.0151013
676.857	0.0150687
676.935	0.0149252
677.013	0.0149032
677.091	0.0148130
677.169	0.0147482
677.247	0.0147404
677.325	0.0147025
677.404	0.0146510
677.482	0.0147134
677.560	0.0149191
677.638	0.0150897
677.716	0.0151276
677.794	0.0153011
677.872	0.0155626
677.950	0.0157838
678.029	0.0158689
678.107	0.0161151
678.185	0.0163483
678.263	0.0165170
678.341	0.0167039
678.419	0.0167635
678.497	0.0169466
678.575	0.0169437
678.654	0.0170371
678.732	0.0170106
678.810	0.0171010
678.888	0.0171769
678.966	0.0169037
679.044	0.0168745
679.122	0.0168233
679.200	0.0166934
679.279	0.0166125
679.357	0.0164458
679.435	0.0161265
679.513	0.0163080
679.591	0.0160729
679.669	0.0159877
679.747	0.0159833
679.825	0.0158868
679.904	0.0159228
679.982	0.0158399
680.060	0.0158402
680.138	0.0157201
680.216	0.0158230
680.294	0.0157646
680.372	0.0158896
680.450	0.0156870
680.529	0.0158435
680.607	0.0157857
680.685	0.0158266
680.763	0.0157180
680.841	0.0157943
680.919	0.0157632
680.997	0.0159452
681.075	0.0158365
681.154	0.0157528
681.232	0.0158254
681.310	0.0157585
681.388	0.0158270
681.466	0.0158640
681.544	0.0156849
681.622	0.0157065
681.700	0.0156532
681.779	0.0156980
681.857	0.0156355
681.935	0.0156876
682.013	0.0156295
682.091	0.0157016
682.169	0.0156485
682.247	0.0157620
682.325	0.0157796
682.404	0.0156866
682.482	0.0158109
682.560	0.0159866
682.638	0.0160284
682.716	0.0158731
682.794	0.0158626
682.872	0.0159370
682.950	0.0159553
683.029	0.0160576
683.107	0.0161065
683.185	0.0160343
683.263	0.0161302
683.341	0.0160507
683.419	0.0160786
683.497	0.0161379
683.575	0.0160586
683.654	0.0161572
683.732	0.0161054
683.810	0.0160881
683.888	0.0159685
683.966	0.0160951
684.044	0.0159825
684.122	0.0157706
684.200	0.0158701
684.279	0.0156852
684.357	0.0158522
684.435	0.0157576
684.513	0.0156010
684.591	0.0156098
684.669	0.0155012
684.747	0.0156393
684.825	0.0155105
684.904	0.0156493
684.982	0.0158874
685.060	0.0158247
685.138	0.0158868
685.216	0.0160787
685.294	0.0162604
685.372	0.0163921
685.450	0.0163837
685.529	0.0163516
685.607	0.0165123
685.685	0.0165199
685.763	0.0167345
685.841	0.0165717
685.919	0.0164683
685.997	0.0164100
686.075	0.0163091
686.154	0.0164445
686.232	0.0163581
686.310	0.0162261
686.388	0.0163650
686.466	0.0162597
686.544	0.0162321
686.622	0.0162653
686.700	0.0161845
686.779	0.0162872
686.857	0.0162540
686.935	0.0160735
687.013	0.0160925
687.091	0.0162958
687.169	0.0160942
687.247	0.0160224
687.325	0.0160888
687.404	0.0161098
687.482	0.0160369
687.560	0.0160144
687.638	0.0158392
687.716	0.0159646
687.794	0.0158424
687.872	0.0158753
687.950	0.0158169
688.029	0.0159800
688.107	0.0158600
688.185	0.0158691
688.263	0.0158361
688.341	0.0158401
688.419	0.0158588
688.497	0.0156225
688.575	0.0156604
688.654	0.0156290
688.732	0.0155964
688.810	0.0155883
688.888	0.0154514
688.966	0.0154111
689.044	0.0156277
689.122	0.0156091
689.200	0.0156944
689.279	0.0155656
689.357	0.0158147
689.435	0.0159332
689.513	0.0159690
689.591	0.0160446
689.669	0.0163072
689.747	0.0163593
689.825	0.0163172
689.904	0.0165353
689.982	0.0168017
690.060	0.0167879
690.138	0.0167329
690.216	0.0167226
690.294	0.0168851
690.372	0.0168246
690.450	0.0168167
690.529	0.0166467
690.607	0.0165946
690.685	0.0164459
690.763	0.0162611
690.841	0.0161911
690.919	0.0162397
690.997	0.0160571
691.075	0.0159103
691.154	0.0157526
691.232	0.0157821
691.310	0.0156818
691.388	0.0156026
691.466	0.0155836
691.544	0.0153526
691.622	0.0153614
691.700	0.0155013
691.779	0.0154591
691.857	0.0154136
691.935	0.0154355
692.013	0.0155208
692.091	0.0154333
692.169	0.0154646
692.247	0.0156829
692.325	0.0155772
692.404	0.0155581
692.482	0.0155796
692.560	0.0156613
692.638	0.0157975
692.716	0.0157477
692.794	0.0158199
692.872	0.0159183
692.950	0.0159954
693.029	0.0160995
693.107	0.0161259
693.185	0.0162260
693.263	0.0161862
693.341	0.0163161
693.419	0.0163315
693.497	0.0162904
693.575	0.0164000
693.654	0.0162316
693.732	0.0163421
693.810	0.0162514
693.888	0.0161662
693.966	0.0162489
694.044	0.0162731
694.122	0.0162470
694.200	0.0161660
694.279	0.0162019
694.357	0.0160912
694.435	0.0160593
694.513	0.0159401
694.591	0.0160126
694.669	0.0159962
694.747	0.0160461
694.825	0.0159716
694.904	0.0159785
694.982	0.0159237
695.060	0.0159706
695.138	0.0159931
695.216	0.0157226
695.294	0.0158831
695.372	0.0159490
695.450	0.0159999
695.529	0.0158295
695.607	0.0159496
695.685	0.0160574
695.763	0.0160518
695.841	0.0161385
695.919	0.0162341
695.997	0.0162473
696.075	0.0160989
696.154	0.0161800
696.232	0.0162169
696.310	0.0161755
696.388	0.0162327
696.466	0.0160960
696.544	0.0160582
696.622	0.0160033
696.700	0.0158177
696.779	0.0159219
696.857	0.0157138
696.935	0.0158556
697.013	0.0158400
697.091	0.0158306
697.169	0.0156662
697.247	0.0158170
697.325	0.0157168
697.404	0.0156060
697.482	0.0155132
697.560	0.0155810
697.638	0.0156402
697.716	0.0156223
697.794	0.0154321
697.872	0.0153294
697.950	0.0152908
698.029	0.0153641
698.107	0.0151278
698.185	0.0153500
698.263	0.0153700
698.341	0.0153303
698.419	0.0154193
698.497	0.0155074
698.575	0.0154655
698.654	0.0154603
698.732	0.0155541
698.810	0.0156767
698.888	0.0157894
698.966	0.0157995
699.044	0.0158038
699.122	0.0159579
699.200	0.0160215
699.279	0.0160327
699.357	0.0160184
699.435	0.0160572
699.513	0.0161078
699.591	0.0161173
699.669	0.0162608
699.747	0.0162340
699.825	0.0162056
699.904	0.0163248
699.982	0.0162054
700.060	0.0160448
700.138	0.0161649
700.216	0.0161761
700.294	0.0162068
700.372	0.0161790
700.450	0.0161156
700.529	0.0160954
700.607	0.0161902
700.685	0.0162939
700.763	0.0161917
700.841	0.0161963
700.919	0.0162462
700.997	0.0161517
701.075	0.0162719
701.154	0.0162198
701.232	0.0162617
701.310	0.0162394
701.388	0.0162774
701.466	0.0162140
701.544	0.0162959
701.622	0.0164143
701.700	0.0163996
701.779	0.0162161
701.857	0.0162524
701.935	0.0163012
702.013	0.0162911
702.091	0.0162566
702.169	0.0161721
702.247	0.0162038
702.325	0.0163262
702.404	0.0161144
702.482	0.0158945
702.560	0.0160697
702.638	0.0161441
702.716	0.0159107
702.794	0.0159144
702.872	0.0158468
702.950	0.0157681
703.029	0.0158298
703.107	0.0160320
703.185	0.0158197
703.263	0.0157252
703.341	0.0155755
703.419	0.0157808
703.497	0.0155634
703.575	0.0156493
703.654	0.0156911
703.732	0.0157298
703.810	0.0156820
703.888	0.0156364
703.966	0.0156610
704.044	0.0157998
704.122	0.0157770
704.200	0.0157385
704.279	0.0157498
704.357	0.0156733
704.435	0.0158038
704.513	0.0156963
704.591	0.0159647
704.669	0.0158128
704.747	0.0158110
704.825	0.0157447
704.904	0.0156840
704.982	0.0156657
705.060	0.0156491
705.138	0.0156970
705.216	0.0157813
705.294	0.0156641
705.372	0.0156234
705.450	0.0158698
705.529	0.0156622
705.607	0.0157343
705.685	0.0159818
705.763	0.0159258
705.841	0.0160126
705.919	0.0159792
705.997	0.0161078
706.075	0.0160822
706.154	0.0160740
706.232	0.0162403
706.310	0.0162045
706.388	0.0162207
706.466	0.0161761
706.544	0.0163432
706.622	0.0163535
706.700	0.0163393
706.779	0.0164015
706.857	0.0163699
706.935	0.0161968
707.013	0.0162787
707.091	0.0162518
707.169	0.0163011
707.247	0.0162135
707.325	0.0162453
707.404	0.0161512
707.482	0.0159830
707.560	0.0160747
707.638	0.0161552
707.716	0.0162154
707.794	0.0160719
707.872	0.0159560
707.950	0.0159708
708.029	0.0159704
708.107	0.0161110
708.185	0.0160664
708.263	0.0159348
708.341	0.0159550
708.419	0.0159812
708.497	0.0160269
708.575	0.0159918
708.654	0.0161037
708.732	0.0160843
708.810	0.0159595
708.888	0.0161363
708.966	0.0161214
709.044	0.0160987
709.122	0.0162078
709.200	0.0162074
709.279	0.0161403
709.357	0.0162125
709.435	0.0162426
709.513	0.0160798
709.591	0.0161229
709.669	0.0161145
709.747	0.0159709
709.825	0.0160521
709.904	0.0161436
709.982	0.0160432
710.060	0.0158469
710.138	0.0157707
710.216	0.0159322
710.294	0.0158447
710.372	0.0159125
710.450	0.0157113
710.529	0.0157697
710.607	0.0156269
710.685	0.0157215
710.763	0.0158171
710.841	0.0157381
710.919	0.0158042
710.997	0.0158110
711.075	0.0158450
711.154	0.0158497
711.232	0.0157580
711.310	0.0159345
711.388	0.0159987
711.466	0.0158660
711.544	0.0159068
711.622	0.0160241
711.700	0.0159705
711.779	0.0159039
711.857	0.0159586
711.935	0.0157806
712.013	0.0157776
712.091	0.0159069
712.169	0.0157560
712.247	0.0157716
712.325	0.0158178
712.404	0.0159329
712.482	0.0158861
712.560	0.0158761
712.638	0.0158501
712.716	0.0158888
712.794	0.0159213
712.872	0.0158196
712.950	0.0158225
713.029	0.0158221
713.107	0.0158826
713.185	0.0159612
713.263	0.0160255
713.341	0.0157904
713.419	0.0158103
713.497	0.0157567
713.575	0.0159779
713.654	0.0159480
713.732	0.0159745
713.810	0.0159769
713.888	0.0161404
713.966	0.0160177
714.044	0.0160132
714.122	0.0160889
714.200	0.0160603
714.279	0.0160685
714.357	0.0160926
714.435	0.0160816
714.513	0.0161610
714.591	0.0160921
714.669	0.0161745
714.747	0.0161103
714.825	0.0161169
714.904	0.0161890
714.982	0.0161526
715.060	0.0159592
715.138	0.0159655
715.216	0.0160485
715.294	0.0160051
715.372	0.0158742
715.450	0.0158974
715.529	0.0157264
715.607	0.0158216
715.685	0.0157529
715.763	0.0156578
715.841	0.0156665
715.919	0.0156070
715.997	0.0155299
716.075	0.0156112
716.154	0.0156686
716.232	0.0155653
716.310	0.0155484
716.388	0.0154252
716.466	0.0155069
716.544	0.0156203
716.622	0.0157210
716.700	0.0157605
716.779	0.0156530
716.857	0.0157871
716.935	0.0158885
717.013	0.0157284
717.091	0.0157715
717.169	0.0159229
717.247	0.0159576
717.325	0.0159289
717.404	0.0159290
717.482	0.0160919
717.560	0.0160429
717.638	0.0160484
717.716	0.0160496
717.794	0.0159907
717.872	0.0158577
717.950	0.0160743
718.029	0.0159722
718.107	0.0160264
718.185	0.0159336
718.263	0.0159521
718.341	0.0158863
718.419	0.0159373
718.497	0.0158934
718.575	0.0156847
718.654	0.0156942
718.732	0.0157119
718.810	0.0155270
718.888	0.0154911
718.966	0.0155660
719.044	0.0156287
719.122	0.0156240
719.200	0.0155371
719.279	0.0154938
719.357	0.0155577
719.435	0.0153825
719.513	0.0153976
719.591	0.0154837
719.669	0.0154216
719.747	0.0154354
719.825	0.0154700
719.904	0.0154571
719.982	0.0154847
720.060	0.0153893
720.138	0.0156243
720.216	0.0156167
720.294	0.0155303
720.372	0.0155788
720.450	0.0156796
720.529	0.0156160
720.607	0.0156835
720.685	0.0158832
720.763	0.0157182
720.841	0.0156387
720.919	0.0158626
720.997	0.0156374
721.075	0.0158932
721.154	0.0159628
721.232	0.0158871
721.310	0.0157884
721.388	0.0158813
721.466	0.0158520
721.544	0.0160612
721.622	0.0161073
721.700	0.0159833
721.779	0.0159980
721.857	0.0159410
721.935	0.0160818
722.013	0.0161497
722.091	0.0161150
722.169	0.0163789
722.247	0.0164435
722.325	0.0162836
722.404	0.0163873
722.482	0.0163449
722.560	0.0164980
722.638	0.0165187
722.716	0.0165130
722.794	0.0166013
722.872	0.0164567
722.950	0.0165528
723.029	0.0165170
723.107	0.0164938
723.185	0.0164512
723.263	0.0163082
723.341	0.0162988
723.419	0.0161492
723.497	0.0161900
723.575	0.0161010
723.654	0.0161502
723.732	0.0160192
723.810	0.0160056
723.888	0.0160079
723.966	0.0158630
724.044	0.0158587
724.122	0.0157589
724.200	0.0157566
724.279	0.0159412
724.357	0.0160847
724.435	0.0158359
724.513	0.0158307
724.591	0.0159857
724.669	0.0158100
724.747	0.0159012
724.825	0.0159133
724.904	0.0159282
724.982	0.0159107
725.060	0.0159618
725.138	0.0160498
725.216	0.0159679
725.294	0.0159770
725.372	0.0159354
725.450	0.0159256
725.529	0.0159845
725.607	0.0159955
725.685	0.0160114
725.763	0.0161390
725.841	0.0159689
725.919	0.0159933
725.997	0.0160963
726.075	0.0160248
726.154	0.0161172
726.232	0.0160277
726.310	0.0160661
726.388	0.0161200
726.466	0.0160641
726.544	0.0161034
726.622	0.0160276
726.700	0.0160740
726.779	0.0162219
726.857	0.0161713
726.935	0.0160784
727.013	0.0162701
727.091	0.0161482
727.169	0.0161466
727.247	0.0162174
727.325	0.0161058
727.404	0.0160249
727.482	0.0158840
727.560	0.0159937
727.638	0.0159572
727.716	0.0157406
727.794	0.0155286
727.872	0.0155647
727.950	0.0155123
728.029	0.0154821
728.107	0.0153175
728.185	0.0153918
728.263	0.0153201
728.341	0.0153453
728.419	0.0153292
728.497	0.0151135
728.575	0.0151137
728.654	0.0151718
728.732	0.0150883
728.810	0.0151182
728.888	0.0150926
728.966	0.0151115
729.044	0.0152159
729.122	0.0151870
729.200	0.0151185
729.279	0.0153428
729.357	0.0153541
729.435	0.0153679
729.513	0.0154949
729.591	0.0155755
729.669	0.0156713
729.747	0.0156745
729.825	0.0156776
729.904	0.0159182
729.982	0.0159419
730.060	0.0159890
730.138	0.0160518
730.216	0.0161587
730.294	0.0161629
730.372	0.0162517
730.450	0.0162749
730.529	0.0163553
730.607	0.0163795
730.685	0.0163144
730.763	0.0164636
730.841	0.0164143
730.919	0.0166183
730.997	0.0163708
731.075	0.0162707
731.154	0.0162200
731.232	0.0163116
731.310	0.0163454
731.388	0.0162637
731.466	0.0162266
731.544	0.0161971
731.622	0.0161156
731.700	0.0162796
731.779	0.0161821
731.857	0.0158763
731.935	0.0159222
732.013	0.0159122
732.091	0.0159406
732.169	0.0158552
732.247	0.0158681
732.325	0.0157257
732.404	0.0156732
732.482	0.0156032
732.560	0.0156688
732.638	0.0156044
732.716	0.0156390
732.794	0.0157559
732.872	0.0154655
732.950	0.0154955
733.029	0.0155060
733.107	0.0155286
733.185	0.0156234
733.263	0.0155354
733.341	0.0155305
733.419	0.0154791
733.497	0.0157112
733.575	0.0156658
733.654	0.0156216
733.732	0.0158424
733.810	0.0156452
733.888	0.0156293
733.966	0.0157092
734.044	0.0157336
734.122	0.0157142
734.200	0.0156539
734.279	0.0158888
734.357	0.0157846
734.435	0.0158059
734.513	0.0158463
734.591	0.0158112
734.669	0.0158532
734.747	0.0158094
734.825	0.0159056
734.904	0.0157719
734.982	0.0158467
735.060	0.0158941
735.138	0.0159663
735.216	0.0159545
735.294	0.0159591
735.372	0.0159829
735.450	0.0158304
735.529	0.0159030
735.607	0.0159216
735.685	0.0159957
735.763	0.0160309
735.841	0.0159914
735.919	0.0160521
735.997	0.0159819
736.075	0.0160822
736.154	0.0159972
736.232	0.0161962
736.310	0.0161472
736.388	0.0161201
736.466	0.0161156
736.544	0.0160185
736.622	0.0162704
736.700	0.0162034
736.779	0.0162438
736.857	0.0163201
736.935	0.0161692
737.013	0.0161140
737.091	0.0162536
737.169	0.0162392
737.247	0.0160804
737.325	0.0160944
737.404	0.0160552
737.482	0.0160499
737.560	0.0161246
737.638	0.0160600
737.716	0.0161322
737.794	0.0159779
737.872	0.0160377
737.950	0.0162097
738.029	0.0161567
738.107	0.0160216
738.185	0.0160588
738.263	0.0161782
738.341	0.0162010
738.419	0.0161693
738.497	0.0160729
738.575	0.0161166
738.654	0.0161596
738.732	0.0160609
738.810	0.0160864
738.888	0.0161494
738.966	0.0160776
739.044	0.0160555
739.122	0.0159383
739.200	0.0159514
739.279	0.0159615
739.357	0.0161489
739.435	0.0161397
739.513	0.0158819
739.591	0.0159822
739.669	0.0159058
739.747	0.0158620
739.825	0.0158166
739.904	0.0159409
739.982	0.0158432
740.060	0.0157703
740.138	0.0158932
740.216	0.0155952
740.294	0.0156386
740.372	0.0156549
740.450	0.0156066
740.529	0.0156262
740.607	0.0156013
740.685	0.0155769
740.763	0.0156745
740.841	0.0155672
740.919	0.0155579
740.997	0.0156304
741.075	0.0155898
741.154	0.0157385
741.232	0.0156838
741.310	0.0156732
741.388	0.0157770
741.466	0.0156879
741.544	0.0157402
741.622	0.0158102
741.700	0.0158291
741.779	0.0158173
741.857	0.0158892
741.935	0.0158515
742.013	0.0158322
742.091	0.0160813
742.169	0.0160475
742.247	0.0160344
742.325	0.0162011
742.404	0.0160256
742.482	0.0159264
742.560	0.0160416
742.638	0.0161437
742.716	0.0161584
742.794	0.0160862
742.872	0.0160989
742.950	0.0160043
743.029	0.0159732
743.107	0.0159895
743.185	0.0159455
743.263	0.0159023
743.341	0.0161305
743.419	0.0160114
743.497	0.0159784
743.575	0.0158479
743.654	0.0159568
743.732	0.0159586
743.810	0.0159014
743.888	0.0157945
743.966	0.0159446
744.044	0.0159035
744.122	0.0158808
744.200	0.0157795
744.279	0.0159051
744.357	0.0158765
744.435	0.0158874
744.513	0.0158341
744.591	0.0157199
744.669	0.0158578
744.747	0.0158117
744.825	0.0157629
744.904	0.0157975
744.982	0.0158918
745.060	0.0156831
745.138	0.0157462
745.216	0.0158469
745.294	0.0159636
745.372	0.0158913
745.450	0.0156157
745.529	0.0157727
745.607	0.0158452
745.685	0.0156914
745.763	0.0157755
745.841	0.0158334
745.919	0.0159462
745.997	0.0158411
746.075	0.0157562
746.154	0.0157714
746.232	0.0159563
746.310	0.0160449
746.388	0.0160474
746.466	0.0159635
746.544	0.0160486
746.622	0.0161124
746.700	0.0161400
746.779	0.0161701
746.857	0.0160326
746.935	0.0161384
747.013	0.0161282
747.091	0.0162426
747.169	0.0161348
747.247	0.0161900
747.325	0.0162257
747.404	0.0162820
747.482	0.0162009
747.560	0.0162761
747.638	0.0163015
747.716	0.0161967
747.794	0.0162350
747.872	0.0162477
747.950	0.0162489
748.029	0.0161742
748.107	0.0161888
748.185	0.0160832
748.263	0.0162265
748.341	0.0161108
748.419	0.0159980
748.497	0.0158445
748.575	0.0159383
748.654	0.0158071
748.732	0.0158407
748.810	0.0158910
748.888	0.0157658
748.966	0.0157602
749.044	0.0157549
749.122	0.0156687
749.200	0.0156425
749.279	0.0156634
749.357	0.0155482
749.435	0.0155499
749.513	0.0156334
749.591	0.0155830
749.669	0.0155093
749.747	0.0155302
749.825	0.0154797
749.904	0.0154994
749.982	0.0155481
750.060	0.0153257
750.138	0.0155777
750.216	0.0154762
750.294	0.0156286
750.372	0.0155083
750.450	0.0155841
750.529	0.0156237
750.607	0.0157291
750.685	0.0158093
750.763	0.0158240
750.841	0.0157117
750.919	0.0158821
750.997	0.0159122
751.075	0.0159105
751.154	0.0160873
751.232	0.0161145
751.310	0.0161597
751.388	0.0160496
751.466	0.0161970
751.544	0.0162122
751.622	0.0162657
751.700	0.0162712
751.779	0.0163820
751.857	0.0164587
751.935	0.0162951
752.013	0.0162066
752.091	0.0162081
752.169	0.0163190
752.247	0.0162247
752.325	0.0161807
752.404	0.0161945
752.482	0.0162923
752.560	0.0161646
752.638	0.0162038
752.716	0.0161922
752.794	0.0162232
752.872	0.0160355
752.950	0.0161040
753.029	0.0159499
753.107	0.0159872
753.185	0.0161058
753.263	0.0160223
753.341	0.0160777
753.419	0.0160047
753.497	0.0158569
753.575	0.0156672
753.654	0.0159258
753.732	0.0160432
753.810	0.0157960
753.888	0.0158814
753.966	0.0158876
754.044	0.0157668
754.122	0.0159357
754.200	0.0158475
754.279	0.0157936
754.357	0.0158439
754.435	0.0158934
754.513	0.0158218
754.591	0.0157664
754.669	0.0158015
754.747	0.0158617
754.825	0.0158290
754.904	0.0159301
754.982	0.0157515
755.060	0.0158383
755.138	0.0156783
755.216	0.0157348
755.294	0.0156829
755.372	0.0157314
755.450	0.0155472
755.529	0.0156776
755.607	0.0156220
755.685	0.0155739
755.763	0.0155920
755.841	0.0157369
755.919	0.0155470
755.997	0.0154672
756.075	0.0156666
756.154	0.0156417
756.232	0.0156642
756.310	0.0157442
756.388	0.0157905
756.466	0.0155531
756.544	0.0157168
756.622	0.0157339
756.700	0.0157297
756.779	0.0157664
756.857	0.0157427
756.935	0.0157547
757.013	0.0158254
757.091	0.0158242
757.169	0.0156029
757.247	0.0158505
757.325	0.0157643
757.404	0.0160854
757.482	0.0159557
757.560	0.0159322
757.638	0.0160835
757.716	0.0160410
757.794	0.0161104
757.872	0.0159772
757.950	0.0160565
758.029	0.0161213
758.107	0.0161509
758.185	0.0160847
758.263	0.0161565
758.341	0.0162692
758.419	0.0160933
758.497	0.0162169
758.575	0.0162836
758.654	0.0162089
758.732	0.0162041
758.810	0.0162413
758.888	0.0162773
758.966	0.0161553
759.044	0.0160747
759.122	0.0161052
759.200	0.0161399
759.279	0.0162276
759.357	0.0160866
759.435	0.0160426
759.513	0.0160754
759.591	0.0161593
759.669	0.0160541
759.747	0.0160065
759.825	0.0160834
759.904	0.0159779
759.982	0.0159814
760.060	0.0159904
760.138	0.0158287
760.216	0.0159202
760.294	0.0158127
760.372	0.0159026
760.450	0.0158122
760.529	0.0157671
760.607	0.0159200
760.685	0.0157591
760.763	0.0157649
760.841	0.0156758
760.919	0.0157245
760.997	0.0157903
761.075	0.0157856
761.154	0.0157992
761.232	0.0157584
761.310	0.0157255
761.388	0.0159365
761.466	0.0157120
761.544	0.0158337
761.622	0.0158319
761.700	0.0157974
761.779	0.0159319
761.857	0.0159265
761.935	0.0157331
762.013	0.0158792
762.091	0.0159518
762.169	0.0159051
762.247	0.0160322
762.325	0.0159903
762.404	0.0159481
762.482	0.0158072
762.560	0.0160123
762.638	0.0159488
762.716	0.0160658
762.794	0.0160779
762.872	0.0159817
762.950	0.0160237
763.029	0.0159846
763.107	0.0158787
763.185	0.0160427
763.263	0.0160119
763.341	0.0160705
763.419	0.0160572
763.497	0.0159878
763.575	0.0161426
763.654	0.0159960
763.732	0.0158735
763.810	0.0161440
763.888	0.0160043
763.966	0.0159427
764.044	0.0159931
764.122	0.0160244
764.200	0.0160169
764.279	0.0160079
764.357	0.0159711
764.435	0.0160715
764.513	0.0160040
764.591	0.0158742
764.669	0.0158582
764.747	0.0160246
764.825	0.0160997
764.904	0.0161060
764.982	0.0161961
765.060	0.0160612
765.138	0.0160915
765.216	0.0161217
765.294	0.0160319
765.372	0.0160348
765.450	0.0161333
765.529	0.0160568
765.607	0.0160918
765.685	0.0160532
765.763	0.0161158
765.841	0.0160730
765.919	0.0160025
765.997	0.0160895
766.075	0.0161253
766.154	0.0161263
766.232	0.0160642
766.310	0.0159676
766.388	0.0160541
766.466	0.0160912
766.544	0.0162216
766.622	0.0159588
766.700	0.0161629
766.779	0.0160464
766.857	0.0162314
766.935	0.0161018
767.013	0.0159296
767.091	0.0161426
767.169	0.0159680
767.247	0.0161189
767.325	0.0160350
767.404	0.0160687
767.482	0.0160981
767.560	0.0161709
767.638	0.0161037
767.716	0.0162069
767.794	0.0161385
767.872	0.0161910
767.950	0.0162099
768.029	0.0160622
768.107	0.0161784
768.185	0.0161721
768.263	0.0159872
768.341	0.0161690
768.419	0.0161771
768.497	0.0159994
768.575	0.0161170
768.654	0.0160167
768.732	0.0160899
768.810	0.0161704
768.888	0.0161861
768.966	0.0158909
769.044	0.0158259
769.122	0.0160123
769.200	0.0159410
769.279	0.0158133
769.357	0.0158184
769.435	0.0158241
769.513	0.0158763
769.591	0.0158294
769.669	0.0158521
769.747	0.0158050
769.825	0.0157162
769.904	0.0156123
769.982	0.0157603
770.060	0.0157928
770.138	0.0157919
770.216	0.0158607
770.294	0.0157121
770.372	0.0156988
770.450	0.0157036
770.529	0.0157084
770.607	0.0156588
770.685	0.0158624
770.763	0.0158603
770.841	0.0158974
770.919	0.0159617
770.997	0.0160540
771.075	0.0158590
771.154	0.0159860
771.232	0.0158855
771.310	0.0158312
771.388	0.0158934
771.466	0.0158748
771.544	0.0157281
771.622	0.0159281
771.700	0.0160046
771.779	0.0160653
771.857	0.0158344
771.935	0.0159438
772.013	0.0159846
772.091	0.0159414
772.169	0.0158747
772.247	0.0159664
772.325	0.0160409
772.404	0.0159834
772.482	0.0159285
772.560	0.0160462
772.638	0.0160888
772.716	0.0161448
772.794	0.0160217
772.872	0.0159958
772.950	0.0160201
773.029	0.0160354
773.107	0.0160584
773.185	0.0160652
773.263	0.0159504
773.341	0.0160611
773.419	0.0160585
773.497	0.0160570
773.575	0.0158792
773.654	0.0161800
773.732	0.0159002
773.810	0.0159679
773.888	0.0159836
773.966	0.0161329
774.044	0.0159810
774.122	0.0160090
774.200	0.0159961
774.279	0.0161334
774.357	0.0160755
774.435	0.0160035
774.513	0.0160747
774.591	0.0159686
774.669	0.0158923
774.747	0.0160745
774.825	0.0160262
774.904	0.0159885
774.982	0.0160384
775.060	0.0159620
775.138	0.0160965
775.216	0.0161243
775.294	0.0161185
775.372	0.0160625
775.450	0.0161265
775.529	0.0160380
775.607	0.0159389
775.685	0.0159560
775.763	0.0159912
775.841	0.0159348
775.919	0.0161360
775.997	0.0160237
776.075	0.0158953
776.154	0.0159974
776.232	0.0160897
776.310	0.0159879
776.388	0.0159021
776.466	0.0159312
776.544	0.0160541
776.622	0.0160072
776.700	0.0160829
776.779	0.0160358
776.857	0.0159750
776.935	0.0158937
777.013	0.0159696
777.091	0.0159600
777.169	0.0157407
777.247	0.0160634
777.325	0.0160115
777.404	0.0158598
777.482	0.0158498
777.560	0.0158534
777.638	0.0159018
777.716	0.0158317
777.794	0.0158445
777.872	0.0158456
777.950	0.0159015
778.029	0.0158026
778.107	0.0157076
778.185	0.0158714
778.263	0.0158092
778.341	0.0158681
778.419	0.0157957
778.497	0.0158356
778.575	0.0157648
778.654	0.0159540
778.732	0.0157578
778.810	0.0157595
778.888	0.0159721
778.966	0.0157919
779.044	0.0158671
779.122	0.0160675
779.200	0.0158881
779.279	0.0157243
779.357	0.0158427
779.435	0.0159394
779.513	0.0159057
779.591	0.0160254
779.669	0.0159271
779.747	0.0159812
779.825	0.0158282
779.904	0.0159992
779.982	0.0159374
780.060	0.0159566
780.138	0.0160948
780.216	0.0159616
780.294	0.0159194
780.372	0.0160324
780.450	0.0159138
780.529	0.0160627
780.607	0.0158944
780.685	0.0160339
780.763	0.0161441
780.841	0.0160312
780.919	0.0159441
780.997	0.0160876
781.075	0.0161722
781.154	0.0161977
781.232	0.0160913
781.310	0.0159887
781.388	0.0159854
781.466	0.0160539
781.544	0.0160772
781.622	0.0161156
781.700	0.0159811
781.779	0.0160146
781.857	0.0159692
781.935	0.0159287
782.013	0.0159306
782.091	0.0159541
782.169	0.0159750
782.247	0.0160098
782.325	0.0158955
782.404	0.0159372
782.482	0.0159115
782.560	0.0159391
782.638	0.0158931
782.716	0.0158948
782.794	0.0159873
782.872	0.0160212
782.950	0.0159022
783.029	0.0157890
783.107	0.0159465
783.185	0.0160644
783.263	0.0160170
783.341	0.0159123
783.419	0.0158656
783.497	0.0158966
783.575	0.0159682
783.654	0.0159200
783.732	0.0159206
783.810	0.0159138
783.888	0.0159876
783.966	0.0159796
784.044	0.0159941
784.122	0.0159067
784.200	0.0157419
784.279	0.0157603
784.357	0.0159256
784.435	0.0158497
784.513	0.0158274
784.591	0.0158730
784.669	0.0159493
784.747	0.0156909
784.825	0.0157791
784.904	0.0158839
784.982	0.0157520
785.060	0.0158173
785.138	0.0156537
785.216	0.0157218
785.294	0.0156970
785.372	0.0157240
785.450	0.0158304
785.529	0.0157282
785.607	0.0156679
785.685	0.0156503
785.763	0.0158353
785.841	0.0157728
785.919	0.0157743
785.997	0.0156659
786.075	0.0157379
786.154	0.0157925
786.232	0.0157926
786.310	0.0156482
786.388	0.0155395
786.466	0.0156200
786.544	0.0155906
786.622	0.0157409
786.700	0.0156410
786.779	0.0156943
786.857	0.0156379
786.935	0.0157668
787.013	0.0156981
787.091	0.0158066
787.169	0.0158427
787.247	0.0158501
787.325	0.0157979
787.404	0.0158342
787.482	0.0159536
787.560	0.0159860
787.638	0.0160607
787.716	0.0160635
787.794	0.0161632
787.872	0.0159671
787.950	0.0159579
788.029	0.0160705
788.107	0.0161447
788.185	0.0162622
788.263	0.0162585
788.341	0.0162173
788.419	0.0162000
788.497	0.0163033
788.575	0.0163288
788.654	0.0163049
788.732	0.0161646
788.810	0.0162947
788.888	0.0163268
788.966	0.0162563
789.044	0.0161170
789.122	0.0162324
789.200	0.0163327
789.279	0.0161230
789.357	0.0160951
789.435	0.0161388
789.513	0.0161603
789.591	0.0161736
789.669	0.0159106
789.747	0.0159436
789.825	0.0160516
789.904	0.0159830
789.982	0.0161006
790.060	0.0159238
790.138	0.0159428
790.216	0.0160648
790.294	0.0160365
790.372	0.0159232
790.450	0.0160500
790.529	0.0158640
790.607	0.0160116
790.685	0.0159024
790.763	0.0159853
790.841	0.0159238
790.919	0.0159009
790.997	0.0159703
791.075	0.0159380
791.154	0.0158806
791.232	0.0158842
791.310	0.0158996
791.388	0.0159283
791.466	0.0158985
791.544	0.0158121
791.622	0.0158384
791.700	0.0158165
791.779	0.0160571
791.857	0.0160287
791.935	0.0159399
792.013	0.0158912
792.091	0.0159750
792.169	0.0160345
792.247	0.0160323
792.325	0.0161156
792.404	0.0160976
792.482	0.0159738
792.560	0.0160500
792.638	0.0160702
792.716	0.0161269
792.794	0.0161603
792.872	0.0161497
792.950	0.0160563
793.029	0.0161737
793.107	0.0160516
793.185	0.0160792
793.263	0.0160301
793.341	0.0160583
793.419	0.0158699
793.497	0.0160069
793.575	0.0159621
793.654	0.0159226
793.732	0.0159410
793.810	0.0159315
793.888	0.0158796
793.966	0.0159673
794.044	0.0158837
794.122	0.0158179
794.200	0.0158275
794.279	0.0158640
794.357	0.0157513
794.435	0.0157734
794.513	0.0157370
794.591	0.0158293
794.669	0.0157801
794.747	0.0156863
794.825	0.0156680
794.904	0.0157227
794.982	0.0157592
795.060	0.0156257
795.138	0.0158870
795.216	0.0157507
795.294	0.0157028
795.372	0.0157948
795.450	0.0157783
795.529	0.0158810
795.607	0.0158873
795.685	0.0159968
795.763	0.0159069
795.841	0.0160300
795.919	0.0159248
795.997	0.0159552
796.075	0.0159754
796.154	0.0160167
796.232	0.0159677
796.310	0.0159929
796.388	0.0161501
796.466	0.0161337
796.544	0.0160311
796.622	0.0160213
796.700	0.0160405
796.779	0.0160574
796.857	0.0160893
796.935	0.0160364
797.013	0.0160448
797.091	0.0160477
797.169	0.0160619
797.247	0.0160477
797.325	0.0159160
797.404	0.0161566
797.482	0.0159847
797.560	0.0160059
797.638	0.0160112
797.716	0.0157994
797.794	0.0157893
797.872	0.0158905
797.950	0.0160340
798.029	0.0158889
798.107	0.0158759
798.185	0.0160110
798.263	0.0159467
798.341	0.0158850
798.419	0.0158863
798.497	0.0158952
798.575	0.0160005
798.654	0.0158852
798.732	0.0160340
798.810	0.0159013
798.888	0.0160188
798.966	0.0160059
799.044	0.0157976
799.122	0.0159731
799.200	0.0158669
799.279	0.0158881
799.357	0.0159827
799.435	0.0157463
799.513	0.0159020
799.591	0.0159557
799.669	0.0157908
799.747	0.0156371
799.825	0.0158012
799.904	0.0159278
799.982	0.0158472
800.060	0.0157669
800.138	0.0158185
800.216	0.0158280
800.294	0.0157118
800.372	0.0158671
800.450	0.0157413
800.529	0.0157401
800.607	0.0158759
800.685	0.0158121
800.763	0.0158074
800.841	0.0158749
800.919	0.0159080
800.997	0.0158367
801.075	0.0158542
801.154	0.0158261
801.232	0.0159305
801.310	0.0159482
801.388	0.0159154
801.466	0.0159867
801.544	0.0160497
801.622	0.0160502
801.700	0.0160006
801.779	0.0160098
801.857	0.0159720
801.935	0.0159718
802.013	0.0160252
802.091	0.0158665
802.169	0.0160025
802.247	0.0160140
802.325	0.0159000
802.404	0.0159203
802.482	0.0161013
802.560	0.0159393
802.638	0.0158681
802.716	0.0157802
802.794	0.0157515
802.872	0.0158123
802.950	0.0157666
803.029	0.0159636
803.107	0.0158202
803.185	0.0158543
803.263	0.0159228
803.341	0.0159548
803.419	0.0157704
803.497	0.0157341
803.575	0.0158025
803.654	0.0158749
803.732	0.0158751
803.810	0.0159132
803.888	0.0157907
803.966	0.0160258
804.044	0.0158844
804.122	0.0159503
804.200	0.0158958
804.279	0.0158017
804.357	0.0158308
804.435	0.0158730
804.513	0.0159238
804.591	0.0160147
804.669	0.0159482
804.747	0.0159736
804.825	0.0160734
804.904	0.0160108
804.982	0.0159978
805.060	0.0159369
805.138	0.0159020
805.216	0.0159455
805.294	0.0160319
805.372	0.0158648
805.450	0.0159426
805.529	0.0160050
805.607	0.0160333
805.685	0.0160548
805.763	0.0160780
805.841	0.0160046
805.919	0.0159383
805.997	0.0162131
806.075	0.0161106
806.154	0.0160355
806.232	0.0160363
806.310	0.0159353
806.388	0.0159142
806.466	0.0160417
806.544	0.0159162
806.622	0.0159049
806.700	0.0158584
806.779	0.0161507
806.857	0.0158018
806.935	0.0158822
807.013	0.0157690
807.091	0.0158799
807.169	0.0158937
807.247	0.0158219
807.325	0.0158786
807.404	0.0160387
807.482	0.0157582
807.560	0.0158854
807.638	0.0159727
807.716	0.0160034
807.794	0.0159791
807.872	0.0159946
807.950	0.0159930
808.029	0.0159751
808.107	0.0159314
808.185	0.0160477
808.263	0.0161461
808.341	0.0159290
808.419	0.0160371
808.497	0.0160325
808.575	0.0161023
808.654	0.0160251
808.732	0.0158821
808.810	0.0161272
808.888	0.0159473
808.966	0.0160247
809.044	0.0160760
809.122	0.0160754
809.200	0.0161777
809.279	0.0161768
809.357	0.0160670
809.435	0.0161616
809.513	0.0161752
809.591	0.0161036
809.669	0.0160993
809.747	0.0161105
809.825	0.0161563
809.904	0.0161131
809.982	0.0161325
810.060	0.0160622
810.138	0.0159950
810.216	0.0159661
810.294	0.0160094
810.372	0.0158931
810.450	0.0159924
810.529	0.0160370
810.607	0.0159901
810.685	0.0158893
810.763	0.0158103
810.841	0.0159151
810.919	0.0159723
810.997	0.0159130
811.075	0.0159835
811.154	0.0159781
811.232	0.0159090
811.310	0.0159149
811.388	0.0159515
811.466	0.0159076
811.544	0.0160002
811.622	0.0159605
811.700	0.0159604
811.779	0.0159451
811.857	0.0159340
811.935	0.0159421
812.013	0.0159403
812.091	0.0159015
812.169	0.0159429
812.247	0.0159616
812.325	0.0159879
812.404	0.0159928
812.482	0.0160458
812.560	0.0160439
812.638	0.0159995
812.716	0.0160675
812.794	0.0160741
812.872	0.0159978
812.950	0.0161387
813.029	0.0160761
813.107	0.0160139
813.185	0.0160409
813.263	0.0160975
813.341	0.0160195
813.419	0.0159807
813.497	0.0159701
813.575	0.0159349
813.654	0.0160334
813.732	0.0158978
813.810	0.0158741
813.888	0.0159126
813.966	0.0158374
814.044	0.0158541
814.122	0.0159019
814.200	0.0159185
814.279	0.0158729
814.357	0.0159422
814.435	0.0158667
814.513	0.0158791
814.591	0.0158202
814.669	0.0158673
814.747	0.0157678
814.825	0.0159676
814.904	0.0159527
814.982	0.0158508
815.060	0.0158186
815.138	0.0158935
815.216	0.0160025
815.294	0.0159287
815.372	0.0159145
815.450	0.0160062
815.529	0.0158773
815.607	0.0159337
815.685	0.0159489
815.763	0.0159949
815.841	0.0159008
815.919	0.0158907
815.997	0.0158993
816.075	0.0159236
816.154	0.0159554
816.232	0.0158290
816.310	0.0158092
816.388	0.0159727
816.466	0.0160865
816.544	0.0158640
816.622	0.0158846
816.700	0.0160845
816.779	0.0159500
816.857	0.0160335
816.935	0.0160096
817.013	0.0160706
817.091	0.0158665
817.169	0.0160989
817.247	0.0162497
817.325	0.0161881
817.404	0.0160567
817.482	0.0161652
817.560	0.0161234
817.638	0.0161784
817.716	0.0161487
817.794	0.0162209
817.872	0.0163202
817.950	0.0160823
818.029	0.0160373
818.107	0.0158736
818.185	0.0158654
818.263	0.0158177
818.341	0.0157655
818.419	0.0157436
818.497	0.0157078
818.575	0.0157803
818.654	0.0156490
818.732	0.0156754
818.810	0.0156604
818.888	0.0156034
818.966	0.0155788
819.044	0.0157016
819.122	0.0156676
819.200	0.0157634
819.279	0.0155560
819.357	0.0156339
819.435	0.0157526
819.513	0.0157449
819.591	0.0157333
819.669	0.0157433
819.747	0.0158556
819.825	0.0157124
819.904	0.0158552
819.982	0.0159637
820.060	0.0159927
820.138	0.0159779
820.216	0.0159552
820.294	0.0159254
820.372	0.0159317
820.450	0.0159801
820.529	0.0160110
820.607	0.0160142
820.685	0.0161672
820.763	0.0160649
820.841	0.0160089
820.919	0.0162843
820.997	0.0162502
821.075	0.0160573
821.154	0.0159830
821.232	0.0161587
821.310	0.0160926
821.388	0.0160355
821.466	0.0160184
821.544	0.0159872
821.622	0.0161040
821.700	0.0159848
821.779	0.0160619
821.857	0.0159718
821.935	0.0160423
822.013	0.0159623
822.091	0.0160856
822.169	0.0160983
822.247	0.0159095
822.325	0.0159117
822.404	0.0158173
822.482	0.0159183
822.560	0.0159791
822.638	0.0158464
822.716	0.0159200
822.794	0.0158772
822.872	0.0158238
822.950	0.0159404
823.029	0.0157804
823.107	0.0157944
823.185	0.0157828
823.263	0.0157933
823.341	0.0156704
823.419	0.0157382
823.497	0.0157897
823.575	0.0158074
823.654	0.0156844
823.732	0.0157572
823.810	0.0157067
823.888	0.0156151
823.966	0.0156857
824.044	0.0156522
824.122	0.0157169
824.200	0.0157495
824.279	0.0156544
824.357	0.0157185
824.435	0.0157729
824.513	0.0157488
824.591	0.0157298
824.669	0.0159716
824.747	0.0159902
824.825	0.0159822
824.904	0.0160107
824.982	0.0160343
825.060	0.0161209
825.138	0.0160253
825.216	0.0161156
825.294	0.0160514
825.372	0.0160443
825.450	0.0161566
825.529	0.0162194
825.607	0.0161841
825.685	0.0160854
825.763	0.0160388
825.841	0.0161117
825.919	0.0161195
825.997	0.0161014
826.075	0.0160390
826.154	0.0160360
826.232	0.0160415
826.310	0.0159825
826.388	0.0160561
826.466	0.0159104
826.544	0.0159909
826.622	0.0160498
826.700	0.0161552
826.779	0.0159013
826.857	0.0159256
826.935	0.0159021
827.013	0.0158801
827.091	0.0158945
827.169	0.0159085
827.247	0.0157976
827.325	0.0158896
827.404	0.0159785
827.482	0.0158957
827.560	0.0158720
827.638	0.0159528
827.716	0.0159562
827.794	0.0158924
827.872	0.0158968
827.950	0.0158113
828.029	0.0159637
828.107	0.0158784
828.185	0.0161491
828.263	0.0161664
828.341	0.0159254
828.419	0.0160437
828.497	0.0159880
828.575	0.0160458
828.654	0.0161175
828.732	0.0162146
828.810	0.0159931
828.888	0.0160575
828.966	0.0160691
829.044	0.0159307
829.122	0.0159074
829.200	0.0160213
829.279	0.0159413
829.357	0.0160497
829.435	0.0159616
829.513	0.0158946
829.591	0.0159143
829.669	0.0158978
829.747	0.0157143
829.825	0.0157401
829.904	0.0158450
829.982	0.0158469
830.060	0.0156415
830.138	0.0157861
830.216	0.0158036
830.294	0.0158939
830.372	0.0157063
830.450	0.0156995
830.529	0.0156754
830.607	0.0157010
830.685	0.0157203
830.763	0.0156561
830.841	0.0155487
830.919	0.0156335
830.997	0.0157450
831.075	0.0156431
831.154	0.0155433
831.232	0.0156386
831.310	0.0155160
831.388	0.0155981
831.466	0.0156367
831.544	0.0155391
831.622	0.0156202
831.700	0.0157638
831.779	0.0157202
831.857	0.0156535
831.935	0.0156763
832.013	0.0157400
832.091	0.0157375
832.169	0.0157848
832.247	0.0158101
832.325	0.0158828
832.404	0.0158592
832.482	0.0158192
832.560	0.0159689
832.638	0.0158131
832.716	0.0158753
832.794	0.0159882
832.872	0.0159407
832.950	0.0159859
833.029	0.0159208
833.107	0.0159455
833.185	0.0160146
833.263	0.0159611
833.341	0.0160359
833.419	0.0160095
833.497	0.0160080
833.575	0.0159392
833.654	0.0159988
833.732	0.0160874
833.810	0.0159341
833.888	0.0159975
833.966	0.0160158
834.044	0.0158324
834.122	0.0158479
834.200	0.0157893
834.279	0.0158741
834.357	0.0158517
834.435	0.0159570
834.513	0.0158786
834.591	0.0159169
834.669	0.0157836
834.747	0.0157822
834.825	0.0159325
834.904	0.0159230
834.982	0.0158310
835.060	0.0159201
835.138	0.0159205
835.216	0.0159417
835.294	0.0159633
835.372	0.0158287
835.450	0.0158721
835.529	0.0158815
835.607	0.0159988
835.685	0.0161011
835.763	0.0161543
835.841	0.0159695
835.919	0.0161049
835.997	0.0160551
836.075	0.0160484
836.154	0.0161697
836.232	0.0160904
836.310	0.0160787
836.388	0.0161930
836.466	0.0162251
836.544	0.0162790
836.622	0.0162624
836.700	0.0162573
836.779	0.0162757
836.857	0.0163984
836.935	0.0163155
837.013	0.0160551
837.091	0.0162279
837.169	0.0163907
837.247	0.0162699
837.325	0.0162590
837.404	0.0162555
837.482	0.0161783
837.560	0.0162124
837.638	0.0162164
837.716	0.0163380
837.794	0.0161671
837.872	0.0160849
837.950	0.0162061
838.029	0.0162954
838.107	0.0162029
838.185	0.0163381
838.263	0.0162101
838.341	0.0162047
838.419	0.0162455
838.497	0.0160550
838.575	0.0162032
838.654	0.0161672
838.732	0.0161453
838.810	0.0160226
838.888	0.0161137
838.966	0.0160812
839.044	0.0161850
839.122	0.0158744
839.200	0.0160286
839.279	0.0160748
839.357	0.0160509
839.435	0.0160541
839.513	0.0160401
839.591	0.0159634
839.669	0.0158775
839.747	0.0160516
839.825	0.0159460
839.904	0.0159721
839.982	0.0159631
840.060	0.0159689
840.138	0.0160049
840.216	0.0160374
840.294	0.0159381
840.372	0.0159483
840.450	0.0158846
840.529	0.0159546
840.607	0.0158253
840.685	0.0158847
840.763	0.0158745
840.841	0.0161179
840.919	0.0158326
840.997	0.0159013
841.075	0.0160470
841.154	0.0160892
841.232	0.0159824
841.310	0.0158881
841.388	0.0160609
841.466	0.0160914
841.544	0.0160600
841.622	0.0161311
841.700	0.0160307
841.779	0.0160612
841.857	0.0160225
841.935	0.0160601
842.013	0.0159852
842.091	0.0159458
842.169	0.0161039
842.247	0.0160490
842.325	0.0160429
842.404	0.0160262
842.482	0.0159542
842.560	0.0159795
842.638	0.0159241
842.716	0.0158401
842.794	0.0158944
842.872	0.0159440
842.950	0.0158548
843.029	0.0158838
843.107	0.0158717
843.185	0.0157913
843.263	0.0157917
843.341	0.0158505
843.419	0.0158264
843.497	0.0158673
843.575	0.0158876
843.654	0.0158807
843.732	0.0159327
843.810	0.0158578
843.888	0.0157349
843.966	0.0158269
844.044	0.0157609
844.122	0.0158975
844.200	0.0158810
844.279	0.0158095
844.357	0.0158143
844.435	0.0158593
844.513	0.0157919
844.591	0.0157734
844.669	0.0157583
844.747	0.0157527
844.825	0.0158431
844.904	0.0158834
844.982	0.0158110
845.060	0.0157683
845.138	0.0158807
845.216	0.0159000
845.294	0.0157373
845.372	0.0158510
845.450	0.0159469
845.529	0.0159568
845.607	0.0160675
845.685	0.0159733
845.763	0.0159990
845.841	0.0159168
845.919	0.0161073
845.997	0.0161724
846.075	0.0159379
846.154	0.0160318
846.232	0.0161826
846.310	0.0162515
846.388	0.0161176
846.466	0.0162009
846.544	0.0162360
846.622	0.0161160
846.700	0.0161402
846.779	0.0161373
846.857	0.0161127
846.935	0.0160188
847.013	0.0159480
847.091	0.0160108
847.169	0.0159927
847.247	0.0160751
847.325	0.0159037
847.404	0.0157150
847.482	0.0158092
847.560	0.0157452
847.638	0.0156549
847.716	0.0158002
847.794	0.0156339
847.872	0.0156526
847.950	0.0154231
848.029	0.0154961
848.107	0.0154563
848.185	0.0154559
848.263	0.0155307
848.341	0.0155463
848.419	0.0155822
848.497	0.0155067
848.575	0.0155370
848.654	0.0154865
848.732	0.0156430
848.810	0.0155760
848.888	0.0157941
848.966	0.0155994
849.044	0.0157253
849.122	0.0158231
849.200	0.0158236
849.279	0.0158209
849.357	0.0159528
849.435	0.0159770
849.513	0.0159555
849.591	0.0160365
849.669	0.0160662
849.747	0.0160931
849.825	0.0161391
849.904	0.0159765
849.982	0.0161572
850.060	0.0160299
850.138	0.0161017
850.216	0.0160263
850.294	0.0160730
850.372	0.0161690
850.450	0.0160271
850.529	0.0161842
850.607	0.0160486
850.685	0.0159804
850.763	0.0159206
850.841	0.0160851
850.919	0.0161318
850.997	0.0160588
851.075	0.0161547
851.154	0.0160378
851.232	0.0159921
851.310	0.0161405
851.388	0.0160000
851.466	0.0159313
851.544	0.0159583
851.622	0.0159451
851.700	0.0159393
851.779	0.0159511
851.857	0.0160917
851.935	0.0160360
852.013	0.0159710
852.091	0.0159635
852.169	0.0159563
852.247	0.0159638
852.325	0.0160241
852.404	0.0159176
852.482	0.0157957
852.560	0.0159290
852.638	0.0158417
852.716	0.0159033
852.794	0.0159641
852.872	0.0158446
852.950	0.0159909
853.029	0.0160569
853.107	0.0157565
853.185	0.0158208
853.263	0.0159279
853.341	0.0159216
853.419	0.0159118
853.497	0.0158712
853.575	0.0160069
853.654	0.0157986
853.732	0.0159368
853.810	0.0160677
853.888	0.0159605
853.966	0.0160802
854.044	0.0160402
854.122	0.0159529
854.200	0.0159593
854.279	0.0160040
854.357	0.0159618
854.435	0.0160574
854.513	0.0159853
854.591	0.0159583
854.669	0.0159130
854.747	0.0159975
854.825	0.0160743
854.904	0.0159789
854.982	0.0158543
855.060	0.0159197
855.138	0.0159337
855.216	0.0159161
855.294	0.0158836
855.372	0.0159829
855.450	0.0157523
855.529	0.0158763
855.607	0.0156866
855.685	0.0158406
855.763	0.0159275
855.841	0.0159429
855.919	0.0157789
855.997	0.0158932
856.075	0.0158381
856.154	0.0158501
856.232	0.0158564
856.310	0.0160825
856.388	0.0159821
856.466	0.0158951
856.544	0.0159978
856.622	0.0159520
856.700	0.0159711
856.779	0.0159579
856.857	0.0160912
856.935	0.0160525
857.013	0.0158539
857.091	0.0159426
857.169	0.0159803
857.247	0.0161513
857.325	0.0160539
857.404	0.0159692
857.482	0.0159483
857.560	0.0160572
857.638	0.0158923
857.716	0.0160262
857.794	0.0160297
857.872	0.0160315
857.950	0.0158937
858.029	0.0159191
858.107	0.0159731
858.185	0.0159030
858.263	0.0158767
858.341	0.0158899
858.419	0.0159134
858.497	0.0158482
858.575	0.0158658
858.654	0.0159004
858.732	0.0158731
858.810	0.0158583
858.888	0.0159262
858.966	0.0158976
859.044	0.0157883
859.122	0.0157619
859.200	0.0157617
859.279	0.0159566
859.357	0.0159290
859.435	0.0157936
859.513	0.0159718
859.591	0.0158660
859.669	0.0158647
859.747	0.0158476
859.825	0.0159283
859.904	0.0159060
859.982	0.0159148
860.060	0.0159946
860.138	0.0158884
860.216	0.0159182
860.294	0.0161255
860.372	0.0159983
860.450	0.0159879
860.529	0.0159559
860.607	0.0160121
860.685	0.0160545
860.763	0.0160007
860.841	0.0160008
860.919	0.0160609
860.997	0.0159254
861.075	0.0160101
861.154	0.0159377
861.232	0.0158922
861.310	0.0159187
861.388	0.0159129
861.466	0.0159293
861.544	0.0160900
861.622	0.0161155
861.700	0.0160519
861.779	0.0160185
861.857	0.0158811
861.935	0.0159962
862.013	0.0162103
862.091	0.0161272
862.169	0.0160134
862.247	0.0159754
862.325	0.0159592
862.404	0.0161033
862.482	0.0161099
862.560	0.0160007
862.638	0.0160258
862.716	0.0158817
862.794	0.0160671
862.872	0.0160514
862.950	0.0159420
863.029	0.0160226
863.107	0.0159658
863.185	0.0158484
863.263	0.0158849
863.341	0.0159005
863.419	0.0159176
863.497	0.0157848
863.575	0.0155253
863.654	0.0156395
863.732	0.0155719
863.810	0.0156482
863.888	0.0156989
863.966	0.0155251
864.044	0.0156032
864.122	0.0156481
864.200	0.0155994
864.279	0.0157235
864.357	0.0156889
864.435	0.0157522
864.513	0.0156697
864.591	0.0155753
864.669	0.0155700
864.747	0.0156985
864.825	0.0156194
864.904	0.0156911
864.982	0.0157959
865.060	0.0157529
865.138	0.0156823
865.216	0.0157763
865.294	0.0158690
865.372	0.0158669
865.450	0.0157896
865.529	0.0157305
865.607	0.0157957
865.685	0.0157763
865.763	0.0158585
865.841	0.0158583
865.919	0.0157118
865.997	0.0158363
866.075	0.0159091
866.154	0.0159022
866.232	0.0158183
866.310	0.0156949
866.388	0.0157246
866.466	0.0157494
866.544	0.0157510
866.622	0.0158822
866.700	0.0157504
866.779	0.0156253
866.857	0.0156860
866.935	0.0158160
867.013	0.0156410
867.091	0.0157397
867.169	0.0157529
867.247	0.0158955
867.325	0.0158555
867.404	0.0158271
867.482	0.0159083
867.560	0.0159568
867.638	0.0160689
867.716	0.0161189
867.794	0.0161169
867.872	0.0160197
867.950	0.0160281
868.029	0.0160046
868.107	0.0159778
868.185	0.0160399
868.263	0.0160837
868.341	0.0160542
868.419	0.0160564
868.497	0.0160383
868.575	0.0159861
868.654	0.0160814
868.732	0.0161437
868.810	0.0159370
868.888	0.0159127
868.966	0.0161034
869.044	0.0159253
869.122	0.0160330
869.200	0.0160543
869.279	0.0160133
869.357	0.0161069
869.435	0.0160809
869.513	0.0160045
869.591	0.0160519
869.669	0.0159962
869.747	0.0161291
869.825	0.0161391
869.904	0.0160635
869.982	0.0161280
870.060	0.0161220
870.138	0.0162320
870.216	0.0161363
870.294	0.0161774
870.372	0.0160713
870.450	0.0160133
870.529	0.0160092
870.607	0.0160709
870.685	0.0160117
870.763	0.0159512
870.841	0.0159785
870.919	0.0160125
870.997	0.0160102
871.075	0.0158660
871.154	0.0158848
871.232	0.0158308
871.310	0.0157909
871.388	0.0159002
871.466	0.0158337
871.544	0.0157329
871.622	0.0158762
871.700	0.0158315
871.779	0.0157397
871.857	0.0156521
871.935	0.0159049
872.013	0.0157321
872.091	0.0158047
872.169	0.0157198
872.247	0.0158391
872.325	0.0158460
872.404	0.0158008
872.482	0.0159641
872.560	0.0158756
872.638	0.0160312
872.716	0.0159863
872.794	0.0158797
872.872	0.0158987
872.950	0.0160464
873.029	0.0159759
873.107	0.0160580
873.185	0.0160504
873.263	0.0160323
873.341	0.0160582
873.419	0.0160714
873.497	0.0161946
873.575	0.0161510
873.654	0.0160104
873.732	0.0159338
873.810	0.0159814
873.888	0.0161147
873.966	0.0161597
874.044	0.0160949
874.122	0.0158651
874.200	0.0159459
874.279	0.0160338
874.357	0.0161817
874.435	0.0162106
874.513	0.0160286
874.591	0.0161116
874.669	0.0161421
874.747	0.0161960
874.825	0.0161484
874.904	0.0161243
874.982	0.0159940
875.060	0.0160385
875.138	0.0161359
875.216	0.0160157
875.294	0.0161290
875.372	0.0162019
875.450	0.0159776
875.529	0.0159978
875.607	0.0160215
875.685	0.0159953
875.763	0.0160114
875.841	0.0159952
875.919	0.0158417
875.997	0.0157846
876.075	0.0160472
876.154	0.0158645
876.232	0.0158470
876.310	0.0158873
876.388	0.0157823
876.466	0.0158650
876.544	0.0158631
876.622	0.0157333
876.700	0.0158286
876.779	0.0158617
876.857	0.0158968
876.935	0.0159945
877.013	0.0158153
877.091	0.0158652
877.169	0.0159375
877.247	0.0158797
877.325	0.0159189
877.404	0.0159684
877.482	0.0160595
877.560	0.0157797
877.638	0.0157853
877.716	0.0160168
877.794	0.0160550
877.872	0.0159763
877.950	0.0161157
878.029	0.0158432
878.107	0.0158356
878.185	0.0159570
878.263	0.0158728
878.341	0.0157851
878.419	0.0157230
878.497	0.0159262
878.575	0.0160180
878.654	0.0158014
878.732	0.0159648
878.810	0.0158768
878.888	0.0157763
878.966	0.0157920
879.044	0.0160014
879.122	0.0159895
879.200	0.0160937
879.279	0.0158186
879.357	0.0159354
879.435	0.0159997
879.513	0.0159129
879.591	0.0158999
879.669	0.0160014
879.747	0.0160364
879.825	0.0159709
879.904	0.0160802
879.982	0.0159424
880.060	0.0160274
880.138	0.0159435
880.216	0.0158787
880.294	0.0159304
880.372	0.0160234
880.450	0.0160122
880.529	0.0159882
880.607	0.0159028
880.685	0.0161781
880.763	0.0160211
880.841	0.0160448
880.919	0.0159798
880.997	0.0160775
881.075	0.0161042
881.154	0.0160433
881.232	0.0159967
881.310	0.0160548
881.388	0.0160728
881.466	0.0159048
881.544	0.0160056
881.622	0.0159679
881.700	0.0159910
881.779	0.0157671
881.857	0.0158040
881.935	0.0157808
882.013	0.0157500
882.091	0.0159273
882.169	0.0157278
882.247	0.0159280
882.325	0.0158098
882.404	0.0156993
882.482	0.0157440
882.560	0.0158384
882.638	0.0156745
882.716	0.0157033
882.794	0.0156966
882.872	0.0156815
882.950	0.0156824
883.029	0.0157827
883.107	0.0158015
883.185	0.0156567
883.263	0.0156560
883.341	0.0157576
883.419	0.0157790
883.497	0.0158443
883.575	0.0157228
883.654	0.0156485
883.732	0.0157051
883.810	0.0156614
883.888	0.0156371
883.966	0.0158232
884.044	0.0158758
884.122	0.0157476
884.200	0.0158501
884.279	0.0157909
884.357	0.0157942
884.435	0.0157841
884.513	0.0157762
884.591	0.0158471
884.669	0.0157543
884.747	0.0159214
884.825	0.0157505
884.904	0.0159190
884.982	0.0159149
885.060	0.0158670
885.138	0.0159214
885.216	0.0159116
885.294	0.0158270
885.372	0.0159796
885.450	0.0159714
885.529	0.0158464
885.607	0.0158992
885.685	0.0158247
885.763	0.0159063
885.841	0.0159696
885.919	0.0158453
885.997	0.0157861
886.075	0.0158774
886.154	0.0159435
886.232	0.0160470
886.310	0.0159796
886.388	0.0158053
886.466	0.0157406
886.544	0.0158837
886.622	0.0158080
886.700	0.0157478
886.779	0.0157955
886.857	0.0158429
886.935	0.0157689
887.013	0.0158370
887.091	0.0157920
887.169	0.0157194
887.247	0.0157455
887.325	0.0158288
887.404	0.0156870
887.482	0.0158872
887.560	0.0157639
887.638	0.0158292
887.716	0.0156734
887.794	0.0158006
887.872	0.0157417
887.950	0.0157689
888.029	0.0156112
888.107	0.0157590
888.185	0.0157933
888.263	0.0155762
888.341	0.0158092
888.419	0.0157952
888.497	0.0158635
888.575	0.0157166
888.654	0.0157778
888.732	0.0156510
888.810	0.0158434
888.888	0.0159234
888.966	0.0158282
889.044	0.0158440
889.122	0.0159733
889.200	0.0161072
889.279	0.0159093
889.357	0.0159338
889.435	0.0158973
889.513	0.0158866
889.591	0.0159468
889.669	0.0158803
889.747	0.0159187
889.825	0.0159231
889.904	0.0158422
889.982	0.0158984
890.060	0.0160049
890.138	0.0160896
890.216	0.0159709
890.294	0.0160843
890.372	0.0160235
890.450	0.0160316
890.529	0.0160763
890.607	0.0158835
890.685	0.0160739
890.763	0.0159669
890.841	0.0160572
890.919	0.0161715
890.997	0.0160436
891.075	0.0159734
891.154	0.0159739
891.232	0.0158604
891.310	0.0160035
891.388	0.0158495
891.466	0.0158039
891.544	0.0158859
891.622	0.0158230
891.700	0.0158931
891.779	0.0160397
891.857	0.0158496
891.935	0.0159268
892.013	0.0160381
892.091	0.0158409
892.169	0.0158877
892.247	0.0159332
892.325	0.0159380
892.404	0.0159182
892.482	0.0157915
892.560	0.0159182
892.638	0.0158717
892.716	0.0158735
892.794	0.0159345
892.872	0.0158408
892.950	0.0159937
893.029	0.0160600
893.107	0.0158579
893.185	0.0159276
893.263	0.0159481
893.341	0.0159081
893.419	0.0159880
893.497	0.0160442
893.575	0.0160814
893.654	0.0160116
893.732	0.0158885
893.810	0.0160849
893.888	0.0158706
893.966	0.0159334
894.044	0.0160368
894.122	0.0159859
894.200	0.0160133
894.279	0.0160786
894.357	0.0160007
894.435	0.0160543
894.513	0.0159494
894.591	0.0159457
894.669	0.0159525
894.747	0.0160977
894.825	0.0159933
894.904	0.0161537
894.982	0.0160425
895.060	0.0159840
895.138	0.0160606
895.216	0.0160833
895.294	0.0159843
895.372	0.0161093
895.450	0.0159944
895.529	0.0161580
895.607	0.0160562
895.685	0.0159967
895.763	0.0162044
895.841	0.0161787
895.919	0.0162067
895.997	0.0159933
896.075	0.0161395
896.154	0.0160692
896.232	0.0161001
896.310	0.0160987
896.388	0.0159986
896.466	0.0158464
896.544	0.0159702
896.622	0.0161041
896.700	0.0159716
896.779	0.0159894
896.857	0.0158285
896.935	0.0157861
897.013	0.0158295
897.091	0.0158929
897.169	0.0159461
897.247	0.0159325
897.325	0.0158389
897.404	0.0157825
897.482	0.0158439
897.560	0.0159891
897.638	0.0158667
897.716	0.0158587
897.794	0.0158325
897.872	0.0158488
897.950	0.0157977
898.029	0.0157349
898.107	0.0157973
898.185	0.0158307
898.263	0.0158454
898.341	0.0158298
898.419	0.0157341
898.497	0.0158158
898.575	0.0158440
898.654	0.0157136
898.732	0.0157799
898.810	0.0159234
898.888	0.0157983
898.966	0.0160139
899.044	0.0158961
899.122	0.0158208
899.200	0.0158403
899.279	0.0159399
899.357	0.0159005
899.435	0.0159376
899.513	0.0158665
899.591	0.0159455
899.669	0.0157961
899.747	0.0159523
899.825	0.0158067
899.904	0.0160741
899.982	0.0159235
900.060	0.0159853
900.138	0.0161169
900.216	0.0161078
900.294	0.0160518
900.372	0.0160414
900.450	0.0160004
900.529	0.0161995
900.607	0.0161095
900.685	0.0160600
900.763	0.0161279
900.841	0.0163147
900.919	0.0160892
900.997	0.0161710
901.075	0.0161169
901.154	0.0160525
901.232	0.0159425
901.310	0.0160806
901.388	0.0161494
901.466	0.0161161
901.544	0.0162216
901.622	0.0160496
901.700	0.0160064
901.779	0.0160551
901.857	0.0160237
901.935	0.0161179
902.013	0.0161036
902.091	0.0161598
902.169	0.0160973
902.247	0.0160737
902.325	0.0161775
902.404	0.0160239
902.482	0.0159630
902.560	0.0160085
902.638	0.0160340
902.716	0.0160970
902.794	0.0161749
902.872	0.0159168
902.950	0.0161225
903.029	0.0161401
903.107	0.0160197
903.185	0.0159878
903.263	0.0160452
903.341	0.0160211
903.419	0.0161379
903.497	0.0162435
903.575	0.0161402
903.654	0.0162696
903.732	0.0160889
903.810	0.0162246
903.888	0.0160958
903.966	0.0160400
904.044	0.0161161
904.122	0.0159869
904.200	0.0160404
904.279	0.0160381
904.357	0.0160878
904.435	0.0161001
904.513	0.0159716
904.591	0.0160777
904.669	0.0159279
904.747	0.0159844
904.825	0.0158887
904.904	0.0159281
904.982	0.0159495
905.060	0.0158964
905.138	0.0158496
905.216	0.0157782
905.294	0.0158583
905.372	0.0159996
905.450	0.0158791
905.529	0.0158803
905.607	0.0157795
905.685	0.0158072
905.763	0.0158883
905.841	0.0159266
905.919	0.0159940
905.997	0.0158762
906.075	0.0159000
906.154	0.0158213
906.232	0.0158038
906.310	0.0158905
906.388	0.0158103
906.466	0.0158662
906.544	0.0157008
906.622	0.0158170
906.700	0.0158986
906.779	0.0157554
906.857	0.0156717
906.935	0.0157189
907.013	0.0157744
907.091	0.0156857
907.169	0.0156412
907.247	0.0156472
907.325	0.0156168
907.404	0.0155380
907.482	0.0157800
907.560	0.0158156
907.638	0.0156283
907.716	0.0156191
907.794	0.0157408
907.872	0.0157706
907.950	0.0157578
908.029	0.0156879
908.107	0.0157267
908.185	0.0159093
908.263	0.0157677
908.341	0.0158033
908.419	0.0158580
908.497	0.0158878
908.575	0.0158745
908.654	0.0158057
908.732	0.0159264
908.810	0.0157722
908.888	0.0158439
908.966	0.0158694
909.044	0.0157597
909.122	0.0156754
909.200	0.0157342
909.279	0.0158395
909.357	0.0158347
909.435	0.0157500
909.513	0.0157774
909.591	0.0157674
909.669	0.0158135
909.747	0.0156720
909.825	0.0157824
909.904	0.0158000
909.982	0.0158659
910.060	0.0157444
910.138	0.0157919
910.216	0.0156705
910.294	0.0156588
910.372	0.0157764
910.450	0.0157124
910.529	0.0156265
910.607	0.0157535
910.685	0.0158392
910.763	0.0156783
910.841	0.0156582
910.919	0.0157578
910.997	0.0158762
911.075	0.0157030
911.154	0.0158836
911.232	0.0157632
911.310	0.0157510
911.388	0.0159941
911.466	0.0158958
911.544	0.0158694
911.622	0.0158309
911.700	0.0158337
911.779	0.0157647
911.857	0.0158423
911.935	0.0159369
912.013	0.0158434
912.091	0.0158253
912.169	0.0158403
912.247	0.0159499
912.325	0.0159624
912.404	0.0159611
912.482	0.0158379
912.560	0.0158752
912.638	0.0158785
912.716	0.0158192
912.794	0.0158131
912.872	0.0156628
912.950	0.0158585
913.029	0.0159989
913.107	0.0159209
913.185	0.0158823
913.263	0.0160129
913.341	0.0159695
913.419	0.0159871
913.497	0.0160306
913.575	0.0158637
913.654	0.0160198
913.732	0.0160796
913.810	0.0161616
913.888	0.0160662
913.966	0.0158702
914.044	0.0159957
914.122	0.0161738
914.200	0.0159712
914.279	0.0159811
914.357	0.0159799
914.435	0.0159440
914.513	0.0159473
914.591	0.0159980
914.669	0.0160151
914.747	0.0158218
914.825	0.0159871
914.904	0.0159146
914.982	0.0159386
915.060	0.0158130
915.138	0.0158607
915.216	0.0158746
915.294	0.0158620
915.372	0.0158749
915.450	0.0158916
915.529	0.0158613
915.607	0.0157821
915.685	0.0158176
915.763	0.0159200
915.841	0.0158737
915.919	0.0159090
915.997	0.0158633
916.075	0.0159567
916.154	0.0160674
916.232	0.0159242
916.310	0.0159322
916.388	0.0159265
916.466	0.0159290
916.544	0.0158766
916.622	0.0160145
916.700	0.0159647
916.779	0.0159483
916.857	0.0158459
916.935	0.0158363
917.013	0.0159435
917.091	0.0159557
917.169	0.0157493
917.247	0.0158506
917.325	0.0159316
917.404	0.0159875
917.482	0.0158425
917.560	0.0159828
917.638	0.0159304
917.716	0.0160760
917.794	0.0159769
917.872	0.0159988
917.950	0.0160374
918.029	0.0159667
918.107	0.0160837
918.185	0.0161096
918.263	0.0162026
918.341	0.0161676
918.419	0.0162292
918.497	0.0161478
918.575	0.0162096
918.654	0.0162117
918.732	0.0163613
918.810	0.0163296
918.888	0.0162674
918.966	0.0163407
919.044	0.0162688
919.122	0.0162947
919.200	0.0161159
919.279	0.0162526
919.357	0.0162051
919.435	0.0161716
919.513	0.0161318
919.591	0.0160570
919.669	0.0159879
919.747	0.0160153
919.825	0.0160860
919.904	0.0159476
