05/24/2022	20:48:57	Ver.	4.1	UNKNOWN
Optical Delay	599.981738	Delta X		0.078125	Sweeps	1	Scan Rate	0/0
Coordinates	Axis 1	NaN	Axis 2	NaN	Axis 3	NaN	Axis 4	NaN	Axis 5	NaN	Axis 6	0.000000
TX Power	0.000000	RX Power	0.000000

599.982	0.0159757
600.060	0.0161229
600.138	0.0163919
600.216	0.0161103
600.294	0.0163237
600.372	0.0162836
600.450	0.0162115
600.529	0.0161417
600.607	0.0162378
600.685	0.0163672
600.763	0.0162585
600.841	0.0162206
600.919	0.0161789
600.997	0.0162071
601.075	0.0162677
601.154	0.0162509
601.232	0.0162193
601.310	0.0161787
601.388	0.0160681
601.466	0.0162506
601.544	0.0161341
601.622	0.0162059
601.700	0.0162134
601.779	0.0162221
601.857	0.0161829
601.935	0.0160059
602.013	0.0160454
602.091	0.0160883
602.169	0.0162591
602.247	0.0161410
602.325	0.0160712
602.404	0.0161925
602.482	0.0160325
602.560	0.0161226
602.638	0.0162721
602.716	0.0159539
602.794	0.0161785
602.872	0.0161939
602.950	0.0161366
603.029	0.0161127
603.107	0.0160719
603.185	0.0161165
603.263	0.0161193
603.341	0.0160667
603.419	0.0160312
603.497	0.0160335
603.575	0.0161320
603.654	0.0159962
603.732	0.0160414
603.810	0.0160731
603.888	0.0159837
603.966	0.0159005
604.044	0.0159774
604.122	0.0160378
604.200	0.0159205
604.279	0.0160570
604.357	0.0158787
604.435	0.0158764
604.513	0.0159921
604.591	0.0157728
604.669	0.0158380
604.747	0.0158609
604.825	0.0158469
604.904	0.0159221
604.982	0.0158304
605.060	0.0158085
605.138	0.0156615
605.216	0.0157919
605.294	0.0157790
605.372	0.0158806
605.450	0.0157973
605.529	0.0157877
605.607	0.0158504
605.685	0.0158910
605.763	0.0157703
605.841	0.0157579
605.919	0.0159691
605.997	0.0157732
606.075	0.0158000
606.154	0.0157497
606.232	0.0157214
606.310	0.0157030
606.388	0.0156786
606.466	0.0156593
606.544	0.0158051
606.622	0.0157050
606.700	0.0155637
606.779	0.0156515
606.857	0.0158071
606.935	0.0157169
607.013	0.0155967
607.091	0.0156110
607.169	0.0157504
607.247	0.0157655
607.325	0.0157092
607.404	0.0157767
607.482	0.0157837
607.560	0.0157875
607.638	0.0157867
607.716	0.0158310
607.794	0.0159573
607.872	0.0159711
607.950	0.0159200
608.029	0.0159767
608.107	0.0159547
608.185	0.0161198
608.263	0.0160006
608.341	0.0159250
608.419	0.0161552
608.497	0.0160496
608.575	0.0159785
608.654	0.0160538
608.732	0.0159947
608.810	0.0159735
608.888	0.0159489
608.966	0.0159626
609.044	0.0159016
609.122	0.0158981
609.200	0.0158539
609.279	0.0158690
609.357	0.0160925
609.435	0.0159460
609.513	0.0160834
609.591	0.0159600
609.669	0.0159555
609.747	0.0161206
609.825	0.0160090
609.904	0.0159531
609.982	0.0158639
610.060	0.0159774
610.138	0.0158086
610.216	0.0159035
610.294	0.0160629
610.372	0.0160217
610.450	0.0159940
610.529	0.0158100
610.607	0.0157906
610.685	0.0158328
610.763	0.0158734
610.841	0.0160603
610.919	0.0162100
610.997	0.0161005
611.075	0.0159959
611.154	0.0162584
611.232	0.0162714
611.310	0.0163313
611.388	0.0164722
611.466	0.0165412
611.544	0.0165160
611.622	0.0165988
611.700	0.0164351
611.779	0.0167500
611.857	0.0165865
611.935	0.0164859
612.013	0.0164571
612.091	0.0164580
612.169	0.0164081
612.247	0.0161879
612.325	0.0161479
612.404	0.0161819
612.482	0.0160842
612.560	0.0160247
612.638	0.0159144
612.716	0.0159220
612.794	0.0158289
612.872	0.0158767
612.950	0.0158197
613.029	0.0159488
613.107	0.0158590
613.185	0.0158907
613.263	0.0159783
613.341	0.0159676
613.419	0.0160305
613.497	0.0160871
613.575	0.0160961
613.654	0.0161402
613.732	0.0160898
613.810	0.0159846
613.888	0.0161597
613.966	0.0162479
614.044	0.0162080
614.122	0.0161800
614.200	0.0161449
614.279	0.0162476
614.357	0.0160777
614.435	0.0159960
614.513	0.0160691
614.591	0.0159602
614.669	0.0159446
614.747	0.0159318
614.825	0.0159355
614.904	0.0159399
614.982	0.0158646
615.060	0.0157088
615.138	0.0157090
615.216	0.0155993
615.294	0.0156557
615.372	0.0156548
615.450	0.0156950
615.529	0.0156429
615.607	0.0157826
615.685	0.0158573
615.763	0.0158229
615.841	0.0159070
615.919	0.0162511
615.997	0.0163319
616.075	0.0162420
616.154	0.0165704
616.232	0.0167086
616.310	0.0167894
616.388	0.0169109
616.466	0.0169839
616.544	0.0170033
616.622	0.0168976
616.700	0.0172210
616.779	0.0169662
616.857	0.0168403
616.935	0.0167776
617.013	0.0167145
617.091	0.0166347
617.169	0.0164396
617.247	0.0163208
617.325	0.0160448
617.404	0.0158799
617.482	0.0156212
617.560	0.0155201
617.638	0.0153828
617.716	0.0152095
617.794	0.0150895
617.872	0.0151559
617.950	0.0149232
618.029	0.0147260
618.107	0.0147667
618.185	0.0147405
618.263	0.0147431
618.341	0.0147114
618.419	0.0148275
618.497	0.0148419
618.575	0.0148927
618.654	0.0151749
618.732	0.0152530
618.810	0.0153271
618.888	0.0156107
618.966	0.0158241
619.044	0.0159883
619.122	0.0161460
619.200	0.0162942
619.279	0.0166754
619.357	0.0167788
619.435	0.0168626
619.513	0.0169722
619.591	0.0171294
619.669	0.0172520
619.747	0.0173519
619.825	0.0173677
619.904	0.0173304
619.982	0.0173464
620.060	0.0172869
620.138	0.0172022
620.216	0.0170826
620.294	0.0171431
620.372	0.0167680
620.450	0.0166776
620.529	0.0166689
620.607	0.0165134
620.685	0.0162945
620.763	0.0160968
620.841	0.0158446
620.919	0.0158088
620.997	0.0157179
621.075	0.0155540
621.154	0.0155952
621.232	0.0155019
621.310	0.0154293
621.388	0.0153694
621.466	0.0154089
621.544	0.0153224
621.622	0.0152931
621.700	0.0155430
621.779	0.0155678
621.857	0.0155612
621.935	0.0154652
622.013	0.0156152
622.091	0.0155029
622.169	0.0156251
622.247	0.0156680
622.325	0.0153961
622.404	0.0153851
622.482	0.0154227
622.560	0.0155090
622.638	0.0154704
622.716	0.0152361
622.794	0.0152878
622.872	0.0154122
622.950	0.0153316
623.029	0.0152911
623.107	0.0153544
623.185	0.0154097
623.263	0.0155803
623.341	0.0155247
623.419	0.0156855
623.497	0.0158861
623.575	0.0159535
623.654	0.0160985
623.732	0.0162714
623.810	0.0165002
623.888	0.0165860
623.966	0.0167486
624.044	0.0169329
624.122	0.0171564
624.200	0.0174390
624.279	0.0175851
624.357	0.0177467
624.435	0.0179069
624.513	0.0179687
624.591	0.0180041
624.669	0.0181859
624.747	0.0178934
624.825	0.0178077
624.904	0.0176946
624.982	0.0174315
625.060	0.0171545
625.138	0.0168856
625.216	0.0164611
625.294	0.0160738
625.372	0.0157587
625.450	0.0153339
625.529	0.0152001
625.607	0.0146619
625.685	0.0145008
625.763	0.0141773
625.841	0.0139652
625.919	0.0137531
625.997	0.0136129
626.075	0.0136165
626.154	0.0133305
626.232	0.0132909
626.310	0.0132655
626.388	0.0135315
626.466	0.0134164
626.544	0.0134997
626.622	0.0136755
626.700	0.0137784
626.779	0.0140288
626.857	0.0141869
626.935	0.0143815
627.013	0.0146888
627.091	0.0151484
627.169	0.0155315
627.247	0.0156396
627.325	0.0160141
627.404	0.0161317
627.482	0.0164974
627.560	0.0166961
627.638	0.0168712
627.716	0.0170430
627.794	0.0173148
627.872	0.0175034
627.950	0.0175089
628.029	0.0176166
628.107	0.0177819
628.185	0.0177144
628.263	0.0176868
628.341	0.0177582
628.419	0.0178270
628.497	0.0177480
628.575	0.0177446
628.654	0.0177993
628.732	0.0178235
628.810	0.0176617
628.888	0.0177736
628.966	0.0177077
629.044	0.0177141
629.122	0.0176507
629.200	0.0177447
629.279	0.0176659
629.357	0.0175983
629.435	0.0176037
629.513	0.0171542
629.591	0.0169128
629.669	0.0167726
629.747	0.0165952
629.825	0.0161636
629.904	0.0160178
629.982	0.0156826
630.060	0.0152281
630.138	0.0149107
630.216	0.0146053
630.294	0.0142714
630.372	0.0138981
630.450	0.0135841
630.529	0.0134557
630.607	0.0130212
630.685	0.0129344
630.763	0.0127081
630.841	0.0126324
630.919	0.0124210
630.997	0.0125988
631.075	0.0126399
631.154	0.0126988
631.232	0.0128339
631.310	0.0131655
631.388	0.0134459
631.466	0.0138146
631.544	0.0141587
631.622	0.0145714
631.700	0.0150123
631.779	0.0155843
631.857	0.0161027
631.935	0.0165227
632.013	0.0169952
632.091	0.0173379
632.169	0.0177721
632.247	0.0181982
632.325	0.0183349
632.404	0.0185965
632.482	0.0188879
632.560	0.0190095
632.638	0.0191402
632.716	0.0191945
632.794	0.0191270
632.872	0.0191270
632.950	0.0190677
633.029	0.0188930
633.107	0.0188102
633.185	0.0187036
633.263	0.0184238
633.341	0.0182357
633.419	0.0180140
633.497	0.0177962
633.575	0.0174984
633.654	0.0172671
633.732	0.0170397
633.810	0.0166205
633.888	0.0164285
633.966	0.0161975
634.044	0.0158373
634.122	0.0154966
634.200	0.0151461
634.279	0.0150095
634.357	0.0147909
634.435	0.0146239
634.513	0.0145181
634.591	0.0144326
634.669	0.0142769
634.747	0.0142528
634.825	0.0141526
634.904	0.0139473
634.982	0.0138963
635.060	0.0138419
635.138	0.0138262
635.216	0.0139288
635.294	0.0140337
635.372	0.0139089
635.450	0.0140623
635.529	0.0141380
635.607	0.0142083
635.685	0.0144366
635.763	0.0147014
635.841	0.0148606
635.919	0.0150882
635.997	0.0153003
636.075	0.0155100
636.154	0.0158853
636.232	0.0161697
636.310	0.0163852
636.388	0.0166564
636.466	0.0168604
636.544	0.0169273
636.622	0.0171292
636.700	0.0173240
636.779	0.0173286
636.857	0.0173913
636.935	0.0173570
637.013	0.0172838
637.091	0.0172898
637.169	0.0172470
637.247	0.0171313
637.325	0.0171986
637.404	0.0171249
637.482	0.0169261
637.560	0.0168852
637.638	0.0165129
637.716	0.0163139
637.794	0.0162512
637.872	0.0162888
637.950	0.0161014
638.029	0.0160076
638.107	0.0157616
638.185	0.0157154
638.263	0.0156683
638.341	0.0155701
638.419	0.0155782
638.497	0.0153928
638.575	0.0154568
638.654	0.0155057
638.732	0.0153183
638.810	0.0154617
638.888	0.0155827
638.966	0.0155331
639.044	0.0155009
639.122	0.0156741
639.200	0.0157696
639.279	0.0160725
639.357	0.0161623
639.435	0.0163676
639.513	0.0164835
639.591	0.0166252
639.669	0.0167249
639.747	0.0171075
639.825	0.0170007
639.904	0.0169638
639.982	0.0172626
640.060	0.0172403
640.138	0.0171542
640.216	0.0172581
640.294	0.0170824
640.372	0.0171589
640.450	0.0170597
640.529	0.0169650
640.607	0.0170443
640.685	0.0169793
640.763	0.0167378
640.841	0.0166728
640.919	0.0165454
640.997	0.0165112
641.075	0.0163128
641.154	0.0163038
641.232	0.0161128
641.310	0.0160328
641.388	0.0157091
641.466	0.0155573
641.544	0.0154472
641.622	0.0152158
641.700	0.0150836
641.779	0.0149744
641.857	0.0148211
641.935	0.0146703
642.013	0.0145644
642.091	0.0144527
642.169	0.0143143
642.247	0.0141897
642.325	0.0140126
642.404	0.0138937
642.482	0.0138567
642.560	0.0141005
642.638	0.0139934
642.716	0.0141270
642.794	0.0142339
642.872	0.0143955
642.950	0.0147788
643.029	0.0150571
643.107	0.0153257
643.185	0.0155904
643.263	0.0159779
643.341	0.0163259
643.419	0.0167353
643.497	0.0169734
643.575	0.0172852
643.654	0.0175327
643.732	0.0177605
643.810	0.0178716
643.888	0.0181425
643.966	0.0181133
644.044	0.0183043
644.122	0.0182722
644.200	0.0182140
644.279	0.0180565
644.357	0.0180400
644.435	0.0178227
644.513	0.0177889
644.591	0.0176027
644.669	0.0172936
644.747	0.0170751
644.825	0.0168681
644.904	0.0167394
644.982	0.0164622
645.060	0.0162989
645.138	0.0161349
645.216	0.0159094
645.294	0.0155693
645.372	0.0154469
645.450	0.0153211
645.529	0.0152170
645.607	0.0151257
645.685	0.0150902
645.763	0.0149876
645.841	0.0148470
645.919	0.0149300
645.997	0.0149744
646.075	0.0150178
646.154	0.0149647
646.232	0.0149606
646.310	0.0148726
646.388	0.0150038
646.466	0.0149546
646.544	0.0150999
646.622	0.0150910
646.700	0.0150124
646.779	0.0149786
646.857	0.0150288
646.935	0.0151672
647.013	0.0151940
647.091	0.0151914
647.169	0.0153520
647.247	0.0152489
647.325	0.0151326
647.404	0.0155024
647.482	0.0154427
647.560	0.0155500
647.638	0.0153664
647.716	0.0153172
647.794	0.0152536
647.872	0.0154195
647.950	0.0154025
648.029	0.0152488
648.107	0.0152925
648.185	0.0151507
648.263	0.0151771
648.341	0.0152425
648.419	0.0153619
648.497	0.0154186
648.575	0.0154484
648.654	0.0157074
648.732	0.0158354
648.810	0.0159915
648.888	0.0162118
648.966	0.0163355
649.044	0.0166291
649.122	0.0169618
649.200	0.0171871
649.279	0.0173278
649.357	0.0174763
649.435	0.0177203
649.513	0.0179825
649.591	0.0179685
649.669	0.0179956
649.747	0.0180585
649.825	0.0180233
649.904	0.0181794
649.982	0.0179258
650.060	0.0180121
650.138	0.0178196
650.216	0.0179705
650.294	0.0177908
650.372	0.0176543
650.450	0.0174925
650.529	0.0172649
650.607	0.0169517
650.685	0.0167580
650.763	0.0166138
650.841	0.0162601
650.919	0.0159557
650.997	0.0155887
651.075	0.0152055
651.154	0.0150805
651.232	0.0148067
651.310	0.0145827
651.388	0.0142395
651.466	0.0142030
651.544	0.0141297
651.622	0.0140253
651.700	0.0140886
651.779	0.0139827
651.857	0.0140804
651.935	0.0140938
652.013	0.0142356
652.091	0.0142715
652.169	0.0144009
652.247	0.0145763
652.325	0.0144872
652.404	0.0146127
652.482	0.0146989
652.560	0.0150724
652.638	0.0150187
652.716	0.0151918
652.794	0.0153691
652.872	0.0154290
652.950	0.0157671
653.029	0.0159946
653.107	0.0159899
653.185	0.0162057
653.263	0.0163816
653.341	0.0165527
653.419	0.0166878
653.497	0.0168766
653.575	0.0168770
653.654	0.0171800
653.732	0.0172233
653.810	0.0173369
653.888	0.0174934
653.966	0.0176402
654.044	0.0177618
654.122	0.0178056
654.200	0.0178435
654.279	0.0179212
654.357	0.0178989
654.435	0.0178870
654.513	0.0176746
654.591	0.0175978
654.669	0.0174912
654.747	0.0172110
654.825	0.0169675
654.904	0.0167424
654.982	0.0165144
655.060	0.0161338
655.138	0.0158572
655.216	0.0157301
655.294	0.0155629
655.372	0.0152206
655.450	0.0151900
655.529	0.0147926
655.607	0.0147744
655.685	0.0145609
655.763	0.0145875
655.841	0.0144671
655.919	0.0144419
655.997	0.0142843
656.075	0.0143891
656.154	0.0146326
656.232	0.0144940
656.310	0.0146813
656.388	0.0148771
656.466	0.0150306
656.544	0.0153825
656.622	0.0154335
656.700	0.0157866
656.779	0.0159953
656.857	0.0161455
656.935	0.0165992
657.013	0.0164224
657.091	0.0166297
657.169	0.0167329
657.247	0.0168285
657.325	0.0168150
657.404	0.0168308
657.482	0.0168493
657.560	0.0166461
657.638	0.0166167
657.716	0.0163689
657.794	0.0162825
657.872	0.0161842
657.950	0.0161216
658.029	0.0159091
658.107	0.0157465
658.185	0.0157166
658.263	0.0157851
658.341	0.0156779
658.419	0.0155993
658.497	0.0155504
658.575	0.0155833
658.654	0.0157494
658.732	0.0158437
658.810	0.0157623
658.888	0.0160658
658.966	0.0160603
659.044	0.0162807
659.122	0.0164378
659.200	0.0165860
659.279	0.0166093
659.357	0.0167771
659.435	0.0168841
659.513	0.0168659
659.591	0.0167951
659.669	0.0169273
659.747	0.0166127
659.825	0.0166756
659.904	0.0165453
659.982	0.0165302
660.060	0.0163016
660.138	0.0161678
660.216	0.0161723
660.294	0.0159471
660.372	0.0158668
660.450	0.0159162
660.529	0.0158459
660.607	0.0157713
660.685	0.0158564
660.763	0.0158913
660.841	0.0158299
660.919	0.0156083
660.997	0.0156532
661.075	0.0156019
661.154	0.0156255
661.232	0.0156826
661.310	0.0156895
661.388	0.0157393
661.466	0.0158337
661.544	0.0159728
661.622	0.0159589
661.700	0.0160307
661.779	0.0161978
661.857	0.0162087
661.935	0.0163811
662.013	0.0166023
662.091	0.0167456
662.169	0.0166365
662.247	0.0167487
662.325	0.0168568
662.404	0.0166433
662.482	0.0167500
662.560	0.0164453
662.638	0.0164893
662.716	0.0163921
662.794	0.0163264
662.872	0.0161533
662.950	0.0159282
663.029	0.0156670
663.107	0.0158511
663.185	0.0156348
663.263	0.0153217
663.341	0.0154881
663.419	0.0152644
663.497	0.0152754
663.575	0.0153847
663.654	0.0154105
663.732	0.0154722
663.810	0.0153349
663.888	0.0153802
663.966	0.0156348
664.044	0.0155812
664.122	0.0156870
664.200	0.0156659
664.279	0.0158254
664.357	0.0157947
664.435	0.0159348
664.513	0.0160529
664.591	0.0160997
664.669	0.0163295
664.747	0.0163184
664.825	0.0163801
664.904	0.0165159
664.982	0.0166920
665.060	0.0167715
665.138	0.0168185
665.216	0.0167811
665.294	0.0169873
665.372	0.0169324
665.450	0.0168949
665.529	0.0169630
665.607	0.0169717
665.685	0.0170084
665.763	0.0169318
665.841	0.0169298
665.919	0.0168484
665.997	0.0167083
666.075	0.0166637
666.154	0.0165625
666.232	0.0162885
666.310	0.0162057
666.388	0.0161260
666.466	0.0159526
666.544	0.0157931
666.622	0.0157489
666.700	0.0152817
666.779	0.0153904
666.857	0.0152903
666.935	0.0153774
667.013	0.0152299
667.091	0.0152530
667.169	0.0150812
667.247	0.0151737
667.325	0.0152692
667.404	0.0153372
667.482	0.0154408
667.560	0.0154557
667.638	0.0156049
667.716	0.0157064
667.794	0.0156512
667.872	0.0157894
667.950	0.0156333
668.029	0.0158476
668.107	0.0160065
668.185	0.0160748
668.263	0.0160933
668.341	0.0160751
668.419	0.0162536
668.497	0.0165127
668.575	0.0163298
668.654	0.0164159
668.732	0.0165498
668.810	0.0165585
668.888	0.0165630
668.966	0.0165393
669.044	0.0165885
669.122	0.0165984
669.200	0.0165486
669.279	0.0165541
669.357	0.0163436
669.435	0.0163000
669.513	0.0163079
669.591	0.0164385
669.669	0.0163450
669.747	0.0163124
669.825	0.0163833
669.904	0.0163056
669.982	0.0163730
670.060	0.0164301
670.138	0.0162955
670.216	0.0163289
670.294	0.0163120
670.372	0.0163646
670.450	0.0162167
670.529	0.0160748
670.607	0.0161918
670.685	0.0160877
670.763	0.0159362
670.841	0.0158943
670.919	0.0156731
670.997	0.0157191
671.075	0.0156635
671.154	0.0155481
671.232	0.0154391
671.310	0.0154717
671.388	0.0152619
671.466	0.0152235
671.544	0.0151836
671.622	0.0150594
671.700	0.0150323
671.779	0.0149846
671.857	0.0149346
671.935	0.0151369
672.013	0.0150107
672.091	0.0151384
672.169	0.0152904
672.247	0.0153720
672.325	0.0154764
672.404	0.0157217
672.482	0.0158817
672.560	0.0160801
672.638	0.0162640
672.716	0.0163807
672.794	0.0164288
672.872	0.0165556
672.950	0.0167941
673.029	0.0168714
673.107	0.0169432
673.185	0.0168786
673.263	0.0169529
673.341	0.0170061
673.419	0.0168111
673.497	0.0169218
673.575	0.0168338
673.654	0.0168369
673.732	0.0166312
673.810	0.0165420
673.888	0.0165710
673.966	0.0166037
674.044	0.0164486
674.122	0.0163909
674.200	0.0164388
674.279	0.0163739
674.357	0.0162896
674.435	0.0161698
674.513	0.0161086
674.591	0.0161546
674.669	0.0162251
674.747	0.0160072
674.825	0.0159971
674.904	0.0159109
674.982	0.0158340
675.060	0.0158387
675.138	0.0157294
675.216	0.0155872
675.294	0.0156234
675.372	0.0155021
675.450	0.0154115
675.529	0.0152055
675.607	0.0152858
675.685	0.0151349
675.763	0.0150519
675.841	0.0152838
675.919	0.0151445
675.997	0.0151678
676.075	0.0150713
676.154	0.0151257
676.232	0.0151208
676.310	0.0153297
676.388	0.0153045
676.466	0.0153196
676.544	0.0153696
676.622	0.0154642
676.700	0.0156089
676.779	0.0155576
676.857	0.0156821
676.935	0.0157472
677.013	0.0157784
677.091	0.0160520
677.169	0.0160882
677.247	0.0163025
677.325	0.0162680
677.404	0.0163972
677.482	0.0164477
677.560	0.0165901
677.638	0.0165151
677.716	0.0166522
677.794	0.0165692
677.872	0.0167125
677.950	0.0167569
678.029	0.0167419
678.107	0.0165934
678.185	0.0165400
678.263	0.0166547
678.341	0.0166074
678.419	0.0163099
678.497	0.0163646
678.575	0.0164067
678.654	0.0162402
678.732	0.0162740
678.810	0.0163390
678.888	0.0162469
678.966	0.0163741
679.044	0.0164020
679.122	0.0164045
679.200	0.0162665
679.279	0.0164455
679.357	0.0164680
679.435	0.0164982
679.513	0.0165102
679.591	0.0165252
679.669	0.0164546
679.747	0.0165322
679.825	0.0165517
679.904	0.0165733
679.982	0.0163609
680.060	0.0164252
680.138	0.0162044
680.216	0.0160426
680.294	0.0159924
680.372	0.0159146
680.450	0.0157647
680.529	0.0154098
680.607	0.0154942
680.685	0.0154353
680.763	0.0154173
680.841	0.0151904
680.919	0.0152520
680.997	0.0154507
681.075	0.0152625
681.154	0.0153339
681.232	0.0154153
681.310	0.0154597
681.388	0.0155344
681.466	0.0155599
681.544	0.0157305
681.622	0.0157977
681.700	0.0158836
681.779	0.0159639
681.857	0.0161236
681.935	0.0160225
682.013	0.0161678
682.091	0.0162949
682.169	0.0162843
682.247	0.0163564
682.325	0.0163040
682.404	0.0164546
682.482	0.0163698
682.560	0.0162868
682.638	0.0162820
682.716	0.0163419
682.794	0.0163271
682.872	0.0163658
682.950	0.0162081
683.029	0.0162058
683.107	0.0160552
683.185	0.0161438
683.263	0.0159710
683.341	0.0158144
683.419	0.0158627
683.497	0.0158354
683.575	0.0159018
683.654	0.0157600
683.732	0.0156209
683.810	0.0156166
683.888	0.0156887
683.966	0.0158739
684.044	0.0158808
684.122	0.0158450
684.200	0.0160715
684.279	0.0160859
684.357	0.0162876
684.435	0.0163229
684.513	0.0161993
684.591	0.0165430
684.669	0.0167249
684.747	0.0165603
684.825	0.0165838
684.904	0.0166598
684.982	0.0168904
685.060	0.0168062
685.138	0.0167646
685.216	0.0165847
685.294	0.0165426
685.372	0.0165536
685.450	0.0166544
685.529	0.0164980
685.607	0.0162934
685.685	0.0161804
685.763	0.0161211
685.841	0.0161663
685.919	0.0160757
685.997	0.0160815
686.075	0.0160288
686.154	0.0160693
686.232	0.0160666
686.310	0.0160945
686.388	0.0159029
686.466	0.0159576
686.544	0.0159338
686.622	0.0159631
686.700	0.0158927
686.779	0.0159671
686.857	0.0157346
686.935	0.0156839
687.013	0.0158129
687.091	0.0157339
687.169	0.0157336
687.247	0.0155884
687.325	0.0156432
687.404	0.0157590
687.482	0.0158655
687.560	0.0157629
687.638	0.0158485
687.716	0.0158440
687.794	0.0156605
687.872	0.0156802
687.950	0.0157934
688.029	0.0157291
688.107	0.0157327
688.185	0.0158231
688.263	0.0158325
688.341	0.0158144
688.419	0.0157871
688.497	0.0158945
688.575	0.0158443
688.654	0.0159402
688.732	0.0158627
688.810	0.0159518
688.888	0.0161084
688.966	0.0161374
689.044	0.0161330
689.122	0.0161404
689.200	0.0161327
689.279	0.0162335
689.357	0.0161817
689.435	0.0162466
689.513	0.0162313
689.591	0.0162309
689.669	0.0162897
689.747	0.0163474
689.825	0.0163340
689.904	0.0162254
689.982	0.0161040
690.060	0.0161674
690.138	0.0161427
690.216	0.0162028
690.294	0.0159528
690.372	0.0159860
690.450	0.0159676
690.529	0.0158010
690.607	0.0156434
690.685	0.0159157
690.763	0.0156663
690.841	0.0155396
690.919	0.0154741
690.997	0.0154111
691.075	0.0154527
691.154	0.0154870
691.232	0.0153900
691.310	0.0155105
691.388	0.0155363
691.466	0.0155217
691.544	0.0155913
691.622	0.0156918
691.700	0.0156731
691.779	0.0159016
691.857	0.0158633
691.935	0.0160322
692.013	0.0161386
692.091	0.0162817
692.169	0.0162878
692.247	0.0164631
692.325	0.0164490
692.404	0.0165623
692.482	0.0167178
692.560	0.0165747
692.638	0.0166026
692.716	0.0166094
692.794	0.0165600
692.872	0.0166328
692.950	0.0166821
693.029	0.0165102
693.107	0.0163432
693.185	0.0162740
693.263	0.0164243
693.341	0.0162124
693.419	0.0159899
693.497	0.0160233
693.575	0.0160776
693.654	0.0159989
693.732	0.0158675
693.810	0.0159241
693.888	0.0159789
693.966	0.0158881
694.044	0.0158881
694.122	0.0158536
694.200	0.0158429
694.279	0.0159442
694.357	0.0159930
694.435	0.0160739
694.513	0.0160925
694.591	0.0161736
694.669	0.0162181
694.747	0.0162951
694.825	0.0163244
694.904	0.0163744
694.982	0.0163012
695.060	0.0163113
695.138	0.0161907
695.216	0.0162819
695.294	0.0163261
695.372	0.0161951
695.450	0.0161147
695.529	0.0160582
695.607	0.0160865
695.685	0.0160010
695.763	0.0159054
695.841	0.0160944
695.919	0.0159242
695.997	0.0158467
696.075	0.0157327
696.154	0.0158908
696.232	0.0159082
696.310	0.0158205
696.388	0.0158015
696.466	0.0156587
696.544	0.0157006
696.622	0.0157031
696.700	0.0156400
696.779	0.0155827
696.857	0.0156309
696.935	0.0156332
697.013	0.0155912
697.091	0.0156556
697.169	0.0156625
697.247	0.0156694
697.325	0.0155605
697.404	0.0157874
697.482	0.0159804
697.560	0.0159432
697.638	0.0159296
697.716	0.0158548
697.794	0.0158833
697.872	0.0160621
697.950	0.0159126
698.029	0.0160228
698.107	0.0160625
698.185	0.0159995
698.263	0.0159631
698.341	0.0160808
698.419	0.0159551
698.497	0.0161224
698.575	0.0160283
698.654	0.0160414
698.732	0.0160670
698.810	0.0160058
698.888	0.0161761
698.966	0.0161417
699.044	0.0163188
699.122	0.0163275
699.200	0.0163483
699.279	0.0163375
699.357	0.0164913
699.435	0.0164417
699.513	0.0163251
699.591	0.0165621
699.669	0.0163450
699.747	0.0163842
699.825	0.0164154
699.904	0.0165312
699.982	0.0162868
700.060	0.0162537
700.138	0.0161977
700.216	0.0162649
700.294	0.0162922
700.372	0.0162448
700.450	0.0162191
700.529	0.0162263
700.607	0.0160569
700.685	0.0160690
700.763	0.0161047
700.841	0.0161024
700.919	0.0161764
700.997	0.0160068
701.075	0.0160334
701.154	0.0161011
701.232	0.0160794
701.310	0.0159966
701.388	0.0161040
701.466	0.0161682
701.544	0.0161589
701.622	0.0162313
701.700	0.0162673
701.779	0.0161312
701.857	0.0160764
701.935	0.0161483
702.013	0.0161852
702.091	0.0161928
702.169	0.0161276
702.247	0.0161939
702.325	0.0161394
702.404	0.0160217
702.482	0.0160297
702.560	0.0160596
702.638	0.0159742
702.716	0.0158102
702.794	0.0159432
702.872	0.0160047
702.950	0.0159706
703.029	0.0159138
703.107	0.0158266
703.185	0.0158585
703.263	0.0158435
703.341	0.0157168
703.419	0.0156748
703.497	0.0156817
703.575	0.0157468
703.654	0.0155917
703.732	0.0156609
703.810	0.0155852
703.888	0.0155405
703.966	0.0155276
704.044	0.0156737
704.122	0.0157380
704.200	0.0158175
704.279	0.0158701
704.357	0.0158318
704.435	0.0159522
704.513	0.0159949
704.591	0.0160773
704.669	0.0160629
704.747	0.0161711
704.825	0.0161218
704.904	0.0161091
704.982	0.0161909
705.060	0.0160941
705.138	0.0158720
705.216	0.0160910
705.294	0.0161232
705.372	0.0159107
705.450	0.0158971
705.529	0.0159812
705.607	0.0160286
705.685	0.0159779
705.763	0.0159657
705.841	0.0160544
705.919	0.0159528
705.997	0.0158937
706.075	0.0161417
706.154	0.0162206
706.232	0.0161532
706.310	0.0161758
706.388	0.0161754
706.466	0.0162978
706.544	0.0161829
706.622	0.0163377
706.700	0.0163727
706.779	0.0162644
706.857	0.0164268
706.935	0.0163236
707.013	0.0163430
707.091	0.0162056
707.169	0.0163216
707.247	0.0163648
707.325	0.0163465
707.404	0.0161960
707.482	0.0161254
707.560	0.0161801
707.638	0.0160606
707.716	0.0160696
707.794	0.0160661
707.872	0.0160891
707.950	0.0158459
708.029	0.0159039
708.107	0.0157870
708.185	0.0157932
708.263	0.0157259
708.341	0.0156870
708.419	0.0156286
708.497	0.0156124
708.575	0.0157085
708.654	0.0156965
708.732	0.0155415
708.810	0.0155470
708.888	0.0156242
708.966	0.0155038
709.044	0.0156219
709.122	0.0156551
709.200	0.0156324
709.279	0.0156980
709.357	0.0156310
709.435	0.0157256
709.513	0.0157152
709.591	0.0155881
709.669	0.0158408
709.747	0.0157201
709.825	0.0157061
709.904	0.0156285
709.982	0.0157261
710.060	0.0156237
710.138	0.0155511
710.216	0.0155753
710.294	0.0154561
710.372	0.0154617
710.450	0.0154232
710.529	0.0153668
710.607	0.0154453
710.685	0.0153569
710.763	0.0154803
710.841	0.0156305
710.919	0.0157671
710.997	0.0156365
711.075	0.0156239
711.154	0.0157207
711.232	0.0157988
711.310	0.0160387
711.388	0.0159776
711.466	0.0160648
711.544	0.0161151
711.622	0.0162669
711.700	0.0162756
711.779	0.0163023
711.857	0.0160724
711.935	0.0161031
712.013	0.0161387
712.091	0.0163186
712.169	0.0163358
712.247	0.0161234
712.325	0.0161133
712.404	0.0160111
712.482	0.0159994
712.560	0.0160448
712.638	0.0160452
712.716	0.0160341
712.794	0.0159842
712.872	0.0159772
712.950	0.0159686
713.029	0.0158868
713.107	0.0159524
713.185	0.0159001
713.263	0.0160265
713.341	0.0160281
713.419	0.0160612
713.497	0.0160529
713.575	0.0159383
713.654	0.0160363
713.732	0.0160917
713.810	0.0159822
713.888	0.0161057
713.966	0.0160990
714.044	0.0161390
714.122	0.0162029
714.200	0.0161122
714.279	0.0160909
714.357	0.0162952
714.435	0.0163521
714.513	0.0161996
714.591	0.0161573
714.669	0.0162364
714.747	0.0161183
714.825	0.0160181
714.904	0.0159187
714.982	0.0160170
715.060	0.0160828
715.138	0.0162046
715.216	0.0161709
715.294	0.0160775
715.372	0.0160583
715.450	0.0161398
715.529	0.0161951
715.607	0.0160114
715.685	0.0162422
715.763	0.0161545
715.841	0.0161842
715.919	0.0162744
715.997	0.0162183
716.075	0.0162772
716.154	0.0162054
716.232	0.0163369
716.310	0.0162299
716.388	0.0163034
716.466	0.0163905
716.544	0.0163773
716.622	0.0162854
716.700	0.0163706
716.779	0.0163934
716.857	0.0164340
716.935	0.0164590
717.013	0.0162722
717.091	0.0160532
717.169	0.0162398
717.247	0.0161665
717.325	0.0161758
717.404	0.0160872
717.482	0.0159784
717.560	0.0160110
717.638	0.0159937
717.716	0.0159018
717.794	0.0158316
717.872	0.0157619
717.950	0.0156763
718.029	0.0158701
718.107	0.0156889
718.185	0.0157175
718.263	0.0158650
718.341	0.0156697
718.419	0.0156918
718.497	0.0156914
718.575	0.0156878
718.654	0.0156540
718.732	0.0155892
718.810	0.0155794
718.888	0.0156910
718.966	0.0156210
719.044	0.0157102
719.122	0.0158055
719.200	0.0157729
719.279	0.0157033
719.357	0.0156966
719.435	0.0157682
719.513	0.0157525
719.591	0.0158095
719.669	0.0158466
719.747	0.0159411
719.825	0.0159722
719.904	0.0159384
719.982	0.0159946
720.060	0.0160479
720.138	0.0159306
720.216	0.0160928
720.294	0.0160156
720.372	0.0161929
720.450	0.0160007
720.529	0.0161414
720.607	0.0162644
720.685	0.0161624
720.763	0.0161732
720.841	0.0161289
720.919	0.0162121
720.997	0.0161783
721.075	0.0161358
721.154	0.0161235
721.232	0.0159545
721.310	0.0160160
721.388	0.0160435
721.466	0.0160746
721.544	0.0159626
721.622	0.0160179
721.700	0.0159385
721.779	0.0160000
721.857	0.0159121
721.935	0.0158332
722.013	0.0157473
722.091	0.0157571
722.169	0.0157336
722.247	0.0158504
722.325	0.0159235
722.404	0.0158339
722.482	0.0158367
722.560	0.0159344
722.638	0.0158638
722.716	0.0159887
722.794	0.0159148
722.872	0.0159780
722.950	0.0159535
723.029	0.0159398
723.107	0.0159498
723.185	0.0159521
723.263	0.0158385
723.341	0.0158385
723.419	0.0158694
723.497	0.0157907
723.575	0.0157929
723.654	0.0158417
723.732	0.0159335
723.810	0.0158341
723.888	0.0158430
723.966	0.0159118
724.044	0.0156477
724.122	0.0158676
724.200	0.0158101
724.279	0.0157239
724.357	0.0157902
724.435	0.0159908
724.513	0.0159371
724.591	0.0159032
724.669	0.0159644
724.747	0.0160293
724.825	0.0159663
724.904	0.0161317
724.982	0.0161361
725.060	0.0161607
725.138	0.0163096
725.216	0.0162058
725.294	0.0162980
725.372	0.0163465
725.450	0.0163326
725.529	0.0163421
725.607	0.0162827
725.685	0.0163757
725.763	0.0164297
725.841	0.0161804
725.919	0.0161365
725.997	0.0162276
726.075	0.0161723
726.154	0.0161389
726.232	0.0160094
726.310	0.0159216
726.388	0.0160134
726.466	0.0159420
726.544	0.0159534
726.622	0.0160100
726.700	0.0158733
726.779	0.0159082
726.857	0.0159853
726.935	0.0158863
727.013	0.0157943
727.091	0.0159200
727.169	0.0159612
727.247	0.0159014
727.325	0.0159082
727.404	0.0159415
727.482	0.0159143
727.560	0.0158079
727.638	0.0158790
727.716	0.0159586
727.794	0.0158764
727.872	0.0158243
727.950	0.0159257
728.029	0.0158264
728.107	0.0159274
728.185	0.0159869
728.263	0.0159377
728.341	0.0159110
728.419	0.0158809
728.497	0.0160550
728.575	0.0160416
728.654	0.0160256
728.732	0.0159917
728.810	0.0161619
728.888	0.0161604
728.966	0.0162323
729.044	0.0163631
729.122	0.0164698
729.200	0.0163198
729.279	0.0162956
729.357	0.0163492
729.435	0.0162321
729.513	0.0162373
729.591	0.0163949
729.669	0.0163115
729.747	0.0162083
729.825	0.0162821
729.904	0.0162612
729.982	0.0161861
730.060	0.0163081
730.138	0.0163190
730.216	0.0162844
730.294	0.0162360
730.372	0.0161795
730.450	0.0161527
730.529	0.0160579
730.607	0.0162488
730.685	0.0160619
730.763	0.0160400
730.841	0.0159957
730.919	0.0161374
730.997	0.0159497
731.075	0.0158542
731.154	0.0159389
731.232	0.0157984
731.310	0.0158022
731.388	0.0158884
731.466	0.0158482
731.544	0.0158447
731.622	0.0158078
731.700	0.0156489
731.779	0.0158365
731.857	0.0157656
731.935	0.0158046
732.013	0.0159553
732.091	0.0159621
732.169	0.0158248
732.247	0.0159813
732.325	0.0160724
732.404	0.0160603
732.482	0.0160530
732.560	0.0160900
732.638	0.0161066
732.716	0.0160779
732.794	0.0160716
732.872	0.0161236
732.950	0.0161273
733.029	0.0161698
733.107	0.0160912
733.185	0.0162430
733.263	0.0162714
733.341	0.0161565
733.419	0.0161684
733.497	0.0160629
733.575	0.0160403
733.654	0.0160316
733.732	0.0161139
733.810	0.0160345
733.888	0.0159486
733.966	0.0158508
734.044	0.0159724
734.122	0.0158086
734.200	0.0158652
734.279	0.0158648
734.357	0.0159066
734.435	0.0158503
734.513	0.0158972
734.591	0.0158093
734.669	0.0159276
734.747	0.0159007
734.825	0.0156991
734.904	0.0158413
734.982	0.0158811
735.060	0.0159046
735.138	0.0158239
735.216	0.0158047
735.294	0.0159841
735.372	0.0158264
735.450	0.0160188
735.529	0.0159811
735.607	0.0159036
735.685	0.0160240
735.763	0.0160212
735.841	0.0160497
735.919	0.0161086
735.997	0.0161340
736.075	0.0161629
736.154	0.0162553
736.232	0.0162881
736.310	0.0162705
736.388	0.0162533
736.466	0.0162566
736.544	0.0163146
736.622	0.0161702
736.700	0.0162019
736.779	0.0162964
736.857	0.0162934
736.935	0.0162013
737.013	0.0161770
737.091	0.0161254
737.169	0.0160748
737.247	0.0160822
737.325	0.0162242
737.404	0.0160825
737.482	0.0161361
737.560	0.0160884
737.638	0.0158984
737.716	0.0159518
737.794	0.0160807
737.872	0.0158664
737.950	0.0157956
738.029	0.0157503
738.107	0.0157744
738.185	0.0158459
738.263	0.0158579
738.341	0.0157220
738.419	0.0157134
738.497	0.0157226
738.575	0.0157317
738.654	0.0156561
738.732	0.0155347
738.810	0.0155033
738.888	0.0156286
738.966	0.0155206
739.044	0.0156181
739.122	0.0154816
739.200	0.0155617
739.279	0.0154813
739.357	0.0155426
739.435	0.0155938
739.513	0.0155575
739.591	0.0156228
739.669	0.0156376
739.747	0.0157021
739.825	0.0157367
739.904	0.0156760
739.982	0.0157409
740.060	0.0158894
740.138	0.0158680
740.216	0.0159790
740.294	0.0160442
740.372	0.0161183
740.450	0.0160722
740.529	0.0159999
740.607	0.0161819
740.685	0.0162090
740.763	0.0162160
740.841	0.0162562
740.919	0.0162331
740.997	0.0161777
741.075	0.0162728
741.154	0.0163273
741.232	0.0163089
741.310	0.0162515
741.388	0.0164784
741.466	0.0163834
741.544	0.0161823
741.622	0.0162668
741.700	0.0162849
741.779	0.0163390
741.857	0.0161372
741.935	0.0162222
742.013	0.0163428
742.091	0.0162103
742.169	0.0160928
742.247	0.0160880
742.325	0.0160513
742.404	0.0161844
742.482	0.0159016
742.560	0.0161172
742.638	0.0161153
742.716	0.0159331
742.794	0.0159469
742.872	0.0160557
742.950	0.0159717
743.029	0.0160645
743.107	0.0162312
743.185	0.0159739
743.263	0.0159398
743.341	0.0158691
743.419	0.0160162
743.497	0.0159949
743.575	0.0159515
743.654	0.0159888
743.732	0.0158935
743.810	0.0157826
743.888	0.0158369
743.966	0.0158957
744.044	0.0158228
744.122	0.0158399
744.200	0.0159840
744.279	0.0159717
744.357	0.0158418
744.435	0.0157927
744.513	0.0158141
744.591	0.0157899
744.669	0.0158076
744.747	0.0159229
744.825	0.0159188
744.904	0.0157012
744.982	0.0159658
745.060	0.0159586
745.138	0.0160210
745.216	0.0159367
745.294	0.0160095
745.372	0.0160841
745.450	0.0160358
745.529	0.0160545
745.607	0.0161813
745.685	0.0161861
745.763	0.0160191
745.841	0.0161440
745.919	0.0162681
745.997	0.0161909
746.075	0.0162998
746.154	0.0163139
746.232	0.0163434
746.310	0.0162917
746.388	0.0162326
746.466	0.0161994
746.544	0.0163222
746.622	0.0162695
746.700	0.0164108
746.779	0.0163312
746.857	0.0161549
746.935	0.0162071
747.013	0.0161801
747.091	0.0160373
747.169	0.0160738
747.247	0.0160635
747.325	0.0160716
747.404	0.0159766
747.482	0.0160640
747.560	0.0158662
747.638	0.0159679
747.716	0.0158347
747.794	0.0158238
747.872	0.0158260
747.950	0.0159566
748.029	0.0157027
748.107	0.0156133
748.185	0.0157600
748.263	0.0156350
748.341	0.0158137
748.419	0.0156805
748.497	0.0156139
748.575	0.0157245
748.654	0.0156920
748.732	0.0156087
748.810	0.0156533
748.888	0.0157064
748.966	0.0157171
749.044	0.0157544
749.122	0.0157045
749.200	0.0157635
749.279	0.0159176
749.357	0.0158539
749.435	0.0158524
749.513	0.0160303
749.591	0.0160410
749.669	0.0160438
749.747	0.0160243
749.825	0.0160991
749.904	0.0161221
749.982	0.0162647
750.060	0.0160952
750.138	0.0162795
750.216	0.0162437
750.294	0.0163262
750.372	0.0164178
750.450	0.0163235
750.529	0.0164262
750.607	0.0164069
750.685	0.0163519
750.763	0.0164676
750.841	0.0164551
750.919	0.0163177
750.997	0.0164662
751.075	0.0163918
751.154	0.0165076
751.232	0.0162634
751.310	0.0162593
751.388	0.0162727
751.466	0.0163097
751.544	0.0162392
751.622	0.0162869
751.700	0.0162039
751.779	0.0161720
751.857	0.0161758
751.935	0.0161388
752.013	0.0160130
752.091	0.0159701
752.169	0.0160255
752.247	0.0159544
752.325	0.0160882
752.404	0.0160201
752.482	0.0158715
752.560	0.0159570
752.638	0.0160804
752.716	0.0158161
752.794	0.0158405
752.872	0.0159885
752.950	0.0158784
753.029	0.0161157
753.107	0.0157680
753.185	0.0158055
753.263	0.0159627
753.341	0.0159317
753.419	0.0160181
753.497	0.0159980
753.575	0.0160827
753.654	0.0159549
753.732	0.0158515
753.810	0.0157658
753.888	0.0158714
753.966	0.0159135
754.044	0.0158779
754.122	0.0159259
754.200	0.0157930
754.279	0.0159101
754.357	0.0159229
754.435	0.0158131
754.513	0.0159734
754.591	0.0158188
754.669	0.0158129
754.747	0.0157097
754.825	0.0157259
754.904	0.0158714
754.982	0.0159129
755.060	0.0159176
755.138	0.0157974
755.216	0.0158152
755.294	0.0158044
755.372	0.0158234
755.450	0.0158326
755.529	0.0158347
755.607	0.0159200
755.685	0.0159207
755.763	0.0158109
755.841	0.0160246
755.919	0.0158502
755.997	0.0159747
756.075	0.0161628
756.154	0.0160388
756.232	0.0158840
756.310	0.0159547
756.388	0.0160543
756.466	0.0159538
756.544	0.0160838
756.622	0.0161842
756.700	0.0161100
756.779	0.0161031
756.857	0.0161722
756.935	0.0164497
757.013	0.0163995
757.091	0.0164712
757.169	0.0164946
757.247	0.0164739
757.325	0.0165151
757.404	0.0165761
757.482	0.0165234
757.560	0.0166326
757.638	0.0165829
757.716	0.0163422
757.794	0.0164786
757.872	0.0166076
757.950	0.0165124
758.029	0.0164462
758.107	0.0165462
758.185	0.0163577
758.263	0.0164609
758.341	0.0164218
758.419	0.0164590
758.497	0.0164542
758.575	0.0163394
758.654	0.0164228
758.732	0.0163397
758.810	0.0163121
758.888	0.0163316
758.966	0.0161829
759.044	0.0161860
759.122	0.0161409
759.200	0.0159920
759.279	0.0161436
759.357	0.0161272
759.435	0.0160659
759.513	0.0159836
759.591	0.0159695
759.669	0.0160017
759.747	0.0158090
759.825	0.0158923
759.904	0.0159999
759.982	0.0159842
760.060	0.0159631
760.138	0.0160530
760.216	0.0160661
760.294	0.0159692
760.372	0.0159313
760.450	0.0158796
760.529	0.0161757
760.607	0.0160227
760.685	0.0160322
760.763	0.0159225
760.841	0.0159989
760.919	0.0160041
760.997	0.0159842
761.075	0.0158988
761.154	0.0159615
761.232	0.0160609
761.310	0.0160383
761.388	0.0159733
761.466	0.0160918
761.544	0.0159465
761.622	0.0159157
761.700	0.0160802
761.779	0.0160817
761.857	0.0159901
761.935	0.0159345
762.013	0.0159901
762.091	0.0159795
762.169	0.0160793
762.247	0.0160457
762.325	0.0160118
762.404	0.0162329
762.482	0.0160724
762.560	0.0160215
762.638	0.0159748
762.716	0.0161517
762.794	0.0159752
762.872	0.0159956
762.950	0.0159375
763.029	0.0160201
763.107	0.0160669
763.185	0.0160007
763.263	0.0160739
763.341	0.0159124
763.419	0.0159904
763.497	0.0160221
763.575	0.0159672
763.654	0.0159826
763.732	0.0159297
763.810	0.0159583
763.888	0.0159509
763.966	0.0158113
764.044	0.0158238
764.122	0.0159370
764.200	0.0159447
764.279	0.0159062
764.357	0.0159275
764.435	0.0158643
764.513	0.0158829
764.591	0.0158748
764.669	0.0157825
764.747	0.0159012
764.825	0.0159898
764.904	0.0159884
764.982	0.0160030
765.060	0.0161659
765.138	0.0161300
765.216	0.0162251
765.294	0.0162666
765.372	0.0162141
765.450	0.0161941
765.529	0.0161726
765.607	0.0162772
765.685	0.0163593
765.763	0.0161475
765.841	0.0164088
765.919	0.0163450
765.997	0.0163895
766.075	0.0164064
766.154	0.0163985
766.232	0.0164075
766.310	0.0163026
766.388	0.0163484
766.466	0.0161253
766.544	0.0163235
766.622	0.0162666
766.700	0.0163755
766.779	0.0162946
766.857	0.0163711
766.935	0.0162044
767.013	0.0162599
767.091	0.0161625
767.169	0.0161864
767.247	0.0162003
767.325	0.0163230
767.404	0.0161938
767.482	0.0161305
767.560	0.0161731
767.638	0.0161770
767.716	0.0160583
767.794	0.0159189
767.872	0.0159511
767.950	0.0159217
768.029	0.0160056
768.107	0.0160565
768.185	0.0159128
768.263	0.0158178
768.341	0.0158625
768.419	0.0158672
768.497	0.0158834
768.575	0.0158268
768.654	0.0159183
768.732	0.0158282
768.810	0.0156916
768.888	0.0158525
768.966	0.0158413
769.044	0.0158227
769.122	0.0158765
769.200	0.0158229
769.279	0.0158900
769.357	0.0157956
769.435	0.0158684
769.513	0.0157372
769.591	0.0157082
769.669	0.0157893
769.747	0.0157458
769.825	0.0159600
769.904	0.0157976
769.982	0.0158344
770.060	0.0158913
770.138	0.0159287
770.216	0.0159270
770.294	0.0159142
770.372	0.0159215
770.450	0.0159291
770.529	0.0159731
770.607	0.0159608
770.685	0.0160640
770.763	0.0159978
770.841	0.0160495
770.919	0.0160913
770.997	0.0161520
771.075	0.0159972
771.154	0.0160224
771.232	0.0160406
771.310	0.0161055
771.388	0.0160352
771.466	0.0159690
771.544	0.0160365
771.622	0.0159825
771.700	0.0159984
771.779	0.0161038
771.857	0.0160062
771.935	0.0160040
772.013	0.0160458
772.091	0.0159787
772.169	0.0160323
772.247	0.0159943
772.325	0.0158986
772.404	0.0158226
772.482	0.0160071
772.560	0.0160393
772.638	0.0159271
772.716	0.0160988
772.794	0.0160883
772.872	0.0160492
772.950	0.0161881
773.029	0.0161996
773.107	0.0161279
773.185	0.0160477
773.263	0.0160990
773.341	0.0161734
773.419	0.0162527
773.497	0.0162192
773.575	0.0161561
773.654	0.0161008
773.732	0.0161135
773.810	0.0160764
773.888	0.0161707
773.966	0.0161386
774.044	0.0159875
774.122	0.0160724
774.200	0.0160960
774.279	0.0161771
774.357	0.0161273
774.435	0.0161162
774.513	0.0161120
774.591	0.0160190
774.669	0.0161310
774.747	0.0161361
774.825	0.0161562
774.904	0.0161366
774.982	0.0160694
775.060	0.0161037
775.138	0.0160426
775.216	0.0161123
775.294	0.0160873
775.372	0.0159525
775.450	0.0160748
775.529	0.0160464
775.607	0.0162328
775.685	0.0160717
775.763	0.0160095
775.841	0.0160500
775.919	0.0159035
775.997	0.0159892
776.075	0.0160567
776.154	0.0159951
776.232	0.0159058
776.310	0.0161480
776.388	0.0160153
776.466	0.0159417
776.544	0.0159518
776.622	0.0158769
776.700	0.0158876
776.779	0.0157722
776.857	0.0157397
776.935	0.0158562
777.013	0.0158916
777.091	0.0158673
777.169	0.0157722
777.247	0.0159285
777.325	0.0157384
777.404	0.0157657
777.482	0.0156612
777.560	0.0156617
777.638	0.0157988
777.716	0.0157078
777.794	0.0157774
777.872	0.0157903
777.950	0.0158884
778.029	0.0157445
778.107	0.0157251
778.185	0.0157939
778.263	0.0160107
778.341	0.0158173
778.419	0.0156375
778.497	0.0157195
778.575	0.0156277
778.654	0.0157123
778.732	0.0156619
778.810	0.0157510
778.888	0.0156915
778.966	0.0156985
779.044	0.0158681
779.122	0.0158531
779.200	0.0157444
779.279	0.0158079
779.357	0.0158672
779.435	0.0158885
779.513	0.0158694
779.591	0.0161343
779.669	0.0158987
779.747	0.0161684
779.825	0.0161546
779.904	0.0161554
779.982	0.0163469
780.060	0.0163156
780.138	0.0162781
780.216	0.0164313
780.294	0.0164626
780.372	0.0162556
780.450	0.0163679
780.529	0.0165389
780.607	0.0164400
780.685	0.0164378
780.763	0.0164674
780.841	0.0163824
780.919	0.0164499
780.997	0.0164957
781.075	0.0163246
781.154	0.0163561
781.232	0.0165061
781.310	0.0164027
781.388	0.0164091
781.466	0.0163065
781.544	0.0162826
781.622	0.0164225
781.700	0.0163742
781.779	0.0161549
781.857	0.0162196
781.935	0.0163437
782.013	0.0162433
782.091	0.0162791
782.169	0.0163310
782.247	0.0162398
782.325	0.0161839
782.404	0.0159468
782.482	0.0161428
782.560	0.0162615
782.638	0.0161529
782.716	0.0161802
782.794	0.0161207
782.872	0.0159893
782.950	0.0162577
783.029	0.0159831
783.107	0.0160516
783.185	0.0160670
783.263	0.0160361
783.341	0.0160677
783.419	0.0159276
783.497	0.0160110
783.575	0.0161039
783.654	0.0158983
783.732	0.0159626
783.810	0.0159109
783.888	0.0160738
783.966	0.0159702
784.044	0.0158190
784.122	0.0158370
784.200	0.0158504
784.279	0.0159246
784.357	0.0160165
784.435	0.0159500
784.513	0.0158443
784.591	0.0159113
784.669	0.0158063
784.747	0.0158707
784.825	0.0158781
784.904	0.0159071
784.982	0.0158797
785.060	0.0160178
785.138	0.0159951
785.216	0.0159125
785.294	0.0158905
785.372	0.0158923
785.450	0.0159005
785.529	0.0159370
785.607	0.0159364
785.685	0.0159943
785.763	0.0159666
785.841	0.0160474
785.919	0.0160760
785.997	0.0159575
786.075	0.0159536
786.154	0.0161610
786.232	0.0161909
786.310	0.0160914
786.388	0.0161580
786.466	0.0160452
786.544	0.0160676
786.622	0.0161542
786.700	0.0161663
786.779	0.0162208
786.857	0.0160831
786.935	0.0162788
787.013	0.0161794
787.091	0.0161275
787.169	0.0162476
787.247	0.0162749
787.325	0.0162088
787.404	0.0160105
787.482	0.0161169
787.560	0.0161719
787.638	0.0160715
787.716	0.0161957
787.794	0.0161022
787.872	0.0161132
787.950	0.0163079
788.029	0.0161211
788.107	0.0160024
788.185	0.0160686
788.263	0.0159525
788.341	0.0160635
788.419	0.0162169
788.497	0.0162135
788.575	0.0160506
788.654	0.0160266
788.732	0.0160889
788.810	0.0160726
788.888	0.0161568
788.966	0.0161548
789.044	0.0159090
789.122	0.0159622
789.200	0.0161165
789.279	0.0160358
789.357	0.0160322
789.435	0.0160100
789.513	0.0158815
789.591	0.0160081
789.669	0.0158596
789.747	0.0159187
789.825	0.0159754
789.904	0.0158930
789.982	0.0158868
790.060	0.0158704
790.138	0.0160182
790.216	0.0159518
790.294	0.0158688
790.372	0.0159617
790.450	0.0159290
790.529	0.0157854
790.607	0.0158316
790.685	0.0160181
790.763	0.0159779
790.841	0.0158640
790.919	0.0158112
790.997	0.0159899
791.075	0.0159967
791.154	0.0159041
791.232	0.0157710
791.310	0.0158012
791.388	0.0158947
791.466	0.0159375
791.544	0.0160183
791.622	0.0159686
791.700	0.0160575
791.779	0.0160452
791.857	0.0160087
791.935	0.0159618
792.013	0.0160190
792.091	0.0160317
792.169	0.0158905
792.247	0.0160894
792.325	0.0157977
792.404	0.0159587
792.482	0.0160375
792.560	0.0157526
792.638	0.0159445
792.716	0.0158739
792.794	0.0158579
792.872	0.0159625
792.950	0.0157605
793.029	0.0157250
793.107	0.0158712
793.185	0.0158788
793.263	0.0157328
793.341	0.0157655
793.419	0.0157589
793.497	0.0157911
793.575	0.0157671
793.654	0.0158168
793.732	0.0157922
793.810	0.0157311
793.888	0.0155808
793.966	0.0157638
794.044	0.0159065
794.122	0.0158484
794.200	0.0157789
794.279	0.0158278
794.357	0.0157964
794.435	0.0158105
794.513	0.0159653
794.591	0.0158151
794.669	0.0160424
794.747	0.0159248
794.825	0.0159457
794.904	0.0160088
794.982	0.0158952
795.060	0.0159206
795.138	0.0159797
795.216	0.0160972
795.294	0.0161555
795.372	0.0160574
795.450	0.0161187
795.529	0.0161128
795.607	0.0159975
795.685	0.0160522
795.763	0.0161436
795.841	0.0162096
795.919	0.0160623
795.997	0.0161376
796.075	0.0162805
796.154	0.0160393
796.232	0.0160429
796.310	0.0160624
796.388	0.0161005
796.466	0.0160228
796.544	0.0161285
796.622	0.0160877
796.700	0.0162191
796.779	0.0161960
796.857	0.0161556
796.935	0.0162191
797.013	0.0160815
797.091	0.0161614
797.169	0.0161864
797.247	0.0159219
797.325	0.0160149
797.404	0.0160443
797.482	0.0161189
797.560	0.0161000
797.638	0.0161203
797.716	0.0160302
797.794	0.0160156
797.872	0.0161499
797.950	0.0160459
798.029	0.0159357
798.107	0.0161221
798.185	0.0160895
798.263	0.0160941
798.341	0.0160538
798.419	0.0161059
798.497	0.0161872
798.575	0.0160516
798.654	0.0159789
798.732	0.0161303
798.810	0.0161385
798.888	0.0160512
798.966	0.0159300
799.044	0.0160275
799.122	0.0159016
799.200	0.0159799
799.279	0.0160056
799.357	0.0159717
799.435	0.0159277
799.513	0.0159587
799.591	0.0159980
799.669	0.0158014
799.747	0.0159447
799.825	0.0159106
799.904	0.0160930
799.982	0.0161284
800.060	0.0161129
800.138	0.0161584
800.216	0.0160750
800.294	0.0163410
800.372	0.0161896
800.450	0.0161769
800.529	0.0163133
800.607	0.0161508
800.685	0.0162083
800.763	0.0162565
800.841	0.0161594
800.919	0.0161301
800.997	0.0162194
801.075	0.0161085
801.154	0.0161481
801.232	0.0160469
801.310	0.0161471
801.388	0.0162093
801.466	0.0160609
801.544	0.0160747
801.622	0.0160698
801.700	0.0159622
801.779	0.0159942
801.857	0.0161315
801.935	0.0160771
802.013	0.0160143
802.091	0.0160870
802.169	0.0161167
802.247	0.0159726
802.325	0.0160880
802.404	0.0160266
802.482	0.0161616
802.560	0.0159861
802.638	0.0160532
802.716	0.0162822
802.794	0.0160928
802.872	0.0162166
802.950	0.0161060
803.029	0.0162282
803.107	0.0161877
803.185	0.0161765
803.263	0.0162373
803.341	0.0161760
803.419	0.0162167
803.497	0.0162304
803.575	0.0162705
803.654	0.0162318
803.732	0.0162849
803.810	0.0161925
803.888	0.0162570
803.966	0.0162092
804.044	0.0159919
804.122	0.0162029
804.200	0.0160969
804.279	0.0161195
804.357	0.0162300
804.435	0.0159859
804.513	0.0159974
804.591	0.0159917
804.669	0.0160487
804.747	0.0159892
804.825	0.0159465
804.904	0.0159024
804.982	0.0158870
805.060	0.0158820
805.138	0.0158206
805.216	0.0158868
805.294	0.0159866
805.372	0.0161280
805.450	0.0160410
805.529	0.0158674
805.607	0.0159617
805.685	0.0159179
805.763	0.0159254
805.841	0.0159962
805.919	0.0160339
805.997	0.0160321
806.075	0.0159461
806.154	0.0158813
806.232	0.0160017
806.310	0.0161112
806.388	0.0159179
806.466	0.0158726
806.544	0.0159132
806.622	0.0158776
806.700	0.0158733
806.779	0.0158846
806.857	0.0159200
806.935	0.0158662
807.013	0.0159263
807.091	0.0158057
807.169	0.0159711
807.247	0.0159178
807.325	0.0159094
807.404	0.0159553
807.482	0.0158256
807.560	0.0160540
807.638	0.0161408
807.716	0.0159750
807.794	0.0160689
807.872	0.0161706
807.950	0.0162222
808.029	0.0161142
808.107	0.0160834
808.185	0.0161363
808.263	0.0162870
808.341	0.0162647
808.419	0.0161443
808.497	0.0161764
808.575	0.0161871
808.654	0.0161919
808.732	0.0162459
808.810	0.0161294
808.888	0.0161155
808.966	0.0161219
809.044	0.0161389
809.122	0.0160629
809.200	0.0160748
809.279	0.0159925
809.357	0.0160316
809.435	0.0160243
809.513	0.0160302
809.591	0.0160115
809.669	0.0160382
809.747	0.0158291
809.825	0.0159291
809.904	0.0160430
809.982	0.0159190
810.060	0.0159419
810.138	0.0160952
810.216	0.0159846
810.294	0.0159794
810.372	0.0159481
810.450	0.0160119
810.529	0.0160113
810.607	0.0159197
810.685	0.0159743
810.763	0.0159493
810.841	0.0159058
810.919	0.0159486
810.997	0.0160673
811.075	0.0160734
811.154	0.0160205
811.232	0.0160081
811.310	0.0161667
811.388	0.0160159
811.466	0.0160972
811.544	0.0160336
811.622	0.0161799
811.700	0.0163274
811.779	0.0162175
811.857	0.0161145
811.935	0.0160880
812.013	0.0161276
812.091	0.0161139
812.169	0.0161241
812.247	0.0159882
812.325	0.0160773
812.404	0.0159151
812.482	0.0159354
812.560	0.0160199
812.638	0.0160931
812.716	0.0159889
812.794	0.0158471
812.872	0.0158861
812.950	0.0158919
813.029	0.0160695
813.107	0.0160514
813.185	0.0158041
813.263	0.0159264
813.341	0.0158975
813.419	0.0158463
813.497	0.0158929
813.575	0.0159677
813.654	0.0159206
813.732	0.0156958
813.810	0.0158526
813.888	0.0159116
813.966	0.0159392
814.044	0.0158273
814.122	0.0157195
814.200	0.0157230
814.279	0.0157562
814.357	0.0158130
814.435	0.0157248
814.513	0.0157994
814.591	0.0158455
814.669	0.0158063
814.747	0.0156250
814.825	0.0156741
814.904	0.0159177
814.982	0.0158738
815.060	0.0158203
815.138	0.0159156
815.216	0.0158746
815.294	0.0158639
815.372	0.0159343
815.450	0.0158811
815.529	0.0158960
815.607	0.0159537
815.685	0.0159614
815.763	0.0161610
815.841	0.0162736
815.919	0.0161673
815.997	0.0161951
816.075	0.0162307
816.154	0.0161111
816.232	0.0163404
816.310	0.0162429
816.388	0.0161903
816.466	0.0161627
816.544	0.0162616
816.622	0.0161626
816.700	0.0161066
816.779	0.0161096
816.857	0.0160732
816.935	0.0159761
817.013	0.0159318
817.091	0.0158784
817.169	0.0158459
817.247	0.0159837
817.325	0.0159807
817.404	0.0158309
817.482	0.0157754
817.560	0.0158134
817.638	0.0158007
817.716	0.0158404
817.794	0.0157624
817.872	0.0158675
817.950	0.0157685
818.029	0.0156799
818.107	0.0158169
818.185	0.0157875
818.263	0.0158061
818.341	0.0157706
818.419	0.0158978
818.497	0.0158125
818.575	0.0160391
818.654	0.0158580
818.732	0.0160546
818.810	0.0159604
818.888	0.0160017
818.966	0.0161960
819.044	0.0161033
819.122	0.0161971
819.200	0.0160900
819.279	0.0161788
819.357	0.0161289
819.435	0.0161224
819.513	0.0161065
819.591	0.0161304
819.669	0.0160639
819.747	0.0161399
819.825	0.0161961
819.904	0.0161324
819.982	0.0161730
820.060	0.0160764
820.138	0.0162081
820.216	0.0162212
820.294	0.0161234
820.372	0.0160808
820.450	0.0161311
820.529	0.0161510
820.607	0.0161831
820.685	0.0162271
820.763	0.0160116
820.841	0.0159783
820.919	0.0161165
820.997	0.0161204
821.075	0.0161311
821.154	0.0160394
821.232	0.0160287
821.310	0.0159826
821.388	0.0158576
821.466	0.0158872
821.544	0.0159341
821.622	0.0159322
821.700	0.0158109
821.779	0.0157264
821.857	0.0155911
821.935	0.0157677
822.013	0.0157276
822.091	0.0156584
822.169	0.0156050
822.247	0.0157461
822.325	0.0155768
822.404	0.0155770
822.482	0.0157165
822.560	0.0158571
822.638	0.0157395
822.716	0.0157130
822.794	0.0158411
822.872	0.0157097
822.950	0.0157526
823.029	0.0159362
823.107	0.0158630
823.185	0.0159151
823.263	0.0159795
823.341	0.0158868
823.419	0.0160189
823.497	0.0160810
823.575	0.0160069
823.654	0.0160921
823.732	0.0161790
823.810	0.0161820
823.888	0.0160580
823.966	0.0162496
824.044	0.0161687
824.122	0.0162347
824.200	0.0161899
824.279	0.0162292
824.357	0.0161610
824.435	0.0160670
824.513	0.0161227
824.591	0.0161203
824.669	0.0159464
824.747	0.0161639
824.825	0.0159936
824.904	0.0159934
824.982	0.0160099
825.060	0.0159895
825.138	0.0160194
825.216	0.0159608
825.294	0.0159378
825.372	0.0158516
825.450	0.0160397
825.529	0.0158572
825.607	0.0159846
825.685	0.0160381
825.763	0.0158038
825.841	0.0158100
825.919	0.0158345
825.997	0.0156408
826.075	0.0158602
826.154	0.0157875
826.232	0.0159374
826.310	0.0157004
826.388	0.0158955
826.466	0.0157719
826.544	0.0158938
826.622	0.0157721
826.700	0.0157865
826.779	0.0158502
826.857	0.0160191
826.935	0.0158920
827.013	0.0159650
827.091	0.0159328
827.169	0.0158957
827.247	0.0160280
827.325	0.0160052
827.404	0.0159907
827.482	0.0161157
827.560	0.0161419
827.638	0.0162538
827.716	0.0161823
827.794	0.0161900
827.872	0.0162497
827.950	0.0164594
828.029	0.0162249
828.107	0.0162870
828.185	0.0162933
828.263	0.0165211
828.341	0.0165247
828.419	0.0162758
828.497	0.0164087
828.575	0.0163496
828.654	0.0163164
828.732	0.0164878
828.810	0.0162976
828.888	0.0162096
828.966	0.0162527
829.044	0.0161636
829.122	0.0162281
829.200	0.0160857
829.279	0.0161826
829.357	0.0162064
829.435	0.0159586
829.513	0.0159304
829.591	0.0160596
829.669	0.0160091
829.747	0.0160069
829.825	0.0160464
829.904	0.0160361
829.982	0.0160440
830.060	0.0161086
830.138	0.0160028
830.216	0.0161564
830.294	0.0161169
830.372	0.0161127
830.450	0.0160941
830.529	0.0160474
830.607	0.0161079
830.685	0.0161466
830.763	0.0161614
830.841	0.0160902
830.919	0.0162239
830.997	0.0163216
831.075	0.0162514
831.154	0.0162437
831.232	0.0161249
831.310	0.0161600
831.388	0.0162048
831.466	0.0162649
831.544	0.0161925
831.622	0.0161652
831.700	0.0161623
831.779	0.0162960
831.857	0.0161236
831.935	0.0162354
832.013	0.0161174
832.091	0.0163122
832.169	0.0161370
832.247	0.0161986
832.325	0.0161611
832.404	0.0161349
832.482	0.0160855
832.560	0.0162173
832.638	0.0161565
832.716	0.0161177
832.794	0.0160690
832.872	0.0160309
832.950	0.0159507
833.029	0.0159902
833.107	0.0160044
833.185	0.0159171
833.263	0.0159908
833.341	0.0159905
833.419	0.0158981
833.497	0.0161338
833.575	0.0160243
833.654	0.0158330
833.732	0.0157982
833.810	0.0157557
833.888	0.0160317
833.966	0.0157615
834.044	0.0158838
834.122	0.0157533
834.200	0.0157168
834.279	0.0158862
834.357	0.0158491
834.435	0.0158074
834.513	0.0157946
834.591	0.0159080
834.669	0.0158942
834.747	0.0157968
834.825	0.0160570
834.904	0.0160369
834.982	0.0159644
835.060	0.0160926
835.138	0.0161261
835.216	0.0161261
835.294	0.0161298
835.372	0.0159619
835.450	0.0161391
835.529	0.0161576
835.607	0.0161221
835.685	0.0160808
835.763	0.0161445
835.841	0.0160648
835.919	0.0160416
835.997	0.0159581
836.075	0.0159647
836.154	0.0159460
836.232	0.0159352
836.310	0.0159661
836.388	0.0160208
836.466	0.0159231
836.544	0.0159389
836.622	0.0160123
836.700	0.0158130
836.779	0.0160061
836.857	0.0158865
836.935	0.0158521
837.013	0.0159482
837.091	0.0157973
837.169	0.0158894
837.247	0.0158232
837.325	0.0159178
837.404	0.0157085
837.482	0.0159040
837.560	0.0159721
837.638	0.0158934
837.716	0.0159222
837.794	0.0158161
837.872	0.0159455
837.950	0.0159505
838.029	0.0161091
838.107	0.0160717
838.185	0.0159558
838.263	0.0160709
838.341	0.0161954
838.419	0.0160152
838.497	0.0161333
838.575	0.0161864
838.654	0.0163120
838.732	0.0161402
838.810	0.0161668
838.888	0.0161984
838.966	0.0162112
839.044	0.0160692
839.122	0.0162014
839.200	0.0160754
839.279	0.0160299
839.357	0.0161201
839.435	0.0160493
839.513	0.0160686
839.591	0.0159264
839.669	0.0159786
839.747	0.0160095
839.825	0.0159032
839.904	0.0159615
839.982	0.0158852
840.060	0.0159910
840.138	0.0158131
840.216	0.0158348
840.294	0.0158591
840.372	0.0157205
840.450	0.0158258
840.529	0.0158440
840.607	0.0157930
840.685	0.0157152
840.763	0.0157482
840.841	0.0157635
840.919	0.0158219
840.997	0.0157710
841.075	0.0157148
841.154	0.0157700
841.232	0.0157805
841.310	0.0157621
841.388	0.0158517
841.466	0.0157590
841.544	0.0159487
841.622	0.0159927
841.700	0.0158537
841.779	0.0159240
841.857	0.0159609
841.935	0.0160301
842.013	0.0159681
842.091	0.0160739
842.169	0.0160220
842.247	0.0159774
842.325	0.0160773
842.404	0.0159982
842.482	0.0160130
842.560	0.0161616
842.638	0.0160928
842.716	0.0160846
842.794	0.0158686
842.872	0.0160392
842.950	0.0160680
843.029	0.0160523
843.107	0.0160626
843.185	0.0160267
843.263	0.0159889
843.341	0.0161390
843.419	0.0161916
843.497	0.0159758
843.575	0.0160707
843.654	0.0160265
843.732	0.0160667
843.810	0.0161765
843.888	0.0160637
843.966	0.0160745
844.044	0.0160049
844.122	0.0160666
844.200	0.0161015
844.279	0.0159179
844.357	0.0159491
844.435	0.0159925
844.513	0.0161140
844.591	0.0160863
844.669	0.0162164
844.747	0.0161711
844.825	0.0160458
844.904	0.0160885
844.982	0.0161710
845.060	0.0160907
845.138	0.0161551
845.216	0.0160907
845.294	0.0161964
845.372	0.0162012
845.450	0.0161243
845.529	0.0160692
845.607	0.0162421
845.685	0.0161734
845.763	0.0163599
845.841	0.0161756
845.919	0.0159889
845.997	0.0161265
846.075	0.0161855
846.154	0.0160572
846.232	0.0160718
846.310	0.0160722
846.388	0.0159819
846.466	0.0160188
846.544	0.0158382
846.622	0.0159657
846.700	0.0160449
846.779	0.0159455
846.857	0.0158929
846.935	0.0158823
847.013	0.0159023
847.091	0.0158013
847.169	0.0158576
847.247	0.0158887
847.325	0.0157501
847.404	0.0157895
847.482	0.0158969
847.560	0.0158538
847.638	0.0156890
847.716	0.0157800
847.794	0.0160239
847.872	0.0160386
847.950	0.0156972
848.029	0.0158592
848.107	0.0160016
848.185	0.0160141
848.263	0.0160434
848.341	0.0159535
848.419	0.0160847
848.497	0.0160767
848.575	0.0161931
848.654	0.0161783
848.732	0.0162429
848.810	0.0161890
848.888	0.0162333
848.966	0.0162125
849.044	0.0162698
849.122	0.0162215
849.200	0.0161936
849.279	0.0162155
849.357	0.0162334
849.435	0.0162408
849.513	0.0161829
849.591	0.0161262
849.669	0.0162416
849.747	0.0161383
849.825	0.0161970
849.904	0.0161826
849.982	0.0161875
850.060	0.0161048
850.138	0.0161883
850.216	0.0162061
850.294	0.0162553
850.372	0.0161163
850.450	0.0160716
850.529	0.0161358
850.607	0.0162176
850.685	0.0162303
850.763	0.0161478
850.841	0.0162128
850.919	0.0162088
850.997	0.0161703
851.075	0.0161852
851.154	0.0161671
851.232	0.0161922
851.310	0.0161566
851.388	0.0161613
851.466	0.0160488
851.544	0.0161801
851.622	0.0162134
851.700	0.0160450
851.779	0.0160754
851.857	0.0160207
851.935	0.0159810
852.013	0.0158660
852.091	0.0158263
852.169	0.0158609
852.247	0.0158472
852.325	0.0158083
852.404	0.0157637
852.482	0.0157330
852.560	0.0158250
852.638	0.0158688
852.716	0.0158594
852.794	0.0158772
852.872	0.0158794
852.950	0.0158884
853.029	0.0157846
853.107	0.0158949
853.185	0.0159243
853.263	0.0159531
853.341	0.0159435
853.419	0.0159974
853.497	0.0159847
853.575	0.0160445
853.654	0.0159338
853.732	0.0160120
853.810	0.0161231
853.888	0.0161337
853.966	0.0161366
854.044	0.0161123
854.122	0.0161072
854.200	0.0162144
854.279	0.0160265
854.357	0.0160760
854.435	0.0161516
854.513	0.0160973
854.591	0.0161818
854.669	0.0161957
854.747	0.0159973
854.825	0.0159718
854.904	0.0160949
854.982	0.0161891
855.060	0.0161260
855.138	0.0161312
855.216	0.0159936
855.294	0.0160838
855.372	0.0161008
855.450	0.0160025
855.529	0.0160507
855.607	0.0159619
855.685	0.0159076
855.763	0.0160503
855.841	0.0161201
855.919	0.0160778
855.997	0.0159644
856.075	0.0159416
856.154	0.0158869
856.232	0.0159613
856.310	0.0159505
856.388	0.0158700
856.466	0.0159290
856.544	0.0158858
856.622	0.0158961
856.700	0.0158755
856.779	0.0157420
856.857	0.0158485
856.935	0.0159755
857.013	0.0158260
857.091	0.0157223
857.169	0.0159871
857.247	0.0158998
857.325	0.0157797
857.404	0.0158100
857.482	0.0159562
857.560	0.0158356
857.638	0.0158040
857.716	0.0159177
857.794	0.0158244
857.872	0.0157751
857.950	0.0157565
858.029	0.0158191
858.107	0.0158021
858.185	0.0157120
858.263	0.0158951
858.341	0.0157731
858.419	0.0157534
858.497	0.0158542
858.575	0.0158558
858.654	0.0157854
858.732	0.0160033
858.810	0.0158916
858.888	0.0159293
858.966	0.0159639
859.044	0.0158107
859.122	0.0159557
859.200	0.0159885
859.279	0.0159393
859.357	0.0161290
859.435	0.0160491
859.513	0.0160619
859.591	0.0160540
859.669	0.0160290
859.747	0.0159673
859.825	0.0160878
859.904	0.0160828
859.982	0.0158470
860.060	0.0160195
860.138	0.0161874
860.216	0.0161870
860.294	0.0161131
860.372	0.0161508
860.450	0.0161423
860.529	0.0161160
860.607	0.0162325
860.685	0.0161266
860.763	0.0162702
860.841	0.0162720
860.919	0.0163142
860.997	0.0162448
861.075	0.0162521
861.154	0.0162110
861.232	0.0162376
861.310	0.0162411
861.388	0.0162667
861.466	0.0163046
861.544	0.0162457
861.622	0.0162221
861.700	0.0161319
861.779	0.0160167
861.857	0.0161363
861.935	0.0160538
862.013	0.0160178
862.091	0.0161249
862.169	0.0160475
862.247	0.0159615
862.325	0.0160847
862.404	0.0160269
862.482	0.0159225
862.560	0.0159076
862.638	0.0159171
862.716	0.0160267
862.794	0.0160218
862.872	0.0160080
862.950	0.0160924
863.029	0.0160642
863.107	0.0160130
863.185	0.0160983
863.263	0.0160474
863.341	0.0159915
863.419	0.0162453
863.497	0.0160408
863.575	0.0161137
863.654	0.0160934
863.732	0.0160777
863.810	0.0160345
863.888	0.0160458
863.966	0.0160608
864.044	0.0160933
864.122	0.0160690
864.200	0.0160751
864.279	0.0160564
864.357	0.0160374
864.435	0.0160358
864.513	0.0159763
864.591	0.0161015
864.669	0.0161267
864.747	0.0161081
864.825	0.0159905
864.904	0.0161610
864.982	0.0159747
865.060	0.0159046
865.138	0.0159731
865.216	0.0159942
865.294	0.0160591
865.372	0.0160076
865.450	0.0159203
865.529	0.0159491
865.607	0.0158715
865.685	0.0157569
865.763	0.0158642
865.841	0.0159782
865.919	0.0159734
865.997	0.0160048
866.075	0.0160781
866.154	0.0159394
866.232	0.0160093
866.310	0.0160696
866.388	0.0160206
866.466	0.0158807
866.544	0.0159944
866.622	0.0159746
866.700	0.0160478
866.779	0.0159763
866.857	0.0162237
866.935	0.0161435
867.013	0.0160125
867.091	0.0160329
867.169	0.0160822
867.247	0.0160319
867.325	0.0160548
867.404	0.0160445
867.482	0.0161304
867.560	0.0162407
867.638	0.0161578
867.716	0.0159798
867.794	0.0161187
867.872	0.0161626
867.950	0.0160699
868.029	0.0159740
868.107	0.0160602
868.185	0.0160588
868.263	0.0161259
868.341	0.0160928
868.419	0.0161475
868.497	0.0161091
868.575	0.0161677
868.654	0.0160162
868.732	0.0160301
868.810	0.0159623
868.888	0.0161380
868.966	0.0161139
869.044	0.0160449
869.122	0.0160162
869.200	0.0160557
869.279	0.0159948
869.357	0.0160030
869.435	0.0160902
869.513	0.0159795
869.591	0.0161145
869.669	0.0160410
869.747	0.0161098
869.825	0.0160416
869.904	0.0159325
869.982	0.0161103
870.060	0.0160426
870.138	0.0159927
870.216	0.0159278
870.294	0.0160838
870.372	0.0159679
870.450	0.0157602
870.529	0.0159263
870.607	0.0160309
870.685	0.0159595
870.763	0.0158477
870.841	0.0158530
870.919	0.0158584
870.997	0.0158350
871.075	0.0160003
871.154	0.0160445
871.232	0.0159779
871.310	0.0159344
871.388	0.0159171
871.466	0.0160097
871.544	0.0161002
871.622	0.0159855
871.700	0.0159479
871.779	0.0160243
871.857	0.0161064
871.935	0.0160999
872.013	0.0160895
872.091	0.0160075
872.169	0.0159794
872.247	0.0160378
872.325	0.0160136
872.404	0.0160432
872.482	0.0160536
872.560	0.0160043
872.638	0.0159882
872.716	0.0159559
872.794	0.0158759
872.872	0.0160379
872.950	0.0159839
873.029	0.0159436
873.107	0.0159001
873.185	0.0159723
873.263	0.0160120
873.341	0.0161057
873.419	0.0161543
873.497	0.0161256
873.575	0.0159837
873.654	0.0161420
873.732	0.0161058
873.810	0.0160810
873.888	0.0160181
873.966	0.0160581
874.044	0.0161081
874.122	0.0160029
874.200	0.0161008
874.279	0.0162077
874.357	0.0160534
874.435	0.0159828
874.513	0.0160406
874.591	0.0161224
874.669	0.0159158
874.747	0.0159786
874.825	0.0160195
874.904	0.0160258
874.982	0.0160897
875.060	0.0159788
875.138	0.0158795
875.216	0.0161701
875.294	0.0158764
875.372	0.0158562
875.450	0.0160070
875.529	0.0160782
875.607	0.0160208
875.685	0.0159297
875.763	0.0157562
875.841	0.0159509
875.919	0.0158884
875.997	0.0160103
876.075	0.0160491
876.154	0.0158741
876.232	0.0158873
876.310	0.0160135
876.388	0.0159946
876.466	0.0159366
876.544	0.0158662
876.622	0.0159611
876.700	0.0160573
876.779	0.0159731
876.857	0.0158880
876.935	0.0159278
877.013	0.0159260
877.091	0.0158432
877.169	0.0158206
877.247	0.0158438
877.325	0.0158591
877.404	0.0158260
877.482	0.0158670
877.560	0.0158456
877.638	0.0158279
877.716	0.0158295
877.794	0.0157944
877.872	0.0160012
877.950	0.0160535
878.029	0.0159441
878.107	0.0159760
878.185	0.0160101
878.263	0.0160092
878.341	0.0159848
878.419	0.0160610
878.497	0.0160422
878.575	0.0160793
878.654	0.0159667
878.732	0.0161324
878.810	0.0160923
878.888	0.0161248
878.966	0.0161472
879.044	0.0160207
879.122	0.0160643
879.200	0.0160676
879.279	0.0160196
879.357	0.0159669
879.435	0.0161105
879.513	0.0160780
879.591	0.0161386
879.669	0.0160736
879.747	0.0160473
879.825	0.0159674
879.904	0.0160490
879.982	0.0160477
880.060	0.0159472
880.138	0.0160518
880.216	0.0160389
880.294	0.0160231
880.372	0.0159915
880.450	0.0160270
880.529	0.0160468
880.607	0.0160045
880.685	0.0159889
880.763	0.0158936
880.841	0.0161115
880.919	0.0159738
880.997	0.0159486
881.075	0.0160848
881.154	0.0160520
881.232	0.0160298
881.310	0.0159763
881.388	0.0158638
881.466	0.0158727
881.544	0.0158151
881.622	0.0159669
881.700	0.0159958
881.779	0.0159641
881.857	0.0158849
881.935	0.0158715
882.013	0.0159515
882.091	0.0159419
882.169	0.0158696
882.247	0.0159486
882.325	0.0159462
882.404	0.0159723
882.482	0.0157533
882.560	0.0159730
882.638	0.0160783
882.716	0.0158556
882.794	0.0157197
882.872	0.0158033
882.950	0.0157655
883.029	0.0158841
883.107	0.0159387
883.185	0.0159066
883.263	0.0158954
883.341	0.0160348
883.419	0.0160368
883.497	0.0160758
883.575	0.0161466
883.654	0.0159675
883.732	0.0161575
883.810	0.0162089
883.888	0.0159779
883.966	0.0161032
884.044	0.0161752
884.122	0.0160709
884.200	0.0160800
884.279	0.0160897
884.357	0.0160717
884.435	0.0160368
884.513	0.0162160
884.591	0.0160416
884.669	0.0160639
884.747	0.0161720
884.825	0.0161004
884.904	0.0161842
884.982	0.0162253
885.060	0.0161027
885.138	0.0161688
885.216	0.0162105
885.294	0.0160186
885.372	0.0158718
885.450	0.0161206
885.529	0.0161297
885.607	0.0160270
885.685	0.0159277
885.763	0.0159869
885.841	0.0159288
885.919	0.0159887
885.997	0.0159410
886.075	0.0159875
886.154	0.0160479
886.232	0.0158869
886.310	0.0160622
886.388	0.0160049
886.466	0.0158952
886.544	0.0158488
886.622	0.0159986
886.700	0.0160604
886.779	0.0159463
886.857	0.0159335
886.935	0.0158617
887.013	0.0160371
887.091	0.0160727
887.169	0.0158892
887.247	0.0160804
887.325	0.0159628
887.404	0.0160034
887.482	0.0160788
887.560	0.0159869
887.638	0.0159837
887.716	0.0159827
887.794	0.0160372
887.872	0.0160801
887.950	0.0160050
888.029	0.0161467
888.107	0.0160313
888.185	0.0159578
888.263	0.0159960
888.341	0.0161151
888.419	0.0160434
888.497	0.0160455
888.575	0.0160318
888.654	0.0160555
888.732	0.0160390
888.810	0.0160682
888.888	0.0160954
888.966	0.0160802
889.044	0.0159883
889.122	0.0161050
889.200	0.0160571
889.279	0.0161456
889.357	0.0161388
889.435	0.0159429
889.513	0.0161026
889.591	0.0161018
889.669	0.0161023
889.747	0.0162170
889.825	0.0160861
889.904	0.0161823
889.982	0.0160715
890.060	0.0161110
890.138	0.0161016
890.216	0.0160513
890.294	0.0162317
890.372	0.0161942
890.450	0.0159731
890.529	0.0160098
890.607	0.0162525
890.685	0.0160137
890.763	0.0159518
890.841	0.0160374
890.919	0.0161250
890.997	0.0160236
891.075	0.0159796
891.154	0.0160437
891.232	0.0159712
891.310	0.0160013
891.388	0.0158984
891.466	0.0160048
891.544	0.0160051
891.622	0.0159960
891.700	0.0159117
891.779	0.0160032
891.857	0.0159280
891.935	0.0158987
892.013	0.0160974
892.091	0.0159515
892.169	0.0160217
892.247	0.0158652
892.325	0.0159365
892.404	0.0158054
892.482	0.0160267
892.560	0.0159235
892.638	0.0160448
892.716	0.0159779
892.794	0.0160056
892.872	0.0160432
892.950	0.0161377
893.029	0.0160947
893.107	0.0161386
893.185	0.0162174
893.263	0.0161954
893.341	0.0162792
893.419	0.0162166
893.497	0.0162088
893.575	0.0162072
893.654	0.0161090
893.732	0.0162154
893.810	0.0162656
893.888	0.0163067
893.966	0.0161765
894.044	0.0161430
894.122	0.0162442
894.200	0.0162716
894.279	0.0162090
894.357	0.0162545
894.435	0.0162437
894.513	0.0161612
894.591	0.0162694
894.669	0.0160737
894.747	0.0161966
894.825	0.0160642
894.904	0.0161360
894.982	0.0160256
895.060	0.0160616
895.138	0.0161468
895.216	0.0159988
895.294	0.0160195
895.372	0.0160885
895.450	0.0160281
895.529	0.0159948
895.607	0.0159927
895.685	0.0161165
895.763	0.0159818
895.841	0.0161533
895.919	0.0160343
895.997	0.0160423
896.075	0.0159909
896.154	0.0161479
896.232	0.0160024
896.310	0.0160204
896.388	0.0159970
896.466	0.0159829
896.544	0.0160336
896.622	0.0160313
896.700	0.0160686
896.779	0.0158790
896.857	0.0160590
896.935	0.0160133
897.013	0.0159793
897.091	0.0159844
897.169	0.0159430
897.247	0.0159558
897.325	0.0159722
897.404	0.0161180
897.482	0.0160281
897.560	0.0159792
897.638	0.0159657
897.716	0.0160034
897.794	0.0159711
897.872	0.0160484
897.950	0.0159198
898.029	0.0160051
898.107	0.0159595
898.185	0.0160092
898.263	0.0158872
898.341	0.0158794
898.419	0.0159435
898.497	0.0159821
898.575	0.0160060
898.654	0.0160575
898.732	0.0159898
898.810	0.0158993
898.888	0.0160995
898.966	0.0160354
899.044	0.0159175
899.122	0.0160017
899.200	0.0159106
899.279	0.0158771
899.357	0.0158580
899.435	0.0158374
899.513	0.0158406
899.591	0.0157588
899.669	0.0157180
899.747	0.0159118
899.825	0.0159067
899.904	0.0157159
899.982	0.0157621
900.060	0.0159202
900.138	0.0158514
900.216	0.0158946
900.294	0.0157150
900.372	0.0159203
900.450	0.0158947
900.529	0.0158363
900.607	0.0158750
900.685	0.0157798
900.763	0.0159386
900.841	0.0158751
900.919	0.0158460
900.997	0.0158482
901.075	0.0157713
901.154	0.0158645
901.232	0.0158575
901.310	0.0158796
901.388	0.0158829
901.466	0.0160044
901.544	0.0158824
901.622	0.0158881
901.700	0.0159068
901.779	0.0158607
901.857	0.0158637
901.935	0.0158848
902.013	0.0158669
902.091	0.0159083
902.169	0.0157891
902.247	0.0159801
902.325	0.0159366
902.404	0.0159704
902.482	0.0159454
902.560	0.0159938
902.638	0.0161227
902.716	0.0159324
902.794	0.0160272
902.872	0.0159944
902.950	0.0161296
903.029	0.0159048
903.107	0.0160260
903.185	0.0160539
903.263	0.0158980
903.341	0.0161417
903.419	0.0160133
903.497	0.0159312
903.575	0.0159602
903.654	0.0160669
903.732	0.0159652
903.810	0.0160991
903.888	0.0160250
903.966	0.0159241
904.044	0.0158545
904.122	0.0159973
904.200	0.0159444
904.279	0.0160438
904.357	0.0158936
904.435	0.0160084
904.513	0.0160856
904.591	0.0159851
904.669	0.0161160
904.747	0.0158597
904.825	0.0159951
904.904	0.0161706
904.982	0.0161935
905.060	0.0160905
905.138	0.0160915
905.216	0.0160222
905.294	0.0160054
905.372	0.0160671
905.450	0.0160173
905.529	0.0161263
905.607	0.0160875
905.685	0.0159481
905.763	0.0160844
905.841	0.0160429
905.919	0.0159830
905.997	0.0160318
906.075	0.0159928
906.154	0.0160326
906.232	0.0159027
906.310	0.0158965
906.388	0.0160046
906.466	0.0160330
906.544	0.0159597
906.622	0.0160334
906.700	0.0160471
906.779	0.0160050
906.857	0.0160027
906.935	0.0160173
907.013	0.0159275
907.091	0.0159670
907.169	0.0159123
907.247	0.0159942
907.325	0.0160625
907.404	0.0161047
907.482	0.0160520
907.560	0.0160015
907.638	0.0159640
907.716	0.0159096
907.794	0.0160217
907.872	0.0160777
907.950	0.0160680
908.029	0.0160757
908.107	0.0159073
908.185	0.0160535
908.263	0.0162469
908.341	0.0161012
908.419	0.0159679
908.497	0.0161602
908.575	0.0161669
908.654	0.0160635
908.732	0.0161598
908.810	0.0159747
908.888	0.0158900
908.966	0.0159710
909.044	0.0160503
909.122	0.0160503
909.200	0.0158953
909.279	0.0160091
909.357	0.0160458
909.435	0.0160193
909.513	0.0159892
909.591	0.0158163
909.669	0.0159274
909.747	0.0160072
909.825	0.0158811
909.904	0.0161177
909.982	0.0160735
910.060	0.0159325
910.138	0.0160230
910.216	0.0160265
910.294	0.0159680
910.372	0.0160043
910.450	0.0159436
910.529	0.0160398
910.607	0.0160251
910.685	0.0161447
910.763	0.0160300
910.841	0.0159159
910.919	0.0159719
910.997	0.0159798
911.075	0.0160773
911.154	0.0160059
911.232	0.0159698
911.310	0.0160228
911.388	0.0161227
911.466	0.0160181
911.544	0.0160175
911.622	0.0161599
911.700	0.0161835
911.779	0.0162647
911.857	0.0160889
911.935	0.0162799
912.013	0.0162437
912.091	0.0162021
912.169	0.0161960
912.247	0.0163099
912.325	0.0162728
912.404	0.0161546
912.482	0.0163490
912.560	0.0164033
912.638	0.0163971
912.716	0.0162988
912.794	0.0163061
912.872	0.0162744
912.950	0.0163107
913.029	0.0163541
913.107	0.0162970
913.185	0.0163188
913.263	0.0162391
913.341	0.0163130
913.419	0.0162474
913.497	0.0162231
913.575	0.0161482
913.654	0.0162155
913.732	0.0161777
913.810	0.0161639
913.888	0.0159911
913.966	0.0160269
914.044	0.0159219
914.122	0.0159451
914.200	0.0158653
914.279	0.0159530
914.357	0.0159527
914.435	0.0159250
914.513	0.0159438
914.591	0.0158930
914.669	0.0158996
914.747	0.0159197
914.825	0.0158683
914.904	0.0159018
914.982	0.0158588
915.060	0.0159854
915.138	0.0159155
915.216	0.0158745
915.294	0.0160339
915.372	0.0160343
915.450	0.0159505
915.529	0.0160435
915.607	0.0160175
915.685	0.0160472
915.763	0.0160854
915.841	0.0160588
915.919	0.0160249
915.997	0.0159112
916.075	0.0160312
916.154	0.0159570
916.232	0.0159893
916.310	0.0161411
916.388	0.0161597
916.466	0.0160731
916.544	0.0161524
916.622	0.0161079
916.700	0.0160052
916.779	0.0161077
916.857	0.0161482
916.935	0.0161518
917.013	0.0162474
917.091	0.0162045
917.169	0.0162143
917.247	0.0161458
917.325	0.0161919
917.404	0.0163001
917.482	0.0163679
917.560	0.0162163
917.638	0.0161877
917.716	0.0162459
917.794	0.0161607
917.872	0.0161714
917.950	0.0162457
918.029	0.0162135
918.107	0.0161375
918.185	0.0161274
918.263	0.0160693
918.341	0.0160165
918.419	0.0159634
918.497	0.0159587
918.575	0.0159650
918.654	0.0159516
918.732	0.0158949
918.810	0.0159122
918.888	0.0159554
918.966	0.0159514
919.044	0.0158583
919.122	0.0158584
919.200	0.0158875
919.279	0.0158301
919.357	0.0160856
919.435	0.0158392
919.513	0.0158483
919.591	0.0159235
919.669	0.0160220
919.747	0.0159534
919.825	0.0160567
919.904	0.0159743
