05/24/2022	20:49:32	Ver.	4.1	UNKNOWN
Optical Delay	599.981738	Delta X		0.078125	Sweeps	1	Scan Rate	0/0
Coordinates	Axis 1	NaN	Axis 2	NaN	Axis 3	NaN	Axis 4	NaN	Axis 5	NaN	Axis 6	0.000000
TX Power	0.000000	RX Power	0.000000

599.982	0.0163459
600.060	0.0161265
600.138	0.0160999
600.216	0.0160487
600.294	0.0160276
600.372	0.0160152
600.450	0.0161227
600.529	0.0159340
600.607	0.0159941
600.685	0.0160932
600.763	0.0160075
600.841	0.0160345
600.919	0.0161193
600.997	0.0160792
601.075	0.0161342
601.154	0.0160960
601.232	0.0160672
601.310	0.0160936
601.388	0.0161178
601.466	0.0161175
601.544	0.0160523
601.622	0.0163087
601.700	0.0160871
601.779	0.0161788
601.857	0.0162088
601.935	0.0162002
602.013	0.0161836
602.091	0.0162038
602.169	0.0162900
602.247	0.0161551
602.325	0.0161288
602.404	0.0161172
602.482	0.0161777
602.560	0.0161809
602.638	0.0161244
602.716	0.0162089
602.794	0.0163016
602.872	0.0162309
602.950	0.0162798
603.029	0.0161754
603.107	0.0163080
603.185	0.0160901
603.263	0.0161793
603.341	0.0162368
603.419	0.0161160
603.497	0.0161737
603.575	0.0162163
603.654	0.0161085
603.732	0.0161565
603.810	0.0162868
603.888	0.0161526
603.966	0.0161838
604.044	0.0161443
604.122	0.0163068
604.200	0.0163148
604.279	0.0162249
604.357	0.0162723
604.435	0.0162458
604.513	0.0164005
604.591	0.0163319
604.669	0.0162469
604.747	0.0161924
604.825	0.0163519
604.904	0.0164023
604.982	0.0163313
605.060	0.0163060
605.138	0.0163831
605.216	0.0163045
605.294	0.0163734
605.372	0.0163712
605.450	0.0162777
605.529	0.0163533
605.607	0.0162940
605.685	0.0162354
605.763	0.0162026
605.841	0.0163428
605.919	0.0162029
605.997	0.0162294
606.075	0.0162952
606.154	0.0164129
606.232	0.0165191
606.310	0.0162177
606.388	0.0164296
606.466	0.0164938
606.544	0.0164849
606.622	0.0165762
606.700	0.0166553
606.779	0.0164956
606.857	0.0166036
606.935	0.0165892
607.013	0.0165103
607.091	0.0165255
607.169	0.0167242
607.247	0.0166290
607.325	0.0166024
607.404	0.0164940
607.482	0.0165659
607.560	0.0164736
607.638	0.0165298
607.716	0.0165139
607.794	0.0163738
607.872	0.0164212
607.950	0.0163950
608.029	0.0164322
608.107	0.0164539
608.185	0.0163954
608.263	0.0163730
608.341	0.0163554
608.419	0.0163391
608.497	0.0163696
608.575	0.0164590
608.654	0.0163240
608.732	0.0163304
608.810	0.0161877
608.888	0.0164040
608.966	0.0164633
609.044	0.0164291
609.122	0.0163380
609.200	0.0163213
609.279	0.0162714
609.357	0.0163206
609.435	0.0161786
609.513	0.0163087
609.591	0.0161121
609.669	0.0162315
609.747	0.0163589
609.825	0.0163316
609.904	0.0163866
609.982	0.0163845
610.060	0.0165167
610.138	0.0165402
610.216	0.0166798
610.294	0.0166174
610.372	0.0167361
610.450	0.0169098
610.529	0.0168996
610.607	0.0167841
610.685	0.0168511
610.763	0.0169424
610.841	0.0168902
610.919	0.0167844
610.997	0.0169004
611.075	0.0166750
611.154	0.0165842
611.232	0.0165820
611.310	0.0164843
611.388	0.0164370
611.466	0.0163816
611.544	0.0161892
611.622	0.0161457
611.700	0.0162729
611.779	0.0161461
611.857	0.0160690
611.935	0.0161402
612.013	0.0160173
612.091	0.0160486
612.169	0.0160497
612.247	0.0160751
612.325	0.0161131
612.404	0.0161418
612.482	0.0161269
612.560	0.0162494
612.638	0.0162756
612.716	0.0163682
612.794	0.0163945
612.872	0.0164786
612.950	0.0164208
613.029	0.0165828
613.107	0.0164890
613.185	0.0166636
613.263	0.0167150
613.341	0.0164535
613.419	0.0165736
613.497	0.0164869
613.575	0.0163490
613.654	0.0163415
613.732	0.0163347
613.810	0.0162302
613.888	0.0162485
613.966	0.0160950
614.044	0.0160722
614.122	0.0160425
614.200	0.0161102
614.279	0.0161050
614.357	0.0158710
614.435	0.0158932
614.513	0.0160913
614.591	0.0159287
614.669	0.0160471
614.747	0.0161657
614.825	0.0161342
614.904	0.0164516
614.982	0.0165150
615.060	0.0166611
615.138	0.0167473
615.216	0.0170008
615.294	0.0171304
615.372	0.0171751
615.450	0.0173625
615.529	0.0174812
615.607	0.0174212
615.685	0.0176263
615.763	0.0174742
615.841	0.0175592
615.919	0.0175528
615.997	0.0173351
616.075	0.0170714
616.154	0.0170354
616.232	0.0169572
616.310	0.0166720
616.388	0.0164510
616.466	0.0163284
616.544	0.0161092
616.622	0.0159091
616.700	0.0158038
616.779	0.0156009
616.857	0.0154832
616.935	0.0153056
617.013	0.0153766
617.091	0.0152389
617.169	0.0151173
617.247	0.0152255
617.325	0.0150229
617.404	0.0149116
617.482	0.0152039
617.560	0.0152844
617.638	0.0150563
617.716	0.0153992
617.794	0.0153838
617.872	0.0155527
617.950	0.0157567
618.029	0.0159435
618.107	0.0162382
618.185	0.0163339
618.263	0.0164072
618.341	0.0167197
618.419	0.0170145
618.497	0.0171396
618.575	0.0174698
618.654	0.0173242
618.732	0.0175624
618.810	0.0176490
618.888	0.0176266
618.966	0.0173351
619.044	0.0175671
619.122	0.0177155
619.200	0.0173071
619.279	0.0173649
619.357	0.0171499
619.435	0.0171432
619.513	0.0168977
619.591	0.0167046
619.669	0.0165234
619.747	0.0164023
619.825	0.0163329
619.904	0.0160619
619.982	0.0158707
620.060	0.0158232
620.138	0.0157455
620.216	0.0156114
620.294	0.0155636
620.372	0.0156123
620.450	0.0154240
620.529	0.0154440
620.607	0.0155403
620.685	0.0155932
620.763	0.0156080
620.841	0.0157461
620.919	0.0158004
620.997	0.0157987
621.075	0.0156717
621.154	0.0160192
621.232	0.0159058
621.310	0.0158583
621.388	0.0158096
621.466	0.0158041
621.544	0.0156360
621.622	0.0157754
621.700	0.0158602
621.779	0.0157001
621.857	0.0156578
621.935	0.0156570
622.013	0.0157010
622.091	0.0156856
622.169	0.0157730
622.247	0.0158116
622.325	0.0158276
622.404	0.0158591
622.482	0.0159391
622.560	0.0158916
622.638	0.0161222
622.716	0.0162418
622.794	0.0164963
622.872	0.0164499
622.950	0.0167555
623.029	0.0169560
623.107	0.0171400
623.185	0.0173991
623.263	0.0177194
623.341	0.0177146
623.419	0.0180087
623.497	0.0181247
623.575	0.0182171
623.654	0.0182063
623.732	0.0183555
623.810	0.0185194
623.888	0.0182848
623.966	0.0180684
624.044	0.0179256
624.122	0.0179102
624.200	0.0175557
624.279	0.0172328
624.357	0.0168824
624.435	0.0164745
624.513	0.0162334
624.591	0.0159010
624.669	0.0155385
624.747	0.0153167
624.825	0.0149059
624.904	0.0147893
624.982	0.0145329
625.060	0.0142786
625.138	0.0141670
625.216	0.0140462
625.294	0.0142933
625.372	0.0140987
625.450	0.0140460
625.529	0.0141264
625.607	0.0143028
625.685	0.0144272
625.763	0.0145487
625.841	0.0145834
625.919	0.0148418
625.997	0.0150816
626.075	0.0151690
626.154	0.0155662
626.232	0.0158411
626.310	0.0162666
626.388	0.0164230
626.466	0.0166550
626.544	0.0168176
626.622	0.0169261
626.700	0.0171909
626.779	0.0174429
626.857	0.0176753
626.935	0.0175348
627.013	0.0175421
627.091	0.0178484
627.169	0.0179401
627.247	0.0178954
627.325	0.0178290
627.404	0.0178802
627.482	0.0180291
627.560	0.0178470
627.638	0.0179253
627.716	0.0178912
627.794	0.0180845
627.872	0.0179449
627.950	0.0180244
628.029	0.0179462
628.107	0.0179498
628.185	0.0178811
628.263	0.0179739
628.341	0.0178742
628.419	0.0177292
628.497	0.0177834
628.575	0.0176218
628.654	0.0173668
628.732	0.0173029
628.810	0.0172323
628.888	0.0167754
628.966	0.0166751
629.044	0.0165617
629.122	0.0160783
629.200	0.0157129
629.279	0.0155174
629.357	0.0150569
629.435	0.0148553
629.513	0.0145197
629.591	0.0141190
629.669	0.0139583
629.747	0.0138205
629.825	0.0135125
629.904	0.0132570
629.982	0.0130183
630.060	0.0131743
630.138	0.0130602
630.216	0.0130041
630.294	0.0130870
630.372	0.0135680
630.450	0.0136319
630.529	0.0137972
630.607	0.0142014
630.685	0.0146341
630.763	0.0150587
630.841	0.0155592
630.919	0.0159489
630.997	0.0164700
631.075	0.0168375
631.154	0.0172831
631.232	0.0176358
631.310	0.0178810
631.388	0.0182654
631.466	0.0185955
631.544	0.0189336
631.622	0.0190984
631.700	0.0192540
631.779	0.0193075
631.857	0.0193978
631.935	0.0194108
632.013	0.0193306
632.091	0.0192812
632.169	0.0192147
632.247	0.0190915
632.325	0.0188980
632.404	0.0187372
632.482	0.0186370
632.560	0.0183604
632.638	0.0182728
632.716	0.0178860
632.794	0.0176373
632.872	0.0173456
632.950	0.0170614
633.029	0.0168165
633.107	0.0165302
633.185	0.0161314
633.263	0.0158201
633.341	0.0156542
633.419	0.0154436
633.497	0.0151723
633.575	0.0149297
633.654	0.0148570
633.732	0.0146487
633.810	0.0144455
633.888	0.0143884
633.966	0.0142150
634.044	0.0143204
634.122	0.0143400
634.200	0.0143011
634.279	0.0143518
634.357	0.0143898
634.435	0.0143970
634.513	0.0145191
634.591	0.0146462
634.669	0.0146053
634.747	0.0147353
634.825	0.0149824
634.904	0.0152135
634.982	0.0152864
635.060	0.0156045
635.138	0.0158512
635.216	0.0161314
635.294	0.0163170
635.372	0.0165749
635.450	0.0169142
635.529	0.0169832
635.607	0.0172921
635.685	0.0175798
635.763	0.0178260
635.841	0.0179016
635.919	0.0180421
635.997	0.0181794
636.075	0.0180608
636.154	0.0180520
636.232	0.0182215
636.310	0.0180433
636.388	0.0181079
636.466	0.0179440
636.544	0.0178393
636.622	0.0177219
636.700	0.0175384
636.779	0.0172905
636.857	0.0171629
636.935	0.0167790
637.013	0.0167561
637.091	0.0164818
637.169	0.0163226
637.247	0.0160983
637.325	0.0161166
637.404	0.0157345
637.482	0.0157112
637.560	0.0155807
637.638	0.0156194
637.716	0.0155623
637.794	0.0154233
637.872	0.0154996
637.950	0.0155491
638.029	0.0155118
638.107	0.0155016
638.185	0.0154165
638.263	0.0155373
638.341	0.0155587
638.419	0.0156526
638.497	0.0158925
638.575	0.0159064
638.654	0.0160275
638.732	0.0161454
638.810	0.0163361
638.888	0.0166563
638.966	0.0169854
639.044	0.0171637
639.122	0.0172903
639.200	0.0173756
639.279	0.0175278
639.357	0.0174886
639.435	0.0174528
639.513	0.0175687
639.591	0.0174606
639.669	0.0173593
639.747	0.0172847
639.825	0.0169927
639.904	0.0169125
639.982	0.0168858
640.060	0.0167920
640.138	0.0164981
640.216	0.0164457
640.294	0.0163968
640.372	0.0162038
640.450	0.0160522
640.529	0.0159849
640.607	0.0158997
640.685	0.0156305
640.763	0.0154946
640.841	0.0154528
640.919	0.0152431
640.997	0.0151198
641.075	0.0149533
641.154	0.0146778
641.232	0.0145363
641.310	0.0145347
641.388	0.0144788
641.466	0.0142676
641.544	0.0142074
641.622	0.0142145
641.700	0.0144915
641.779	0.0143555
641.857	0.0143841
641.935	0.0143944
642.013	0.0145936
642.091	0.0148945
642.169	0.0151219
642.247	0.0153854
642.325	0.0157565
642.404	0.0160024
642.482	0.0163880
642.560	0.0166949
642.638	0.0169456
642.716	0.0173263
642.794	0.0176026
642.872	0.0181413
642.950	0.0182346
643.029	0.0183559
643.107	0.0185224
643.185	0.0184828
643.263	0.0186500
643.341	0.0185860
643.419	0.0185946
643.497	0.0185366
643.575	0.0183556
643.654	0.0181393
643.732	0.0179893
643.810	0.0178929
643.888	0.0175999
643.966	0.0174086
644.044	0.0172872
644.122	0.0170908
644.200	0.0167397
644.279	0.0166226
644.357	0.0165103
644.435	0.0163794
644.513	0.0162429
644.591	0.0159846
644.669	0.0158355
644.747	0.0157653
644.825	0.0155824
644.904	0.0154143
644.982	0.0153571
645.060	0.0153910
645.138	0.0154459
645.216	0.0154403
645.294	0.0154687
645.372	0.0153869
645.450	0.0153980
645.529	0.0154105
645.607	0.0154647
645.685	0.0157317
645.763	0.0157915
645.841	0.0157305
645.919	0.0158631
645.997	0.0160323
646.075	0.0159973
646.154	0.0159411
646.232	0.0161055
646.310	0.0163506
646.388	0.0163123
646.466	0.0163305
646.544	0.0162883
646.622	0.0162616
646.700	0.0161353
646.779	0.0163142
646.857	0.0162114
646.935	0.0161201
647.013	0.0160975
647.091	0.0161512
647.169	0.0160065
647.247	0.0158158
647.325	0.0158254
647.404	0.0156943
647.482	0.0156184
647.560	0.0155573
647.638	0.0154195
647.716	0.0154756
647.794	0.0155030
647.872	0.0154092
647.950	0.0155898
648.029	0.0158387
648.107	0.0160385
648.185	0.0159574
648.263	0.0163901
648.341	0.0166388
648.419	0.0168303
648.497	0.0169265
648.575	0.0170855
648.654	0.0173670
648.732	0.0175569
648.810	0.0176286
648.888	0.0179415
648.966	0.0179111
649.044	0.0181940
649.122	0.0181602
649.200	0.0181988
649.279	0.0181838
649.357	0.0183020
649.435	0.0182386
649.513	0.0181949
649.591	0.0179227
649.669	0.0179089
649.747	0.0177158
649.825	0.0174514
649.904	0.0172110
649.982	0.0169667
650.060	0.0166893
650.138	0.0166429
650.216	0.0164684
650.294	0.0161071
650.372	0.0159278
650.450	0.0157783
650.529	0.0155226
650.607	0.0151895
650.685	0.0150906
650.763	0.0150266
650.841	0.0147428
650.919	0.0146309
650.997	0.0146811
651.075	0.0147144
651.154	0.0145995
651.232	0.0145628
651.310	0.0146162
651.388	0.0147544
651.466	0.0147820
651.544	0.0148041
651.622	0.0149301
651.700	0.0151324
651.779	0.0152728
651.857	0.0153598
651.935	0.0153249
652.013	0.0153527
652.091	0.0156139
652.169	0.0155527
652.247	0.0158057
652.325	0.0158009
652.404	0.0160166
652.482	0.0160894
652.560	0.0163289
652.638	0.0164513
652.716	0.0165137
652.794	0.0166241
652.872	0.0166913
652.950	0.0166846
653.029	0.0169168
653.107	0.0171779
653.185	0.0172453
653.263	0.0174312
653.341	0.0174491
653.419	0.0178631
653.497	0.0179380
653.575	0.0179229
653.654	0.0181596
653.732	0.0182439
653.810	0.0182907
653.888	0.0181535
653.966	0.0183022
654.044	0.0181519
654.122	0.0181292
654.200	0.0180015
654.279	0.0177722
654.357	0.0175069
654.435	0.0171602
654.513	0.0170248
654.591	0.0167994
654.669	0.0164639
654.747	0.0161801
654.825	0.0158633
654.904	0.0157024
654.982	0.0154449
655.060	0.0151464
655.138	0.0149177
655.216	0.0149048
655.294	0.0147434
655.372	0.0146265
655.450	0.0146840
655.529	0.0147755
655.607	0.0148199
655.685	0.0148460
655.763	0.0150558
655.841	0.0152498
655.919	0.0153963
655.997	0.0156297
656.075	0.0157271
656.154	0.0159329
656.232	0.0162711
656.310	0.0164943
656.388	0.0167273
656.466	0.0170027
656.544	0.0171230
656.622	0.0172315
656.700	0.0172289
656.779	0.0173669
656.857	0.0174230
656.935	0.0174051
657.013	0.0174151
657.091	0.0174497
657.169	0.0174290
657.247	0.0171865
657.325	0.0171300
657.404	0.0169285
657.482	0.0168317
657.560	0.0168935
657.638	0.0166112
657.716	0.0165849
657.794	0.0164648
657.872	0.0162723
657.950	0.0163150
658.029	0.0162783
658.107	0.0163242
658.185	0.0161974
658.263	0.0162288
658.341	0.0163868
658.419	0.0162579
658.497	0.0164715
658.575	0.0165350
658.654	0.0165139
658.732	0.0165163
658.810	0.0164549
658.888	0.0167387
658.966	0.0167759
659.044	0.0167196
659.122	0.0167744
659.200	0.0167047
659.279	0.0166393
659.357	0.0166419
659.435	0.0165456
659.513	0.0164211
659.591	0.0163801
659.669	0.0163090
659.747	0.0161435
659.825	0.0161039
659.904	0.0159998
659.982	0.0158660
660.060	0.0158395
660.138	0.0157035
660.216	0.0157148
660.294	0.0156455
660.372	0.0156576
660.450	0.0156829
660.529	0.0156230
660.607	0.0156677
660.685	0.0156265
660.763	0.0157263
660.841	0.0157497
660.919	0.0157131
660.997	0.0160284
661.075	0.0161169
661.154	0.0161778
661.232	0.0164661
661.310	0.0166616
661.388	0.0168098
661.466	0.0168200
661.544	0.0170866
661.622	0.0172797
661.700	0.0173981
661.779	0.0173056
661.857	0.0173395
661.935	0.0174441
662.013	0.0173460
662.091	0.0173408
662.169	0.0172181
662.247	0.0172841
662.325	0.0170541
662.404	0.0168525
662.482	0.0167719
662.560	0.0166389
662.638	0.0165473
662.716	0.0164138
662.794	0.0161713
662.872	0.0159330
662.950	0.0158674
663.029	0.0157125
663.107	0.0155548
663.185	0.0155856
663.263	0.0155475
663.341	0.0155676
663.419	0.0156196
663.497	0.0153694
663.575	0.0155553
663.654	0.0155412
663.732	0.0154885
663.810	0.0156313
663.888	0.0156636
663.966	0.0155502
664.044	0.0157661
664.122	0.0157655
664.200	0.0159322
664.279	0.0161300
664.357	0.0161314
664.435	0.0162364
664.513	0.0163720
664.591	0.0165050
664.669	0.0167054
664.747	0.0168011
664.825	0.0168086
664.904	0.0170309
664.982	0.0170492
665.060	0.0172258
665.138	0.0172762
665.216	0.0171601
665.294	0.0172035
665.372	0.0173945
665.450	0.0171882
665.529	0.0170832
665.607	0.0170149
665.685	0.0168884
665.763	0.0167638
665.841	0.0165968
665.919	0.0163520
665.997	0.0160246
666.075	0.0161214
666.154	0.0160282
666.232	0.0158606
666.310	0.0157054
666.388	0.0156960
666.466	0.0154889
666.544	0.0155287
666.622	0.0154521
666.700	0.0155517
666.779	0.0155045
666.857	0.0153186
666.935	0.0154766
667.013	0.0155266
667.091	0.0157249
667.169	0.0157515
667.247	0.0156874
667.325	0.0157426
667.404	0.0158205
667.482	0.0159828
667.560	0.0158913
667.638	0.0159673
667.716	0.0158945
667.794	0.0160324
667.872	0.0162109
667.950	0.0161012
668.029	0.0162010
668.107	0.0162184
668.185	0.0163188
668.263	0.0163921
668.341	0.0163879
668.419	0.0166255
668.497	0.0167333
668.575	0.0167072
668.654	0.0167938
668.732	0.0167985
668.810	0.0168465
668.888	0.0167918
668.966	0.0169434
669.044	0.0170718
669.122	0.0170577
669.200	0.0170378
669.279	0.0169450
669.357	0.0169988
669.435	0.0170820
669.513	0.0170197
669.591	0.0171076
669.669	0.0170973
669.747	0.0171006
669.825	0.0169152
669.904	0.0169035
669.982	0.0169777
670.060	0.0168677
670.138	0.0166992
670.216	0.0165822
670.294	0.0164525
670.372	0.0163364
670.450	0.0161274
670.529	0.0158987
670.607	0.0157971
670.685	0.0156477
670.763	0.0155275
670.841	0.0152360
670.919	0.0153535
670.997	0.0151811
671.075	0.0148795
671.154	0.0149378
671.232	0.0150527
671.310	0.0150816
671.388	0.0151431
671.466	0.0152513
671.544	0.0155196
671.622	0.0155212
671.700	0.0156712
671.779	0.0157265
671.857	0.0159426
671.935	0.0161255
672.013	0.0164392
672.091	0.0166143
672.169	0.0168230
672.247	0.0169568
672.325	0.0171179
672.404	0.0173079
672.482	0.0173502
672.560	0.0175449
672.638	0.0175927
672.716	0.0177069
672.794	0.0176317
672.872	0.0177158
672.950	0.0176495
673.029	0.0175204
673.107	0.0175323
673.185	0.0173647
673.263	0.0171191
673.341	0.0171724
673.419	0.0170100
673.497	0.0168306
673.575	0.0167896
673.654	0.0167088
673.732	0.0164987
673.810	0.0163492
673.888	0.0163493
673.966	0.0163877
674.044	0.0163330
674.122	0.0162890
674.200	0.0164153
674.279	0.0162112
674.357	0.0161961
674.435	0.0162732
674.513	0.0160990
674.591	0.0160544
674.669	0.0162023
674.747	0.0161481
674.825	0.0159858
674.904	0.0158023
674.982	0.0159199
675.060	0.0160409
675.138	0.0157892
675.216	0.0158492
675.294	0.0160291
675.372	0.0159404
675.450	0.0157497
675.529	0.0159206
675.607	0.0157497
675.685	0.0157943
675.763	0.0159181
675.841	0.0158759
675.919	0.0159172
675.997	0.0160371
676.075	0.0160840
676.154	0.0161629
676.232	0.0162080
676.310	0.0161237
676.388	0.0161970
676.466	0.0164227
676.544	0.0164756
676.622	0.0164387
676.700	0.0165186
676.779	0.0164451
676.857	0.0164966
676.935	0.0163943
677.013	0.0164394
677.091	0.0165097
677.169	0.0164516
677.247	0.0164007
677.325	0.0162431
677.404	0.0163084
677.482	0.0162444
677.560	0.0163782
677.638	0.0162595
677.716	0.0163909
677.794	0.0164891
677.872	0.0163936
677.950	0.0164774
678.029	0.0166336
678.107	0.0167208
678.185	0.0168015
678.263	0.0168296
678.341	0.0167510
678.419	0.0167345
678.497	0.0167168
678.575	0.0168571
678.654	0.0168581
678.732	0.0168494
678.810	0.0169602
678.888	0.0169810
678.966	0.0170015
679.044	0.0169892
679.122	0.0171154
679.200	0.0170985
679.279	0.0171118
679.357	0.0169543
679.435	0.0169420
679.513	0.0168359
679.591	0.0168586
679.669	0.0168659
679.747	0.0165840
679.825	0.0164538
679.904	0.0163605
679.982	0.0162346
680.060	0.0158526
680.138	0.0158118
680.216	0.0157435
680.294	0.0156573
680.372	0.0153358
680.450	0.0152930
680.529	0.0154163
680.607	0.0152160
680.685	0.0152506
680.763	0.0153571
680.841	0.0153174
680.919	0.0156078
680.997	0.0156777
681.075	0.0158997
681.154	0.0159657
681.232	0.0161641
681.310	0.0164735
681.388	0.0165527
681.466	0.0165645
681.544	0.0166983
681.622	0.0166660
681.700	0.0169643
681.779	0.0170007
681.857	0.0169518
681.935	0.0170650
682.013	0.0169402
682.091	0.0169887
682.169	0.0168019
682.247	0.0167293
682.325	0.0167286
682.404	0.0166249
682.482	0.0167657
682.560	0.0166003
682.638	0.0164536
682.716	0.0163814
682.794	0.0163807
682.872	0.0163107
682.950	0.0163253
683.029	0.0162427
683.107	0.0159945
683.185	0.0160723
683.263	0.0161915
683.341	0.0159801
683.419	0.0159506
683.497	0.0159827
683.575	0.0160352
683.654	0.0159825
683.732	0.0160509
683.810	0.0161639
683.888	0.0161877
683.966	0.0162083
684.044	0.0163230
684.122	0.0164895
684.200	0.0165507
684.279	0.0165551
684.357	0.0166613
684.435	0.0166241
684.513	0.0166608
684.591	0.0168043
684.669	0.0168790
684.747	0.0168909
684.825	0.0170412
684.904	0.0170081
684.982	0.0167062
685.060	0.0167812
685.138	0.0168761
685.216	0.0166694
685.294	0.0164866
685.372	0.0164794
685.450	0.0162067
685.529	0.0161845
685.607	0.0162054
685.685	0.0161565
685.763	0.0159795
685.841	0.0160754
685.919	0.0160635
685.997	0.0160251
686.075	0.0159819
686.154	0.0159274
686.232	0.0158488
686.310	0.0158428
686.388	0.0158801
686.466	0.0157882
686.544	0.0159111
686.622	0.0160741
686.700	0.0159634
686.779	0.0159502
686.857	0.0160170
686.935	0.0159270
687.013	0.0160120
687.091	0.0159809
687.169	0.0161462
687.247	0.0161987
687.325	0.0161829
687.404	0.0162486
687.482	0.0161311
687.560	0.0163209
687.638	0.0163816
687.716	0.0164878
687.794	0.0164055
687.872	0.0165578
687.950	0.0165244
688.029	0.0164875
688.107	0.0164948
688.185	0.0165005
688.263	0.0166532
688.341	0.0165560
688.419	0.0166642
688.497	0.0166274
688.575	0.0168225
688.654	0.0168467
688.732	0.0166783
688.810	0.0169244
688.888	0.0166930
688.966	0.0166650
689.044	0.0167313
689.122	0.0167775
689.200	0.0167577
689.279	0.0167571
689.357	0.0166772
689.435	0.0167714
689.513	0.0167101
689.591	0.0165210
689.669	0.0166406
689.747	0.0165303
689.825	0.0164584
689.904	0.0165700
689.982	0.0165791
690.060	0.0165170
690.138	0.0163604
690.216	0.0163288
690.294	0.0164242
690.372	0.0162949
690.450	0.0161266
690.529	0.0160749
690.607	0.0159106
690.685	0.0158772
690.763	0.0157347
690.841	0.0156126
690.919	0.0156409
690.997	0.0158262
691.075	0.0158134
691.154	0.0156340
691.232	0.0156656
691.310	0.0157603
691.388	0.0158630
691.466	0.0160592
691.544	0.0161492
691.622	0.0161333
691.700	0.0163136
691.779	0.0166014
691.857	0.0165051
691.935	0.0165974
692.013	0.0166990
692.091	0.0168027
692.169	0.0169285
692.247	0.0168182
692.325	0.0168427
692.404	0.0169668
692.482	0.0168934
692.560	0.0169226
692.638	0.0169209
692.716	0.0168392
692.794	0.0166848
692.872	0.0165224
692.950	0.0166013
693.029	0.0165540
693.107	0.0162682
693.185	0.0161298
693.263	0.0161617
693.341	0.0161730
693.419	0.0160342
693.497	0.0159797
693.575	0.0160281
693.654	0.0158961
693.732	0.0160674
693.810	0.0160912
693.888	0.0159998
693.966	0.0160406
694.044	0.0161362
694.122	0.0162064
694.200	0.0163196
694.279	0.0163846
694.357	0.0163976
694.435	0.0165724
694.513	0.0166132
694.591	0.0166143
694.669	0.0167120
694.747	0.0165975
694.825	0.0166364
694.904	0.0167164
694.982	0.0165388
695.060	0.0167068
695.138	0.0165812
695.216	0.0166376
695.294	0.0167480
695.372	0.0165146
695.450	0.0164293
695.529	0.0165588
695.607	0.0164362
695.685	0.0164717
695.763	0.0162713
695.841	0.0160993
695.919	0.0161571
695.997	0.0162038
696.075	0.0161958
696.154	0.0162677
696.232	0.0160754
696.310	0.0160358
696.388	0.0160884
696.466	0.0161440
696.544	0.0162405
696.622	0.0161498
696.700	0.0161838
696.779	0.0160958
696.857	0.0160627
696.935	0.0161863
697.013	0.0163345
697.091	0.0163930
697.169	0.0162762
697.247	0.0163743
697.325	0.0163654
697.404	0.0165287
697.482	0.0165025
697.560	0.0165209
697.638	0.0165890
697.716	0.0166209
697.794	0.0165862
697.872	0.0166117
697.950	0.0165984
698.029	0.0166094
698.107	0.0165409
698.185	0.0164773
698.263	0.0165682
698.341	0.0165333
698.419	0.0164976
698.497	0.0165085
698.575	0.0163585
698.654	0.0164216
698.732	0.0164219
698.810	0.0162684
698.888	0.0162518
698.966	0.0164404
699.044	0.0164162
699.122	0.0163428
699.200	0.0165433
699.279	0.0163842
699.357	0.0163227
699.435	0.0164019
699.513	0.0165775
699.591	0.0165821
699.669	0.0165676
699.747	0.0165777
699.825	0.0166370
699.904	0.0166696
699.982	0.0167481
700.060	0.0166618
700.138	0.0167044
700.216	0.0166959
700.294	0.0165914
700.372	0.0166831
700.450	0.0166245
700.529	0.0165765
700.607	0.0163772
700.685	0.0163934
700.763	0.0164113
700.841	0.0162536
700.919	0.0162627
700.997	0.0161507
701.075	0.0161718
701.154	0.0161711
701.232	0.0164011
701.310	0.0163000
701.388	0.0160751
701.466	0.0161363
701.544	0.0162055
701.622	0.0161753
701.700	0.0160122
701.779	0.0159423
701.857	0.0159952
701.935	0.0160094
702.013	0.0160569
702.091	0.0159652
702.169	0.0160910
702.247	0.0159171
702.325	0.0158889
702.404	0.0159386
702.482	0.0159824
702.560	0.0159919
702.638	0.0160577
702.716	0.0160250
702.794	0.0159327
702.872	0.0160754
702.950	0.0160811
703.029	0.0159273
703.107	0.0158773
703.185	0.0159390
703.263	0.0159951
703.341	0.0159692
703.419	0.0160268
703.497	0.0158941
703.575	0.0159681
703.654	0.0160096
703.732	0.0161150
703.810	0.0159673
703.888	0.0160015
703.966	0.0158987
704.044	0.0158695
704.122	0.0157747
704.200	0.0158614
704.279	0.0158868
704.357	0.0159776
704.435	0.0159983
704.513	0.0159563
704.591	0.0160348
704.669	0.0160516
704.747	0.0160606
704.825	0.0160725
704.904	0.0161101
704.982	0.0161556
705.060	0.0162743
705.138	0.0162482
705.216	0.0162682
705.294	0.0163519
705.372	0.0162227
705.450	0.0160919
705.529	0.0162167
705.607	0.0161242
705.685	0.0161273
705.763	0.0162212
705.841	0.0161559
705.919	0.0161646
705.997	0.0162250
706.075	0.0160054
706.154	0.0162281
706.232	0.0162019
706.310	0.0162134
706.388	0.0162916
706.466	0.0163010
706.544	0.0163542
706.622	0.0163403
706.700	0.0165242
706.779	0.0166160
706.857	0.0166402
706.935	0.0165117
707.013	0.0165288
707.091	0.0166069
707.169	0.0167140
707.247	0.0166826
707.325	0.0166988
707.404	0.0166595
707.482	0.0164735
707.560	0.0165723
707.638	0.0165986
707.716	0.0164661
707.794	0.0164595
707.872	0.0166080
707.950	0.0164771
708.029	0.0163129
708.107	0.0162480
708.185	0.0161680
708.263	0.0161700
708.341	0.0160719
708.419	0.0161807
708.497	0.0160384
708.575	0.0158921
708.654	0.0159267
708.732	0.0159180
708.810	0.0159968
708.888	0.0160283
708.966	0.0159190
709.044	0.0159045
709.122	0.0161127
709.200	0.0161092
709.279	0.0160104
709.357	0.0160452
709.435	0.0160420
709.513	0.0161362
709.591	0.0161752
709.669	0.0162126
709.747	0.0162764
709.825	0.0163164
709.904	0.0162132
709.982	0.0163165
710.060	0.0164009
710.138	0.0164403
710.216	0.0162440
710.294	0.0165112
710.372	0.0165345
710.450	0.0162868
710.529	0.0163362
710.607	0.0164104
710.685	0.0164082
710.763	0.0162671
710.841	0.0163930
710.919	0.0163831
710.997	0.0163570
711.075	0.0164142
711.154	0.0164819
711.232	0.0166076
711.310	0.0166084
711.388	0.0164208
711.466	0.0165577
711.544	0.0167383
711.622	0.0167181
711.700	0.0167062
711.779	0.0169301
711.857	0.0167361
711.935	0.0167696
712.013	0.0169661
712.091	0.0168622
712.169	0.0168441
712.247	0.0169578
712.325	0.0168743
712.404	0.0167807
712.482	0.0167665
712.560	0.0167712
712.638	0.0165915
712.716	0.0166354
712.794	0.0165868
712.872	0.0165488
712.950	0.0165244
713.029	0.0163738
713.107	0.0164836
713.185	0.0162024
713.263	0.0161501
713.341	0.0161810
713.419	0.0162103
713.497	0.0161433
713.575	0.0161301
713.654	0.0160051
713.732	0.0161034
713.810	0.0159798
713.888	0.0160742
713.966	0.0161648
714.044	0.0160908
714.122	0.0159666
714.200	0.0160801
714.279	0.0162962
714.357	0.0161378
714.435	0.0163054
714.513	0.0162601
714.591	0.0163423
714.669	0.0162871
714.747	0.0164170
714.825	0.0163348
714.904	0.0163807
714.982	0.0162911
715.060	0.0163026
715.138	0.0162970
715.216	0.0163773
715.294	0.0163893
715.372	0.0163785
715.450	0.0163764
715.529	0.0163602
715.607	0.0162515
715.685	0.0162912
715.763	0.0163807
715.841	0.0163544
715.919	0.0162016
715.997	0.0162801
716.075	0.0162200
716.154	0.0163503
716.232	0.0161063
716.310	0.0162017
716.388	0.0161282
716.466	0.0160218
716.544	0.0160627
716.622	0.0160642
716.700	0.0160428
716.779	0.0160390
716.857	0.0158984
716.935	0.0159705
717.013	0.0158119
717.091	0.0159000
717.169	0.0160046
717.247	0.0159449
717.325	0.0159021
717.404	0.0159673
717.482	0.0158598
717.560	0.0159091
717.638	0.0160130
717.716	0.0159237
717.794	0.0159125
717.872	0.0159998
717.950	0.0159579
718.029	0.0160233
718.107	0.0160271
718.185	0.0160162
718.263	0.0160572
718.341	0.0161045
718.419	0.0161166
718.497	0.0160656
718.575	0.0161573
718.654	0.0161181
718.732	0.0160796
718.810	0.0162943
718.888	0.0162598
718.966	0.0160487
719.044	0.0162179
719.122	0.0162514
719.200	0.0161141
719.279	0.0161994
719.357	0.0164022
719.435	0.0164409
719.513	0.0164558
719.591	0.0166128
719.669	0.0165485
719.747	0.0165786
719.825	0.0168553
719.904	0.0168340
719.982	0.0167200
720.060	0.0168459
720.138	0.0169175
720.216	0.0169654
720.294	0.0169408
720.372	0.0170648
720.450	0.0168535
720.529	0.0169585
720.607	0.0169569
720.685	0.0167781
720.763	0.0168188
720.841	0.0166492
720.919	0.0167543
720.997	0.0166843
721.075	0.0166222
721.154	0.0166150
721.232	0.0163483
721.310	0.0164453
721.388	0.0163300
721.466	0.0163890
721.544	0.0164203
721.622	0.0162893
721.700	0.0162299
721.779	0.0163213
721.857	0.0162270
721.935	0.0162363
722.013	0.0163297
722.091	0.0164178
722.169	0.0163464
722.247	0.0163947
722.325	0.0164467
722.404	0.0163363
722.482	0.0164170
722.560	0.0164166
722.638	0.0164573
722.716	0.0165632
722.794	0.0164026
722.872	0.0163921
722.950	0.0164010
723.029	0.0163342
723.107	0.0163706
723.185	0.0164623
723.263	0.0163338
723.341	0.0164234
723.419	0.0162999
723.497	0.0163235
723.575	0.0164002
723.654	0.0163486
723.732	0.0163045
723.810	0.0161826
723.888	0.0163622
723.966	0.0162781
724.044	0.0162451
724.122	0.0161373
724.200	0.0162188
724.279	0.0162578
724.357	0.0160725
724.435	0.0161651
724.513	0.0162302
724.591	0.0162418
724.669	0.0162172
724.747	0.0162804
724.825	0.0163352
724.904	0.0161680
724.982	0.0161535
725.060	0.0162004
725.138	0.0161343
725.216	0.0162132
725.294	0.0162225
725.372	0.0162915
725.450	0.0162327
725.529	0.0160441
725.607	0.0161877
725.685	0.0160548
725.763	0.0160032
725.841	0.0159415
725.919	0.0160143
725.997	0.0161463
726.075	0.0160866
726.154	0.0160685
726.232	0.0158601
726.310	0.0160198
726.388	0.0159293
726.466	0.0161651
726.544	0.0160545
726.622	0.0160330
726.700	0.0161836
726.779	0.0161857
726.857	0.0163203
726.935	0.0163394
727.013	0.0164689
727.091	0.0165978
727.169	0.0164362
727.247	0.0165702
727.325	0.0166374
727.404	0.0167590
727.482	0.0169215
727.560	0.0169962
727.638	0.0169142
727.716	0.0169635
727.794	0.0169576
727.872	0.0171196
727.950	0.0170123
728.029	0.0169941
728.107	0.0169915
728.185	0.0168722
728.263	0.0169695
728.341	0.0168193
728.419	0.0169080
728.497	0.0166817
728.575	0.0166073
728.654	0.0168234
728.732	0.0167612
728.810	0.0166524
728.888	0.0165313
728.966	0.0164507
729.044	0.0166267
729.122	0.0165934
729.200	0.0163880
729.279	0.0164716
729.357	0.0164973
729.435	0.0164022
729.513	0.0163332
729.591	0.0163776
729.669	0.0162322
729.747	0.0163498
729.825	0.0162470
729.904	0.0162469
729.982	0.0161713
730.060	0.0162179
730.138	0.0161269
730.216	0.0162858
730.294	0.0160744
730.372	0.0160357
730.450	0.0160685
730.529	0.0160658
730.607	0.0160263
730.685	0.0158922
730.763	0.0159848
730.841	0.0159270
730.919	0.0158427
730.997	0.0157979
731.075	0.0158147
731.154	0.0159869
731.232	0.0158788
731.310	0.0159048
731.388	0.0158363
731.466	0.0157723
731.544	0.0159332
731.622	0.0158797
731.700	0.0159819
731.779	0.0159875
731.857	0.0159756
731.935	0.0160141
732.013	0.0160693
732.091	0.0161811
732.169	0.0162901
732.247	0.0161654
732.325	0.0161552
732.404	0.0163400
732.482	0.0163290
732.560	0.0164237
732.638	0.0165103
732.716	0.0164336
732.794	0.0163493
732.872	0.0163416
732.950	0.0163947
733.029	0.0164526
733.107	0.0163894
733.185	0.0164819
733.263	0.0165192
733.341	0.0163510
733.419	0.0164464
733.497	0.0162434
733.575	0.0163924
733.654	0.0161810
733.732	0.0159618
733.810	0.0160437
733.888	0.0161726
733.966	0.0159928
734.044	0.0160211
734.122	0.0159480
734.200	0.0159320
734.279	0.0161900
734.357	0.0160862
734.435	0.0161280
734.513	0.0160636
734.591	0.0161698
734.669	0.0162769
734.747	0.0162708
734.825	0.0162473
734.904	0.0164447
734.982	0.0162933
735.060	0.0164377
735.138	0.0166503
735.216	0.0165319
735.294	0.0166314
735.372	0.0165630
735.450	0.0165830
735.529	0.0166078
735.607	0.0168531
735.685	0.0167149
735.763	0.0167474
735.841	0.0167558
735.919	0.0166640
735.997	0.0167670
736.075	0.0168082
736.154	0.0165941
736.232	0.0165253
736.310	0.0167867
736.388	0.0167262
736.466	0.0166444
736.544	0.0165206
736.622	0.0165923
736.700	0.0165198
736.779	0.0164822
736.857	0.0163406
736.935	0.0163947
737.013	0.0163375
737.091	0.0163250
737.169	0.0162084
737.247	0.0161529
737.325	0.0160872
737.404	0.0161586
737.482	0.0160577
737.560	0.0161023
737.638	0.0160355
737.716	0.0158503
737.794	0.0160858
737.872	0.0162118
737.950	0.0159854
738.029	0.0159961
738.107	0.0159835
738.185	0.0160503
738.263	0.0160194
738.341	0.0161620
738.419	0.0161680
738.497	0.0161670
738.575	0.0162638
738.654	0.0162239
738.732	0.0163012
738.810	0.0163027
738.888	0.0162877
738.966	0.0163576
739.044	0.0162400
739.122	0.0162890
739.200	0.0162006
739.279	0.0164233
739.357	0.0165355
739.435	0.0164738
739.513	0.0164193
739.591	0.0166737
739.669	0.0166134
739.747	0.0164438
739.825	0.0165415
739.904	0.0167323
739.982	0.0167097
740.060	0.0167256
740.138	0.0165601
740.216	0.0165985
740.294	0.0166203
740.372	0.0166283
740.450	0.0165803
740.529	0.0165315
740.607	0.0166616
740.685	0.0166268
740.763	0.0165043
740.841	0.0166225
740.919	0.0167347
740.997	0.0167009
741.075	0.0165850
741.154	0.0165114
741.232	0.0166029
741.310	0.0165675
741.388	0.0164249
741.466	0.0165704
741.544	0.0165814
741.622	0.0165809
741.700	0.0165183
741.779	0.0163999
741.857	0.0165065
741.935	0.0164466
742.013	0.0164014
742.091	0.0166547
742.169	0.0164021
742.247	0.0163859
742.325	0.0162936
742.404	0.0162563
742.482	0.0164554
742.560	0.0163074
742.638	0.0163727
742.716	0.0163541
742.794	0.0163664
742.872	0.0163123
742.950	0.0162574
743.029	0.0164109
743.107	0.0164839
743.185	0.0162789
743.263	0.0162268
743.341	0.0162500
743.419	0.0162512
743.497	0.0163191
743.575	0.0163978
743.654	0.0162942
743.732	0.0163008
743.810	0.0162666
743.888	0.0162131
743.966	0.0161874
744.044	0.0163136
744.122	0.0163548
744.200	0.0161951
744.279	0.0162657
744.357	0.0163023
744.435	0.0162876
744.513	0.0162872
744.591	0.0162648
744.669	0.0163658
744.747	0.0164784
744.825	0.0163527
744.904	0.0164185
744.982	0.0163300
745.060	0.0163899
745.138	0.0164877
745.216	0.0165601
745.294	0.0164557
745.372	0.0165067
745.450	0.0164149
745.529	0.0164325
745.607	0.0165221
745.685	0.0164544
745.763	0.0164806
745.841	0.0165854
745.919	0.0166435
745.997	0.0164767
746.075	0.0164052
746.154	0.0166093
746.232	0.0165441
746.310	0.0163627
746.388	0.0165897
746.466	0.0166969
746.544	0.0163941
746.622	0.0163585
746.700	0.0162448
746.779	0.0161953
746.857	0.0162370
746.935	0.0162047
747.013	0.0163213
747.091	0.0161106
747.169	0.0161501
747.247	0.0161562
747.325	0.0160191
747.404	0.0160577
747.482	0.0160754
747.560	0.0157957
747.638	0.0159423
747.716	0.0158890
747.794	0.0159978
747.872	0.0158897
747.950	0.0161356
748.029	0.0159389
748.107	0.0159206
748.185	0.0159280
748.263	0.0159113
748.341	0.0160285
748.419	0.0160570
748.497	0.0160549
748.575	0.0161301
748.654	0.0161656
748.732	0.0162540
748.810	0.0162176
748.888	0.0163244
748.966	0.0162223
749.044	0.0163017
749.122	0.0162685
749.200	0.0164729
749.279	0.0163074
749.357	0.0163739
749.435	0.0163520
749.513	0.0163568
749.591	0.0165295
749.669	0.0165948
749.747	0.0166364
749.825	0.0165912
749.904	0.0165571
749.982	0.0166589
750.060	0.0167059
750.138	0.0165637
750.216	0.0165569
750.294	0.0165800
750.372	0.0167266
750.450	0.0166476
750.529	0.0167390
750.607	0.0167178
750.685	0.0165654
750.763	0.0164814
750.841	0.0166003
750.919	0.0164685
750.997	0.0166798
751.075	0.0165567
751.154	0.0164504
751.232	0.0164865
751.310	0.0165859
751.388	0.0164968
751.466	0.0163654
751.544	0.0163432
751.622	0.0164030
751.700	0.0164892
751.779	0.0164850
751.857	0.0163924
751.935	0.0164168
752.013	0.0165263
752.091	0.0166222
752.169	0.0165199
752.247	0.0165538
752.325	0.0165818
752.404	0.0164852
752.482	0.0165298
752.560	0.0166167
752.638	0.0165269
752.716	0.0165266
752.794	0.0165563
752.872	0.0164951
752.950	0.0164920
753.029	0.0165981
753.107	0.0166158
753.185	0.0164467
753.263	0.0164183
753.341	0.0164719
753.419	0.0165340
753.497	0.0164889
753.575	0.0165307
753.654	0.0164074
753.732	0.0165956
753.810	0.0164447
753.888	0.0164445
753.966	0.0164677
754.044	0.0162788
754.122	0.0164465
754.200	0.0164177
754.279	0.0164241
754.357	0.0164149
754.435	0.0162628
754.513	0.0162853
754.591	0.0162511
754.669	0.0161598
754.747	0.0162691
754.825	0.0162029
754.904	0.0161924
754.982	0.0161984
755.060	0.0162830
755.138	0.0161099
755.216	0.0163567
755.294	0.0163021
755.372	0.0163338
755.450	0.0162449
755.529	0.0163436
755.607	0.0164289
755.685	0.0163491
755.763	0.0164053
755.841	0.0163831
755.919	0.0164076
755.997	0.0164891
756.075	0.0164474
756.154	0.0163625
756.232	0.0163667
756.310	0.0164806
756.388	0.0164136
756.466	0.0163229
756.544	0.0165154
756.622	0.0165147
756.700	0.0163220
756.779	0.0165217
756.857	0.0163074
756.935	0.0165358
757.013	0.0164808
757.091	0.0163751
757.169	0.0164441
757.247	0.0163991
757.325	0.0162183
757.404	0.0164434
757.482	0.0165238
757.560	0.0164334
757.638	0.0164899
757.716	0.0165100
757.794	0.0165131
757.872	0.0165762
757.950	0.0164160
758.029	0.0163944
758.107	0.0166918
758.185	0.0165065
758.263	0.0164268
758.341	0.0165311
758.419	0.0164333
758.497	0.0165199
758.575	0.0164841
758.654	0.0164835
758.732	0.0164326
758.810	0.0163208
758.888	0.0164221
758.966	0.0164214
759.044	0.0161639
759.122	0.0162747
759.200	0.0163877
759.279	0.0162110
759.357	0.0162569
759.435	0.0162270
759.513	0.0162257
759.591	0.0162556
759.669	0.0162354
759.747	0.0161266
759.825	0.0161034
759.904	0.0161542
759.982	0.0162257
760.060	0.0161610
760.138	0.0161864
760.216	0.0161440
760.294	0.0162175
760.372	0.0161330
760.450	0.0162357
760.529	0.0162592
760.607	0.0162972
760.685	0.0162950
760.763	0.0164577
760.841	0.0163624
760.919	0.0163422
760.997	0.0164817
761.075	0.0165353
761.154	0.0164858
761.232	0.0164144
761.310	0.0164851
761.388	0.0163749
761.466	0.0165824
761.544	0.0165536
761.622	0.0163115
761.700	0.0165179
761.779	0.0165275
761.857	0.0163501
761.935	0.0163222
762.013	0.0164169
762.091	0.0164304
762.169	0.0164588
762.247	0.0163611
762.325	0.0162469
762.404	0.0164460
762.482	0.0162180
762.560	0.0161839
762.638	0.0161655
762.716	0.0162717
762.794	0.0161862
762.872	0.0162073
762.950	0.0161840
763.029	0.0161225
763.107	0.0162027
763.185	0.0160767
763.263	0.0161083
763.341	0.0159863
763.419	0.0161227
763.497	0.0161569
763.575	0.0161379
763.654	0.0161080
763.732	0.0162197
763.810	0.0161033
763.888	0.0161461
763.966	0.0160329
764.044	0.0161058
764.122	0.0162755
764.200	0.0162676
764.279	0.0162887
764.357	0.0161292
764.435	0.0161296
764.513	0.0162109
764.591	0.0161976
764.669	0.0161080
764.747	0.0162051
764.825	0.0162002
764.904	0.0162052
764.982	0.0163094
765.060	0.0162181
765.138	0.0162604
765.216	0.0162199
765.294	0.0162971
765.372	0.0164091
765.450	0.0163171
765.529	0.0164449
765.607	0.0163931
765.685	0.0165110
765.763	0.0164372
765.841	0.0163777
765.919	0.0163428
765.997	0.0165042
766.075	0.0163068
766.154	0.0164290
766.232	0.0164424
766.310	0.0163853
766.388	0.0163588
766.466	0.0164742
766.544	0.0163743
766.622	0.0164624
766.700	0.0163099
766.779	0.0164177
766.857	0.0162823
766.935	0.0163316
767.013	0.0162287
767.091	0.0161602
767.169	0.0162582
767.247	0.0161998
767.325	0.0160477
767.404	0.0160301
767.482	0.0161466
767.560	0.0162029
767.638	0.0161427
767.716	0.0160281
767.794	0.0161137
767.872	0.0160695
767.950	0.0162020
768.029	0.0161502
768.107	0.0161497
768.185	0.0161335
768.263	0.0161932
768.341	0.0161746
768.419	0.0161962
768.497	0.0162919
768.575	0.0162930
768.654	0.0163860
768.732	0.0162611
768.810	0.0163092
768.888	0.0161571
768.966	0.0163629
769.044	0.0163037
769.122	0.0163673
769.200	0.0164189
769.279	0.0163110
769.357	0.0163361
769.435	0.0165209
769.513	0.0164825
769.591	0.0164034
769.669	0.0163627
769.747	0.0165623
769.825	0.0164857
769.904	0.0164538
769.982	0.0164954
770.060	0.0163876
770.138	0.0165260
770.216	0.0164751
770.294	0.0165385
770.372	0.0164965
770.450	0.0164851
770.529	0.0163956
770.607	0.0165004
770.685	0.0163525
770.763	0.0163408
770.841	0.0163409
770.919	0.0161817
770.997	0.0162391
771.075	0.0164056
771.154	0.0162849
771.232	0.0162167
771.310	0.0164018
771.388	0.0163013
771.466	0.0162330
771.544	0.0163339
771.622	0.0162099
771.700	0.0162935
771.779	0.0163570
771.857	0.0163914
771.935	0.0162757
772.013	0.0161618
772.091	0.0161950
772.169	0.0162659
772.247	0.0162937
772.325	0.0163345
772.404	0.0163646
772.482	0.0162386
772.560	0.0164661
772.638	0.0164860
772.716	0.0164030
772.794	0.0163198
772.872	0.0164852
772.950	0.0164755
773.029	0.0162618
773.107	0.0164198
773.185	0.0162031
773.263	0.0163127
773.341	0.0164093
773.419	0.0163072
773.497	0.0163011
773.575	0.0163564
773.654	0.0163029
773.732	0.0162000
773.810	0.0161249
773.888	0.0160699
773.966	0.0159456
774.044	0.0160845
774.122	0.0160397
774.200	0.0160784
774.279	0.0161074
774.357	0.0160933
774.435	0.0162112
774.513	0.0161591
774.591	0.0163190
774.669	0.0163277
774.747	0.0163833
774.825	0.0164302
774.904	0.0165218
774.982	0.0164869
775.060	0.0166818
775.138	0.0165884
775.216	0.0166277
775.294	0.0166914
775.372	0.0166523
775.450	0.0166978
775.529	0.0166703
775.607	0.0167259
775.685	0.0166013
775.763	0.0163889
775.841	0.0165565
775.919	0.0165406
775.997	0.0165144
776.075	0.0164069
776.154	0.0163534
776.232	0.0164027
776.310	0.0163900
776.388	0.0164668
776.466	0.0163489
776.544	0.0164002
776.622	0.0162797
776.700	0.0163008
776.779	0.0163643
776.857	0.0164164
776.935	0.0163360
777.013	0.0163757
777.091	0.0162132
777.169	0.0161476
777.247	0.0162792
777.325	0.0163080
777.404	0.0162802
777.482	0.0163460
777.560	0.0161983
777.638	0.0162187
777.716	0.0163078
777.794	0.0165001
777.872	0.0163969
777.950	0.0162714
778.029	0.0163102
778.107	0.0162945
778.185	0.0162341
778.263	0.0161745
778.341	0.0161358
778.419	0.0162744
778.497	0.0162639
778.575	0.0162560
778.654	0.0161022
778.732	0.0163675
778.810	0.0163731
778.888	0.0162943
778.966	0.0163055
779.044	0.0161936
779.122	0.0162738
779.200	0.0161850
779.279	0.0162553
779.357	0.0161423
779.435	0.0164136
779.513	0.0164587
779.591	0.0163651
779.669	0.0163428
779.747	0.0163248
779.825	0.0163428
779.904	0.0165210
779.982	0.0163499
780.060	0.0163301
780.138	0.0163852
780.216	0.0164447
780.294	0.0165644
780.372	0.0164232
780.450	0.0165640
780.529	0.0165093
780.607	0.0164723
780.685	0.0166469
780.763	0.0164661
780.841	0.0164081
780.919	0.0164592
780.997	0.0164806
781.075	0.0163863
781.154	0.0164541
781.232	0.0164773
781.310	0.0164887
781.388	0.0164640
781.466	0.0164098
781.544	0.0164888
781.622	0.0163204
781.700	0.0163306
781.779	0.0164297
781.857	0.0163960
781.935	0.0164149
782.013	0.0163414
782.091	0.0163647
782.169	0.0164043
782.247	0.0163221
782.325	0.0163163
782.404	0.0163462
782.482	0.0163492
782.560	0.0162415
782.638	0.0163933
782.716	0.0163342
782.794	0.0161652
782.872	0.0162687
782.950	0.0161751
783.029	0.0161752
783.107	0.0161101
783.185	0.0162386
783.263	0.0161536
783.341	0.0162051
783.419	0.0159947
783.497	0.0161604
783.575	0.0161530
783.654	0.0161034
783.732	0.0161732
783.810	0.0160777
783.888	0.0160339
783.966	0.0162095
784.044	0.0160414
784.122	0.0160622
784.200	0.0162090
784.279	0.0160786
784.357	0.0161822
784.435	0.0160436
784.513	0.0159821
784.591	0.0160183
784.669	0.0160947
784.747	0.0161861
784.825	0.0161246
784.904	0.0161594
784.982	0.0162968
785.060	0.0162806
785.138	0.0162994
785.216	0.0162543
785.294	0.0164146
785.372	0.0163299
785.450	0.0163296
785.529	0.0164877
785.607	0.0165161
785.685	0.0164699
785.763	0.0164323
785.841	0.0163914
785.919	0.0165122
785.997	0.0165335
786.075	0.0165161
786.154	0.0163506
786.232	0.0164413
786.310	0.0164474
786.388	0.0165493
786.466	0.0164279
786.544	0.0164541
786.622	0.0163628
786.700	0.0163995
786.779	0.0164881
786.857	0.0164796
786.935	0.0163908
787.013	0.0163861
787.091	0.0164988
787.169	0.0163793
787.247	0.0165115
787.325	0.0163409
787.404	0.0163502
787.482	0.0163992
787.560	0.0164079
787.638	0.0162909
787.716	0.0162614
787.794	0.0162208
787.872	0.0163613
787.950	0.0162576
788.029	0.0162318
788.107	0.0163104
788.185	0.0163027
788.263	0.0163305
788.341	0.0162328
788.419	0.0161365
788.497	0.0161909
788.575	0.0162290
788.654	0.0161691
788.732	0.0161655
788.810	0.0162629
788.888	0.0162333
788.966	0.0162060
789.044	0.0163692
789.122	0.0161314
789.200	0.0159590
789.279	0.0160955
789.357	0.0160023
789.435	0.0160308
789.513	0.0161244
789.591	0.0161060
789.669	0.0159940
789.747	0.0160896
789.825	0.0160497
789.904	0.0159610
789.982	0.0160008
790.060	0.0161596
790.138	0.0159233
790.216	0.0160785
790.294	0.0162234
790.372	0.0161201
790.450	0.0160411
790.529	0.0162066
790.607	0.0161002
790.685	0.0161729
790.763	0.0162453
790.841	0.0161158
790.919	0.0160551
790.997	0.0163192
791.075	0.0162092
791.154	0.0161828
791.232	0.0163792
791.310	0.0163632
791.388	0.0163454
791.466	0.0163370
791.544	0.0164196
791.622	0.0163401
791.700	0.0161995
791.779	0.0164348
791.857	0.0164377
791.935	0.0163732
792.013	0.0162712
792.091	0.0164315
792.169	0.0164157
792.247	0.0163889
792.325	0.0163504
792.404	0.0163408
792.482	0.0162260
792.560	0.0165072
792.638	0.0164201
792.716	0.0164293
792.794	0.0164568
792.872	0.0164256
792.950	0.0165848
793.029	0.0165176
793.107	0.0162762
793.185	0.0165862
793.263	0.0164270
793.341	0.0165282
793.419	0.0164925
793.497	0.0164747
793.575	0.0166726
793.654	0.0165827
793.732	0.0164992
793.810	0.0164790
793.888	0.0165305
793.966	0.0164525
794.044	0.0163423
794.122	0.0165388
794.200	0.0164411
794.279	0.0163132
794.357	0.0163596
794.435	0.0164037
794.513	0.0163260
794.591	0.0163957
794.669	0.0163696
794.747	0.0162466
794.825	0.0163015
794.904	0.0163393
794.982	0.0164854
795.060	0.0162910
795.138	0.0164306
795.216	0.0163789
795.294	0.0164707
795.372	0.0163757
795.450	0.0163401
795.529	0.0166467
795.607	0.0166597
795.685	0.0165244
795.763	0.0165289
795.841	0.0164468
795.919	0.0165340
795.997	0.0165279
796.075	0.0163465
796.154	0.0163580
796.232	0.0165245
796.310	0.0164103
796.388	0.0163428
796.466	0.0163869
796.544	0.0161779
796.622	0.0163010
796.700	0.0162351
796.779	0.0161578
796.857	0.0161664
796.935	0.0162637
797.013	0.0161077
797.091	0.0161511
797.169	0.0162323
797.247	0.0161802
797.325	0.0162021
797.404	0.0162337
797.482	0.0161835
797.560	0.0161884
797.638	0.0162810
797.716	0.0163131
797.794	0.0162476
797.872	0.0162716
797.950	0.0162955
798.029	0.0161579
798.107	0.0162941
798.185	0.0164805
798.263	0.0162246
798.341	0.0161910
798.419	0.0162944
798.497	0.0162993
798.575	0.0163293
798.654	0.0163879
798.732	0.0162151
798.810	0.0163693
798.888	0.0164835
798.966	0.0164478
799.044	0.0165884
799.122	0.0164804
799.200	0.0165826
799.279	0.0163551
799.357	0.0164191
799.435	0.0165814
799.513	0.0166653
799.591	0.0164320
799.669	0.0164400
799.747	0.0164099
799.825	0.0164724
799.904	0.0163550
799.982	0.0163618
800.060	0.0164597
800.138	0.0165932
800.216	0.0164891
800.294	0.0164063
800.372	0.0163213
800.450	0.0162827
800.529	0.0163541
800.607	0.0163409
800.685	0.0163839
800.763	0.0163861
800.841	0.0162818
800.919	0.0163093
800.997	0.0162009
801.075	0.0162484
801.154	0.0164217
801.232	0.0162441
801.310	0.0163595
801.388	0.0162091
801.466	0.0161900
801.544	0.0162973
801.622	0.0163525
801.700	0.0162873
801.779	0.0162179
801.857	0.0163093
801.935	0.0162566
802.013	0.0162957
802.091	0.0163315
802.169	0.0163329
802.247	0.0163642
802.325	0.0164993
802.404	0.0163435
802.482	0.0163592
802.560	0.0163777
802.638	0.0163953
802.716	0.0161203
802.794	0.0164314
802.872	0.0165579
802.950	0.0164997
803.029	0.0164297
803.107	0.0164642
803.185	0.0164565
803.263	0.0164898
803.341	0.0164101
803.419	0.0164964
803.497	0.0166151
803.575	0.0164537
803.654	0.0164740
803.732	0.0164516
803.810	0.0164572
803.888	0.0165058
803.966	0.0163793
804.044	0.0164728
804.122	0.0164429
804.200	0.0165462
804.279	0.0163329
804.357	0.0164051
804.435	0.0163570
804.513	0.0163295
804.591	0.0163008
804.669	0.0162955
804.747	0.0162338
804.825	0.0163117
804.904	0.0162629
804.982	0.0161845
805.060	0.0161703
805.138	0.0161951
805.216	0.0161210
805.294	0.0161936
805.372	0.0161248
805.450	0.0161163
805.529	0.0161240
805.607	0.0160528
805.685	0.0160438
805.763	0.0160120
805.841	0.0160511
805.919	0.0161414
805.997	0.0160130
806.075	0.0160338
806.154	0.0161259
806.232	0.0161762
806.310	0.0161678
806.388	0.0162656
806.466	0.0162022
806.544	0.0162740
806.622	0.0161511
806.700	0.0163647
806.779	0.0164549
806.857	0.0163871
806.935	0.0164214
807.013	0.0164392
807.091	0.0164335
807.169	0.0164268
807.247	0.0164447
807.325	0.0164929
807.404	0.0164299
807.482	0.0164928
807.560	0.0164787
807.638	0.0163953
807.716	0.0163554
807.794	0.0163619
807.872	0.0163634
807.950	0.0162235
808.029	0.0161959
808.107	0.0161871
808.185	0.0162715
808.263	0.0162254
808.341	0.0161271
808.419	0.0159999
808.497	0.0160239
808.575	0.0160616
808.654	0.0160458
808.732	0.0158793
808.810	0.0161549
808.888	0.0160989
808.966	0.0161709
809.044	0.0159898
809.122	0.0160641
809.200	0.0162031
809.279	0.0160930
809.357	0.0161436
809.435	0.0161553
809.513	0.0161405
809.591	0.0161293
809.669	0.0161793
809.747	0.0162125
809.825	0.0162054
809.904	0.0162064
809.982	0.0162225
810.060	0.0162749
810.138	0.0162392
810.216	0.0162450
810.294	0.0162486
810.372	0.0163173
810.450	0.0164435
810.529	0.0164877
810.607	0.0163925
810.685	0.0163402
810.763	0.0164781
810.841	0.0164510
810.919	0.0165009
810.997	0.0164565
811.075	0.0164629
811.154	0.0165351
811.232	0.0164085
811.310	0.0163393
811.388	0.0163674
811.466	0.0163911
811.544	0.0164220
811.622	0.0163689
811.700	0.0162936
811.779	0.0163831
811.857	0.0163586
811.935	0.0163445
812.013	0.0164421
812.091	0.0163463
812.169	0.0163629
812.247	0.0163277
812.325	0.0163026
812.404	0.0162815
812.482	0.0161776
812.560	0.0163688
812.638	0.0162859
812.716	0.0163774
812.794	0.0163510
812.872	0.0163449
812.950	0.0163087
813.029	0.0162328
813.107	0.0163964
813.185	0.0163023
813.263	0.0162915
813.341	0.0163641
813.419	0.0163658
813.497	0.0163216
813.575	0.0162979
813.654	0.0162904
813.732	0.0163097
813.810	0.0162224
813.888	0.0163509
813.966	0.0162740
814.044	0.0164132
814.122	0.0163706
814.200	0.0163504
814.279	0.0163210
814.357	0.0163870
814.435	0.0164556
814.513	0.0163187
814.591	0.0163303
814.669	0.0163604
814.747	0.0164334
814.825	0.0164258
814.904	0.0164328
814.982	0.0163477
815.060	0.0164708
815.138	0.0165637
815.216	0.0165473
815.294	0.0164502
815.372	0.0165083
815.450	0.0165086
815.529	0.0165760
815.607	0.0164748
815.685	0.0164973
815.763	0.0164596
815.841	0.0164375
815.919	0.0164883
815.997	0.0165175
816.075	0.0163167
816.154	0.0161823
816.232	0.0161148
816.310	0.0162322
816.388	0.0163158
816.466	0.0162412
816.544	0.0162946
816.622	0.0161439
816.700	0.0160915
816.779	0.0160558
816.857	0.0161230
816.935	0.0160957
817.013	0.0162254
817.091	0.0161502
817.169	0.0161369
817.247	0.0161534
817.325	0.0161417
817.404	0.0162386
817.482	0.0161106
817.560	0.0161674
817.638	0.0163863
817.716	0.0163010
817.794	0.0164801
817.872	0.0163199
817.950	0.0162882
818.029	0.0163683
818.107	0.0164169
818.185	0.0164411
818.263	0.0165528
818.341	0.0164831
818.419	0.0164548
818.497	0.0164363
818.575	0.0164163
818.654	0.0164346
818.732	0.0164693
818.810	0.0165031
818.888	0.0165152
818.966	0.0165258
819.044	0.0164746
819.122	0.0165298
819.200	0.0163364
819.279	0.0164626
819.357	0.0163643
819.435	0.0163670
819.513	0.0164070
819.591	0.0162962
819.669	0.0163343
819.747	0.0164313
819.825	0.0163635
819.904	0.0161886
819.982	0.0162993
820.060	0.0162384
820.138	0.0162750
820.216	0.0161996
820.294	0.0162353
820.372	0.0162768
820.450	0.0161813
820.529	0.0160823
820.607	0.0161420
820.685	0.0161647
820.763	0.0161090
820.841	0.0161379
820.919	0.0160142
820.997	0.0160524
821.075	0.0161416
821.154	0.0160826
821.232	0.0160043
821.310	0.0159318
821.388	0.0159406
821.466	0.0160046
821.544	0.0160253
821.622	0.0159377
821.700	0.0159255
821.779	0.0160924
821.857	0.0161340
821.935	0.0160366
822.013	0.0160485
822.091	0.0160859
822.169	0.0161675
822.247	0.0162688
822.325	0.0162489
822.404	0.0164072
822.482	0.0165100
822.560	0.0165376
822.638	0.0165885
822.716	0.0166301
822.794	0.0166499
822.872	0.0168539
822.950	0.0167735
823.029	0.0168224
823.107	0.0167697
823.185	0.0167904
823.263	0.0168965
823.341	0.0167628
823.419	0.0167009
823.497	0.0168449
823.575	0.0169070
823.654	0.0167096
823.732	0.0166978
823.810	0.0166134
823.888	0.0166406
823.966	0.0165468
824.044	0.0167320
824.122	0.0166193
824.200	0.0165316
824.279	0.0165771
824.357	0.0165721
824.435	0.0164220
824.513	0.0165366
824.591	0.0165565
824.669	0.0164674
824.747	0.0165588
824.825	0.0165289
824.904	0.0165039
824.982	0.0164445
825.060	0.0163019
825.138	0.0164411
825.216	0.0164451
825.294	0.0163870
825.372	0.0164413
825.450	0.0164079
825.529	0.0164776
825.607	0.0164368
825.685	0.0163457
825.763	0.0164652
825.841	0.0163298
825.919	0.0165029
825.997	0.0164800
826.075	0.0165227
826.154	0.0165653
826.232	0.0164989
826.310	0.0164867
826.388	0.0165614
826.466	0.0165517
826.544	0.0165029
826.622	0.0166391
826.700	0.0165634
826.779	0.0164299
826.857	0.0165192
826.935	0.0164488
827.013	0.0165490
827.091	0.0165260
827.169	0.0165790
827.247	0.0164663
827.325	0.0166100
827.404	0.0166132
827.482	0.0166303
827.560	0.0165437
827.638	0.0166058
827.716	0.0165771
827.794	0.0166026
827.872	0.0165046
827.950	0.0165648
828.029	0.0165137
828.107	0.0164862
828.185	0.0163994
828.263	0.0163490
828.341	0.0164002
828.419	0.0163052
828.497	0.0161976
828.575	0.0162102
828.654	0.0163423
828.732	0.0162020
828.810	0.0159905
828.888	0.0160692
828.966	0.0160473
829.044	0.0160019
829.122	0.0160262
829.200	0.0161254
829.279	0.0160664
829.357	0.0161310
829.435	0.0161008
829.513	0.0159843
829.591	0.0160544
829.669	0.0161678
829.747	0.0159322
829.825	0.0161123
829.904	0.0161646
829.982	0.0160523
830.060	0.0162234
830.138	0.0161517
830.216	0.0160590
830.294	0.0161808
830.372	0.0161868
830.450	0.0161734
830.529	0.0162566
830.607	0.0161505
830.685	0.0162321
830.763	0.0163321
830.841	0.0163168
830.919	0.0164530
830.997	0.0165074
831.075	0.0163114
831.154	0.0163271
831.232	0.0163188
831.310	0.0164395
831.388	0.0164308
831.466	0.0162543
831.544	0.0164074
831.622	0.0162079
831.700	0.0162329
831.779	0.0162844
831.857	0.0162289
831.935	0.0162992
832.013	0.0161296
832.091	0.0162790
832.169	0.0161966
832.247	0.0163005
832.325	0.0162965
832.404	0.0160676
832.482	0.0160525
832.560	0.0162807
832.638	0.0161787
832.716	0.0160421
832.794	0.0162039
832.872	0.0160876
832.950	0.0160007
833.029	0.0160249
833.107	0.0161069
833.185	0.0162212
833.263	0.0162092
833.341	0.0162468
833.419	0.0162613
833.497	0.0163018
833.575	0.0162666
833.654	0.0162945
833.732	0.0164243
833.810	0.0164070
833.888	0.0163046
833.966	0.0163826
834.044	0.0163862
834.122	0.0165146
834.200	0.0164582
834.279	0.0164857
834.357	0.0165438
834.435	0.0167264
834.513	0.0164100
834.591	0.0166766
834.669	0.0165282
834.747	0.0165323
834.825	0.0165564
834.904	0.0164449
834.982	0.0162897
835.060	0.0163839
835.138	0.0164294
835.216	0.0162740
835.294	0.0162162
835.372	0.0163821
835.450	0.0161852
835.529	0.0160002
835.607	0.0161002
835.685	0.0160662
835.763	0.0160092
835.841	0.0160812
835.919	0.0158869
835.997	0.0159513
836.075	0.0158916
836.154	0.0158970
836.232	0.0158923
836.310	0.0159412
836.388	0.0158655
836.466	0.0159273
836.544	0.0158362
836.622	0.0158656
836.700	0.0158813
836.779	0.0160836
836.857	0.0159651
836.935	0.0159412
837.013	0.0160592
837.091	0.0161003
837.169	0.0163098
837.247	0.0161969
837.325	0.0162610
837.404	0.0163652
837.482	0.0163592
837.560	0.0164287
837.638	0.0165257
837.716	0.0164953
837.794	0.0166502
837.872	0.0167584
837.950	0.0166827
838.029	0.0165630
838.107	0.0167319
838.185	0.0166704
838.263	0.0166207
838.341	0.0167677
838.419	0.0165800
838.497	0.0167165
838.575	0.0167046
838.654	0.0166558
838.732	0.0165642
838.810	0.0165292
838.888	0.0166705
838.966	0.0165057
839.044	0.0164375
839.122	0.0164314
839.200	0.0165135
839.279	0.0165584
839.357	0.0164385
839.435	0.0164072
839.513	0.0163549
839.591	0.0162663
839.669	0.0163107
839.747	0.0162923
839.825	0.0161482
839.904	0.0162571
839.982	0.0163068
840.060	0.0163383
840.138	0.0162737
840.216	0.0162682
840.294	0.0161744
840.372	0.0163394
840.450	0.0163874
840.529	0.0162390
840.607	0.0161843
840.685	0.0163132
840.763	0.0161327
840.841	0.0162892
840.919	0.0162080
840.997	0.0161617
841.075	0.0163868
841.154	0.0163335
841.232	0.0162947
841.310	0.0162594
841.388	0.0162959
841.466	0.0163599
841.544	0.0163274
841.622	0.0163616
841.700	0.0162664
841.779	0.0163972
841.857	0.0163220
841.935	0.0162000
842.013	0.0162392
842.091	0.0162882
842.169	0.0161771
842.247	0.0161974
842.325	0.0162012
842.404	0.0162498
842.482	0.0161649
842.560	0.0161284
842.638	0.0162141
842.716	0.0162005
842.794	0.0162321
842.872	0.0161651
842.950	0.0161887
843.029	0.0164562
843.107	0.0164618
843.185	0.0164694
843.263	0.0163308
843.341	0.0163132
843.419	0.0162886
843.497	0.0163864
843.575	0.0164560
843.654	0.0163032
843.732	0.0164902
843.810	0.0163577
843.888	0.0163884
843.966	0.0164951
844.044	0.0166190
844.122	0.0165267
844.200	0.0165792
844.279	0.0166052
844.357	0.0166142
844.435	0.0165011
844.513	0.0165665
844.591	0.0166225
844.669	0.0165620
844.747	0.0165716
844.825	0.0166975
844.904	0.0166014
844.982	0.0165256
845.060	0.0165361
845.138	0.0165650
845.216	0.0166911
845.294	0.0165909
845.372	0.0164671
845.450	0.0164873
845.529	0.0165015
845.607	0.0164078
845.685	0.0165042
845.763	0.0165043
845.841	0.0165559
845.919	0.0163361
845.997	0.0163869
846.075	0.0162132
846.154	0.0162364
846.232	0.0162407
846.310	0.0163082
846.388	0.0162402
846.466	0.0163375
846.544	0.0162229
846.622	0.0160909
846.700	0.0161209
846.779	0.0160291
846.857	0.0159374
846.935	0.0160128
847.013	0.0161575
847.091	0.0161581
847.169	0.0160818
847.247	0.0160256
847.325	0.0161541
847.404	0.0161215
847.482	0.0161092
847.560	0.0161856
847.638	0.0161349
847.716	0.0162618
847.794	0.0161899
847.872	0.0163263
847.950	0.0162517
848.029	0.0161350
848.107	0.0164535
848.185	0.0164986
848.263	0.0163362
848.341	0.0165677
848.419	0.0163593
848.497	0.0164260
848.575	0.0165073
848.654	0.0166336
848.732	0.0164461
848.810	0.0165129
848.888	0.0164362
848.966	0.0165423
849.044	0.0164999
849.122	0.0163488
849.200	0.0165093
849.279	0.0164391
849.357	0.0165666
849.435	0.0165270
849.513	0.0164875
849.591	0.0164872
849.669	0.0164664
849.747	0.0164426
849.825	0.0165319
849.904	0.0165700
849.982	0.0163844
850.060	0.0165364
850.138	0.0165922
850.216	0.0164007
850.294	0.0164282
850.372	0.0166264
850.450	0.0166053
850.529	0.0163571
850.607	0.0163963
850.685	0.0163686
850.763	0.0163645
850.841	0.0163371
850.919	0.0162176
850.997	0.0162679
851.075	0.0162598
851.154	0.0162292
851.232	0.0161652
851.310	0.0161174
851.388	0.0160943
851.466	0.0160158
851.544	0.0161244
851.622	0.0159717
851.700	0.0161063
851.779	0.0160324
851.857	0.0160349
851.935	0.0159293
852.013	0.0158873
852.091	0.0160782
852.169	0.0160397
852.247	0.0159718
852.325	0.0161304
852.404	0.0160423
852.482	0.0159482
852.560	0.0160484
852.638	0.0160763
852.716	0.0160873
852.794	0.0161141
852.872	0.0161549
852.950	0.0161012
853.029	0.0162069
853.107	0.0163068
853.185	0.0161238
853.263	0.0162476
853.341	0.0163572
853.419	0.0162576
853.497	0.0164458
853.575	0.0164744
853.654	0.0163840
853.732	0.0164458
853.810	0.0165457
853.888	0.0164128
853.966	0.0165530
854.044	0.0164582
854.122	0.0164146
854.200	0.0164465
854.279	0.0164724
854.357	0.0164234
854.435	0.0164491
854.513	0.0164433
854.591	0.0164514
854.669	0.0163814
854.747	0.0162468
854.825	0.0163206
854.904	0.0163380
854.982	0.0163380
855.060	0.0162088
855.138	0.0163315
855.216	0.0161897
855.294	0.0163190
855.372	0.0163788
855.450	0.0163609
855.529	0.0162915
855.607	0.0164737
855.685	0.0165291
855.763	0.0165022
855.841	0.0164065
855.919	0.0164812
855.997	0.0164750
856.075	0.0166420
856.154	0.0165784
856.232	0.0165633
856.310	0.0166244
856.388	0.0166700
856.466	0.0166888
856.544	0.0165917
856.622	0.0165228
856.700	0.0165328
856.779	0.0165324
856.857	0.0165425
856.935	0.0166490
857.013	0.0164029
857.091	0.0165400
857.169	0.0165643
857.247	0.0163317
857.325	0.0163116
857.404	0.0164426
857.482	0.0163049
857.560	0.0163058
857.638	0.0163744
857.716	0.0161916
857.794	0.0162748
857.872	0.0162552
857.950	0.0163785
858.029	0.0162943
858.107	0.0162008
858.185	0.0161700
858.263	0.0162387
858.341	0.0162546
858.419	0.0164246
858.497	0.0163730
858.575	0.0162981
858.654	0.0162989
858.732	0.0163391
858.810	0.0163142
858.888	0.0162394
858.966	0.0163761
859.044	0.0164720
859.122	0.0163792
859.200	0.0163603
859.279	0.0164112
859.357	0.0163509
859.435	0.0163139
859.513	0.0162585
859.591	0.0164301
859.669	0.0162843
859.747	0.0162383
859.825	0.0163804
859.904	0.0163737
859.982	0.0165003
860.060	0.0165083
860.138	0.0166220
860.216	0.0163282
860.294	0.0164349
860.372	0.0163963
860.450	0.0165223
860.529	0.0165080
860.607	0.0164819
860.685	0.0163656
860.763	0.0163843
860.841	0.0163196
860.919	0.0162922
860.997	0.0162852
861.075	0.0162927
861.154	0.0163042
861.232	0.0164043
861.310	0.0163905
861.388	0.0162749
861.466	0.0162026
861.544	0.0162385
861.622	0.0163718
861.700	0.0165262
861.779	0.0163100
861.857	0.0162852
861.935	0.0162744
862.013	0.0162814
862.091	0.0163019
862.169	0.0161938
862.247	0.0162771
862.325	0.0163271
862.404	0.0163081
862.482	0.0163556
862.560	0.0162336
862.638	0.0162236
862.716	0.0163401
862.794	0.0162984
862.872	0.0161504
862.950	0.0162126
863.029	0.0162705
863.107	0.0164065
863.185	0.0164340
863.263	0.0164692
863.341	0.0163990
863.419	0.0164065
863.497	0.0164294
863.575	0.0163264
863.654	0.0165125
863.732	0.0163889
863.810	0.0164336
863.888	0.0163314
863.966	0.0163213
864.044	0.0164279
864.122	0.0164557
864.200	0.0161659
864.279	0.0162764
864.357	0.0164449
864.435	0.0165713
864.513	0.0163109
864.591	0.0163635
864.669	0.0162596
864.747	0.0163017
864.825	0.0164670
864.904	0.0163194
864.982	0.0164185
865.060	0.0162706
865.138	0.0163059
865.216	0.0163253
865.294	0.0163325
865.372	0.0162709
865.450	0.0163020
865.529	0.0163572
865.607	0.0164024
865.685	0.0164634
865.763	0.0163788
865.841	0.0162252
865.919	0.0163689
865.997	0.0165114
866.075	0.0164912
866.154	0.0163157
866.232	0.0163472
866.310	0.0163805
866.388	0.0164671
866.466	0.0162491
866.544	0.0162810
866.622	0.0163117
866.700	0.0164027
866.779	0.0163580
866.857	0.0164285
866.935	0.0163116
867.013	0.0164548
867.091	0.0164199
867.169	0.0164327
867.247	0.0164392
867.325	0.0164390
867.404	0.0165179
867.482	0.0163315
867.560	0.0163741
867.638	0.0164562
867.716	0.0164725
867.794	0.0163794
867.872	0.0163940
867.950	0.0165128
868.029	0.0164300
868.107	0.0164307
868.185	0.0164960
868.263	0.0164352
868.341	0.0162543
868.419	0.0164893
868.497	0.0162921
868.575	0.0163661
868.654	0.0163748
868.732	0.0163006
868.810	0.0163289
868.888	0.0164114
868.966	0.0162566
869.044	0.0163178
869.122	0.0162569
869.200	0.0163446
869.279	0.0162422
869.357	0.0162672
869.435	0.0162939
869.513	0.0163308
869.591	0.0163425
869.669	0.0162877
869.747	0.0163187
869.825	0.0163844
869.904	0.0164221
869.982	0.0163983
870.060	0.0164099
870.138	0.0163786
870.216	0.0164107
870.294	0.0164758
870.372	0.0164532
870.450	0.0163605
870.529	0.0165937
870.607	0.0163941
870.685	0.0163636
870.763	0.0165260
870.841	0.0165892
870.919	0.0164734
870.997	0.0163894
871.075	0.0163564
871.154	0.0163124
871.232	0.0163892
871.310	0.0164523
871.388	0.0163769
871.466	0.0164431
871.544	0.0163289
871.622	0.0162927
871.700	0.0162964
871.779	0.0162205
871.857	0.0162071
871.935	0.0162907
872.013	0.0163879
872.091	0.0162892
872.169	0.0161353
872.247	0.0163471
872.325	0.0161576
872.404	0.0161413
872.482	0.0163169
872.560	0.0161485
872.638	0.0163271
872.716	0.0163717
872.794	0.0162184
872.872	0.0161449
872.950	0.0163360
873.029	0.0162533
873.107	0.0162979
873.185	0.0162789
873.263	0.0161595
873.341	0.0164811
873.419	0.0162142
873.497	0.0163447
873.575	0.0162987
873.654	0.0162556
873.732	0.0162768
873.810	0.0162902
873.888	0.0162206
873.966	0.0163622
874.044	0.0164427
874.122	0.0163012
874.200	0.0162681
874.279	0.0162947
874.357	0.0162828
874.435	0.0163809
874.513	0.0163591
874.591	0.0163535
874.669	0.0162427
874.747	0.0163575
874.825	0.0163093
874.904	0.0164649
874.982	0.0162244
875.060	0.0163377
875.138	0.0162696
875.216	0.0163647
875.294	0.0164445
875.372	0.0163832
875.450	0.0163528
875.529	0.0164996
875.607	0.0164574
875.685	0.0163414
875.763	0.0165434
875.841	0.0163929
875.919	0.0163810
875.997	0.0165916
876.075	0.0164948
876.154	0.0164579
876.232	0.0164564
876.310	0.0164845
876.388	0.0164376
876.466	0.0164587
876.544	0.0164818
876.622	0.0163063
876.700	0.0165012
876.779	0.0162923
876.857	0.0162375
876.935	0.0163802
877.013	0.0163152
877.091	0.0161767
877.169	0.0163510
877.247	0.0163746
877.325	0.0162634
877.404	0.0161887
877.482	0.0162639
877.560	0.0163681
877.638	0.0161474
877.716	0.0163484
877.794	0.0162434
877.872	0.0163869
877.950	0.0161931
878.029	0.0163111
878.107	0.0163303
878.185	0.0164294
878.263	0.0165348
878.341	0.0163518
878.419	0.0163242
878.497	0.0162927
878.575	0.0164218
878.654	0.0163131
878.732	0.0163335
878.810	0.0164011
878.888	0.0164371
878.966	0.0163110
879.044	0.0164044
879.122	0.0163173
879.200	0.0163445
879.279	0.0163009
879.357	0.0163508
879.435	0.0164004
879.513	0.0164306
879.591	0.0162506
879.669	0.0163255
879.747	0.0164512
879.825	0.0163912
879.904	0.0163681
879.982	0.0162846
880.060	0.0163336
880.138	0.0163408
880.216	0.0162656
880.294	0.0163023
880.372	0.0163342
880.450	0.0163346
880.529	0.0163626
880.607	0.0163068
880.685	0.0162977
880.763	0.0163488
880.841	0.0163303
880.919	0.0163402
880.997	0.0163876
881.075	0.0164337
881.154	0.0163020
881.232	0.0163011
881.310	0.0163438
881.388	0.0164432
881.466	0.0163032
881.544	0.0163400
881.622	0.0163882
881.700	0.0162500
881.779	0.0163006
881.857	0.0163885
881.935	0.0163429
882.013	0.0163281
882.091	0.0163145
882.169	0.0164272
882.247	0.0164036
882.325	0.0164013
882.404	0.0163026
882.482	0.0163869
882.560	0.0163314
882.638	0.0164198
882.716	0.0163241
882.794	0.0165166
882.872	0.0165416
882.950	0.0164195
883.029	0.0165553
883.107	0.0164627
883.185	0.0165859
883.263	0.0164499
883.341	0.0164509
883.419	0.0165894
883.497	0.0164866
883.575	0.0164995
883.654	0.0166314
883.732	0.0165383
883.810	0.0165356
883.888	0.0165170
883.966	0.0165622
884.044	0.0164680
884.122	0.0165182
884.200	0.0165631
884.279	0.0164702
884.357	0.0162793
884.435	0.0163081
884.513	0.0164529
884.591	0.0162717
884.669	0.0163877
884.747	0.0162913
884.825	0.0162559
884.904	0.0162902
884.982	0.0163056
885.060	0.0161102
885.138	0.0162434
885.216	0.0163943
885.294	0.0161670
885.372	0.0161257
885.450	0.0161887
885.529	0.0161755
885.607	0.0162899
885.685	0.0163180
885.763	0.0162914
885.841	0.0162135
885.919	0.0163489
885.997	0.0162854
886.075	0.0163590
886.154	0.0163371
886.232	0.0163361
886.310	0.0164482
886.388	0.0163954
886.466	0.0162764
886.544	0.0163818
886.622	0.0162405
886.700	0.0162895
886.779	0.0163873
886.857	0.0163676
886.935	0.0163240
887.013	0.0162946
887.091	0.0164533
887.169	0.0163666
887.247	0.0163646
887.325	0.0164973
887.404	0.0164279
887.482	0.0164015
887.560	0.0164569
887.638	0.0163468
887.716	0.0164178
887.794	0.0164021
887.872	0.0165271
887.950	0.0164303
888.029	0.0164255
888.107	0.0165406
888.185	0.0164772
888.263	0.0164031
888.341	0.0165797
888.419	0.0166265
888.497	0.0165247
888.575	0.0165514
888.654	0.0165950
888.732	0.0165503
888.810	0.0165001
888.888	0.0165251
888.966	0.0165441
889.044	0.0163654
889.122	0.0165926
889.200	0.0166246
889.279	0.0166444
889.357	0.0166189
889.435	0.0165709
889.513	0.0165524
889.591	0.0165458
889.669	0.0164473
889.747	0.0165549
889.825	0.0165070
889.904	0.0163966
889.982	0.0164855
890.060	0.0165473
890.138	0.0164458
890.216	0.0166394
890.294	0.0165310
890.372	0.0164753
890.450	0.0163972
890.529	0.0164690
890.607	0.0164233
890.685	0.0164662
890.763	0.0164716
890.841	0.0164099
890.919	0.0163328
890.997	0.0164758
891.075	0.0164658
891.154	0.0164079
891.232	0.0163219
891.310	0.0162896
891.388	0.0163359
891.466	0.0164779
891.544	0.0165200
891.622	0.0164028
891.700	0.0162373
891.779	0.0162608
891.857	0.0162782
891.935	0.0163360
892.013	0.0162189
892.091	0.0162734
892.169	0.0163096
892.247	0.0162056
892.325	0.0161922
892.404	0.0163795
892.482	0.0162879
892.560	0.0162107
892.638	0.0163277
892.716	0.0164442
892.794	0.0163775
892.872	0.0162980
892.950	0.0163504
893.029	0.0163488
893.107	0.0164509
893.185	0.0164677
893.263	0.0163940
893.341	0.0163344
893.419	0.0163290
893.497	0.0162407
893.575	0.0164012
893.654	0.0163419
893.732	0.0162907
893.810	0.0162891
893.888	0.0163536
893.966	0.0161900
894.044	0.0163798
894.122	0.0163610
894.200	0.0163110
894.279	0.0162233
894.357	0.0159901
894.435	0.0161614
894.513	0.0162518
894.591	0.0163392
894.669	0.0162646
894.747	0.0162243
894.825	0.0162658
894.904	0.0161596
894.982	0.0162484
895.060	0.0162402
895.138	0.0162927
895.216	0.0161498
895.294	0.0162524
895.372	0.0161366
895.450	0.0162109
895.529	0.0162167
895.607	0.0162467
895.685	0.0163609
895.763	0.0163374
895.841	0.0162306
895.919	0.0162341
895.997	0.0161998
896.075	0.0163082
896.154	0.0162756
896.232	0.0164673
896.310	0.0163145
896.388	0.0163754
896.466	0.0163554
896.544	0.0163721
896.622	0.0163596
896.700	0.0163792
896.779	0.0163081
896.857	0.0164922
896.935	0.0164239
897.013	0.0164193
897.091	0.0163794
897.169	0.0163940
897.247	0.0163664
897.325	0.0163219
897.404	0.0163316
897.482	0.0163255
897.560	0.0163855
897.638	0.0164027
897.716	0.0164108
897.794	0.0163831
897.872	0.0164106
897.950	0.0164185
898.029	0.0163456
898.107	0.0163317
898.185	0.0164751
898.263	0.0163599
898.341	0.0163107
898.419	0.0164825
898.497	0.0163885
898.575	0.0163470
898.654	0.0164258
898.732	0.0164322
898.810	0.0163388
898.888	0.0164342
898.966	0.0165026
899.044	0.0164133
899.122	0.0164091
899.200	0.0163541
899.279	0.0164945
899.357	0.0163603
899.435	0.0164304
899.513	0.0164370
899.591	0.0162411
899.669	0.0162598
899.747	0.0164082
899.825	0.0163358
899.904	0.0164660
899.982	0.0163974
900.060	0.0163926
900.138	0.0163436
900.216	0.0164022
900.294	0.0163723
900.372	0.0163779
900.450	0.0163718
900.529	0.0163015
900.607	0.0163777
900.685	0.0164612
900.763	0.0163446
900.841	0.0164259
900.919	0.0163357
900.997	0.0165255
901.075	0.0163905
901.154	0.0162840
901.232	0.0163375
901.310	0.0163999
901.388	0.0162653
901.466	0.0162115
901.544	0.0163117
901.622	0.0161861
901.700	0.0163027
901.779	0.0162619
901.857	0.0163206
901.935	0.0162222
902.013	0.0162624
902.091	0.0162981
902.169	0.0163217
902.247	0.0164172
902.325	0.0162529
902.404	0.0163246
902.482	0.0162222
902.560	0.0161883
902.638	0.0162936
902.716	0.0163506
902.794	0.0162629
902.872	0.0164723
902.950	0.0163591
903.029	0.0163427
903.107	0.0163203
903.185	0.0163768
903.263	0.0165012
903.341	0.0163020
903.419	0.0163086
903.497	0.0162312
903.575	0.0163116
903.654	0.0164339
903.732	0.0164442
903.810	0.0161722
903.888	0.0163223
903.966	0.0163434
904.044	0.0162535
904.122	0.0163422
904.200	0.0163643
904.279	0.0163969
904.357	0.0163336
904.435	0.0163129
904.513	0.0162926
904.591	0.0162770
904.669	0.0162563
904.747	0.0161182
904.825	0.0163164
904.904	0.0162120
904.982	0.0160140
905.060	0.0162916
905.138	0.0162487
905.216	0.0162317
905.294	0.0162397
905.372	0.0164524
905.450	0.0163149
905.529	0.0164003
905.607	0.0163837
905.685	0.0163177
905.763	0.0163676
905.841	0.0162609
905.919	0.0163410
905.997	0.0164492
906.075	0.0163864
906.154	0.0163718
906.232	0.0164271
906.310	0.0164535
906.388	0.0163409
906.466	0.0164614
906.544	0.0165141
906.622	0.0165169
906.700	0.0164748
906.779	0.0164710
906.857	0.0165618
906.935	0.0165053
907.013	0.0164325
907.091	0.0164278
907.169	0.0164083
907.247	0.0164194
907.325	0.0164655
907.404	0.0163232
907.482	0.0163942
907.560	0.0164510
907.638	0.0163719
907.716	0.0163980
907.794	0.0163535
907.872	0.0163650
907.950	0.0164861
908.029	0.0165023
908.107	0.0163397
908.185	0.0164754
908.263	0.0163712
908.341	0.0163331
908.419	0.0164159
908.497	0.0163806
908.575	0.0164629
908.654	0.0164581
908.732	0.0162846
908.810	0.0164208
908.888	0.0163529
908.966	0.0163405
909.044	0.0164332
909.122	0.0163444
909.200	0.0163328
909.279	0.0163557
909.357	0.0163818
909.435	0.0163094
909.513	0.0162557
909.591	0.0162874
909.669	0.0162981
909.747	0.0162616
909.825	0.0162673
909.904	0.0162620
909.982	0.0163478
910.060	0.0162573
910.138	0.0161826
910.216	0.0163208
910.294	0.0162601
910.372	0.0163898
910.450	0.0161813
910.529	0.0163059
910.607	0.0164239
910.685	0.0164584
910.763	0.0165317
910.841	0.0165311
910.919	0.0166350
910.997	0.0166615
911.075	0.0165923
911.154	0.0164412
911.232	0.0165322
911.310	0.0166592
911.388	0.0166793
911.466	0.0165993
911.544	0.0167010
911.622	0.0167096
911.700	0.0166098
911.779	0.0166306
911.857	0.0165506
911.935	0.0166054
912.013	0.0166320
912.091	0.0165762
912.169	0.0166161
912.247	0.0165067
912.325	0.0166396
912.404	0.0165098
912.482	0.0164468
912.560	0.0165826
912.638	0.0165273
912.716	0.0164509
912.794	0.0164457
912.872	0.0163585
912.950	0.0164184
913.029	0.0163448
913.107	0.0163353
913.185	0.0163206
913.263	0.0163644
913.341	0.0163601
913.419	0.0163778
913.497	0.0164004
913.575	0.0163737
913.654	0.0162395
913.732	0.0163362
913.810	0.0163595
913.888	0.0163152
913.966	0.0163608
914.044	0.0163084
914.122	0.0162826
914.200	0.0161820
914.279	0.0162636
914.357	0.0163391
914.435	0.0162354
914.513	0.0163323
914.591	0.0162997
914.669	0.0163145
914.747	0.0163689
914.825	0.0163551
914.904	0.0162444
914.982	0.0162077
915.060	0.0163745
915.138	0.0163406
915.216	0.0164120
915.294	0.0162250
915.372	0.0163618
915.450	0.0164015
915.529	0.0164537
915.607	0.0163225
915.685	0.0163356
915.763	0.0162679
915.841	0.0164170
915.919	0.0163596
915.997	0.0163335
916.075	0.0162471
916.154	0.0162705
916.232	0.0163625
916.310	0.0163816
916.388	0.0163656
916.466	0.0163068
916.544	0.0163495
916.622	0.0162968
916.700	0.0162869
916.779	0.0163340
916.857	0.0164365
916.935	0.0163596
917.013	0.0162328
917.091	0.0162904
917.169	0.0161990
917.247	0.0163400
917.325	0.0163318
917.404	0.0162424
917.482	0.0161868
917.560	0.0161728
917.638	0.0161309
917.716	0.0160882
917.794	0.0160993
917.872	0.0160268
917.950	0.0161958
918.029	0.0161379
918.107	0.0161852
918.185	0.0161295
918.263	0.0159911
918.341	0.0159401
918.419	0.0159904
918.497	0.0160886
918.575	0.0161455
918.654	0.0161244
918.732	0.0160749
918.810	0.0160197
918.888	0.0161057
918.966	0.0162318
919.044	0.0162064
919.122	0.0162682
919.200	0.0162469
919.279	0.0162124
919.357	0.0164227
919.435	0.0164124
919.513	0.0163873
919.591	0.0163837
919.669	0.0164556
919.747	0.0163788
919.825	0.0164179
919.904	0.0164699
