05/24/2022	20:50:42	Ver.	4.1	UNKNOWN
Optical Delay	599.981738	Delta X		0.078125	Sweeps	1	Scan Rate	0/0
Coordinates	Axis 1	NaN	Axis 2	NaN	Axis 3	NaN	Axis 4	NaN	Axis 5	NaN	Axis 6	0.000000
TX Power	0.000000	RX Power	0.000000

599.982	0.0167172
600.060	0.0166368
600.138	0.0167387
600.216	0.0166493
600.294	0.0166737
600.372	0.0168117
600.450	0.0168243
600.529	0.0167487
600.607	0.0166340
600.685	0.0166591
600.763	0.0167106
600.841	0.0167670
600.919	0.0166724
600.997	0.0166292
601.075	0.0166475
601.154	0.0165897
601.232	0.0166038
601.310	0.0165651
601.388	0.0166586
601.466	0.0166997
601.544	0.0166631
601.622	0.0167279
601.700	0.0166696
601.779	0.0166718
601.857	0.0165852
601.935	0.0166649
602.013	0.0166545
602.091	0.0165181
602.169	0.0166292
602.247	0.0166854
602.325	0.0166564
602.404	0.0166327
602.482	0.0164977
602.560	0.0163823
602.638	0.0164474
602.716	0.0163954
602.794	0.0164925
602.872	0.0164853
602.950	0.0163629
603.029	0.0164194
603.107	0.0165965
603.185	0.0165791
603.263	0.0165588
603.341	0.0166171
603.419	0.0164604
603.497	0.0163858
603.575	0.0165448
603.654	0.0165195
603.732	0.0164628
603.810	0.0164986
603.888	0.0166183
603.966	0.0165958
604.044	0.0166727
604.122	0.0166761
604.200	0.0166238
604.279	0.0166808
604.357	0.0168727
604.435	0.0169407
604.513	0.0168013
604.591	0.0167841
604.669	0.0169142
604.747	0.0168362
604.825	0.0166973
604.904	0.0168906
604.982	0.0167661
605.060	0.0166854
605.138	0.0166389
605.216	0.0165624
605.294	0.0164978
605.372	0.0164999
605.450	0.0164548
605.529	0.0164754
605.607	0.0163583
605.685	0.0163441
605.763	0.0165383
605.841	0.0163858
605.919	0.0165072
605.997	0.0164211
606.075	0.0164288
606.154	0.0165086
606.232	0.0164350
606.310	0.0165826
606.388	0.0165434
606.466	0.0166275
606.544	0.0165955
606.622	0.0164882
606.700	0.0165308
606.779	0.0165987
606.857	0.0166534
606.935	0.0165919
607.013	0.0165712
607.091	0.0166263
607.169	0.0166140
607.247	0.0165919
607.325	0.0166310
607.404	0.0165570
607.482	0.0167358
607.560	0.0167074
607.638	0.0167065
607.716	0.0166998
607.794	0.0166586
607.872	0.0169384
607.950	0.0167403
608.029	0.0168078
608.107	0.0167724
608.185	0.0168345
608.263	0.0168868
608.341	0.0167740
608.419	0.0168793
608.497	0.0167072
608.575	0.0166036
608.654	0.0166575
608.732	0.0164645
608.810	0.0165392
608.888	0.0165032
608.966	0.0164027
609.044	0.0164400
609.122	0.0163232
609.200	0.0161857
609.279	0.0160738
609.357	0.0160371
609.435	0.0161779
609.513	0.0161024
609.591	0.0161214
609.669	0.0160854
609.747	0.0162011
609.825	0.0161302
609.904	0.0162910
609.982	0.0163222
610.060	0.0162880
610.138	0.0163721
610.216	0.0164349
610.294	0.0166404
610.372	0.0165831
610.450	0.0165682
610.529	0.0167213
610.607	0.0166406
610.685	0.0166284
610.763	0.0167178
610.841	0.0166706
610.919	0.0165475
610.997	0.0167315
611.075	0.0167402
611.154	0.0166762
611.232	0.0166622
611.310	0.0164577
611.388	0.0162566
611.466	0.0163659
611.544	0.0163110
611.622	0.0161533
611.700	0.0161498
611.779	0.0161131
611.857	0.0160131
611.935	0.0161566
612.013	0.0160690
612.091	0.0160227
612.169	0.0161104
612.247	0.0161191
612.325	0.0163391
612.404	0.0163108
612.482	0.0164289
612.560	0.0164892
612.638	0.0166028
612.716	0.0167071
612.794	0.0169183
612.872	0.0170188
612.950	0.0170731
613.029	0.0172288
613.107	0.0174106
613.185	0.0175199
613.263	0.0173387
613.341	0.0174991
613.419	0.0175742
613.497	0.0176745
613.575	0.0174316
613.654	0.0173029
613.732	0.0171161
613.810	0.0171157
613.888	0.0167828
613.966	0.0165681
614.044	0.0164567
614.122	0.0162196
614.200	0.0159727
614.279	0.0157026
614.357	0.0156123
614.435	0.0153674
614.513	0.0154873
614.591	0.0152813
614.669	0.0152276
614.747	0.0151184
614.825	0.0151559
614.904	0.0151730
614.982	0.0151529
615.060	0.0152333
615.138	0.0153158
615.216	0.0153489
615.294	0.0155708
615.372	0.0157672
615.450	0.0160192
615.529	0.0162566
615.607	0.0165096
615.685	0.0167597
615.763	0.0170461
615.841	0.0173349
615.919	0.0173811
615.997	0.0175407
616.075	0.0179096
616.154	0.0179042
616.232	0.0181165
616.310	0.0182661
616.388	0.0181941
616.466	0.0182571
616.544	0.0181348
616.622	0.0180917
616.700	0.0180235
616.779	0.0179007
616.857	0.0178047
616.935	0.0176015
617.013	0.0173490
617.091	0.0172681
617.169	0.0169615
617.247	0.0168614
617.325	0.0166989
617.404	0.0164485
617.482	0.0163580
617.560	0.0162677
617.638	0.0162580
617.716	0.0159337
617.794	0.0158549
617.872	0.0159641
617.950	0.0159234
618.029	0.0158665
618.107	0.0158405
618.185	0.0159251
618.263	0.0159895
618.341	0.0161157
618.419	0.0161051
618.497	0.0162416
618.575	0.0162668
618.654	0.0163026
618.732	0.0164340
618.810	0.0163319
618.888	0.0165727
618.966	0.0165218
619.044	0.0164654
619.122	0.0165784
619.200	0.0165017
619.279	0.0164349
619.357	0.0163810
619.435	0.0163776
619.513	0.0163668
619.591	0.0162645
619.669	0.0162468
619.747	0.0161927
619.825	0.0162872
619.904	0.0163080
619.982	0.0162485
620.060	0.0161732
620.138	0.0162138
620.216	0.0162965
620.294	0.0163521
620.372	0.0165022
620.450	0.0165860
620.529	0.0166676
620.607	0.0168083
620.685	0.0169485
620.763	0.0171255
620.841	0.0173590
620.919	0.0174831
620.997	0.0176202
621.075	0.0177879
621.154	0.0181329
621.232	0.0181711
621.310	0.0183699
621.388	0.0183973
621.466	0.0184284
621.544	0.0183938
621.622	0.0183082
621.700	0.0181732
621.779	0.0180811
621.857	0.0179431
621.935	0.0175510
622.013	0.0173526
622.091	0.0168742
622.169	0.0166559
622.247	0.0162950
622.325	0.0158840
622.404	0.0156557
622.482	0.0155181
622.560	0.0152246
622.638	0.0149993
622.716	0.0148248
622.794	0.0146204
622.872	0.0146146
622.950	0.0144163
623.029	0.0144791
623.107	0.0144624
623.185	0.0146497
623.263	0.0147292
623.341	0.0150158
623.419	0.0151925
623.497	0.0153551
623.575	0.0154482
623.654	0.0157333
623.732	0.0158906
623.810	0.0160644
623.888	0.0164654
623.966	0.0167154
624.044	0.0170236
624.122	0.0171095
624.200	0.0172270
624.279	0.0174098
624.357	0.0176168
624.435	0.0176524
624.513	0.0177829
624.591	0.0178558
624.669	0.0178352
624.747	0.0179523
624.825	0.0178040
624.904	0.0178410
624.982	0.0178515
625.060	0.0178397
625.138	0.0178257
625.216	0.0177480
625.294	0.0178398
625.372	0.0178585
625.450	0.0178228
625.529	0.0178444
625.607	0.0178076
625.685	0.0179337
625.763	0.0178763
625.841	0.0179030
625.919	0.0178963
625.997	0.0178439
626.075	0.0179290
626.154	0.0177993
626.232	0.0176551
626.310	0.0176370
626.388	0.0175037
626.466	0.0174390
626.544	0.0171436
626.622	0.0170336
626.700	0.0168731
626.779	0.0166730
626.857	0.0162844
626.935	0.0160094
627.013	0.0159618
627.091	0.0154854
627.169	0.0152534
627.247	0.0150039
627.325	0.0147814
627.404	0.0147025
627.482	0.0144019
627.560	0.0140698
627.638	0.0137578
627.716	0.0138111
627.794	0.0139236
627.872	0.0136449
627.950	0.0138573
628.029	0.0138879
628.107	0.0142280
628.185	0.0142279
628.263	0.0146046
628.341	0.0150066
628.419	0.0152259
628.497	0.0157322
628.575	0.0161533
628.654	0.0164378
628.732	0.0169756
628.810	0.0172337
628.888	0.0177124
628.966	0.0178694
629.044	0.0181258
629.122	0.0184402
629.200	0.0187328
629.279	0.0188434
629.357	0.0191415
629.435	0.0190608
629.513	0.0192758
629.591	0.0193023
629.669	0.0192628
629.747	0.0192942
629.825	0.0190295
629.904	0.0189765
629.982	0.0187325
630.060	0.0186158
630.138	0.0186396
630.216	0.0182758
630.294	0.0179005
630.372	0.0178570
630.450	0.0176060
630.529	0.0172985
630.607	0.0172491
630.685	0.0169643
630.763	0.0166462
630.841	0.0164408
630.919	0.0162412
630.997	0.0160709
631.075	0.0159949
631.154	0.0156144
631.232	0.0155626
631.310	0.0151051
631.388	0.0150433
631.466	0.0149113
631.544	0.0145910
631.622	0.0144083
631.700	0.0144151
631.779	0.0142640
631.857	0.0142624
631.935	0.0142789
632.013	0.0141474
632.091	0.0142175
632.169	0.0145110
632.247	0.0145506
632.325	0.0146985
632.404	0.0149161
632.482	0.0150574
632.560	0.0151968
632.638	0.0154694
632.716	0.0155634
632.794	0.0158161
632.872	0.0161124
632.950	0.0162568
633.029	0.0164854
633.107	0.0166415
633.185	0.0168314
633.263	0.0170309
633.341	0.0172621
633.419	0.0176646
633.497	0.0178241
633.575	0.0179648
633.654	0.0181789
633.732	0.0183553
633.810	0.0184507
633.888	0.0184856
633.966	0.0186749
634.044	0.0187663
634.122	0.0185297
634.200	0.0184982
634.279	0.0183836
634.357	0.0181059
634.435	0.0179712
634.513	0.0178341
634.591	0.0176132
634.669	0.0171912
634.747	0.0172027
634.825	0.0168697
634.904	0.0165725
634.982	0.0163051
635.060	0.0161727
635.138	0.0158410
635.216	0.0156881
635.294	0.0156183
635.372	0.0154637
635.450	0.0153526
635.529	0.0153471
635.607	0.0153830
635.685	0.0153149
635.763	0.0153013
635.841	0.0153394
635.919	0.0155033
635.997	0.0156578
636.075	0.0157226
636.154	0.0156738
636.232	0.0158936
636.310	0.0161233
636.388	0.0160585
636.466	0.0162857
636.544	0.0163657
636.622	0.0167124
636.700	0.0169582
636.779	0.0171217
636.857	0.0172488
636.935	0.0174693
637.013	0.0177927
637.091	0.0178764
637.169	0.0179987
637.247	0.0181491
637.325	0.0182785
637.404	0.0182108
637.482	0.0183140
637.560	0.0182524
637.638	0.0178703
637.716	0.0177883
637.794	0.0176746
637.872	0.0172404
637.950	0.0170663
638.029	0.0169664
638.107	0.0166623
638.185	0.0164150
638.263	0.0162319
638.341	0.0160046
638.419	0.0159679
638.497	0.0159509
638.575	0.0157150
638.654	0.0155051
638.732	0.0154230
638.810	0.0154023
638.888	0.0152452
638.966	0.0151082
639.044	0.0149448
639.122	0.0148902
639.200	0.0147543
639.279	0.0147239
639.357	0.0146935
639.435	0.0146925
639.513	0.0146210
639.591	0.0148039
639.669	0.0148927
639.747	0.0149963
639.825	0.0151047
639.904	0.0153741
639.982	0.0154769
640.060	0.0159534
640.138	0.0161069
640.216	0.0162647
640.294	0.0164996
640.372	0.0168424
640.450	0.0170219
640.529	0.0175416
640.607	0.0178046
640.685	0.0178268
640.763	0.0182484
640.841	0.0184188
640.919	0.0186717
640.997	0.0188090
641.075	0.0188802
641.154	0.0189442
641.232	0.0188495
641.310	0.0187460
641.388	0.0186834
641.466	0.0185214
641.544	0.0183336
641.622	0.0182707
641.700	0.0179190
641.779	0.0178585
641.857	0.0175669
641.935	0.0174225
642.013	0.0173492
642.091	0.0171026
642.169	0.0169244
642.247	0.0167986
642.325	0.0167070
642.404	0.0166158
642.482	0.0163833
642.560	0.0162413
642.638	0.0159760
642.716	0.0159296
642.794	0.0156738
642.872	0.0153339
642.950	0.0152049
643.029	0.0151798
643.107	0.0151965
643.185	0.0150574
643.263	0.0148862
643.341	0.0150961
643.419	0.0151546
643.497	0.0151515
643.575	0.0154334
643.654	0.0155459
643.732	0.0156928
643.810	0.0160146
643.888	0.0160413
643.966	0.0162714
644.044	0.0164552
644.122	0.0166216
644.200	0.0164403
644.279	0.0165542
644.357	0.0168249
644.435	0.0169576
644.513	0.0167683
644.591	0.0169173
644.669	0.0167794
644.747	0.0168463
644.825	0.0166889
644.904	0.0166804
644.982	0.0166254
645.060	0.0165310
645.138	0.0164507
645.216	0.0165783
645.294	0.0165224
645.372	0.0164056
645.450	0.0163271
645.529	0.0163002
645.607	0.0162158
645.685	0.0163298
645.763	0.0162988
645.841	0.0163337
645.919	0.0163688
645.997	0.0162829
646.075	0.0163586
646.154	0.0164233
646.232	0.0163599
646.310	0.0166604
646.388	0.0167486
646.466	0.0168746
646.544	0.0169846
646.622	0.0172045
646.700	0.0172874
646.779	0.0173305
646.857	0.0174630
646.935	0.0176126
647.013	0.0178656
647.091	0.0178607
647.169	0.0180597
647.247	0.0181435
647.325	0.0181847
647.404	0.0182130
647.482	0.0185074
647.560	0.0184101
647.638	0.0182864
647.716	0.0183178
647.794	0.0181074
647.872	0.0181424
647.950	0.0178911
648.029	0.0176032
648.107	0.0174342
648.185	0.0172905
648.263	0.0170243
648.341	0.0166792
648.419	0.0165130
648.497	0.0162912
648.575	0.0160263
648.654	0.0159905
648.732	0.0157820
648.810	0.0155607
648.888	0.0154614
648.966	0.0154855
649.044	0.0153110
649.122	0.0152034
649.200	0.0152203
649.279	0.0151302
649.357	0.0150495
649.435	0.0150745
649.513	0.0150768
649.591	0.0151016
649.669	0.0152293
649.747	0.0152034
649.825	0.0152930
649.904	0.0154672
649.982	0.0156451
650.060	0.0154214
650.138	0.0155933
650.216	0.0156909
650.294	0.0158792
650.372	0.0158807
650.450	0.0159415
650.529	0.0160487
650.607	0.0163037
650.685	0.0161887
650.763	0.0163087
650.841	0.0163595
650.919	0.0165883
650.997	0.0167191
651.075	0.0169963
651.154	0.0170838
651.232	0.0171467
651.310	0.0173811
651.388	0.0175986
651.466	0.0177354
651.544	0.0177473
651.622	0.0179428
651.700	0.0182224
651.779	0.0182652
651.857	0.0183733
651.935	0.0184873
652.013	0.0186141
652.091	0.0185809
652.169	0.0186980
652.247	0.0187629
652.325	0.0187059
652.404	0.0185373
652.482	0.0183325
652.560	0.0180556
652.638	0.0179481
652.716	0.0177871
652.794	0.0172868
652.872	0.0169357
652.950	0.0167192
653.029	0.0163688
653.107	0.0158866
653.185	0.0156004
653.263	0.0152769
653.341	0.0150984
653.419	0.0149706
653.497	0.0148312
653.575	0.0144820
653.654	0.0145551
653.732	0.0144505
653.810	0.0143961
653.888	0.0144398
653.966	0.0144141
654.044	0.0145523
654.122	0.0147371
654.200	0.0149369
654.279	0.0149978
654.357	0.0152371
654.435	0.0155991
654.513	0.0158440
654.591	0.0160107
654.669	0.0164989
654.747	0.0166611
654.825	0.0167772
654.904	0.0172161
654.982	0.0175103
655.060	0.0176222
655.138	0.0176343
655.216	0.0178152
655.294	0.0180170
655.372	0.0180192
655.450	0.0179203
655.529	0.0179532
655.607	0.0180235
655.685	0.0178448
655.763	0.0176019
655.841	0.0175267
655.919	0.0174442
655.997	0.0172531
656.075	0.0172430
656.154	0.0170215
656.232	0.0166747
656.310	0.0166277
656.388	0.0166100
656.466	0.0165409
656.544	0.0165651
656.622	0.0162479
656.700	0.0162785
656.779	0.0162336
656.857	0.0162496
656.935	0.0162933
657.013	0.0162399
657.091	0.0163457
657.169	0.0162405
657.247	0.0162514
657.325	0.0163663
657.404	0.0163018
657.482	0.0163534
657.560	0.0162348
657.638	0.0163403
657.716	0.0161769
657.794	0.0161538
657.872	0.0160741
657.950	0.0159656
658.029	0.0159823
658.107	0.0158979
658.185	0.0157230
658.263	0.0158987
658.341	0.0159289
658.419	0.0158048
658.497	0.0158081
658.575	0.0158718
658.654	0.0158760
658.732	0.0160487
658.810	0.0159751
658.888	0.0161270
658.966	0.0161951
659.044	0.0161992
659.122	0.0162319
659.200	0.0164066
659.279	0.0165692
659.357	0.0165863
659.435	0.0166660
659.513	0.0168546
659.591	0.0171331
659.669	0.0172890
659.747	0.0173473
659.825	0.0175999
659.904	0.0175259
659.982	0.0175440
660.060	0.0178266
660.138	0.0177738
660.216	0.0178860
660.294	0.0177499
660.372	0.0177879
660.450	0.0176548
660.529	0.0176665
660.607	0.0174119
660.685	0.0172108
660.763	0.0171265
660.841	0.0168468
660.919	0.0167921
660.997	0.0167229
661.075	0.0165916
661.154	0.0161688
661.232	0.0162281
661.310	0.0160732
661.388	0.0159744
661.466	0.0158261
661.544	0.0157348
661.622	0.0156889
661.700	0.0154381
661.779	0.0155573
661.857	0.0154745
661.935	0.0155547
662.013	0.0157696
662.091	0.0156451
662.169	0.0157240
662.247	0.0158621
662.325	0.0160484
662.404	0.0162327
662.482	0.0162034
662.560	0.0163631
662.638	0.0165111
662.716	0.0166914
662.794	0.0168195
662.872	0.0170406
662.950	0.0173719
663.029	0.0174020
663.107	0.0174213
663.185	0.0176514
663.263	0.0176469
663.341	0.0178159
663.419	0.0178451
663.497	0.0177827
663.575	0.0177403
663.654	0.0176638
663.732	0.0175945
663.810	0.0175187
663.888	0.0174559
663.966	0.0172372
664.044	0.0170419
664.122	0.0168966
664.200	0.0167376
664.279	0.0166924
664.357	0.0165549
664.435	0.0163577
664.513	0.0162500
664.591	0.0161995
664.669	0.0160820
664.747	0.0159383
664.825	0.0157798
664.904	0.0159216
664.982	0.0157829
665.060	0.0157744
665.138	0.0157090
665.216	0.0156818
665.294	0.0156200
665.372	0.0157657
665.450	0.0156344
665.529	0.0156419
665.607	0.0157269
665.685	0.0156479
665.763	0.0158368
665.841	0.0159003
665.919	0.0160584
665.997	0.0161056
666.075	0.0162968
666.154	0.0164290
666.232	0.0166023
666.310	0.0164915
666.388	0.0166210
666.466	0.0168881
666.544	0.0168301
666.622	0.0168622
666.700	0.0168529
666.779	0.0169306
666.857	0.0170007
666.935	0.0171485
667.013	0.0171004
667.091	0.0169794
667.169	0.0171876
667.247	0.0172592
667.325	0.0173050
667.404	0.0172672
667.482	0.0174716
667.560	0.0174853
667.638	0.0174616
667.716	0.0175172
667.794	0.0177559
667.872	0.0176083
667.950	0.0175664
668.029	0.0175751
668.107	0.0175303
668.185	0.0174136
668.263	0.0174206
668.341	0.0171050
668.419	0.0170122
668.497	0.0169143
668.575	0.0168029
668.654	0.0164706
668.732	0.0162803
668.810	0.0162429
668.888	0.0160583
668.966	0.0159399
669.044	0.0156558
669.122	0.0155254
669.200	0.0154012
669.279	0.0152818
669.357	0.0152891
669.435	0.0152844
669.513	0.0152246
669.591	0.0152166
669.669	0.0152496
669.747	0.0152374
669.825	0.0154746
669.904	0.0156410
669.982	0.0157457
670.060	0.0158827
670.138	0.0159682
670.216	0.0161442
670.294	0.0163303
670.372	0.0163573
670.450	0.0167096
670.529	0.0167054
670.607	0.0168649
670.685	0.0170762
670.763	0.0172095
670.841	0.0172186
670.919	0.0173044
670.997	0.0173881
671.075	0.0173241
671.154	0.0174258
671.232	0.0176006
671.310	0.0174863
671.388	0.0176070
671.466	0.0175533
671.544	0.0174773
671.622	0.0174435
671.700	0.0175239
671.779	0.0173907
671.857	0.0173554
671.935	0.0171674
672.013	0.0171449
672.091	0.0170650
672.169	0.0170841
672.247	0.0169212
672.325	0.0168897
672.404	0.0167986
672.482	0.0167781
672.560	0.0166418
672.638	0.0166031
672.716	0.0165432
672.794	0.0165421
672.872	0.0165284
672.950	0.0162356
673.029	0.0162787
673.107	0.0163727
673.185	0.0163020
673.263	0.0164542
673.341	0.0164658
673.419	0.0165099
673.497	0.0165558
673.575	0.0164499
673.654	0.0164153
673.732	0.0166469
673.810	0.0165534
673.888	0.0165833
673.966	0.0166784
674.044	0.0165624
674.122	0.0165908
674.200	0.0164475
674.279	0.0163486
674.357	0.0163251
674.435	0.0162447
674.513	0.0161209
674.591	0.0160065
674.669	0.0159153
674.747	0.0159151
674.825	0.0157716
674.904	0.0160049
674.982	0.0159147
675.060	0.0158876
675.138	0.0158888
675.216	0.0158414
675.294	0.0159904
675.372	0.0161609
675.450	0.0163032
675.529	0.0163081
675.607	0.0164110
675.685	0.0165514
675.763	0.0165314
675.841	0.0167205
675.919	0.0168557
675.997	0.0167341
676.075	0.0168501
676.154	0.0168839
676.232	0.0170158
676.310	0.0169131
676.388	0.0171252
676.466	0.0171609
676.544	0.0169832
676.622	0.0169076
676.700	0.0172359
676.779	0.0171658
676.857	0.0170956
676.935	0.0171049
677.013	0.0171091
677.091	0.0171288
677.169	0.0171921
677.247	0.0169888
677.325	0.0169971
677.404	0.0169608
677.482	0.0169528
677.560	0.0169765
677.638	0.0169048
677.716	0.0168115
677.794	0.0166632
677.872	0.0167222
677.950	0.0166190
678.029	0.0165895
678.107	0.0163904
678.185	0.0164230
678.263	0.0164438
678.341	0.0163717
678.419	0.0163140
678.497	0.0163325
678.575	0.0162922
678.654	0.0162374
678.732	0.0162559
678.810	0.0161131
678.888	0.0161674
678.966	0.0162098
679.044	0.0159795
679.122	0.0160298
679.200	0.0160118
679.279	0.0159823
679.357	0.0161513
679.435	0.0161269
679.513	0.0161381
679.591	0.0162382
679.669	0.0163104
679.747	0.0163208
679.825	0.0163947
679.904	0.0165503
679.982	0.0167745
680.060	0.0168710
680.138	0.0168775
680.216	0.0169365
680.294	0.0172179
680.372	0.0172231
680.450	0.0171438
680.529	0.0172502
680.607	0.0171291
680.685	0.0171797
680.763	0.0171905
680.841	0.0172404
680.919	0.0172228
680.997	0.0170969
681.075	0.0170421
681.154	0.0168115
681.232	0.0169277
681.310	0.0167605
681.388	0.0167614
681.466	0.0167705
681.544	0.0167532
681.622	0.0165733
681.700	0.0166475
681.779	0.0165617
681.857	0.0164798
681.935	0.0163956
682.013	0.0165080
682.091	0.0164354
682.169	0.0164281
682.247	0.0164213
682.325	0.0163507
682.404	0.0164902
682.482	0.0164630
682.560	0.0166197
682.638	0.0166846
682.716	0.0166985
682.794	0.0166920
682.872	0.0166652
682.950	0.0167243
683.029	0.0168542
683.107	0.0168275
683.185	0.0169492
683.263	0.0169708
683.341	0.0168465
683.419	0.0169524
683.497	0.0167822
683.575	0.0168204
683.654	0.0166788
683.732	0.0164768
683.810	0.0164772
683.888	0.0163162
683.966	0.0163483
684.044	0.0162747
684.122	0.0161578
684.200	0.0159914
684.279	0.0162078
684.357	0.0159972
684.435	0.0160673
684.513	0.0161616
684.591	0.0160543
684.669	0.0161411
684.747	0.0161202
684.825	0.0162169
684.904	0.0164366
684.982	0.0163690
685.060	0.0163788
685.138	0.0165247
685.216	0.0166004
685.294	0.0165730
685.372	0.0165353
685.450	0.0166089
685.529	0.0166434
685.607	0.0165898
685.685	0.0166679
685.763	0.0165657
685.841	0.0166132
685.919	0.0166988
685.997	0.0167351
686.075	0.0167187
686.154	0.0166719
686.232	0.0168339
686.310	0.0168721
686.388	0.0168656
686.466	0.0168759
686.544	0.0170142
686.622	0.0168839
686.700	0.0169434
686.779	0.0169572
686.857	0.0169611
686.935	0.0169811
687.013	0.0169392
687.091	0.0169072
687.169	0.0170282
687.247	0.0170122
687.325	0.0168553
687.404	0.0169623
687.482	0.0169975
687.560	0.0170993
687.638	0.0170405
687.716	0.0169238
687.794	0.0170179
687.872	0.0169791
687.950	0.0168536
688.029	0.0168919
688.107	0.0167421
688.185	0.0165932
688.263	0.0166897
688.341	0.0164925
688.419	0.0163760
688.497	0.0163887
688.575	0.0162721
688.654	0.0161395
688.732	0.0161269
688.810	0.0162184
688.888	0.0160648
688.966	0.0160140
689.044	0.0160320
689.122	0.0161201
689.200	0.0162186
689.279	0.0161367
689.357	0.0161504
689.435	0.0161782
689.513	0.0163018
689.591	0.0163565
689.669	0.0163717
689.747	0.0164987
689.825	0.0166739
689.904	0.0167266
689.982	0.0166866
690.060	0.0166852
690.138	0.0167927
690.216	0.0167208
690.294	0.0168638
690.372	0.0169917
690.450	0.0170364
690.529	0.0170555
690.607	0.0169953
690.685	0.0170539
690.763	0.0170036
690.841	0.0170465
690.919	0.0169406
690.997	0.0170246
691.075	0.0168462
691.154	0.0169411
691.232	0.0167554
691.310	0.0168390
691.388	0.0167219
691.466	0.0166953
691.544	0.0165540
691.622	0.0164773
691.700	0.0164886
691.779	0.0165333
691.857	0.0163502
691.935	0.0164467
692.013	0.0163605
692.091	0.0163338
692.169	0.0162249
692.247	0.0162877
692.325	0.0162236
692.404	0.0162067
692.482	0.0161766
692.560	0.0161861
692.638	0.0161095
692.716	0.0161818
692.794	0.0161426
692.872	0.0161474
692.950	0.0162540
693.029	0.0163331
693.107	0.0163094
693.185	0.0162875
693.263	0.0163432
693.341	0.0162836
693.419	0.0164783
693.497	0.0163235
693.575	0.0164281
693.654	0.0165251
693.732	0.0164445
693.810	0.0166125
693.888	0.0165668
693.966	0.0165569
694.044	0.0166505
694.122	0.0164761
694.200	0.0164989
694.279	0.0166982
694.357	0.0165935
694.435	0.0164840
694.513	0.0164063
694.591	0.0164027
694.669	0.0163186
694.747	0.0163583
694.825	0.0161923
694.904	0.0162652
694.982	0.0161651
695.060	0.0160956
695.138	0.0161513
695.216	0.0159988
695.294	0.0159737
695.372	0.0161153
695.450	0.0160775
695.529	0.0160864
695.607	0.0161290
695.685	0.0161432
695.763	0.0163049
695.841	0.0162902
695.919	0.0163858
695.997	0.0164230
696.075	0.0163597
696.154	0.0164822
696.232	0.0165806
696.310	0.0165604
696.388	0.0166267
696.466	0.0166554
696.544	0.0167052
696.622	0.0168871
696.700	0.0169253
696.779	0.0170002
696.857	0.0168650
696.935	0.0170779
697.013	0.0170506
697.091	0.0170367
697.169	0.0170338
697.247	0.0169504
697.325	0.0170163
697.404	0.0169784
697.482	0.0168503
697.560	0.0169765
697.638	0.0169211
697.716	0.0168723
697.794	0.0169689
697.872	0.0167877
697.950	0.0167101
698.029	0.0166054
698.107	0.0166214
698.185	0.0166540
698.263	0.0165289
698.341	0.0166033
698.419	0.0165784
698.497	0.0164948
698.575	0.0165545
698.654	0.0166731
698.732	0.0167724
698.810	0.0166440
698.888	0.0166547
698.966	0.0166660
699.044	0.0166359
699.122	0.0166188
699.200	0.0166261
699.279	0.0166530
699.357	0.0166831
699.435	0.0166380
699.513	0.0165563
699.591	0.0166946
699.669	0.0166862
699.747	0.0166611
699.825	0.0167690
699.904	0.0167400
699.982	0.0166737
700.060	0.0167250
700.138	0.0168118
700.216	0.0167175
700.294	0.0166987
700.372	0.0166427
700.450	0.0166604
700.529	0.0166418
700.607	0.0166494
700.685	0.0166180
700.763	0.0166460
700.841	0.0165670
700.919	0.0166974
700.997	0.0166717
701.075	0.0166217
701.154	0.0165688
701.232	0.0165647
701.310	0.0166138
701.388	0.0165025
701.466	0.0166539
701.544	0.0166536
701.622	0.0165465
701.700	0.0166231
701.779	0.0166310
701.857	0.0164732
701.935	0.0165791
702.013	0.0166348
702.091	0.0166704
702.169	0.0167151
702.247	0.0165768
702.325	0.0165084
702.404	0.0167425
702.482	0.0166563
702.560	0.0166016
702.638	0.0166955
702.716	0.0167381
702.794	0.0165639
702.872	0.0165489
702.950	0.0167388
703.029	0.0166442
703.107	0.0167214
703.185	0.0165675
703.263	0.0165742
703.341	0.0166101
703.419	0.0166634
703.497	0.0166000
703.575	0.0166130
703.654	0.0165472
703.732	0.0165251
703.810	0.0165888
703.888	0.0165973
703.966	0.0166343
704.044	0.0166710
704.122	0.0166846
704.200	0.0166714
704.279	0.0167027
704.357	0.0167997
704.435	0.0168410
704.513	0.0167817
704.591	0.0167928
704.669	0.0168612
704.747	0.0168920
704.825	0.0168060
704.904	0.0167080
704.982	0.0166698
705.060	0.0166103
705.138	0.0165585
705.216	0.0163466
705.294	0.0164497
705.372	0.0164302
705.450	0.0164020
705.529	0.0162752
705.607	0.0161897
705.685	0.0162517
705.763	0.0162296
705.841	0.0162729
705.919	0.0162817
705.997	0.0161931
706.075	0.0162059
706.154	0.0163192
706.232	0.0162584
706.310	0.0162989
706.388	0.0163120
706.466	0.0162399
706.544	0.0165276
706.622	0.0163151
706.700	0.0163207
706.779	0.0163445
706.857	0.0164172
706.935	0.0164142
707.013	0.0163405
707.091	0.0162777
707.169	0.0163179
707.247	0.0163499
707.325	0.0164445
707.404	0.0163626
707.482	0.0165990
707.560	0.0165740
707.638	0.0163200
707.716	0.0163617
707.794	0.0163468
707.872	0.0162450
707.950	0.0162925
708.029	0.0162959
708.107	0.0163843
708.185	0.0162986
708.263	0.0162256
708.341	0.0163017
708.419	0.0165183
708.497	0.0163684
708.575	0.0163184
708.654	0.0164660
708.732	0.0165932
708.810	0.0164906
708.888	0.0164709
708.966	0.0164323
709.044	0.0166132
709.122	0.0167042
709.200	0.0166622
709.279	0.0167498
709.357	0.0167660
709.435	0.0168410
709.513	0.0167415
709.591	0.0168284
709.669	0.0169751
709.747	0.0168639
709.825	0.0171469
709.904	0.0170904
709.982	0.0171025
710.060	0.0172604
710.138	0.0170383
710.216	0.0169907
710.294	0.0169747
710.372	0.0170048
710.450	0.0168440
710.529	0.0168826
710.607	0.0169511
710.685	0.0166785
710.763	0.0169129
710.841	0.0167670
710.919	0.0167732
710.997	0.0167188
711.075	0.0167745
711.154	0.0167915
711.232	0.0167371
711.310	0.0166700
711.388	0.0167799
711.466	0.0167523
711.544	0.0168285
711.622	0.0165795
711.700	0.0166393
711.779	0.0167242
711.857	0.0167596
711.935	0.0168662
712.013	0.0167803
712.091	0.0166830
712.169	0.0167812
712.247	0.0167555
712.325	0.0167687
712.404	0.0168772
712.482	0.0167351
712.560	0.0167558
712.638	0.0166557
712.716	0.0167630
712.794	0.0166679
712.872	0.0167265
712.950	0.0166408
713.029	0.0165680
713.107	0.0165127
713.185	0.0167359
713.263	0.0164806
713.341	0.0164114
713.419	0.0164502
713.497	0.0163718
713.575	0.0164005
713.654	0.0164255
713.732	0.0165456
713.810	0.0165099
713.888	0.0164591
713.966	0.0163628
714.044	0.0165307
714.122	0.0163287
714.200	0.0163033
714.279	0.0163335
714.357	0.0164236
714.435	0.0163857
714.513	0.0164100
714.591	0.0164735
714.669	0.0163432
714.747	0.0163693
714.825	0.0163834
714.904	0.0164272
714.982	0.0163672
715.060	0.0164136
715.138	0.0163140
715.216	0.0163616
715.294	0.0165341
715.372	0.0164306
715.450	0.0163849
715.529	0.0165369
715.607	0.0165298
715.685	0.0164393
715.763	0.0164060
715.841	0.0165447
715.919	0.0164655
715.997	0.0163642
716.075	0.0164592
716.154	0.0163921
716.232	0.0163358
716.310	0.0164240
716.388	0.0164024
716.466	0.0162370
716.544	0.0163342
716.622	0.0163470
716.700	0.0162540
716.779	0.0162946
716.857	0.0163326
716.935	0.0164670
717.013	0.0165144
717.091	0.0165291
717.169	0.0165133
717.247	0.0165886
717.325	0.0167237
717.404	0.0167097
717.482	0.0167414
717.560	0.0167904
717.638	0.0168585
717.716	0.0168459
717.794	0.0169301
717.872	0.0171491
717.950	0.0170162
718.029	0.0169809
718.107	0.0170223
718.185	0.0170469
718.263	0.0170652
718.341	0.0170247
718.419	0.0171879
718.497	0.0170763
718.575	0.0170021
718.654	0.0169992
718.732	0.0169977
718.810	0.0169946
718.888	0.0169688
718.966	0.0169471
719.044	0.0169918
719.122	0.0168361
719.200	0.0168188
719.279	0.0166806
719.357	0.0167760
719.435	0.0167191
719.513	0.0168378
719.591	0.0167260
719.669	0.0168053
719.747	0.0168687
719.825	0.0167921
719.904	0.0169781
719.982	0.0167593
720.060	0.0167869
720.138	0.0167060
720.216	0.0166129
720.294	0.0168450
720.372	0.0167732
720.450	0.0167194
720.529	0.0167397
720.607	0.0166066
720.685	0.0165405
720.763	0.0166552
720.841	0.0164478
720.919	0.0164422
720.997	0.0163432
721.075	0.0162128
721.154	0.0162380
721.232	0.0163072
721.310	0.0162793
721.388	0.0162278
721.466	0.0162600
721.544	0.0161846
721.622	0.0164770
721.700	0.0162526
721.779	0.0161882
721.857	0.0163383
721.935	0.0163697
722.013	0.0163064
722.091	0.0163286
722.169	0.0163935
722.247	0.0163496
722.325	0.0165106
722.404	0.0163998
722.482	0.0164503
722.560	0.0164272
722.638	0.0165276
722.716	0.0164730
722.794	0.0164823
722.872	0.0164820
722.950	0.0164909
723.029	0.0166407
723.107	0.0165996
723.185	0.0163988
723.263	0.0163924
723.341	0.0164706
723.419	0.0164083
723.497	0.0162744
723.575	0.0162545
723.654	0.0161887
723.732	0.0162072
723.810	0.0162305
723.888	0.0159787
723.966	0.0161204
724.044	0.0162197
724.122	0.0161781
724.200	0.0161227
724.279	0.0161254
724.357	0.0162140
724.435	0.0161427
724.513	0.0162525
724.591	0.0163993
724.669	0.0162338
724.747	0.0164432
724.825	0.0165746
724.904	0.0165555
724.982	0.0165689
725.060	0.0166351
725.138	0.0168015
725.216	0.0168268
725.294	0.0168121
725.372	0.0168339
725.450	0.0169556
725.529	0.0169855
725.607	0.0169931
725.685	0.0169855
725.763	0.0171584
725.841	0.0169490
725.919	0.0169938
725.997	0.0170902
726.075	0.0169386
726.154	0.0169921
726.232	0.0169155
726.310	0.0170026
726.388	0.0170574
726.466	0.0168722
726.544	0.0169335
726.622	0.0169415
726.700	0.0169062
726.779	0.0169151
726.857	0.0168329
726.935	0.0169200
727.013	0.0167564
727.091	0.0167752
727.169	0.0167131
727.247	0.0167104
727.325	0.0167106
727.404	0.0167375
727.482	0.0166628
727.560	0.0165484
727.638	0.0164452
727.716	0.0165163
727.794	0.0165772
727.872	0.0165332
727.950	0.0163816
728.029	0.0165158
728.107	0.0162868
728.185	0.0164130
728.263	0.0163722
728.341	0.0163441
728.419	0.0162837
728.497	0.0163419
728.575	0.0163258
728.654	0.0163079
728.732	0.0164514
728.810	0.0163386
728.888	0.0163374
728.966	0.0163420
729.044	0.0163499
729.122	0.0164296
729.200	0.0165838
729.279	0.0165391
729.357	0.0163480
729.435	0.0165375
729.513	0.0166756
729.591	0.0167091
729.669	0.0168138
729.747	0.0168233
729.825	0.0168642
729.904	0.0168468
729.982	0.0167146
730.060	0.0167928
730.138	0.0168766
730.216	0.0167397
730.294	0.0167648
730.372	0.0169333
730.450	0.0169001
730.529	0.0167357
730.607	0.0168813
730.685	0.0168394
730.763	0.0167635
730.841	0.0167744
730.919	0.0167751
730.997	0.0167088
731.075	0.0167332
731.154	0.0166566
731.232	0.0168824
731.310	0.0169323
731.388	0.0167480
731.466	0.0167342
731.544	0.0167338
731.622	0.0167236
731.700	0.0167076
731.779	0.0167102
731.857	0.0167157
731.935	0.0166931
732.013	0.0167385
732.091	0.0166636
732.169	0.0167576
732.247	0.0166804
732.325	0.0166457
732.404	0.0166625
732.482	0.0166508
732.560	0.0165839
732.638	0.0166424
732.716	0.0166594
732.794	0.0166192
732.872	0.0166337
732.950	0.0165676
733.029	0.0167070
733.107	0.0166266
733.185	0.0165326
733.263	0.0166096
733.341	0.0166613
733.419	0.0166610
733.497	0.0165128
733.575	0.0166489
733.654	0.0167512
733.732	0.0165827
733.810	0.0165477
733.888	0.0168153
733.966	0.0167395
734.044	0.0166765
734.122	0.0167116
734.200	0.0165588
734.279	0.0167661
734.357	0.0167600
734.435	0.0166821
734.513	0.0165852
734.591	0.0165990
734.669	0.0167866
734.747	0.0166655
734.825	0.0166053
734.904	0.0165575
734.982	0.0165311
735.060	0.0164014
735.138	0.0164941
735.216	0.0164494
735.294	0.0163369
735.372	0.0164646
735.450	0.0162853
735.529	0.0162894
735.607	0.0161287
735.685	0.0161185
735.763	0.0162231
735.841	0.0161607
735.919	0.0161595
735.997	0.0162805
736.075	0.0161358
736.154	0.0161293
736.232	0.0162789
736.310	0.0161409
736.388	0.0162669
736.466	0.0164420
736.544	0.0164274
736.622	0.0163671
736.700	0.0163066
736.779	0.0163677
736.857	0.0164037
736.935	0.0165682
737.013	0.0165620
737.091	0.0166331
737.169	0.0167493
737.247	0.0165736
737.325	0.0167343
737.404	0.0168476
737.482	0.0168506
737.560	0.0166615
737.638	0.0167850
737.716	0.0167851
737.794	0.0168145
737.872	0.0169658
737.950	0.0168320
738.029	0.0167736
738.107	0.0168439
738.185	0.0167253
738.263	0.0168148
738.341	0.0167928
738.419	0.0167807
738.497	0.0168242
738.575	0.0168484
738.654	0.0168264
738.732	0.0167442
738.810	0.0166674
738.888	0.0166878
738.966	0.0166980
739.044	0.0166246
739.122	0.0166407
739.200	0.0166132
739.279	0.0165137
739.357	0.0164101
739.435	0.0165986
739.513	0.0165905
739.591	0.0162191
739.669	0.0165089
739.747	0.0164524
739.825	0.0162466
739.904	0.0163384
739.982	0.0164774
740.060	0.0162862
740.138	0.0163226
740.216	0.0164262
740.294	0.0164038
740.372	0.0165126
740.450	0.0164714
740.529	0.0163911
740.607	0.0164786
740.685	0.0165108
740.763	0.0165038
740.841	0.0166064
740.919	0.0166452
740.997	0.0166281
741.075	0.0165228
741.154	0.0165629
741.232	0.0167307
741.310	0.0167589
741.388	0.0167470
741.466	0.0167725
741.544	0.0169356
741.622	0.0168026
741.700	0.0167667
741.779	0.0166727
741.857	0.0167568
741.935	0.0166914
742.013	0.0168034
742.091	0.0168582
742.169	0.0167413
742.247	0.0168190
742.325	0.0167979
742.404	0.0168944
742.482	0.0167693
742.560	0.0168236
742.638	0.0168340
742.716	0.0169858
742.794	0.0169077
742.872	0.0169887
742.950	0.0169199
743.029	0.0170248
743.107	0.0168720
743.185	0.0169169
743.263	0.0169746
743.341	0.0169933
743.419	0.0170272
743.497	0.0170210
743.575	0.0168957
743.654	0.0169734
743.732	0.0169975
743.810	0.0168565
743.888	0.0168751
743.966	0.0168494
744.044	0.0166673
744.122	0.0167511
744.200	0.0167853
744.279	0.0167368
744.357	0.0166280
744.435	0.0166255
744.513	0.0165924
744.591	0.0166635
744.669	0.0165891
744.747	0.0165982
744.825	0.0165640
744.904	0.0165799
744.982	0.0164033
745.060	0.0164143
745.138	0.0164867
745.216	0.0164545
745.294	0.0164547
745.372	0.0164785
745.450	0.0164523
745.529	0.0164533
745.607	0.0163617
745.685	0.0164542
745.763	0.0163914
745.841	0.0165101
745.919	0.0163911
745.997	0.0164179
746.075	0.0165518
746.154	0.0163612
746.232	0.0165347
746.310	0.0164818
746.388	0.0164096
746.466	0.0166006
746.544	0.0164353
746.622	0.0165315
746.700	0.0165620
746.779	0.0164227
746.857	0.0166227
746.935	0.0165799
747.013	0.0165571
747.091	0.0164984
747.169	0.0165894
747.247	0.0164980
747.325	0.0165020
747.404	0.0165190
747.482	0.0167027
747.560	0.0167274
747.638	0.0166537
747.716	0.0166895
747.794	0.0166647
747.872	0.0168394
747.950	0.0167645
748.029	0.0168842
748.107	0.0168592
748.185	0.0167558
748.263	0.0167719
748.341	0.0169503
748.419	0.0168183
748.497	0.0167985
748.575	0.0168256
748.654	0.0169978
748.732	0.0168034
748.810	0.0168073
748.888	0.0170315
748.966	0.0169201
749.044	0.0169274
749.122	0.0168919
749.200	0.0167882
749.279	0.0167790
749.357	0.0167564
749.435	0.0168816
749.513	0.0166941
749.591	0.0166838
749.669	0.0167358
749.747	0.0165757
749.825	0.0165898
749.904	0.0165530
749.982	0.0165799
750.060	0.0166297
750.138	0.0163989
750.216	0.0163828
750.294	0.0165099
750.372	0.0165743
750.450	0.0164136
750.529	0.0164301
750.607	0.0165742
750.685	0.0164952
750.763	0.0164794
750.841	0.0165289
750.919	0.0163871
750.997	0.0164106
751.075	0.0165610
751.154	0.0165163
751.232	0.0165841
751.310	0.0165144
751.388	0.0165032
751.466	0.0165292
751.544	0.0165239
751.622	0.0166505
751.700	0.0165874
751.779	0.0165997
751.857	0.0165353
751.935	0.0165490
752.013	0.0166589
752.091	0.0166464
752.169	0.0165063
752.247	0.0165321
752.325	0.0166934
752.404	0.0166657
752.482	0.0167355
752.560	0.0165794
752.638	0.0163979
752.716	0.0165694
752.794	0.0165198
752.872	0.0166065
752.950	0.0165228
753.029	0.0165392
753.107	0.0164378
753.185	0.0165112
753.263	0.0165173
753.341	0.0164560
753.419	0.0164617
753.497	0.0166353
753.575	0.0165538
753.654	0.0167181
753.732	0.0167288
753.810	0.0165495
753.888	0.0165141
753.966	0.0165251
754.044	0.0166386
754.122	0.0166144
754.200	0.0165096
754.279	0.0167040
754.357	0.0165309
754.435	0.0164389
754.513	0.0165498
754.591	0.0165991
754.669	0.0164342
754.747	0.0163741
754.825	0.0165515
754.904	0.0165085
754.982	0.0166030
755.060	0.0163879
755.138	0.0164093
755.216	0.0165535
755.294	0.0165443
755.372	0.0166015
755.450	0.0164985
755.529	0.0165187
755.607	0.0165766
755.685	0.0166557
755.763	0.0165184
755.841	0.0165035
755.919	0.0165511
755.997	0.0165336
756.075	0.0166087
756.154	0.0165255
756.232	0.0164571
756.310	0.0165485
756.388	0.0165083
756.466	0.0165545
756.544	0.0166869
756.622	0.0165376
756.700	0.0166273
756.779	0.0165904
756.857	0.0165597
756.935	0.0166937
757.013	0.0165955
757.091	0.0166566
757.169	0.0166149
757.247	0.0166193
757.325	0.0166080
757.404	0.0166945
757.482	0.0165841
757.560	0.0164252
757.638	0.0165159
757.716	0.0166709
757.794	0.0165686
757.872	0.0166084
757.950	0.0164736
758.029	0.0164989
758.107	0.0164703
758.185	0.0164220
758.263	0.0164474
758.341	0.0165033
758.419	0.0165793
758.497	0.0165554
758.575	0.0164634
758.654	0.0165848
758.732	0.0164065
758.810	0.0164255
758.888	0.0164740
758.966	0.0164040
759.044	0.0164712
759.122	0.0165282
759.200	0.0166288
759.279	0.0166590
759.357	0.0165456
759.435	0.0164858
759.513	0.0164616
759.591	0.0165811
759.669	0.0166508
759.747	0.0165924
759.825	0.0166356
759.904	0.0166534
759.982	0.0167427
760.060	0.0167222
760.138	0.0167641
760.216	0.0166561
760.294	0.0166431
760.372	0.0165073
760.450	0.0166048
760.529	0.0165855
760.607	0.0164539
760.685	0.0167473
760.763	0.0166035
760.841	0.0163786
760.919	0.0164930
760.997	0.0166618
761.075	0.0166788
761.154	0.0165117
761.232	0.0165179
761.310	0.0166019
761.388	0.0165703
761.466	0.0165434
761.544	0.0165018
761.622	0.0165845
761.700	0.0165607
761.779	0.0166478
761.857	0.0165455
761.935	0.0165327
762.013	0.0166722
762.091	0.0167443
762.169	0.0164720
762.247	0.0166107
762.325	0.0166123
762.404	0.0166842
762.482	0.0166948
762.560	0.0167485
762.638	0.0165883
762.716	0.0167516
762.794	0.0167282
762.872	0.0168029
762.950	0.0167175
763.029	0.0166601
763.107	0.0166508
763.185	0.0166504
763.263	0.0166948
763.341	0.0167073
763.419	0.0166920
763.497	0.0166618
763.575	0.0165839
763.654	0.0164681
763.732	0.0166467
763.810	0.0164054
763.888	0.0163751
763.966	0.0164796
764.044	0.0163421
764.122	0.0164087
764.200	0.0162804
764.279	0.0162875
764.357	0.0162539
764.435	0.0163985
764.513	0.0164383
764.591	0.0164823
764.669	0.0167824
764.747	0.0166685
764.825	0.0166827
764.904	0.0168520
764.982	0.0170242
765.060	0.0169864
765.138	0.0169990
765.216	0.0169672
765.294	0.0169173
765.372	0.0169516
765.450	0.0168858
765.529	0.0168678
765.607	0.0168250
765.685	0.0167026
765.763	0.0166616
765.841	0.0165741
765.919	0.0165208
765.997	0.0166778
766.075	0.0166637
766.154	0.0164787
766.232	0.0165405
766.310	0.0165076
766.388	0.0165035
766.466	0.0165820
766.544	0.0165970
766.622	0.0167666
766.700	0.0165881
766.779	0.0166299
766.857	0.0168015
766.935	0.0167471
767.013	0.0166942
767.091	0.0167965
767.169	0.0166990
767.247	0.0167250
767.325	0.0167010
767.404	0.0167371
767.482	0.0166252
767.560	0.0164973
767.638	0.0166087
767.716	0.0166467
767.794	0.0165155
767.872	0.0166344
767.950	0.0166196
768.029	0.0165205
768.107	0.0166016
768.185	0.0165823
768.263	0.0166399
768.341	0.0164046
768.419	0.0165395
768.497	0.0166002
768.575	0.0166379
768.654	0.0166632
768.732	0.0166686
768.810	0.0165945
768.888	0.0166464
768.966	0.0166723
769.044	0.0166348
769.122	0.0166254
769.200	0.0165562
769.279	0.0167543
769.357	0.0166170
769.435	0.0166006
769.513	0.0166357
769.591	0.0165942
769.669	0.0165436
769.747	0.0166062
769.825	0.0167114
769.904	0.0166942
769.982	0.0165942
770.060	0.0166859
770.138	0.0167278
770.216	0.0167213
770.294	0.0166131
770.372	0.0166820
770.450	0.0166215
770.529	0.0166618
770.607	0.0166532
770.685	0.0165909
770.763	0.0166392
770.841	0.0167007
770.919	0.0166624
770.997	0.0166985
771.075	0.0167504
771.154	0.0167257
771.232	0.0165466
771.310	0.0166076
771.388	0.0165788
771.466	0.0165415
771.544	0.0166084
771.622	0.0166407
771.700	0.0165527
771.779	0.0164730
771.857	0.0165156
771.935	0.0166328
772.013	0.0166765
772.091	0.0164642
772.169	0.0165316
772.247	0.0163280
772.325	0.0164875
772.404	0.0165038
772.482	0.0164827
772.560	0.0164572
772.638	0.0164641
772.716	0.0164980
772.794	0.0165446
772.872	0.0164878
772.950	0.0165163
773.029	0.0165575
773.107	0.0166224
773.185	0.0166492
773.263	0.0166404
773.341	0.0166235
773.419	0.0166163
773.497	0.0166776
773.575	0.0166773
773.654	0.0166924
773.732	0.0167168
773.810	0.0165311
773.888	0.0164939
773.966	0.0166132
774.044	0.0165123
774.122	0.0165035
774.200	0.0165855
774.279	0.0164498
774.357	0.0165375
774.435	0.0165136
774.513	0.0164737
774.591	0.0164605
774.669	0.0165137
774.747	0.0163705
774.825	0.0163282
774.904	0.0162743
774.982	0.0165437
775.060	0.0165101
775.138	0.0165393
775.216	0.0164131
775.294	0.0164160
775.372	0.0165585
775.450	0.0164933
775.529	0.0164940
775.607	0.0164416
775.685	0.0164927
775.763	0.0164930
775.841	0.0165467
775.919	0.0165134
775.997	0.0164898
776.075	0.0166665
776.154	0.0166142
776.232	0.0165836
776.310	0.0165738
776.388	0.0166715
776.466	0.0167850
776.544	0.0167209
776.622	0.0166827
776.700	0.0167300
776.779	0.0167805
776.857	0.0166772
776.935	0.0166436
777.013	0.0166879
777.091	0.0166354
777.169	0.0165894
777.247	0.0166588
777.325	0.0164829
777.404	0.0165068
777.482	0.0164484
777.560	0.0165108
777.638	0.0164874
777.716	0.0165824
777.794	0.0164489
777.872	0.0165205
777.950	0.0163892
778.029	0.0164104
778.107	0.0163845
778.185	0.0163300
778.263	0.0163953
778.341	0.0164255
778.419	0.0164493
778.497	0.0164400
778.575	0.0165562
778.654	0.0165089
778.732	0.0165275
778.810	0.0164276
778.888	0.0164458
778.966	0.0163815
779.044	0.0166177
779.122	0.0163939
779.200	0.0165650
779.279	0.0164912
779.357	0.0164997
779.435	0.0165514
779.513	0.0165788
779.591	0.0166508
779.669	0.0164823
779.747	0.0164333
779.825	0.0165353
779.904	0.0165368
779.982	0.0165712
780.060	0.0165121
780.138	0.0165724
780.216	0.0165260
780.294	0.0165443
780.372	0.0165170
780.450	0.0164854
780.529	0.0164687
780.607	0.0165722
780.685	0.0164131
780.763	0.0164481
780.841	0.0164616
780.919	0.0165534
780.997	0.0166283
781.075	0.0164819
781.154	0.0165841
781.232	0.0164635
781.310	0.0163852
781.388	0.0163775
781.466	0.0163064
781.544	0.0165888
781.622	0.0164588
781.700	0.0164302
781.779	0.0164000
781.857	0.0164545
781.935	0.0162981
782.013	0.0163041
782.091	0.0164691
782.169	0.0163226
782.247	0.0165030
782.325	0.0165418
782.404	0.0164683
782.482	0.0165052
782.560	0.0165137
782.638	0.0166177
782.716	0.0167229
782.794	0.0166493
782.872	0.0167392
782.950	0.0166671
783.029	0.0166224
783.107	0.0167086
783.185	0.0168147
783.263	0.0168178
783.341	0.0168362
783.419	0.0167226
783.497	0.0168239
783.575	0.0168187
783.654	0.0168660
783.732	0.0168394
783.810	0.0167935
783.888	0.0168182
783.966	0.0168863
784.044	0.0167497
784.122	0.0168182
784.200	0.0167905
784.279	0.0167393
784.357	0.0166813
784.435	0.0165276
784.513	0.0167288
784.591	0.0167577
784.669	0.0167503
784.747	0.0166808
784.825	0.0165960
784.904	0.0165749
784.982	0.0166927
785.060	0.0167320
785.138	0.0167574
785.216	0.0166818
785.294	0.0166968
785.372	0.0165686
785.450	0.0166061
785.529	0.0166161
785.607	0.0164902
785.685	0.0165597
785.763	0.0166637
785.841	0.0168441
785.919	0.0167711
785.997	0.0168071
786.075	0.0167018
786.154	0.0165266
786.232	0.0166735
786.310	0.0167861
786.388	0.0168182
786.466	0.0167406
786.544	0.0165913
786.622	0.0166396
786.700	0.0165990
786.779	0.0165183
786.857	0.0166174
786.935	0.0165527
787.013	0.0166543
787.091	0.0165913
787.169	0.0164603
787.247	0.0165275
787.325	0.0165235
787.404	0.0165589
787.482	0.0165144
787.560	0.0164921
787.638	0.0164275
787.716	0.0165075
787.794	0.0163417
787.872	0.0163676
787.950	0.0164300
788.029	0.0164165
788.107	0.0164060
788.185	0.0165265
788.263	0.0164613
788.341	0.0164042
788.419	0.0164899
788.497	0.0163184
788.575	0.0164765
788.654	0.0165476
788.732	0.0164004
788.810	0.0165752
788.888	0.0166174
788.966	0.0165955
789.044	0.0165508
789.122	0.0165948
789.200	0.0166678
789.279	0.0165015
789.357	0.0166038
789.435	0.0166211
789.513	0.0165816
789.591	0.0166084
789.669	0.0165128
789.747	0.0166442
789.825	0.0166179
789.904	0.0166826
789.982	0.0166911
790.060	0.0165980
790.138	0.0166325
790.216	0.0167326
790.294	0.0167332
790.372	0.0165703
790.450	0.0165568
790.529	0.0165533
790.607	0.0165154
790.685	0.0165896
790.763	0.0166203
790.841	0.0166533
790.919	0.0166003
790.997	0.0165563
791.075	0.0165388
791.154	0.0166213
791.232	0.0166046
791.310	0.0166247
791.388	0.0166267
791.466	0.0166585
791.544	0.0165821
791.622	0.0164922
791.700	0.0166245
791.779	0.0165585
791.857	0.0166399
791.935	0.0166282
792.013	0.0166740
792.091	0.0166499
792.169	0.0166229
792.247	0.0165755
792.325	0.0165961
792.404	0.0167476
792.482	0.0166791
792.560	0.0167094
792.638	0.0167068
792.716	0.0166389
792.794	0.0166910
792.872	0.0168295
792.950	0.0166655
793.029	0.0167146
793.107	0.0167908
793.185	0.0168319
793.263	0.0167727
793.341	0.0168369
793.419	0.0168520
793.497	0.0167270
793.575	0.0167616
793.654	0.0170542
793.732	0.0168702
793.810	0.0168650
793.888	0.0167207
793.966	0.0169003
794.044	0.0167929
794.122	0.0167230
794.200	0.0165253
794.279	0.0166185
794.357	0.0166245
794.435	0.0167118
794.513	0.0165372
794.591	0.0165872
794.669	0.0165823
794.747	0.0164835
794.825	0.0163200
794.904	0.0164603
794.982	0.0165717
795.060	0.0164349
795.138	0.0164299
795.216	0.0162610
795.294	0.0162040
795.372	0.0164384
795.450	0.0163992
795.529	0.0163562
795.607	0.0162479
795.685	0.0164396
795.763	0.0162656
795.841	0.0163017
795.919	0.0164114
795.997	0.0164217
796.075	0.0162823
796.154	0.0163956
796.232	0.0164109
796.310	0.0163632
796.388	0.0164008
796.466	0.0165952
796.544	0.0165778
796.622	0.0165572
796.700	0.0165495
796.779	0.0166267
796.857	0.0166049
796.935	0.0167278
797.013	0.0168059
797.091	0.0166389
797.169	0.0166312
797.247	0.0167824
797.325	0.0166853
797.404	0.0167390
797.482	0.0167415
797.560	0.0167815
797.638	0.0166820
797.716	0.0166536
797.794	0.0166459
797.872	0.0166251
797.950	0.0167049
798.029	0.0167556
798.107	0.0166776
798.185	0.0166459
798.263	0.0166193
798.341	0.0165703
798.419	0.0166244
798.497	0.0165166
798.575	0.0166521
798.654	0.0166145
798.732	0.0165437
798.810	0.0165115
798.888	0.0165778
798.966	0.0165038
799.044	0.0164036
799.122	0.0163702
799.200	0.0164418
799.279	0.0164451
799.357	0.0164099
799.435	0.0162938
799.513	0.0163785
799.591	0.0164234
799.669	0.0163683
799.747	0.0164144
799.825	0.0164146
799.904	0.0163024
799.982	0.0164024
800.060	0.0165638
800.138	0.0164788
800.216	0.0164511
800.294	0.0165598
800.372	0.0165788
800.450	0.0165032
800.529	0.0165991
800.607	0.0166975
800.685	0.0166718
800.763	0.0165775
800.841	0.0166798
800.919	0.0165983
800.997	0.0167308
801.075	0.0166518
801.154	0.0167256
801.232	0.0167521
801.310	0.0167196
801.388	0.0166399
801.466	0.0167078
801.544	0.0166850
801.622	0.0167681
801.700	0.0167025
801.779	0.0168008
801.857	0.0167001
801.935	0.0167907
802.013	0.0166071
802.091	0.0167210
802.169	0.0167857
802.247	0.0167646
802.325	0.0165982
802.404	0.0167756
802.482	0.0165437
802.560	0.0165388
802.638	0.0165075
802.716	0.0166650
802.794	0.0163869
802.872	0.0164700
802.950	0.0165501
803.029	0.0165269
803.107	0.0164281
803.185	0.0165020
803.263	0.0164455
803.341	0.0164995
803.419	0.0166510
803.497	0.0164288
803.575	0.0163902
803.654	0.0165066
803.732	0.0165221
803.810	0.0163805
803.888	0.0166027
803.966	0.0164438
804.044	0.0163902
804.122	0.0165869
804.200	0.0165546
804.279	0.0166069
804.357	0.0165767
804.435	0.0165493
804.513	0.0165314
804.591	0.0164979
804.669	0.0164357
804.747	0.0166383
804.825	0.0165236
804.904	0.0165729
804.982	0.0165424
805.060	0.0165157
805.138	0.0166042
805.216	0.0165634
805.294	0.0164833
805.372	0.0166119
805.450	0.0166630
805.529	0.0165469
805.607	0.0165527
805.685	0.0165012
805.763	0.0166822
805.841	0.0164482
805.919	0.0165840
805.997	0.0165693
806.075	0.0164702
806.154	0.0164848
806.232	0.0165504
806.310	0.0165574
806.388	0.0165443
806.466	0.0166672
806.544	0.0167129
806.622	0.0166216
806.700	0.0167021
806.779	0.0166951
806.857	0.0167540
806.935	0.0166521
807.013	0.0166792
807.091	0.0167500
807.169	0.0166586
807.247	0.0168410
807.325	0.0169116
807.404	0.0167775
807.482	0.0166936
807.560	0.0167367
807.638	0.0169566
807.716	0.0170403
807.794	0.0169319
807.872	0.0168040
807.950	0.0168877
808.029	0.0167029
808.107	0.0168433
808.185	0.0168733
808.263	0.0167109
808.341	0.0166794
808.419	0.0167062
808.497	0.0166905
808.575	0.0166566
808.654	0.0165170
808.732	0.0166543
808.810	0.0167424
808.888	0.0165533
808.966	0.0166486
809.044	0.0167297
809.122	0.0167719
809.200	0.0165376
809.279	0.0165529
809.357	0.0165866
809.435	0.0165334
809.513	0.0166521
809.591	0.0166653
809.669	0.0163927
809.747	0.0164354
809.825	0.0165059
809.904	0.0166777
809.982	0.0164456
810.060	0.0163290
810.138	0.0163332
810.216	0.0165306
810.294	0.0163571
810.372	0.0162531
810.450	0.0163820
810.529	0.0162044
810.607	0.0162484
810.685	0.0163873
810.763	0.0162457
810.841	0.0162469
810.919	0.0162958
810.997	0.0161535
811.075	0.0161517
811.154	0.0162589
811.232	0.0161740
811.310	0.0162067
811.388	0.0161550
811.466	0.0162230
811.544	0.0164012
811.622	0.0163145
811.700	0.0162006
811.779	0.0162231
811.857	0.0164146
811.935	0.0163549
812.013	0.0165646
812.091	0.0166158
812.169	0.0165089
812.247	0.0165819
812.325	0.0167965
812.404	0.0167420
812.482	0.0166934
812.560	0.0166960
812.638	0.0168282
812.716	0.0168066
812.794	0.0169131
812.872	0.0167574
812.950	0.0167030
813.029	0.0168490
813.107	0.0169407
813.185	0.0169739
813.263	0.0169522
813.341	0.0168942
813.419	0.0168759
813.497	0.0168993
813.575	0.0167039
813.654	0.0169211
813.732	0.0168739
813.810	0.0166809
813.888	0.0167779
813.966	0.0166677
814.044	0.0166430
814.122	0.0166081
814.200	0.0165965
814.279	0.0166986
814.357	0.0167289
814.435	0.0166765
814.513	0.0167355
814.591	0.0165623
814.669	0.0166107
814.747	0.0166358
814.825	0.0167233
814.904	0.0167410
814.982	0.0168205
815.060	0.0167281
815.138	0.0166950
815.216	0.0167215
815.294	0.0168295
815.372	0.0167199
815.450	0.0168270
815.529	0.0167259
815.607	0.0168433
815.685	0.0168947
815.763	0.0169877
815.841	0.0167618
815.919	0.0168432
815.997	0.0167670
816.075	0.0170067
816.154	0.0169259
816.232	0.0167076
816.310	0.0168738
816.388	0.0167353
816.466	0.0167134
816.544	0.0168647
816.622	0.0166550
816.700	0.0168140
816.779	0.0168626
816.857	0.0166846
816.935	0.0168855
817.013	0.0167803
817.091	0.0166518
817.169	0.0169067
817.247	0.0168233
817.325	0.0168629
817.404	0.0169381
817.482	0.0168782
817.560	0.0168217
817.638	0.0169517
817.716	0.0169722
817.794	0.0169207
817.872	0.0166950
817.950	0.0168438
818.029	0.0168686
818.107	0.0166492
818.185	0.0165527
818.263	0.0165585
818.341	0.0166227
818.419	0.0164629
818.497	0.0165076
818.575	0.0164893
818.654	0.0165069
818.732	0.0164183
818.810	0.0163731
818.888	0.0164095
818.966	0.0162577
819.044	0.0162560
819.122	0.0163482
819.200	0.0162183
819.279	0.0161167
819.357	0.0163160
819.435	0.0163041
819.513	0.0162483
819.591	0.0162891
819.669	0.0162626
819.747	0.0162886
819.825	0.0163161
819.904	0.0164278
819.982	0.0163213
820.060	0.0165349
820.138	0.0167648
820.216	0.0165852
820.294	0.0165555
820.372	0.0167885
820.450	0.0167582
820.529	0.0166417
820.607	0.0167560
820.685	0.0166515
820.763	0.0168383
820.841	0.0166531
820.919	0.0167292
820.997	0.0167064
821.075	0.0166776
821.154	0.0165940
821.232	0.0166978
821.310	0.0167336
821.388	0.0166929
821.466	0.0167105
821.544	0.0167047
821.622	0.0164916
821.700	0.0164902
821.779	0.0164479
821.857	0.0164682
821.935	0.0163721
822.013	0.0164371
822.091	0.0164774
822.169	0.0163316
822.247	0.0165422
822.325	0.0164010
822.404	0.0164658
822.482	0.0163216
822.560	0.0163291
822.638	0.0162983
822.716	0.0166103
822.794	0.0164984
822.872	0.0162980
822.950	0.0164882
823.029	0.0164508
823.107	0.0163581
823.185	0.0164770
823.263	0.0164971
823.341	0.0165290
823.419	0.0165309
823.497	0.0165965
823.575	0.0166450
823.654	0.0164933
823.732	0.0166288
823.810	0.0167382
823.888	0.0165930
823.966	0.0166722
824.044	0.0167824
824.122	0.0167821
824.200	0.0166571
824.279	0.0167663
824.357	0.0167407
824.435	0.0166740
824.513	0.0166411
824.591	0.0167665
824.669	0.0167369
824.747	0.0168081
824.825	0.0166748
824.904	0.0166821
824.982	0.0167999
825.060	0.0166255
825.138	0.0167213
825.216	0.0167789
825.294	0.0167359
825.372	0.0166776
825.450	0.0167744
825.529	0.0166862
825.607	0.0167820
825.685	0.0166423
825.763	0.0165912
825.841	0.0165922
825.919	0.0166234
825.997	0.0163924
826.075	0.0162149
826.154	0.0163821
826.232	0.0163955
826.310	0.0162666
826.388	0.0162771
826.466	0.0161412
826.544	0.0161337
826.622	0.0161857
826.700	0.0161243
826.779	0.0161828
826.857	0.0160378
826.935	0.0161433
827.013	0.0161566
827.091	0.0161829
827.169	0.0162212
827.247	0.0162278
827.325	0.0164777
827.404	0.0164205
827.482	0.0164096
827.560	0.0164211
827.638	0.0165496
827.716	0.0165509
827.794	0.0166499
827.872	0.0166805
827.950	0.0169090
828.029	0.0169297
828.107	0.0168829
828.185	0.0168876
828.263	0.0169546
828.341	0.0170004
828.419	0.0171384
828.497	0.0170776
828.575	0.0171184
828.654	0.0171138
828.732	0.0172337
828.810	0.0171638
828.888	0.0171214
828.966	0.0171899
829.044	0.0170231
829.122	0.0170777
829.200	0.0171130
829.279	0.0171904
829.357	0.0170599
829.435	0.0169795
829.513	0.0167703
829.591	0.0167106
829.669	0.0167502
829.747	0.0167879
829.825	0.0167667
829.904	0.0166166
829.982	0.0165118
830.060	0.0164936
830.138	0.0163193
830.216	0.0164236
830.294	0.0163518
830.372	0.0164296
830.450	0.0163796
830.529	0.0163176
830.607	0.0164799
830.685	0.0162080
830.763	0.0161890
830.841	0.0164992
830.919	0.0163409
830.997	0.0162059
831.075	0.0164295
831.154	0.0162972
831.232	0.0164400
831.310	0.0162628
831.388	0.0162704
831.466	0.0162962
831.544	0.0164631
831.622	0.0164254
831.700	0.0164619
831.779	0.0164700
831.857	0.0164149
831.935	0.0165511
832.013	0.0165137
832.091	0.0165553
832.169	0.0164780
832.247	0.0165794
832.325	0.0165108
832.404	0.0166317
832.482	0.0166726
832.560	0.0164998
832.638	0.0165399
832.716	0.0165919
832.794	0.0165639
832.872	0.0165543
832.950	0.0164831
833.029	0.0164660
833.107	0.0165013
833.185	0.0165067
833.263	0.0164708
833.341	0.0164583
833.419	0.0165675
833.497	0.0165228
833.575	0.0165045
833.654	0.0164862
833.732	0.0165400
833.810	0.0166166
833.888	0.0163161
833.966	0.0164862
834.044	0.0166087
834.122	0.0165720
834.200	0.0165675
834.279	0.0164945
834.357	0.0164541
834.435	0.0164819
834.513	0.0165080
834.591	0.0165220
834.669	0.0163654
834.747	0.0164919
834.825	0.0162746
834.904	0.0165443
834.982	0.0163873
835.060	0.0165886
835.138	0.0164830
835.216	0.0164732
835.294	0.0164667
835.372	0.0166148
835.450	0.0165460
835.529	0.0166544
835.607	0.0166344
835.685	0.0166512
835.763	0.0167043
835.841	0.0167748
835.919	0.0165026
835.997	0.0167178
836.075	0.0167654
836.154	0.0167029
836.232	0.0166727
836.310	0.0168066
836.388	0.0167149
836.466	0.0167255
836.544	0.0167556
836.622	0.0166660
836.700	0.0167664
836.779	0.0167156
836.857	0.0167157
836.935	0.0166505
837.013	0.0166352
837.091	0.0167713
837.169	0.0167064
837.247	0.0166441
837.325	0.0165707
837.404	0.0165935
837.482	0.0164300
837.560	0.0163777
837.638	0.0166242
837.716	0.0166284
837.794	0.0166055
837.872	0.0165305
837.950	0.0165195
838.029	0.0165269
838.107	0.0163960
838.185	0.0165585
838.263	0.0165173
838.341	0.0164938
838.419	0.0164919
838.497	0.0166959
838.575	0.0165823
838.654	0.0164605
838.732	0.0165965
838.810	0.0166920
838.888	0.0165865
838.966	0.0164822
839.044	0.0166718
839.122	0.0166684
839.200	0.0166168
839.279	0.0166160
839.357	0.0166665
839.435	0.0165946
839.513	0.0166453
839.591	0.0166662
839.669	0.0166160
839.747	0.0164870
839.825	0.0165335
839.904	0.0164581
839.982	0.0164476
840.060	0.0163619
840.138	0.0165026
840.216	0.0164170
840.294	0.0165096
840.372	0.0164846
840.450	0.0163326
840.529	0.0163002
840.607	0.0166039
840.685	0.0163708
840.763	0.0163587
840.841	0.0165818
840.919	0.0165253
840.997	0.0164588
841.075	0.0165690
841.154	0.0165884
841.232	0.0163892
841.310	0.0164515
841.388	0.0166865
841.466	0.0166582
841.544	0.0166490
841.622	0.0165108
841.700	0.0165246
841.779	0.0164388
841.857	0.0165030
841.935	0.0165495
842.013	0.0166765
842.091	0.0166796
842.169	0.0164725
842.247	0.0164433
842.325	0.0165956
842.404	0.0163984
842.482	0.0165899
842.560	0.0164703
842.638	0.0165117
842.716	0.0165598
842.794	0.0165191
842.872	0.0164584
842.950	0.0164363
843.029	0.0165012
843.107	0.0165636
843.185	0.0165854
843.263	0.0166495
843.341	0.0165242
843.419	0.0166035
843.497	0.0166412
843.575	0.0166115
843.654	0.0164848
843.732	0.0165672
843.810	0.0166792
843.888	0.0167080
843.966	0.0166998
844.044	0.0167278
844.122	0.0165387
844.200	0.0166345
844.279	0.0165806
844.357	0.0164809
844.435	0.0166493
844.513	0.0164424
844.591	0.0164468
844.669	0.0165669
844.747	0.0164913
844.825	0.0164518
844.904	0.0163815
844.982	0.0164086
845.060	0.0163933
845.138	0.0165348
845.216	0.0165043
845.294	0.0164297
845.372	0.0166145
845.450	0.0166729
845.529	0.0165932
845.607	0.0165872
845.685	0.0165849
845.763	0.0166353
845.841	0.0166475
845.919	0.0167113
845.997	0.0166940
846.075	0.0167966
846.154	0.0167516
846.232	0.0168253
846.310	0.0168805
846.388	0.0169899
846.466	0.0169651
846.544	0.0170208
846.622	0.0169889
846.700	0.0169417
846.779	0.0169443
846.857	0.0169664
846.935	0.0169117
847.013	0.0168833
847.091	0.0168880
847.169	0.0169411
847.247	0.0168793
847.325	0.0168763
847.404	0.0167298
847.482	0.0168339
847.560	0.0167953
847.638	0.0166947
847.716	0.0166702
847.794	0.0166837
847.872	0.0166052
847.950	0.0164899
848.029	0.0166245
848.107	0.0166261
848.185	0.0165517
848.263	0.0165704
848.341	0.0164915
848.419	0.0165549
848.497	0.0164574
848.575	0.0163441
848.654	0.0164290
848.732	0.0164401
848.810	0.0163955
848.888	0.0163781
848.966	0.0164929
849.044	0.0164366
849.122	0.0164367
849.200	0.0163403
849.279	0.0164478
849.357	0.0162738
849.435	0.0163674
849.513	0.0163577
849.591	0.0163595
849.669	0.0162584
849.747	0.0163882
849.825	0.0163770
849.904	0.0165071
849.982	0.0164168
850.060	0.0164121
850.138	0.0164011
850.216	0.0164244
850.294	0.0164866
850.372	0.0165034
850.450	0.0164236
850.529	0.0164479
850.607	0.0163809
850.685	0.0164900
850.763	0.0165646
850.841	0.0165260
850.919	0.0166017
850.997	0.0166656
851.075	0.0166877
851.154	0.0165920
851.232	0.0166577
851.310	0.0167682
851.388	0.0167491
851.466	0.0167263
851.544	0.0167256
851.622	0.0166588
851.700	0.0166270
851.779	0.0167260
851.857	0.0167577
851.935	0.0167120
852.013	0.0167435
852.091	0.0168217
852.169	0.0168424
852.247	0.0166903
852.325	0.0166299
852.404	0.0166200
852.482	0.0168164
852.560	0.0166795
852.638	0.0165710
852.716	0.0167139
852.794	0.0165723
852.872	0.0165661
852.950	0.0165768
853.029	0.0166429
853.107	0.0167012
853.185	0.0166206
853.263	0.0165399
853.341	0.0163900
853.419	0.0164659
853.497	0.0165585
853.575	0.0164819
853.654	0.0165967
853.732	0.0164611
853.810	0.0164499
853.888	0.0166002
853.966	0.0166455
854.044	0.0164719
854.122	0.0165854
854.200	0.0166639
854.279	0.0166614
854.357	0.0165367
854.435	0.0165988
854.513	0.0166880
854.591	0.0165839
854.669	0.0165800
854.747	0.0166614
854.825	0.0165875
854.904	0.0166346
854.982	0.0166302
855.060	0.0166390
855.138	0.0166164
855.216	0.0167184
855.294	0.0165158
855.372	0.0166499
855.450	0.0166179
855.529	0.0165533
855.607	0.0165766
855.685	0.0165524
855.763	0.0165872
855.841	0.0164094
855.919	0.0165138
855.997	0.0166012
856.075	0.0165366
856.154	0.0164070
856.232	0.0164667
856.310	0.0164323
856.388	0.0164568
856.466	0.0165107
856.544	0.0164717
856.622	0.0164472
856.700	0.0164742
856.779	0.0165937
856.857	0.0165894
856.935	0.0163897
857.013	0.0165840
857.091	0.0167088
857.169	0.0165187
857.247	0.0165961
857.325	0.0166068
857.404	0.0166347
857.482	0.0165857
857.560	0.0167800
857.638	0.0166527
857.716	0.0165325
857.794	0.0165151
857.872	0.0167593
857.950	0.0167082
858.029	0.0166927
858.107	0.0166071
858.185	0.0166539
858.263	0.0166647
858.341	0.0166042
858.419	0.0166679
858.497	0.0166006
858.575	0.0165002
858.654	0.0165490
858.732	0.0165835
858.810	0.0165725
858.888	0.0165758
858.966	0.0166451
859.044	0.0165425
859.122	0.0165605
859.200	0.0167106
859.279	0.0165733
859.357	0.0166923
859.435	0.0166375
859.513	0.0166505
859.591	0.0166756
859.669	0.0166366
859.747	0.0166834
859.825	0.0167947
859.904	0.0168649
859.982	0.0167764
860.060	0.0167818
860.138	0.0168518
860.216	0.0168282
860.294	0.0167815
860.372	0.0168078
860.450	0.0167816
860.529	0.0166912
860.607	0.0166712
860.685	0.0166154
860.763	0.0168348
860.841	0.0166595
860.919	0.0167619
860.997	0.0166337
861.075	0.0166389
861.154	0.0164486
861.232	0.0164469
861.310	0.0163993
861.388	0.0163755
861.466	0.0163702
861.544	0.0164910
861.622	0.0165388
861.700	0.0165627
861.779	0.0164669
861.857	0.0165083
861.935	0.0165844
862.013	0.0165810
862.091	0.0166193
862.169	0.0164433
862.247	0.0165666
862.325	0.0165876
862.404	0.0165725
862.482	0.0166702
862.560	0.0164282
862.638	0.0165343
862.716	0.0165147
862.794	0.0164642
862.872	0.0165339
862.950	0.0165173
863.029	0.0164952
863.107	0.0165633
863.185	0.0165484
863.263	0.0165419
863.341	0.0163673
863.419	0.0165557
863.497	0.0165541
863.575	0.0165113
863.654	0.0165696
863.732	0.0164973
863.810	0.0164994
863.888	0.0165650
863.966	0.0164910
864.044	0.0164410
864.122	0.0164755
864.200	0.0166676
864.279	0.0164656
864.357	0.0165099
864.435	0.0166883
864.513	0.0166367
864.591	0.0165968
864.669	0.0166773
864.747	0.0164900
864.825	0.0165774
864.904	0.0167532
864.982	0.0165906
865.060	0.0165775
865.138	0.0167191
865.216	0.0165865
865.294	0.0165740
865.372	0.0165421
865.450	0.0165330
865.529	0.0166222
865.607	0.0165565
865.685	0.0163918
865.763	0.0163953
865.841	0.0165121
865.919	0.0163058
865.997	0.0164050
866.075	0.0164673
866.154	0.0163647
866.232	0.0163143
866.310	0.0164566
866.388	0.0165919
866.466	0.0164803
866.544	0.0163861
866.622	0.0165368
866.700	0.0164244
866.779	0.0164877
866.857	0.0165175
866.935	0.0164224
867.013	0.0164830
867.091	0.0165174
867.169	0.0164507
867.247	0.0164539
867.325	0.0165356
867.404	0.0165925
867.482	0.0164925
867.560	0.0165900
867.638	0.0164915
867.716	0.0166687
867.794	0.0165684
867.872	0.0165591
867.950	0.0166196
868.029	0.0165883
868.107	0.0165079
868.185	0.0165033
868.263	0.0166331
868.341	0.0165651
868.419	0.0166510
868.497	0.0166463
868.575	0.0165091
868.654	0.0165983
868.732	0.0167078
868.810	0.0166145
868.888	0.0166213
868.966	0.0165742
869.044	0.0165893
869.122	0.0164378
869.200	0.0166013
869.279	0.0165791
869.357	0.0164899
869.435	0.0163782
869.513	0.0164111
869.591	0.0165340
869.669	0.0165666
869.747	0.0165118
869.825	0.0164256
869.904	0.0163959
869.982	0.0163731
870.060	0.0164928
870.138	0.0164480
870.216	0.0164780
870.294	0.0164867
870.372	0.0165633
870.450	0.0165412
870.529	0.0164230
870.607	0.0164873
870.685	0.0165043
870.763	0.0165414
870.841	0.0166515
870.919	0.0165772
870.997	0.0165832
871.075	0.0164655
871.154	0.0166083
871.232	0.0166161
871.310	0.0166013
871.388	0.0166136
871.466	0.0164970
871.544	0.0166048
871.622	0.0165039
871.700	0.0165919
871.779	0.0165859
871.857	0.0165604
871.935	0.0166188
872.013	0.0165997
872.091	0.0166332
872.169	0.0166676
872.247	0.0166428
872.325	0.0167056
872.404	0.0166051
872.482	0.0167397
872.560	0.0165865
872.638	0.0166928
872.716	0.0168162
872.794	0.0166903
872.872	0.0167278
872.950	0.0167886
873.029	0.0165545
873.107	0.0166605
873.185	0.0167858
873.263	0.0167373
873.341	0.0166483
873.419	0.0166611
873.497	0.0166248
873.575	0.0166418
873.654	0.0166776
873.732	0.0167949
873.810	0.0168423
873.888	0.0167498
873.966	0.0165862
874.044	0.0166928
874.122	0.0168297
874.200	0.0166713
874.279	0.0167270
874.357	0.0167510
874.435	0.0165823
874.513	0.0165770
874.591	0.0168016
874.669	0.0165522
874.747	0.0164475
874.825	0.0165276
874.904	0.0165349
874.982	0.0165432
875.060	0.0164384
875.138	0.0165643
875.216	0.0164937
875.294	0.0165218
875.372	0.0165987
875.450	0.0164191
875.529	0.0165777
875.607	0.0164815
875.685	0.0166405
875.763	0.0165717
875.841	0.0166706
875.919	0.0165297
875.997	0.0165419
876.075	0.0165196
876.154	0.0166125
876.232	0.0165929
876.310	0.0166762
876.388	0.0166473
876.466	0.0166370
876.544	0.0166521
876.622	0.0168469
876.700	0.0166516
876.779	0.0166941
876.857	0.0167855
876.935	0.0167336
877.013	0.0168609
877.091	0.0167436
877.169	0.0167516
877.247	0.0167455
877.325	0.0166905
877.404	0.0168359
877.482	0.0168011
877.560	0.0165881
877.638	0.0165845
877.716	0.0168241
877.794	0.0167480
877.872	0.0166530
877.950	0.0165806
878.029	0.0165257
878.107	0.0166241
878.185	0.0166199
878.263	0.0166612
878.341	0.0166668
878.419	0.0165522
878.497	0.0165780
878.575	0.0166135
878.654	0.0164585
878.732	0.0164932
878.810	0.0165975
878.888	0.0166208
878.966	0.0166198
879.044	0.0165173
879.122	0.0165692
879.200	0.0165239
879.279	0.0165585
879.357	0.0166574
879.435	0.0166624
879.513	0.0167793
879.591	0.0166440
879.669	0.0166653
879.747	0.0167276
879.825	0.0165666
879.904	0.0166709
879.982	0.0166308
880.060	0.0166519
880.138	0.0166560
880.216	0.0166226
880.294	0.0166151
880.372	0.0166104
880.450	0.0167262
880.529	0.0167976
880.607	0.0167295
880.685	0.0167021
880.763	0.0169212
880.841	0.0167717
880.919	0.0167555
880.997	0.0168428
881.075	0.0167693
881.154	0.0169009
881.232	0.0168127
881.310	0.0167886
881.388	0.0168221
881.466	0.0167886
881.544	0.0166793
881.622	0.0167773
881.700	0.0167968
881.779	0.0166477
881.857	0.0166344
881.935	0.0169013
882.013	0.0166306
882.091	0.0167666
882.169	0.0167169
882.247	0.0166347
882.325	0.0168607
882.404	0.0166608
882.482	0.0165859
882.560	0.0166433
882.638	0.0164845
882.716	0.0163721
882.794	0.0166476
882.872	0.0164704
882.950	0.0163775
883.029	0.0163805
883.107	0.0164966
883.185	0.0164607
883.263	0.0163233
883.341	0.0164170
883.419	0.0163633
883.497	0.0164902
883.575	0.0165103
883.654	0.0163820
883.732	0.0165246
883.810	0.0164995
883.888	0.0164336
883.966	0.0165304
884.044	0.0165038
884.122	0.0164858
884.200	0.0164741
884.279	0.0165087
884.357	0.0165963
884.435	0.0166255
884.513	0.0165825
884.591	0.0165978
884.669	0.0165710
884.747	0.0166821
884.825	0.0165236
884.904	0.0166373
884.982	0.0166305
885.060	0.0167004
885.138	0.0166203
885.216	0.0165897
885.294	0.0166090
885.372	0.0167765
885.450	0.0166611
885.529	0.0166866
885.607	0.0168590
885.685	0.0167632
885.763	0.0166571
885.841	0.0166885
885.919	0.0168133
885.997	0.0167698
886.075	0.0166573
886.154	0.0167010
886.232	0.0168229
886.310	0.0166405
886.388	0.0167564
886.466	0.0166055
886.544	0.0165301
886.622	0.0165412
886.700	0.0165289
886.779	0.0165163
886.857	0.0165905
886.935	0.0164571
887.013	0.0165286
887.091	0.0165465
887.169	0.0164407
887.247	0.0164156
887.325	0.0164742
887.404	0.0163285
887.482	0.0163828
887.560	0.0164344
887.638	0.0164094
887.716	0.0166187
887.794	0.0164870
887.872	0.0163905
887.950	0.0163824
888.029	0.0164544
888.107	0.0164001
888.185	0.0164570
888.263	0.0164511
888.341	0.0165430
888.419	0.0165659
888.497	0.0165157
888.575	0.0165302
888.654	0.0165566
888.732	0.0163982
888.810	0.0166117
888.888	0.0165249
888.966	0.0164697
889.044	0.0164916
889.122	0.0165182
889.200	0.0165182
889.279	0.0165965
889.357	0.0165273
889.435	0.0165989
889.513	0.0165385
889.591	0.0165674
889.669	0.0164843
889.747	0.0164971
889.825	0.0165298
889.904	0.0164925
889.982	0.0164394
890.060	0.0165990
890.138	0.0165353
890.216	0.0166722
890.294	0.0165607
890.372	0.0166287
890.450	0.0166367
890.529	0.0165526
890.607	0.0166978
890.685	0.0166549
890.763	0.0166913
890.841	0.0166119
890.919	0.0167429
890.997	0.0167215
891.075	0.0166340
891.154	0.0165583
891.232	0.0163810
891.310	0.0165768
891.388	0.0165504
891.466	0.0166373
891.544	0.0166256
891.622	0.0165673
891.700	0.0165137
891.779	0.0164892
891.857	0.0164532
891.935	0.0165054
892.013	0.0165614
892.091	0.0165359
892.169	0.0163995
892.247	0.0165659
892.325	0.0164896
892.404	0.0164989
892.482	0.0164178
892.560	0.0164233
892.638	0.0165082
892.716	0.0165250
892.794	0.0165656
892.872	0.0164462
892.950	0.0164203
893.029	0.0163828
893.107	0.0164436
893.185	0.0164214
893.263	0.0164124
893.341	0.0164421
893.419	0.0163878
893.497	0.0164568
893.575	0.0164526
893.654	0.0164072
893.732	0.0164935
893.810	0.0165459
893.888	0.0166644
893.966	0.0166025
894.044	0.0164650
894.122	0.0165531
894.200	0.0167213
894.279	0.0166666
894.357	0.0165636
894.435	0.0165172
894.513	0.0165990
894.591	0.0165823
894.669	0.0165458
894.747	0.0166116
894.825	0.0167277
894.904	0.0165171
894.982	0.0166967
895.060	0.0167339
895.138	0.0166275
895.216	0.0167381
895.294	0.0167221
895.372	0.0166750
895.450	0.0165475
895.529	0.0168426
895.607	0.0167099
895.685	0.0166809
895.763	0.0167262
895.841	0.0165929
895.919	0.0167180
895.997	0.0166670
896.075	0.0166753
896.154	0.0167406
896.232	0.0165766
896.310	0.0165373
896.388	0.0165424
896.466	0.0166589
896.544	0.0166765
896.622	0.0166798
896.700	0.0166745
896.779	0.0165663
896.857	0.0166718
896.935	0.0166399
897.013	0.0165855
897.091	0.0166446
897.169	0.0166088
897.247	0.0166541
897.325	0.0165754
897.404	0.0165615
897.482	0.0167277
897.560	0.0166264
897.638	0.0166286
897.716	0.0164063
897.794	0.0166399
897.872	0.0166282
897.950	0.0166598
898.029	0.0166355
898.107	0.0164744
898.185	0.0167068
898.263	0.0166590
898.341	0.0165707
898.419	0.0166480
898.497	0.0165316
898.575	0.0166584
898.654	0.0166756
898.732	0.0167605
898.810	0.0165893
898.888	0.0166205
898.966	0.0167935
899.044	0.0167213
899.122	0.0166883
899.200	0.0167592
899.279	0.0168149
899.357	0.0167168
899.435	0.0167539
899.513	0.0167300
899.591	0.0167444
899.669	0.0166521
899.747	0.0167043
899.825	0.0168416
899.904	0.0167649
899.982	0.0166728
900.060	0.0168244
900.138	0.0167714
900.216	0.0167986
900.294	0.0166951
900.372	0.0167889
900.450	0.0168174
900.529	0.0167366
900.607	0.0169154
900.685	0.0167167
900.763	0.0167242
900.841	0.0168441
900.919	0.0168195
900.997	0.0167886
901.075	0.0167395
901.154	0.0167879
901.232	0.0167388
901.310	0.0167207
901.388	0.0166200
901.466	0.0166982
901.544	0.0165738
901.622	0.0167555
901.700	0.0166700
901.779	0.0167101
901.857	0.0166111
901.935	0.0165615
902.013	0.0165598
902.091	0.0166956
902.169	0.0166422
902.247	0.0165405
902.325	0.0166810
902.404	0.0166314
902.482	0.0165884
902.560	0.0166911
902.638	0.0166230
902.716	0.0166579
902.794	0.0166285
902.872	0.0166060
902.950	0.0166776
903.029	0.0166218
903.107	0.0165757
903.185	0.0165607
903.263	0.0165977
903.341	0.0165423
903.419	0.0166499
903.497	0.0165653
903.575	0.0167046
903.654	0.0167480
903.732	0.0166994
903.810	0.0166911
903.888	0.0166410
903.966	0.0167410
904.044	0.0166350
904.122	0.0165997
904.200	0.0166447
904.279	0.0167132
904.357	0.0166497
904.435	0.0166096
904.513	0.0165543
904.591	0.0166647
904.669	0.0166549
904.747	0.0166426
904.825	0.0164703
904.904	0.0163442
904.982	0.0165570
905.060	0.0164478
905.138	0.0164564
905.216	0.0164466
905.294	0.0164590
905.372	0.0164739
905.450	0.0163770
905.529	0.0163529
905.607	0.0163783
905.685	0.0164195
905.763	0.0163747
905.841	0.0162754
905.919	0.0163741
905.997	0.0163442
906.075	0.0162870
906.154	0.0165298
906.232	0.0162830
906.310	0.0162901
906.388	0.0162212
906.466	0.0163360
906.544	0.0162699
906.622	0.0163486
906.700	0.0163606
906.779	0.0164188
906.857	0.0162756
906.935	0.0163243
907.013	0.0164443
907.091	0.0163525
907.169	0.0164236
907.247	0.0164848
907.325	0.0162466
907.404	0.0164293
907.482	0.0164684
907.560	0.0164628
907.638	0.0163432
907.716	0.0164354
907.794	0.0163321
907.872	0.0165278
907.950	0.0164633
908.029	0.0165934
908.107	0.0163192
908.185	0.0164172
908.263	0.0165752
908.341	0.0164233
908.419	0.0163409
908.497	0.0164787
908.575	0.0164910
908.654	0.0164864
908.732	0.0164327
908.810	0.0164739
908.888	0.0163532
908.966	0.0165590
909.044	0.0164989
909.122	0.0165051
909.200	0.0166089
909.279	0.0165726
909.357	0.0165322
909.435	0.0166692
909.513	0.0166737
909.591	0.0165966
909.669	0.0166682
909.747	0.0166290
909.825	0.0166144
909.904	0.0165012
909.982	0.0165195
910.060	0.0165884
910.138	0.0166247
910.216	0.0165209
910.294	0.0166684
910.372	0.0166417
910.450	0.0167128
910.529	0.0165671
910.607	0.0166756
910.685	0.0166253
910.763	0.0165556
910.841	0.0165721
910.919	0.0166946
910.997	0.0167301
911.075	0.0165668
911.154	0.0167736
911.232	0.0166708
911.310	0.0167214
911.388	0.0166933
911.466	0.0166629
911.544	0.0167944
911.622	0.0166858
911.700	0.0167810
911.779	0.0167349
911.857	0.0166653
911.935	0.0167490
912.013	0.0169456
912.091	0.0167024
912.169	0.0166055
912.247	0.0166588
912.325	0.0166648
912.404	0.0168306
912.482	0.0166962
912.560	0.0164304
912.638	0.0167636
912.716	0.0165016
912.794	0.0165978
912.872	0.0166975
912.950	0.0166920
913.029	0.0165233
913.107	0.0165322
913.185	0.0165598
913.263	0.0165042
913.341	0.0166161
913.419	0.0165199
913.497	0.0165668
913.575	0.0166170
913.654	0.0165398
913.732	0.0165559
913.810	0.0165314
913.888	0.0166325
913.966	0.0165845
914.044	0.0165833
914.122	0.0165316
914.200	0.0167195
914.279	0.0164613
914.357	0.0164535
914.435	0.0167393
914.513	0.0166004
914.591	0.0165565
914.669	0.0165269
914.747	0.0165417
914.825	0.0165314
914.904	0.0166226
914.982	0.0165156
915.060	0.0165215
915.138	0.0164732
915.216	0.0164757
915.294	0.0165865
915.372	0.0166262
915.450	0.0163736
915.529	0.0164119
915.607	0.0164653
915.685	0.0164837
915.763	0.0164138
915.841	0.0163039
915.919	0.0163895
915.997	0.0164700
916.075	0.0164235
916.154	0.0163854
916.232	0.0165599
916.310	0.0166924
916.388	0.0165994
916.466	0.0164877
916.544	0.0164645
916.622	0.0166454
916.700	0.0165732
916.779	0.0165765
916.857	0.0167388
916.935	0.0166229
917.013	0.0166609
917.091	0.0165142
917.169	0.0166232
917.247	0.0167145
917.325	0.0165983
917.404	0.0167081
917.482	0.0166789
917.560	0.0166589
917.638	0.0166087
917.716	0.0168636
917.794	0.0167368
917.872	0.0167584
917.950	0.0167197
918.029	0.0167857
918.107	0.0166998
918.185	0.0167899
918.263	0.0167765
918.341	0.0167280
918.419	0.0167294
918.497	0.0166820
918.575	0.0166508
918.654	0.0167750
918.732	0.0168304
918.810	0.0167890
918.888	0.0167742
918.966	0.0166264
919.044	0.0167097
919.122	0.0167571
919.200	0.0166020
919.279	0.0166122
919.357	0.0166874
919.435	0.0166182
919.513	0.0165559
919.591	0.0165658
919.669	0.0165689
919.747	0.0165825
919.825	0.0166918
919.904	0.0165141
