05/24/2022	20:51:22	Ver.	4.1	UNKNOWN
Optical Delay	580.014591	Delta X		0.078125	Sweeps	1	Scan Rate	0/0
Coordinates	Axis 1	NaN	Axis 2	NaN	Axis 3	NaN	Axis 4	NaN	Axis 5	NaN	Axis 6	0.000000
TX Power	0.000000	RX Power	0.000000

580.015	0.0163567
580.093	0.0164986
580.171	0.0165714
580.249	0.0165202
580.327	0.0164517
580.405	0.0165102
580.483	0.0166666
580.561	0.0164046
580.640	0.0165306
580.718	0.0165878
580.796	0.0166210
580.874	0.0165698
580.952	0.0165035
581.030	0.0166015
581.108	0.0166766
581.186	0.0165649
581.265	0.0164128
581.343	0.0165593
581.421	0.0168007
581.499	0.0163729
581.577	0.0164868
581.655	0.0164162
581.733	0.0164440
581.811	0.0165356
581.890	0.0163536
581.968	0.0164096
582.046	0.0164841
582.124	0.0164664
582.202	0.0162405
582.280	0.0163712
582.358	0.0162862
582.436	0.0161557
582.515	0.0162363
582.593	0.0163120
582.671	0.0160516
582.749	0.0160788
582.827	0.0159729
582.905	0.0161272
582.983	0.0160299
583.061	0.0159311
583.140	0.0160523
583.218	0.0159629
583.296	0.0159489
583.374	0.0160396
583.452	0.0160159
583.530	0.0160682
583.608	0.0160071
583.686	0.0161739
583.765	0.0161280
583.843	0.0161224
583.921	0.0162490
583.999	0.0162501
584.077	0.0163062
584.155	0.0163186
584.233	0.0164026
584.311	0.0164150
584.390	0.0163413
584.468	0.0162510
584.546	0.0162141
584.624	0.0162495
584.702	0.0161392
584.780	0.0162809
584.858	0.0162775
584.936	0.0162417
585.015	0.0161700
585.093	0.0160899
585.171	0.0161929
585.249	0.0161474
585.327	0.0160294
585.405	0.0161921
585.483	0.0162127
585.561	0.0162103
585.640	0.0160974
585.718	0.0161280
585.796	0.0159669
585.874	0.0160651
585.952	0.0160889
586.030	0.0161086
586.108	0.0160395
586.186	0.0160040
586.265	0.0161422
586.343	0.0161433
586.421	0.0160505
586.499	0.0162432
586.577	0.0162575
586.655	0.0161205
586.733	0.0161355
586.811	0.0164256
586.890	0.0164090
586.968	0.0163591
587.046	0.0162920
587.124	0.0163094
587.202	0.0162838
587.280	0.0162570
587.358	0.0162694
587.436	0.0164247
587.515	0.0162487
587.593	0.0163918
587.671	0.0164474
587.749	0.0165273
587.827	0.0164359
587.905	0.0163477
587.983	0.0163195
588.061	0.0162274
588.140	0.0161845
588.218	0.0163188
588.296	0.0162602
588.374	0.0164154
588.452	0.0162246
588.530	0.0161943
588.608	0.0162356
588.686	0.0162341
588.765	0.0162581
588.843	0.0163282
588.921	0.0161945
588.999	0.0162148
589.077	0.0164625
589.155	0.0164024
589.233	0.0163702
589.311	0.0163051
589.390	0.0164381
589.468	0.0164185
589.546	0.0164629
589.624	0.0163820
589.702	0.0163934
589.780	0.0163177
589.858	0.0165520
589.936	0.0164129
590.015	0.0165020
590.093	0.0165168
590.171	0.0163724
590.249	0.0165508
590.327	0.0164847
590.405	0.0164664
590.483	0.0164579
590.561	0.0164373
590.640	0.0163918
590.718	0.0164587
590.796	0.0165729
590.874	0.0164358
590.952	0.0165017
591.030	0.0165433
591.108	0.0165228
591.186	0.0164415
591.265	0.0163765
591.343	0.0166318
591.421	0.0164894
591.499	0.0164660
591.577	0.0164543
591.655	0.0166345
591.733	0.0166479
591.811	0.0164628
591.890	0.0164577
591.968	0.0164803
592.046	0.0163602
592.124	0.0163360
592.202	0.0163511
592.280	0.0164159
592.358	0.0162660
592.436	0.0164071
592.515	0.0164204
592.593	0.0163760
592.671	0.0161465
592.749	0.0163618
592.827	0.0164548
592.905	0.0163080
592.983	0.0162400
593.061	0.0162139
593.140	0.0163017
593.218	0.0162103
593.296	0.0162356
593.374	0.0163151
593.452	0.0162962
593.530	0.0164350
593.608	0.0163754
593.686	0.0162013
593.765	0.0163398
593.843	0.0164568
593.921	0.0164665
593.999	0.0163817
594.077	0.0165498
594.155	0.0165466
594.233	0.0167684
594.311	0.0166471
594.390	0.0164799
594.468	0.0166441
594.546	0.0165944
594.624	0.0167001
594.702	0.0166169
594.780	0.0165598
594.858	0.0165983
594.936	0.0164521
595.015	0.0164716
595.093	0.0164951
595.171	0.0165086
595.249	0.0165537
595.327	0.0162791
595.405	0.0161864
595.483	0.0163929
595.561	0.0163923
595.640	0.0164573
595.718	0.0163428
595.796	0.0161694
595.874	0.0162576
595.952	0.0162727
596.030	0.0161973
596.108	0.0163291
596.186	0.0162108
596.265	0.0162309
596.343	0.0162611
596.421	0.0164063
596.499	0.0161656
596.577	0.0163047
596.655	0.0163332
596.733	0.0161784
596.811	0.0162189
596.890	0.0163217
596.968	0.0163169
597.046	0.0162638
597.124	0.0163177
597.202	0.0162242
597.280	0.0162615
597.358	0.0164750
597.436	0.0164785
597.515	0.0163148
597.593	0.0164080
597.671	0.0163360
597.749	0.0163376
597.827	0.0164129
597.905	0.0162949
597.983	0.0165860
598.061	0.0163685
598.140	0.0164785
598.218	0.0162366
598.296	0.0164084
598.374	0.0165315
598.452	0.0163261
598.530	0.0164844
598.608	0.0165205
598.686	0.0164489
598.765	0.0164939
598.843	0.0164668
598.921	0.0163463
598.999	0.0163675
599.077	0.0164658
599.155	0.0164281
599.233	0.0164740
599.311	0.0162934
599.390	0.0164147
599.468	0.0162842
599.546	0.0163843
599.624	0.0164555
599.702	0.0164471
599.780	0.0165067
599.858	0.0163744
599.936	0.0163202
600.015	0.0163670
600.093	0.0164135
600.171	0.0162645
600.249	0.0162308
600.327	0.0162910
600.405	0.0163235
600.483	0.0163270
600.561	0.0162897
600.640	0.0162388
600.718	0.0162303
600.796	0.0163079
600.874	0.0163910
600.952	0.0164112
601.030	0.0163181
601.108	0.0163784
601.186	0.0165290
601.265	0.0165021
601.343	0.0163026
601.421	0.0163839
601.499	0.0164673
601.577	0.0163610
601.655	0.0163970
601.733	0.0163927
601.811	0.0163738
601.890	0.0163766
601.968	0.0162272
602.046	0.0163227
602.124	0.0164308
602.202	0.0162218
602.280	0.0162201
602.358	0.0165185
602.436	0.0163642
602.515	0.0163689
602.593	0.0161855
602.671	0.0162569
602.749	0.0161960
602.827	0.0161804
602.905	0.0162960
602.983	0.0162163
603.061	0.0162477
603.140	0.0162006
603.218	0.0162452
603.296	0.0163699
603.374	0.0163737
603.452	0.0164005
603.530	0.0164787
603.608	0.0163911
603.686	0.0164186
603.765	0.0165350
603.843	0.0165803
603.921	0.0163608
603.999	0.0164368
604.077	0.0163721
604.155	0.0164697
604.233	0.0165066
604.311	0.0162831
604.390	0.0164211
604.468	0.0163670
604.546	0.0161063
604.624	0.0161879
604.702	0.0161009
604.780	0.0161441
604.858	0.0161036
604.936	0.0157849
605.015	0.0159105
605.093	0.0159916
605.171	0.0158121
605.249	0.0158486
605.327	0.0159581
605.405	0.0159653
605.483	0.0160727
605.561	0.0160022
605.640	0.0161236
605.718	0.0159135
605.796	0.0161665
605.874	0.0162270
605.952	0.0162468
606.030	0.0161414
606.108	0.0162745
606.186	0.0162811
606.265	0.0163577
606.343	0.0163256
606.421	0.0161529
606.499	0.0162009
606.577	0.0165141
606.655	0.0162457
606.733	0.0162872
606.811	0.0163028
606.890	0.0162435
606.968	0.0164016
607.046	0.0162473
607.124	0.0163466
607.202	0.0162876
607.280	0.0163296
607.358	0.0164668
607.436	0.0164940
607.515	0.0165421
607.593	0.0164978
607.671	0.0164717
607.749	0.0165383
607.827	0.0164799
607.905	0.0165007
607.983	0.0163434
608.061	0.0163397
608.140	0.0165694
608.218	0.0164323
608.296	0.0162443
608.374	0.0162952
608.452	0.0162070
608.530	0.0162720
608.608	0.0160872
608.686	0.0160871
608.765	0.0160342
608.843	0.0160036
608.921	0.0159928
608.999	0.0158924
609.077	0.0159141
609.155	0.0161011
609.233	0.0160563
609.311	0.0159307
609.390	0.0161374
609.468	0.0161016
609.546	0.0162793
609.624	0.0162883
609.702	0.0162483
609.780	0.0163174
609.858	0.0164889
609.936	0.0164700
610.015	0.0167093
610.093	0.0166266
610.171	0.0166087
610.249	0.0166951
610.327	0.0166577
610.405	0.0166863
610.483	0.0167097
610.561	0.0166254
610.640	0.0165244
610.718	0.0165214
610.796	0.0166470
610.874	0.0164095
610.952	0.0162486
611.030	0.0162502
611.108	0.0161523
611.186	0.0160776
611.265	0.0160726
611.343	0.0160593
611.421	0.0159720
611.499	0.0159715
611.577	0.0159454
611.655	0.0159922
611.733	0.0162286
611.811	0.0162828
611.890	0.0160004
611.968	0.0162247
612.046	0.0164507
612.124	0.0165456
612.202	0.0166070
612.280	0.0166325
612.358	0.0169392
612.436	0.0169553
612.515	0.0171363
612.593	0.0171449
612.671	0.0172390
612.749	0.0173280
612.827	0.0173442
612.905	0.0173929
612.983	0.0174828
613.061	0.0173269
613.140	0.0171777
613.218	0.0170440
613.296	0.0167767
613.374	0.0167535
613.452	0.0165470
613.530	0.0163804
613.608	0.0160197
613.686	0.0159631
613.765	0.0157507
613.843	0.0154222
613.921	0.0152582
613.999	0.0152492
614.077	0.0151811
614.155	0.0149143
614.233	0.0149683
614.311	0.0148763
614.390	0.0148636
614.468	0.0148654
614.546	0.0150375
614.624	0.0152031
614.702	0.0152330
614.780	0.0153922
614.858	0.0155738
614.936	0.0157094
615.015	0.0159951
615.093	0.0161789
615.171	0.0164095
615.249	0.0167988
615.327	0.0168119
615.405	0.0171899
615.483	0.0174406
615.561	0.0175555
615.640	0.0177468
615.718	0.0178368
615.796	0.0177375
615.874	0.0178793
615.952	0.0178962
616.030	0.0177954
616.108	0.0176988
616.186	0.0176782
616.265	0.0175964
616.343	0.0172975
616.421	0.0172118
616.499	0.0169800
616.577	0.0168291
616.655	0.0166756
616.733	0.0164585
616.811	0.0162545
616.890	0.0162984
616.968	0.0160558
617.046	0.0159657
617.124	0.0158109
617.202	0.0157005
617.280	0.0155997
617.358	0.0154447
617.436	0.0155416
617.515	0.0154564
617.593	0.0155073
617.671	0.0154968
617.749	0.0154525
617.827	0.0156676
617.905	0.0157175
617.983	0.0158882
618.061	0.0159603
618.140	0.0160523
618.218	0.0160268
618.296	0.0161834
618.374	0.0163877
618.452	0.0162450
618.530	0.0164615
618.608	0.0163443
618.686	0.0163419
618.765	0.0163218
618.843	0.0163860
618.921	0.0163802
618.999	0.0164030
619.077	0.0163257
619.155	0.0163140
619.233	0.0162675
619.311	0.0161798
619.390	0.0162517
619.468	0.0162688
619.546	0.0160460
619.624	0.0162049
619.702	0.0162183
619.780	0.0161318
619.858	0.0163696
619.936	0.0164926
620.015	0.0164906
620.093	0.0166092
620.171	0.0167004
620.249	0.0169392
620.327	0.0169375
620.405	0.0170656
620.483	0.0173741
620.561	0.0174995
620.640	0.0177287
620.718	0.0178207
620.796	0.0179793
620.874	0.0180029
620.952	0.0180679
621.030	0.0181578
621.108	0.0182643
621.186	0.0181594
621.265	0.0179530
621.343	0.0178332
621.421	0.0175190
621.499	0.0174036
621.577	0.0171441
621.655	0.0168739
621.733	0.0163306
621.811	0.0160911
621.890	0.0157706
621.968	0.0154819
622.046	0.0153165
622.124	0.0148430
622.202	0.0146409
622.280	0.0145323
622.358	0.0143149
622.436	0.0141668
622.515	0.0141649
622.593	0.0141128
622.671	0.0141697
622.749	0.0142800
622.827	0.0142525
622.905	0.0144497
622.983	0.0147801
623.061	0.0148769
623.140	0.0151115
623.218	0.0152586
623.296	0.0156379
623.374	0.0158990
623.452	0.0161356
623.530	0.0163424
623.608	0.0167225
623.686	0.0168102
623.765	0.0169532
623.843	0.0171230
623.921	0.0171925
623.999	0.0173195
624.077	0.0174121
624.155	0.0172848
624.233	0.0172918
624.311	0.0174150
624.390	0.0171851
624.468	0.0173695
624.546	0.0172672
624.624	0.0171881
624.702	0.0173100
624.780	0.0172301
624.858	0.0173613
624.936	0.0173427
625.015	0.0172664
625.093	0.0172002
625.171	0.0173747
625.249	0.0173000
625.327	0.0174196
625.405	0.0173782
625.483	0.0174715
625.561	0.0174835
625.640	0.0173904
625.718	0.0173622
625.796	0.0172222
625.874	0.0172654
625.952	0.0169906
626.030	0.0168015
626.108	0.0168239
626.186	0.0166046
626.265	0.0163931
626.343	0.0162887
626.421	0.0158459
626.499	0.0157667
626.577	0.0155403
626.655	0.0153425
626.733	0.0149640
626.811	0.0147594
626.890	0.0145496
626.968	0.0144947
627.046	0.0141329
627.124	0.0139733
627.202	0.0138588
627.280	0.0136594
627.358	0.0138095
627.436	0.0137458
627.515	0.0137510
627.593	0.0138002
627.671	0.0139086
627.749	0.0142030
627.827	0.0143534
627.905	0.0146416
627.983	0.0150761
628.061	0.0152750
628.140	0.0155122
628.218	0.0160012
628.296	0.0162875
628.374	0.0168333
628.452	0.0169666
628.530	0.0173042
628.608	0.0176669
628.686	0.0178033
628.765	0.0180375
628.843	0.0184163
628.921	0.0184269
628.999	0.0187531
629.077	0.0188399
629.155	0.0188234
629.233	0.0190764
629.311	0.0190477
629.390	0.0188620
629.468	0.0186771
629.546	0.0186335
629.624	0.0185991
629.702	0.0184509
629.780	0.0184384
629.858	0.0181998
629.936	0.0178729
630.015	0.0177074
630.093	0.0175639
630.171	0.0173326
630.249	0.0172494
630.327	0.0170631
630.405	0.0166020
630.483	0.0165281
630.561	0.0165150
630.640	0.0162572
630.718	0.0158852
630.796	0.0156852
630.874	0.0155425
630.952	0.0153573
631.030	0.0149912
631.108	0.0147735
631.186	0.0146325
631.265	0.0144056
631.343	0.0142574
631.421	0.0142761
631.499	0.0140265
631.577	0.0139942
631.655	0.0139559
631.733	0.0139803
631.811	0.0139549
631.890	0.0140494
631.968	0.0142634
632.046	0.0143636
632.124	0.0146892
632.202	0.0148006
632.280	0.0149522
632.358	0.0152531
632.436	0.0153712
632.515	0.0156242
632.593	0.0160358
632.671	0.0162077
632.749	0.0164118
632.827	0.0164619
632.905	0.0167870
632.983	0.0169759
633.061	0.0171450
633.140	0.0174100
633.218	0.0175194
633.296	0.0178725
633.374	0.0178735
633.452	0.0179269
633.530	0.0181193
633.608	0.0182089
633.686	0.0183411
633.765	0.0182905
633.843	0.0181700
633.921	0.0180759
633.999	0.0178149
634.077	0.0177876
634.155	0.0176554
634.233	0.0175236
634.311	0.0172990
634.390	0.0170763
634.468	0.0169708
634.546	0.0166734
634.624	0.0163247
634.702	0.0160972
634.780	0.0160526
634.858	0.0157246
634.936	0.0156816
635.015	0.0153169
635.093	0.0149911
635.171	0.0151028
635.249	0.0151433
635.327	0.0149934
635.405	0.0149512
635.483	0.0148371
635.561	0.0149917
635.640	0.0150870
635.718	0.0152580
635.796	0.0152537
635.874	0.0154315
635.952	0.0157651
636.030	0.0158134
636.108	0.0160847
636.186	0.0163676
636.265	0.0163481
636.343	0.0165640
636.421	0.0167984
636.499	0.0168314
636.577	0.0169073
636.655	0.0171680
636.733	0.0172124
636.811	0.0174033
636.890	0.0174736
636.968	0.0174849
637.046	0.0174011
637.124	0.0176276
637.202	0.0175503
637.280	0.0173948
637.358	0.0173904
637.436	0.0171554
637.515	0.0171093
637.593	0.0168292
637.671	0.0168118
637.749	0.0165914
637.827	0.0163527
637.905	0.0161145
637.983	0.0157945
638.061	0.0157661
638.140	0.0156280
638.218	0.0155289
638.296	0.0153779
638.374	0.0151569
638.452	0.0150844
638.530	0.0149734
638.608	0.0149725
638.686	0.0150375
638.765	0.0149257
638.843	0.0148507
638.921	0.0147665
638.999	0.0149036
639.077	0.0148391
639.155	0.0147340
639.233	0.0147942
639.311	0.0148807
639.390	0.0149754
639.468	0.0152243
639.546	0.0152972
639.624	0.0154813
639.702	0.0156929
639.780	0.0159148
639.858	0.0160516
639.936	0.0163226
640.015	0.0165504
640.093	0.0168134
640.171	0.0168849
640.249	0.0173111
640.327	0.0173053
640.405	0.0176554
640.483	0.0179881
640.561	0.0180720
640.640	0.0183542
640.718	0.0184952
640.796	0.0185821
640.874	0.0185656
640.952	0.0186899
641.030	0.0185878
641.108	0.0185316
641.186	0.0184953
641.265	0.0183389
641.343	0.0182580
641.421	0.0180505
641.499	0.0179156
641.577	0.0176915
641.655	0.0175087
641.733	0.0172604
641.811	0.0172495
641.890	0.0169897
641.968	0.0168384
642.046	0.0166021
642.124	0.0163810
642.202	0.0163320
642.280	0.0159850
642.358	0.0159081
642.436	0.0157161
642.515	0.0155381
642.593	0.0152828
642.671	0.0150118
642.749	0.0149557
642.827	0.0148045
642.905	0.0145825
642.983	0.0145095
643.061	0.0144489
643.140	0.0143874
643.218	0.0145484
643.296	0.0147308
643.374	0.0146627
643.452	0.0148498
643.530	0.0150518
643.608	0.0152283
643.686	0.0154877
643.765	0.0156698
643.843	0.0159563
643.921	0.0161913
643.999	0.0162370
644.077	0.0162637
644.155	0.0166086
644.233	0.0165773
644.311	0.0168515
644.390	0.0168758
644.468	0.0168913
644.546	0.0168668
644.624	0.0168610
644.702	0.0167678
644.780	0.0167973
644.858	0.0167661
644.936	0.0166198
645.015	0.0165781
645.093	0.0165909
645.171	0.0166003
645.249	0.0165181
645.327	0.0165677
645.405	0.0164696
645.483	0.0163351
645.561	0.0163851
645.640	0.0163649
645.718	0.0164119
645.796	0.0164094
645.874	0.0164422
645.952	0.0165053
646.030	0.0164285
646.108	0.0164267
646.186	0.0165800
646.265	0.0165217
646.343	0.0165454
646.421	0.0165990
646.499	0.0166042
646.577	0.0167619
646.655	0.0168484
646.733	0.0169198
646.811	0.0168751
646.890	0.0171051
646.968	0.0171721
647.046	0.0173554
647.124	0.0174883
647.202	0.0174171
647.280	0.0174908
647.358	0.0176063
647.436	0.0177062
647.515	0.0177560
647.593	0.0176333
647.671	0.0175686
647.749	0.0175308
647.827	0.0174228
647.905	0.0173518
647.983	0.0173266
648.061	0.0170688
648.140	0.0169306
648.218	0.0167274
648.296	0.0165155
648.374	0.0164504
648.452	0.0161127
648.530	0.0158160
648.608	0.0156984
648.686	0.0154874
648.765	0.0153860
648.843	0.0152858
648.921	0.0152065
648.999	0.0150546
649.077	0.0148080
649.155	0.0148676
649.233	0.0147510
649.311	0.0146368
649.390	0.0144698
649.468	0.0145741
649.546	0.0146429
649.624	0.0144355
649.702	0.0146651
649.780	0.0146464
649.858	0.0145842
649.936	0.0147976
650.015	0.0148818
650.093	0.0150919
650.171	0.0151348
650.249	0.0152634
650.327	0.0154356
650.405	0.0154379
650.483	0.0156298
650.561	0.0157781
650.640	0.0157400
650.718	0.0159355
650.796	0.0162724
650.874	0.0163722
650.952	0.0165375
651.030	0.0166582
651.108	0.0168768
651.186	0.0169883
651.265	0.0173135
651.343	0.0172862
651.421	0.0176891
651.499	0.0178101
651.577	0.0180428
651.655	0.0179141
651.733	0.0182191
651.811	0.0182835
651.890	0.0183632
651.968	0.0184773
652.046	0.0184798
652.124	0.0185966
652.202	0.0184393
652.280	0.0184661
652.358	0.0182749
652.436	0.0180431
652.515	0.0180300
652.593	0.0176327
652.671	0.0175413
652.749	0.0170957
652.827	0.0169009
652.905	0.0165192
652.983	0.0162098
653.061	0.0159370
653.140	0.0155275
653.218	0.0153694
653.296	0.0151111
653.374	0.0149037
653.452	0.0147245
653.530	0.0145328
653.608	0.0144320
653.686	0.0144592
653.765	0.0143656
653.843	0.0143550
653.921	0.0143549
653.999	0.0144177
654.077	0.0144471
654.155	0.0146296
654.233	0.0147274
654.311	0.0149523
654.390	0.0151205
654.468	0.0154076
654.546	0.0156361
654.624	0.0157739
654.702	0.0160837
654.780	0.0163863
654.858	0.0166610
654.936	0.0167584
655.015	0.0170500
655.093	0.0172749
655.171	0.0171572
655.249	0.0173669
655.327	0.0174393
655.405	0.0174840
655.483	0.0175780
655.561	0.0175133
655.640	0.0175710
655.718	0.0175409
655.796	0.0174213
655.874	0.0172965
655.952	0.0171097
656.030	0.0172975
656.108	0.0171144
656.186	0.0169479
656.265	0.0167249
656.343	0.0166756
656.421	0.0166008
656.499	0.0164503
656.577	0.0164056
656.655	0.0162943
656.733	0.0162946
656.811	0.0160446
656.890	0.0158675
656.968	0.0158279
657.046	0.0159000
657.124	0.0158406
657.202	0.0157239
657.280	0.0156595
657.358	0.0156879
657.436	0.0156359
657.515	0.0154932
657.593	0.0155549
657.671	0.0155155
657.749	0.0155585
657.827	0.0156084
657.905	0.0156106
657.983	0.0156909
658.061	0.0156847
658.140	0.0156701
658.218	0.0159349
658.296	0.0160653
658.374	0.0159754
658.452	0.0160707
658.530	0.0161642
658.608	0.0164957
658.686	0.0164790
658.765	0.0163517
658.843	0.0164969
658.921	0.0167454
658.999	0.0167643
659.077	0.0165805
659.155	0.0168195
659.233	0.0168823
659.311	0.0168639
659.390	0.0168736
659.468	0.0172330
659.546	0.0171661
659.624	0.0171443
659.702	0.0171930
659.780	0.0172504
659.858	0.0172715
659.936	0.0171315
660.015	0.0171234
660.093	0.0171206
660.171	0.0170184
660.249	0.0168771
660.327	0.0167762
660.405	0.0166728
660.483	0.0166418
660.561	0.0165674
660.640	0.0165171
660.718	0.0164913
660.796	0.0164301
660.874	0.0162424
660.952	0.0162952
661.030	0.0162745
661.108	0.0161833
661.186	0.0159215
661.265	0.0159375
661.343	0.0157977
661.421	0.0156441
661.499	0.0154420
661.577	0.0153424
661.655	0.0154582
661.733	0.0153305
661.811	0.0151442
661.890	0.0151820
661.968	0.0153659
662.046	0.0151852
662.124	0.0152739
662.202	0.0153861
662.280	0.0155257
662.358	0.0154961
662.436	0.0156077
662.515	0.0158020
662.593	0.0158781
662.671	0.0159566
662.749	0.0160508
662.827	0.0161413
662.905	0.0161674
662.983	0.0164388
663.061	0.0164182
663.140	0.0164971
663.218	0.0167700
663.296	0.0168664
663.374	0.0169073
663.452	0.0170412
663.530	0.0171325
663.608	0.0171216
663.686	0.0170721
663.765	0.0170872
663.843	0.0170398
663.921	0.0168060
663.999	0.0168956
664.077	0.0169068
664.155	0.0169779
664.233	0.0167850
664.311	0.0167451
664.390	0.0166724
664.468	0.0166027
664.546	0.0164227
664.624	0.0164796
664.702	0.0164761
664.780	0.0165033
664.858	0.0163841
664.936	0.0162730
665.015	0.0163786
665.093	0.0162907
665.171	0.0162759
665.249	0.0162690
665.327	0.0161894
665.405	0.0162770
665.483	0.0162571
665.561	0.0162254
665.640	0.0161763
665.718	0.0163350
665.796	0.0163748
665.874	0.0162441
665.952	0.0163113
666.030	0.0162083
666.108	0.0164014
666.186	0.0164730
666.265	0.0163727
666.343	0.0161783
666.421	0.0162222
666.499	0.0163607
666.577	0.0161981
666.655	0.0163148
666.733	0.0162668
666.811	0.0163353
666.890	0.0163759
666.968	0.0164417
667.046	0.0162822
667.124	0.0163976
667.202	0.0165742
667.280	0.0164752
667.358	0.0167126
667.436	0.0167892
667.515	0.0168716
667.593	0.0166713
667.671	0.0168330
667.749	0.0168803
667.827	0.0169043
667.905	0.0167797
667.983	0.0167410
668.061	0.0167095
668.140	0.0166849
668.218	0.0167036
668.296	0.0166372
668.374	0.0164108
668.452	0.0164624
668.530	0.0164065
668.608	0.0162205
668.686	0.0160847
668.765	0.0160745
668.843	0.0160355
668.921	0.0156953
668.999	0.0157088
669.077	0.0157615
669.155	0.0155052
669.233	0.0154925
669.311	0.0155102
669.390	0.0153783
669.468	0.0153918
669.546	0.0154386
669.624	0.0154221
669.702	0.0155099
669.780	0.0154811
669.858	0.0154285
669.936	0.0155900
670.015	0.0156554
670.093	0.0156799
670.171	0.0159741
670.249	0.0159193
670.327	0.0159920
670.405	0.0161875
670.483	0.0162462
670.561	0.0163699
670.640	0.0164135
670.718	0.0165311
670.796	0.0166383
670.874	0.0167928
670.952	0.0168566
671.030	0.0168038
671.108	0.0169498
671.186	0.0169880
671.265	0.0169133
671.343	0.0170764
671.421	0.0170547
671.499	0.0170674
671.577	0.0170219
671.655	0.0171169
671.733	0.0170029
671.811	0.0169303
671.890	0.0168503
671.968	0.0168777
672.046	0.0170245
672.124	0.0168483
672.202	0.0167789
672.280	0.0167791
672.358	0.0167013
672.436	0.0167548
672.515	0.0166342
672.593	0.0167960
672.671	0.0166061
672.749	0.0167734
672.827	0.0166294
672.905	0.0166869
672.983	0.0166587
673.061	0.0164672
673.140	0.0165352
673.218	0.0165202
673.296	0.0164506
673.374	0.0164828
673.452	0.0162960
673.530	0.0162447
673.608	0.0163084
673.686	0.0162661
673.765	0.0162696
673.843	0.0162120
673.921	0.0160627
673.999	0.0160332
674.077	0.0158704
674.155	0.0160168
674.233	0.0158973
674.311	0.0157216
674.390	0.0156946
674.468	0.0155432
674.546	0.0156560
674.624	0.0154543
674.702	0.0154013
674.780	0.0154166
674.858	0.0154187
674.936	0.0153858
675.015	0.0154078
675.093	0.0155387
675.171	0.0156042
675.249	0.0156286
675.327	0.0156277
675.405	0.0157445
675.483	0.0158672
675.561	0.0159354
675.640	0.0160731
675.718	0.0162722
675.796	0.0164124
675.874	0.0165161
675.952	0.0166240
676.030	0.0168028
676.108	0.0168620
676.186	0.0169211
676.265	0.0170181
676.343	0.0170955
676.421	0.0170673
676.499	0.0170447
676.577	0.0171140
676.655	0.0171468
676.733	0.0168972
676.811	0.0169224
676.890	0.0168990
676.968	0.0167918
677.046	0.0168163
677.124	0.0165878
677.202	0.0165295
677.280	0.0165175
677.358	0.0163140
677.436	0.0163518
677.515	0.0163888
677.593	0.0163094
677.671	0.0163550
677.749	0.0164223
677.827	0.0163827
677.905	0.0163238
677.983	0.0162783
678.061	0.0161308
678.140	0.0161450
678.218	0.0162399
678.296	0.0162106
678.374	0.0161514
678.452	0.0160513
678.530	0.0160545
678.608	0.0161153
678.686	0.0161398
678.765	0.0161797
678.843	0.0163071
678.921	0.0161704
678.999	0.0162154
679.077	0.0162936
679.155	0.0162476
679.233	0.0163629
679.311	0.0163156
679.390	0.0162630
679.468	0.0162432
679.546	0.0160658
679.624	0.0159073
679.702	0.0159660
679.780	0.0161425
679.858	0.0160814
679.936	0.0160073
680.015	0.0159145
680.093	0.0159727
680.171	0.0161352
680.249	0.0162658
680.327	0.0160950
680.405	0.0162294
680.483	0.0161375
680.561	0.0165040
680.640	0.0166234
680.718	0.0167153
680.796	0.0165905
680.874	0.0167248
680.952	0.0169194
681.030	0.0168228
681.108	0.0167914
681.186	0.0167827
681.265	0.0168282
681.343	0.0168930
681.421	0.0166375
681.499	0.0168488
681.577	0.0167492
681.655	0.0167484
681.733	0.0167450
681.811	0.0165573
681.890	0.0165506
681.968	0.0165891
682.046	0.0166146
682.124	0.0164526
682.202	0.0163519
682.280	0.0165010
682.358	0.0163430
682.436	0.0164820
682.515	0.0164283
682.593	0.0163343
682.671	0.0164532
682.749	0.0165213
682.827	0.0163701
682.905	0.0164672
682.983	0.0164720
683.061	0.0164227
683.140	0.0165990
683.218	0.0163807
683.296	0.0164470
683.374	0.0162968
683.452	0.0163491
683.530	0.0165085
683.608	0.0164669
683.686	0.0163103
683.765	0.0161755
683.843	0.0163648
683.921	0.0162521
683.999	0.0162807
684.077	0.0162274
684.155	0.0162817
684.233	0.0161899
684.311	0.0160283
684.390	0.0160513
684.468	0.0160253
684.546	0.0159651
684.624	0.0161139
684.702	0.0159294
684.780	0.0159112
684.858	0.0159026
684.936	0.0160934
685.015	0.0160641
685.093	0.0161027
685.171	0.0161253
685.249	0.0162305
685.327	0.0162511
685.405	0.0161227
685.483	0.0160961
685.561	0.0162335
685.640	0.0163992
685.718	0.0162156
685.796	0.0161385
685.874	0.0162672
685.952	0.0162691
686.030	0.0163828
686.108	0.0163531
686.186	0.0163553
686.265	0.0163386
686.343	0.0163390
686.421	0.0163857
686.499	0.0163273
686.577	0.0163858
686.655	0.0165729
686.733	0.0165549
686.811	0.0165833
686.890	0.0165272
686.968	0.0164885
687.046	0.0165666
687.124	0.0163522
687.202	0.0163639
687.280	0.0163331
687.358	0.0162063
687.436	0.0162588
687.515	0.0162713
687.593	0.0162992
687.671	0.0163027
687.749	0.0163802
687.827	0.0161890
687.905	0.0161537
687.983	0.0161339
688.061	0.0160641
688.140	0.0162106
688.218	0.0160583
688.296	0.0159856
688.374	0.0160032
688.452	0.0159029
688.530	0.0158576
688.608	0.0157710
688.686	0.0156673
688.765	0.0157375
688.843	0.0157563
688.921	0.0157431
688.999	0.0156521
689.077	0.0156185
689.155	0.0156429
689.233	0.0156295
689.311	0.0157662
689.390	0.0158130
689.468	0.0159219
689.546	0.0159888
689.624	0.0160146
689.702	0.0160831
689.780	0.0161504
689.858	0.0163699
689.936	0.0164184
690.015	0.0163914
690.093	0.0165354
690.171	0.0166370
690.249	0.0166357
690.327	0.0166622
690.405	0.0167314
690.483	0.0168043
690.561	0.0167922
690.640	0.0169672
690.718	0.0168756
690.796	0.0168894
690.874	0.0169258
690.952	0.0170197
691.030	0.0169168
691.108	0.0168857
691.186	0.0169830
691.265	0.0167291
691.343	0.0167221
691.421	0.0166298
691.499	0.0167599
691.577	0.0164030
691.655	0.0164598
691.733	0.0164445
691.811	0.0163367
691.890	0.0163389
691.968	0.0162617
692.046	0.0164136
692.124	0.0162840
692.202	0.0161230
692.280	0.0160176
692.358	0.0161481
692.436	0.0161695
692.515	0.0161375
692.593	0.0160703
692.671	0.0160423
692.749	0.0161332
692.827	0.0160407
692.905	0.0161380
692.983	0.0161597
693.061	0.0161967
693.140	0.0161271
693.218	0.0162346
693.296	0.0162733
693.374	0.0162903
693.452	0.0163554
693.530	0.0163168
693.608	0.0163147
693.686	0.0162717
693.765	0.0163631
693.843	0.0165204
693.921	0.0165034
693.999	0.0165380
694.077	0.0165342
694.155	0.0164473
694.233	0.0165467
694.311	0.0166068
694.390	0.0163838
694.468	0.0164103
694.546	0.0166409
694.624	0.0164713
694.702	0.0164839
694.780	0.0165516
694.858	0.0164734
694.936	0.0164117
695.015	0.0163597
695.093	0.0163219
695.171	0.0163864
695.249	0.0164381
695.327	0.0164238
695.405	0.0163840
695.483	0.0163416
695.561	0.0163304
695.640	0.0163086
695.718	0.0163071
695.796	0.0161577
695.874	0.0163143
695.952	0.0163785
696.030	0.0163747
696.108	0.0162917
696.186	0.0164868
696.265	0.0164478
696.343	0.0164185
696.421	0.0164937
696.499	0.0164697
696.577	0.0165565
696.655	0.0164875
696.733	0.0165136
696.811	0.0165272
696.890	0.0166508
696.968	0.0165371
697.046	0.0164907
697.124	0.0165979
697.202	0.0164177
697.280	0.0165292
697.358	0.0164722
697.436	0.0165733
697.515	0.0165662
697.593	0.0164082
697.671	0.0164146
697.749	0.0164586
697.827	0.0164576
697.905	0.0164592
697.983	0.0162816
698.061	0.0164314
698.140	0.0163288
698.218	0.0163767
698.296	0.0162090
698.374	0.0160894
698.452	0.0161787
698.530	0.0161976
698.608	0.0160535
698.686	0.0159003
698.765	0.0159683
698.843	0.0159086
698.921	0.0158143
698.999	0.0159776
699.077	0.0159645
699.155	0.0159596
699.233	0.0159325
699.311	0.0159544
699.390	0.0160028
699.468	0.0158439
699.546	0.0159238
699.624	0.0159885
699.702	0.0160262
699.780	0.0160375
699.858	0.0160777
699.936	0.0160577
700.015	0.0161565
700.093	0.0160792
700.171	0.0162244
700.249	0.0161909
700.327	0.0161973
700.405	0.0162694
700.483	0.0163892
700.561	0.0162755
700.640	0.0163924
700.718	0.0162090
700.796	0.0162511
700.874	0.0162823
700.952	0.0163772
701.030	0.0163576
701.108	0.0163653
701.186	0.0162479
701.265	0.0162296
701.343	0.0162233
701.421	0.0162428
701.499	0.0162401
701.577	0.0162467
701.655	0.0160434
701.733	0.0159756
701.811	0.0162000
701.890	0.0162664
701.968	0.0163767
702.046	0.0162510
702.124	0.0162108
702.202	0.0162027
702.280	0.0161449
702.358	0.0162701
702.436	0.0162981
702.515	0.0162308
702.593	0.0162982
702.671	0.0163977
702.749	0.0162242
702.827	0.0162274
702.905	0.0164384
702.983	0.0163522
703.061	0.0163998
703.140	0.0166197
703.218	0.0165579
703.296	0.0164870
703.374	0.0166421
703.452	0.0166495
703.530	0.0166582
703.608	0.0166924
703.686	0.0166502
703.765	0.0165498
703.843	0.0167786
703.921	0.0167323
703.999	0.0164689
704.077	0.0167016
704.155	0.0167858
704.233	0.0166658
704.311	0.0165572
704.390	0.0166447
704.468	0.0166441
704.546	0.0167388
704.624	0.0166586
704.702	0.0165662
704.780	0.0165768
704.858	0.0166351
704.936	0.0165034
705.015	0.0165552
705.093	0.0166783
705.171	0.0165842
705.249	0.0165318
705.327	0.0165713
705.405	0.0166304
705.483	0.0167407
705.561	0.0166657
705.640	0.0166029
705.718	0.0166867
705.796	0.0164651
705.874	0.0163961
705.952	0.0164471
706.030	0.0164027
706.108	0.0163131
706.186	0.0163389
706.265	0.0160956
706.343	0.0162551
706.421	0.0161462
706.499	0.0160446
706.577	0.0159663
706.655	0.0159219
706.733	0.0159625
706.811	0.0159499
706.890	0.0158620
706.968	0.0159900
707.046	0.0160075
707.124	0.0159996
707.202	0.0161191
707.280	0.0159308
707.358	0.0161138
707.436	0.0162459
707.515	0.0161266
707.593	0.0162877
707.671	0.0163045
707.749	0.0164638
707.827	0.0163436
707.905	0.0166565
707.983	0.0164860
708.061	0.0166077
708.140	0.0165636
708.218	0.0166946
708.296	0.0166502
708.374	0.0166299
708.452	0.0165540
708.530	0.0165460
708.608	0.0164389
708.686	0.0165771
708.765	0.0164975
708.843	0.0164169
708.921	0.0164510
708.999	0.0163245
709.077	0.0162737
709.155	0.0162124
709.233	0.0161843
709.311	0.0161152
709.390	0.0159291
709.468	0.0159888
709.546	0.0160919
709.624	0.0159770
709.702	0.0159641
709.780	0.0159154
709.858	0.0159771
709.936	0.0159706
710.015	0.0160020
710.093	0.0159270
710.171	0.0160423
710.249	0.0161401
710.327	0.0159789
710.405	0.0158356
710.483	0.0161256
710.561	0.0161951
710.640	0.0163088
710.718	0.0160912
710.796	0.0163176
710.874	0.0163088
710.952	0.0162828
711.030	0.0161549
711.108	0.0163645
711.186	0.0162079
711.265	0.0160966
711.343	0.0162304
711.421	0.0162782
711.499	0.0162328
711.577	0.0162836
711.655	0.0163387
711.733	0.0162705
711.811	0.0162707
711.890	0.0163423
711.968	0.0163374
712.046	0.0166085
712.124	0.0166081
712.202	0.0164598
712.280	0.0167397
712.358	0.0167706
712.436	0.0167323
712.515	0.0168721
712.593	0.0168888
712.671	0.0169868
712.749	0.0169622
712.827	0.0169374
712.905	0.0169878
712.983	0.0169317
713.061	0.0169426
713.140	0.0170171
713.218	0.0168578
713.296	0.0167355
713.374	0.0168138
713.452	0.0168045
713.530	0.0167751
713.608	0.0165029
713.686	0.0166500
713.765	0.0165272
713.843	0.0164809
713.921	0.0164291
713.999	0.0162608
714.077	0.0161236
714.155	0.0161727
714.233	0.0160833
714.311	0.0161214
714.390	0.0161018
714.468	0.0160984
714.546	0.0161397
714.624	0.0158701
714.702	0.0160287
714.780	0.0160938
714.858	0.0160177
714.936	0.0160312
715.015	0.0160390
715.093	0.0161138
715.171	0.0161652
715.249	0.0161642
715.327	0.0160448
715.405	0.0161935
715.483	0.0160506
715.561	0.0163345
715.640	0.0163044
715.718	0.0162919
715.796	0.0163853
715.874	0.0163177
715.952	0.0162836
716.030	0.0162579
716.108	0.0164593
716.186	0.0164287
716.265	0.0163956
716.343	0.0164330
716.421	0.0163699
716.499	0.0165842
716.577	0.0165918
716.655	0.0163528
716.733	0.0164183
716.811	0.0163519
716.890	0.0163033
716.968	0.0163918
717.046	0.0163081
717.124	0.0161440
717.202	0.0159969
717.280	0.0161676
717.358	0.0162745
717.436	0.0162151
717.515	0.0160298
717.593	0.0160806
717.671	0.0160158
717.749	0.0160147
717.827	0.0160954
717.905	0.0160513
717.983	0.0159982
718.061	0.0160683
718.140	0.0161266
718.218	0.0160941
718.296	0.0160354
718.374	0.0160830
718.452	0.0161507
718.530	0.0160764
718.608	0.0162061
718.686	0.0162529
718.765	0.0162558
718.843	0.0163053
718.921	0.0163665
718.999	0.0162161
719.077	0.0162758
719.155	0.0163535
719.233	0.0161842
719.311	0.0161427
719.390	0.0164018
719.468	0.0163950
719.546	0.0162062
719.624	0.0162436
719.702	0.0162433
719.780	0.0162947
719.858	0.0161555
719.936	0.0163874
720.015	0.0164230
720.093	0.0163009
720.171	0.0163425
720.249	0.0162074
720.327	0.0162354
720.405	0.0163570
720.483	0.0163605
720.561	0.0163781
720.640	0.0163279
720.718	0.0163640
720.796	0.0164506
720.874	0.0163363
720.952	0.0165277
721.030	0.0164233
721.108	0.0165013
721.186	0.0165141
721.265	0.0164907
721.343	0.0165316
721.421	0.0164754
721.499	0.0164790
721.577	0.0165102
721.655	0.0163873
721.733	0.0164776
721.811	0.0165280
721.890	0.0164391
721.968	0.0164540
722.046	0.0165546
722.124	0.0165315
722.202	0.0162437
722.280	0.0162418
722.358	0.0162840
722.436	0.0163579
722.515	0.0163023
722.593	0.0162316
722.671	0.0161787
722.749	0.0162669
722.827	0.0161398
722.905	0.0160809
722.983	0.0161562
723.061	0.0161456
723.140	0.0163716
723.218	0.0162111
723.296	0.0161065
723.374	0.0161871
723.452	0.0161271
723.530	0.0161314
723.608	0.0161634
723.686	0.0161042
723.765	0.0161520
723.843	0.0162808
723.921	0.0163466
723.999	0.0161933
724.077	0.0161620
724.155	0.0164608
724.233	0.0162888
724.311	0.0163715
724.390	0.0162881
724.468	0.0163557
724.546	0.0166368
724.624	0.0165502
724.702	0.0166108
724.780	0.0165266
724.858	0.0165173
724.936	0.0166660
725.015	0.0166305
725.093	0.0166022
725.171	0.0167037
725.249	0.0168088
725.327	0.0167300
725.405	0.0166993
725.483	0.0167771
725.561	0.0167179
725.640	0.0167917
725.718	0.0167818
725.796	0.0168488
725.874	0.0167304
725.952	0.0167270
726.030	0.0166623
726.108	0.0167784
726.186	0.0167937
726.265	0.0167681
726.343	0.0167837
726.421	0.0167145
726.499	0.0167873
726.577	0.0166756
726.655	0.0166631
726.733	0.0166279
726.811	0.0166345
726.890	0.0165868
726.968	0.0164011
727.046	0.0163415
727.124	0.0163735
727.202	0.0163548
727.280	0.0162194
727.358	0.0162595
727.436	0.0161434
727.515	0.0162619
727.593	0.0160305
727.671	0.0160783
727.749	0.0160135
727.827	0.0160893
727.905	0.0159594
727.983	0.0159869
728.061	0.0159644
728.140	0.0158869
728.218	0.0160393
728.296	0.0160057
728.374	0.0159776
728.452	0.0159470
728.530	0.0161214
728.608	0.0160295
728.686	0.0160151
728.765	0.0158552
728.843	0.0158868
728.921	0.0158955
728.999	0.0161593
729.077	0.0161083
729.155	0.0160777
729.233	0.0160514
729.311	0.0161596
729.390	0.0163181
729.468	0.0162865
729.546	0.0162062
729.624	0.0163515
729.702	0.0163471
729.780	0.0164964
729.858	0.0164123
729.936	0.0164525
730.015	0.0164601
730.093	0.0164320
730.171	0.0165507
730.249	0.0165519
730.327	0.0162112
730.405	0.0164109
730.483	0.0163763
730.561	0.0164697
730.640	0.0162836
730.718	0.0162606
730.796	0.0163430
730.874	0.0163474
730.952	0.0162885
731.030	0.0160414
731.108	0.0162056
731.186	0.0162470
731.265	0.0161649
731.343	0.0162296
731.421	0.0161226
731.499	0.0162043
731.577	0.0161796
731.655	0.0161397
731.733	0.0163165
731.811	0.0163212
731.890	0.0161880
731.968	0.0162003
732.046	0.0162318
732.124	0.0163869
732.202	0.0163550
732.280	0.0162567
732.358	0.0163232
732.436	0.0163004
732.515	0.0163408
732.593	0.0163744
732.671	0.0164089
732.749	0.0164434
732.827	0.0164580
732.905	0.0163948
732.983	0.0165047
733.061	0.0164066
733.140	0.0164696
733.218	0.0164655
733.296	0.0165178
733.374	0.0163863
733.452	0.0165421
733.530	0.0164142
733.608	0.0163962
733.686	0.0164554
733.765	0.0164687
733.843	0.0163213
733.921	0.0162801
733.999	0.0162749
734.077	0.0163970
734.155	0.0162576
734.233	0.0163830
734.311	0.0162769
734.390	0.0162234
734.468	0.0161938
734.546	0.0162070
734.624	0.0160862
734.702	0.0161128
734.780	0.0162138
734.858	0.0160648
734.936	0.0162254
735.015	0.0160429
735.093	0.0161276
735.171	0.0161634
735.249	0.0161204
735.327	0.0159679
735.405	0.0160411
735.483	0.0162356
735.561	0.0161873
735.640	0.0161521
735.718	0.0162080
735.796	0.0162687
735.874	0.0161690
735.952	0.0161435
736.030	0.0164753
736.108	0.0162926
736.186	0.0163618
736.265	0.0162927
736.343	0.0163856
736.421	0.0164613
736.499	0.0164252
736.577	0.0164651
736.655	0.0165668
736.733	0.0164784
736.811	0.0166240
736.890	0.0165813
736.968	0.0166673
737.046	0.0165906
737.124	0.0168323
737.202	0.0168047
737.280	0.0166367
737.358	0.0167133
737.436	0.0168398
737.515	0.0169351
737.593	0.0168017
737.671	0.0168249
737.749	0.0167762
737.827	0.0167774
737.905	0.0168511
737.983	0.0167778
738.061	0.0167352
738.140	0.0167476
738.218	0.0167204
738.296	0.0167649
738.374	0.0167074
738.452	0.0167081
738.530	0.0165747
738.608	0.0166489
738.686	0.0166041
738.765	0.0166476
738.843	0.0166489
738.921	0.0163522
738.999	0.0162463
739.077	0.0164181
739.155	0.0161404
739.233	0.0162212
739.311	0.0163599
739.390	0.0161132
739.468	0.0161382
739.546	0.0161311
739.624	0.0159872
739.702	0.0159795
739.780	0.0161147
739.858	0.0161302
739.936	0.0160382
740.015	0.0159673
740.093	0.0161888
740.171	0.0161137
740.249	0.0162131
740.327	0.0160833
740.405	0.0160779
740.483	0.0162124
740.561	0.0160660
740.640	0.0161729
740.718	0.0160695
740.796	0.0162199
740.874	0.0161968
740.952	0.0161689
741.030	0.0163820
741.108	0.0164827
741.186	0.0163814
741.265	0.0163483
741.343	0.0163520
741.421	0.0165427
741.499	0.0164942
741.577	0.0163651
741.655	0.0164667
741.733	0.0165285
741.811	0.0165472
741.890	0.0163977
741.968	0.0164487
742.046	0.0163902
742.124	0.0164407
742.202	0.0164767
742.280	0.0164303
742.358	0.0165812
742.436	0.0164147
742.515	0.0164587
742.593	0.0165580
742.671	0.0166121
742.749	0.0164877
742.827	0.0164493
742.905	0.0165309
742.983	0.0165556
743.061	0.0166031
743.140	0.0165063
743.218	0.0164980
743.296	0.0165643
743.374	0.0165620
743.452	0.0165937
743.530	0.0165115
743.608	0.0164981
743.686	0.0165403
743.765	0.0166843
743.843	0.0167844
743.921	0.0165593
743.999	0.0165603
744.077	0.0166252
744.155	0.0166469
744.233	0.0166080
744.311	0.0164382
744.390	0.0164648
744.468	0.0165166
744.546	0.0163570
744.624	0.0164038
744.702	0.0164255
744.780	0.0162471
744.858	0.0161881
744.936	0.0161961
745.015	0.0162090
745.093	0.0160621
745.171	0.0159877
745.249	0.0160590
745.327	0.0159925
745.405	0.0161088
745.483	0.0161626
745.561	0.0159704
745.640	0.0160570
745.718	0.0161897
745.796	0.0160933
745.874	0.0160543
745.952	0.0162220
746.030	0.0161675
746.108	0.0161665
746.186	0.0163424
746.265	0.0163409
746.343	0.0163316
746.421	0.0164491
746.499	0.0164050
746.577	0.0162784
746.655	0.0164648
746.733	0.0164654
746.811	0.0164362
746.890	0.0164764
746.968	0.0165137
747.046	0.0164204
747.124	0.0164848
747.202	0.0164622
747.280	0.0164378
747.358	0.0164139
747.436	0.0163467
747.515	0.0163658
747.593	0.0164428
747.671	0.0164997
747.749	0.0165205
747.827	0.0165701
747.905	0.0164807
747.983	0.0165214
748.061	0.0165144
748.140	0.0163647
748.218	0.0163566
748.296	0.0165067
748.374	0.0164664
748.452	0.0163783
748.530	0.0163688
748.608	0.0164643
748.686	0.0164301
748.765	0.0166119
748.843	0.0164039
748.921	0.0164820
748.999	0.0164513
749.077	0.0163377
749.155	0.0163757
749.233	0.0162644
749.311	0.0163279
749.390	0.0163274
749.468	0.0163013
749.546	0.0162147
749.624	0.0161691
749.702	0.0162103
749.780	0.0161909
749.858	0.0160509
749.936	0.0159393
750.015	0.0160171
750.093	0.0160155
750.171	0.0159464
750.249	0.0159566
750.327	0.0160003
750.405	0.0160146
750.483	0.0158969
750.561	0.0158372
750.640	0.0159417
750.718	0.0159010
750.796	0.0160924
750.874	0.0159499
750.952	0.0160136
751.030	0.0160139
751.108	0.0160751
751.186	0.0160416
751.265	0.0162341
751.343	0.0161597
751.421	0.0161276
751.499	0.0162149
751.577	0.0162187
751.655	0.0161517
751.733	0.0162865
751.811	0.0163089
751.890	0.0161968
751.968	0.0164052
752.046	0.0163440
752.124	0.0162312
752.202	0.0163883
752.280	0.0162894
752.358	0.0162977
752.436	0.0162556
752.515	0.0163508
752.593	0.0163510
752.671	0.0162385
752.749	0.0162356
752.827	0.0162043
752.905	0.0163769
752.983	0.0162254
753.061	0.0163159
753.140	0.0163422
753.218	0.0163635
753.296	0.0164170
753.374	0.0162634
753.452	0.0163414
753.530	0.0163896
753.608	0.0162901
753.686	0.0163773
753.765	0.0163528
753.843	0.0163644
753.921	0.0164468
753.999	0.0163954
754.077	0.0164166
754.155	0.0163850
754.233	0.0163930
754.311	0.0163792
754.390	0.0164767
754.468	0.0164664
754.546	0.0164123
754.624	0.0164221
754.702	0.0164606
754.780	0.0164294
754.858	0.0163680
754.936	0.0163971
755.015	0.0164881
755.093	0.0165328
755.171	0.0164145
755.249	0.0164113
755.327	0.0164304
755.405	0.0165012
755.483	0.0164192
755.561	0.0164705
755.640	0.0164466
755.718	0.0164210
755.796	0.0165311
755.874	0.0164373
755.952	0.0164275
756.030	0.0165135
756.108	0.0164520
756.186	0.0164922
756.265	0.0165221
756.343	0.0164954
756.421	0.0164786
756.499	0.0164801
756.577	0.0163850
756.655	0.0164429
756.733	0.0162650
756.811	0.0163326
756.890	0.0163658
756.968	0.0163107
757.046	0.0163512
757.124	0.0161836
757.202	0.0161591
757.280	0.0160950
757.358	0.0160694
757.436	0.0159749
757.515	0.0159873
757.593	0.0159603
757.671	0.0157906
757.749	0.0157967
757.827	0.0156103
757.905	0.0156168
757.983	0.0155659
758.061	0.0156608
758.140	0.0157878
758.218	0.0158282
758.296	0.0158647
758.374	0.0160267
758.452	0.0162225
758.530	0.0162160
758.608	0.0164708
758.686	0.0165260
758.765	0.0167286
758.843	0.0169619
758.921	0.0169666
758.999	0.0170943
759.077	0.0169738
759.155	0.0171281
759.233	0.0170305
759.311	0.0169582
759.390	0.0167873
759.468	0.0167883
759.546	0.0166850
759.624	0.0166342
759.702	0.0166237
759.780	0.0165108
759.858	0.0164651
759.936	0.0164679
760.015	0.0164189
760.093	0.0163136
760.171	0.0163190
760.249	0.0163625
760.327	0.0163013
760.405	0.0162507
760.483	0.0162858
760.561	0.0164780
760.640	0.0163064
760.718	0.0162068
760.796	0.0163057
760.874	0.0162569
760.952	0.0162869
761.030	0.0163988
761.108	0.0161376
761.186	0.0162228
761.265	0.0162497
761.343	0.0162197
761.421	0.0160776
761.499	0.0160841
761.577	0.0160623
761.655	0.0161772
761.733	0.0162405
761.811	0.0161349
761.890	0.0162003
761.968	0.0161227
762.046	0.0162150
762.124	0.0162722
762.202	0.0164422
762.280	0.0163484
762.358	0.0163264
762.436	0.0162815
762.515	0.0163441
762.593	0.0164417
762.671	0.0164960
762.749	0.0165004
762.827	0.0164857
762.905	0.0165333
762.983	0.0165990
763.061	0.0165611
763.140	0.0166403
763.218	0.0166333
763.296	0.0165531
763.374	0.0166626
763.452	0.0165429
763.530	0.0164838
763.608	0.0165762
763.686	0.0166377
763.765	0.0165258
763.843	0.0163921
763.921	0.0165598
763.999	0.0165144
764.077	0.0164182
764.155	0.0163711
764.233	0.0164165
764.311	0.0164390
764.390	0.0163239
764.468	0.0163691
764.546	0.0163658
764.624	0.0164062
764.702	0.0161790
764.780	0.0162140
764.858	0.0161237
764.936	0.0160333
765.015	0.0161167
765.093	0.0161500
765.171	0.0161925
765.249	0.0160654
765.327	0.0161629
765.405	0.0160303
765.483	0.0159519
765.561	0.0159991
765.640	0.0160144
765.718	0.0158710
765.796	0.0159484
765.874	0.0158347
765.952	0.0160022
766.030	0.0158635
766.108	0.0159252
766.186	0.0159301
766.265	0.0158547
766.343	0.0159892
766.421	0.0160442
766.499	0.0161806
766.577	0.0160976
766.655	0.0162319
766.733	0.0162267
766.811	0.0161456
766.890	0.0161800
766.968	0.0162199
767.046	0.0162888
767.124	0.0162714
767.202	0.0163219
767.280	0.0165295
767.358	0.0165681
767.436	0.0165659
767.515	0.0164801
767.593	0.0164923
767.671	0.0163422
767.749	0.0164415
767.827	0.0164859
767.905	0.0164320
767.983	0.0163615
768.061	0.0164206
768.140	0.0164259
768.218	0.0164178
768.296	0.0163628
768.374	0.0164385
768.452	0.0163921
768.530	0.0163358
768.608	0.0163779
768.686	0.0164562
768.765	0.0165427
768.843	0.0164240
768.921	0.0164063
768.999	0.0164044
769.077	0.0166484
769.155	0.0165559
769.233	0.0164405
769.311	0.0165175
769.390	0.0165804
769.468	0.0165975
769.546	0.0165034
769.624	0.0165561
769.702	0.0164292
769.780	0.0164783
769.858	0.0164737
769.936	0.0164132
770.015	0.0164617
770.093	0.0165812
770.171	0.0164400
770.249	0.0163980
770.327	0.0163573
770.405	0.0164455
770.483	0.0164446
770.561	0.0163754
770.640	0.0163925
770.718	0.0164652
770.796	0.0164399
770.874	0.0162471
770.952	0.0163605
771.030	0.0163145
771.108	0.0163216
771.186	0.0161986
771.265	0.0162944
771.343	0.0161945
771.421	0.0161081
771.499	0.0162154
771.577	0.0160698
771.655	0.0161644
771.733	0.0161296
771.811	0.0160976
771.890	0.0160561
771.968	0.0161657
772.046	0.0160165
772.124	0.0160893
772.202	0.0160467
772.280	0.0161748
772.358	0.0160200
772.436	0.0160885
772.515	0.0161700
772.593	0.0160172
772.671	0.0158948
772.749	0.0161281
772.827	0.0160835
772.905	0.0160978
772.983	0.0160762
773.061	0.0160982
773.140	0.0161406
773.218	0.0160919
773.296	0.0159952
773.374	0.0161604
773.452	0.0160822
773.530	0.0159898
773.608	0.0160346
773.686	0.0160301
773.765	0.0161494
773.843	0.0161993
773.921	0.0161993
773.999	0.0160733
774.077	0.0162312
774.155	0.0161537
774.233	0.0162408
774.311	0.0162043
774.390	0.0161865
774.468	0.0162225
774.546	0.0162859
774.624	0.0162081
774.702	0.0163382
774.780	0.0161522
774.858	0.0161251
774.936	0.0163023
775.015	0.0162085
775.093	0.0161621
775.171	0.0161159
775.249	0.0163026
775.327	0.0164072
775.405	0.0162553
775.483	0.0162336
775.561	0.0164120
775.640	0.0163444
775.718	0.0163738
775.796	0.0162348
775.874	0.0163725
775.952	0.0164810
776.030	0.0164876
776.108	0.0164836
776.186	0.0164189
776.265	0.0164973
776.343	0.0164393
776.421	0.0164730
776.499	0.0165825
776.577	0.0164954
776.655	0.0163978
776.733	0.0165671
776.811	0.0165473
776.890	0.0166843
776.968	0.0166528
777.046	0.0166400
777.124	0.0165408
777.202	0.0166013
777.280	0.0164996
777.358	0.0165257
777.436	0.0165587
777.515	0.0164397
777.593	0.0164985
777.671	0.0164610
777.749	0.0164639
777.827	0.0165377
777.905	0.0165372
777.983	0.0164004
778.061	0.0165189
778.140	0.0164766
778.218	0.0163207
778.296	0.0164278
778.374	0.0163618
778.452	0.0164964
778.530	0.0165398
778.608	0.0163703
778.686	0.0164126
778.765	0.0164457
778.843	0.0162984
778.921	0.0164063
778.999	0.0163927
779.077	0.0163872
779.155	0.0163413
779.233	0.0163496
779.311	0.0164294
779.390	0.0164477
779.468	0.0165131
779.546	0.0164568
779.624	0.0164307
779.702	0.0163185
779.780	0.0162643
779.858	0.0163042
779.936	0.0163130
780.015	0.0162527
780.093	0.0163702
780.171	0.0163599
780.249	0.0164635
780.327	0.0163663
780.405	0.0164017
780.483	0.0164045
780.561	0.0162695
780.640	0.0163766
780.718	0.0162945
780.796	0.0163348
780.874	0.0162800
780.952	0.0162136
781.030	0.0162670
781.108	0.0162307
781.186	0.0162202
781.265	0.0162720
781.343	0.0161478
781.421	0.0161242
781.499	0.0161325
781.577	0.0160942
781.655	0.0162060
781.733	0.0162244
781.811	0.0162332
781.890	0.0162202
781.968	0.0160322
782.046	0.0162321
782.124	0.0162772
782.202	0.0160846
782.280	0.0161533
782.358	0.0161812
782.436	0.0161597
782.515	0.0162862
782.593	0.0162166
782.671	0.0162978
782.749	0.0162368
782.827	0.0162810
782.905	0.0163205
782.983	0.0163155
783.061	0.0163200
783.140	0.0164540
783.218	0.0164153
783.296	0.0162897
783.374	0.0162908
783.452	0.0164844
783.530	0.0163591
783.608	0.0165504
783.686	0.0164831
783.765	0.0164357
783.843	0.0164649
783.921	0.0164174
783.999	0.0163597
784.077	0.0164787
784.155	0.0164725
784.233	0.0164888
784.311	0.0164076
784.390	0.0164680
784.468	0.0163710
784.546	0.0164483
784.624	0.0164597
784.702	0.0165588
784.780	0.0162889
784.858	0.0163000
784.936	0.0163988
785.015	0.0163857
785.093	0.0163014
785.171	0.0161684
785.249	0.0161777
785.327	0.0164729
785.405	0.0162563
785.483	0.0164609
785.561	0.0162650
785.640	0.0162859
785.718	0.0164029
785.796	0.0164031
785.874	0.0162643
785.952	0.0163747
786.030	0.0164728
786.108	0.0164149
786.186	0.0162520
786.265	0.0163704
786.343	0.0164845
786.421	0.0165617
786.499	0.0164825
786.577	0.0163583
786.655	0.0163074
786.733	0.0164218
786.811	0.0164462
786.890	0.0165118
786.968	0.0164726
787.046	0.0163950
787.124	0.0165604
787.202	0.0164616
787.280	0.0164473
787.358	0.0164526
787.436	0.0165498
787.515	0.0163232
787.593	0.0164566
787.671	0.0163923
787.749	0.0162558
787.827	0.0162613
787.905	0.0163506
787.983	0.0163031
788.061	0.0163616
788.140	0.0162233
788.218	0.0163478
788.296	0.0163195
788.374	0.0162958
788.452	0.0161941
788.530	0.0162992
788.608	0.0163767
788.686	0.0162539
788.765	0.0162039
788.843	0.0162753
788.921	0.0161840
788.999	0.0161030
789.077	0.0161150
789.155	0.0161874
789.233	0.0162608
789.311	0.0160421
789.390	0.0160325
789.468	0.0161076
789.546	0.0159332
789.624	0.0161105
789.702	0.0162461
789.780	0.0162526
789.858	0.0161598
789.936	0.0160677
790.015	0.0162814
790.093	0.0163956
790.171	0.0163746
790.249	0.0164069
790.327	0.0162453
790.405	0.0162718
790.483	0.0164394
790.561	0.0163485
790.640	0.0164860
790.718	0.0164358
790.796	0.0165368
790.874	0.0163845
790.952	0.0164843
791.030	0.0166313
791.108	0.0165816
791.186	0.0165311
791.265	0.0165874
791.343	0.0165322
791.421	0.0164743
791.499	0.0165099
791.577	0.0165367
791.655	0.0165359
791.733	0.0164594
791.811	0.0163895
791.890	0.0165086
791.968	0.0164811
792.046	0.0164617
792.124	0.0163846
792.202	0.0163620
792.280	0.0163078
792.358	0.0163034
792.436	0.0163335
792.515	0.0163881
792.593	0.0162334
792.671	0.0162723
792.749	0.0162848
792.827	0.0161655
792.905	0.0163033
792.983	0.0161824
793.061	0.0162831
793.140	0.0161636
793.218	0.0160889
793.296	0.0162450
793.374	0.0162730
793.452	0.0160553
793.530	0.0161545
793.608	0.0163132
793.686	0.0161460
793.765	0.0162215
793.843	0.0162144
793.921	0.0163539
793.999	0.0162092
794.077	0.0162191
794.155	0.0162894
794.233	0.0163061
794.311	0.0161905
794.390	0.0162300
794.468	0.0162939
794.546	0.0162337
794.624	0.0163145
794.702	0.0161239
794.780	0.0163165
794.858	0.0163390
794.936	0.0163248
795.015	0.0162261
795.093	0.0163809
795.171	0.0163579
795.249	0.0162248
795.327	0.0163245
795.405	0.0162273
795.483	0.0163157
795.561	0.0163629
795.640	0.0163068
795.718	0.0162450
795.796	0.0163854
795.874	0.0163165
795.952	0.0162117
796.030	0.0162434
796.108	0.0162474
796.186	0.0162276
796.265	0.0161710
796.343	0.0161050
796.421	0.0161694
796.499	0.0161577
796.577	0.0160518
796.655	0.0160059
796.733	0.0160788
796.811	0.0161723
796.890	0.0160566
796.968	0.0160577
797.046	0.0160760
797.124	0.0159676
797.202	0.0158509
797.280	0.0160609
797.358	0.0161395
797.436	0.0162068
797.515	0.0160667
797.593	0.0162245
797.671	0.0161305
797.749	0.0161331
797.827	0.0161240
797.905	0.0161858
797.983	0.0161597
798.061	0.0162537
798.140	0.0161967
798.218	0.0162376
798.296	0.0162760
798.374	0.0163707
798.452	0.0162974
798.530	0.0162624
798.608	0.0163159
798.686	0.0163053
798.765	0.0163525
798.843	0.0164284
798.921	0.0163631
798.999	0.0162535
799.077	0.0164020
799.155	0.0165282
799.233	0.0164314
799.311	0.0163948
799.390	0.0163373
799.468	0.0163510
799.546	0.0163385
799.624	0.0164080
799.702	0.0163757
799.780	0.0162141
799.858	0.0163845
799.936	0.0163835
800.015	0.0163975
800.093	0.0164332
800.171	0.0163302
800.249	0.0163216
800.327	0.0164096
800.405	0.0164732
800.483	0.0163537
800.561	0.0165441
800.640	0.0164301
800.718	0.0165314
800.796	0.0163182
800.874	0.0163857
800.952	0.0165350
801.030	0.0165002
801.108	0.0166076
801.186	0.0165477
801.265	0.0164910
801.343	0.0165070
801.421	0.0165327
801.499	0.0166644
801.577	0.0164301
801.655	0.0165748
801.733	0.0165319
801.811	0.0163963
801.890	0.0164774
801.968	0.0163860
802.046	0.0165446
802.124	0.0165430
802.202	0.0165382
802.280	0.0163627
802.358	0.0163799
802.436	0.0163712
802.515	0.0163951
802.593	0.0162682
802.671	0.0163646
802.749	0.0163947
802.827	0.0163615
802.905	0.0162143
802.983	0.0162095
803.061	0.0162691
803.140	0.0161846
803.218	0.0162185
803.296	0.0162796
803.374	0.0163506
803.452	0.0163419
803.530	0.0161561
803.608	0.0161827
803.686	0.0162672
803.765	0.0161667
803.843	0.0162322
803.921	0.0160184
803.999	0.0163086
804.077	0.0162219
804.155	0.0162988
804.233	0.0160825
804.311	0.0161015
804.390	0.0162102
804.468	0.0161413
804.546	0.0162318
804.624	0.0161263
804.702	0.0163087
804.780	0.0162707
804.858	0.0160062
804.936	0.0160049
805.015	0.0161416
805.093	0.0160757
805.171	0.0159807
805.249	0.0160765
805.327	0.0161165
805.405	0.0161006
805.483	0.0160369
805.561	0.0161411
805.640	0.0162164
805.718	0.0161806
805.796	0.0161385
805.874	0.0161199
805.952	0.0162109
806.030	0.0162403
806.108	0.0162537
806.186	0.0162539
806.265	0.0163519
806.343	0.0165187
806.421	0.0164386
806.499	0.0165076
806.577	0.0164587
806.655	0.0164541
806.733	0.0164986
806.811	0.0166205
806.890	0.0164971
806.968	0.0165395
807.046	0.0165546
807.124	0.0166460
807.202	0.0166092
807.280	0.0167941
807.358	0.0167123
807.436	0.0165451
807.515	0.0167095
807.593	0.0166660
807.671	0.0166984
807.749	0.0166439
807.827	0.0167247
807.905	0.0166402
807.983	0.0165391
808.061	0.0164957
808.140	0.0164529
808.218	0.0165673
808.296	0.0164904
808.374	0.0165012
808.452	0.0163868
808.530	0.0163988
808.608	0.0165285
808.686	0.0164754
808.765	0.0163998
808.843	0.0163985
808.921	0.0163772
808.999	0.0164331
809.077	0.0164414
809.155	0.0163177
809.233	0.0164091
809.311	0.0164843
809.390	0.0164402
809.468	0.0164085
809.546	0.0163250
809.624	0.0163638
809.702	0.0165874
809.780	0.0164666
809.858	0.0164940
809.936	0.0165660
810.015	0.0164967
810.093	0.0165726
810.171	0.0165647
810.249	0.0164365
810.327	0.0164978
810.405	0.0164480
810.483	0.0164522
810.561	0.0164510
810.640	0.0163947
810.718	0.0163261
810.796	0.0164334
810.874	0.0163623
810.952	0.0163733
811.030	0.0162869
811.108	0.0164118
811.186	0.0162930
811.265	0.0163786
811.343	0.0163992
811.421	0.0164577
811.499	0.0164529
811.577	0.0164397
811.655	0.0165269
811.733	0.0163905
811.811	0.0163839
811.890	0.0163610
811.968	0.0165607
812.046	0.0165036
812.124	0.0164448
812.202	0.0165733
812.280	0.0163030
812.358	0.0163752
812.436	0.0164424
812.515	0.0163611
812.593	0.0163744
812.671	0.0162894
812.749	0.0163294
812.827	0.0163739
812.905	0.0162411
812.983	0.0162758
813.061	0.0162413
813.140	0.0162411
813.218	0.0162187
813.296	0.0160414
813.374	0.0162788
813.452	0.0162284
813.530	0.0161896
813.608	0.0160607
813.686	0.0160281
813.765	0.0162250
813.843	0.0161568
813.921	0.0162835
813.999	0.0161304
814.077	0.0160965
814.155	0.0162290
814.233	0.0162106
814.311	0.0162274
814.390	0.0163949
814.468	0.0162354
814.546	0.0162418
814.624	0.0163018
814.702	0.0163555
814.780	0.0165898
814.858	0.0163634
814.936	0.0163119
815.015	0.0163896
815.093	0.0164520
815.171	0.0162550
815.249	0.0161891
815.327	0.0164912
815.405	0.0163972
815.483	0.0164389
815.561	0.0162936
815.640	0.0164591
815.718	0.0163657
815.796	0.0164566
815.874	0.0165350
815.952	0.0164337
816.030	0.0162334
816.108	0.0163903
816.186	0.0163914
816.265	0.0162518
816.343	0.0163472
816.421	0.0161119
816.499	0.0164381
816.577	0.0162625
816.655	0.0162000
816.733	0.0162701
816.811	0.0162994
816.890	0.0163434
816.968	0.0163573
817.046	0.0164023
817.124	0.0164265
817.202	0.0164011
817.280	0.0163506
817.358	0.0164376
817.436	0.0162936
817.515	0.0163270
817.593	0.0163675
817.671	0.0163383
817.749	0.0163210
817.827	0.0163577
817.905	0.0163836
817.983	0.0161233
818.061	0.0160602
818.140	0.0161497
818.218	0.0162643
818.296	0.0161830
818.374	0.0162207
818.452	0.0161803
818.530	0.0161899
818.608	0.0160851
818.686	0.0161003
818.765	0.0160961
818.843	0.0160739
818.921	0.0161612
818.999	0.0161524
819.077	0.0162425
819.155	0.0161523
819.233	0.0162716
819.311	0.0162688
819.390	0.0161932
819.468	0.0163335
819.546	0.0164324
819.624	0.0163371
819.702	0.0163820
819.780	0.0164500
819.858	0.0165271
819.936	0.0163326
820.015	0.0163944
820.093	0.0164611
820.171	0.0163746
820.249	0.0163874
820.327	0.0164070
820.405	0.0162591
820.483	0.0164639
820.561	0.0163487
820.640	0.0163067
820.718	0.0162861
820.796	0.0162406
820.874	0.0161005
820.952	0.0161594
821.030	0.0162843
821.108	0.0159234
821.186	0.0160767
821.265	0.0159594
821.343	0.0160114
821.421	0.0161043
821.499	0.0161423
821.577	0.0160783
821.655	0.0159103
821.733	0.0161470
821.811	0.0161100
821.890	0.0160733
821.968	0.0161852
822.046	0.0162545
822.124	0.0162765
822.202	0.0162954
822.280	0.0162771
822.358	0.0163338
822.436	0.0163845
822.515	0.0164541
822.593	0.0164592
822.671	0.0165198
822.749	0.0165519
822.827	0.0166139
822.905	0.0165439
822.983	0.0164540
823.061	0.0166756
823.140	0.0167001
823.218	0.0166338
823.296	0.0166169
823.374	0.0165410
823.452	0.0165914
823.530	0.0167416
823.608	0.0167005
823.686	0.0165854
823.765	0.0166267
823.843	0.0165739
823.921	0.0165354
823.999	0.0166328
824.077	0.0165359
824.155	0.0165215
824.233	0.0163687
824.311	0.0165406
824.390	0.0164626
824.468	0.0164249
824.546	0.0163185
824.624	0.0164336
824.702	0.0164137
824.780	0.0163187
824.858	0.0163837
824.936	0.0163143
825.015	0.0163003
825.093	0.0162664
825.171	0.0161198
825.249	0.0161456
825.327	0.0161945
825.405	0.0160789
825.483	0.0161769
825.561	0.0160791
825.640	0.0160838
825.718	0.0161877
825.796	0.0160268
825.874	0.0160612
825.952	0.0160450
826.030	0.0160925
826.108	0.0158534
826.186	0.0159391
826.265	0.0159818
826.343	0.0159558
826.421	0.0159142
826.499	0.0160037
826.577	0.0160828
826.655	0.0159930
826.733	0.0159766
826.811	0.0160005
826.890	0.0160043
826.968	0.0161131
827.046	0.0161414
827.124	0.0161520
827.202	0.0161517
827.280	0.0162153
827.358	0.0163170
827.436	0.0163007
827.515	0.0163350
827.593	0.0163349
827.671	0.0162233
827.749	0.0164162
827.827	0.0163196
827.905	0.0162586
827.983	0.0163516
828.061	0.0162521
828.140	0.0164999
828.218	0.0166039
828.296	0.0164686
828.374	0.0165341
828.452	0.0164970
828.530	0.0164474
828.608	0.0164037
828.686	0.0165356
828.765	0.0165086
828.843	0.0164700
828.921	0.0165141
828.999	0.0164452
829.077	0.0164024
829.155	0.0165103
829.233	0.0164537
829.311	0.0163514
829.390	0.0164459
829.468	0.0162740
829.546	0.0163581
829.624	0.0164005
829.702	0.0164654
829.780	0.0163480
829.858	0.0162090
829.936	0.0162778
830.015	0.0163531
830.093	0.0164501
830.171	0.0163599
830.249	0.0162027
830.327	0.0161848
830.405	0.0163451
830.483	0.0163523
830.561	0.0162196
830.640	0.0162988
830.718	0.0162518
830.796	0.0163250
830.874	0.0163422
830.952	0.0163471
831.030	0.0162019
831.108	0.0164052
831.186	0.0164119
831.265	0.0164223
831.343	0.0163158
831.421	0.0163443
831.499	0.0164758
831.577	0.0164622
831.655	0.0165076
831.733	0.0164830
831.811	0.0165056
831.890	0.0164668
831.968	0.0163822
832.046	0.0165216
832.124	0.0164465
832.202	0.0165180
832.280	0.0164690
832.358	0.0166553
832.436	0.0165646
832.515	0.0165469
832.593	0.0165896
832.671	0.0164733
832.749	0.0164110
832.827	0.0163976
832.905	0.0163783
832.983	0.0163814
833.061	0.0162476
833.140	0.0163168
833.218	0.0162649
833.296	0.0164028
833.374	0.0163473
833.452	0.0162314
833.530	0.0161825
833.608	0.0162031
833.686	0.0162540
833.765	0.0161806
833.843	0.0161784
833.921	0.0162841
833.999	0.0163491
834.077	0.0163094
834.155	0.0162407
834.233	0.0162820
834.311	0.0161932
834.390	0.0162992
834.468	0.0162044
834.546	0.0161214
834.624	0.0163313
834.702	0.0161846
834.780	0.0162133
834.858	0.0163573
834.936	0.0162543
835.015	0.0162427
835.093	0.0161107
835.171	0.0163766
835.249	0.0163245
835.327	0.0163084
835.405	0.0164014
835.483	0.0163348
835.561	0.0163175
835.640	0.0163182
835.718	0.0164230
835.796	0.0163805
835.874	0.0164960
835.952	0.0165050
836.030	0.0165021
836.108	0.0163238
836.186	0.0164082
836.265	0.0164441
836.343	0.0164649
836.421	0.0162904
836.499	0.0164366
836.577	0.0164313
836.655	0.0164684
836.733	0.0164339
836.811	0.0164516
836.890	0.0163680
836.968	0.0163142
837.046	0.0164088
837.124	0.0164033
837.202	0.0163194
837.280	0.0163022
837.358	0.0163452
837.436	0.0163738
837.515	0.0161985
837.593	0.0164126
837.671	0.0162502
837.749	0.0162008
837.827	0.0163735
837.905	0.0162099
837.983	0.0163030
838.061	0.0164114
838.140	0.0161521
838.218	0.0161793
838.296	0.0163271
838.374	0.0163490
838.452	0.0162910
838.530	0.0162334
838.608	0.0163935
838.686	0.0163953
838.765	0.0163206
838.843	0.0163029
838.921	0.0163907
838.999	0.0164405
839.077	0.0162781
839.155	0.0164236
839.233	0.0164571
839.311	0.0164623
839.390	0.0163654
839.468	0.0163266
839.546	0.0163058
839.624	0.0163042
839.702	0.0164326
839.780	0.0164119
839.858	0.0164924
839.936	0.0162704
840.015	0.0164079
840.093	0.0163875
840.171	0.0164496
840.249	0.0164902
840.327	0.0163696
840.405	0.0166160
840.483	0.0163237
840.561	0.0163104
840.640	0.0164967
840.718	0.0164294
840.796	0.0163670
840.874	0.0164337
840.952	0.0164129
841.030	0.0163006
841.108	0.0163742
841.186	0.0163696
841.265	0.0164205
841.343	0.0162339
841.421	0.0162495
841.499	0.0163557
841.577	0.0163522
841.655	0.0164787
841.733	0.0163792
841.811	0.0163838
841.890	0.0162110
841.968	0.0161941
842.046	0.0162726
842.124	0.0163152
842.202	0.0163415
842.280	0.0162934
842.358	0.0162379
842.436	0.0161760
842.515	0.0163274
842.593	0.0162292
842.671	0.0162095
842.749	0.0162933
842.827	0.0162921
842.905	0.0162171
842.983	0.0162460
843.061	0.0162121
843.140	0.0163493
843.218	0.0163651
843.296	0.0165184
843.374	0.0163095
843.452	0.0163647
843.530	0.0162778
843.608	0.0163602
843.686	0.0163919
843.765	0.0163943
843.843	0.0162900
843.921	0.0164137
843.999	0.0164175
844.077	0.0163646
844.155	0.0163350
844.233	0.0163595
844.311	0.0164214
844.390	0.0162298
844.468	0.0162266
844.546	0.0163031
844.624	0.0163353
844.702	0.0163230
844.780	0.0161738
844.858	0.0163537
844.936	0.0163104
845.015	0.0163103
845.093	0.0162034
845.171	0.0161382
845.249	0.0161905
845.327	0.0163317
845.405	0.0162378
845.483	0.0161696
845.561	0.0164008
845.640	0.0163670
845.718	0.0163915
845.796	0.0163931
845.874	0.0164011
845.952	0.0165434
846.030	0.0166788
846.108	0.0164325
846.186	0.0164748
846.265	0.0165279
846.343	0.0167659
846.421	0.0165399
846.499	0.0165890
846.577	0.0167937
846.655	0.0164780
846.733	0.0164936
846.811	0.0166599
846.890	0.0165996
846.968	0.0164536
847.046	0.0164362
847.124	0.0165102
847.202	0.0164902
847.280	0.0164545
847.358	0.0163342
847.436	0.0163434
847.515	0.0163245
847.593	0.0162984
847.671	0.0163102
847.749	0.0162691
847.827	0.0162176
847.905	0.0161587
847.983	0.0161372
848.061	0.0161920
848.140	0.0161639
848.218	0.0162618
848.296	0.0161420
848.374	0.0162022
848.452	0.0160584
848.530	0.0159518
848.608	0.0160188
848.686	0.0161464
848.765	0.0161452
848.843	0.0160861
848.921	0.0161565
848.999	0.0159294
849.077	0.0159606
849.155	0.0160809
849.233	0.0160817
849.311	0.0160970
849.390	0.0161562
849.468	0.0160766
849.546	0.0161822
849.624	0.0160722
849.702	0.0161162
849.780	0.0161061
849.858	0.0161829
849.936	0.0161678
850.015	0.0162499
850.093	0.0162917
850.171	0.0162092
850.249	0.0162098
850.327	0.0163596
850.405	0.0162791
850.483	0.0163683
850.561	0.0163857
850.640	0.0163329
850.718	0.0163598
850.796	0.0164983
850.874	0.0164429
850.952	0.0163533
851.030	0.0163798
851.108	0.0163706
851.186	0.0164189
851.265	0.0166068
851.343	0.0165643
851.421	0.0165491
851.499	0.0164954
851.577	0.0165456
851.655	0.0164874
851.733	0.0165427
851.811	0.0164393
851.890	0.0164729
851.968	0.0163180
852.046	0.0165121
852.124	0.0164239
852.202	0.0164085
852.280	0.0165098
852.358	0.0164614
852.436	0.0163449
852.515	0.0163803
852.593	0.0162122
852.671	0.0163411
852.749	0.0163509
852.827	0.0163374
852.905	0.0163895
852.983	0.0162150
853.061	0.0163775
853.140	0.0162871
853.218	0.0164884
853.296	0.0163659
853.374	0.0162229
853.452	0.0162225
853.530	0.0162646
853.608	0.0162379
853.686	0.0163766
853.765	0.0164217
853.843	0.0163981
853.921	0.0163659
853.999	0.0165473
854.077	0.0164773
854.155	0.0163822
854.233	0.0165344
854.311	0.0164391
854.390	0.0164236
854.468	0.0165310
854.546	0.0165324
854.624	0.0165523
854.702	0.0162864
854.780	0.0163639
854.858	0.0162955
854.936	0.0162605
855.015	0.0162889
855.093	0.0163590
855.171	0.0162083
855.249	0.0163572
855.327	0.0161892
855.405	0.0162249
855.483	0.0162447
855.561	0.0163173
855.640	0.0161901
855.718	0.0161711
855.796	0.0162101
855.874	0.0162408
855.952	0.0162901
856.030	0.0163161
856.108	0.0163531
856.186	0.0163856
856.265	0.0164147
856.343	0.0164816
856.421	0.0164535
856.499	0.0165067
856.577	0.0163500
856.655	0.0164537
856.733	0.0163184
856.811	0.0162931
856.890	0.0165342
856.968	0.0164497
857.046	0.0163431
857.124	0.0163152
857.202	0.0164636
857.280	0.0165210
857.358	0.0163974
857.436	0.0163275
857.515	0.0163393
857.593	0.0165229
857.671	0.0165026
857.749	0.0163820
857.827	0.0163897
857.905	0.0164085
857.983	0.0163815
858.061	0.0163374
858.140	0.0164238
858.218	0.0163605
858.296	0.0163232
858.374	0.0162196
858.452	0.0163829
858.530	0.0164127
858.608	0.0163729
858.686	0.0162980
858.765	0.0163919
858.843	0.0163736
858.921	0.0162952
858.999	0.0164184
859.077	0.0164449
859.155	0.0162627
859.233	0.0163804
859.311	0.0163580
859.390	0.0166222
859.468	0.0164632
859.546	0.0163832
859.624	0.0165064
859.702	0.0163401
859.780	0.0162956
859.858	0.0165491
859.936	0.0163667
860.015	0.0163735
860.093	0.0162458
860.171	0.0163098
860.249	0.0163303
860.327	0.0162911
860.405	0.0164242
860.483	0.0162946
860.561	0.0163753
860.640	0.0162688
860.718	0.0162293
860.796	0.0161016
860.874	0.0162132
860.952	0.0160590
861.030	0.0161693
861.108	0.0161447
861.186	0.0163074
861.265	0.0162915
861.343	0.0160948
861.421	0.0161806
861.499	0.0162508
861.577	0.0162113
861.655	0.0161764
861.733	0.0161804
861.811	0.0162394
861.890	0.0161234
861.968	0.0160427
862.046	0.0161194
862.124	0.0162483
862.202	0.0163052
862.280	0.0160467
862.358	0.0161221
862.436	0.0160889
862.515	0.0161378
862.593	0.0162505
862.671	0.0161451
862.749	0.0163254
862.827	0.0160793
862.905	0.0161305
862.983	0.0163003
863.061	0.0161497
863.140	0.0162373
863.218	0.0161724
863.296	0.0163869
863.374	0.0161057
863.452	0.0162976
863.530	0.0163406
863.608	0.0163445
863.686	0.0163850
863.765	0.0163182
863.843	0.0163511
863.921	0.0163516
863.999	0.0163923
864.077	0.0163716
864.155	0.0163955
864.233	0.0163416
864.311	0.0162219
864.390	0.0163921
864.468	0.0164135
864.546	0.0163367
864.624	0.0164068
864.702	0.0164189
864.780	0.0164118
864.858	0.0163377
864.936	0.0163696
865.015	0.0163924
865.093	0.0162870
865.171	0.0163773
865.249	0.0164019
865.327	0.0164497
865.405	0.0162249
865.483	0.0163164
865.561	0.0163300
865.640	0.0163722
865.718	0.0160875
865.796	0.0161516
865.874	0.0162990
865.952	0.0162630
866.030	0.0162051
866.108	0.0163001
866.186	0.0162408
866.265	0.0160822
866.343	0.0161400
866.421	0.0161952
866.499	0.0161927
866.577	0.0162709
866.655	0.0162106
866.733	0.0163223
866.811	0.0161929
866.890	0.0162293
866.968	0.0164219
867.046	0.0163564
867.124	0.0162650
867.202	0.0164879
867.280	0.0162992
867.358	0.0164728
867.436	0.0163921
867.515	0.0163702
867.593	0.0163644
867.671	0.0165644
867.749	0.0163132
867.827	0.0164487
867.905	0.0165488
867.983	0.0164960
868.061	0.0163790
868.140	0.0164622
868.218	0.0163684
868.296	0.0164813
868.374	0.0164399
868.452	0.0162661
868.530	0.0163866
868.608	0.0164716
868.686	0.0163937
868.765	0.0162597
868.843	0.0162600
868.921	0.0163706
868.999	0.0163580
869.077	0.0164184
869.155	0.0162844
869.233	0.0163765
869.311	0.0164483
869.390	0.0163789
869.468	0.0163520
869.546	0.0163828
869.624	0.0163190
869.702	0.0164720
869.780	0.0163265
869.858	0.0164490
869.936	0.0163741
870.015	0.0164632
870.093	0.0164490
870.171	0.0164247
870.249	0.0164114
870.327	0.0164713
870.405	0.0165035
870.483	0.0163485
870.561	0.0163123
870.640	0.0164851
870.718	0.0166007
870.796	0.0164590
870.874	0.0163811
870.952	0.0163441
871.030	0.0164615
871.108	0.0163837
871.186	0.0162636
871.265	0.0163808
871.343	0.0164562
871.421	0.0164405
871.499	0.0162685
871.577	0.0163396
871.655	0.0163185
871.733	0.0163526
871.811	0.0163309
871.890	0.0162397
871.968	0.0162627
872.046	0.0163145
872.124	0.0164406
872.202	0.0163245
872.280	0.0164050
872.358	0.0164483
872.436	0.0164031
872.515	0.0165604
872.593	0.0162364
872.671	0.0165582
872.749	0.0165912
872.827	0.0163299
872.905	0.0165299
872.983	0.0164951
873.061	0.0163543
873.140	0.0164460
873.218	0.0165055
873.296	0.0164473
873.374	0.0164024
873.452	0.0165264
873.530	0.0162863
873.608	0.0164214
873.686	0.0164492
873.765	0.0162773
873.843	0.0164980
873.921	0.0163097
873.999	0.0163367
874.077	0.0162859
874.155	0.0162298
874.233	0.0164116
874.311	0.0163074
874.390	0.0164213
874.468	0.0162930
874.546	0.0162258
874.624	0.0163409
874.702	0.0161813
874.780	0.0162951
874.858	0.0162724
874.936	0.0162538
875.015	0.0163396
875.093	0.0163577
875.171	0.0162901
875.249	0.0163239
875.327	0.0164364
875.405	0.0162214
875.483	0.0163114
875.561	0.0162030
875.640	0.0163698
875.718	0.0163882
875.796	0.0164039
875.874	0.0162001
875.952	0.0161737
876.030	0.0163369
876.108	0.0163065
876.186	0.0162407
876.265	0.0162835
876.343	0.0162412
876.421	0.0162155
876.499	0.0165348
876.577	0.0164648
876.655	0.0163881
876.733	0.0162608
876.811	0.0162527
876.890	0.0163320
876.968	0.0163269
877.046	0.0163364
877.124	0.0163824
877.202	0.0164765
877.280	0.0162967
877.358	0.0164224
877.436	0.0163163
877.515	0.0162843
877.593	0.0163336
877.671	0.0164240
877.749	0.0163258
877.827	0.0163754
877.905	0.0163008
877.983	0.0163195
878.061	0.0163786
878.140	0.0161749
878.218	0.0164375
878.296	0.0163130
878.374	0.0163524
878.452	0.0163010
878.530	0.0164328
878.608	0.0162378
878.686	0.0162756
878.765	0.0163897
878.843	0.0164780
878.921	0.0162936
878.999	0.0162798
879.077	0.0162132
879.155	0.0161932
879.233	0.0162173
879.311	0.0163153
879.390	0.0162240
879.468	0.0162737
879.546	0.0162893
879.624	0.0163490
879.702	0.0163267
879.780	0.0163583
879.858	0.0163811
879.936	0.0161880
880.015	0.0163277
880.093	0.0163185
880.171	0.0163792
880.249	0.0164669
880.327	0.0163992
880.405	0.0163234
880.483	0.0163775
880.561	0.0163296
880.640	0.0163331
880.718	0.0165009
880.796	0.0163432
880.874	0.0163295
880.952	0.0164789
881.030	0.0163176
881.108	0.0163609
881.186	0.0164693
881.265	0.0163448
881.343	0.0163264
881.421	0.0164761
881.499	0.0164059
881.577	0.0165340
881.655	0.0164422
881.733	0.0163798
881.811	0.0164855
881.890	0.0164772
881.968	0.0163681
882.046	0.0163774
882.124	0.0165025
882.202	0.0163620
882.280	0.0163754
882.358	0.0163246
882.436	0.0164024
882.515	0.0164850
882.593	0.0164372
882.671	0.0163740
882.749	0.0164237
882.827	0.0163260
882.905	0.0160652
882.983	0.0163029
883.061	0.0163286
883.140	0.0161642
883.218	0.0163202
883.296	0.0163537
883.374	0.0163210
883.452	0.0161446
883.530	0.0161396
883.608	0.0161931
883.686	0.0162349
883.765	0.0161254
883.843	0.0160396
883.921	0.0161947
883.999	0.0161213
884.077	0.0162565
884.155	0.0163000
884.233	0.0161581
884.311	0.0161494
884.390	0.0162604
884.468	0.0163039
884.546	0.0163216
884.624	0.0163726
884.702	0.0163579
884.780	0.0162828
884.858	0.0162714
884.936	0.0162065
885.015	0.0163213
885.093	0.0162344
885.171	0.0162389
885.249	0.0163758
885.327	0.0162580
885.405	0.0162488
885.483	0.0162399
885.561	0.0163572
885.640	0.0162773
885.718	0.0162305
885.796	0.0162093
885.874	0.0162626
885.952	0.0162490
886.030	0.0162766
886.108	0.0163108
886.186	0.0165043
886.265	0.0163277
886.343	0.0163184
886.421	0.0164101
886.499	0.0163091
886.577	0.0164143
886.655	0.0163811
886.733	0.0162813
886.811	0.0163508
886.890	0.0162740
886.968	0.0163774
887.046	0.0164627
887.124	0.0163851
887.202	0.0164226
887.280	0.0162157
887.358	0.0162925
887.436	0.0162962
887.515	0.0162038
887.593	0.0161743
887.671	0.0162878
887.749	0.0162422
887.827	0.0162065
887.905	0.0161471
887.983	0.0162672
888.061	0.0161757
888.140	0.0161111
888.218	0.0162852
888.296	0.0164372
888.374	0.0162480
888.452	0.0162395
888.530	0.0162086
888.608	0.0160622
888.686	0.0162118
888.765	0.0163706
888.843	0.0162550
888.921	0.0161221
888.999	0.0164021
889.077	0.0162461
889.155	0.0160562
889.233	0.0160655
889.311	0.0161895
889.390	0.0161700
889.468	0.0162160
889.546	0.0162164
889.624	0.0160516
889.702	0.0161782
889.780	0.0161529
889.858	0.0160562
889.936	0.0160965
890.015	0.0162509
890.093	0.0161976
890.171	0.0161578
890.249	0.0161953
890.327	0.0160796
890.405	0.0163665
890.483	0.0162564
890.561	0.0162544
890.640	0.0162964
890.718	0.0162833
890.796	0.0163615
890.874	0.0163772
890.952	0.0163154
891.030	0.0164442
891.108	0.0164235
891.186	0.0163550
891.265	0.0164146
891.343	0.0164233
891.421	0.0165296
891.499	0.0164894
891.577	0.0165574
891.655	0.0165175
891.733	0.0165089
891.811	0.0165399
891.890	0.0164886
891.968	0.0165668
892.046	0.0165645
892.124	0.0164710
892.202	0.0166611
892.280	0.0164764
892.358	0.0163807
892.436	0.0165833
892.515	0.0164938
892.593	0.0164906
892.671	0.0163860
892.749	0.0162965
892.827	0.0164400
892.905	0.0163655
892.983	0.0164030
893.061	0.0163651
893.140	0.0164020
893.218	0.0163605
893.296	0.0163775
893.374	0.0163905
893.452	0.0162518
893.530	0.0163248
893.608	0.0164890
893.686	0.0164144
893.765	0.0164738
893.843	0.0164346
893.921	0.0163094
893.999	0.0164590
894.077	0.0164548
894.155	0.0164638
894.233	0.0165057
894.311	0.0166158
894.390	0.0165385
894.468	0.0165471
894.546	0.0165190
894.624	0.0166436
894.702	0.0164889
894.780	0.0164225
894.858	0.0166957
894.936	0.0165303
895.015	0.0167284
895.093	0.0165209
895.171	0.0164773
895.249	0.0165089
895.327	0.0163931
895.405	0.0164658
895.483	0.0164259
895.561	0.0164374
895.640	0.0163496
895.718	0.0164253
895.796	0.0166351
895.874	0.0163988
895.952	0.0163569
896.030	0.0164309
896.108	0.0164503
896.186	0.0164285
896.265	0.0163403
896.343	0.0161991
896.421	0.0163995
896.499	0.0163368
896.577	0.0162590
896.655	0.0163699
896.733	0.0164398
896.811	0.0164227
896.890	0.0163367
896.968	0.0163160
897.046	0.0162177
897.124	0.0163470
897.202	0.0164618
897.280	0.0162407
897.358	0.0163201
897.436	0.0163441
897.515	0.0162936
897.593	0.0164308
897.671	0.0162538
897.749	0.0161961
897.827	0.0162529
897.905	0.0163123
897.983	0.0163920
898.061	0.0163841
898.140	0.0163318
898.218	0.0162563
898.296	0.0162435
898.374	0.0162174
898.452	0.0164539
898.530	0.0162711
898.608	0.0163308
898.686	0.0163701
898.765	0.0163291
898.843	0.0164788
898.921	0.0163331
898.999	0.0162566
899.077	0.0162939
899.155	0.0164296
899.233	0.0164077
899.311	0.0162215
899.390	0.0162775
899.468	0.0163340
899.546	0.0163474
899.624	0.0162534
899.702	0.0162708
899.780	0.0162389
899.858	0.0163136
899.936	0.0162423
