05/24/2022	20:51:42	Ver.	4.1	UNKNOWN
Optical Delay	580.014591	Delta X		0.078125	Sweeps	1	Scan Rate	0/0
Coordinates	Axis 1	NaN	Axis 2	NaN	Axis 3	NaN	Axis 4	NaN	Axis 5	NaN	Axis 6	0.000000
TX Power	0.000000	RX Power	0.000000

580.015	0.0164130
580.093	0.0159652
580.171	0.0161310
580.249	0.0162506
580.327	0.0162103
580.405	0.0163140
580.483	0.0163563
580.561	0.0162160
580.640	0.0163036
580.718	0.0162823
580.796	0.0161730
580.874	0.0162914
580.952	0.0163073
581.030	0.0163540
581.108	0.0163184
581.186	0.0162323
581.265	0.0162521
581.343	0.0162563
581.421	0.0162075
581.499	0.0162396
581.577	0.0162059
581.655	0.0161829
581.733	0.0162553
581.811	0.0162961
581.890	0.0161520
581.968	0.0161872
582.046	0.0161017
582.124	0.0161028
582.202	0.0162803
582.280	0.0161455
582.358	0.0159518
582.436	0.0160469
582.515	0.0161982
582.593	0.0162197
582.671	0.0161448
582.749	0.0161545
582.827	0.0161604
582.905	0.0162933
582.983	0.0161114
583.061	0.0162788
583.140	0.0162389
583.218	0.0162924
583.296	0.0163246
583.374	0.0163523
583.452	0.0163457
583.530	0.0163181
583.608	0.0163431
583.686	0.0163327
583.765	0.0163588
583.843	0.0164186
583.921	0.0163080
583.999	0.0162519
584.077	0.0163078
584.155	0.0162919
584.233	0.0163645
584.311	0.0162827
584.390	0.0163174
584.468	0.0160435
584.546	0.0163626
584.624	0.0164189
584.702	0.0161670
584.780	0.0162626
584.858	0.0162970
584.936	0.0162101
585.015	0.0162610
585.093	0.0162949
585.171	0.0163175
585.249	0.0163191
585.327	0.0164487
585.405	0.0162808
585.483	0.0164022
585.561	0.0163673
585.640	0.0164457
585.718	0.0163538
585.796	0.0163884
585.874	0.0165035
585.952	0.0165437
586.030	0.0164718
586.108	0.0164886
586.186	0.0164851
586.265	0.0165178
586.343	0.0165132
586.421	0.0164478
586.499	0.0165768
586.577	0.0164758
586.655	0.0167492
586.733	0.0165485
586.811	0.0164088
586.890	0.0166297
586.968	0.0164597
587.046	0.0163154
587.124	0.0164336
587.202	0.0164967
587.280	0.0164848
587.358	0.0163705
587.436	0.0163577
587.515	0.0164326
587.593	0.0163604
587.671	0.0162608
587.749	0.0164034
587.827	0.0163553
587.905	0.0162482
587.983	0.0162450
588.061	0.0163347
588.140	0.0163112
588.218	0.0164877
588.296	0.0164035
588.374	0.0164291
588.452	0.0164096
588.530	0.0163743
588.608	0.0164913
588.686	0.0162881
588.765	0.0163190
588.843	0.0165057
588.921	0.0163317
588.999	0.0164074
589.077	0.0162981
589.155	0.0164452
589.233	0.0164753
589.311	0.0164959
589.390	0.0164758
589.468	0.0164589
589.546	0.0165274
589.624	0.0164749
589.702	0.0164539
589.780	0.0165016
589.858	0.0166150
589.936	0.0165211
590.015	0.0165633
590.093	0.0163937
590.171	0.0165074
590.249	0.0164501
590.327	0.0164655
590.405	0.0165224
590.483	0.0164680
590.561	0.0164786
590.640	0.0163831
590.718	0.0163658
590.796	0.0164066
590.874	0.0164358
590.952	0.0164609
591.030	0.0164458
591.108	0.0163821
591.186	0.0163278
591.265	0.0163714
591.343	0.0165562
591.421	0.0162312
591.499	0.0162341
591.577	0.0162022
591.655	0.0162999
591.733	0.0161967
591.811	0.0161684
591.890	0.0161950
591.968	0.0161637
592.046	0.0161504
592.124	0.0161456
592.202	0.0161879
592.280	0.0161108
592.358	0.0160559
592.436	0.0160198
592.515	0.0161398
592.593	0.0160082
592.671	0.0161979
592.749	0.0162420
592.827	0.0161127
592.905	0.0162210
592.983	0.0162662
593.061	0.0163950
593.140	0.0164307
593.218	0.0163072
593.296	0.0163361
593.374	0.0164090
593.452	0.0165823
593.530	0.0165260
593.608	0.0165715
593.686	0.0166144
593.765	0.0165685
593.843	0.0165200
593.921	0.0165134
593.999	0.0164683
594.077	0.0164093
594.155	0.0164399
594.233	0.0164738
594.311	0.0164272
594.390	0.0163856
594.468	0.0164542
594.546	0.0163677
594.624	0.0164305
594.702	0.0163047
594.780	0.0163054
594.858	0.0163340
594.936	0.0163649
595.015	0.0163124
595.093	0.0164321
595.171	0.0163699
595.249	0.0164327
595.327	0.0164175
595.405	0.0163757
595.483	0.0162432
595.561	0.0164671
595.640	0.0163452
595.718	0.0163468
595.796	0.0164217
595.874	0.0163003
595.952	0.0163432
596.030	0.0162434
596.108	0.0164365
596.186	0.0163871
596.265	0.0163787
596.343	0.0164472
596.421	0.0162627
596.499	0.0163483
596.577	0.0164310
596.655	0.0162252
596.733	0.0162769
596.811	0.0164594
596.890	0.0163931
596.968	0.0164178
597.046	0.0164136
597.124	0.0163261
597.202	0.0164186
597.280	0.0162589
597.358	0.0164125
597.436	0.0162727
597.515	0.0163314
597.593	0.0163668
597.671	0.0163623
597.749	0.0164237
597.827	0.0163418
597.905	0.0164879
597.983	0.0163988
598.061	0.0165591
598.140	0.0165526
598.218	0.0163603
598.296	0.0165546
598.374	0.0164601
598.452	0.0163111
598.530	0.0162790
598.608	0.0164890
598.686	0.0164468
598.765	0.0163943
598.843	0.0164294
598.921	0.0163481
598.999	0.0163763
599.077	0.0162836
599.155	0.0163121
599.233	0.0162957
599.311	0.0163485
599.390	0.0164831
599.468	0.0160461
599.546	0.0162022
599.624	0.0162947
599.702	0.0160994
599.780	0.0161383
599.858	0.0162090
599.936	0.0161352
600.015	0.0161301
600.093	0.0162965
600.171	0.0162477
600.249	0.0162305
600.327	0.0163940
600.405	0.0161391
600.483	0.0161914
600.561	0.0164124
600.640	0.0164024
600.718	0.0164223
600.796	0.0162122
600.874	0.0162965
600.952	0.0163836
601.030	0.0161891
601.108	0.0162319
601.186	0.0161951
601.265	0.0162476
601.343	0.0162965
601.421	0.0163090
601.499	0.0162078
601.577	0.0162450
601.655	0.0161960
601.733	0.0162372
601.811	0.0161479
601.890	0.0161484
601.968	0.0161002
602.046	0.0161494
602.124	0.0160978
602.202	0.0161958
602.280	0.0161123
602.358	0.0162598
602.436	0.0161552
602.515	0.0163026
602.593	0.0162524
602.671	0.0162661
602.749	0.0163311
602.827	0.0165242
602.905	0.0164049
602.983	0.0164841
603.061	0.0164716
603.140	0.0163703
603.218	0.0164107
603.296	0.0164424
603.374	0.0163708
603.452	0.0164582
603.530	0.0163000
603.608	0.0162642
603.686	0.0162012
603.765	0.0162637
603.843	0.0161914
603.921	0.0161842
603.999	0.0160973
604.077	0.0160873
604.155	0.0160416
604.233	0.0160737
604.311	0.0160637
604.390	0.0161671
604.468	0.0160125
604.546	0.0161304
604.624	0.0162251
604.702	0.0162029
604.780	0.0161976
604.858	0.0162803
604.936	0.0163010
605.015	0.0164395
605.093	0.0163876
605.171	0.0163905
605.249	0.0163306
605.327	0.0165874
605.405	0.0166367
605.483	0.0166088
605.561	0.0166399
605.640	0.0165627
605.718	0.0166829
605.796	0.0165643
605.874	0.0164687
605.952	0.0164452
606.030	0.0165008
606.108	0.0165483
606.186	0.0164487
606.265	0.0164524
606.343	0.0164999
606.421	0.0163928
606.499	0.0164999
606.577	0.0165995
606.655	0.0165217
606.733	0.0165323
606.811	0.0165079
606.890	0.0164139
606.968	0.0165705
607.046	0.0166415
607.124	0.0166013
607.202	0.0165534
607.280	0.0165648
607.358	0.0165157
607.436	0.0164467
607.515	0.0165741
607.593	0.0165633
607.671	0.0162449
607.749	0.0162069
607.827	0.0162837
607.905	0.0161150
607.983	0.0159726
608.061	0.0161488
608.140	0.0160835
608.218	0.0160864
608.296	0.0160155
608.374	0.0160296
608.452	0.0161314
608.530	0.0160302
608.608	0.0162009
608.686	0.0162489
608.765	0.0163660
608.843	0.0162791
608.921	0.0162407
608.999	0.0165955
609.077	0.0166430
609.155	0.0166342
609.233	0.0165303
609.311	0.0165604
609.390	0.0167406
609.468	0.0166706
609.546	0.0167411
609.624	0.0167660
609.702	0.0169384
609.780	0.0168430
609.858	0.0166645
609.936	0.0165376
610.015	0.0166277
610.093	0.0162804
610.171	0.0163245
610.249	0.0162545
610.327	0.0161308
610.405	0.0160751
610.483	0.0161109
610.561	0.0159967
610.640	0.0159799
610.718	0.0159805
610.796	0.0158219
610.874	0.0158629
610.952	0.0159631
611.030	0.0160429
611.108	0.0162741
611.186	0.0162964
611.265	0.0163170
611.343	0.0164948
611.421	0.0165235
611.499	0.0166690
611.577	0.0167525
611.655	0.0168103
611.733	0.0170322
611.811	0.0172217
611.890	0.0172138
611.968	0.0172775
612.046	0.0174004
612.124	0.0173337
612.202	0.0172462
612.280	0.0173037
612.358	0.0170403
612.436	0.0169275
612.515	0.0170181
612.593	0.0168102
612.671	0.0165223
612.749	0.0161633
612.827	0.0161112
612.905	0.0159113
612.983	0.0157418
613.061	0.0155544
613.140	0.0153673
613.218	0.0152673
613.296	0.0150865
613.374	0.0151202
613.452	0.0149136
613.530	0.0147877
613.608	0.0150394
613.686	0.0149526
613.765	0.0151091
613.843	0.0152113
613.921	0.0153165
613.999	0.0155316
614.077	0.0156705
614.155	0.0158604
614.233	0.0160909
614.311	0.0162406
614.390	0.0165010
614.468	0.0167770
614.546	0.0169526
614.624	0.0170583
614.702	0.0174480
614.780	0.0175632
614.858	0.0178223
614.936	0.0178000
615.015	0.0180093
615.093	0.0180695
615.171	0.0180585
615.249	0.0180975
615.327	0.0179440
615.405	0.0177970
615.483	0.0177579
615.561	0.0176698
615.640	0.0174332
615.718	0.0172589
615.796	0.0170822
615.874	0.0169394
615.952	0.0167336
616.030	0.0165213
616.108	0.0163056
616.186	0.0161524
616.265	0.0161827
616.343	0.0160019
616.421	0.0159066
616.499	0.0158007
616.577	0.0156508
616.655	0.0154804
616.733	0.0155517
616.811	0.0156470
616.890	0.0156312
616.968	0.0157088
617.046	0.0156983
617.124	0.0157537
617.202	0.0158118
617.280	0.0158440
617.358	0.0159270
617.436	0.0160049
617.515	0.0159974
617.593	0.0161474
617.671	0.0162699
617.749	0.0162309
617.827	0.0162588
617.905	0.0162463
617.983	0.0161406
618.061	0.0161951
618.140	0.0162741
618.218	0.0162502
618.296	0.0160811
618.374	0.0160484
618.452	0.0161951
618.530	0.0162263
618.608	0.0160776
618.686	0.0161299
618.765	0.0160543
618.843	0.0161047
618.921	0.0162788
618.999	0.0162474
619.077	0.0161876
619.155	0.0161440
619.233	0.0162718
619.311	0.0164073
619.390	0.0165295
619.468	0.0166579
619.546	0.0168839
619.624	0.0168745
619.702	0.0171418
619.780	0.0172002
619.858	0.0174300
619.936	0.0175015
620.015	0.0176829
620.093	0.0178245
620.171	0.0177805
620.249	0.0179844
620.327	0.0180386
620.405	0.0179276
620.483	0.0178240
620.561	0.0178603
620.640	0.0175111
620.718	0.0173191
620.796	0.0171396
620.874	0.0167727
620.952	0.0164779
621.030	0.0162568
621.108	0.0159687
621.186	0.0156548
621.265	0.0152576
621.343	0.0148698
621.421	0.0145786
621.499	0.0144888
621.577	0.0142548
621.655	0.0142051
621.733	0.0141296
621.811	0.0141240
621.890	0.0139907
621.968	0.0141248
622.046	0.0142148
622.124	0.0143646
622.202	0.0145583
622.280	0.0148756
622.358	0.0150710
622.436	0.0151610
622.515	0.0154835
622.593	0.0156175
622.671	0.0159865
622.749	0.0161558
622.827	0.0164393
622.905	0.0165049
622.983	0.0167325
623.061	0.0169231
623.140	0.0170621
623.218	0.0170844
623.296	0.0170467
623.374	0.0170033
623.452	0.0172282
623.530	0.0172157
623.608	0.0171126
623.686	0.0171962
623.765	0.0172301
623.843	0.0172929
623.921	0.0171105
623.999	0.0172268
624.077	0.0173899
624.155	0.0173563
624.233	0.0173806
624.311	0.0174431
624.390	0.0174992
624.468	0.0175022
624.546	0.0176080
624.624	0.0176874
624.702	0.0175340
624.780	0.0176673
624.858	0.0176756
624.936	0.0175260
625.015	0.0174728
625.093	0.0173828
625.171	0.0173657
625.249	0.0172201
625.327	0.0170831
625.405	0.0166509
625.483	0.0165380
625.561	0.0164504
625.640	0.0162498
625.718	0.0159834
625.796	0.0157976
625.874	0.0156137
625.952	0.0153168
626.030	0.0152039
626.108	0.0150895
626.186	0.0148487
626.265	0.0145804
626.343	0.0144070
626.421	0.0142690
626.499	0.0140957
626.577	0.0139401
626.655	0.0139462
626.733	0.0140412
626.811	0.0140936
626.890	0.0140160
626.968	0.0141434
627.046	0.0143229
627.124	0.0144109
627.202	0.0146928
627.280	0.0149334
627.358	0.0153383
627.436	0.0156396
627.515	0.0159135
627.593	0.0161719
627.671	0.0164579
627.749	0.0167354
627.827	0.0170900
627.905	0.0173950
627.983	0.0177678
628.061	0.0178888
628.140	0.0181963
628.218	0.0182613
628.296	0.0182985
628.374	0.0184695
628.452	0.0185871
628.530	0.0186521
628.608	0.0184244
628.686	0.0185999
628.765	0.0185489
628.843	0.0187563
628.921	0.0184611
628.999	0.0183789
629.077	0.0180640
629.155	0.0181017
629.233	0.0178873
629.311	0.0176445
629.390	0.0175892
629.468	0.0174491
629.546	0.0171951
629.624	0.0170489
629.702	0.0168259
629.780	0.0168445
629.858	0.0164278
629.936	0.0161890
630.015	0.0160078
630.093	0.0158595
630.171	0.0158379
630.249	0.0154536
630.327	0.0152334
630.405	0.0149822
630.483	0.0147892
630.561	0.0146312
630.640	0.0145148
630.718	0.0144098
630.796	0.0142361
630.874	0.0142645
630.952	0.0141262
631.030	0.0141151
631.108	0.0142208
631.186	0.0143450
631.265	0.0143737
631.343	0.0143539
631.421	0.0145810
631.499	0.0147892
631.577	0.0149419
631.655	0.0150793
631.733	0.0152805
631.811	0.0155927
631.890	0.0158600
631.968	0.0160297
632.046	0.0161864
632.124	0.0162772
632.202	0.0165775
632.280	0.0168739
632.358	0.0170375
632.436	0.0172649
632.515	0.0173409
632.593	0.0175282
632.671	0.0177805
632.749	0.0178825
632.827	0.0180470
632.905	0.0181686
632.983	0.0180708
633.061	0.0181512
633.140	0.0181298
633.218	0.0180157
633.296	0.0179875
633.374	0.0176847
633.452	0.0175708
633.530	0.0173669
633.608	0.0170857
633.686	0.0168848
633.765	0.0166616
633.843	0.0164400
633.921	0.0162624
633.999	0.0161099
634.077	0.0159102
634.155	0.0157384
634.233	0.0156305
634.311	0.0154488
634.390	0.0152948
634.468	0.0152364
634.546	0.0152044
634.624	0.0153540
634.702	0.0153770
634.780	0.0153596
634.858	0.0153696
634.936	0.0152858
635.015	0.0156973
635.093	0.0156600
635.171	0.0159431
635.249	0.0160931
635.327	0.0163173
635.405	0.0164180
635.483	0.0165017
635.561	0.0166765
635.640	0.0166662
635.718	0.0170052
635.796	0.0170303
635.874	0.0171547
635.952	0.0171087
636.030	0.0172874
636.108	0.0172611
636.186	0.0173248
636.265	0.0172773
636.343	0.0174223
636.421	0.0174127
636.499	0.0173124
636.577	0.0171446
636.655	0.0172855
636.733	0.0172584
636.811	0.0172555
636.890	0.0169185
636.968	0.0167992
637.046	0.0167294
637.124	0.0166746
637.202	0.0162878
637.280	0.0159908
637.358	0.0158469
637.436	0.0157181
637.515	0.0155640
637.593	0.0155017
637.671	0.0153286
637.749	0.0151836
637.827	0.0150966
637.905	0.0149626
637.983	0.0149165
638.061	0.0149868
638.140	0.0148515
638.218	0.0147130
638.296	0.0150334
638.374	0.0150153
638.452	0.0150011
638.530	0.0150879
638.608	0.0149834
638.686	0.0150526
638.765	0.0153384
638.843	0.0154907
638.921	0.0154539
638.999	0.0155978
639.077	0.0159002
639.155	0.0161063
639.233	0.0162704
639.311	0.0166798
639.390	0.0169154
639.468	0.0170513
639.546	0.0173631
639.624	0.0175011
639.702	0.0177206
639.780	0.0178138
639.858	0.0179977
639.936	0.0183229
640.015	0.0184561
640.093	0.0184214
640.171	0.0186085
640.249	0.0185618
640.327	0.0186523
640.405	0.0186041
640.483	0.0186205
640.561	0.0183671
640.640	0.0183402
640.718	0.0184074
640.796	0.0182923
640.874	0.0180505
640.952	0.0179133
641.030	0.0175630
641.108	0.0173815
641.186	0.0171567
641.265	0.0171092
641.343	0.0168880
641.421	0.0165556
641.499	0.0164522
641.577	0.0162620
641.655	0.0158997
641.733	0.0158640
641.811	0.0156004
641.890	0.0155182
641.968	0.0153724
642.046	0.0150438
642.124	0.0150166
642.202	0.0147190
642.280	0.0145588
642.358	0.0145327
642.436	0.0143217
642.515	0.0142744
642.593	0.0142605
642.671	0.0143298
642.749	0.0144955
642.827	0.0147634
642.905	0.0148893
642.983	0.0150452
643.061	0.0153458
643.140	0.0154676
643.218	0.0157730
643.296	0.0159878
643.374	0.0162590
643.452	0.0164489
643.530	0.0163632
643.608	0.0164208
643.686	0.0165881
643.765	0.0168024
643.843	0.0167440
643.921	0.0166317
643.999	0.0169829
644.077	0.0168719
644.155	0.0167337
644.233	0.0167041
644.311	0.0167307
644.390	0.0167268
644.468	0.0166679
644.546	0.0165332
644.624	0.0164918
644.702	0.0165432
644.780	0.0164269
644.858	0.0164249
644.936	0.0164840
645.015	0.0162488
645.093	0.0163416
645.171	0.0164224
645.249	0.0164855
645.327	0.0165805
645.405	0.0165338
645.483	0.0165614
645.561	0.0164802
645.640	0.0165811
645.718	0.0166679
645.796	0.0165044
645.874	0.0166183
645.952	0.0166737
646.030	0.0166302
646.108	0.0167161
646.186	0.0168040
646.265	0.0167859
646.343	0.0169498
646.421	0.0169451
646.499	0.0170980
646.577	0.0172318
646.655	0.0173600
646.733	0.0173714
646.811	0.0174886
646.890	0.0176263
646.968	0.0176366
647.046	0.0177464
647.124	0.0177706
647.202	0.0176231
647.280	0.0176214
647.358	0.0174325
647.436	0.0174220
647.515	0.0173656
647.593	0.0171580
647.671	0.0170176
647.749	0.0168052
647.827	0.0164043
647.905	0.0162354
647.983	0.0161845
648.061	0.0161046
648.140	0.0156844
648.218	0.0153367
648.296	0.0152549
648.374	0.0151964
648.452	0.0148387
648.530	0.0148676
648.608	0.0147451
648.686	0.0143686
648.765	0.0143112
648.843	0.0144629
648.921	0.0142488
648.999	0.0142279
649.077	0.0141708
649.155	0.0142073
649.233	0.0141630
649.311	0.0143517
649.390	0.0144263
649.468	0.0144175
649.546	0.0147217
649.624	0.0149319
649.702	0.0149315
649.780	0.0152281
649.858	0.0153620
649.936	0.0156792
650.015	0.0157159
650.093	0.0158887
650.171	0.0160378
650.249	0.0163428
650.327	0.0164198
650.405	0.0166680
650.483	0.0166119
650.561	0.0168542
650.640	0.0171258
650.718	0.0173159
650.796	0.0174037
650.874	0.0176129
650.952	0.0178704
651.030	0.0180362
651.108	0.0180915
651.186	0.0183009
651.265	0.0183994
651.343	0.0185361
651.421	0.0184900
651.499	0.0185907
651.577	0.0185968
651.655	0.0185867
651.733	0.0185287
651.811	0.0183302
651.890	0.0181872
651.968	0.0179002
652.046	0.0178889
652.124	0.0174901
652.202	0.0171525
652.280	0.0169688
652.358	0.0168216
652.436	0.0163836
652.515	0.0160150
652.593	0.0158391
652.671	0.0156129
652.749	0.0152652
652.827	0.0151192
652.905	0.0150248
652.983	0.0148036
653.061	0.0145753
653.140	0.0146600
653.218	0.0146706
653.296	0.0145461
653.374	0.0144700
653.452	0.0146290
653.530	0.0146158
653.608	0.0147085
653.686	0.0147856
653.765	0.0149345
653.843	0.0150553
653.921	0.0153525
653.999	0.0154333
654.077	0.0157155
654.155	0.0156548
654.233	0.0160432
654.311	0.0161767
654.390	0.0163859
654.468	0.0167403
654.546	0.0168622
654.624	0.0169411
654.702	0.0171035
654.780	0.0171863
654.858	0.0172024
654.936	0.0173679
655.015	0.0172531
655.093	0.0172345
655.171	0.0172948
655.249	0.0174538
655.327	0.0174230
655.405	0.0172404
655.483	0.0170811
655.561	0.0172172
655.640	0.0171423
655.718	0.0169817
655.796	0.0168461
655.874	0.0168250
655.952	0.0166209
656.030	0.0164884
656.108	0.0163686
656.186	0.0161446
656.265	0.0160754
656.343	0.0158702
656.421	0.0156989
656.499	0.0154485
656.577	0.0155105
656.655	0.0153502
656.733	0.0153476
656.811	0.0152438
656.890	0.0154742
656.968	0.0153814
657.046	0.0152563
657.124	0.0153412
657.202	0.0153825
657.280	0.0153827
657.358	0.0156622
657.436	0.0156708
657.515	0.0157970
657.593	0.0159549
657.671	0.0159433
657.749	0.0162048
657.827	0.0163038
657.905	0.0164663
657.983	0.0167199
658.061	0.0166006
658.140	0.0167561
658.218	0.0168327
658.296	0.0170634
658.374	0.0170154
658.452	0.0171937
658.530	0.0170753
658.608	0.0172336
658.686	0.0173117
658.765	0.0173408
658.843	0.0173026
658.921	0.0173111
658.999	0.0174335
659.077	0.0174131
659.155	0.0172237
659.233	0.0172694
659.311	0.0170296
659.390	0.0169469
659.468	0.0169359
659.546	0.0167355
659.624	0.0165990
659.702	0.0165944
659.780	0.0165070
659.858	0.0163218
659.936	0.0162823
660.015	0.0162257
660.093	0.0161889
660.171	0.0161285
660.249	0.0162083
660.327	0.0160459
660.405	0.0160111
660.483	0.0159837
660.561	0.0158376
660.640	0.0159855
660.718	0.0159233
660.796	0.0157886
660.874	0.0156876
660.952	0.0156834
661.030	0.0156482
661.108	0.0156870
661.186	0.0156838
661.265	0.0154832
661.343	0.0156065
661.421	0.0156950
661.499	0.0156877
661.577	0.0158533
661.655	0.0156763
661.733	0.0158121
661.811	0.0158820
661.890	0.0158905
661.968	0.0160231
662.046	0.0159869
662.124	0.0162804
662.202	0.0162489
662.280	0.0161737
662.358	0.0162865
662.436	0.0164091
662.515	0.0164941
662.593	0.0166405
662.671	0.0167631
662.749	0.0167391
662.827	0.0167800
662.905	0.0169043
662.983	0.0170188
663.061	0.0168157
663.140	0.0169451
663.218	0.0170044
663.296	0.0170155
663.374	0.0168853
663.452	0.0169892
663.530	0.0169765
663.608	0.0168213
663.686	0.0168121
663.765	0.0167781
663.843	0.0166724
663.921	0.0167471
663.999	0.0166857
664.077	0.0166109
664.155	0.0164996
664.233	0.0166085
664.311	0.0164003
664.390	0.0162451
664.468	0.0162806
664.546	0.0161210
664.624	0.0160641
664.702	0.0160362
664.780	0.0160571
664.858	0.0162093
664.936	0.0160378
665.015	0.0158188
665.093	0.0161242
665.171	0.0161748
665.249	0.0160003
665.327	0.0159853
665.405	0.0159877
665.483	0.0159132
665.561	0.0159079
665.640	0.0158878
665.718	0.0159827
665.796	0.0159678
665.874	0.0160583
665.952	0.0160291
666.030	0.0159454
666.108	0.0160613
666.186	0.0162443
666.265	0.0161311
666.343	0.0162058
666.421	0.0163950
666.499	0.0164610
666.577	0.0165146
666.655	0.0165739
666.733	0.0166769
666.811	0.0167883
666.890	0.0169479
666.968	0.0168605
667.046	0.0168672
667.124	0.0168732
667.202	0.0168209
667.280	0.0167613
667.358	0.0168426
667.436	0.0168165
667.515	0.0167357
667.593	0.0166071
667.671	0.0166138
667.749	0.0164888
667.827	0.0165129
667.905	0.0165444
667.983	0.0163278
668.061	0.0162896
668.140	0.0163428
668.218	0.0161465
668.296	0.0161301
668.374	0.0161065
668.452	0.0158730
668.530	0.0159299
668.608	0.0158370
668.686	0.0157690
668.765	0.0157469
668.843	0.0154814
668.921	0.0156464
668.999	0.0155094
669.077	0.0156031
669.155	0.0156696
669.233	0.0155531
669.311	0.0155998
669.390	0.0157013
669.468	0.0156732
669.546	0.0157415
669.624	0.0158216
669.702	0.0158994
669.780	0.0159650
669.858	0.0160186
669.936	0.0162507
670.015	0.0162766
670.093	0.0164687
670.171	0.0164610
670.249	0.0166400
670.327	0.0167187
670.405	0.0167308
670.483	0.0169189
670.561	0.0169895
670.640	0.0169680
670.718	0.0170918
670.796	0.0170870
670.874	0.0170351
670.952	0.0172362
671.030	0.0170787
671.108	0.0171465
671.186	0.0170728
671.265	0.0169892
671.343	0.0170022
671.421	0.0171931
671.499	0.0170624
671.577	0.0169224
671.655	0.0168456
671.733	0.0169318
671.811	0.0168468
671.890	0.0167288
671.968	0.0166441
672.046	0.0165486
672.124	0.0166127
672.202	0.0164771
672.280	0.0163813
672.358	0.0164429
672.436	0.0162904
672.515	0.0162573
672.593	0.0163320
672.671	0.0163423
672.749	0.0163267
672.827	0.0162157
672.905	0.0164263
672.983	0.0163583
673.061	0.0160632
673.140	0.0160894
673.218	0.0161489
673.296	0.0160163
673.374	0.0160558
673.452	0.0159238
673.530	0.0158025
673.608	0.0154903
673.686	0.0156257
673.765	0.0155833
673.843	0.0154634
673.921	0.0153836
673.999	0.0153708
674.077	0.0153736
674.155	0.0153391
674.233	0.0153735
674.311	0.0154786
674.390	0.0154243
674.468	0.0153744
674.546	0.0155468
674.624	0.0156822
674.702	0.0157565
674.780	0.0160176
674.858	0.0159866
674.936	0.0159901
675.015	0.0161954
675.093	0.0164397
675.171	0.0164713
675.249	0.0165697
675.327	0.0167884
675.405	0.0167628
675.483	0.0169836
675.561	0.0171804
675.640	0.0172053
675.718	0.0172463
675.796	0.0174440
675.874	0.0174437
675.952	0.0172552
676.030	0.0173114
676.108	0.0172535
676.186	0.0171551
676.265	0.0172008
676.343	0.0170711
676.421	0.0169464
676.499	0.0169254
676.577	0.0166217
676.655	0.0167335
676.733	0.0166267
676.811	0.0164699
676.890	0.0162505
676.968	0.0162025
677.046	0.0162581
677.124	0.0162012
677.202	0.0161500
677.280	0.0161678
677.358	0.0162753
677.436	0.0162122
677.515	0.0163338
677.593	0.0162752
677.671	0.0163599
677.749	0.0163224
677.827	0.0162884
677.905	0.0164397
677.983	0.0164840
678.061	0.0162858
678.140	0.0162489
678.218	0.0162663
678.296	0.0164198
678.374	0.0164186
678.452	0.0163762
678.530	0.0163746
678.608	0.0163647
678.686	0.0164394
678.765	0.0163657
678.843	0.0163619
678.921	0.0164143
678.999	0.0161983
679.077	0.0163219
679.155	0.0163345
679.233	0.0161113
679.311	0.0161227
679.390	0.0161243
679.468	0.0160263
679.546	0.0160290
679.624	0.0158904
679.702	0.0158018
679.780	0.0158948
679.858	0.0159136
679.936	0.0158675
680.015	0.0159408
680.093	0.0161057
680.171	0.0162466
680.249	0.0162313
680.327	0.0163409
680.405	0.0163563
680.483	0.0164733
680.561	0.0165453
680.640	0.0165382
680.718	0.0164733
680.796	0.0165337
680.874	0.0166788
680.952	0.0164535
681.030	0.0165607
681.108	0.0166165
681.186	0.0165097
681.265	0.0165762
681.343	0.0165662
681.421	0.0165187
681.499	0.0162853
681.577	0.0164906
681.655	0.0164701
681.733	0.0166047
681.811	0.0163790
681.890	0.0163533
681.968	0.0164974
682.046	0.0163037
682.124	0.0163544
682.202	0.0164351
682.280	0.0164092
682.358	0.0163468
682.436	0.0164672
682.515	0.0164970
682.593	0.0164323
682.671	0.0164014
682.749	0.0164597
682.827	0.0164108
682.905	0.0164865
682.983	0.0163422
683.061	0.0163454
683.140	0.0162458
683.218	0.0163020
683.296	0.0162433
683.374	0.0163277
683.452	0.0161301
683.530	0.0162472
683.608	0.0161144
683.686	0.0160485
683.765	0.0160700
683.843	0.0161406
683.921	0.0161571
683.999	0.0159927
684.077	0.0158528
684.155	0.0159429
684.233	0.0157710
684.311	0.0158062
684.390	0.0159355
684.468	0.0159351
684.546	0.0158762
684.624	0.0158048
684.702	0.0159071
684.780	0.0160609
684.858	0.0160195
684.936	0.0160796
685.015	0.0160188
685.093	0.0159729
685.171	0.0161342
685.249	0.0162203
685.327	0.0163357
685.405	0.0163207
685.483	0.0162788
685.561	0.0161576
685.640	0.0162750
685.718	0.0162802
685.796	0.0161520
685.874	0.0163358
685.952	0.0165518
686.030	0.0164637
686.108	0.0163405
686.186	0.0164994
686.265	0.0164564
686.343	0.0165455
686.421	0.0164605
686.499	0.0163917
686.577	0.0166155
686.655	0.0165501
686.733	0.0164000
686.811	0.0163943
686.890	0.0164391
686.968	0.0164455
687.046	0.0164452
687.124	0.0165012
687.202	0.0165027
687.280	0.0163084
687.358	0.0163881
687.436	0.0162079
687.515	0.0162959
687.593	0.0163318
687.671	0.0163306
687.749	0.0163629
687.827	0.0163171
687.905	0.0162838
687.983	0.0161327
688.061	0.0162615
688.140	0.0162201
688.218	0.0161614
688.296	0.0161076
688.374	0.0161119
688.452	0.0163052
688.530	0.0161987
688.608	0.0159417
688.686	0.0161438
688.765	0.0161833
688.843	0.0161761
688.921	0.0160808
688.999	0.0161205
689.077	0.0162206
689.155	0.0161780
689.233	0.0163137
689.311	0.0163145
689.390	0.0163988
689.468	0.0164354
689.546	0.0165024
689.624	0.0165603
689.702	0.0165208
689.780	0.0166762
689.858	0.0166563
689.936	0.0167128
690.015	0.0167859
690.093	0.0169141
690.171	0.0168295
690.249	0.0168305
690.327	0.0169518
690.405	0.0169830
690.483	0.0169794
690.561	0.0169443
690.640	0.0167700
690.718	0.0167641
690.796	0.0167979
690.874	0.0168390
690.952	0.0167678
691.030	0.0167337
691.108	0.0164703
691.186	0.0164352
691.265	0.0163848
691.343	0.0162795
691.421	0.0161126
691.499	0.0159553
691.577	0.0159438
691.655	0.0160591
691.733	0.0159626
691.811	0.0158302
691.890	0.0160981
691.968	0.0159368
692.046	0.0158851
692.124	0.0159261
692.202	0.0159740
692.280	0.0160347
692.358	0.0161822
692.436	0.0161404
692.515	0.0160789
692.593	0.0162930
692.671	0.0162343
692.749	0.0163239
692.827	0.0163386
692.905	0.0163363
692.983	0.0164561
693.061	0.0163065
693.140	0.0164905
693.218	0.0164505
693.296	0.0163183
693.374	0.0165713
693.452	0.0164331
693.530	0.0163244
693.608	0.0163941
693.686	0.0162696
693.765	0.0164670
693.843	0.0164132
693.921	0.0164788
693.999	0.0162867
694.077	0.0163854
694.155	0.0164399
694.233	0.0163514
694.311	0.0163271
694.390	0.0164624
694.468	0.0163775
694.546	0.0162209
694.624	0.0163754
694.702	0.0163297
694.780	0.0163890
694.858	0.0162817
694.936	0.0161877
695.015	0.0161447
695.093	0.0163116
695.171	0.0161683
695.249	0.0161201
695.327	0.0162872
695.405	0.0162767
695.483	0.0163846
695.561	0.0163320
695.640	0.0163100
695.718	0.0162553
695.796	0.0162273
695.874	0.0162033
695.952	0.0163052
696.030	0.0163382
696.108	0.0162894
696.186	0.0162547
696.265	0.0162111
696.343	0.0162144
696.421	0.0160716
696.499	0.0161501
696.577	0.0161827
696.655	0.0160468
696.733	0.0161237
696.811	0.0163799
696.890	0.0162360
696.968	0.0161802
697.046	0.0163273
697.124	0.0163474
697.202	0.0163231
697.280	0.0163203
697.358	0.0162391
697.436	0.0163280
697.515	0.0165814
697.593	0.0165379
697.671	0.0163213
697.749	0.0162761
697.827	0.0163744
697.905	0.0163714
697.983	0.0162816
698.061	0.0162115
698.140	0.0162340
698.218	0.0161661
698.296	0.0160120
698.374	0.0160542
698.452	0.0160246
698.530	0.0161631
698.608	0.0160344
698.686	0.0161681
698.765	0.0161202
698.843	0.0161169
698.921	0.0160288
698.999	0.0162139
699.077	0.0160463
699.155	0.0161265
699.233	0.0161855
699.311	0.0162743
699.390	0.0161136
699.468	0.0161802
699.546	0.0161890
699.624	0.0162671
699.702	0.0164628
699.780	0.0163219
699.858	0.0162931
699.936	0.0162578
700.015	0.0166145
700.093	0.0166218
700.171	0.0165200
700.249	0.0166824
700.327	0.0166091
700.405	0.0168115
700.483	0.0167586
700.561	0.0166769
700.640	0.0167912
700.718	0.0165611
700.796	0.0166019
700.874	0.0168034
700.952	0.0166190
701.030	0.0166318
701.108	0.0166731
701.186	0.0166782
701.265	0.0165506
701.343	0.0165002
701.421	0.0164484
701.499	0.0165246
701.577	0.0166100
701.655	0.0166164
701.733	0.0163234
701.811	0.0163262
701.890	0.0163721
701.968	0.0165018
702.046	0.0164004
702.124	0.0163480
702.202	0.0163243
702.280	0.0164187
702.358	0.0163715
702.436	0.0164478
702.515	0.0164086
702.593	0.0164823
702.671	0.0164557
702.749	0.0164916
702.827	0.0163580
702.905	0.0163346
702.983	0.0163968
703.061	0.0164943
703.140	0.0164836
703.218	0.0165420
703.296	0.0164837
703.374	0.0164371
703.452	0.0164018
703.530	0.0163750
703.608	0.0164198
703.686	0.0164519
703.765	0.0164149
703.843	0.0164454
703.921	0.0164996
703.999	0.0163408
704.077	0.0163194
704.155	0.0163378
704.233	0.0164144
704.311	0.0163741
704.390	0.0162572
704.468	0.0163478
704.546	0.0163380
704.624	0.0164468
704.702	0.0164119
704.780	0.0163548
704.858	0.0163308
704.936	0.0164102
705.015	0.0163554
705.093	0.0162425
705.171	0.0161232
705.249	0.0162334
705.327	0.0161502
705.405	0.0162585
705.483	0.0162958
705.561	0.0161016
705.640	0.0162422
705.718	0.0162421
705.796	0.0161619
705.874	0.0161120
705.952	0.0159930
706.030	0.0161225
706.108	0.0160483
706.186	0.0159916
706.265	0.0161477
706.343	0.0159435
706.421	0.0159178
706.499	0.0157321
706.577	0.0158572
706.655	0.0157865
706.733	0.0157117
706.811	0.0158493
706.890	0.0158797
706.968	0.0158411
707.046	0.0159780
707.124	0.0160201
707.202	0.0159559
707.280	0.0160465
707.358	0.0161364
707.436	0.0162179
707.515	0.0163283
707.593	0.0163338
707.671	0.0163075
707.749	0.0165375
707.827	0.0164346
707.905	0.0163610
707.983	0.0165503
708.061	0.0165963
708.140	0.0166158
708.218	0.0166483
708.296	0.0166061
708.374	0.0166990
708.452	0.0167325
708.530	0.0165934
708.608	0.0165787
708.686	0.0166556
708.765	0.0164854
708.843	0.0165716
708.921	0.0165384
708.999	0.0164836
709.077	0.0165952
709.155	0.0165995
709.233	0.0163600
709.311	0.0165318
709.390	0.0166280
709.468	0.0165186
709.546	0.0165904
709.624	0.0164065
709.702	0.0163573
709.780	0.0164906
709.858	0.0166433
709.936	0.0165414
710.015	0.0165282
710.093	0.0166468
710.171	0.0166721
710.249	0.0166441
710.327	0.0167199
710.405	0.0167128
710.483	0.0167311
710.561	0.0167554
710.640	0.0167393
710.718	0.0167867
710.796	0.0167485
710.874	0.0166879
710.952	0.0167132
711.030	0.0168123
711.108	0.0167658
711.186	0.0165828
711.265	0.0165743
711.343	0.0166725
711.421	0.0165272
711.499	0.0165546
711.577	0.0165559
711.655	0.0166290
711.733	0.0165379
711.811	0.0164690
711.890	0.0164082
711.968	0.0165482
712.046	0.0165212
712.124	0.0162556
712.202	0.0162220
712.280	0.0164674
712.358	0.0163943
712.436	0.0162655
712.515	0.0161570
712.593	0.0162121
712.671	0.0161866
712.749	0.0160533
712.827	0.0162141
712.905	0.0162920
712.983	0.0161530
713.061	0.0161736
713.140	0.0159915
713.218	0.0160099
713.296	0.0160589
713.374	0.0159205
713.452	0.0159260
713.530	0.0159557
713.608	0.0159630
713.686	0.0158942
713.765	0.0157512
713.843	0.0158857
713.921	0.0158766
713.999	0.0158896
714.077	0.0159789
714.155	0.0159524
714.233	0.0159436
714.311	0.0158980
714.390	0.0158572
714.468	0.0158891
714.546	0.0160262
714.624	0.0160020
714.702	0.0159675
714.780	0.0161993
714.858	0.0161192
714.936	0.0160569
715.015	0.0162867
715.093	0.0163213
715.171	0.0163682
715.249	0.0164195
715.327	0.0163865
715.405	0.0163486
715.483	0.0165193
715.561	0.0166718
715.640	0.0166345
715.718	0.0165044
715.796	0.0166970
715.874	0.0165638
715.952	0.0167811
716.030	0.0167095
716.108	0.0166093
716.186	0.0166631
716.265	0.0167210
716.343	0.0166425
716.421	0.0165807
716.499	0.0166167
716.577	0.0165424
716.655	0.0165475
716.733	0.0165832
716.811	0.0165546
716.890	0.0166085
716.968	0.0164427
717.046	0.0162241
717.124	0.0161829
717.202	0.0162614
717.280	0.0161765
717.358	0.0160613
717.436	0.0159870
717.515	0.0161810
717.593	0.0160411
717.671	0.0160120
717.749	0.0159786
717.827	0.0160091
717.905	0.0161440
717.983	0.0161350
718.061	0.0160206
718.140	0.0161087
718.218	0.0162104
718.296	0.0162105
718.374	0.0162629
718.452	0.0162875
718.530	0.0164613
718.608	0.0162936
718.686	0.0164175
718.765	0.0162766
718.843	0.0164555
718.921	0.0164710
718.999	0.0164275
719.077	0.0164769
719.155	0.0163960
719.233	0.0165642
719.311	0.0166148
719.390	0.0163909
719.468	0.0166058
719.546	0.0166125
719.624	0.0166162
719.702	0.0164672
719.780	0.0165410
719.858	0.0164743
719.936	0.0165767
720.015	0.0166100
720.093	0.0164906
720.171	0.0166367
720.249	0.0166208
720.327	0.0167287
720.405	0.0166641
720.483	0.0166896
720.561	0.0166268
720.640	0.0166005
720.718	0.0166296
720.796	0.0166925
720.874	0.0167506
720.952	0.0165504
721.030	0.0166602
721.108	0.0166789
721.186	0.0166982
721.265	0.0165611
721.343	0.0166599
721.421	0.0165491
721.499	0.0165328
721.577	0.0165880
721.655	0.0165786
721.733	0.0164091
721.811	0.0164714
721.890	0.0162870
721.968	0.0162962
722.046	0.0162974
722.124	0.0163341
722.202	0.0162099
722.280	0.0161053
722.358	0.0160961
722.436	0.0161204
722.515	0.0159116
722.593	0.0159221
722.671	0.0159502
722.749	0.0159134
722.827	0.0159349
722.905	0.0157549
722.983	0.0159460
723.061	0.0158438
723.140	0.0159487
723.218	0.0160258
723.296	0.0159224
723.374	0.0160444
723.452	0.0160516
723.530	0.0161005
723.608	0.0162615
723.686	0.0162130
723.765	0.0164388
723.843	0.0162965
723.921	0.0163219
723.999	0.0163191
724.077	0.0164888
724.155	0.0166203
724.233	0.0166228
724.311	0.0165460
724.390	0.0164809
724.468	0.0165346
724.546	0.0166074
724.624	0.0166910
724.702	0.0168253
724.780	0.0168708
724.858	0.0167786
724.936	0.0168719
725.015	0.0167796
725.093	0.0167419
725.171	0.0168526
725.249	0.0169042
725.327	0.0167486
725.405	0.0168260
725.483	0.0168764
725.561	0.0168409
725.640	0.0166810
725.718	0.0167773
725.796	0.0167266
725.874	0.0167056
725.952	0.0165817
726.030	0.0166340
726.108	0.0168140
726.186	0.0165620
726.265	0.0167094
726.343	0.0166171
726.421	0.0165465
726.499	0.0165330
726.577	0.0165265
726.655	0.0163931
726.733	0.0163573
726.811	0.0163802
726.890	0.0162853
726.968	0.0162665
727.046	0.0162460
727.124	0.0160410
727.202	0.0159073
727.280	0.0157940
727.358	0.0157619
727.436	0.0157738
727.515	0.0156657
727.593	0.0157484
727.671	0.0156705
727.749	0.0156812
727.827	0.0156870
727.905	0.0157195
727.983	0.0156615
728.061	0.0157092
728.140	0.0158327
728.218	0.0157941
728.296	0.0159038
728.374	0.0158907
728.452	0.0159309
728.530	0.0160164
728.608	0.0161241
728.686	0.0160793
728.765	0.0159095
728.843	0.0162404
728.921	0.0161420
728.999	0.0161115
729.077	0.0163123
729.155	0.0163020
729.233	0.0162581
729.311	0.0163297
729.390	0.0165007
729.468	0.0162799
729.546	0.0162362
729.624	0.0163663
729.702	0.0164140
729.780	0.0164938
729.858	0.0163776
729.936	0.0163297
730.015	0.0162440
730.093	0.0163548
730.171	0.0162913
730.249	0.0163837
730.327	0.0162887
730.405	0.0163062
730.483	0.0162263
730.561	0.0164400
730.640	0.0163784
730.718	0.0162863
730.796	0.0163413
730.874	0.0163969
730.952	0.0164487
731.030	0.0163721
731.108	0.0164176
731.186	0.0165858
731.265	0.0165170
731.343	0.0164836
731.421	0.0164960
731.499	0.0165929
731.577	0.0166241
731.655	0.0166803
731.733	0.0166287
731.811	0.0165158
731.890	0.0165302
731.968	0.0167509
732.046	0.0166972
732.124	0.0167654
732.202	0.0168007
732.280	0.0166341
732.358	0.0166559
732.436	0.0167018
732.515	0.0168351
732.593	0.0167297
732.671	0.0166944
732.749	0.0167590
732.827	0.0167993
732.905	0.0165569
732.983	0.0165749
733.061	0.0167637
733.140	0.0165509
733.218	0.0166873
733.296	0.0166724
733.374	0.0164133
733.452	0.0163293
733.530	0.0164150
733.608	0.0162747
733.686	0.0161761
733.765	0.0161958
733.843	0.0161407
733.921	0.0161671
733.999	0.0161568
734.077	0.0159689
734.155	0.0160721
734.233	0.0161230
734.311	0.0160748
734.390	0.0161187
734.468	0.0160598
734.546	0.0159908
734.624	0.0160669
734.702	0.0160915
734.780	0.0160748
734.858	0.0161253
734.936	0.0161661
735.015	0.0161510
735.093	0.0161217
735.171	0.0162513
735.249	0.0163415
735.327	0.0161485
735.405	0.0162664
735.483	0.0163651
735.561	0.0164592
735.640	0.0162620
735.718	0.0163277
735.796	0.0164063
735.874	0.0165001
735.952	0.0164668
736.030	0.0165854
736.108	0.0165376
736.186	0.0166737
736.265	0.0163585
736.343	0.0164211
736.421	0.0164625
736.499	0.0164901
736.577	0.0164970
736.655	0.0166320
736.733	0.0165614
736.811	0.0165225
736.890	0.0164637
736.968	0.0166178
737.046	0.0165934
737.124	0.0164992
737.202	0.0164688
737.280	0.0165575
737.358	0.0165887
737.436	0.0164188
737.515	0.0166287
737.593	0.0166608
737.671	0.0165097
737.749	0.0166187
737.827	0.0166340
737.905	0.0164867
737.983	0.0163871
738.061	0.0164670
738.140	0.0164883
738.218	0.0164139
738.296	0.0162900
738.374	0.0163266
738.452	0.0163652
738.530	0.0162431
738.608	0.0162386
738.686	0.0161929
738.765	0.0162983
738.843	0.0161890
738.921	0.0162495
738.999	0.0161937
739.077	0.0161903
739.155	0.0161716
739.233	0.0162178
739.311	0.0162204
739.390	0.0162005
739.468	0.0162112
739.546	0.0161089
739.624	0.0161910
739.702	0.0161635
739.780	0.0162674
739.858	0.0164214
739.936	0.0162910
740.015	0.0162981
740.093	0.0163953
740.171	0.0164289
740.249	0.0164086
740.327	0.0164120
740.405	0.0165204
740.483	0.0165433
740.561	0.0165321
740.640	0.0166135
740.718	0.0165589
740.796	0.0165668
740.874	0.0165638
740.952	0.0167463
741.030	0.0166135
741.108	0.0166602
741.186	0.0167137
741.265	0.0165112
741.343	0.0165593
741.421	0.0166476
741.499	0.0165889
741.577	0.0166113
741.655	0.0165486
741.733	0.0165069
741.811	0.0165585
741.890	0.0166496
741.968	0.0165979
742.046	0.0164848
742.124	0.0165331
742.202	0.0164162
742.280	0.0164253
742.358	0.0164555
742.436	0.0163838
742.515	0.0163565
742.593	0.0165143
742.671	0.0164890
742.749	0.0164094
742.827	0.0165414
742.905	0.0164565
742.983	0.0165353
743.061	0.0163873
743.140	0.0164611
743.218	0.0164277
743.296	0.0163618
743.374	0.0162935
743.452	0.0164733
743.530	0.0164574
743.608	0.0163051
743.686	0.0163114
743.765	0.0163837
743.843	0.0162872
743.921	0.0161895
743.999	0.0161677
744.077	0.0162505
744.155	0.0162787
744.233	0.0159890
744.311	0.0161256
744.390	0.0160185
744.468	0.0158717
744.546	0.0158942
744.624	0.0159089
744.702	0.0159332
744.780	0.0159270
744.858	0.0159141
744.936	0.0159767
745.015	0.0159541
745.093	0.0158704
745.171	0.0160249
745.249	0.0158930
745.327	0.0158699
745.405	0.0160062
745.483	0.0160808
745.561	0.0160031
745.640	0.0160673
745.718	0.0161806
745.796	0.0161447
745.874	0.0161051
745.952	0.0163475
746.030	0.0161259
746.108	0.0162682
746.186	0.0163650
746.265	0.0161855
746.343	0.0163361
746.421	0.0162946
746.499	0.0164515
746.577	0.0163784
746.655	0.0162315
746.733	0.0164526
746.811	0.0164203
746.890	0.0164989
746.968	0.0164708
747.046	0.0165131
747.124	0.0164061
747.202	0.0165842
747.280	0.0164272
747.358	0.0165683
747.436	0.0166615
747.515	0.0166194
747.593	0.0165414
747.671	0.0165996
747.749	0.0166808
747.827	0.0165865
747.905	0.0166198
747.983	0.0167314
748.061	0.0166156
748.140	0.0167044
748.218	0.0167996
748.296	0.0166275
748.374	0.0165567
748.452	0.0165442
748.530	0.0165029
748.608	0.0165617
748.686	0.0165599
748.765	0.0165865
748.843	0.0163997
748.921	0.0163063
748.999	0.0164261
749.077	0.0162859
749.155	0.0162804
749.233	0.0163192
749.311	0.0162142
749.390	0.0161392
749.468	0.0161294
749.546	0.0162012
749.624	0.0160655
749.702	0.0161505
749.780	0.0159631
749.858	0.0159450
749.936	0.0159885
750.015	0.0160421
750.093	0.0160741
750.171	0.0161017
750.249	0.0160168
750.327	0.0160602
750.405	0.0160138
750.483	0.0161158
750.561	0.0161134
750.640	0.0159888
750.718	0.0161253
750.796	0.0161365
750.874	0.0160204
750.952	0.0162254
751.030	0.0163223
751.108	0.0161914
751.186	0.0161793
751.265	0.0162202
751.343	0.0163279
751.421	0.0163375
751.499	0.0163533
751.577	0.0163282
751.655	0.0164381
751.733	0.0164180
751.811	0.0163450
751.890	0.0163882
751.968	0.0163499
752.046	0.0165634
752.124	0.0165695
752.202	0.0163369
752.280	0.0164481
752.358	0.0164288
752.436	0.0164559
752.515	0.0164601
752.593	0.0164175
752.671	0.0165826
752.749	0.0164924
752.827	0.0165665
752.905	0.0164861
752.983	0.0163562
753.061	0.0165626
753.140	0.0164391
753.218	0.0164473
753.296	0.0164356
753.374	0.0162590
753.452	0.0162781
753.530	0.0163538
753.608	0.0162498
753.686	0.0161904
753.765	0.0161797
753.843	0.0161079
753.921	0.0161545
753.999	0.0160711
754.077	0.0159840
754.155	0.0160477
754.233	0.0158109
754.311	0.0158471
754.390	0.0158459
754.468	0.0158179
754.546	0.0158438
754.624	0.0158381
754.702	0.0159245
754.780	0.0158797
754.858	0.0161272
754.936	0.0161478
755.015	0.0164133
755.093	0.0164842
755.171	0.0167894
755.249	0.0167763
755.327	0.0169000
755.405	0.0170935
755.483	0.0169899
755.561	0.0171898
755.640	0.0172034
755.718	0.0170541
755.796	0.0169854
755.874	0.0168359
755.952	0.0167998
756.030	0.0166411
756.108	0.0165636
756.186	0.0165469
756.265	0.0165593
756.343	0.0164928
756.421	0.0164272
756.499	0.0164384
756.577	0.0163985
756.655	0.0164558
756.733	0.0164658
756.811	0.0165202
756.890	0.0165228
756.968	0.0163978
757.046	0.0163619
757.124	0.0165026
757.202	0.0164956
757.280	0.0165189
757.358	0.0163403
757.436	0.0162699
757.515	0.0162997
757.593	0.0162136
757.671	0.0162228
757.749	0.0161158
757.827	0.0160525
757.905	0.0160236
757.983	0.0162534
758.061	0.0161557
758.140	0.0160663
758.218	0.0161459
758.296	0.0161161
758.374	0.0161242
758.452	0.0161649
758.530	0.0161628
758.608	0.0162622
758.686	0.0162540
758.765	0.0161780
758.843	0.0163705
758.921	0.0163821
758.999	0.0163084
759.077	0.0163372
759.155	0.0163203
759.233	0.0164351
759.311	0.0163256
759.390	0.0163942
759.468	0.0165497
759.546	0.0163380
759.624	0.0163872
759.702	0.0164353
759.780	0.0163746
759.858	0.0164056
759.936	0.0164471
760.015	0.0165421
760.093	0.0163689
760.171	0.0164214
760.249	0.0163899
760.327	0.0164562
760.405	0.0164704
760.483	0.0163659
760.561	0.0164024
760.640	0.0163931
760.718	0.0163937
760.796	0.0163116
760.874	0.0163713
760.952	0.0164817
761.030	0.0162772
761.108	0.0164829
761.186	0.0163293
761.265	0.0164080
761.343	0.0163684
761.421	0.0164821
761.499	0.0162347
761.577	0.0164739
761.655	0.0164873
761.733	0.0164251
761.811	0.0163316
761.890	0.0163258
761.968	0.0164225
762.046	0.0164442
762.124	0.0163672
762.202	0.0164028
762.280	0.0163476
762.358	0.0163505
762.436	0.0163936
762.515	0.0163528
762.593	0.0163720
762.671	0.0164107
762.749	0.0164351
762.827	0.0163487
762.905	0.0163470
762.983	0.0164366
763.061	0.0161963
763.140	0.0162724
763.218	0.0163617
763.296	0.0164297
763.374	0.0162621
763.452	0.0164544
763.530	0.0164207
763.608	0.0163188
763.686	0.0162505
763.765	0.0162428
763.843	0.0163197
763.921	0.0162408
763.999	0.0161679
764.077	0.0162894
764.155	0.0162357
764.233	0.0162070
764.311	0.0162034
764.390	0.0161141
764.468	0.0160805
764.546	0.0162698
764.624	0.0162022
764.702	0.0161098
764.780	0.0161216
764.858	0.0161152
764.936	0.0161601
765.015	0.0161156
765.093	0.0161412
765.171	0.0161088
765.249	0.0161256
765.327	0.0160995
765.405	0.0162254
765.483	0.0160329
765.561	0.0160619
765.640	0.0161778
765.718	0.0162405
765.796	0.0164308
765.874	0.0162813
765.952	0.0162335
766.030	0.0163298
766.108	0.0163482
766.186	0.0164462
766.265	0.0163311
766.343	0.0164737
766.421	0.0164140
766.499	0.0163986
766.577	0.0164949
766.655	0.0165282
766.733	0.0165386
766.811	0.0163206
766.890	0.0165439
766.968	0.0165605
767.046	0.0164677
767.124	0.0165374
767.202	0.0165475
767.280	0.0165308
767.358	0.0165737
767.436	0.0165222
767.515	0.0166213
767.593	0.0165674
767.671	0.0163684
767.749	0.0164983
767.827	0.0164204
767.905	0.0164043
767.983	0.0164670
768.061	0.0164854
768.140	0.0162524
768.218	0.0164453
768.296	0.0164791
768.374	0.0164420
768.452	0.0163951
768.530	0.0165054
768.608	0.0163364
768.686	0.0162704
768.765	0.0161927
768.843	0.0162430
768.921	0.0161694
768.999	0.0162650
769.077	0.0162539
769.155	0.0160854
769.233	0.0162736
769.311	0.0161568
769.390	0.0160580
769.468	0.0162420
769.546	0.0162089
769.624	0.0162045
769.702	0.0161932
769.780	0.0161522
769.858	0.0161099
769.936	0.0160587
770.015	0.0161098
770.093	0.0160098
770.171	0.0160144
770.249	0.0162503
770.327	0.0161964
770.405	0.0161783
770.483	0.0161290
770.561	0.0161803
770.640	0.0160374
770.718	0.0162070
770.796	0.0162422
770.874	0.0162708
770.952	0.0162269
771.030	0.0162013
771.108	0.0163711
771.186	0.0163554
771.265	0.0162865
771.343	0.0162742
771.421	0.0164448
771.499	0.0163677
771.577	0.0162895
771.655	0.0162588
771.733	0.0164221
771.811	0.0164133
771.890	0.0163937
771.968	0.0163921
772.046	0.0164778
772.124	0.0164937
772.202	0.0165493
772.280	0.0164959
772.358	0.0163832
772.436	0.0164578
772.515	0.0164768
772.593	0.0165575
772.671	0.0163694
772.749	0.0165292
772.827	0.0165351
772.905	0.0163628
772.983	0.0164870
773.061	0.0166225
773.140	0.0166344
773.218	0.0164294
773.296	0.0164999
773.374	0.0166136
773.452	0.0165109
773.530	0.0165617
773.608	0.0164440
773.686	0.0164571
773.765	0.0164783
773.843	0.0165050
773.921	0.0164008
773.999	0.0164948
774.077	0.0164065
774.155	0.0164954
774.233	0.0163465
774.311	0.0164075
774.390	0.0164455
774.468	0.0163860
774.546	0.0162399
774.624	0.0163365
774.702	0.0162305
774.780	0.0162997
774.858	0.0163248
774.936	0.0163990
775.015	0.0163373
775.093	0.0163014
775.171	0.0163711
775.249	0.0163057
775.327	0.0163094
775.405	0.0162765
775.483	0.0163165
775.561	0.0162703
775.640	0.0163144
775.718	0.0162875
775.796	0.0164207
775.874	0.0164352
775.952	0.0162497
776.030	0.0162393
776.108	0.0165090
776.186	0.0164949
776.265	0.0163687
776.343	0.0162712
776.421	0.0162481
776.499	0.0164268
776.577	0.0162884
776.655	0.0163051
776.733	0.0163594
776.811	0.0164275
776.890	0.0163790
776.968	0.0164111
777.046	0.0163292
777.124	0.0164060
777.202	0.0163876
777.280	0.0163480
777.358	0.0164348
777.436	0.0164554
777.515	0.0162064
777.593	0.0163883
777.671	0.0162167
777.749	0.0163618
777.827	0.0162965
777.905	0.0163993
777.983	0.0163355
778.061	0.0163389
778.140	0.0163589
778.218	0.0162826
778.296	0.0163354
778.374	0.0163079
778.452	0.0162885
778.530	0.0163570
778.608	0.0164368
778.686	0.0163619
778.765	0.0163894
778.843	0.0163778
778.921	0.0164101
778.999	0.0163270
779.077	0.0163485
779.155	0.0163564
779.233	0.0162952
779.311	0.0162383
779.390	0.0163847
779.468	0.0164146
779.546	0.0162771
779.624	0.0163927
779.702	0.0163600
779.780	0.0163030
779.858	0.0162758
779.936	0.0164256
780.015	0.0163599
780.093	0.0162031
780.171	0.0162334
780.249	0.0163918
780.327	0.0160925
780.405	0.0161914
780.483	0.0164101
780.561	0.0163839
780.640	0.0162123
780.718	0.0162590
780.796	0.0162709
780.874	0.0162829
780.952	0.0163767
781.030	0.0162928
781.108	0.0163027
781.186	0.0161973
781.265	0.0163309
781.343	0.0163150
781.421	0.0162599
781.499	0.0163206
781.577	0.0164015
781.655	0.0163444
781.733	0.0162514
781.811	0.0162881
781.890	0.0163161
781.968	0.0163239
782.046	0.0163681
782.124	0.0164018
782.202	0.0163413
782.280	0.0162180
782.358	0.0164342
782.436	0.0164194
782.515	0.0163884
782.593	0.0164477
782.671	0.0164700
782.749	0.0164948
782.827	0.0163671
782.905	0.0164448
782.983	0.0164938
783.061	0.0164174
783.140	0.0165002
783.218	0.0163828
783.296	0.0164941
783.374	0.0166408
783.452	0.0164378
783.530	0.0163524
783.608	0.0164268
783.686	0.0164642
783.765	0.0165118
783.843	0.0165469
783.921	0.0164394
783.999	0.0165165
784.077	0.0165041
784.155	0.0164845
784.233	0.0165113
784.311	0.0163880
784.390	0.0164668
784.468	0.0164129
784.546	0.0163216
784.624	0.0164635
784.702	0.0163068
784.780	0.0164273
784.858	0.0164053
784.936	0.0162980
785.015	0.0164514
785.093	0.0162871
785.171	0.0162780
785.249	0.0164838
785.327	0.0165002
785.405	0.0163079
785.483	0.0163293
785.561	0.0163243
785.640	0.0162903
785.718	0.0163089
785.796	0.0163707
785.874	0.0163914
785.952	0.0162602
786.030	0.0161799
786.108	0.0163937
786.186	0.0163186
786.265	0.0164167
786.343	0.0164183
786.421	0.0164275
786.499	0.0164082
786.577	0.0163982
786.655	0.0164323
786.733	0.0164130
786.811	0.0165091
786.890	0.0165391
786.968	0.0165618
787.046	0.0164429
787.124	0.0165618
787.202	0.0165629
787.280	0.0164194
787.358	0.0165214
787.436	0.0163477
787.515	0.0164483
787.593	0.0163271
787.671	0.0164684
787.749	0.0164337
787.827	0.0164545
787.905	0.0165185
787.983	0.0165714
788.061	0.0164259
788.140	0.0163793
788.218	0.0164721
788.296	0.0164296
788.374	0.0165292
788.452	0.0165905
788.530	0.0163525
788.608	0.0161958
788.686	0.0162843
788.765	0.0162646
788.843	0.0162825
788.921	0.0162893
788.999	0.0161140
789.077	0.0161451
789.155	0.0162440
789.233	0.0162228
789.311	0.0160818
789.390	0.0161816
789.468	0.0161420
789.546	0.0162056
789.624	0.0160256
789.702	0.0161856
789.780	0.0161271
789.858	0.0160905
789.936	0.0159853
790.015	0.0161665
790.093	0.0160802
790.171	0.0160852
790.249	0.0161270
790.327	0.0160650
790.405	0.0160926
790.483	0.0159627
790.561	0.0161125
790.640	0.0161224
790.718	0.0161934
790.796	0.0161383
790.874	0.0161590
790.952	0.0160810
791.030	0.0161652
791.108	0.0162102
791.186	0.0162365
791.265	0.0161705
791.343	0.0162814
791.421	0.0163217
791.499	0.0163795
791.577	0.0162490
791.655	0.0163251
791.733	0.0163323
791.811	0.0163319
791.890	0.0164109
791.968	0.0163787
792.046	0.0164946
792.124	0.0164317
792.202	0.0164339
792.280	0.0164724
792.358	0.0165289
792.436	0.0165762
792.515	0.0164216
792.593	0.0163278
792.671	0.0165176
792.749	0.0164871
792.827	0.0164569
792.905	0.0164851
792.983	0.0163344
793.061	0.0164516
793.140	0.0164512
793.218	0.0162006
793.296	0.0162487
793.374	0.0162946
793.452	0.0163072
793.530	0.0163543
793.608	0.0163020
793.686	0.0162859
793.765	0.0163342
793.843	0.0162547
793.921	0.0163097
793.999	0.0163046
794.077	0.0162368
794.155	0.0162473
794.233	0.0162700
794.311	0.0163112
794.390	0.0163651
794.468	0.0163840
794.546	0.0162090
794.624	0.0163120
794.702	0.0162101
794.780	0.0161720
794.858	0.0161153
794.936	0.0161859
795.015	0.0160851
795.093	0.0160696
795.171	0.0161198
795.249	0.0162448
795.327	0.0162245
795.405	0.0162582
795.483	0.0162304
795.561	0.0161641
795.640	0.0160923
795.718	0.0161951
795.796	0.0161543
795.874	0.0162214
795.952	0.0161036
796.030	0.0162065
796.108	0.0163079
796.186	0.0162493
796.265	0.0161945
796.343	0.0162185
796.421	0.0163256
796.499	0.0163086
796.577	0.0162125
796.655	0.0161799
796.733	0.0161494
796.811	0.0162038
796.890	0.0162452
796.968	0.0163984
797.046	0.0161906
797.124	0.0162727
797.202	0.0163827
797.280	0.0162615
797.358	0.0166249
797.436	0.0163832
797.515	0.0163838
797.593	0.0164222
797.671	0.0164216
797.749	0.0163481
797.827	0.0164314
797.905	0.0164685
797.983	0.0163686
798.061	0.0164178
798.140	0.0164355
798.218	0.0164529
798.296	0.0165710
798.374	0.0165846
798.452	0.0165231
798.530	0.0165093
798.608	0.0165965
798.686	0.0164294
798.765	0.0164159
798.843	0.0165431
798.921	0.0164790
798.999	0.0165494
799.077	0.0165173
799.155	0.0165680
799.233	0.0165504
799.311	0.0166616
799.390	0.0164239
799.468	0.0165130
799.546	0.0165590
799.624	0.0164679
799.702	0.0164739
799.780	0.0166158
799.858	0.0164434
799.936	0.0166132
800.015	0.0163702
800.093	0.0164304
800.171	0.0163734
800.249	0.0165390
800.327	0.0165205
800.405	0.0163497
800.483	0.0164745
800.561	0.0165324
800.640	0.0164977
800.718	0.0165091
800.796	0.0163580
800.874	0.0165076
800.952	0.0163975
801.030	0.0164351
801.108	0.0162917
801.186	0.0163148
801.265	0.0163760
801.343	0.0162288
801.421	0.0162505
801.499	0.0163020
801.577	0.0163559
801.655	0.0162805
801.733	0.0162510
801.811	0.0163584
801.890	0.0162256
801.968	0.0162815
802.046	0.0163148
802.124	0.0161096
802.202	0.0162450
802.280	0.0162224
802.358	0.0161736
802.436	0.0161622
802.515	0.0162594
802.593	0.0161820
802.671	0.0162650
802.749	0.0162379
802.827	0.0163927
802.905	0.0162386
802.983	0.0163643
803.061	0.0164335
803.140	0.0163188
803.218	0.0163390
803.296	0.0164406
803.374	0.0165751
803.452	0.0163157
803.530	0.0165042
803.608	0.0163277
803.686	0.0165022
803.765	0.0165169
803.843	0.0164693
803.921	0.0165013
803.999	0.0164899
804.077	0.0165405
804.155	0.0163619
804.233	0.0163695
804.311	0.0164371
804.390	0.0164185
804.468	0.0163386
804.546	0.0163517
804.624	0.0163781
804.702	0.0165482
804.780	0.0162913
804.858	0.0163398
804.936	0.0163787
805.015	0.0163904
805.093	0.0164493
805.171	0.0164271
805.249	0.0166019
805.327	0.0165270
805.405	0.0162734
805.483	0.0164227
805.561	0.0165759
805.640	0.0164319
805.718	0.0164874
805.796	0.0166676
805.874	0.0166116
805.952	0.0165681
806.030	0.0165298
806.108	0.0166144
806.186	0.0166754
806.265	0.0165098
806.343	0.0166977
806.421	0.0167236
806.499	0.0168893
806.577	0.0167568
806.655	0.0168987
806.733	0.0167501
806.811	0.0167564
806.890	0.0167685
806.968	0.0168302
807.046	0.0166785
807.124	0.0167593
807.202	0.0167471
807.280	0.0166896
807.358	0.0166423
807.436	0.0165516
807.515	0.0166295
807.593	0.0166232
807.671	0.0165314
807.749	0.0167673
807.827	0.0166091
807.905	0.0166216
807.983	0.0165286
808.061	0.0166335
808.140	0.0165356
808.218	0.0165921
808.296	0.0165079
808.374	0.0164300
808.452	0.0163828
808.530	0.0164652
808.608	0.0164191
808.686	0.0165217
808.765	0.0164198
808.843	0.0164473
808.921	0.0164037
808.999	0.0163647
809.077	0.0163668
809.155	0.0162739
809.233	0.0164699
809.311	0.0162395
809.390	0.0162181
809.468	0.0162414
809.546	0.0162574
809.624	0.0162156
809.702	0.0162519
809.780	0.0162525
809.858	0.0162170
809.936	0.0160558
810.015	0.0159601
810.093	0.0162243
810.171	0.0161761
810.249	0.0160607
810.327	0.0162041
810.405	0.0161813
810.483	0.0162593
810.561	0.0162957
810.640	0.0162554
810.718	0.0162328
810.796	0.0162005
810.874	0.0161604
810.952	0.0162398
811.030	0.0163114
811.108	0.0162761
811.186	0.0161181
811.265	0.0162495
811.343	0.0162449
811.421	0.0161859
811.499	0.0162785
811.577	0.0161384
811.655	0.0162802
811.733	0.0162988
811.811	0.0161904
811.890	0.0162714
811.968	0.0163393
812.046	0.0162536
812.124	0.0161677
812.202	0.0163357
812.280	0.0163328
812.358	0.0164207
812.436	0.0162099
812.515	0.0162717
812.593	0.0163213
812.671	0.0163055
812.749	0.0162508
812.827	0.0161972
812.905	0.0161646
812.983	0.0162451
813.061	0.0161693
813.140	0.0161618
813.218	0.0161605
813.296	0.0161661
813.374	0.0162131
813.452	0.0161441
813.530	0.0162173
813.608	0.0163302
813.686	0.0163758
813.765	0.0164587
813.843	0.0164507
813.921	0.0164485
813.999	0.0162744
814.077	0.0163854
814.155	0.0165054
814.233	0.0165777
814.311	0.0163955
814.390	0.0164629
814.468	0.0165152
814.546	0.0166850
814.624	0.0165402
814.702	0.0164520
814.780	0.0164673
814.858	0.0165601
814.936	0.0165865
815.015	0.0166958
815.093	0.0165294
815.171	0.0165602
815.249	0.0165055
815.327	0.0164614
815.405	0.0163199
815.483	0.0166259
815.561	0.0165296
815.640	0.0164362
815.718	0.0164726
815.796	0.0163559
815.874	0.0164175
815.952	0.0164346
816.030	0.0163679
816.108	0.0164899
816.186	0.0164574
816.265	0.0164517
816.343	0.0162738
816.421	0.0165112
816.499	0.0164594
816.577	0.0164848
816.655	0.0164623
816.733	0.0162813
816.811	0.0162036
816.890	0.0161436
816.968	0.0161238
817.046	0.0163017
817.124	0.0161526
817.202	0.0160826
817.280	0.0160061
817.358	0.0159673
817.436	0.0160165
817.515	0.0158627
817.593	0.0159329
817.671	0.0158021
817.749	0.0157793
817.827	0.0157206
817.905	0.0157710
817.983	0.0157996
818.061	0.0156756
818.140	0.0157422
818.218	0.0157823
818.296	0.0160160
818.374	0.0159589
818.452	0.0158945
818.530	0.0159238
818.608	0.0160007
818.686	0.0161101
818.765	0.0161534
818.843	0.0160730
818.921	0.0163121
818.999	0.0163213
819.077	0.0164962
819.155	0.0164782
819.233	0.0164681
819.311	0.0167036
819.390	0.0166457
819.468	0.0167701
819.546	0.0167257
819.624	0.0167155
819.702	0.0168748
819.780	0.0168376
819.858	0.0167638
819.936	0.0168307
820.015	0.0168365
820.093	0.0169096
820.171	0.0167909
820.249	0.0167825
820.327	0.0167117
820.405	0.0167580
820.483	0.0167490
820.561	0.0165729
820.640	0.0166160
820.718	0.0166698
820.796	0.0165141
820.874	0.0164134
820.952	0.0163898
821.030	0.0165036
821.108	0.0165609
821.186	0.0164747
821.265	0.0164851
821.343	0.0164983
821.421	0.0164793
821.499	0.0162158
821.577	0.0162869
821.655	0.0162756
821.733	0.0163668
821.811	0.0164555
821.890	0.0164135
821.968	0.0163941
822.046	0.0163464
822.124	0.0162457
822.202	0.0161269
822.280	0.0162854
822.358	0.0163017
822.436	0.0162585
822.515	0.0163515
822.593	0.0163546
822.671	0.0163111
822.749	0.0162156
822.827	0.0162081
822.905	0.0163076
822.983	0.0162263
823.061	0.0161703
823.140	0.0161912
823.218	0.0163747
823.296	0.0163827
823.374	0.0163247
823.452	0.0163957
823.530	0.0163717
823.608	0.0163498
823.686	0.0163597
823.765	0.0163613
823.843	0.0164391
823.921	0.0164996
823.999	0.0165283
824.077	0.0164586
824.155	0.0164389
824.233	0.0163738
824.311	0.0164339
824.390	0.0163866
824.468	0.0164159
824.546	0.0164272
824.624	0.0162662
824.702	0.0162914
824.780	0.0162722
824.858	0.0162844
824.936	0.0162801
825.015	0.0162653
825.093	0.0161440
825.171	0.0162520
825.249	0.0161617
825.327	0.0162018
825.405	0.0162035
825.483	0.0161797
825.561	0.0162298
825.640	0.0161330
825.718	0.0160313
825.796	0.0161945
825.874	0.0160978
825.952	0.0162412
826.030	0.0161293
826.108	0.0162038
826.186	0.0163181
826.265	0.0162362
826.343	0.0161671
826.421	0.0162647
826.499	0.0163995
826.577	0.0162355
826.655	0.0163663
826.733	0.0163750
826.811	0.0164651
826.890	0.0162981
826.968	0.0164411
827.046	0.0165046
827.124	0.0165982
827.202	0.0164249
827.280	0.0165292
827.358	0.0165226
827.436	0.0164934
827.515	0.0166854
827.593	0.0165773
827.671	0.0164815
827.749	0.0165282
827.827	0.0166460
827.905	0.0166463
827.983	0.0165504
828.061	0.0165385
828.140	0.0165470
828.218	0.0165668
828.296	0.0165015
828.374	0.0164565
828.452	0.0163924
828.530	0.0164715
828.608	0.0163218
828.686	0.0164825
828.765	0.0164233
828.843	0.0163094
828.921	0.0163596
828.999	0.0163494
829.077	0.0162041
829.155	0.0162963
829.233	0.0163703
829.311	0.0162654
829.390	0.0162097
829.468	0.0162952
829.546	0.0163171
829.624	0.0162849
829.702	0.0162828
829.780	0.0163223
829.858	0.0164039
829.936	0.0163496
830.015	0.0162983
830.093	0.0163760
830.171	0.0163661
830.249	0.0165401
830.327	0.0164502
830.405	0.0163512
830.483	0.0163235
830.561	0.0163512
830.640	0.0164585
830.718	0.0165647
830.796	0.0163148
830.874	0.0164642
830.952	0.0164867
831.030	0.0166558
831.108	0.0166446
831.186	0.0166027
831.265	0.0165313
831.343	0.0165498
831.421	0.0165234
831.499	0.0164874
831.577	0.0166011
831.655	0.0166209
831.733	0.0165183
831.811	0.0165386
831.890	0.0164098
831.968	0.0164875
832.046	0.0164642
832.124	0.0164511
832.202	0.0163436
832.280	0.0163702
832.358	0.0163657
832.436	0.0162611
832.515	0.0161610
832.593	0.0164119
832.671	0.0163416
832.749	0.0162051
832.827	0.0161794
832.905	0.0160062
832.983	0.0161898
833.061	0.0163950
833.140	0.0162129
833.218	0.0161369
833.296	0.0162202
833.374	0.0162408
833.452	0.0162050
833.530	0.0161472
833.608	0.0161340
833.686	0.0162421
833.765	0.0161907
833.843	0.0160627
833.921	0.0162671
833.999	0.0162614
834.077	0.0162682
834.155	0.0163352
834.233	0.0162596
834.311	0.0161209
834.390	0.0161901
834.468	0.0162702
834.546	0.0163126
834.624	0.0163515
834.702	0.0162193
834.780	0.0164297
834.858	0.0163550
834.936	0.0164474
835.015	0.0164021
835.093	0.0165037
835.171	0.0165438
835.249	0.0165482
835.327	0.0166013
835.405	0.0165405
835.483	0.0164468
835.561	0.0166396
835.640	0.0165269
835.718	0.0164988
835.796	0.0165098
835.874	0.0163992
835.952	0.0164619
836.030	0.0166775
836.108	0.0164368
836.186	0.0164011
836.265	0.0164930
836.343	0.0164725
836.421	0.0164883
836.499	0.0163512
836.577	0.0163914
836.655	0.0164633
836.733	0.0164558
836.811	0.0163274
836.890	0.0163902
836.968	0.0164493
837.046	0.0162993
837.124	0.0162981
837.202	0.0162319
837.280	0.0165306
837.358	0.0165112
837.436	0.0163623
837.515	0.0163332
837.593	0.0163357
837.671	0.0162950
837.749	0.0164772
837.827	0.0165238
837.905	0.0163551
837.983	0.0163107
838.061	0.0163885
838.140	0.0164072
838.218	0.0164701
838.296	0.0164723
838.374	0.0163894
838.452	0.0162928
838.530	0.0164196
838.608	0.0163367
838.686	0.0162568
838.765	0.0162942
838.843	0.0164162
838.921	0.0162888
838.999	0.0163027
839.077	0.0163422
839.155	0.0163388
839.233	0.0162565
839.311	0.0161903
839.390	0.0163053
839.468	0.0163354
839.546	0.0163493
839.624	0.0163596
839.702	0.0163456
839.780	0.0163424
839.858	0.0163878
839.936	0.0164822
840.015	0.0163828
840.093	0.0162769
840.171	0.0164136
840.249	0.0163938
840.327	0.0163564
840.405	0.0163729
840.483	0.0163280
840.561	0.0163962
840.640	0.0163832
840.718	0.0163279
840.796	0.0162992
840.874	0.0163261
840.952	0.0162859
841.030	0.0163742
841.108	0.0163486
841.186	0.0162292
841.265	0.0163902
841.343	0.0164645
841.421	0.0164256
841.499	0.0164822
841.577	0.0165432
841.655	0.0164735
841.733	0.0165664
841.811	0.0163914
841.890	0.0164063
841.968	0.0165311
842.046	0.0165058
842.124	0.0164445
842.202	0.0163229
842.280	0.0162860
842.358	0.0164686
842.436	0.0163496
842.515	0.0165038
842.593	0.0164343
842.671	0.0163920
842.749	0.0164965
842.827	0.0164338
842.905	0.0164497
842.983	0.0163874
843.061	0.0163245
843.140	0.0163684
843.218	0.0164202
843.296	0.0163824
843.374	0.0165016
843.452	0.0163559
843.530	0.0164162
843.608	0.0163441
843.686	0.0163038
843.765	0.0163015
843.843	0.0162186
843.921	0.0163409
843.999	0.0164137
844.077	0.0162579
844.155	0.0162517
844.233	0.0162946
844.311	0.0161486
844.390	0.0161880
844.468	0.0161172
844.546	0.0160741
844.624	0.0161852
844.702	0.0162746
844.780	0.0161328
844.858	0.0159713
844.936	0.0162122
845.015	0.0162640
845.093	0.0162084
845.171	0.0162282
845.249	0.0162955
845.327	0.0164725
845.405	0.0163849
845.483	0.0163239
845.561	0.0164085
845.640	0.0163202
845.718	0.0164510
845.796	0.0165192
845.874	0.0164975
845.952	0.0165607
846.030	0.0164328
846.108	0.0164523
846.186	0.0164399
846.265	0.0165676
846.343	0.0164362
846.421	0.0165694
846.499	0.0165363
846.577	0.0163326
846.655	0.0164957
846.733	0.0165028
846.811	0.0163968
846.890	0.0164442
846.968	0.0164922
847.046	0.0163686
847.124	0.0163725
847.202	0.0164247
847.280	0.0164699
847.358	0.0163618
847.436	0.0163708
847.515	0.0162672
847.593	0.0163454
847.671	0.0162679
847.749	0.0161674
847.827	0.0163071
847.905	0.0162459
847.983	0.0160524
848.061	0.0162218
848.140	0.0162197
848.218	0.0162498
848.296	0.0161610
848.374	0.0162293
848.452	0.0160023
848.530	0.0160733
848.608	0.0162084
848.686	0.0160891
848.765	0.0161657
848.843	0.0160841
848.921	0.0162227
848.999	0.0162899
849.077	0.0162154
849.155	0.0161031
849.233	0.0162338
849.311	0.0162051
849.390	0.0163145
849.468	0.0163226
849.546	0.0162267
849.624	0.0162698
849.702	0.0162817
849.780	0.0163414
849.858	0.0162604
849.936	0.0163849
850.015	0.0162778
850.093	0.0163286
850.171	0.0163831
850.249	0.0164977
850.327	0.0163066
850.405	0.0164468
850.483	0.0167799
850.561	0.0164718
850.640	0.0164577
850.718	0.0164935
850.796	0.0165799
850.874	0.0166770
850.952	0.0164877
851.030	0.0165392
851.108	0.0164851
851.186	0.0165171
851.265	0.0166082
851.343	0.0166122
851.421	0.0163718
851.499	0.0164797
851.577	0.0164016
851.655	0.0164152
851.733	0.0164005
851.811	0.0163480
851.890	0.0164302
851.968	0.0164758
852.046	0.0162994
852.124	0.0163792
852.202	0.0164178
852.280	0.0164875
852.358	0.0163261
852.436	0.0164453
852.515	0.0164169
852.593	0.0163133
852.671	0.0164104
852.749	0.0163749
852.827	0.0165461
852.905	0.0164342
852.983	0.0162913
853.061	0.0162750
853.140	0.0163889
853.218	0.0164541
853.296	0.0163471
853.374	0.0162698
853.452	0.0163645
853.530	0.0163300
853.608	0.0162569
853.686	0.0162405
853.765	0.0163247
853.843	0.0162749
853.921	0.0163306
853.999	0.0162582
854.077	0.0163454
854.155	0.0163972
854.233	0.0162850
854.311	0.0162518
854.390	0.0163273
854.468	0.0164119
854.546	0.0162186
854.624	0.0163414
854.702	0.0163419
854.780	0.0163263
854.858	0.0163142
854.936	0.0164188
855.015	0.0163448
855.093	0.0162366
855.171	0.0163855
855.249	0.0164091
855.327	0.0163156
855.405	0.0162622
855.483	0.0162868
855.561	0.0163994
855.640	0.0161143
855.718	0.0164053
855.796	0.0162997
855.874	0.0163013
855.952	0.0163244
856.030	0.0162292
856.108	0.0162654
856.186	0.0163699
856.265	0.0162061
856.343	0.0162133
856.421	0.0161873
856.499	0.0161814
856.577	0.0163731
856.655	0.0163896
856.733	0.0163177
856.811	0.0162688
856.890	0.0162160
856.968	0.0161555
857.046	0.0162016
857.124	0.0162562
857.202	0.0163206
857.280	0.0162193
857.358	0.0162735
857.436	0.0162350
857.515	0.0161819
857.593	0.0162224
857.671	0.0164879
857.749	0.0161951
857.827	0.0161588
857.905	0.0162818
857.983	0.0162614
858.061	0.0162402
858.140	0.0162207
858.218	0.0163116
858.296	0.0164093
858.374	0.0163371
858.452	0.0163084
858.530	0.0163052
858.608	0.0165007
858.686	0.0163213
858.765	0.0163498
858.843	0.0163835
858.921	0.0166139
858.999	0.0165715
859.077	0.0165317
859.155	0.0164893
859.233	0.0163540
859.311	0.0164339
859.390	0.0163950
859.468	0.0163902
859.546	0.0163805
859.624	0.0165214
859.702	0.0165386
859.780	0.0164901
859.858	0.0162508
859.936	0.0162998
860.015	0.0162705
860.093	0.0163182
860.171	0.0163875
860.249	0.0161589
860.327	0.0162132
860.405	0.0161932
860.483	0.0162332
860.561	0.0162556
860.640	0.0161445
860.718	0.0161204
860.796	0.0161393
860.874	0.0162078
860.952	0.0162207
861.030	0.0162438
861.108	0.0160973
861.186	0.0161002
861.265	0.0161147
861.343	0.0161456
861.421	0.0161555
861.499	0.0162270
861.577	0.0161669
861.655	0.0161607
861.733	0.0162414
861.811	0.0162100
861.890	0.0161639
861.968	0.0162531
862.046	0.0160606
862.124	0.0163335
862.202	0.0162111
862.280	0.0161668
862.358	0.0163217
862.436	0.0162501
862.515	0.0162415
862.593	0.0163073
862.671	0.0163013
862.749	0.0162355
862.827	0.0163678
862.905	0.0164474
862.983	0.0162331
863.061	0.0162913
863.140	0.0163946
863.218	0.0163755
863.296	0.0162817
863.374	0.0163789
863.452	0.0165585
863.530	0.0163924
863.608	0.0163572
863.686	0.0163549
863.765	0.0164438
863.843	0.0163467
863.921	0.0164973
863.999	0.0165298
864.077	0.0163805
864.155	0.0164685
864.233	0.0164566
864.311	0.0163898
864.390	0.0165202
864.468	0.0164291
864.546	0.0165054
864.624	0.0165294
864.702	0.0166486
864.780	0.0164079
864.858	0.0163422
864.936	0.0164872
865.015	0.0164013
865.093	0.0164017
865.171	0.0163110
865.249	0.0162085
865.327	0.0162110
865.405	0.0162707
865.483	0.0162568
865.561	0.0162820
865.640	0.0162768
865.718	0.0163390
865.796	0.0162846
865.874	0.0162203
865.952	0.0163582
866.030	0.0163457
866.108	0.0163266
866.186	0.0163032
866.265	0.0163428
866.343	0.0163277
866.421	0.0165176
866.499	0.0164191
866.577	0.0164791
866.655	0.0165222
866.733	0.0163745
866.811	0.0165886
866.890	0.0166275
866.968	0.0166190
867.046	0.0167025
867.124	0.0167107
867.202	0.0167138
867.280	0.0167725
867.358	0.0167764
867.436	0.0166734
867.515	0.0167150
867.593	0.0168597
867.671	0.0165846
867.749	0.0167464
867.827	0.0166078
867.905	0.0165618
867.983	0.0166004
868.061	0.0165434
868.140	0.0166120
868.218	0.0164131
868.296	0.0164968
868.374	0.0165305
868.452	0.0164973
868.530	0.0164423
868.608	0.0163766
868.686	0.0164352
868.765	0.0165258
868.843	0.0164215
868.921	0.0163983
868.999	0.0163982
869.077	0.0163255
869.155	0.0163000
869.233	0.0165084
869.311	0.0165028
869.390	0.0162861
869.468	0.0164217
869.546	0.0163762
869.624	0.0163164
869.702	0.0164347
869.780	0.0164394
869.858	0.0162640
869.936	0.0163361
870.015	0.0162459
870.093	0.0162893
870.171	0.0163632
870.249	0.0164519
870.327	0.0163445
870.405	0.0163514
870.483	0.0163237
870.561	0.0163094
870.640	0.0162725
870.718	0.0161810
870.796	0.0162121
870.874	0.0162743
870.952	0.0161686
871.030	0.0162137
871.108	0.0162955
871.186	0.0161857
871.265	0.0163471
871.343	0.0163719
871.421	0.0162225
871.499	0.0164696
871.577	0.0161839
871.655	0.0161967
871.733	0.0164851
871.811	0.0164743
871.890	0.0164338
871.968	0.0164370
872.046	0.0165327
872.124	0.0165596
872.202	0.0164321
872.280	0.0164901
872.358	0.0164896
872.436	0.0164841
872.515	0.0164661
872.593	0.0164542
872.671	0.0163982
872.749	0.0166130
872.827	0.0164144
872.905	0.0163005
872.983	0.0164288
873.061	0.0163485
873.140	0.0164114
873.218	0.0164658
873.296	0.0164141
873.374	0.0164268
873.452	0.0163103
873.530	0.0164645
873.608	0.0163261
873.686	0.0161958
873.765	0.0163050
873.843	0.0164358
873.921	0.0164186
873.999	0.0163786
874.077	0.0162450
874.155	0.0164249
874.233	0.0162621
874.311	0.0164299
874.390	0.0164978
874.468	0.0161552
874.546	0.0162462
874.624	0.0163595
874.702	0.0164302
874.780	0.0161951
874.858	0.0163026
874.936	0.0162840
875.015	0.0164887
875.093	0.0163288
875.171	0.0162987
875.249	0.0162978
875.327	0.0162457
875.405	0.0163981
875.483	0.0163713
875.561	0.0162824
875.640	0.0161887
875.718	0.0163053
875.796	0.0163714
875.874	0.0163106
875.952	0.0162963
876.030	0.0163793
876.108	0.0163517
876.186	0.0164362
876.265	0.0163210
876.343	0.0165930
876.421	0.0164980
876.499	0.0162395
876.577	0.0163249
876.655	0.0163271
876.733	0.0164404
876.811	0.0164107
876.890	0.0163422
876.968	0.0162316
877.046	0.0162958
877.124	0.0162391
877.202	0.0162267
877.280	0.0162760
877.358	0.0163113
877.436	0.0161476
877.515	0.0161660
877.593	0.0161507
877.671	0.0161755
877.749	0.0162341
877.827	0.0161718
877.905	0.0160093
877.983	0.0161500
878.061	0.0162772
878.140	0.0162970
878.218	0.0162155
878.296	0.0161750
878.374	0.0162513
878.452	0.0163727
878.530	0.0162662
878.608	0.0164126
878.686	0.0163323
878.765	0.0163423
878.843	0.0162984
878.921	0.0163971
878.999	0.0164024
879.077	0.0163022
879.155	0.0163864
879.233	0.0163259
879.311	0.0163052
879.390	0.0163646
879.468	0.0162528
879.546	0.0164398
879.624	0.0164857
879.702	0.0163934
879.780	0.0164263
879.858	0.0164948
879.936	0.0164140
880.015	0.0163566
880.093	0.0163314
880.171	0.0163794
880.249	0.0164630
880.327	0.0164359
880.405	0.0163591
880.483	0.0164491
880.561	0.0164497
880.640	0.0164026
880.718	0.0164194
880.796	0.0164064
880.874	0.0163690
880.952	0.0163268
881.030	0.0164069
881.108	0.0164919
881.186	0.0163147
881.265	0.0162818
881.343	0.0162811
881.421	0.0163349
881.499	0.0163762
881.577	0.0163387
881.655	0.0161439
881.733	0.0161748
881.811	0.0163091
881.890	0.0163296
881.968	0.0163237
882.046	0.0162339
882.124	0.0162724
882.202	0.0161092
882.280	0.0160752
882.358	0.0162842
882.436	0.0162716
882.515	0.0161250
882.593	0.0162090
882.671	0.0160851
882.749	0.0161671
882.827	0.0161806
882.905	0.0162153
882.983	0.0161010
883.061	0.0161830
883.140	0.0160479
883.218	0.0160841
883.296	0.0162389
883.374	0.0162547
883.452	0.0160754
883.530	0.0162411
883.608	0.0161898
883.686	0.0162341
883.765	0.0162596
883.843	0.0162916
883.921	0.0162399
883.999	0.0162012
884.077	0.0163679
884.155	0.0161475
884.233	0.0162510
884.311	0.0163354
884.390	0.0163074
884.468	0.0163055
884.546	0.0163204
884.624	0.0164191
884.702	0.0164079
884.780	0.0164254
884.858	0.0165308
884.936	0.0165275
885.015	0.0165372
885.093	0.0165099
885.171	0.0164043
885.249	0.0165503
885.327	0.0166125
885.405	0.0165341
885.483	0.0165501
885.561	0.0164391
885.640	0.0164113
885.718	0.0163374
885.796	0.0163998
885.874	0.0163776
885.952	0.0163570
886.030	0.0163731
886.108	0.0163744
886.186	0.0164848
886.265	0.0163230
886.343	0.0162564
886.421	0.0162891
886.499	0.0164096
886.577	0.0161794
886.655	0.0163163
886.733	0.0162110
886.811	0.0162516
886.890	0.0162319
886.968	0.0161473
887.046	0.0161779
887.124	0.0162396
887.202	0.0162458
887.280	0.0161681
887.358	0.0162904
887.436	0.0162138
887.515	0.0162238
887.593	0.0162630
887.671	0.0162048
887.749	0.0162717
887.827	0.0162183
887.905	0.0162255
887.983	0.0162866
888.061	0.0163717
888.140	0.0163127
888.218	0.0163009
888.296	0.0163550
888.374	0.0162844
888.452	0.0163087
888.530	0.0163137
888.608	0.0163772
888.686	0.0164165
888.765	0.0163636
888.843	0.0162621
888.921	0.0164421
888.999	0.0164088
889.077	0.0164439
889.155	0.0163950
889.233	0.0163651
889.311	0.0164995
889.390	0.0164885
889.468	0.0165344
889.546	0.0165796
889.624	0.0164951
889.702	0.0165227
889.780	0.0165498
889.858	0.0164545
889.936	0.0164729
890.015	0.0166171
890.093	0.0163850
890.171	0.0165614
890.249	0.0165180
890.327	0.0165309
890.405	0.0165638
890.483	0.0164746
890.561	0.0164598
890.640	0.0166597
890.718	0.0165254
890.796	0.0165984
890.874	0.0165726
890.952	0.0165351
891.030	0.0165743
891.108	0.0164927
891.186	0.0165305
891.265	0.0165008
891.343	0.0163496
891.421	0.0164517
891.499	0.0165424
891.577	0.0166633
891.655	0.0165581
891.733	0.0164574
891.811	0.0164569
891.890	0.0163942
891.968	0.0163065
892.046	0.0162173
892.124	0.0162701
892.202	0.0162273
892.280	0.0162778
892.358	0.0161189
892.436	0.0161848
892.515	0.0161569
892.593	0.0161760
892.671	0.0162558
892.749	0.0162049
892.827	0.0162733
892.905	0.0163072
892.983	0.0163137
893.061	0.0162215
893.140	0.0163037
893.218	0.0163177
893.296	0.0163097
893.374	0.0163754
893.452	0.0163745
893.530	0.0163667
893.608	0.0163689
893.686	0.0162088
893.765	0.0163691
893.843	0.0164621
893.921	0.0163885
893.999	0.0164172
894.077	0.0163367
894.155	0.0163085
894.233	0.0164542
894.311	0.0164994
894.390	0.0164455
894.468	0.0163819
894.546	0.0163545
894.624	0.0164314
894.702	0.0163683
894.780	0.0163589
894.858	0.0163278
894.936	0.0163065
895.015	0.0163364
895.093	0.0163820
895.171	0.0164553
895.249	0.0163109
895.327	0.0163876
895.405	0.0163046
895.483	0.0163457
895.561	0.0161734
895.640	0.0162859
895.718	0.0162845
895.796	0.0162707
895.874	0.0163987
895.952	0.0163156
896.030	0.0161606
896.108	0.0161478
896.186	0.0163364
896.265	0.0162692
896.343	0.0164078
896.421	0.0163348
896.499	0.0162263
896.577	0.0162051
896.655	0.0161375
896.733	0.0161489
896.811	0.0163390
896.890	0.0162834
896.968	0.0163287
897.046	0.0163642
897.124	0.0162171
897.202	0.0161380
897.280	0.0162145
897.358	0.0161832
897.436	0.0162029
897.515	0.0161945
897.593	0.0162139
897.671	0.0162827
897.749	0.0162708
897.827	0.0161762
897.905	0.0161798
897.983	0.0161655
898.061	0.0162488
898.140	0.0162592
898.218	0.0162003
898.296	0.0160236
898.374	0.0160825
898.452	0.0162368
898.530	0.0161588
898.608	0.0161356
898.686	0.0160444
898.765	0.0162357
898.843	0.0162405
898.921	0.0160863
898.999	0.0162307
899.077	0.0162264
899.155	0.0162169
899.233	0.0162138
899.311	0.0162086
899.390	0.0162812
899.468	0.0160966
899.546	0.0162682
899.624	0.0162732
899.702	0.0163173
899.780	0.0163194
899.858	0.0162690
899.936	0.0162629
