05/24/2022	20:52:07	Ver.	4.1	UNKNOWN
Optical Delay	580.014591	Delta X		0.078125	Sweeps	1	Scan Rate	0/0
Coordinates	Axis 1	NaN	Axis 2	NaN	Axis 3	NaN	Axis 4	NaN	Axis 5	NaN	Axis 6	0.000000
TX Power	0.000000	RX Power	0.000000

580.015	0.0165132
580.093	0.0165823
580.171	0.0165910
580.249	0.0165065
580.327	0.0165975
580.405	0.0165977
580.483	0.0165630
580.561	0.0166003
580.640	0.0165295
580.718	0.0164648
580.796	0.0166650
580.874	0.0167321
580.952	0.0166007
581.030	0.0167198
581.108	0.0166203
581.186	0.0166858
581.265	0.0166742
581.343	0.0166238
581.421	0.0165481
581.499	0.0164509
581.577	0.0166307
581.655	0.0165657
581.733	0.0165332
581.811	0.0165782
581.890	0.0167445
581.968	0.0165759
582.046	0.0165285
582.124	0.0166705
582.202	0.0166292
582.280	0.0166099
582.358	0.0166576
582.436	0.0167431
582.515	0.0166757
582.593	0.0165686
582.671	0.0166711
582.749	0.0165505
582.827	0.0168075
582.905	0.0167583
582.983	0.0165263
583.061	0.0167667
583.140	0.0166161
583.218	0.0167057
583.296	0.0167467
583.374	0.0167168
583.452	0.0168386
583.530	0.0165799
583.608	0.0165977
583.686	0.0166467
583.765	0.0166120
583.843	0.0167478
583.921	0.0166182
583.999	0.0167268
584.077	0.0167121
584.155	0.0166782
584.233	0.0166351
584.311	0.0166092
584.390	0.0166411
584.468	0.0166305
584.546	0.0167801
584.624	0.0167054
584.702	0.0165734
584.780	0.0167839
584.858	0.0168328
584.936	0.0167223
585.015	0.0167101
585.093	0.0166265
585.171	0.0166649
585.249	0.0167851
585.327	0.0169032
585.405	0.0168931
585.483	0.0167912
585.561	0.0167475
585.640	0.0166557
585.718	0.0167687
585.796	0.0166690
585.874	0.0167689
585.952	0.0168468
586.030	0.0167072
586.108	0.0167049
586.186	0.0167121
586.265	0.0167113
586.343	0.0166684
586.421	0.0166602
586.499	0.0167507
586.577	0.0167654
586.655	0.0167276
586.733	0.0166392
586.811	0.0164801
586.890	0.0164868
586.968	0.0165644
587.046	0.0166467
587.124	0.0166763
587.202	0.0166900
587.280	0.0167142
587.358	0.0166061
587.436	0.0166817
587.515	0.0167419
587.593	0.0167114
587.671	0.0167263
587.749	0.0166922
587.827	0.0164892
587.905	0.0166343
587.983	0.0168005
588.061	0.0167081
588.140	0.0165176
588.218	0.0165392
588.296	0.0165065
588.374	0.0166293
588.452	0.0167688
588.530	0.0166283
588.608	0.0164343
588.686	0.0166379
588.765	0.0166528
588.843	0.0166940
588.921	0.0166846
588.999	0.0165292
589.077	0.0165376
589.155	0.0166831
589.233	0.0167118
589.311	0.0166406
589.390	0.0167236
589.468	0.0166515
589.546	0.0166247
589.624	0.0165549
589.702	0.0167225
589.780	0.0166075
589.858	0.0165895
589.936	0.0166423
590.015	0.0166216
590.093	0.0167764
590.171	0.0165894
590.249	0.0167158
590.327	0.0166589
590.405	0.0166566
590.483	0.0166335
590.561	0.0165750
590.640	0.0166906
590.718	0.0166354
590.796	0.0165804
590.874	0.0165574
590.952	0.0166013
591.030	0.0165405
591.108	0.0165724
591.186	0.0165058
591.265	0.0166456
591.343	0.0164265
591.421	0.0166216
591.499	0.0165883
591.577	0.0164565
591.655	0.0166431
591.733	0.0164796
591.811	0.0165775
591.890	0.0165680
591.968	0.0165562
592.046	0.0166650
592.124	0.0166607
592.202	0.0166335
592.280	0.0166576
592.358	0.0167092
592.436	0.0167992
592.515	0.0168972
592.593	0.0168613
592.671	0.0168093
592.749	0.0167267
592.827	0.0169352
592.905	0.0169263
592.983	0.0169826
593.061	0.0169198
593.140	0.0168848
593.218	0.0168655
593.296	0.0168777
593.374	0.0169057
593.452	0.0168316
593.530	0.0167017
593.608	0.0167294
593.686	0.0167606
593.765	0.0166750
593.843	0.0166817
593.921	0.0166957
593.999	0.0165761
594.077	0.0165842
594.155	0.0167301
594.233	0.0165802
594.311	0.0165834
594.390	0.0165452
594.468	0.0165966
594.546	0.0166718
594.624	0.0166915
594.702	0.0166029
594.780	0.0166366
594.858	0.0166763
594.936	0.0167572
595.015	0.0167333
595.093	0.0166499
595.171	0.0166652
595.249	0.0166706
595.327	0.0167698
595.405	0.0165441
595.483	0.0167458
595.561	0.0166086
595.640	0.0168511
595.718	0.0166875
595.796	0.0165427
595.874	0.0166588
595.952	0.0167538
596.030	0.0166510
596.108	0.0166491
596.186	0.0166846
596.265	0.0167306
596.343	0.0165885
596.421	0.0165645
596.499	0.0166412
596.577	0.0166136
596.655	0.0165788
596.733	0.0162740
596.811	0.0164327
596.890	0.0166505
596.968	0.0166095
597.046	0.0166727
597.124	0.0165738
597.202	0.0165756
597.280	0.0166660
597.358	0.0167178
597.436	0.0167300
597.515	0.0165680
597.593	0.0166483
597.671	0.0166637
597.749	0.0167014
597.827	0.0166723
597.905	0.0167594
597.983	0.0164508
598.061	0.0166730
598.140	0.0166766
598.218	0.0165223
598.296	0.0165852
598.374	0.0165969
598.452	0.0165272
598.530	0.0164120
598.608	0.0164340
598.686	0.0164832
598.765	0.0164864
598.843	0.0164931
598.921	0.0163702
598.999	0.0164101
599.077	0.0165066
599.155	0.0164156
599.233	0.0163614
599.311	0.0164111
599.390	0.0163613
599.468	0.0164654
599.546	0.0164248
599.624	0.0163908
599.702	0.0163844
599.780	0.0163940
599.858	0.0164999
599.936	0.0165065
600.015	0.0164272
600.093	0.0165316
600.171	0.0165878
600.249	0.0166354
600.327	0.0165759
600.405	0.0166190
600.483	0.0166078
600.561	0.0165298
600.640	0.0164777
600.718	0.0165876
600.796	0.0166215
600.874	0.0164175
600.952	0.0164019
601.030	0.0164661
601.108	0.0164461
601.186	0.0163854
601.265	0.0163638
601.343	0.0164658
601.421	0.0166119
601.499	0.0165041
601.577	0.0165917
601.655	0.0165810
601.733	0.0166666
601.811	0.0166821
601.890	0.0167722
601.968	0.0166687
602.046	0.0169338
602.124	0.0167548
602.202	0.0168862
602.280	0.0169270
602.358	0.0167371
602.436	0.0168322
602.515	0.0168021
602.593	0.0169768
602.671	0.0169207
602.749	0.0167962
602.827	0.0168008
602.905	0.0167287
602.983	0.0167262
603.061	0.0166322
603.140	0.0165779
603.218	0.0166022
603.296	0.0165189
603.374	0.0165492
603.452	0.0165288
603.530	0.0165977
603.608	0.0162788
603.686	0.0163157
603.765	0.0163532
603.843	0.0164357
603.921	0.0164591
603.999	0.0163923
604.077	0.0165554
604.155	0.0163714
604.233	0.0165727
604.311	0.0165910
604.390	0.0167417
604.468	0.0167156
604.546	0.0166434
604.624	0.0168024
604.702	0.0169386
604.780	0.0168288
604.858	0.0167701
604.936	0.0168505
605.015	0.0169037
605.093	0.0169820
605.171	0.0168164
605.249	0.0167582
605.327	0.0167896
605.405	0.0168419
605.483	0.0167830
605.561	0.0168978
605.640	0.0167038
605.718	0.0166039
605.796	0.0168794
605.874	0.0167464
605.952	0.0166309
606.030	0.0166872
606.108	0.0168026
606.186	0.0167391
606.265	0.0167309
606.343	0.0168874
606.421	0.0168791
606.499	0.0166705
606.577	0.0168989
606.655	0.0168232
606.733	0.0167725
606.811	0.0167804
606.890	0.0167120
606.968	0.0166556
607.046	0.0167095
607.124	0.0167467
607.202	0.0165812
607.280	0.0164130
607.358	0.0165766
607.436	0.0165695
607.515	0.0164626
607.593	0.0164007
607.671	0.0164710
607.749	0.0163617
607.827	0.0162888
607.905	0.0163504
607.983	0.0164214
608.061	0.0165414
608.140	0.0165260
608.218	0.0164984
608.296	0.0166006
608.374	0.0166415
608.452	0.0165920
608.530	0.0167348
608.608	0.0168052
608.686	0.0169505
608.765	0.0170107
608.843	0.0170734
608.921	0.0169044
608.999	0.0169256
609.077	0.0171078
609.155	0.0170409
609.233	0.0169162
609.311	0.0169081
609.390	0.0170247
609.468	0.0169299
609.546	0.0165921
609.624	0.0164709
609.702	0.0166243
609.780	0.0166109
609.858	0.0163985
609.936	0.0163748
610.015	0.0163036
610.093	0.0161527
610.171	0.0161826
610.249	0.0161585
610.327	0.0162712
610.405	0.0162268
610.483	0.0162228
610.561	0.0163719
610.640	0.0163924
610.718	0.0164891
610.796	0.0165730
610.874	0.0168364
610.952	0.0168188
611.030	0.0169230
611.108	0.0172219
611.186	0.0172441
611.265	0.0172447
611.343	0.0174607
611.421	0.0174237
611.499	0.0174354
611.577	0.0176347
611.655	0.0175346
611.733	0.0175941
611.811	0.0175303
611.890	0.0174722
611.968	0.0172930
612.046	0.0171223
612.124	0.0169708
612.202	0.0168148
612.280	0.0165970
612.358	0.0164182
612.436	0.0162905
612.515	0.0159771
612.593	0.0157142
612.671	0.0157017
612.749	0.0157024
612.827	0.0156098
612.905	0.0153655
612.983	0.0152357
613.061	0.0154090
613.140	0.0154758
613.218	0.0154780
613.296	0.0157270
613.374	0.0156435
613.452	0.0157666
613.530	0.0159888
613.608	0.0161652
613.686	0.0163161
613.765	0.0165608
613.843	0.0168151
613.921	0.0169507
613.999	0.0172726
614.077	0.0174197
614.155	0.0177264
614.233	0.0177271
614.311	0.0179584
614.390	0.0181306
614.468	0.0181205
614.546	0.0182539
614.624	0.0183868
614.702	0.0181827
614.780	0.0181328
614.858	0.0181439
614.936	0.0179237
615.015	0.0179539
615.093	0.0178562
615.171	0.0175452
615.249	0.0173505
615.327	0.0171156
615.405	0.0170007
615.483	0.0168240
615.561	0.0166930
615.640	0.0163589
615.718	0.0162612
615.796	0.0160381
615.874	0.0160358
615.952	0.0158546
616.030	0.0157319
616.108	0.0158249
616.186	0.0155531
616.265	0.0157061
616.343	0.0156015
616.421	0.0156683
616.499	0.0156800
616.577	0.0158465
616.655	0.0157890
616.733	0.0158083
616.811	0.0160924
616.890	0.0160712
616.968	0.0160495
617.046	0.0163206
617.124	0.0163754
617.202	0.0163896
617.280	0.0164358
617.358	0.0163425
617.436	0.0164355
617.515	0.0165772
617.593	0.0163641
617.671	0.0163207
617.749	0.0164082
617.827	0.0163977
617.905	0.0166196
617.983	0.0164394
618.061	0.0162640
618.140	0.0165010
618.218	0.0164793
618.296	0.0165332
618.374	0.0165305
618.452	0.0164263
618.530	0.0163590
618.608	0.0164952
618.686	0.0166239
618.765	0.0167081
618.843	0.0167027
618.921	0.0168582
618.999	0.0169418
619.077	0.0170646
619.155	0.0172134
619.233	0.0172926
619.311	0.0175036
619.390	0.0176603
619.468	0.0176734
619.546	0.0179093
619.624	0.0178757
619.702	0.0181340
619.780	0.0180302
619.858	0.0180658
619.936	0.0179966
620.015	0.0180889
620.093	0.0179277
620.171	0.0176520
620.249	0.0175227
620.327	0.0172211
620.405	0.0170794
620.483	0.0165842
620.561	0.0163378
620.640	0.0160538
620.718	0.0157468
620.796	0.0154959
620.874	0.0152065
620.952	0.0150211
621.030	0.0149352
621.108	0.0147142
621.186	0.0145705
621.265	0.0145528
621.343	0.0146353
621.421	0.0146374
621.499	0.0145478
621.577	0.0147488
621.655	0.0148260
621.733	0.0151813
621.811	0.0152792
621.890	0.0154830
621.968	0.0156848
622.046	0.0158965
622.124	0.0162812
622.202	0.0166309
622.280	0.0167143
622.358	0.0169038
622.436	0.0169723
622.515	0.0171072
622.593	0.0173644
622.671	0.0175039
622.749	0.0175096
622.827	0.0175862
622.905	0.0175994
622.983	0.0175645
623.061	0.0175759
623.140	0.0176566
623.218	0.0175658
623.296	0.0176255
623.374	0.0174133
623.452	0.0176875
623.530	0.0176490
623.608	0.0176590
623.686	0.0177153
623.765	0.0176877
623.843	0.0178188
623.921	0.0178786
623.999	0.0177067
624.077	0.0178793
624.155	0.0178452
624.233	0.0178690
624.311	0.0177305
624.390	0.0178072
624.468	0.0177867
624.546	0.0175555
624.624	0.0173859
624.702	0.0173204
624.780	0.0171712
624.858	0.0169830
624.936	0.0169551
625.015	0.0166083
625.093	0.0164287
625.171	0.0162867
625.249	0.0160959
625.327	0.0158500
625.405	0.0157481
625.483	0.0154667
625.561	0.0152129
625.640	0.0149471
625.718	0.0149744
625.796	0.0148843
625.874	0.0146301
625.952	0.0145116
626.030	0.0142912
626.108	0.0143228
626.186	0.0143083
626.265	0.0142686
626.343	0.0142995
626.421	0.0144314
626.499	0.0146112
626.577	0.0146317
626.655	0.0147814
626.733	0.0150916
626.811	0.0155959
626.890	0.0156394
626.968	0.0160222
627.046	0.0162516
627.124	0.0167541
627.202	0.0170618
627.280	0.0174175
627.358	0.0176521
627.436	0.0178265
627.515	0.0182519
627.593	0.0184048
627.671	0.0186214
627.749	0.0187742
627.827	0.0190445
627.905	0.0189153
627.983	0.0191360
628.061	0.0190029
628.140	0.0189729
628.218	0.0190779
628.296	0.0189768
628.374	0.0187793
628.452	0.0186889
628.530	0.0186012
628.608	0.0185485
628.686	0.0183705
628.765	0.0179587
628.843	0.0178403
628.921	0.0177374
628.999	0.0176608
629.077	0.0175154
629.155	0.0172720
629.233	0.0171426
629.311	0.0170413
629.390	0.0168450
629.468	0.0166608
629.546	0.0163869
629.624	0.0160416
629.702	0.0158511
629.780	0.0156800
629.858	0.0154138
629.936	0.0151316
630.015	0.0150758
630.093	0.0147340
630.171	0.0147502
630.249	0.0146005
630.327	0.0142281
630.405	0.0143332
630.483	0.0141650
630.561	0.0139700
630.640	0.0141856
630.718	0.0141088
630.796	0.0142380
630.874	0.0145853
630.952	0.0145303
631.030	0.0146004
631.108	0.0150852
631.186	0.0153116
631.265	0.0155456
631.343	0.0157177
631.421	0.0160876
631.499	0.0164248
631.577	0.0166547
631.655	0.0168042
631.733	0.0171871
631.811	0.0172799
631.890	0.0175455
631.968	0.0176692
632.046	0.0178460
632.124	0.0181671
632.202	0.0182626
632.280	0.0183915
632.358	0.0184606
632.436	0.0185352
632.515	0.0186514
632.593	0.0186640
632.671	0.0185176
632.749	0.0184268
632.827	0.0184197
632.905	0.0182189
632.983	0.0181792
633.061	0.0179518
633.140	0.0175818
633.218	0.0174888
633.296	0.0172866
633.374	0.0170901
633.452	0.0168530
633.530	0.0167194
633.608	0.0164539
633.686	0.0162051
633.765	0.0161480
633.843	0.0160411
633.921	0.0158884
633.999	0.0157149
634.077	0.0156598
634.155	0.0155882
634.233	0.0156875
634.311	0.0156939
634.390	0.0155674
634.468	0.0156589
634.546	0.0158646
634.624	0.0159124
634.702	0.0160375
634.780	0.0161325
634.858	0.0163557
634.936	0.0166377
635.015	0.0166584
635.093	0.0169264
635.171	0.0170533
635.249	0.0169754
635.327	0.0172507
635.405	0.0172470
635.483	0.0172286
635.561	0.0173633
635.640	0.0173297
635.718	0.0174020
635.796	0.0172041
635.874	0.0173389
635.952	0.0173182
636.030	0.0171886
636.108	0.0173272
636.186	0.0172564
636.265	0.0173178
636.343	0.0173022
636.421	0.0170992
636.499	0.0169623
636.577	0.0170300
636.655	0.0167571
636.733	0.0167761
636.811	0.0165400
636.890	0.0163113
636.968	0.0161140
637.046	0.0159910
637.124	0.0158059
637.202	0.0157103
637.280	0.0155964
637.358	0.0155619
637.436	0.0154291
637.515	0.0154402
637.593	0.0152908
637.671	0.0153727
637.749	0.0154743
637.827	0.0154433
637.905	0.0154195
637.983	0.0154996
638.061	0.0154077
638.140	0.0158733
638.218	0.0157250
638.296	0.0158013
638.374	0.0158245
638.452	0.0161186
638.530	0.0162469
638.608	0.0164160
638.686	0.0165771
638.765	0.0167575
638.843	0.0168965
638.921	0.0173138
638.999	0.0174655
639.077	0.0174984
639.155	0.0176987
639.233	0.0181023
639.311	0.0182275
639.390	0.0183629
639.468	0.0186314
639.546	0.0187367
639.624	0.0186840
639.702	0.0189456
639.780	0.0189647
639.858	0.0188142
639.936	0.0187987
640.015	0.0186784
640.093	0.0186562
640.171	0.0185968
640.249	0.0184921
640.327	0.0182087
640.405	0.0179694
640.483	0.0179420
640.561	0.0177242
640.640	0.0175776
640.718	0.0173315
640.796	0.0171084
640.874	0.0169756
640.952	0.0166628
641.030	0.0165467
641.108	0.0162219
641.186	0.0160193
641.265	0.0158649
641.343	0.0157156
641.421	0.0153162
641.499	0.0151836
641.577	0.0152408
641.655	0.0149268
641.733	0.0147748
641.811	0.0146977
641.890	0.0145685
641.968	0.0144158
642.046	0.0144999
642.124	0.0144595
642.202	0.0144552
642.280	0.0145424
642.358	0.0147863
642.436	0.0148677
642.515	0.0150470
642.593	0.0151524
642.671	0.0154194
642.749	0.0158597
642.827	0.0159480
642.905	0.0162564
642.983	0.0164106
643.061	0.0166904
643.140	0.0167813
643.218	0.0169265
643.296	0.0170480
643.374	0.0172105
643.452	0.0172034
643.530	0.0172890
643.608	0.0173878
643.686	0.0174483
643.765	0.0174936
643.843	0.0173197
643.921	0.0174215
643.999	0.0174066
644.077	0.0173727
644.155	0.0174280
644.233	0.0173534
644.311	0.0172033
644.390	0.0171709
644.468	0.0171664
644.546	0.0170861
644.624	0.0169283
644.702	0.0168441
644.780	0.0170145
644.858	0.0169958
644.936	0.0169550
645.015	0.0168634
645.093	0.0167982
645.171	0.0168280
645.249	0.0168675
645.327	0.0167275
645.405	0.0167606
645.483	0.0168287
645.561	0.0165423
645.640	0.0166629
645.718	0.0166142
645.796	0.0166697
645.874	0.0166219
645.952	0.0166956
646.030	0.0168116
646.108	0.0167732
646.186	0.0168455
646.265	0.0170100
646.343	0.0171117
646.421	0.0171974
646.499	0.0172349
646.577	0.0174138
646.655	0.0176011
646.733	0.0175636
646.811	0.0175988
646.890	0.0176336
646.968	0.0174514
647.046	0.0175005
647.124	0.0173594
647.202	0.0172659
647.280	0.0173492
647.358	0.0170836
647.436	0.0168753
647.515	0.0166873
647.593	0.0165554
647.671	0.0161973
647.749	0.0160324
647.827	0.0158037
647.905	0.0156008
647.983	0.0155272
648.061	0.0152915
648.140	0.0151839
648.218	0.0149488
648.296	0.0147926
648.374	0.0149335
648.452	0.0147187
648.530	0.0146350
648.608	0.0146165
648.686	0.0145827
648.765	0.0144913
648.843	0.0145418
648.921	0.0145879
648.999	0.0148831
649.077	0.0149705
649.155	0.0149995
649.233	0.0152223
649.311	0.0154295
649.390	0.0156472
649.468	0.0157259
649.546	0.0159900
649.624	0.0160732
649.702	0.0164509
649.780	0.0166568
649.858	0.0168269
649.936	0.0168961
650.015	0.0171863
650.093	0.0173880
650.171	0.0174385
650.249	0.0174867
650.327	0.0178648
650.405	0.0179395
650.483	0.0181676
650.561	0.0183334
650.640	0.0183705
650.718	0.0185972
650.796	0.0187159
650.874	0.0189143
650.952	0.0190084
651.030	0.0189091
651.108	0.0189023
651.186	0.0189015
651.265	0.0189808
651.343	0.0187427
651.421	0.0186089
651.499	0.0184873
651.577	0.0182516
651.655	0.0181567
651.733	0.0177205
651.811	0.0174701
651.890	0.0172679
651.968	0.0169108
652.046	0.0166722
652.124	0.0163490
652.202	0.0160188
652.280	0.0157044
652.358	0.0155819
652.436	0.0153634
652.515	0.0151328
652.593	0.0150910
652.671	0.0149854
652.749	0.0148351
652.827	0.0148090
652.905	0.0145899
652.983	0.0146116
653.061	0.0148165
653.140	0.0149273
653.218	0.0148649
653.296	0.0148073
653.374	0.0148592
653.452	0.0149464
653.530	0.0153288
653.608	0.0152990
653.686	0.0155499
653.765	0.0157475
653.843	0.0158817
653.921	0.0160554
653.999	0.0163330
654.077	0.0164588
654.155	0.0165645
654.233	0.0166068
654.311	0.0169469
654.390	0.0171532
654.468	0.0173840
654.546	0.0173754
654.624	0.0175292
654.702	0.0177234
654.780	0.0176526
654.858	0.0175856
654.936	0.0177259
655.015	0.0178052
655.093	0.0176745
655.171	0.0177541
655.249	0.0176604
655.327	0.0177908
655.405	0.0175997
655.483	0.0172323
655.561	0.0172760
655.640	0.0171053
655.718	0.0169402
655.796	0.0169566
655.874	0.0165906
655.952	0.0164174
656.030	0.0163185
656.108	0.0160107
656.186	0.0159371
656.265	0.0156631
656.343	0.0154756
656.421	0.0154450
656.499	0.0155879
656.577	0.0154655
656.655	0.0154785
656.733	0.0154863
656.811	0.0156163
656.890	0.0156699
656.968	0.0159666
657.046	0.0160059
657.124	0.0161988
657.202	0.0163728
657.280	0.0163946
657.358	0.0165694
657.436	0.0169369
657.515	0.0169002
657.593	0.0170437
657.671	0.0172727
657.749	0.0171960
657.827	0.0174667
657.905	0.0176230
657.983	0.0176296
658.061	0.0176543
658.140	0.0176725
658.218	0.0178507
658.296	0.0178746
658.374	0.0178790
658.452	0.0179823
658.530	0.0181237
658.608	0.0179285
658.686	0.0178127
658.765	0.0178591
658.843	0.0177561
658.921	0.0175191
658.999	0.0174566
659.077	0.0173458
659.155	0.0172244
659.233	0.0168912
659.311	0.0166096
659.390	0.0166061
659.468	0.0164220
659.546	0.0162662
659.624	0.0163695
659.702	0.0159337
659.780	0.0160329
659.858	0.0161743
659.936	0.0160997
660.015	0.0161469
660.093	0.0160687
660.171	0.0159074
660.249	0.0159984
660.327	0.0160131
660.405	0.0159483
660.483	0.0160039
660.561	0.0158904
660.640	0.0158444
660.718	0.0159391
660.796	0.0159189
660.874	0.0157419
660.952	0.0157921
661.030	0.0158402
661.108	0.0156428
661.186	0.0158015
661.265	0.0157230
661.343	0.0158408
661.421	0.0158273
661.499	0.0157825
661.577	0.0159780
661.655	0.0158793
661.733	0.0160159
661.811	0.0159839
661.890	0.0160862
661.968	0.0160638
662.046	0.0161739
662.124	0.0162709
662.202	0.0163172
662.280	0.0165842
662.358	0.0166762
662.436	0.0166158
662.515	0.0168909
662.593	0.0168757
662.671	0.0169992
662.749	0.0171001
662.827	0.0171360
662.905	0.0172385
662.983	0.0174895
663.061	0.0172693
663.140	0.0175671
663.218	0.0174509
663.296	0.0174241
663.374	0.0174312
663.452	0.0175101
663.530	0.0173624
663.608	0.0174800
663.686	0.0175164
663.765	0.0174220
663.843	0.0172617
663.921	0.0170464
663.999	0.0171400
664.077	0.0170183
664.155	0.0169297
664.233	0.0168159
664.311	0.0167472
664.390	0.0167976
664.468	0.0166283
664.546	0.0165575
664.624	0.0165022
664.702	0.0164765
664.780	0.0163932
664.858	0.0163143
664.936	0.0163754
665.015	0.0163017
665.093	0.0161880
665.171	0.0159657
665.249	0.0161286
665.327	0.0160728
665.405	0.0161080
665.483	0.0161452
665.561	0.0160073
665.640	0.0160239
665.718	0.0161107
665.796	0.0161028
665.874	0.0161239
665.952	0.0161413
666.030	0.0164292
666.108	0.0163181
666.186	0.0164875
666.265	0.0166279
666.343	0.0165874
666.421	0.0167980
666.499	0.0170760
666.577	0.0169188
666.655	0.0171308
666.733	0.0170261
666.811	0.0170815
666.890	0.0169926
666.968	0.0171173
667.046	0.0170262
667.124	0.0169113
667.202	0.0169952
667.280	0.0169771
667.358	0.0169744
667.436	0.0169728
667.515	0.0168035
667.593	0.0169527
667.671	0.0168076
667.749	0.0167393
667.827	0.0167551
667.905	0.0166952
667.983	0.0166666
668.061	0.0165151
668.140	0.0165921
668.218	0.0165003
668.296	0.0164989
668.374	0.0164407
668.452	0.0163746
668.530	0.0162881
668.608	0.0163021
668.686	0.0160940
668.765	0.0160474
668.843	0.0159884
668.921	0.0160182
668.999	0.0159972
669.077	0.0160138
669.155	0.0159338
669.233	0.0159024
669.311	0.0159149
669.390	0.0161395
669.468	0.0162509
669.546	0.0161511
669.624	0.0162109
669.702	0.0162956
669.780	0.0163848
669.858	0.0166769
669.936	0.0167317
670.015	0.0166233
670.093	0.0169310
670.171	0.0168328
670.249	0.0169908
670.327	0.0170992
670.405	0.0170527
670.483	0.0171996
670.561	0.0173186
670.640	0.0172840
670.718	0.0173745
670.796	0.0174827
670.874	0.0174432
670.952	0.0173270
671.030	0.0174684
671.108	0.0173858
671.186	0.0173378
671.265	0.0172417
671.343	0.0172636
671.421	0.0171630
671.499	0.0171415
671.577	0.0169064
671.655	0.0168727
671.733	0.0169543
671.811	0.0167833
671.890	0.0166439
671.968	0.0168282
672.046	0.0166837
672.124	0.0166553
672.202	0.0165899
672.280	0.0165890
672.358	0.0167667
672.436	0.0168252
672.515	0.0167305
672.593	0.0167207
672.671	0.0167138
672.749	0.0166431
672.827	0.0167879
672.905	0.0164210
672.983	0.0163187
673.061	0.0163696
673.140	0.0161440
673.218	0.0161765
673.296	0.0161186
673.374	0.0158392
673.452	0.0158204
673.530	0.0157731
673.608	0.0157050
673.686	0.0156077
673.765	0.0155519
673.843	0.0157291
673.921	0.0158387
673.999	0.0158164
674.077	0.0159750
674.155	0.0161193
674.233	0.0163286
674.311	0.0162891
674.390	0.0163028
674.468	0.0165101
674.546	0.0165421
674.624	0.0167429
674.702	0.0168362
674.780	0.0170055
674.858	0.0170299
674.936	0.0172381
675.015	0.0171920
675.093	0.0173728
675.171	0.0174831
675.249	0.0175421
675.327	0.0176466
675.405	0.0177947
675.483	0.0177827
675.561	0.0177778
675.640	0.0177258
675.718	0.0177557
675.796	0.0175690
675.874	0.0174104
675.952	0.0175133
676.030	0.0172797
676.108	0.0171558
676.186	0.0169936
676.265	0.0169016
676.343	0.0166255
676.421	0.0165795
676.499	0.0165002
676.577	0.0164327
676.655	0.0163506
676.733	0.0161217
676.811	0.0162100
676.890	0.0160692
676.968	0.0161464
677.046	0.0161624
677.124	0.0162572
677.202	0.0162241
677.280	0.0162435
677.358	0.0163168
677.436	0.0163243
677.515	0.0164783
677.593	0.0165564
677.671	0.0166197
677.749	0.0164955
677.827	0.0165336
677.905	0.0166066
677.983	0.0165584
678.061	0.0166803
678.140	0.0165603
678.218	0.0165568
678.296	0.0167040
678.374	0.0165953
678.452	0.0164600
678.530	0.0165615
678.608	0.0166175
678.686	0.0164854
678.765	0.0165523
678.843	0.0166006
678.921	0.0166003
678.999	0.0165923
679.077	0.0165299
679.155	0.0164305
679.233	0.0164587
679.311	0.0165166
679.390	0.0163441
679.468	0.0162629
679.546	0.0163347
679.624	0.0161742
679.702	0.0164695
679.780	0.0165596
679.858	0.0164059
679.936	0.0164734
680.015	0.0165015
680.093	0.0165201
680.171	0.0166946
680.249	0.0164862
680.327	0.0165709
680.405	0.0166665
680.483	0.0166206
680.561	0.0166378
680.640	0.0166974
680.718	0.0165888
680.796	0.0166064
680.874	0.0167931
680.952	0.0167101
681.030	0.0165149
681.108	0.0165174
681.186	0.0166797
681.265	0.0167715
681.343	0.0166921
681.421	0.0167087
681.499	0.0166096
681.577	0.0166324
681.655	0.0167046
681.733	0.0167316
681.811	0.0166791
681.890	0.0166299
681.968	0.0165726
682.046	0.0165863
682.124	0.0166279
682.202	0.0165110
682.280	0.0166004
682.358	0.0166671
682.436	0.0166645
682.515	0.0165984
682.593	0.0166560
682.671	0.0167122
682.749	0.0166389
682.827	0.0165511
682.905	0.0164385
682.983	0.0164954
683.061	0.0164980
683.140	0.0164441
683.218	0.0164949
683.296	0.0164265
683.374	0.0163951
683.452	0.0162415
683.530	0.0162874
683.608	0.0164394
683.686	0.0163226
683.765	0.0163197
683.843	0.0163009
683.921	0.0162836
683.999	0.0164391
684.077	0.0162906
684.155	0.0163439
684.233	0.0164250
684.311	0.0163711
684.390	0.0164527
684.468	0.0164866
684.546	0.0166389
684.624	0.0163905
684.702	0.0165092
684.780	0.0167384
684.858	0.0166216
684.936	0.0167753
685.015	0.0166700
685.093	0.0168776
685.171	0.0167986
685.249	0.0169205
685.327	0.0168472
685.405	0.0169990
685.483	0.0170470
685.561	0.0168191
685.640	0.0170268
685.718	0.0169381
685.796	0.0168963
685.874	0.0169156
685.952	0.0168340
686.030	0.0168555
686.108	0.0169547
686.186	0.0169385
686.265	0.0168310
686.343	0.0169147
686.421	0.0169186
686.499	0.0168731
686.577	0.0168452
686.655	0.0167717
686.733	0.0166959
686.811	0.0167093
686.890	0.0165943
686.968	0.0166176
687.046	0.0164220
687.124	0.0165886
687.202	0.0165411
687.280	0.0164500
687.358	0.0165377
687.436	0.0166872
687.515	0.0164878
687.593	0.0165115
687.671	0.0163963
687.749	0.0164216
687.827	0.0166399
687.905	0.0166623
687.983	0.0165673
688.061	0.0164913
688.140	0.0165264
688.218	0.0165688
688.296	0.0166261
688.374	0.0165068
688.452	0.0165490
688.530	0.0165715
688.608	0.0167310
688.686	0.0165357
688.765	0.0164924
688.843	0.0165867
688.921	0.0167509
688.999	0.0168544
689.077	0.0167341
689.155	0.0167934
689.233	0.0168669
689.311	0.0169910
689.390	0.0169106
689.468	0.0170113
689.546	0.0170948
689.624	0.0171365
689.702	0.0172224
689.780	0.0173258
689.858	0.0172108
689.936	0.0171427
690.015	0.0172835
690.093	0.0172460
690.171	0.0173404
690.249	0.0172702
690.327	0.0171500
690.405	0.0170763
690.483	0.0170377
690.561	0.0171497
690.640	0.0171973
690.718	0.0169965
690.796	0.0168995
690.874	0.0166926
690.952	0.0167247
691.030	0.0165806
691.108	0.0167307
691.186	0.0164919
691.265	0.0163281
691.343	0.0162698
691.421	0.0162872
691.499	0.0161513
691.577	0.0161282
691.655	0.0162118
691.733	0.0160714
691.811	0.0161528
691.890	0.0158999
691.968	0.0160708
692.046	0.0160744
692.124	0.0161372
692.202	0.0161179
692.280	0.0162210
692.358	0.0163844
692.436	0.0162991
692.515	0.0163241
692.593	0.0164924
692.671	0.0165693
692.749	0.0167036
692.827	0.0165440
692.905	0.0165820
692.983	0.0165768
693.061	0.0167244
693.140	0.0166218
693.218	0.0167226
693.296	0.0165573
693.374	0.0166000
693.452	0.0166367
693.530	0.0165345
693.608	0.0166107
693.686	0.0165588
693.765	0.0164262
693.843	0.0164594
693.921	0.0166070
693.999	0.0166430
694.077	0.0166046
694.155	0.0165382
694.233	0.0166408
694.311	0.0165916
694.390	0.0166769
694.468	0.0165968
694.546	0.0167519
694.624	0.0166735
694.702	0.0166406
694.780	0.0168215
694.858	0.0167532
694.936	0.0166715
695.015	0.0168869
695.093	0.0168339
695.171	0.0167451
695.249	0.0169205
695.327	0.0168764
695.405	0.0169556
695.483	0.0167239
695.561	0.0168011
695.640	0.0168434
695.718	0.0168193
695.796	0.0168491
695.874	0.0166451
695.952	0.0166771
696.030	0.0167534
696.108	0.0166216
696.186	0.0166239
696.265	0.0166470
696.343	0.0165965
696.421	0.0167181
696.499	0.0167622
696.577	0.0165752
696.655	0.0165993
696.733	0.0168179
696.811	0.0166503
696.890	0.0168098
696.968	0.0167645
697.046	0.0166982
697.124	0.0169878
697.202	0.0168202
697.280	0.0167467
697.358	0.0168740
697.436	0.0168449
697.515	0.0168530
697.593	0.0166798
697.671	0.0167307
697.749	0.0167268
697.827	0.0166565
697.905	0.0167411
697.983	0.0167507
698.061	0.0167786
698.140	0.0166102
698.218	0.0164967
698.296	0.0165263
698.374	0.0165744
698.452	0.0164966
698.530	0.0166700
698.608	0.0165723
698.686	0.0165211
698.765	0.0166499
698.843	0.0166223
698.921	0.0166016
698.999	0.0166726
699.077	0.0165921
699.155	0.0166903
699.233	0.0166216
699.311	0.0167065
699.390	0.0167130
699.468	0.0167320
699.546	0.0167694
699.624	0.0167812
699.702	0.0166498
699.780	0.0166741
699.858	0.0167970
699.936	0.0167053
700.015	0.0166828
700.093	0.0167777
700.171	0.0166589
700.249	0.0166978
700.327	0.0168671
700.405	0.0168180
700.483	0.0167686
700.561	0.0167450
700.640	0.0167962
700.718	0.0166759
700.796	0.0167673
700.874	0.0168767
700.952	0.0168784
701.030	0.0167787
701.108	0.0168182
701.186	0.0168990
701.265	0.0167886
701.343	0.0168478
701.421	0.0166865
701.499	0.0168298
701.577	0.0168279
701.655	0.0166100
701.733	0.0167102
701.811	0.0166615
701.890	0.0166699
701.968	0.0166425
702.046	0.0164875
702.124	0.0165971
702.202	0.0164210
702.280	0.0164313
702.358	0.0165466
702.436	0.0166143
702.515	0.0164057
702.593	0.0166127
702.671	0.0165990
702.749	0.0165244
702.827	0.0165495
702.905	0.0165269
702.983	0.0165817
703.061	0.0166154
703.140	0.0166487
703.218	0.0167396
703.296	0.0165278
703.374	0.0167290
703.452	0.0167717
703.530	0.0166598
703.608	0.0166501
703.686	0.0166872
703.765	0.0166790
703.843	0.0166628
703.921	0.0166515
703.999	0.0167001
704.077	0.0165779
704.155	0.0165765
704.233	0.0165828
704.311	0.0165933
704.390	0.0165279
704.468	0.0165347
704.546	0.0165775
704.624	0.0167448
704.702	0.0165932
704.780	0.0164259
704.858	0.0164177
704.936	0.0165102
705.015	0.0165832
705.093	0.0163766
705.171	0.0163383
705.249	0.0164297
705.327	0.0164011
705.405	0.0164635
705.483	0.0165364
705.561	0.0164941
705.640	0.0164572
705.718	0.0165202
705.796	0.0167412
705.874	0.0165999
705.952	0.0164828
706.030	0.0166589
706.108	0.0165444
706.186	0.0167365
706.265	0.0165389
706.343	0.0168533
706.421	0.0166924
706.499	0.0165799
706.577	0.0166692
706.655	0.0165382
706.733	0.0166303
706.811	0.0166466
706.890	0.0167247
706.968	0.0166857
707.046	0.0168921
707.124	0.0169660
707.202	0.0170599
707.280	0.0170012
707.358	0.0169188
707.436	0.0170133
707.515	0.0171631
707.593	0.0172111
707.671	0.0171674
707.749	0.0171040
707.827	0.0171699
707.905	0.0172811
707.983	0.0171812
708.061	0.0171426
708.140	0.0173286
708.218	0.0172643
708.296	0.0170838
708.374	0.0170985
708.452	0.0171204
708.530	0.0169595
708.608	0.0169206
708.686	0.0168571
708.765	0.0167447
708.843	0.0164968
708.921	0.0165461
708.999	0.0166110
709.077	0.0164917
709.155	0.0164563
709.233	0.0163419
709.311	0.0163528
709.390	0.0162876
709.468	0.0161692
709.546	0.0162678
709.624	0.0161613
709.702	0.0162543
709.780	0.0160307
709.858	0.0160726
709.936	0.0160794
710.015	0.0161182
710.093	0.0161387
710.171	0.0160638
710.249	0.0161316
710.327	0.0162324
710.405	0.0163257
710.483	0.0164268
710.561	0.0164528
710.640	0.0165466
710.718	0.0166078
710.796	0.0166367
710.874	0.0166571
710.952	0.0167345
711.030	0.0167847
711.108	0.0168011
711.186	0.0168063
711.265	0.0167393
711.343	0.0167333
711.421	0.0168013
711.499	0.0168694
711.577	0.0167828
711.655	0.0167497
711.733	0.0165917
711.811	0.0167450
711.890	0.0166594
711.968	0.0166582
712.046	0.0165487
712.124	0.0166528
712.202	0.0164639
712.280	0.0165263
712.358	0.0164731
712.436	0.0163694
712.515	0.0164985
712.593	0.0164478
712.671	0.0166419
712.749	0.0165545
712.827	0.0165540
712.905	0.0164748
712.983	0.0164596
713.061	0.0165169
713.140	0.0164331
713.218	0.0164620
713.296	0.0164402
713.374	0.0164497
713.452	0.0164113
713.530	0.0163299
713.608	0.0164181
713.686	0.0164363
713.765	0.0163732
713.843	0.0164618
713.921	0.0164211
713.999	0.0163136
714.077	0.0163417
714.155	0.0164259
714.233	0.0164610
714.311	0.0164444
714.390	0.0164640
714.468	0.0164812
714.546	0.0164749
714.624	0.0163651
714.702	0.0166343
714.780	0.0165411
714.858	0.0165405
714.936	0.0166216
715.015	0.0166974
715.093	0.0166837
715.171	0.0166597
715.249	0.0166869
715.327	0.0168645
715.405	0.0167973
715.483	0.0169070
715.561	0.0169121
715.640	0.0169406
715.718	0.0171220
715.796	0.0170532
715.874	0.0169833
715.952	0.0170817
716.030	0.0170065
716.108	0.0170911
716.186	0.0169971
716.265	0.0170782
716.343	0.0170913
716.421	0.0170367
716.499	0.0172107
716.577	0.0169009
716.655	0.0170087
716.733	0.0169798
716.811	0.0167005
716.890	0.0168375
716.968	0.0168362
717.046	0.0167385
717.124	0.0165230
717.202	0.0166457
717.280	0.0166441
717.358	0.0165577
717.436	0.0163973
717.515	0.0164451
717.593	0.0163338
717.671	0.0163280
717.749	0.0165169
717.827	0.0163882
717.905	0.0165128
717.983	0.0166289
718.061	0.0164371
718.140	0.0165459
718.218	0.0165820
718.296	0.0165443
718.374	0.0166529
718.452	0.0166113
718.530	0.0166660
718.608	0.0166754
718.686	0.0167609
718.765	0.0168105
718.843	0.0169128
718.921	0.0167510
718.999	0.0167756
719.077	0.0169152
719.155	0.0168621
719.233	0.0169044
719.311	0.0169083
719.390	0.0167638
719.468	0.0169003
719.546	0.0167466
719.624	0.0166913
719.702	0.0167294
719.780	0.0168784
719.858	0.0168119
719.936	0.0167701
720.015	0.0166618
720.093	0.0166966
720.171	0.0167805
720.249	0.0167830
720.327	0.0166072
720.405	0.0165606
720.483	0.0166865
720.561	0.0167592
720.640	0.0167561
720.718	0.0168271
720.796	0.0168441
720.874	0.0167168
720.952	0.0167271
721.030	0.0168118
721.108	0.0167645
721.186	0.0168642
721.265	0.0166830
721.343	0.0166212
721.421	0.0165280
721.499	0.0167216
721.577	0.0166812
721.655	0.0165415
721.733	0.0165295
721.811	0.0164904
721.890	0.0165636
721.968	0.0165446
722.046	0.0163639
722.124	0.0164201
722.202	0.0163300
722.280	0.0160677
722.358	0.0162924
722.436	0.0162112
722.515	0.0161743
722.593	0.0161934
722.671	0.0161063
722.749	0.0161409
722.827	0.0162490
722.905	0.0162562
722.983	0.0163860
723.061	0.0164973
723.140	0.0164261
723.218	0.0164459
723.296	0.0166236
723.374	0.0166246
723.452	0.0166993
723.530	0.0168983
723.608	0.0167970
723.686	0.0168894
723.765	0.0169661
723.843	0.0169834
723.921	0.0170843
723.999	0.0170227
724.077	0.0170730
724.155	0.0170968
724.233	0.0170582
724.311	0.0169742
724.390	0.0170499
724.468	0.0170112
724.546	0.0170322
724.624	0.0170449
724.702	0.0169807
724.780	0.0168871
724.858	0.0170345
724.936	0.0168247
725.015	0.0168990
725.093	0.0169030
725.171	0.0168658
725.249	0.0168274
725.327	0.0169371
725.405	0.0169021
725.483	0.0167625
725.561	0.0167607
725.640	0.0168037
725.718	0.0167457
725.796	0.0168562
725.874	0.0166570
725.952	0.0167090
726.030	0.0166110
726.108	0.0166022
726.186	0.0165119
726.265	0.0166768
726.343	0.0165348
726.421	0.0162790
726.499	0.0164165
726.577	0.0162814
726.655	0.0163882
726.733	0.0163655
726.811	0.0160709
726.890	0.0161417
726.968	0.0160750
727.046	0.0161250
727.124	0.0160346
727.202	0.0159718
727.280	0.0159364
727.358	0.0159406
727.436	0.0158701
727.515	0.0160998
727.593	0.0159632
727.671	0.0160815
727.749	0.0160768
727.827	0.0161309
727.905	0.0161063
727.983	0.0161931
728.061	0.0162284
728.140	0.0163525
728.218	0.0165081
728.296	0.0164190
728.374	0.0166608
728.452	0.0166393
728.530	0.0167493
728.608	0.0167786
728.686	0.0168158
728.765	0.0167891
728.843	0.0169271
728.921	0.0169625
728.999	0.0169497
729.077	0.0171030
729.155	0.0170023
729.233	0.0170151
729.311	0.0169536
729.390	0.0168999
729.468	0.0170869
729.546	0.0169894
729.624	0.0169493
729.702	0.0170227
729.780	0.0169427
729.858	0.0167249
729.936	0.0168330
730.015	0.0168082
730.093	0.0167385
730.171	0.0166966
730.249	0.0166983
730.327	0.0166437
730.405	0.0168039
730.483	0.0166162
730.561	0.0166608
730.640	0.0165748
730.718	0.0167555
730.796	0.0167886
730.874	0.0166511
730.952	0.0167827
731.030	0.0167663
731.108	0.0169384
731.186	0.0168778
731.265	0.0168874
731.343	0.0169336
731.421	0.0168344
731.499	0.0167769
731.577	0.0169719
731.655	0.0169006
731.733	0.0170384
731.811	0.0170296
731.890	0.0170042
731.968	0.0169247
732.046	0.0168530
732.124	0.0170122
732.202	0.0168861
732.280	0.0168642
732.358	0.0170380
732.436	0.0170532
732.515	0.0169296
732.593	0.0168637
732.671	0.0167795
732.749	0.0167559
732.827	0.0166581
732.905	0.0166367
732.983	0.0165771
733.061	0.0164328
733.140	0.0162815
733.218	0.0164517
733.296	0.0163206
733.374	0.0162725
733.452	0.0161360
733.530	0.0162567
733.608	0.0163087
733.686	0.0162454
733.765	0.0162853
733.843	0.0162309
733.921	0.0162753
733.999	0.0163025
734.077	0.0162553
734.155	0.0162171
734.233	0.0161323
734.311	0.0162988
734.390	0.0163820
734.468	0.0163397
734.546	0.0162882
734.624	0.0162872
734.702	0.0164046
734.780	0.0164791
734.858	0.0164008
734.936	0.0164860
735.015	0.0165886
735.093	0.0165709
735.171	0.0166488
735.249	0.0166398
735.327	0.0167767
735.405	0.0165490
735.483	0.0167325
735.561	0.0167991
735.640	0.0167664
735.718	0.0167658
735.796	0.0169733
735.874	0.0169309
735.952	0.0168969
736.030	0.0170058
736.108	0.0169336
736.186	0.0169491
736.265	0.0169705
736.343	0.0170511
736.421	0.0169749
736.499	0.0171104
736.577	0.0170627
736.655	0.0170507
736.733	0.0168513
736.811	0.0169637
736.890	0.0170219
736.968	0.0170190
737.046	0.0169330
737.124	0.0168990
737.202	0.0169054
737.280	0.0168958
737.358	0.0168111
737.436	0.0169780
737.515	0.0168497
737.593	0.0168272
737.671	0.0168565
737.749	0.0167237
737.827	0.0167099
737.905	0.0167522
737.983	0.0167911
738.061	0.0165096
738.140	0.0165199
738.218	0.0165509
738.296	0.0164130
738.374	0.0164067
738.452	0.0165633
738.530	0.0165229
738.608	0.0163197
738.686	0.0164000
738.765	0.0163642
738.843	0.0164163
738.921	0.0165318
738.999	0.0163219
739.077	0.0163115
739.155	0.0164542
739.233	0.0165751
739.311	0.0164747
739.390	0.0164574
739.468	0.0165545
739.546	0.0165531
739.624	0.0166744
739.702	0.0167266
739.780	0.0165326
739.858	0.0165488
739.936	0.0166987
740.015	0.0168355
740.093	0.0167483
740.171	0.0168002
740.249	0.0166931
740.327	0.0166452
740.405	0.0167339
740.483	0.0169196
740.561	0.0168974
740.640	0.0167159
740.718	0.0168159
740.796	0.0168240
740.874	0.0168877
740.952	0.0168166
741.030	0.0169028
741.108	0.0167564
741.186	0.0168927
741.265	0.0167645
741.343	0.0166817
741.421	0.0167511
741.499	0.0167399
741.577	0.0165993
741.655	0.0166505
741.733	0.0166987
741.811	0.0166010
741.890	0.0166184
741.968	0.0166128
742.046	0.0165445
742.124	0.0165712
742.202	0.0165663
742.280	0.0165910
742.358	0.0165697
742.436	0.0165102
742.515	0.0165379
742.593	0.0166208
742.671	0.0166033
742.749	0.0166441
742.827	0.0166763
742.905	0.0165915
742.983	0.0166240
743.061	0.0166289
743.140	0.0165019
743.218	0.0166167
743.296	0.0166269
743.374	0.0166575
743.452	0.0166086
743.530	0.0165276
743.608	0.0164885
743.686	0.0164130
743.765	0.0164006
743.843	0.0164833
743.921	0.0163774
743.999	0.0163598
744.077	0.0163680
744.155	0.0163944
744.233	0.0163876
744.311	0.0164304
744.390	0.0164659
744.468	0.0165184
744.546	0.0163919
744.624	0.0164077
744.702	0.0163709
744.780	0.0165195
744.858	0.0164792
744.936	0.0164384
745.015	0.0165038
745.093	0.0165582
745.171	0.0164488
745.249	0.0164095
745.327	0.0165229
745.405	0.0165601
745.483	0.0164844
745.561	0.0165159
745.640	0.0165810
745.718	0.0166008
745.796	0.0166197
745.874	0.0166095
745.952	0.0166409
746.030	0.0166321
746.108	0.0167268
746.186	0.0166087
746.265	0.0166167
746.343	0.0168438
746.421	0.0167541
746.499	0.0166957
746.577	0.0167208
746.655	0.0167793
746.733	0.0168362
746.811	0.0168664
746.890	0.0169102
746.968	0.0169456
747.046	0.0168465
747.124	0.0167558
747.202	0.0168696
747.280	0.0168037
747.358	0.0169487
747.436	0.0170723
747.515	0.0169601
747.593	0.0168851
747.671	0.0170963
747.749	0.0168790
747.827	0.0169064
747.905	0.0168493
747.983	0.0168506
748.061	0.0168139
748.140	0.0169377
748.218	0.0167678
748.296	0.0167410
748.374	0.0167238
748.452	0.0166039
748.530	0.0168600
748.608	0.0168195
748.686	0.0165578
748.765	0.0165131
748.843	0.0166102
748.921	0.0165668
748.999	0.0164240
749.077	0.0164465
749.155	0.0163834
749.233	0.0164444
749.311	0.0162351
749.390	0.0162865
749.468	0.0162773
749.546	0.0162612
749.624	0.0162943
749.702	0.0163525
749.780	0.0162556
749.858	0.0164427
749.936	0.0163606
750.015	0.0163101
750.093	0.0162937
750.171	0.0163673
750.249	0.0164024
750.327	0.0164235
750.405	0.0164388
750.483	0.0162579
750.561	0.0163461
750.640	0.0163480
750.718	0.0163717
750.796	0.0162931
750.874	0.0163007
750.952	0.0162868
751.030	0.0163013
751.108	0.0162598
751.186	0.0162199
751.265	0.0161730
751.343	0.0161020
751.421	0.0161856
751.499	0.0162057
751.577	0.0162560
751.655	0.0162193
751.733	0.0162572
751.811	0.0162473
751.890	0.0164606
751.968	0.0165560
752.046	0.0164964
752.124	0.0168108
752.202	0.0169596
752.280	0.0171207
752.358	0.0172675
752.436	0.0173383
752.515	0.0174480
752.593	0.0172967
752.671	0.0173093
752.749	0.0173047
752.827	0.0173558
752.905	0.0172883
752.983	0.0171890
753.061	0.0170673
753.140	0.0168739
753.218	0.0170573
753.296	0.0169961
753.374	0.0166717
753.452	0.0169444
753.530	0.0168559
753.608	0.0168660
753.686	0.0168770
753.765	0.0167158
753.843	0.0167503
753.921	0.0168321
753.999	0.0169490
754.077	0.0167906
754.155	0.0168362
754.233	0.0168777
754.311	0.0168576
754.390	0.0168270
754.468	0.0167619
754.546	0.0167059
754.624	0.0167622
754.702	0.0168086
754.780	0.0167096
754.858	0.0166609
754.936	0.0168319
755.015	0.0166823
755.093	0.0166373
755.171	0.0166163
755.249	0.0166131
755.327	0.0165927
755.405	0.0166953
755.483	0.0166235
755.561	0.0165480
755.640	0.0165160
755.718	0.0165739
755.796	0.0164249
755.874	0.0165340
755.952	0.0165396
756.030	0.0165897
756.108	0.0166945
756.186	0.0166035
756.265	0.0166089
756.343	0.0165297
756.421	0.0166006
756.499	0.0167645
756.577	0.0167353
756.655	0.0167625
756.733	0.0166710
756.811	0.0166507
756.890	0.0165892
756.968	0.0167336
757.046	0.0165911
757.124	0.0165786
757.202	0.0165529
757.280	0.0165888
757.358	0.0166378
757.436	0.0164982
757.515	0.0166426
757.593	0.0165343
757.671	0.0162817
757.749	0.0164890
757.827	0.0165426
757.905	0.0165916
757.983	0.0164246
758.061	0.0165282
758.140	0.0165665
758.218	0.0164349
758.296	0.0164288
758.374	0.0163560
758.452	0.0164442
758.530	0.0164980
758.608	0.0164751
758.686	0.0163504
758.765	0.0165895
758.843	0.0166449
758.921	0.0166833
758.999	0.0164005
759.077	0.0163525
759.155	0.0164832
759.233	0.0163721
759.311	0.0165456
759.390	0.0164241
759.468	0.0164012
759.546	0.0164471
759.624	0.0164873
759.702	0.0166299
759.780	0.0164746
759.858	0.0163239
759.936	0.0164882
760.015	0.0163865
760.093	0.0164452
760.171	0.0166589
760.249	0.0166884
760.327	0.0166534
760.405	0.0166405
760.483	0.0165596
760.561	0.0166765
760.640	0.0165746
760.718	0.0166727
760.796	0.0165187
760.874	0.0166661
760.952	0.0165786
761.030	0.0166592
761.108	0.0167825
761.186	0.0166828
761.265	0.0166559
761.343	0.0166606
761.421	0.0167618
761.499	0.0167101
761.577	0.0166004
761.655	0.0167059
761.733	0.0167579
761.811	0.0166628
761.890	0.0166460
761.968	0.0166814
762.046	0.0167508
762.124	0.0167803
762.202	0.0168085
762.280	0.0168694
762.358	0.0167014
762.436	0.0167965
762.515	0.0167285
762.593	0.0168073
762.671	0.0167672
762.749	0.0167466
762.827	0.0167999
762.905	0.0167989
762.983	0.0166497
763.061	0.0167436
763.140	0.0167276
763.218	0.0165969
763.296	0.0166046
763.374	0.0167819
763.452	0.0165062
763.530	0.0165511
763.608	0.0167252
763.686	0.0166285
763.765	0.0164843
763.843	0.0164217
763.921	0.0163995
763.999	0.0163808
764.077	0.0165042
764.155	0.0165163
764.233	0.0165467
764.311	0.0165461
764.390	0.0164703
764.468	0.0164584
764.546	0.0163850
764.624	0.0165596
764.702	0.0164429
764.780	0.0164288
764.858	0.0164280
764.936	0.0163602
765.015	0.0162689
765.093	0.0165353
765.171	0.0164475
765.249	0.0164148
765.327	0.0164492
765.405	0.0164838
765.483	0.0163895
765.561	0.0163436
765.640	0.0165415
765.718	0.0164742
765.796	0.0164196
765.874	0.0163798
765.952	0.0165984
766.030	0.0165523
766.108	0.0165747
766.186	0.0165949
766.265	0.0166119
766.343	0.0166124
766.421	0.0163345
766.499	0.0165213
766.577	0.0165058
766.655	0.0166333
766.733	0.0166665
766.811	0.0164599
766.890	0.0165740
766.968	0.0165316
767.046	0.0164623
767.124	0.0165999
767.202	0.0166694
767.280	0.0164989
767.358	0.0166087
767.436	0.0164939
767.515	0.0164668
767.593	0.0165347
767.671	0.0166506
767.749	0.0165810
767.827	0.0165691
767.905	0.0166918
767.983	0.0166567
768.061	0.0166295
768.140	0.0166293
768.218	0.0165612
768.296	0.0165495
768.374	0.0167313
768.452	0.0167654
768.530	0.0166368
768.608	0.0165867
768.686	0.0166390
768.765	0.0166489
768.843	0.0166098
768.921	0.0166714
768.999	0.0166927
769.077	0.0166677
769.155	0.0166287
769.233	0.0167282
769.311	0.0166780
769.390	0.0165445
769.468	0.0167268
769.546	0.0169218
769.624	0.0167680
769.702	0.0166144
769.780	0.0167680
769.858	0.0167840
769.936	0.0167316
770.015	0.0167586
770.093	0.0167604
770.171	0.0167774
770.249	0.0167684
770.327	0.0167218
770.405	0.0168224
770.483	0.0166712
770.561	0.0167306
770.640	0.0167395
770.718	0.0167999
770.796	0.0167305
770.874	0.0167350
770.952	0.0166769
771.030	0.0168398
771.108	0.0166900
771.186	0.0167004
771.265	0.0166129
771.343	0.0166528
771.421	0.0166888
771.499	0.0165302
771.577	0.0166837
771.655	0.0166319
771.733	0.0166178
771.811	0.0166027
771.890	0.0167309
771.968	0.0166368
772.046	0.0164835
772.124	0.0164356
772.202	0.0165865
772.280	0.0165889
772.358	0.0165282
772.436	0.0166025
772.515	0.0166888
772.593	0.0165916
772.671	0.0165199
772.749	0.0165772
772.827	0.0166431
772.905	0.0166193
772.983	0.0164917
773.061	0.0164326
773.140	0.0164425
773.218	0.0166753
773.296	0.0167178
773.374	0.0167020
773.452	0.0166374
773.530	0.0165034
773.608	0.0164661
773.686	0.0165811
773.765	0.0166356
773.843	0.0165674
773.921	0.0166180
773.999	0.0166228
774.077	0.0164748
774.155	0.0164948
774.233	0.0165963
774.311	0.0166154
774.390	0.0166946
774.468	0.0165118
774.546	0.0164764
774.624	0.0167751
774.702	0.0166764
774.780	0.0165472
774.858	0.0165938
774.936	0.0165488
775.015	0.0165535
775.093	0.0167178
775.171	0.0165862
775.249	0.0165711
775.327	0.0165345
775.405	0.0167104
775.483	0.0165949
775.561	0.0167184
775.640	0.0166252
775.718	0.0165835
775.796	0.0165829
775.874	0.0165854
775.952	0.0165630
776.030	0.0166364
776.108	0.0166534
776.186	0.0165666
776.265	0.0164320
776.343	0.0165911
776.421	0.0166167
776.499	0.0165716
776.577	0.0165395
776.655	0.0166599
776.733	0.0166946
776.811	0.0165390
776.890	0.0167478
776.968	0.0165671
777.046	0.0166962
777.124	0.0166943
777.202	0.0165806
777.280	0.0165671
777.358	0.0166677
777.436	0.0167270
777.515	0.0166666
777.593	0.0167216
777.671	0.0166680
777.749	0.0166315
777.827	0.0167844
777.905	0.0166982
777.983	0.0167525
778.061	0.0167467
778.140	0.0166486
778.218	0.0166561
778.296	0.0168069
778.374	0.0168040
778.452	0.0167887
778.530	0.0167052
778.608	0.0167231
778.686	0.0168104
778.765	0.0167489
778.843	0.0166098
778.921	0.0167983
778.999	0.0165786
779.077	0.0164617
779.155	0.0164880
779.233	0.0165680
779.311	0.0166798
779.390	0.0165363
779.468	0.0165002
779.546	0.0165771
779.624	0.0164222
779.702	0.0164597
779.780	0.0165840
779.858	0.0165008
779.936	0.0164384
780.015	0.0164238
780.093	0.0165179
780.171	0.0164690
780.249	0.0165629
780.327	0.0165167
780.405	0.0165660
780.483	0.0164811
780.561	0.0166017
780.640	0.0165599
780.718	0.0166512
780.796	0.0166028
780.874	0.0166013
780.952	0.0165063
781.030	0.0164687
781.108	0.0165603
781.186	0.0166154
781.265	0.0166604
781.343	0.0165910
781.421	0.0166474
781.499	0.0165710
781.577	0.0165090
781.655	0.0166193
781.733	0.0166591
781.811	0.0166199
781.890	0.0166795
781.968	0.0167781
782.046	0.0166750
782.124	0.0166481
782.202	0.0166235
782.280	0.0164923
782.358	0.0167859
782.436	0.0167078
782.515	0.0166818
782.593	0.0168327
782.671	0.0166240
782.749	0.0166750
782.827	0.0166817
782.905	0.0167358
782.983	0.0167708
783.061	0.0165958
783.140	0.0166593
783.218	0.0166572
783.296	0.0166310
783.374	0.0167466
783.452	0.0168940
783.530	0.0167689
783.608	0.0167235
783.686	0.0165395
783.765	0.0167585
783.843	0.0166848
783.921	0.0165810
783.999	0.0166594
784.077	0.0168130
784.155	0.0166991
784.233	0.0167238
784.311	0.0167696
784.390	0.0166061
784.468	0.0166675
784.546	0.0166704
784.624	0.0167060
784.702	0.0167650
784.780	0.0167724
784.858	0.0166491
784.936	0.0167048
785.015	0.0166900
785.093	0.0167377
785.171	0.0168651
785.249	0.0166385
785.327	0.0167388
785.405	0.0168388
785.483	0.0166123
785.561	0.0166867
785.640	0.0168240
785.718	0.0168594
785.796	0.0167672
785.874	0.0167811
785.952	0.0166690
786.030	0.0166100
786.108	0.0168227
786.186	0.0166264
786.265	0.0166785
786.343	0.0165922
786.421	0.0165164
786.499	0.0165006
786.577	0.0166041
786.655	0.0165720
786.733	0.0164777
786.811	0.0166061
786.890	0.0165617
786.968	0.0164748
787.046	0.0163237
787.124	0.0163482
787.202	0.0166268
787.280	0.0164984
787.358	0.0162913
787.436	0.0164702
787.515	0.0164825
787.593	0.0163036
787.671	0.0162508
787.749	0.0163467
787.827	0.0162803
787.905	0.0163787
787.983	0.0163367
788.061	0.0163045
788.140	0.0164591
788.218	0.0165114
788.296	0.0164629
788.374	0.0163767
788.452	0.0162955
788.530	0.0165337
788.608	0.0165520
788.686	0.0164915
788.765	0.0164720
788.843	0.0164754
788.921	0.0166455
788.999	0.0167263
789.077	0.0167932
789.155	0.0167019
789.233	0.0166761
789.311	0.0166460
789.390	0.0167403
789.468	0.0167748
789.546	0.0168648
789.624	0.0166471
789.702	0.0167041
789.780	0.0166204
789.858	0.0165832
789.936	0.0166116
790.015	0.0166273
790.093	0.0167049
790.171	0.0166698
790.249	0.0164630
790.327	0.0166126
790.405	0.0165681
790.483	0.0166623
790.561	0.0163741
790.640	0.0166232
790.718	0.0165209
790.796	0.0165936
790.874	0.0165332
790.952	0.0165443
791.030	0.0164961
791.108	0.0166426
791.186	0.0166123
791.265	0.0165658
791.343	0.0165009
791.421	0.0165812
791.499	0.0166705
791.577	0.0165429
791.655	0.0166146
791.733	0.0166139
791.811	0.0165936
791.890	0.0166183
791.968	0.0166313
792.046	0.0165847
792.124	0.0165693
792.202	0.0165795
792.280	0.0167082
792.358	0.0166350
792.436	0.0166934
792.515	0.0167721
792.593	0.0167080
792.671	0.0167152
792.749	0.0165944
792.827	0.0167357
792.905	0.0166693
792.983	0.0167628
793.061	0.0167913
793.140	0.0165593
793.218	0.0166800
793.296	0.0166721
793.374	0.0166708
793.452	0.0167907
793.530	0.0167100
793.608	0.0166308
793.686	0.0166302
793.765	0.0166199
793.843	0.0167023
793.921	0.0165768
793.999	0.0166184
794.077	0.0167087
794.155	0.0165818
794.233	0.0166802
794.311	0.0166946
794.390	0.0166191
794.468	0.0165049
794.546	0.0166217
794.624	0.0166720
794.702	0.0165915
794.780	0.0165494
794.858	0.0166096
794.936	0.0166866
795.015	0.0165372
795.093	0.0166964
795.171	0.0164651
795.249	0.0165965
795.327	0.0165845
795.405	0.0165230
795.483	0.0165581
795.561	0.0165770
795.640	0.0166293
795.718	0.0165495
795.796	0.0166622
795.874	0.0165755
795.952	0.0165337
796.030	0.0165802
796.108	0.0165918
796.186	0.0166095
796.265	0.0166416
796.343	0.0167509
796.421	0.0166115
796.499	0.0166716
796.577	0.0165555
796.655	0.0166135
796.733	0.0166613
796.811	0.0166297
796.890	0.0166717
796.968	0.0167068
797.046	0.0168435
797.124	0.0166636
797.202	0.0165958
797.280	0.0166914
797.358	0.0166332
797.436	0.0165285
797.515	0.0166187
797.593	0.0166786
797.671	0.0165449
797.749	0.0164576
797.827	0.0165823
797.905	0.0165828
797.983	0.0165226
798.061	0.0166537
798.140	0.0165274
798.218	0.0166476
798.296	0.0165168
798.374	0.0164799
798.452	0.0166270
798.530	0.0166256
798.608	0.0165231
798.686	0.0165488
798.765	0.0165311
798.843	0.0166039
798.921	0.0165046
798.999	0.0165556
799.077	0.0165495
799.155	0.0166824
799.233	0.0167269
799.311	0.0165728
799.390	0.0166566
799.468	0.0166477
799.546	0.0168214
799.624	0.0166751
799.702	0.0166364
799.780	0.0168388
799.858	0.0168176
799.936	0.0168370
800.015	0.0168401
800.093	0.0168451
800.171	0.0168692
800.249	0.0168996
800.327	0.0169666
800.405	0.0168234
800.483	0.0167446
800.561	0.0168214
800.640	0.0169466
800.718	0.0168127
800.796	0.0168153
800.874	0.0168867
800.952	0.0169302
801.030	0.0168267
801.108	0.0168241
801.186	0.0168876
801.265	0.0167831
801.343	0.0167727
801.421	0.0167521
801.499	0.0166690
801.577	0.0167043
801.655	0.0168087
801.733	0.0167426
801.811	0.0168080
801.890	0.0168166
801.968	0.0166639
802.046	0.0166608
802.124	0.0167958
802.202	0.0166533
802.280	0.0168393
802.358	0.0167863
802.436	0.0168504
802.515	0.0168040
802.593	0.0168037
802.671	0.0166170
802.749	0.0168085
802.827	0.0167019
802.905	0.0164896
802.983	0.0167853
803.061	0.0166877
803.140	0.0167020
803.218	0.0166216
803.296	0.0166165
803.374	0.0165900
803.452	0.0165744
803.530	0.0166313
803.608	0.0166660
803.686	0.0166380
803.765	0.0167796
803.843	0.0166222
803.921	0.0166189
803.999	0.0165974
804.077	0.0166006
804.155	0.0166337
804.233	0.0167406
804.311	0.0164928
804.390	0.0166285
804.468	0.0166952
804.546	0.0167967
804.624	0.0167587
804.702	0.0168137
804.780	0.0167836
804.858	0.0167816
804.936	0.0166953
805.015	0.0167226
805.093	0.0168468
805.171	0.0167410
805.249	0.0168742
805.327	0.0169852
805.405	0.0169271
805.483	0.0168258
805.561	0.0168185
805.640	0.0167809
805.718	0.0169366
805.796	0.0167862
805.874	0.0168171
805.952	0.0167604
806.030	0.0169114
806.108	0.0168946
806.186	0.0167463
806.265	0.0168111
806.343	0.0168660
806.421	0.0166965
806.499	0.0167778
806.577	0.0166399
806.655	0.0166183
806.733	0.0166562
806.811	0.0164834
806.890	0.0166761
806.968	0.0165278
807.046	0.0165226
807.124	0.0165944
807.202	0.0165488
807.280	0.0165197
807.358	0.0165500
807.436	0.0165639
807.515	0.0166007
807.593	0.0166456
807.671	0.0166863
807.749	0.0165936
807.827	0.0165633
807.905	0.0167247
807.983	0.0165740
808.061	0.0165254
808.140	0.0165692
808.218	0.0165733
808.296	0.0165605
808.374	0.0166699
808.452	0.0164545
808.530	0.0164477
808.608	0.0164178
808.686	0.0164176
808.765	0.0164670
808.843	0.0164815
808.921	0.0163763
808.999	0.0163734
809.077	0.0162647
809.155	0.0163964
809.233	0.0163451
809.311	0.0163799
809.390	0.0163622
809.468	0.0163403
809.546	0.0163293
809.624	0.0162675
809.702	0.0165269
809.780	0.0165374
809.858	0.0164587
809.936	0.0164112
810.015	0.0165056
810.093	0.0164660
810.171	0.0163965
810.249	0.0164191
810.327	0.0164733
810.405	0.0163302
810.483	0.0165029
810.561	0.0165800
810.640	0.0164265
810.718	0.0166389
810.796	0.0165936
810.874	0.0166241
810.952	0.0166094
811.030	0.0165100
811.108	0.0166862
811.186	0.0166898
811.265	0.0165672
811.343	0.0165633
811.421	0.0166698
811.499	0.0166959
811.577	0.0167599
811.655	0.0167860
811.733	0.0165936
811.811	0.0166576
811.890	0.0167061
811.968	0.0166296
812.046	0.0165157
812.124	0.0165369
812.202	0.0164663
812.280	0.0165994
812.358	0.0166455
812.436	0.0166709
812.515	0.0164989
812.593	0.0164980
812.671	0.0165678
812.749	0.0164809
812.827	0.0164936
812.905	0.0164422
812.983	0.0166961
813.061	0.0166011
813.140	0.0165535
813.218	0.0166079
813.296	0.0166454
813.374	0.0166635
813.452	0.0167022
813.530	0.0167463
813.608	0.0166772
813.686	0.0166618
813.765	0.0167552
813.843	0.0167732
813.921	0.0166109
813.999	0.0167121
814.077	0.0168644
814.155	0.0166577
814.233	0.0166735
814.311	0.0166554
814.390	0.0166406
814.468	0.0165806
814.546	0.0165150
814.624	0.0164977
814.702	0.0164877
814.780	0.0162531
814.858	0.0165165
814.936	0.0164064
815.015	0.0165263
815.093	0.0163383
815.171	0.0163683
815.249	0.0162606
815.327	0.0165019
815.405	0.0164194
815.483	0.0163988
815.561	0.0163829
815.640	0.0164498
815.718	0.0165543
815.796	0.0165750
815.874	0.0166507
815.952	0.0165395
816.030	0.0165977
816.108	0.0166859
816.186	0.0166293
816.265	0.0167272
816.343	0.0165906
816.421	0.0168030
816.499	0.0168490
816.577	0.0167182
816.655	0.0167100
816.733	0.0167612
816.811	0.0166550
816.890	0.0166634
816.968	0.0166760
817.046	0.0167239
817.124	0.0167675
817.202	0.0166912
817.280	0.0166911
817.358	0.0167284
817.436	0.0167061
817.515	0.0167666
817.593	0.0167365
817.671	0.0166647
817.749	0.0168454
817.827	0.0166770
817.905	0.0166922
817.983	0.0168358
818.061	0.0167452
818.140	0.0167660
818.218	0.0169170
818.296	0.0167565
818.374	0.0167979
818.452	0.0168260
818.530	0.0167105
818.608	0.0168887
818.686	0.0168333
818.765	0.0168723
818.843	0.0168505
818.921	0.0168829
818.999	0.0169565
819.077	0.0169569
819.155	0.0168722
819.233	0.0168812
819.311	0.0167545
819.390	0.0168269
819.468	0.0168098
819.546	0.0168523
819.624	0.0166730
819.702	0.0166669
819.780	0.0165706
819.858	0.0166526
819.936	0.0165501
820.015	0.0164760
820.093	0.0165729
820.171	0.0165337
820.249	0.0166389
820.327	0.0167773
820.405	0.0164606
820.483	0.0164842
820.561	0.0166203
820.640	0.0165921
820.718	0.0165307
820.796	0.0166127
820.874	0.0165856
820.952	0.0168443
821.030	0.0166033
821.108	0.0166261
821.186	0.0165285
821.265	0.0166013
821.343	0.0166205
821.421	0.0165891
821.499	0.0165336
821.577	0.0166304
821.655	0.0167271
821.733	0.0166119
821.811	0.0164182
821.890	0.0165464
821.968	0.0164639
822.046	0.0165125
822.124	0.0165833
822.202	0.0166172
822.280	0.0164773
822.358	0.0166524
822.436	0.0167159
822.515	0.0167516
822.593	0.0166284
822.671	0.0166852
822.749	0.0166256
822.827	0.0165948
822.905	0.0166521
822.983	0.0166953
823.061	0.0167990
823.140	0.0167337
823.218	0.0166715
823.296	0.0166127
823.374	0.0166052
823.452	0.0167414
823.530	0.0165935
823.608	0.0165831
823.686	0.0166598
823.765	0.0166970
823.843	0.0166335
823.921	0.0166492
823.999	0.0166017
824.077	0.0167309
824.155	0.0166409
824.233	0.0166714
824.311	0.0164827
824.390	0.0167490
824.468	0.0167663
824.546	0.0163994
824.624	0.0166154
824.702	0.0166924
824.780	0.0164471
824.858	0.0164586
824.936	0.0164698
825.015	0.0165244
825.093	0.0164886
825.171	0.0164690
825.249	0.0164732
825.327	0.0165434
825.405	0.0164874
825.483	0.0164935
825.561	0.0166311
825.640	0.0166237
825.718	0.0165643
825.796	0.0163995
825.874	0.0166271
825.952	0.0165620
826.030	0.0166368
826.108	0.0166502
826.186	0.0166932
826.265	0.0165678
826.343	0.0166743
826.421	0.0168610
826.499	0.0167583
826.577	0.0166593
826.655	0.0167437
826.733	0.0168638
826.811	0.0168224
826.890	0.0169273
826.968	0.0169250
827.046	0.0168266
827.124	0.0169258
827.202	0.0168667
827.280	0.0167371
827.358	0.0168647
827.436	0.0169345
827.515	0.0168044
827.593	0.0167873
827.671	0.0167623
827.749	0.0167787
827.827	0.0166529
827.905	0.0167583
827.983	0.0167477
828.061	0.0168191
828.140	0.0166815
828.218	0.0167188
828.296	0.0167036
828.374	0.0166396
828.452	0.0166666
828.530	0.0166899
828.608	0.0164977
828.686	0.0166553
828.765	0.0165815
828.843	0.0165900
828.921	0.0166029
828.999	0.0165101
829.077	0.0165147
829.155	0.0164790
829.233	0.0164539
829.311	0.0165040
829.390	0.0165511
829.468	0.0165067
829.546	0.0163833
829.624	0.0164431
829.702	0.0165218
829.780	0.0165971
829.858	0.0165540
829.936	0.0164874
830.015	0.0165185
830.093	0.0165394
830.171	0.0164065
830.249	0.0165487
830.327	0.0165890
830.405	0.0166477
830.483	0.0165609
830.561	0.0165977
830.640	0.0166966
830.718	0.0167243
830.796	0.0166644
830.874	0.0166968
830.952	0.0167510
831.030	0.0166756
831.108	0.0167464
831.186	0.0167495
831.265	0.0167458
831.343	0.0167740
831.421	0.0166885
831.499	0.0167178
831.577	0.0166630
831.655	0.0168305
831.733	0.0167445
831.811	0.0167176
831.890	0.0164848
831.968	0.0165102
832.046	0.0167363
832.124	0.0165117
832.202	0.0165334
832.280	0.0165609
832.358	0.0165356
832.436	0.0165484
832.515	0.0164449
832.593	0.0164575
832.671	0.0163889
832.749	0.0164021
832.827	0.0164698
832.905	0.0166150
832.983	0.0164223
833.061	0.0165044
833.140	0.0164439
833.218	0.0165949
833.296	0.0164995
833.374	0.0165685
833.452	0.0165350
833.530	0.0164288
833.608	0.0165822
833.686	0.0165345
833.765	0.0163671
833.843	0.0164678
833.921	0.0165234
833.999	0.0165084
834.077	0.0165489
834.155	0.0165770
834.233	0.0165777
834.311	0.0166618
834.390	0.0164829
834.468	0.0167590
834.546	0.0166942
834.624	0.0166054
834.702	0.0166151
834.780	0.0167300
834.858	0.0168774
834.936	0.0167900
835.015	0.0167369
835.093	0.0167654
835.171	0.0166743
835.249	0.0166145
835.327	0.0166976
835.405	0.0166290
835.483	0.0165678
835.561	0.0168053
835.640	0.0167244
835.718	0.0165483
835.796	0.0164960
835.874	0.0165807
835.952	0.0167218
836.030	0.0164824
836.108	0.0164378
836.186	0.0166425
836.265	0.0164221
836.343	0.0165029
836.421	0.0163808
836.499	0.0166175
836.577	0.0166534
836.655	0.0166659
836.733	0.0167311
836.811	0.0166205
836.890	0.0165563
836.968	0.0165515
837.046	0.0166572
837.124	0.0166406
837.202	0.0166235
837.280	0.0167284
837.358	0.0167737
837.436	0.0167316
837.515	0.0165937
837.593	0.0165525
837.671	0.0166407
837.749	0.0168084
837.827	0.0166460
837.905	0.0165540
837.983	0.0166819
838.061	0.0166951
838.140	0.0167118
838.218	0.0165946
838.296	0.0166541
838.374	0.0167052
838.452	0.0166635
838.530	0.0167385
838.608	0.0168822
838.686	0.0167751
838.765	0.0165701
838.843	0.0167083
838.921	0.0167467
838.999	0.0166725
839.077	0.0167577
839.155	0.0167507
839.233	0.0167861
839.311	0.0166193
839.390	0.0167664
839.468	0.0167237
839.546	0.0168834
839.624	0.0168248
839.702	0.0167577
839.780	0.0166858
839.858	0.0167024
839.936	0.0168372
840.015	0.0166027
840.093	0.0166709
840.171	0.0166914
840.249	0.0166473
840.327	0.0166445
840.405	0.0167218
840.483	0.0167846
840.561	0.0167140
840.640	0.0166963
840.718	0.0165868
840.796	0.0167001
840.874	0.0166490
840.952	0.0165749
841.030	0.0165604
841.108	0.0166157
841.186	0.0165953
841.265	0.0166496
841.343	0.0166065
841.421	0.0166222
841.499	0.0165086
841.577	0.0165540
841.655	0.0165811
841.733	0.0163785
841.811	0.0165939
841.890	0.0164928
841.968	0.0164365
842.046	0.0165682
842.124	0.0166405
842.202	0.0163970
842.280	0.0165070
842.358	0.0164515
842.436	0.0165748
842.515	0.0166212
842.593	0.0164117
842.671	0.0166969
842.749	0.0164775
842.827	0.0164427
842.905	0.0165262
842.983	0.0165335
843.061	0.0165736
843.140	0.0165195
843.218	0.0166164
843.296	0.0167304
843.374	0.0165760
843.452	0.0165582
843.530	0.0165546
843.608	0.0165628
843.686	0.0165546
843.765	0.0165543
843.843	0.0166187
843.921	0.0166094
843.999	0.0165221
844.077	0.0165896
844.155	0.0165963
844.233	0.0165545
844.311	0.0167236
844.390	0.0169279
844.468	0.0166220
844.546	0.0167362
844.624	0.0167783
844.702	0.0167189
844.780	0.0166862
844.858	0.0167070
844.936	0.0166506
845.015	0.0168516
845.093	0.0166869
845.171	0.0168755
845.249	0.0169592
845.327	0.0169131
845.405	0.0168043
845.483	0.0168277
845.561	0.0169169
845.640	0.0167969
845.718	0.0168204
845.796	0.0167923
845.874	0.0168934
845.952	0.0168820
846.030	0.0168234
846.108	0.0168374
846.186	0.0168085
846.265	0.0167352
846.343	0.0167757
846.421	0.0166151
846.499	0.0167045
846.577	0.0166935
846.655	0.0166851
846.733	0.0165748
846.811	0.0167043
846.890	0.0165041
846.968	0.0166036
847.046	0.0164946
847.124	0.0165572
847.202	0.0165911
847.280	0.0162533
847.358	0.0165421
847.436	0.0166774
847.515	0.0166957
847.593	0.0165272
847.671	0.0164540
847.749	0.0164368
847.827	0.0164570
847.905	0.0166605
847.983	0.0164643
848.061	0.0165682
848.140	0.0165607
848.218	0.0165547
848.296	0.0165087
848.374	0.0165174
848.452	0.0165131
848.530	0.0164535
848.608	0.0165545
848.686	0.0165356
848.765	0.0165276
848.843	0.0164779
848.921	0.0164425
848.999	0.0166650
849.077	0.0166969
849.155	0.0166259
849.233	0.0167630
849.311	0.0166892
849.390	0.0165897
849.468	0.0167300
849.546	0.0167973
849.624	0.0167331
849.702	0.0166853
849.780	0.0167866
849.858	0.0167869
849.936	0.0167303
850.015	0.0167638
850.093	0.0166653
850.171	0.0166640
850.249	0.0167003
850.327	0.0167802
850.405	0.0167004
850.483	0.0166929
850.561	0.0167751
850.640	0.0167804
850.718	0.0168176
850.796	0.0167886
850.874	0.0167576
850.952	0.0167574
851.030	0.0166378
851.108	0.0167010
851.186	0.0167162
851.265	0.0166029
851.343	0.0166700
851.421	0.0167236
851.499	0.0166182
851.577	0.0167619
851.655	0.0166866
851.733	0.0167593
851.811	0.0166207
851.890	0.0167281
851.968	0.0168488
852.046	0.0167645
852.124	0.0167411
852.202	0.0167872
852.280	0.0167509
852.358	0.0166893
852.436	0.0167004
852.515	0.0166863
852.593	0.0166568
852.671	0.0166796
852.749	0.0166853
852.827	0.0166655
852.905	0.0167025
852.983	0.0166076
853.061	0.0166911
853.140	0.0166006
853.218	0.0165944
853.296	0.0165450
853.374	0.0166140
853.452	0.0165443
853.530	0.0165308
853.608	0.0166560
853.686	0.0164506
853.765	0.0166214
853.843	0.0165871
853.921	0.0164813
853.999	0.0164360
854.077	0.0163712
854.155	0.0164211
854.233	0.0166238
854.311	0.0165042
854.390	0.0165250
854.468	0.0166031
854.546	0.0164689
854.624	0.0165784
854.702	0.0163295
854.780	0.0165685
854.858	0.0166617
854.936	0.0165318
855.015	0.0164848
855.093	0.0166617
855.171	0.0167334
855.249	0.0166447
855.327	0.0166863
855.405	0.0166252
855.483	0.0166447
855.561	0.0167015
855.640	0.0167206
855.718	0.0166846
855.796	0.0166658
855.874	0.0166607
855.952	0.0166309
856.030	0.0165029
856.108	0.0166563
856.186	0.0165421
856.265	0.0165519
856.343	0.0167061
856.421	0.0164951
856.499	0.0165261
856.577	0.0165871
856.655	0.0165215
856.733	0.0164924
856.811	0.0163928
856.890	0.0164372
856.968	0.0165559
857.046	0.0164027
857.124	0.0165257
857.202	0.0164291
857.280	0.0164138
857.358	0.0164827
857.436	0.0164829
857.515	0.0164713
857.593	0.0164954
857.671	0.0164297
857.749	0.0164547
857.827	0.0164281
857.905	0.0164629
857.983	0.0165195
858.061	0.0165002
858.140	0.0165507
858.218	0.0165520
858.296	0.0166836
858.374	0.0167015
858.452	0.0165460
858.530	0.0165847
858.608	0.0166528
858.686	0.0166338
858.765	0.0166017
858.843	0.0166809
858.921	0.0166891
858.999	0.0166400
859.077	0.0166879
859.155	0.0165837
859.233	0.0165224
859.311	0.0165503
859.390	0.0165721
859.468	0.0166927
859.546	0.0165326
859.624	0.0164824
859.702	0.0164729
859.780	0.0166093
859.858	0.0164334
859.936	0.0165095
860.015	0.0164944
860.093	0.0165482
860.171	0.0165282
860.249	0.0165135
860.327	0.0164307
860.405	0.0165291
860.483	0.0165497
860.561	0.0164423
860.640	0.0166423
860.718	0.0166718
860.796	0.0163333
860.874	0.0164546
860.952	0.0166873
861.030	0.0165310
861.108	0.0165741
861.186	0.0166241
861.265	0.0164876
861.343	0.0165584
861.421	0.0166715
861.499	0.0164835
861.577	0.0165674
861.655	0.0165301
861.733	0.0165180
861.811	0.0164571
861.890	0.0167083
861.968	0.0166718
862.046	0.0166037
862.124	0.0166389
862.202	0.0167155
862.280	0.0165556
862.358	0.0167374
862.436	0.0165914
862.515	0.0166509
862.593	0.0166180
862.671	0.0167638
862.749	0.0166798
862.827	0.0166529
862.905	0.0167197
862.983	0.0167856
863.061	0.0166959
863.140	0.0167211
863.218	0.0166591
863.296	0.0167953
863.374	0.0168481
863.452	0.0168341
863.530	0.0167818
863.608	0.0168909
863.686	0.0168424
863.765	0.0169947
863.843	0.0168846
863.921	0.0169018
863.999	0.0168955
864.077	0.0168823
864.155	0.0169635
864.233	0.0169769
864.311	0.0169457
864.390	0.0169799
864.468	0.0169624
864.546	0.0169141
864.624	0.0167408
864.702	0.0168259
864.780	0.0169083
864.858	0.0167867
864.936	0.0168282
865.015	0.0167533
865.093	0.0166800
865.171	0.0167680
865.249	0.0167582
865.327	0.0166273
865.405	0.0166573
865.483	0.0166557
865.561	0.0167232
865.640	0.0166745
865.718	0.0166590
865.796	0.0166611
865.874	0.0166920
865.952	0.0167606
866.030	0.0166723
866.108	0.0167838
866.186	0.0167039
866.265	0.0168063
866.343	0.0168169
866.421	0.0168301
866.499	0.0169405
866.577	0.0168469
866.655	0.0168218
866.733	0.0169024
866.811	0.0167220
866.890	0.0169060
866.968	0.0168570
867.046	0.0170109
867.124	0.0168347
867.202	0.0168579
867.280	0.0166721
867.358	0.0168029
867.436	0.0168900
867.515	0.0168497
867.593	0.0165851
867.671	0.0167699
867.749	0.0167010
867.827	0.0166629
867.905	0.0167084
867.983	0.0166333
868.061	0.0165131
868.140	0.0166813
868.218	0.0166997
868.296	0.0166017
868.374	0.0166092
868.452	0.0167054
868.530	0.0167161
868.608	0.0166019
868.686	0.0166834
868.765	0.0167204
868.843	0.0167022
868.921	0.0165128
868.999	0.0166216
869.077	0.0166508
869.155	0.0165997
869.233	0.0165827
869.311	0.0166003
869.390	0.0165620
869.468	0.0165942
869.546	0.0166506
869.624	0.0165015
869.702	0.0166985
869.780	0.0165808
869.858	0.0166770
869.936	0.0165612
870.015	0.0166273
870.093	0.0166779
870.171	0.0165988
870.249	0.0166096
870.327	0.0165971
870.405	0.0166977
870.483	0.0166290
870.561	0.0166254
870.640	0.0166186
870.718	0.0166312
870.796	0.0165579
870.874	0.0166343
870.952	0.0165987
871.030	0.0166363
871.108	0.0167099
871.186	0.0166340
871.265	0.0166859
871.343	0.0168206
871.421	0.0168073
871.499	0.0166713
871.577	0.0166608
871.655	0.0166412
871.733	0.0167150
871.811	0.0168289
871.890	0.0167873
871.968	0.0169765
872.046	0.0168988
872.124	0.0167442
872.202	0.0168671
872.280	0.0167599
872.358	0.0166454
872.436	0.0167476
872.515	0.0168983
872.593	0.0168031
872.671	0.0166681
872.749	0.0165643
872.827	0.0167413
872.905	0.0166667
872.983	0.0165623
873.061	0.0165540
873.140	0.0167252
873.218	0.0166319
873.296	0.0166403
873.374	0.0166942
873.452	0.0165445
873.530	0.0166796
873.608	0.0167030
873.686	0.0165791
873.765	0.0166998
873.843	0.0166439
873.921	0.0166636
873.999	0.0165595
874.077	0.0166436
874.155	0.0166056
874.233	0.0164843
874.311	0.0166454
874.390	0.0164496
874.468	0.0165383
874.546	0.0165880
874.624	0.0165015
874.702	0.0166766
874.780	0.0166484
874.858	0.0164517
874.936	0.0165263
875.015	0.0165709
875.093	0.0166114
875.171	0.0165634
875.249	0.0166051
875.327	0.0166151
875.405	0.0165959
875.483	0.0165173
875.561	0.0166279
875.640	0.0166913
875.718	0.0166759
875.796	0.0167368
875.874	0.0167649
875.952	0.0167077
876.030	0.0167750
876.108	0.0168228
876.186	0.0167725
876.265	0.0167098
876.343	0.0168150
876.421	0.0167147
876.499	0.0166632
876.577	0.0166537
876.655	0.0166345
876.733	0.0166317
876.811	0.0167050
876.890	0.0166021
876.968	0.0166070
877.046	0.0167190
877.124	0.0165251
877.202	0.0166687
877.280	0.0166524
877.358	0.0164745
877.436	0.0165315
877.515	0.0166013
877.593	0.0165103
877.671	0.0165937
877.749	0.0166314
877.827	0.0164349
877.905	0.0164974
877.983	0.0166092
878.061	0.0165083
878.140	0.0165865
878.218	0.0165324
878.296	0.0165736
878.374	0.0164741
878.452	0.0165414
878.530	0.0166198
878.608	0.0165880
878.686	0.0166515
878.765	0.0165076
878.843	0.0165658
878.921	0.0164481
878.999	0.0165269
879.077	0.0166243
879.155	0.0167099
879.233	0.0167247
879.311	0.0165445
879.390	0.0166081
879.468	0.0167123
879.546	0.0168014
879.624	0.0167622
879.702	0.0167316
879.780	0.0168178
879.858	0.0167329
879.936	0.0167307
880.015	0.0167697
880.093	0.0167155
880.171	0.0167509
880.249	0.0168199
880.327	0.0166590
880.405	0.0167353
880.483	0.0166601
880.561	0.0167553
880.640	0.0166811
880.718	0.0169312
880.796	0.0168015
880.874	0.0165548
880.952	0.0166245
881.030	0.0167895
881.108	0.0167261
881.186	0.0166816
881.265	0.0166762
881.343	0.0166382
881.421	0.0166386
881.499	0.0165495
881.577	0.0166757
881.655	0.0166736
881.733	0.0166425
881.811	0.0166118
881.890	0.0164479
881.968	0.0166064
882.046	0.0167055
882.124	0.0165672
882.202	0.0166325
882.280	0.0165141
882.358	0.0165488
882.436	0.0165440
882.515	0.0165607
882.593	0.0165936
882.671	0.0167759
882.749	0.0165276
882.827	0.0163818
882.905	0.0165341
882.983	0.0164658
883.061	0.0164404
883.140	0.0164253
883.218	0.0164054
883.296	0.0165058
883.374	0.0164719
883.452	0.0165332
883.530	0.0164687
883.608	0.0165448
883.686	0.0164676
883.765	0.0163648
883.843	0.0164647
883.921	0.0165889
883.999	0.0166443
884.077	0.0166178
884.155	0.0165358
884.233	0.0165907
884.311	0.0166412
884.390	0.0165446
884.468	0.0168597
884.546	0.0166894
884.624	0.0167661
884.702	0.0167300
884.780	0.0167927
884.858	0.0167251
884.936	0.0166628
885.015	0.0167552
885.093	0.0166709
885.171	0.0169579
885.249	0.0169237
885.327	0.0167669
885.405	0.0168620
885.483	0.0168328
885.561	0.0167389
885.640	0.0168119
885.718	0.0168813
885.796	0.0167134
885.874	0.0167837
885.952	0.0167756
886.030	0.0167371
886.108	0.0167850
886.186	0.0167075
886.265	0.0167709
886.343	0.0168509
886.421	0.0166716
886.499	0.0166734
886.577	0.0164935
886.655	0.0167033
886.733	0.0167127
886.811	0.0166006
886.890	0.0165837
886.968	0.0166662
887.046	0.0167485
887.124	0.0165247
887.202	0.0166871
887.280	0.0167949
887.358	0.0166212
887.436	0.0165179
887.515	0.0165422
887.593	0.0165885
887.671	0.0165847
887.749	0.0166278
887.827	0.0165701
887.905	0.0166079
887.983	0.0167262
888.061	0.0167319
888.140	0.0167154
888.218	0.0166508
888.296	0.0166229
888.374	0.0165981
888.452	0.0166098
888.530	0.0166226
888.608	0.0167257
888.686	0.0166908
888.765	0.0166987
888.843	0.0166432
888.921	0.0166577
888.999	0.0167495
889.077	0.0167395
889.155	0.0168000
889.233	0.0166930
889.311	0.0167955
889.390	0.0169371
889.468	0.0169014
889.546	0.0168491
889.624	0.0168806
889.702	0.0167543
889.780	0.0167924
889.858	0.0168193
889.936	0.0169034
890.015	0.0167764
890.093	0.0167554
890.171	0.0169283
890.249	0.0168266
890.327	0.0168049
890.405	0.0168218
890.483	0.0168143
890.561	0.0167897
890.640	0.0167453
890.718	0.0167562
890.796	0.0167618
890.874	0.0167296
890.952	0.0168098
891.030	0.0167924
891.108	0.0166306
891.186	0.0167114
891.265	0.0167313
891.343	0.0167445
891.421	0.0165376
891.499	0.0166058
891.577	0.0165980
891.655	0.0166343
891.733	0.0166272
891.811	0.0165944
891.890	0.0164901
891.968	0.0167093
892.046	0.0166422
892.124	0.0163964
892.202	0.0166104
892.280	0.0167292
892.358	0.0168063
892.436	0.0166496
892.515	0.0166676
892.593	0.0166448
892.671	0.0167006
892.749	0.0165864
892.827	0.0164986
892.905	0.0165425
892.983	0.0165797
893.061	0.0166742
893.140	0.0166434
893.218	0.0166346
893.296	0.0164855
893.374	0.0166074
893.452	0.0166593
893.530	0.0165196
893.608	0.0166380
893.686	0.0165173
893.765	0.0165951
893.843	0.0165182
893.921	0.0165373
893.999	0.0165825
894.077	0.0165704
894.155	0.0165766
894.233	0.0165357
894.311	0.0166059
894.390	0.0165166
894.468	0.0164598
894.546	0.0165587
894.624	0.0164944
894.702	0.0164787
894.780	0.0165539
894.858	0.0164538
894.936	0.0164735
895.015	0.0163994
895.093	0.0164138
895.171	0.0164279
895.249	0.0165547
895.327	0.0163792
895.405	0.0164744
895.483	0.0163871
895.561	0.0164586
895.640	0.0164572
895.718	0.0162832
895.796	0.0164218
895.874	0.0163522
895.952	0.0164655
896.030	0.0162744
896.108	0.0164301
896.186	0.0165453
896.265	0.0164377
896.343	0.0165130
896.421	0.0164544
896.499	0.0164779
896.577	0.0163681
896.655	0.0165067
896.733	0.0166090
896.811	0.0164830
896.890	0.0165986
896.968	0.0165800
897.046	0.0165134
897.124	0.0164716
897.202	0.0166050
897.280	0.0164763
897.358	0.0165540
897.436	0.0166154
897.515	0.0166714
897.593	0.0165687
897.671	0.0166100
897.749	0.0165828
897.827	0.0166009
897.905	0.0166293
897.983	0.0165704
898.061	0.0164581
898.140	0.0166450
898.218	0.0166095
898.296	0.0165646
898.374	0.0166134
898.452	0.0166466
898.530	0.0165416
898.608	0.0165940
898.686	0.0166389
898.765	0.0165845
898.843	0.0165038
898.921	0.0166129
898.999	0.0166753
899.077	0.0167413
899.155	0.0166101
899.233	0.0166030
899.311	0.0167686
899.390	0.0167906
899.468	0.0165561
899.546	0.0167570
899.624	0.0167306
899.702	0.0167719
899.780	0.0166899
899.858	0.0165044
899.936	0.0166299
