05/24/2022	20:53:27	Ver.	4.1	UNKNOWN
Optical Delay	580.014591	Delta X		0.078125	Sweeps	1	Scan Rate	0/0
Coordinates	Axis 1	NaN	Axis 2	NaN	Axis 3	NaN	Axis 4	NaN	Axis 5	NaN	Axis 6	0.000000
TX Power	0.000000	RX Power	0.000000

580.015	0.0167654
580.093	0.0168872
580.171	0.0168282
580.249	0.0168341
580.327	0.0168163
580.405	0.0169687
580.483	0.0168488
580.561	0.0169175
580.640	0.0168344
580.718	0.0169682
580.796	0.0169853
580.874	0.0169875
580.952	0.0167773
581.030	0.0169473
581.108	0.0169185
581.186	0.0168774
581.265	0.0168586
581.343	0.0168532
581.421	0.0167763
581.499	0.0167925
581.577	0.0169163
581.655	0.0168093
581.733	0.0168113
581.811	0.0168977
581.890	0.0167085
581.968	0.0166745
582.046	0.0168906
582.124	0.0169212
582.202	0.0169070
582.280	0.0168450
582.358	0.0167690
582.436	0.0169210
582.515	0.0169065
582.593	0.0169098
582.671	0.0170119
582.749	0.0168672
582.827	0.0170781
582.905	0.0171242
582.983	0.0170934
583.061	0.0170906
583.140	0.0171119
583.218	0.0171220
583.296	0.0169469
583.374	0.0170142
583.452	0.0170024
583.530	0.0170681
583.608	0.0170632
583.686	0.0169054
583.765	0.0171378
583.843	0.0169067
583.921	0.0169079
583.999	0.0169690
584.077	0.0168983
584.155	0.0169547
584.233	0.0168554
584.311	0.0168542
584.390	0.0168108
584.468	0.0167847
584.546	0.0166821
584.624	0.0168658
584.702	0.0168174
584.780	0.0168399
584.858	0.0167467
584.936	0.0167908
585.015	0.0168953
585.093	0.0168491
585.171	0.0168035
585.249	0.0168212
585.327	0.0169659
585.405	0.0168946
585.483	0.0168218
585.561	0.0168790
585.640	0.0167129
585.718	0.0167114
585.796	0.0168217
585.874	0.0166787
585.952	0.0167981
586.030	0.0167691
586.108	0.0167590
586.186	0.0168232
586.265	0.0166383
586.343	0.0166725
586.421	0.0166629
586.499	0.0166528
586.577	0.0167411
586.655	0.0168019
586.733	0.0166840
586.811	0.0166576
586.890	0.0167425
586.968	0.0167950
587.046	0.0166628
587.124	0.0165686
587.202	0.0166830
587.280	0.0167059
587.358	0.0167072
587.436	0.0167203
587.515	0.0167325
587.593	0.0166623
587.671	0.0164791
587.749	0.0166617
587.827	0.0167235
587.905	0.0165733
587.983	0.0167278
588.061	0.0165941
588.140	0.0166856
588.218	0.0166106
588.296	0.0167101
588.374	0.0166467
588.452	0.0166366
588.530	0.0165795
588.608	0.0165044
588.686	0.0166250
588.765	0.0166344
588.843	0.0166241
588.921	0.0166454
588.999	0.0166231
589.077	0.0165871
589.155	0.0166102
589.233	0.0166825
589.311	0.0165515
589.390	0.0166321
589.468	0.0167093
589.546	0.0165878
589.624	0.0166432
589.702	0.0165556
589.780	0.0165708
589.858	0.0167685
589.936	0.0167134
590.015	0.0165991
590.093	0.0167361
590.171	0.0168499
590.249	0.0167482
590.327	0.0168100
590.405	0.0169186
590.483	0.0167943
590.561	0.0167707
590.640	0.0168892
590.718	0.0169634
590.796	0.0168378
590.874	0.0169225
590.952	0.0167921
591.030	0.0168655
591.108	0.0167406
591.186	0.0168690
591.265	0.0167540
591.343	0.0166621
591.421	0.0166607
591.499	0.0166607
591.577	0.0165679
591.655	0.0166318
591.733	0.0167408
591.811	0.0167152
591.890	0.0165834
591.968	0.0163947
592.046	0.0167179
592.124	0.0166051
592.202	0.0165570
592.280	0.0166086
592.358	0.0166500
592.436	0.0166890
592.515	0.0167468
592.593	0.0166416
592.671	0.0168003
592.749	0.0166582
592.827	0.0166636
592.905	0.0166740
592.983	0.0167725
593.061	0.0167236
593.140	0.0167045
593.218	0.0165945
593.296	0.0166920
593.374	0.0166820
593.452	0.0167397
593.530	0.0167426
593.608	0.0165779
593.686	0.0166668
593.765	0.0166544
593.843	0.0166400
593.921	0.0166856
593.999	0.0165508
594.077	0.0166174
594.155	0.0166722
594.233	0.0165852
594.311	0.0165966
594.390	0.0166534
594.468	0.0166217
594.546	0.0165775
594.624	0.0166823
594.702	0.0165733
594.780	0.0167202
594.858	0.0165555
594.936	0.0165483
595.015	0.0166213
595.093	0.0167670
595.171	0.0168602
595.249	0.0169015
595.327	0.0168285
595.405	0.0168177
595.483	0.0168711
595.561	0.0168601
595.640	0.0168521
595.718	0.0169167
595.796	0.0168494
595.874	0.0167995
595.952	0.0168153
596.030	0.0168607
596.108	0.0168277
596.186	0.0168118
596.265	0.0167888
596.343	0.0168319
596.421	0.0167227
596.499	0.0167481
596.577	0.0168213
596.655	0.0168508
596.733	0.0168323
596.811	0.0168590
596.890	0.0167593
596.968	0.0168214
597.046	0.0168256
597.124	0.0168674
597.202	0.0169180
597.280	0.0169024
597.358	0.0170499
597.436	0.0168067
597.515	0.0169658
597.593	0.0169882
597.671	0.0170090
597.749	0.0170150
597.827	0.0169988
597.905	0.0170171
597.983	0.0169282
598.061	0.0169256
598.140	0.0169277
598.218	0.0169884
598.296	0.0169328
598.374	0.0169891
598.452	0.0169476
598.530	0.0168391
598.608	0.0167111
598.686	0.0168316
598.765	0.0166794
598.843	0.0167682
598.921	0.0168185
598.999	0.0168696
599.077	0.0166599
599.155	0.0166792
599.233	0.0168017
599.311	0.0165999
599.390	0.0166754
599.468	0.0167437
599.546	0.0168092
599.624	0.0169427
599.702	0.0168340
599.780	0.0168475
599.858	0.0168691
599.936	0.0168285
600.015	0.0169809
600.093	0.0170015
600.171	0.0169807
600.249	0.0168317
600.327	0.0170376
600.405	0.0169147
600.483	0.0168911
600.561	0.0168575
600.640	0.0168941
600.718	0.0169616
600.796	0.0167831
600.874	0.0168694
600.952	0.0168112
601.030	0.0167533
601.108	0.0167262
601.186	0.0167583
601.265	0.0166586
601.343	0.0166905
601.421	0.0166268
601.499	0.0165858
601.577	0.0166595
601.655	0.0166602
601.733	0.0167111
601.811	0.0164527
601.890	0.0165900
601.968	0.0165781
602.046	0.0165847
602.124	0.0166228
602.202	0.0167221
602.280	0.0166456
602.358	0.0167314
602.436	0.0168427
602.515	0.0169202
602.593	0.0168130
602.671	0.0168913
602.749	0.0170276
602.827	0.0169691
602.905	0.0169993
602.983	0.0170339
603.061	0.0170541
603.140	0.0170209
603.218	0.0169215
603.296	0.0168479
603.374	0.0170824
603.452	0.0168864
603.530	0.0168600
603.608	0.0168685
603.686	0.0168266
603.765	0.0167327
603.843	0.0165909
603.921	0.0165653
603.999	0.0166965
604.077	0.0166734
604.155	0.0166037
604.233	0.0166525
604.311	0.0166918
604.390	0.0166393
604.468	0.0167636
604.546	0.0167439
604.624	0.0169264
604.702	0.0168359
604.780	0.0168514
604.858	0.0167310
604.936	0.0168108
605.015	0.0169740
605.093	0.0167741
605.171	0.0167537
605.249	0.0169593
605.327	0.0168987
605.405	0.0167461
605.483	0.0167934
605.561	0.0166738
605.640	0.0165250
605.718	0.0165595
605.796	0.0164188
605.874	0.0164063
605.952	0.0164193
606.030	0.0164628
606.108	0.0163831
606.186	0.0165085
606.265	0.0164339
606.343	0.0164934
606.421	0.0166769
606.499	0.0165535
606.577	0.0166381
606.655	0.0166471
606.733	0.0168640
606.811	0.0170745
606.890	0.0170800
606.968	0.0171967
607.046	0.0172627
607.124	0.0172933
607.202	0.0171211
607.280	0.0173248
607.358	0.0172311
607.436	0.0171680
607.515	0.0172361
607.593	0.0170834
607.671	0.0169347
607.749	0.0169084
607.827	0.0169267
607.905	0.0166983
607.983	0.0165913
608.061	0.0163982
608.140	0.0163916
608.218	0.0163103
608.296	0.0162234
608.374	0.0163435
608.452	0.0162764
608.530	0.0162724
608.608	0.0162125
608.686	0.0164229
608.765	0.0164774
608.843	0.0164577
608.921	0.0164933
608.999	0.0165879
609.077	0.0167962
609.155	0.0169892
609.233	0.0170591
609.311	0.0171079
609.390	0.0171233
609.468	0.0173987
609.546	0.0172960
609.624	0.0175182
609.702	0.0176464
609.780	0.0175572
609.858	0.0174652
609.936	0.0174478
610.015	0.0174020
610.093	0.0173339
610.171	0.0172188
610.249	0.0171140
610.327	0.0170395
610.405	0.0168177
610.483	0.0166968
610.561	0.0164793
610.640	0.0164266
610.718	0.0162280
610.796	0.0158901
610.874	0.0158904
610.952	0.0158422
611.030	0.0156012
611.108	0.0156639
611.186	0.0155041
611.265	0.0155239
611.343	0.0155344
611.421	0.0155314
611.499	0.0156096
611.577	0.0158217
611.655	0.0156709
611.733	0.0158694
611.811	0.0161340
611.890	0.0161086
611.968	0.0164394
612.046	0.0166021
612.124	0.0168797
612.202	0.0170938
612.280	0.0173138
612.358	0.0174078
612.436	0.0175389
612.515	0.0178679
612.593	0.0181314
612.671	0.0182121
612.749	0.0183284
612.827	0.0183262
612.905	0.0183818
612.983	0.0183787
613.061	0.0183980
613.140	0.0181559
613.218	0.0180006
613.296	0.0179844
613.374	0.0177385
613.452	0.0173696
613.530	0.0172739
613.608	0.0171081
613.686	0.0167480
613.765	0.0165877
613.843	0.0162721
613.921	0.0159225
613.999	0.0158147
614.077	0.0156255
614.155	0.0153909
614.233	0.0153309
614.311	0.0152334
614.390	0.0152718
614.468	0.0151421
614.546	0.0151681
614.624	0.0153742
614.702	0.0153073
614.780	0.0152906
614.858	0.0153785
614.936	0.0156130
615.015	0.0158205
615.093	0.0158975
615.171	0.0160839
615.249	0.0161166
615.327	0.0164355
615.405	0.0165691
615.483	0.0168222
615.561	0.0169654
615.640	0.0172549
615.718	0.0171428
615.796	0.0173602
615.874	0.0172514
615.952	0.0173027
616.030	0.0173076
616.108	0.0172846
616.186	0.0174150
616.265	0.0173930
616.343	0.0172469
616.421	0.0172080
616.499	0.0171069
616.577	0.0170361
616.655	0.0167906
616.733	0.0167823
616.811	0.0168182
616.890	0.0169196
616.968	0.0167588
617.046	0.0168015
617.124	0.0166708
617.202	0.0168693
617.280	0.0167014
617.358	0.0167456
617.436	0.0168504
617.515	0.0169981
617.593	0.0170812
617.671	0.0171181
617.749	0.0172973
617.827	0.0174304
617.905	0.0174539
617.983	0.0175869
618.061	0.0176584
618.140	0.0175786
618.218	0.0175056
618.296	0.0175211
618.374	0.0175270
618.452	0.0174646
618.530	0.0174152
618.608	0.0171461
618.686	0.0170448
618.765	0.0168922
618.843	0.0165531
618.921	0.0165414
618.999	0.0162529
619.077	0.0158779
619.155	0.0157953
619.233	0.0157665
619.311	0.0156606
619.390	0.0153682
619.468	0.0152070
619.546	0.0151328
619.624	0.0150564
619.702	0.0152103
619.780	0.0150945
619.858	0.0151945
619.936	0.0153419
620.015	0.0153506
620.093	0.0156473
620.171	0.0157045
620.249	0.0160437
620.327	0.0162789
620.405	0.0163477
620.483	0.0165530
620.561	0.0167334
620.640	0.0169283
620.718	0.0170518
620.796	0.0172366
620.874	0.0174805
620.952	0.0174870
621.030	0.0175651
621.108	0.0177448
621.186	0.0178733
621.265	0.0178696
621.343	0.0178909
621.421	0.0178500
621.499	0.0178989
621.577	0.0177270
621.655	0.0178151
621.733	0.0178044
621.811	0.0179327
621.890	0.0177856
621.968	0.0176627
622.046	0.0176936
622.124	0.0178649
622.202	0.0178749
622.280	0.0176496
622.358	0.0176160
622.436	0.0176915
622.515	0.0175579
622.593	0.0177539
622.671	0.0176647
622.749	0.0175043
622.827	0.0173365
622.905	0.0172263
622.983	0.0170613
623.061	0.0169986
623.140	0.0167793
623.218	0.0164005
623.296	0.0161444
623.374	0.0161088
623.452	0.0158391
623.530	0.0157806
623.608	0.0154341
623.686	0.0153571
623.765	0.0153712
623.843	0.0151251
623.921	0.0149381
623.999	0.0150089
624.077	0.0149886
624.155	0.0149594
624.233	0.0148361
624.311	0.0150434
624.390	0.0149213
624.468	0.0148582
624.546	0.0150938
624.624	0.0150511
624.702	0.0151884
624.780	0.0154356
624.858	0.0156005
624.936	0.0157098
625.015	0.0161440
625.093	0.0161423
625.171	0.0165038
625.249	0.0165884
625.327	0.0168260
625.405	0.0171243
625.483	0.0173226
625.561	0.0173742
625.640	0.0175576
625.718	0.0177128
625.796	0.0178672
625.874	0.0180675
625.952	0.0182057
626.030	0.0180662
626.108	0.0182566
626.186	0.0183751
626.265	0.0184280
626.343	0.0184040
626.421	0.0183562
626.499	0.0184219
626.577	0.0184284
626.655	0.0183784
626.733	0.0182969
626.811	0.0181416
626.890	0.0181048
626.968	0.0180087
627.046	0.0179689
627.124	0.0180217
627.202	0.0179456
627.280	0.0179556
627.358	0.0178647
627.436	0.0176907
627.515	0.0175981
627.593	0.0174687
627.671	0.0175195
627.749	0.0174581
627.827	0.0170771
627.905	0.0169414
627.983	0.0167563
628.061	0.0165897
628.140	0.0162724
628.218	0.0160602
628.296	0.0158097
628.374	0.0154793
628.452	0.0153277
628.530	0.0150790
628.608	0.0148567
628.686	0.0145567
628.765	0.0144083
628.843	0.0144009
628.921	0.0142620
628.999	0.0142574
629.077	0.0141838
629.155	0.0141706
629.233	0.0141309
629.311	0.0143568
629.390	0.0143830
629.468	0.0146287
629.546	0.0148023
629.624	0.0150729
629.702	0.0152246
629.780	0.0155780
629.858	0.0159357
629.936	0.0163698
630.015	0.0165248
630.093	0.0168067
630.171	0.0172038
630.249	0.0175307
630.327	0.0178643
630.405	0.0179957
630.483	0.0182604
630.561	0.0185458
630.640	0.0186461
630.718	0.0187757
630.796	0.0187148
630.874	0.0188924
630.952	0.0188689
631.030	0.0188699
631.108	0.0187786
631.186	0.0186104
631.265	0.0186378
631.343	0.0184720
631.421	0.0183455
631.499	0.0180935
631.577	0.0180109
631.655	0.0178032
631.733	0.0177048
631.811	0.0172613
631.890	0.0172514
631.968	0.0171513
632.046	0.0169543
632.124	0.0166109
632.202	0.0166199
632.280	0.0164201
632.358	0.0161131
632.436	0.0160522
632.515	0.0160285
632.593	0.0157897
632.671	0.0158329
632.749	0.0157236
632.827	0.0157433
632.905	0.0156841
632.983	0.0156797
633.061	0.0156789
633.140	0.0156396
633.218	0.0157946
633.296	0.0157986
633.374	0.0160065
633.452	0.0160159
633.530	0.0162676
633.608	0.0163709
633.686	0.0162926
633.765	0.0164799
633.843	0.0165075
633.921	0.0165739
633.999	0.0168044
634.077	0.0165480
634.155	0.0164400
634.233	0.0166093
634.311	0.0164501
634.390	0.0163493
634.468	0.0164091
634.546	0.0164404
634.624	0.0164444
634.702	0.0162978
634.780	0.0164010
634.858	0.0165002
634.936	0.0164458
635.015	0.0165221
635.093	0.0166471
635.171	0.0167266
635.249	0.0167553
635.327	0.0167127
635.405	0.0167569
635.483	0.0167762
635.561	0.0168624
635.640	0.0167811
635.718	0.0169727
635.796	0.0168475
635.874	0.0167154
635.952	0.0167690
636.030	0.0166312
636.108	0.0166262
636.186	0.0166019
636.265	0.0163902
636.343	0.0163678
636.421	0.0163443
636.499	0.0164426
636.577	0.0163885
636.655	0.0163841
636.733	0.0163490
636.811	0.0163322
636.890	0.0162157
636.968	0.0164146
637.046	0.0164269
637.124	0.0164687
637.202	0.0165708
637.280	0.0166165
637.358	0.0167620
637.436	0.0168420
637.515	0.0170093
637.593	0.0171450
637.671	0.0172903
637.749	0.0175323
637.827	0.0176914
637.905	0.0176920
637.983	0.0178085
638.061	0.0179602
638.140	0.0181095
638.218	0.0180777
638.296	0.0182110
638.374	0.0182368
638.452	0.0181179
638.530	0.0181629
638.608	0.0179979
638.686	0.0179653
638.765	0.0179333
638.843	0.0178533
638.921	0.0176528
638.999	0.0175811
639.077	0.0174921
639.155	0.0171384
639.233	0.0171257
639.311	0.0169835
639.390	0.0167207
639.468	0.0164784
639.546	0.0164697
639.624	0.0161365
639.702	0.0159222
639.780	0.0159410
639.858	0.0156100
639.936	0.0153844
640.015	0.0151777
640.093	0.0150802
640.171	0.0148694
640.249	0.0149492
640.327	0.0149812
640.405	0.0146623
640.483	0.0147871
640.561	0.0146896
640.640	0.0147462
640.718	0.0148254
640.796	0.0149504
640.874	0.0150697
640.952	0.0151913
641.030	0.0153670
641.108	0.0156231
641.186	0.0154641
641.265	0.0157330
641.343	0.0158542
641.421	0.0159670
641.499	0.0162271
641.577	0.0163374
641.655	0.0164683
641.733	0.0166087
641.811	0.0166915
641.890	0.0170029
641.968	0.0169116
642.046	0.0171356
642.124	0.0172562
642.202	0.0174959
642.280	0.0176202
642.358	0.0176682
642.436	0.0180158
642.515	0.0178559
642.593	0.0179937
642.671	0.0182054
642.749	0.0182684
642.827	0.0183179
642.905	0.0182510
642.983	0.0182748
643.061	0.0181205
643.140	0.0180585
643.218	0.0179240
643.296	0.0177589
643.374	0.0175379
643.452	0.0174741
643.530	0.0172685
643.608	0.0169711
643.686	0.0167867
643.765	0.0166505
643.843	0.0163384
643.921	0.0162082
643.999	0.0161401
644.077	0.0159217
644.155	0.0158927
644.233	0.0157408
644.311	0.0157310
644.390	0.0157472
644.468	0.0158011
644.546	0.0158779
644.624	0.0158317
644.702	0.0160180
644.780	0.0160671
644.858	0.0160928
644.936	0.0162607
645.015	0.0162746
645.093	0.0164793
645.171	0.0164956
645.249	0.0166116
645.327	0.0168456
645.405	0.0169688
645.483	0.0170228
645.561	0.0172353
645.640	0.0171928
645.718	0.0175138
645.796	0.0175473
645.874	0.0176340
645.952	0.0176025
646.030	0.0178098
646.108	0.0178361
646.186	0.0178365
646.265	0.0177834
646.343	0.0177348
646.421	0.0176180
646.499	0.0175720
646.577	0.0173243
646.655	0.0170914
646.733	0.0168542
646.811	0.0167621
646.890	0.0164537
646.968	0.0161244
647.046	0.0158975
647.124	0.0156093
647.202	0.0152948
647.280	0.0149739
647.358	0.0149547
647.436	0.0148190
647.515	0.0147268
647.593	0.0145303
647.671	0.0145612
647.749	0.0145988
647.827	0.0146372
647.905	0.0148498
647.983	0.0149706
648.061	0.0151595
648.140	0.0152653
648.218	0.0157037
648.296	0.0159303
648.374	0.0161320
648.452	0.0164890
648.530	0.0167168
648.608	0.0171706
648.686	0.0173222
648.765	0.0174288
648.843	0.0177784
648.921	0.0178908
648.999	0.0181293
649.077	0.0181994
649.155	0.0184392
649.233	0.0183768
649.311	0.0187267
649.390	0.0188114
649.468	0.0186236
649.546	0.0187225
649.624	0.0187655
649.702	0.0187233
649.780	0.0185421
649.858	0.0185699
649.936	0.0186682
650.015	0.0185676
650.093	0.0184714
650.171	0.0182930
650.249	0.0180989
650.327	0.0181604
650.405	0.0177901
650.483	0.0175248
650.561	0.0173319
650.640	0.0170691
650.718	0.0167970
650.796	0.0166844
650.874	0.0165918
650.952	0.0162637
651.030	0.0160498
651.108	0.0159498
651.186	0.0159617
651.265	0.0157037
651.343	0.0156598
651.421	0.0155334
651.499	0.0154153
651.577	0.0154190
651.655	0.0153246
651.733	0.0153390
651.811	0.0152577
651.890	0.0150309
651.968	0.0151143
652.046	0.0150371
652.124	0.0149031
652.202	0.0151096
652.280	0.0152215
652.358	0.0151653
652.436	0.0152321
652.515	0.0152696
652.593	0.0151519
652.671	0.0152755
652.749	0.0153608
652.827	0.0151783
652.905	0.0154405
652.983	0.0156968
653.061	0.0156954
653.140	0.0159350
653.218	0.0160703
653.296	0.0162039
653.374	0.0166170
653.452	0.0167486
653.530	0.0171301
653.608	0.0173800
653.686	0.0175919
653.765	0.0178469
653.843	0.0179848
653.921	0.0181804
653.999	0.0182719
654.077	0.0184014
654.155	0.0184485
654.233	0.0185690
654.311	0.0183801
654.390	0.0183577
654.468	0.0182684
654.546	0.0179698
654.624	0.0178693
654.702	0.0177561
654.780	0.0175539
654.858	0.0173318
654.936	0.0171008
655.015	0.0169703
655.093	0.0168304
655.171	0.0166914
655.249	0.0164501
655.327	0.0163802
655.405	0.0162031
655.483	0.0160625
655.561	0.0161447
655.640	0.0160294
655.718	0.0160339
655.796	0.0161276
655.874	0.0159695
655.952	0.0160191
656.030	0.0163433
656.108	0.0162808
656.186	0.0164800
656.265	0.0164948
656.343	0.0167754
656.421	0.0170441
656.499	0.0172229
656.577	0.0173895
656.655	0.0175067
656.733	0.0174306
656.811	0.0176440
656.890	0.0178138
656.968	0.0178539
657.046	0.0178463
657.124	0.0177795
657.202	0.0178254
657.280	0.0177887
657.358	0.0175752
657.436	0.0175941
657.515	0.0175384
657.593	0.0172803
657.671	0.0170959
657.749	0.0170074
657.827	0.0167669
657.905	0.0166488
657.983	0.0164108
658.061	0.0163744
658.140	0.0160899
658.218	0.0159325
658.296	0.0158627
658.374	0.0156246
658.452	0.0155812
658.530	0.0153854
658.608	0.0152529
658.686	0.0152650
658.765	0.0151825
658.843	0.0151098
658.921	0.0152282
658.999	0.0153767
659.077	0.0153891
659.155	0.0154462
659.233	0.0156077
659.311	0.0159072
659.390	0.0161428
659.468	0.0164269
659.546	0.0164063
659.624	0.0166661
659.702	0.0170065
659.780	0.0171120
659.858	0.0173782
659.936	0.0174169
660.015	0.0175130
660.093	0.0174587
660.171	0.0176167
660.249	0.0175733
660.327	0.0176289
660.405	0.0174380
660.483	0.0173370
660.561	0.0172742
660.640	0.0172881
660.718	0.0171752
660.796	0.0171929
660.874	0.0170066
660.952	0.0169494
661.030	0.0169675
661.108	0.0168687
661.186	0.0168202
661.265	0.0168845
661.343	0.0169579
661.421	0.0170863
661.499	0.0170700
661.577	0.0170518
661.655	0.0170383
661.733	0.0171144
661.811	0.0173986
661.890	0.0175727
661.968	0.0174863
662.046	0.0176396
662.124	0.0177006
662.202	0.0176461
662.280	0.0176456
662.358	0.0178500
662.436	0.0176058
662.515	0.0175745
662.593	0.0176678
662.671	0.0176220
662.749	0.0175084
662.827	0.0173954
662.905	0.0170786
662.983	0.0172008
663.061	0.0171212
663.140	0.0171085
663.218	0.0169686
663.296	0.0166853
663.374	0.0166044
663.452	0.0165350
663.530	0.0165524
663.608	0.0162894
663.686	0.0162212
663.765	0.0160897
663.843	0.0159422
663.921	0.0156544
663.999	0.0157279
664.077	0.0156453
664.155	0.0156383
664.233	0.0157075
664.311	0.0155856
664.390	0.0157003
664.468	0.0157236
664.546	0.0158633
664.624	0.0158691
664.702	0.0157615
664.780	0.0158098
664.858	0.0159913
664.936	0.0159878
665.015	0.0161272
665.093	0.0162089
665.171	0.0162632
665.249	0.0163697
665.327	0.0164037
665.405	0.0163626
665.483	0.0164747
665.561	0.0165734
665.640	0.0166572
665.718	0.0166096
665.796	0.0166205
665.874	0.0167292
665.952	0.0166360
666.030	0.0168413
666.108	0.0168920
666.186	0.0170625
666.265	0.0169959
666.343	0.0169407
666.421	0.0170921
666.499	0.0171252
666.577	0.0172314
666.655	0.0172909
666.733	0.0173199
666.811	0.0173323
666.890	0.0174087
666.968	0.0172491
667.046	0.0172764
667.124	0.0174062
667.202	0.0172929
667.280	0.0173120
667.358	0.0171359
667.436	0.0171214
667.515	0.0169932
667.593	0.0169063
667.671	0.0169042
667.749	0.0167705
667.827	0.0165395
667.905	0.0163731
667.983	0.0164750
668.061	0.0163404
668.140	0.0162423
668.218	0.0162246
668.296	0.0161953
668.374	0.0160910
668.452	0.0159573
668.530	0.0161040
668.608	0.0160747
668.686	0.0160675
668.765	0.0161416
668.843	0.0161568
668.921	0.0163143
668.999	0.0164333
669.077	0.0164025
669.155	0.0163766
669.233	0.0164456
669.311	0.0166265
669.390	0.0166342
669.468	0.0166167
669.546	0.0167191
669.624	0.0167350
669.702	0.0167980
669.780	0.0169834
669.858	0.0168162
669.936	0.0169050
670.015	0.0168970
670.093	0.0169707
670.171	0.0170478
670.249	0.0169087
670.327	0.0169446
670.405	0.0170036
670.483	0.0168858
670.561	0.0169458
670.640	0.0170137
670.718	0.0169061
670.796	0.0169382
670.874	0.0169208
670.952	0.0169731
671.030	0.0168661
671.108	0.0166802
671.186	0.0167271
671.265	0.0166359
671.343	0.0166360
671.421	0.0165042
671.499	0.0165320
671.577	0.0165942
671.655	0.0164765
671.733	0.0164027
671.811	0.0163830
671.890	0.0162818
671.968	0.0161118
672.046	0.0160762
672.124	0.0160966
672.202	0.0161757
672.280	0.0161166
672.358	0.0162889
672.436	0.0163052
672.515	0.0163997
672.593	0.0163740
672.671	0.0164170
672.749	0.0164077
672.827	0.0166283
672.905	0.0165536
672.983	0.0167857
673.061	0.0168160
673.140	0.0167963
673.218	0.0168695
673.296	0.0169120
673.374	0.0170206
673.452	0.0170664
673.530	0.0169574
673.608	0.0172179
673.686	0.0171548
673.765	0.0170985
673.843	0.0172376
673.921	0.0172304
673.999	0.0173972
674.077	0.0174376
674.155	0.0174300
674.233	0.0176157
674.311	0.0175924
674.390	0.0174609
674.468	0.0176508
674.546	0.0176511
674.624	0.0176325
674.702	0.0174590
674.780	0.0175793
674.858	0.0173689
674.936	0.0172370
675.015	0.0172992
675.093	0.0171389
675.171	0.0168787
675.249	0.0167783
675.327	0.0169202
675.405	0.0167204
675.483	0.0165275
675.561	0.0165807
675.640	0.0165321
675.718	0.0162498
675.796	0.0163866
675.874	0.0164674
675.952	0.0162760
676.030	0.0165319
676.108	0.0163923
676.186	0.0164001
676.265	0.0164120
676.343	0.0165308
676.421	0.0163757
676.499	0.0164681
676.577	0.0164964
676.655	0.0164790
676.733	0.0164955
676.811	0.0165030
676.890	0.0166180
676.968	0.0166760
677.046	0.0167878
677.124	0.0168116
677.202	0.0167985
677.280	0.0168881
677.358	0.0168709
677.436	0.0169069
677.515	0.0170247
677.593	0.0169807
677.671	0.0168901
677.749	0.0169666
677.827	0.0169394
677.905	0.0171139
677.983	0.0170160
678.061	0.0171182
678.140	0.0170503
678.218	0.0170504
678.296	0.0170512
678.374	0.0171499
678.452	0.0171378
678.530	0.0170081
678.608	0.0170200
678.686	0.0170565
678.765	0.0170447
678.843	0.0169950
678.921	0.0168169
678.999	0.0167862
679.077	0.0167702
679.155	0.0166923
679.233	0.0167613
679.311	0.0164511
679.390	0.0163007
679.468	0.0163631
679.546	0.0164148
679.624	0.0164434
679.702	0.0162770
679.780	0.0162487
679.858	0.0164154
679.936	0.0163237
680.015	0.0163565
680.093	0.0162992
680.171	0.0164828
680.249	0.0164039
680.327	0.0165744
680.405	0.0166434
680.483	0.0164853
680.561	0.0166066
680.640	0.0167566
680.718	0.0165807
680.796	0.0167332
680.874	0.0166671
680.952	0.0167449
681.030	0.0167966
681.108	0.0166829
681.186	0.0168607
681.265	0.0167510
681.343	0.0167452
681.421	0.0167606
681.499	0.0168900
681.577	0.0167168
681.655	0.0167457
681.733	0.0167826
681.811	0.0167477
681.890	0.0166625
681.968	0.0166942
682.046	0.0166981
682.124	0.0166555
682.202	0.0166483
682.280	0.0167520
682.358	0.0167456
682.436	0.0166248
682.515	0.0165890
682.593	0.0164222
682.671	0.0164030
682.749	0.0164503
682.827	0.0164845
682.905	0.0165894
682.983	0.0163275
683.061	0.0164037
683.140	0.0164751
683.218	0.0164455
683.296	0.0163972
683.374	0.0163276
683.452	0.0165445
683.530	0.0166069
683.608	0.0166011
683.686	0.0167550
683.765	0.0168275
683.843	0.0167345
683.921	0.0168375
683.999	0.0170198
684.077	0.0168350
684.155	0.0169863
684.233	0.0169138
684.311	0.0169476
684.390	0.0169198
684.468	0.0170116
684.546	0.0170727
684.624	0.0169796
684.702	0.0170023
684.780	0.0170280
684.858	0.0170925
684.936	0.0169939
685.015	0.0169283
685.093	0.0169953
685.171	0.0169881
685.249	0.0167633
685.327	0.0167430
685.405	0.0168010
685.483	0.0166924
685.561	0.0166936
685.640	0.0166432
685.718	0.0166653
685.796	0.0165741
685.874	0.0165542
685.952	0.0167825
686.030	0.0166801
686.108	0.0167427
686.186	0.0168803
686.265	0.0168016
686.343	0.0168103
686.421	0.0167963
686.499	0.0168217
686.577	0.0168936
686.655	0.0168366
686.733	0.0167732
686.811	0.0167744
686.890	0.0168114
686.968	0.0167706
687.046	0.0167766
687.124	0.0166982
687.202	0.0166917
687.280	0.0168049
687.358	0.0169496
687.436	0.0169562
687.515	0.0168824
687.593	0.0167538
687.671	0.0167974
687.749	0.0169257
687.827	0.0169226
687.905	0.0169872
687.983	0.0169189
688.061	0.0168858
688.140	0.0171246
688.218	0.0169254
688.296	0.0168363
688.374	0.0168677
688.452	0.0168347
688.530	0.0167420
688.608	0.0168620
688.686	0.0166821
688.765	0.0167237
688.843	0.0166701
688.921	0.0165347
688.999	0.0167385
689.077	0.0165722
689.155	0.0166594
689.233	0.0165755
689.311	0.0166436
689.390	0.0166151
689.468	0.0167255
689.546	0.0165242
689.624	0.0165377
689.702	0.0165304
689.780	0.0166279
689.858	0.0165916
689.936	0.0166363
690.015	0.0164804
690.093	0.0164074
690.171	0.0166813
690.249	0.0166444
690.327	0.0167154
690.405	0.0167231
690.483	0.0166994
690.561	0.0167302
690.640	0.0165328
690.718	0.0166402
690.796	0.0167144
690.874	0.0166491
690.952	0.0166831
691.030	0.0166711
691.108	0.0167850
691.186	0.0166367
691.265	0.0165491
691.343	0.0164515
691.421	0.0166451
691.499	0.0165665
691.577	0.0166750
691.655	0.0165304
691.733	0.0166767
691.811	0.0166070
691.890	0.0165193
691.968	0.0166038
692.046	0.0165475
692.124	0.0164024
692.202	0.0163747
692.280	0.0164121
692.358	0.0164390
692.436	0.0163558
692.515	0.0164390
692.593	0.0164880
692.671	0.0164500
692.749	0.0164342
692.827	0.0165713
692.905	0.0165504
692.983	0.0165720
693.061	0.0165530
693.140	0.0167598
693.218	0.0168636
693.296	0.0167468
693.374	0.0167326
693.452	0.0167518
693.530	0.0168743
693.608	0.0170889
693.686	0.0170541
693.765	0.0170245
693.843	0.0171029
693.921	0.0171457
693.999	0.0172085
694.077	0.0170429
694.155	0.0171614
694.233	0.0170265
694.311	0.0170586
694.390	0.0170670
694.468	0.0167937
694.546	0.0167282
694.624	0.0169086
694.702	0.0168816
694.780	0.0167673
694.858	0.0168814
694.936	0.0168523
695.015	0.0168305
695.093	0.0167123
695.171	0.0167853
695.249	0.0168086
695.327	0.0169227
695.405	0.0169637
695.483	0.0168115
695.561	0.0167770
695.640	0.0167529
695.718	0.0168271
695.796	0.0168217
695.874	0.0168314
695.952	0.0170560
696.030	0.0169131
696.108	0.0167272
696.186	0.0168778
696.265	0.0168258
696.343	0.0168222
696.421	0.0168523
696.499	0.0166868
696.577	0.0167069
696.655	0.0165900
696.733	0.0166052
696.811	0.0166010
696.890	0.0166766
696.968	0.0166042
697.046	0.0165405
697.124	0.0165508
697.202	0.0165798
697.280	0.0166077
697.358	0.0165839
697.436	0.0167431
697.515	0.0167181
697.593	0.0167924
697.671	0.0166805
697.749	0.0167355
697.827	0.0166687
697.905	0.0167439
697.983	0.0167226
698.061	0.0166877
698.140	0.0167970
698.218	0.0167477
698.296	0.0168044
698.374	0.0168284
698.452	0.0167693
698.530	0.0168650
698.608	0.0168800
698.686	0.0167046
698.765	0.0168064
698.843	0.0167486
698.921	0.0168637
698.999	0.0165907
699.077	0.0167577
699.155	0.0167615
699.233	0.0166122
699.311	0.0166186
699.390	0.0167464
699.468	0.0167637
699.546	0.0166792
699.624	0.0165691
699.702	0.0167532
699.780	0.0166190
699.858	0.0166560
699.936	0.0166234
700.015	0.0165446
700.093	0.0166885
700.171	0.0166562
700.249	0.0165598
700.327	0.0167072
700.405	0.0166790
700.483	0.0166602
700.561	0.0167801
700.640	0.0166634
700.718	0.0167523
700.796	0.0167108
700.874	0.0167181
700.952	0.0167838
701.030	0.0168919
701.108	0.0169219
701.186	0.0167825
701.265	0.0167577
701.343	0.0169877
701.421	0.0169048
701.499	0.0167496
701.577	0.0169933
701.655	0.0169500
701.733	0.0167936
701.811	0.0169512
701.890	0.0168074
701.968	0.0167214
702.046	0.0167557
702.124	0.0168813
702.202	0.0166100
702.280	0.0166475
702.358	0.0166951
702.436	0.0164886
702.515	0.0165173
702.593	0.0164249
702.671	0.0163647
702.749	0.0165027
702.827	0.0164482
702.905	0.0163203
702.983	0.0164967
703.061	0.0162900
703.140	0.0164724
703.218	0.0165558
703.296	0.0164379
703.374	0.0165548
703.452	0.0165337
703.530	0.0166396
703.608	0.0167393
703.686	0.0167075
703.765	0.0166331
703.843	0.0168829
703.921	0.0169156
703.999	0.0167008
704.077	0.0166987
704.155	0.0168021
704.233	0.0168629
704.311	0.0167614
704.390	0.0168792
704.468	0.0167072
704.546	0.0167442
704.624	0.0167910
704.702	0.0167766
704.780	0.0165996
704.858	0.0166657
704.936	0.0166573
705.015	0.0166306
705.093	0.0165647
705.171	0.0166143
705.249	0.0166814
705.327	0.0165782
705.405	0.0165410
705.483	0.0167088
705.561	0.0166452
705.640	0.0166823
705.718	0.0165173
705.796	0.0167027
705.874	0.0166623
705.952	0.0168894
706.030	0.0167596
706.108	0.0167303
706.186	0.0169144
706.265	0.0167630
706.343	0.0168520
706.421	0.0167853
706.499	0.0168216
706.577	0.0169302
706.655	0.0169679
706.733	0.0168276
706.811	0.0169814
706.890	0.0168011
706.968	0.0168824
707.046	0.0168166
707.124	0.0168674
707.202	0.0166735
707.280	0.0166959
707.358	0.0166422
707.436	0.0167190
707.515	0.0165665
707.593	0.0166631
707.671	0.0166122
707.749	0.0164932
707.827	0.0165337
707.905	0.0164272
707.983	0.0165196
708.061	0.0165221
708.140	0.0165454
708.218	0.0165885
708.296	0.0164271
708.374	0.0163943
708.452	0.0165134
708.530	0.0166066
708.608	0.0164916
708.686	0.0166441
708.765	0.0165983
708.843	0.0166396
708.921	0.0165588
708.999	0.0165987
709.077	0.0167217
709.155	0.0168874
709.233	0.0166557
709.311	0.0167760
709.390	0.0166865
709.468	0.0167119
709.546	0.0167667
709.624	0.0166682
709.702	0.0167751
709.780	0.0167706
709.858	0.0167441
709.936	0.0167357
710.015	0.0167145
710.093	0.0167094
710.171	0.0166725
710.249	0.0165831
710.327	0.0167366
710.405	0.0165848
710.483	0.0166444
710.561	0.0164495
710.640	0.0163864
710.718	0.0165759
710.796	0.0165514
710.874	0.0163881
710.952	0.0163848
711.030	0.0163458
711.108	0.0163853
711.186	0.0164092
711.265	0.0164171
711.343	0.0165466
711.421	0.0164983
711.499	0.0166063
711.577	0.0166404
711.655	0.0167722
711.733	0.0166441
711.811	0.0168682
711.890	0.0169144
711.968	0.0168288
712.046	0.0168079
712.124	0.0170129
712.202	0.0169542
712.280	0.0169311
712.358	0.0170067
712.436	0.0169295
712.515	0.0169387
712.593	0.0169240
712.671	0.0170918
712.749	0.0170003
712.827	0.0170107
712.905	0.0169853
712.983	0.0168665
713.061	0.0168787
713.140	0.0168614
713.218	0.0167358
713.296	0.0167741
713.374	0.0166382
713.452	0.0165762
713.530	0.0166316
713.608	0.0165211
713.686	0.0164191
713.765	0.0165807
713.843	0.0165407
713.921	0.0164174
713.999	0.0164911
714.077	0.0166406
714.155	0.0165242
714.233	0.0164493
714.311	0.0166437
714.390	0.0167046
714.468	0.0167871
714.546	0.0167334
714.624	0.0168139
714.702	0.0167638
714.780	0.0166325
714.858	0.0168079
714.936	0.0167620
715.015	0.0167693
715.093	0.0167848
715.171	0.0168654
715.249	0.0168966
715.327	0.0171619
715.405	0.0169162
715.483	0.0169055
715.561	0.0169315
715.640	0.0169204
715.718	0.0169897
715.796	0.0170227
715.874	0.0169060
715.952	0.0167725
716.030	0.0169572
716.108	0.0167786
716.186	0.0169103
716.265	0.0168886
716.343	0.0167267
716.421	0.0167248
716.499	0.0166692
716.577	0.0166309
716.655	0.0167564
716.733	0.0166229
716.811	0.0165929
716.890	0.0165905
716.968	0.0167362
717.046	0.0164848
717.124	0.0166623
717.202	0.0168246
717.280	0.0168361
717.358	0.0166939
717.436	0.0168119
717.515	0.0168041
717.593	0.0169180
717.671	0.0169766
717.749	0.0169003
717.827	0.0170293
717.905	0.0170193
717.983	0.0171694
718.061	0.0170019
718.140	0.0170289
718.218	0.0170075
718.296	0.0169724
718.374	0.0169172
718.452	0.0170671
718.530	0.0169538
718.608	0.0169352
718.686	0.0168949
718.765	0.0169246
718.843	0.0168893
718.921	0.0167472
718.999	0.0167671
719.077	0.0166394
719.155	0.0166467
719.233	0.0167053
719.311	0.0165893
719.390	0.0165366
719.468	0.0165527
719.546	0.0166403
719.624	0.0165197
719.702	0.0164613
719.780	0.0165437
719.858	0.0164425
719.936	0.0164616
720.015	0.0164298
720.093	0.0163657
720.171	0.0163144
720.249	0.0163979
720.327	0.0163946
720.405	0.0163637
720.483	0.0164893
720.561	0.0163158
720.640	0.0163523
720.718	0.0163777
720.796	0.0163422
720.874	0.0164247
720.952	0.0163877
721.030	0.0163831
721.108	0.0164899
721.186	0.0165130
721.265	0.0163671
721.343	0.0165698
721.421	0.0165542
721.499	0.0164510
721.577	0.0164072
721.655	0.0165826
721.733	0.0166654
721.811	0.0166673
721.890	0.0166729
721.968	0.0167541
722.046	0.0167837
722.124	0.0166444
722.202	0.0166423
722.280	0.0164970
722.358	0.0167303
722.436	0.0167785
722.515	0.0166039
722.593	0.0168381
722.671	0.0168360
722.749	0.0168707
722.827	0.0168819
722.905	0.0168396
722.983	0.0168003
723.061	0.0168868
723.140	0.0169315
723.218	0.0169205
723.296	0.0168420
723.374	0.0169555
723.452	0.0169413
723.530	0.0169291
723.608	0.0169675
723.686	0.0169489
723.765	0.0170764
723.843	0.0170798
723.921	0.0169261
723.999	0.0169661
724.077	0.0169706
724.155	0.0170166
724.233	0.0167663
724.311	0.0168775
724.390	0.0168848
724.468	0.0168751
724.546	0.0167279
724.624	0.0167721
724.702	0.0166953
724.780	0.0167088
724.858	0.0166775
724.936	0.0167038
725.015	0.0166656
725.093	0.0166253
725.171	0.0165611
725.249	0.0166315
725.327	0.0165192
725.405	0.0165616
725.483	0.0165443
725.561	0.0163302
725.640	0.0165781
725.718	0.0165190
725.796	0.0164624
725.874	0.0163806
725.952	0.0163746
726.030	0.0164932
726.108	0.0164785
726.186	0.0165886
726.265	0.0164507
726.343	0.0164484
726.421	0.0164674
726.499	0.0163913
726.577	0.0164670
726.655	0.0164268
726.733	0.0164354
726.811	0.0164105
726.890	0.0164049
726.968	0.0164716
727.046	0.0166308
727.124	0.0164226
727.202	0.0165022
727.280	0.0165663
727.358	0.0165857
727.436	0.0165405
727.515	0.0166425
727.593	0.0167409
727.671	0.0167493
727.749	0.0167104
727.827	0.0167527
727.905	0.0166933
727.983	0.0167083
728.061	0.0167611
728.140	0.0169349
728.218	0.0167512
728.296	0.0168506
728.374	0.0168493
728.452	0.0168878
728.530	0.0168686
728.608	0.0168820
728.686	0.0168385
728.765	0.0168698
728.843	0.0169628
728.921	0.0168218
728.999	0.0169184
729.077	0.0169381
729.155	0.0169002
729.233	0.0168555
729.311	0.0170007
729.390	0.0169579
729.468	0.0168934
729.546	0.0169135
729.624	0.0167186
729.702	0.0167581
729.780	0.0167721
729.858	0.0168658
729.936	0.0167336
730.015	0.0167304
730.093	0.0167342
730.171	0.0167473
730.249	0.0167062
730.327	0.0167696
730.405	0.0167870
730.483	0.0165760
730.561	0.0167213
730.640	0.0167822
730.718	0.0168661
730.796	0.0168764
730.874	0.0167880
730.952	0.0169000
731.030	0.0168372
731.108	0.0167752
731.186	0.0167735
731.265	0.0168467
731.343	0.0169576
731.421	0.0168627
731.499	0.0167885
731.577	0.0170340
731.655	0.0168382
731.733	0.0167535
731.811	0.0167597
731.890	0.0168040
731.968	0.0167187
732.046	0.0166608
732.124	0.0167258
732.202	0.0165673
732.280	0.0166070
732.358	0.0165088
732.436	0.0163854
732.515	0.0164909
732.593	0.0164821
732.671	0.0165216
732.749	0.0164973
732.827	0.0165028
732.905	0.0163885
732.983	0.0165393
733.061	0.0165807
733.140	0.0165524
733.218	0.0166117
733.296	0.0165589
733.374	0.0166927
733.452	0.0166439
733.530	0.0167042
733.608	0.0167660
733.686	0.0167318
733.765	0.0167693
733.843	0.0169350
733.921	0.0167659
733.999	0.0168421
734.077	0.0167130
734.155	0.0168462
734.233	0.0167260
734.311	0.0168357
734.390	0.0167883
734.468	0.0169763
734.546	0.0168842
734.624	0.0169044
734.702	0.0167703
734.780	0.0168330
734.858	0.0167651
734.936	0.0167989
735.015	0.0167711
735.093	0.0168293
735.171	0.0167332
735.249	0.0166470
735.327	0.0166586
735.405	0.0166649
735.483	0.0166927
735.561	0.0166477
735.640	0.0166998
735.718	0.0166137
735.796	0.0167339
735.874	0.0165932
735.952	0.0166429
736.030	0.0166801
736.108	0.0166357
736.186	0.0167247
736.265	0.0167371
736.343	0.0166477
736.421	0.0166301
736.499	0.0165944
736.577	0.0167508
736.655	0.0165644
736.733	0.0165227
736.811	0.0165832
736.890	0.0167214
736.968	0.0166930
737.046	0.0165026
737.124	0.0166794
737.202	0.0165232
737.280	0.0164964
737.358	0.0164098
737.436	0.0164398
737.515	0.0164191
737.593	0.0164818
737.671	0.0163328
737.749	0.0164427
737.827	0.0165315
737.905	0.0164467
737.983	0.0164756
738.061	0.0163741
738.140	0.0164590
738.218	0.0165131
738.296	0.0165002
738.374	0.0166921
738.452	0.0166604
738.530	0.0166898
738.608	0.0167622
738.686	0.0166714
738.765	0.0167411
738.843	0.0167191
738.921	0.0167449
738.999	0.0168976
739.077	0.0167903
739.155	0.0167838
739.233	0.0166967
739.311	0.0168031
739.390	0.0166573
739.468	0.0167526
739.546	0.0167165
739.624	0.0167866
739.702	0.0166380
739.780	0.0168003
739.858	0.0167599
739.936	0.0165733
740.015	0.0165820
740.093	0.0166275
740.171	0.0166227
740.249	0.0166570
740.327	0.0168168
740.405	0.0167131
740.483	0.0167933
740.561	0.0166570
740.640	0.0166471
740.718	0.0165954
740.796	0.0166061
740.874	0.0166298
740.952	0.0166598
741.030	0.0168744
741.108	0.0167200
741.186	0.0165807
741.265	0.0168316
741.343	0.0168605
741.421	0.0166384
741.499	0.0167217
741.577	0.0166432
741.655	0.0167928
741.733	0.0167529
741.811	0.0169424
741.890	0.0168873
741.968	0.0167458
742.046	0.0167380
742.124	0.0167969
742.202	0.0166947
742.280	0.0167341
742.358	0.0166669
742.436	0.0168130
742.515	0.0167761
742.593	0.0166427
742.671	0.0167159
742.749	0.0168021
742.827	0.0166540
742.905	0.0167625
742.983	0.0168104
743.061	0.0168263
743.140	0.0168222
743.218	0.0167353
743.296	0.0165931
743.374	0.0165790
743.452	0.0165189
743.530	0.0167012
743.608	0.0166078
743.686	0.0165814
743.765	0.0166175
743.843	0.0167060
743.921	0.0166971
743.999	0.0168124
744.077	0.0166814
744.155	0.0166418
744.233	0.0166668
744.311	0.0167916
744.390	0.0168216
744.468	0.0167172
744.546	0.0168014
744.624	0.0166425
744.702	0.0167602
744.780	0.0166453
744.858	0.0167188
744.936	0.0168742
745.015	0.0168952
745.093	0.0168365
745.171	0.0168066
745.249	0.0169200
745.327	0.0169162
745.405	0.0169839
745.483	0.0168567
745.561	0.0168540
745.640	0.0169920
745.718	0.0168617
745.796	0.0170251
745.874	0.0170025
745.952	0.0171017
746.030	0.0170309
746.108	0.0169707
746.186	0.0168654
746.265	0.0169159
746.343	0.0168300
746.421	0.0168893
746.499	0.0168579
746.577	0.0169394
746.655	0.0168143
746.733	0.0168450
746.811	0.0168752
746.890	0.0167969
746.968	0.0168492
747.046	0.0166903
747.124	0.0166933
747.202	0.0166582
747.280	0.0166321
747.358	0.0164455
747.436	0.0164850
747.515	0.0163685
747.593	0.0164144
747.671	0.0164037
747.749	0.0164426
747.827	0.0164235
747.905	0.0164075
747.983	0.0164368
748.061	0.0164235
748.140	0.0163302
748.218	0.0164057
748.296	0.0164062
748.374	0.0164980
748.452	0.0164423
748.530	0.0162694
748.608	0.0164563
748.686	0.0163309
748.765	0.0164317
748.843	0.0164054
748.921	0.0164665
748.999	0.0164253
749.077	0.0164234
749.155	0.0165009
749.233	0.0165325
749.311	0.0165611
749.390	0.0163896
749.468	0.0165936
749.546	0.0164850
749.624	0.0165641
749.702	0.0164793
749.780	0.0166286
749.858	0.0165105
749.936	0.0166729
750.015	0.0164860
750.093	0.0166155
750.171	0.0165968
750.249	0.0166912
750.327	0.0168298
750.405	0.0166678
750.483	0.0167686
750.561	0.0167667
750.640	0.0166876
750.718	0.0167139
750.796	0.0167784
750.874	0.0169586
750.952	0.0168388
751.030	0.0167272
751.108	0.0168620
751.186	0.0168472
751.265	0.0168957
751.343	0.0169048
751.421	0.0169705
751.499	0.0168322
751.577	0.0168320
751.655	0.0167839
751.733	0.0167792
751.811	0.0168024
751.890	0.0167565
751.968	0.0167863
752.046	0.0167877
752.124	0.0167193
752.202	0.0167055
752.280	0.0167951
752.358	0.0166736
752.436	0.0166925
752.515	0.0166633
752.593	0.0168384
752.671	0.0167503
752.749	0.0166933
752.827	0.0167909
752.905	0.0168712
752.983	0.0167206
753.061	0.0168028
753.140	0.0167704
753.218	0.0166869
753.296	0.0166404
753.374	0.0167917
753.452	0.0167061
753.530	0.0166808
753.608	0.0166746
753.686	0.0166542
753.765	0.0167043
753.843	0.0165839
753.921	0.0166162
753.999	0.0165747
754.077	0.0166338
754.155	0.0164748
754.233	0.0164186
754.311	0.0166280
754.390	0.0165824
754.468	0.0165619
754.546	0.0164993
754.624	0.0163863
754.702	0.0165022
754.780	0.0164724
754.858	0.0164460
754.936	0.0162662
755.015	0.0162564
755.093	0.0165258
755.171	0.0163784
755.249	0.0163423
755.327	0.0164347
755.405	0.0162749
755.483	0.0165413
755.561	0.0162840
755.640	0.0164573
755.718	0.0164417
755.796	0.0164317
755.874	0.0164373
755.952	0.0164878
756.030	0.0165446
756.108	0.0165746
756.186	0.0165339
756.265	0.0166665
756.343	0.0166688
756.421	0.0165179
756.499	0.0166174
756.577	0.0167133
756.655	0.0166646
756.733	0.0167698
756.811	0.0166220
756.890	0.0165349
756.968	0.0167285
757.046	0.0167676
757.124	0.0168265
757.202	0.0167957
757.280	0.0166197
757.358	0.0167057
757.436	0.0167688
757.515	0.0167045
757.593	0.0166481
757.671	0.0167638
757.749	0.0167653
757.827	0.0168172
757.905	0.0168122
757.983	0.0169244
758.061	0.0168748
758.140	0.0169408
758.218	0.0168410
758.296	0.0167242
758.374	0.0166997
758.452	0.0169801
758.530	0.0168771
758.608	0.0167133
758.686	0.0167329
758.765	0.0167398
758.843	0.0167724
758.921	0.0167017
758.999	0.0167995
759.077	0.0167593
759.155	0.0168171
759.233	0.0167614
759.311	0.0167385
759.390	0.0167556
759.468	0.0168043
759.546	0.0167124
759.624	0.0167807
759.702	0.0167406
759.780	0.0166425
759.858	0.0166350
759.936	0.0166148
760.015	0.0166104
760.093	0.0167088
760.171	0.0166425
760.249	0.0168574
760.327	0.0167161
760.405	0.0168130
760.483	0.0168268
760.561	0.0167155
760.640	0.0166570
760.718	0.0167940
760.796	0.0167894
760.874	0.0168230
760.952	0.0168655
761.030	0.0168075
761.108	0.0168481
761.186	0.0168530
761.265	0.0166639
761.343	0.0166428
761.421	0.0168993
761.499	0.0167302
761.577	0.0168356
761.655	0.0167136
761.733	0.0166297
761.811	0.0167230
761.890	0.0167605
761.968	0.0165899
762.046	0.0165945
762.124	0.0167049
762.202	0.0166024
762.280	0.0164820
762.358	0.0165778
762.436	0.0165759
762.515	0.0166785
762.593	0.0165257
762.671	0.0165109
762.749	0.0165829
762.827	0.0166251
762.905	0.0166666
762.983	0.0166110
763.061	0.0166274
763.140	0.0166445
763.218	0.0166696
763.296	0.0167336
763.374	0.0167422
763.452	0.0167413
763.530	0.0169526
763.608	0.0167283
763.686	0.0167709
763.765	0.0167665
763.843	0.0169107
763.921	0.0167804
763.999	0.0167747
764.077	0.0167496
764.155	0.0168837
764.233	0.0167557
764.311	0.0166267
764.390	0.0166541
764.468	0.0167480
764.546	0.0167469
764.624	0.0167392
764.702	0.0166867
764.780	0.0166479
764.858	0.0166356
764.936	0.0165842
765.015	0.0166422
765.093	0.0166063
765.171	0.0166835
765.249	0.0165137
765.327	0.0166715
765.405	0.0165697
765.483	0.0167014
765.561	0.0167416
765.640	0.0166982
765.718	0.0166530
765.796	0.0166837
765.874	0.0166055
765.952	0.0167284
766.030	0.0166182
766.108	0.0168796
766.186	0.0167990
766.265	0.0168455
766.343	0.0169030
766.421	0.0167645
766.499	0.0168094
766.577	0.0167669
766.655	0.0167570
766.733	0.0167239
766.811	0.0168427
766.890	0.0168800
766.968	0.0167105
767.046	0.0168312
767.124	0.0168011
767.202	0.0166653
767.280	0.0166228
767.358	0.0167372
767.436	0.0167940
767.515	0.0167249
767.593	0.0166253
767.671	0.0166129
767.749	0.0166734
767.827	0.0167603
767.905	0.0167091
767.983	0.0166049
768.061	0.0166045
768.140	0.0168136
768.218	0.0166912
768.296	0.0166423
768.374	0.0166164
768.452	0.0165827
768.530	0.0167239
768.608	0.0166303
768.686	0.0165215
768.765	0.0166286
768.843	0.0167284
768.921	0.0167397
768.999	0.0167347
769.077	0.0166515
769.155	0.0166087
769.233	0.0166787
769.311	0.0166444
769.390	0.0167002
769.468	0.0166636
769.546	0.0167094
769.624	0.0166757
769.702	0.0165961
769.780	0.0165633
769.858	0.0166191
769.936	0.0166926
770.015	0.0167452
770.093	0.0167003
770.171	0.0167451
770.249	0.0166970
770.327	0.0166072
770.405	0.0168214
770.483	0.0167339
770.561	0.0165554
770.640	0.0167315
770.718	0.0167731
770.796	0.0166933
770.874	0.0166676
770.952	0.0167224
771.030	0.0167937
771.108	0.0168340
771.186	0.0167666
771.265	0.0166666
771.343	0.0165884
771.421	0.0166795
771.499	0.0166663
771.577	0.0167252
771.655	0.0165260
771.733	0.0166521
771.811	0.0166489
771.890	0.0167284
771.968	0.0167435
772.046	0.0166034
772.124	0.0166827
772.202	0.0166944
772.280	0.0166325
772.358	0.0168755
772.436	0.0167791
772.515	0.0166911
772.593	0.0167075
772.671	0.0167119
772.749	0.0167681
772.827	0.0168485
772.905	0.0168822
772.983	0.0167451
773.061	0.0168549
773.140	0.0167858
773.218	0.0167140
773.296	0.0167795
773.374	0.0167377
773.452	0.0168187
773.530	0.0169175
773.608	0.0168152
773.686	0.0166779
773.765	0.0168497
773.843	0.0168650
773.921	0.0167213
773.999	0.0167387
774.077	0.0167899
774.155	0.0167783
774.233	0.0167916
774.311	0.0167531
774.390	0.0168008
774.468	0.0166952
774.546	0.0168250
774.624	0.0166441
774.702	0.0168583
774.780	0.0168059
774.858	0.0167627
774.936	0.0165822
775.015	0.0166974
775.093	0.0167484
775.171	0.0166966
775.249	0.0167931
775.327	0.0167220
775.405	0.0166080
775.483	0.0167828
775.561	0.0166232
775.640	0.0166402
775.718	0.0166973
775.796	0.0166332
775.874	0.0167008
775.952	0.0165434
776.030	0.0166440
776.108	0.0165613
776.186	0.0165506
776.265	0.0166785
776.343	0.0166369
776.421	0.0167403
776.499	0.0166949
776.577	0.0166224
776.655	0.0168349
776.733	0.0166560
776.811	0.0167007
776.890	0.0166959
776.968	0.0168074
777.046	0.0168227
777.124	0.0168116
777.202	0.0168489
777.280	0.0168968
777.358	0.0168817
777.436	0.0167664
777.515	0.0166486
777.593	0.0168608
777.671	0.0168778
777.749	0.0167306
777.827	0.0165097
777.905	0.0166328
777.983	0.0166425
778.061	0.0166037
778.140	0.0165523
778.218	0.0166979
778.296	0.0165804
778.374	0.0165978
778.452	0.0165925
778.530	0.0167508
778.608	0.0165101
778.686	0.0164971
778.765	0.0165049
778.843	0.0162841
778.921	0.0164540
778.999	0.0164671
779.077	0.0163683
779.155	0.0162730
779.233	0.0164101
779.311	0.0165381
779.390	0.0165788
779.468	0.0165521
779.546	0.0165357
779.624	0.0164754
779.702	0.0165833
779.780	0.0165140
779.858	0.0165564
779.936	0.0166177
780.015	0.0165558
780.093	0.0164614
780.171	0.0167251
780.249	0.0166470
780.327	0.0167128
780.405	0.0166740
780.483	0.0167461
780.561	0.0166397
780.640	0.0167786
780.718	0.0166593
780.796	0.0167609
780.874	0.0168335
780.952	0.0167941
781.030	0.0167125
781.108	0.0166910
781.186	0.0167244
781.265	0.0168226
781.343	0.0167496
781.421	0.0168739
781.499	0.0167019
781.577	0.0167818
781.655	0.0167486
781.733	0.0167380
781.811	0.0166897
781.890	0.0169196
781.968	0.0168500
782.046	0.0166528
782.124	0.0166914
782.202	0.0166737
782.280	0.0168791
782.358	0.0165961
782.436	0.0166552
782.515	0.0168586
782.593	0.0168127
782.671	0.0165927
782.749	0.0168061
782.827	0.0168310
782.905	0.0167910
782.983	0.0167992
783.061	0.0167318
783.140	0.0167490
783.218	0.0167036
783.296	0.0165350
783.374	0.0167338
783.452	0.0167545
783.530	0.0166168
783.608	0.0168335
783.686	0.0166076
783.765	0.0167465
783.843	0.0167210
783.921	0.0166506
783.999	0.0168172
784.077	0.0168914
784.155	0.0167046
784.233	0.0167508
784.311	0.0167098
784.390	0.0166560
784.468	0.0166254
784.546	0.0166773
784.624	0.0167309
784.702	0.0166683
784.780	0.0165524
784.858	0.0164975
784.936	0.0165583
785.015	0.0167049
785.093	0.0167028
785.171	0.0166634
785.249	0.0165079
785.327	0.0167021
785.405	0.0165264
785.483	0.0164945
785.561	0.0166226
785.640	0.0167059
785.718	0.0164509
785.796	0.0166156
785.874	0.0165408
785.952	0.0165514
786.030	0.0166014
786.108	0.0166047
786.186	0.0166166
786.265	0.0167132
786.343	0.0166862
786.421	0.0166128
786.499	0.0166685
786.577	0.0166560
786.655	0.0165796
786.733	0.0165794
786.811	0.0166933
786.890	0.0165897
786.968	0.0166443
787.046	0.0168488
787.124	0.0167475
787.202	0.0167022
787.280	0.0167229
787.358	0.0168342
787.436	0.0168497
787.515	0.0168143
787.593	0.0167657
787.671	0.0168456
787.749	0.0168804
787.827	0.0168857
787.905	0.0168318
787.983	0.0168138
788.061	0.0167860
788.140	0.0169184
788.218	0.0168947
788.296	0.0168475
788.374	0.0168214
788.452	0.0169600
788.530	0.0170314
788.608	0.0169380
788.686	0.0169415
788.765	0.0169112
788.843	0.0168233
788.921	0.0170171
788.999	0.0170870
789.077	0.0169850
789.155	0.0169550
789.233	0.0169096
789.311	0.0170509
789.390	0.0170201
789.468	0.0167236
789.546	0.0168970
789.624	0.0167601
789.702	0.0168224
789.780	0.0167551
789.858	0.0169006
789.936	0.0167625
790.015	0.0168421
790.093	0.0169213
790.171	0.0168072
790.249	0.0167371
790.327	0.0168559
790.405	0.0168140
790.483	0.0168684
790.561	0.0168775
790.640	0.0166662
790.718	0.0167772
790.796	0.0167597
790.874	0.0167432
790.952	0.0167502
791.030	0.0168375
791.108	0.0168399
791.186	0.0168347
791.265	0.0171173
791.343	0.0169241
791.421	0.0168784
791.499	0.0169905
791.577	0.0168573
791.655	0.0169690
791.733	0.0169882
791.811	0.0168710
791.890	0.0167740
791.968	0.0168525
792.046	0.0168029
792.124	0.0168896
792.202	0.0168798
792.280	0.0167962
792.358	0.0167519
792.436	0.0168656
792.515	0.0168694
792.593	0.0167763
792.671	0.0166767
792.749	0.0168699
792.827	0.0169278
792.905	0.0168736
792.983	0.0167242
793.061	0.0168208
793.140	0.0169612
793.218	0.0169534
793.296	0.0168936
793.374	0.0169009
793.452	0.0167235
793.530	0.0167358
793.608	0.0168642
793.686	0.0168470
793.765	0.0168906
793.843	0.0168557
793.921	0.0167190
793.999	0.0167489
794.077	0.0166619
794.155	0.0167641
794.233	0.0168159
794.311	0.0167519
794.390	0.0168166
794.468	0.0166888
794.546	0.0166840
794.624	0.0166412
794.702	0.0168007
794.780	0.0168195
794.858	0.0167298
794.936	0.0167458
795.015	0.0166386
795.093	0.0166168
795.171	0.0167056
795.249	0.0165852
795.327	0.0166643
795.405	0.0166394
795.483	0.0164798
795.561	0.0166621
795.640	0.0167345
795.718	0.0165949
795.796	0.0166846
795.874	0.0168211
795.952	0.0166582
796.030	0.0167030
796.108	0.0165883
796.186	0.0165501
796.265	0.0166821
796.343	0.0166181
796.421	0.0165733
796.499	0.0167371
796.577	0.0164633
796.655	0.0165134
796.733	0.0166057
796.811	0.0166243
796.890	0.0167107
796.968	0.0165455
797.046	0.0165684
797.124	0.0166759
797.202	0.0166198
797.280	0.0165181
797.358	0.0166367
797.436	0.0166437
797.515	0.0167059
797.593	0.0166355
797.671	0.0164990
797.749	0.0166124
797.827	0.0165221
797.905	0.0166270
797.983	0.0167338
798.061	0.0168536
798.140	0.0167359
798.218	0.0166650
798.296	0.0166834
798.374	0.0166357
798.452	0.0167493
798.530	0.0167357
798.608	0.0166997
798.686	0.0166590
798.765	0.0167870
798.843	0.0167943
798.921	0.0168326
798.999	0.0168375
799.077	0.0167461
799.155	0.0166734
799.233	0.0167699
799.311	0.0166151
799.390	0.0166672
799.468	0.0167559
799.546	0.0167062
799.624	0.0166789
799.702	0.0166237
799.780	0.0167175
799.858	0.0165590
799.936	0.0167421
800.015	0.0166534
800.093	0.0167266
800.171	0.0166761
800.249	0.0166515
800.327	0.0166873
800.405	0.0167633
800.483	0.0167099
800.561	0.0166475
800.640	0.0165481
800.718	0.0168385
800.796	0.0166122
800.874	0.0165643
800.952	0.0167148
801.030	0.0167355
801.108	0.0166650
801.186	0.0165398
801.265	0.0165475
801.343	0.0164725
801.421	0.0165614
801.499	0.0166116
801.577	0.0165369
801.655	0.0164709
801.733	0.0165365
801.811	0.0164492
801.890	0.0165491
801.968	0.0164882
802.046	0.0164003
802.124	0.0164250
802.202	0.0164268
802.280	0.0163705
802.358	0.0165778
802.436	0.0165379
802.515	0.0164751
802.593	0.0163963
802.671	0.0163882
802.749	0.0164640
802.827	0.0166066
802.905	0.0165933
802.983	0.0165041
803.061	0.0165718
803.140	0.0165901
803.218	0.0165535
803.296	0.0167097
803.374	0.0167031
803.452	0.0166190
803.530	0.0167317
803.608	0.0166879
803.686	0.0166684
803.765	0.0166303
803.843	0.0166336
803.921	0.0166400
803.999	0.0167609
804.077	0.0166957
804.155	0.0166575
804.233	0.0167543
804.311	0.0166002
804.390	0.0167308
804.468	0.0167495
804.546	0.0167308
804.624	0.0166761
804.702	0.0167289
804.780	0.0167482
804.858	0.0167089
804.936	0.0168224
805.015	0.0167062
805.093	0.0166076
805.171	0.0166982
805.249	0.0167181
805.327	0.0166615
805.405	0.0167217
805.483	0.0167502
805.561	0.0167729
805.640	0.0166537
805.718	0.0167394
805.796	0.0167765
805.874	0.0168226
805.952	0.0166597
806.030	0.0167860
806.108	0.0166729
806.186	0.0167696
806.265	0.0167522
806.343	0.0167034
806.421	0.0168600
806.499	0.0167597
806.577	0.0167535
806.655	0.0168821
806.733	0.0166628
806.811	0.0168568
806.890	0.0168357
806.968	0.0167563
807.046	0.0167715
807.124	0.0167659
807.202	0.0167851
807.280	0.0167604
807.358	0.0168362
807.436	0.0168617
807.515	0.0167416
807.593	0.0167619
807.671	0.0169237
807.749	0.0167583
807.827	0.0166908
807.905	0.0168990
807.983	0.0167401
808.061	0.0166979
808.140	0.0167933
808.218	0.0167197
808.296	0.0167789
808.374	0.0167358
808.452	0.0167278
808.530	0.0167483
808.608	0.0167277
808.686	0.0167973
808.765	0.0167895
808.843	0.0167005
808.921	0.0166920
808.999	0.0165586
809.077	0.0167893
809.155	0.0167693
809.233	0.0167612
809.311	0.0168143
809.390	0.0166094
809.468	0.0167986
809.546	0.0167803
809.624	0.0166734
809.702	0.0167983
809.780	0.0166240
809.858	0.0167538
809.936	0.0166895
810.015	0.0165992
810.093	0.0166714
810.171	0.0166288
810.249	0.0166458
810.327	0.0165154
810.405	0.0167031
810.483	0.0167635
810.561	0.0165643
810.640	0.0167263
810.718	0.0166524
810.796	0.0166249
810.874	0.0165691
810.952	0.0166393
811.030	0.0165477
811.108	0.0167386
811.186	0.0167399
811.265	0.0166823
811.343	0.0168296
811.421	0.0167180
811.499	0.0167281
811.577	0.0167043
811.655	0.0166996
811.733	0.0166785
811.811	0.0167092
811.890	0.0169009
811.968	0.0168050
812.046	0.0167726
812.124	0.0169646
812.202	0.0168407
812.280	0.0168438
812.358	0.0169781
812.436	0.0168034
812.515	0.0169492
812.593	0.0167888
812.671	0.0168894
812.749	0.0169455
812.827	0.0169572
812.905	0.0168237
812.983	0.0169350
813.061	0.0168546
813.140	0.0168970
813.218	0.0168876
813.296	0.0167487
813.374	0.0168980
813.452	0.0169373
813.530	0.0169561
813.608	0.0168956
813.686	0.0168107
813.765	0.0169411
813.843	0.0169183
813.921	0.0169152
813.999	0.0169009
814.077	0.0169876
814.155	0.0168884
814.233	0.0168539
814.311	0.0167952
814.390	0.0168325
814.468	0.0170007
814.546	0.0168466
814.624	0.0169096
814.702	0.0168837
814.780	0.0167579
814.858	0.0167970
814.936	0.0167094
815.015	0.0166879
815.093	0.0167288
815.171	0.0166243
815.249	0.0165374
815.327	0.0166488
815.405	0.0164665
815.483	0.0166125
815.561	0.0166596
815.640	0.0164263
815.718	0.0164958
815.796	0.0164909
815.874	0.0164095
815.952	0.0166396
816.030	0.0164542
816.108	0.0165044
816.186	0.0165281
816.265	0.0166353
816.343	0.0166306
816.421	0.0165923
816.499	0.0164925
816.577	0.0165866
816.655	0.0166266
816.733	0.0167238
816.811	0.0166300
816.890	0.0166805
816.968	0.0166950
817.046	0.0167707
817.124	0.0166394
817.202	0.0168407
817.280	0.0166818
817.358	0.0166822
817.436	0.0169041
817.515	0.0167527
817.593	0.0166847
817.671	0.0168771
817.749	0.0167871
817.827	0.0168299
817.905	0.0167050
817.983	0.0167287
818.061	0.0166597
818.140	0.0165214
818.218	0.0166470
818.296	0.0166482
818.374	0.0167195
818.452	0.0166660
818.530	0.0166628
818.608	0.0167175
818.686	0.0166433
818.765	0.0167299
818.843	0.0166901
818.921	0.0167545
818.999	0.0167823
819.077	0.0167797
819.155	0.0168861
819.233	0.0168298
819.311	0.0167761
819.390	0.0166792
819.468	0.0168812
819.546	0.0168762
819.624	0.0168353
819.702	0.0167237
819.780	0.0166802
819.858	0.0167545
819.936	0.0168080
820.015	0.0166698
820.093	0.0167595
820.171	0.0167059
820.249	0.0165568
820.327	0.0166856
820.405	0.0165918
820.483	0.0166038
820.561	0.0167332
820.640	0.0166730
820.718	0.0165175
820.796	0.0167365
820.874	0.0168030
820.952	0.0167326
821.030	0.0167751
821.108	0.0166096
821.186	0.0167790
821.265	0.0167565
821.343	0.0166827
821.421	0.0166750
821.499	0.0167551
821.577	0.0167365
821.655	0.0167240
821.733	0.0167025
821.811	0.0169074
821.890	0.0168835
821.968	0.0169318
822.046	0.0167588
822.124	0.0167085
822.202	0.0166924
822.280	0.0168187
822.358	0.0168188
822.436	0.0168011
822.515	0.0167439
822.593	0.0167279
822.671	0.0166599
822.749	0.0167088
822.827	0.0166432
822.905	0.0167678
822.983	0.0165891
823.061	0.0164646
823.140	0.0167425
823.218	0.0166814
823.296	0.0166006
823.374	0.0167773
823.452	0.0166212
823.530	0.0166852
823.608	0.0166960
823.686	0.0165736
823.765	0.0165600
823.843	0.0166789
823.921	0.0166693
823.999	0.0166386
824.077	0.0166196
824.155	0.0167388
824.233	0.0167274
824.311	0.0166613
824.390	0.0166754
824.468	0.0166653
824.546	0.0164971
824.624	0.0167577
824.702	0.0166732
824.780	0.0166322
824.858	0.0166128
824.936	0.0165779
825.015	0.0167252
825.093	0.0168167
825.171	0.0166785
825.249	0.0166731
825.327	0.0169880
825.405	0.0168182
825.483	0.0169524
825.561	0.0169379
825.640	0.0168369
825.718	0.0168613
825.796	0.0168678
825.874	0.0169500
825.952	0.0169012
826.030	0.0168816
826.108	0.0168353
826.186	0.0169498
826.265	0.0167050
826.343	0.0168746
826.421	0.0168752
826.499	0.0168568
826.577	0.0167160
826.655	0.0166571
826.733	0.0167804
826.811	0.0167828
826.890	0.0167243
826.968	0.0166252
827.046	0.0167799
827.124	0.0166982
827.202	0.0166989
827.280	0.0166653
827.358	0.0168116
827.436	0.0168867
827.515	0.0167242
827.593	0.0165755
827.671	0.0167487
827.749	0.0166209
827.827	0.0166206
827.905	0.0166988
827.983	0.0165970
828.061	0.0166788
828.140	0.0165401
828.218	0.0165947
828.296	0.0165313
828.374	0.0166408
828.452	0.0165729
828.530	0.0165464
828.608	0.0167651
828.686	0.0165879
828.765	0.0166113
828.843	0.0167101
828.921	0.0167009
828.999	0.0167871
829.077	0.0165953
829.155	0.0167062
829.233	0.0168703
829.311	0.0167366
829.390	0.0166818
829.468	0.0167598
829.546	0.0166679
829.624	0.0167799
829.702	0.0167440
829.780	0.0167496
829.858	0.0168423
829.936	0.0168240
830.015	0.0167253
830.093	0.0165895
830.171	0.0167359
830.249	0.0167622
830.327	0.0166974
830.405	0.0165972
830.483	0.0166489
830.561	0.0166648
830.640	0.0166423
830.718	0.0165947
830.796	0.0166797
830.874	0.0166363
830.952	0.0165987
831.030	0.0165946
831.108	0.0165688
831.186	0.0166101
831.265	0.0165708
831.343	0.0166092
831.421	0.0166954
831.499	0.0165996
831.577	0.0165968
831.655	0.0167309
831.733	0.0166732
831.811	0.0166633
831.890	0.0166933
831.968	0.0165458
832.046	0.0166044
832.124	0.0167924
832.202	0.0168272
832.280	0.0167627
832.358	0.0167815
832.436	0.0167446
832.515	0.0166681
832.593	0.0166425
832.671	0.0168123
832.749	0.0169579
832.827	0.0167779
832.905	0.0167946
832.983	0.0167791
833.061	0.0169073
833.140	0.0169225
833.218	0.0168324
833.296	0.0166736
833.374	0.0168216
833.452	0.0167122
833.530	0.0167248
833.608	0.0167313
833.686	0.0168379
833.765	0.0167878
833.843	0.0168388
833.921	0.0169236
833.999	0.0167523
834.077	0.0167710
834.155	0.0167458
834.233	0.0166682
834.311	0.0167107
834.390	0.0168391
834.468	0.0167744
834.546	0.0167274
834.624	0.0168121
834.702	0.0168269
834.780	0.0167245
834.858	0.0167476
834.936	0.0167289
835.015	0.0167597
835.093	0.0168002
835.171	0.0166301
835.249	0.0166698
835.327	0.0167017
835.405	0.0167318
835.483	0.0167014
835.561	0.0166267
835.640	0.0167089
835.718	0.0165177
835.796	0.0165860
835.874	0.0166785
835.952	0.0167017
836.030	0.0166392
836.108	0.0166756
836.186	0.0167181
836.265	0.0166917
836.343	0.0167965
836.421	0.0169874
836.499	0.0168343
836.577	0.0168035
836.655	0.0167944
836.733	0.0168664
836.811	0.0167739
836.890	0.0168976
836.968	0.0167538
837.046	0.0169095
837.124	0.0169395
837.202	0.0167568
837.280	0.0167975
837.358	0.0169606
837.436	0.0168387
837.515	0.0166762
837.593	0.0168087
837.671	0.0169365
837.749	0.0168339
837.827	0.0167933
837.905	0.0167169
837.983	0.0168079
838.061	0.0167784
838.140	0.0167761
838.218	0.0167400
838.296	0.0167001
838.374	0.0166261
838.452	0.0166341
838.530	0.0166926
838.608	0.0165623
838.686	0.0165606
838.765	0.0166330
838.843	0.0165396
838.921	0.0164552
838.999	0.0164949
839.077	0.0165794
839.155	0.0165620
839.233	0.0166120
839.311	0.0165811
839.390	0.0165498
839.468	0.0166824
839.546	0.0167349
839.624	0.0166438
839.702	0.0165940
839.780	0.0165601
839.858	0.0166729
839.936	0.0168089
840.015	0.0166194
840.093	0.0167196
840.171	0.0167878
840.249	0.0166724
840.327	0.0167159
840.405	0.0167683
840.483	0.0168095
840.561	0.0166516
840.640	0.0167941
840.718	0.0169283
840.796	0.0166727
840.874	0.0166457
840.952	0.0166953
841.030	0.0165816
841.108	0.0165825
841.186	0.0165568
841.265	0.0166346
841.343	0.0167044
841.421	0.0165241
841.499	0.0166534
841.577	0.0166405
841.655	0.0165479
841.733	0.0165997
841.811	0.0166406
841.890	0.0167125
841.968	0.0167051
842.046	0.0166123
842.124	0.0167188
842.202	0.0167854
842.280	0.0167568
842.358	0.0167754
842.436	0.0166394
842.515	0.0166299
842.593	0.0166092
842.671	0.0167609
842.749	0.0168306
842.827	0.0167634
842.905	0.0167567
842.983	0.0167771
843.061	0.0167837
843.140	0.0168153
843.218	0.0168224
843.296	0.0169283
843.374	0.0168962
843.452	0.0167433
843.530	0.0167292
843.608	0.0167882
843.686	0.0168430
843.765	0.0168163
843.843	0.0168130
843.921	0.0168599
843.999	0.0168439
844.077	0.0168386
844.155	0.0168134
844.233	0.0167574
844.311	0.0167760
844.390	0.0167258
844.468	0.0167510
844.546	0.0167617
844.624	0.0167912
844.702	0.0167982
844.780	0.0167053
844.858	0.0167826
844.936	0.0166765
845.015	0.0166525
845.093	0.0168482
845.171	0.0167709
845.249	0.0166033
845.327	0.0166140
845.405	0.0166977
845.483	0.0167513
845.561	0.0166678
845.640	0.0167354
845.718	0.0167001
845.796	0.0166897
845.874	0.0167093
845.952	0.0167195
846.030	0.0166434
846.108	0.0166169
846.186	0.0166746
846.265	0.0166853
846.343	0.0165368
846.421	0.0165843
846.499	0.0164970
846.577	0.0165916
846.655	0.0166486
846.733	0.0165569
846.811	0.0164269
846.890	0.0164136
846.968	0.0165304
847.046	0.0166078
847.124	0.0163746
847.202	0.0165369
847.280	0.0165857
847.358	0.0165484
847.436	0.0166184
847.515	0.0166588
847.593	0.0166782
847.671	0.0167016
847.749	0.0166566
847.827	0.0167203
847.905	0.0167442
847.983	0.0167882
848.061	0.0169025
848.140	0.0168472
848.218	0.0169270
848.296	0.0168710
848.374	0.0168484
848.452	0.0168320
848.530	0.0168148
848.608	0.0167507
848.686	0.0168581
848.765	0.0167921
848.843	0.0168167
848.921	0.0167257
848.999	0.0166985
849.077	0.0167451
849.155	0.0168298
849.233	0.0166571
849.311	0.0167927
849.390	0.0168526
849.468	0.0168535
849.546	0.0168489
849.624	0.0167203
849.702	0.0168484
849.780	0.0166610
849.858	0.0167264
849.936	0.0168786
850.015	0.0167281
850.093	0.0167326
850.171	0.0167176
850.249	0.0167995
850.327	0.0166383
850.405	0.0168826
850.483	0.0166500
850.561	0.0165755
850.640	0.0167584
850.718	0.0168262
850.796	0.0168841
850.874	0.0167835
850.952	0.0167896
851.030	0.0168781
851.108	0.0168159
851.186	0.0167926
851.265	0.0169252
851.343	0.0167478
851.421	0.0167765
851.499	0.0169041
851.577	0.0169556
851.655	0.0169130
851.733	0.0167390
851.811	0.0168069
851.890	0.0169151
851.968	0.0168190
852.046	0.0167510
852.124	0.0166299
852.202	0.0167722
852.280	0.0167226
852.358	0.0166619
852.436	0.0166932
852.515	0.0167659
852.593	0.0168848
852.671	0.0167683
852.749	0.0166560
852.827	0.0167195
852.905	0.0166669
852.983	0.0168850
853.061	0.0168340
853.140	0.0167873
853.218	0.0165978
853.296	0.0167528
853.374	0.0167573
853.452	0.0168743
853.530	0.0167267
853.608	0.0167371
853.686	0.0168793
853.765	0.0168800
853.843	0.0168510
853.921	0.0168016
853.999	0.0166135
854.077	0.0167464
854.155	0.0167086
854.233	0.0166782
854.311	0.0167965
854.390	0.0168309
854.468	0.0166808
854.546	0.0167028
854.624	0.0167611
854.702	0.0167348
854.780	0.0167564
854.858	0.0165709
854.936	0.0167756
855.015	0.0168214
855.093	0.0167538
855.171	0.0168920
855.249	0.0167496
855.327	0.0166387
855.405	0.0166394
855.483	0.0167130
855.561	0.0166782
855.640	0.0166927
855.718	0.0168151
855.796	0.0167612
855.874	0.0166942
855.952	0.0168992
856.030	0.0168647
856.108	0.0168797
856.186	0.0169736
856.265	0.0168575
856.343	0.0168559
856.421	0.0169130
856.499	0.0169352
856.577	0.0168587
856.655	0.0169030
856.733	0.0169704
856.811	0.0169453
856.890	0.0169458
856.968	0.0169285
857.046	0.0167062
857.124	0.0168684
857.202	0.0168903
857.280	0.0168276
857.358	0.0168880
857.436	0.0168251
857.515	0.0167393
857.593	0.0169679
857.671	0.0168594
857.749	0.0167941
857.827	0.0167869
857.905	0.0169259
857.983	0.0168864
858.061	0.0167985
858.140	0.0166885
858.218	0.0169117
858.296	0.0167179
858.374	0.0167813
858.452	0.0168394
858.530	0.0167992
858.608	0.0167439
858.686	0.0167371
858.765	0.0168237
858.843	0.0167894
858.921	0.0169164
858.999	0.0168219
859.077	0.0167111
859.155	0.0166976
859.233	0.0168694
859.311	0.0166631
859.390	0.0168694
859.468	0.0169171
859.546	0.0167072
859.624	0.0168288
859.702	0.0167971
859.780	0.0167401
859.858	0.0169020
859.936	0.0169479
860.015	0.0167522
860.093	0.0168510
860.171	0.0168237
860.249	0.0168877
860.327	0.0168420
860.405	0.0169438
860.483	0.0168385
860.561	0.0169890
860.640	0.0168127
860.718	0.0168694
860.796	0.0167923
860.874	0.0168626
860.952	0.0168525
861.030	0.0168985
861.108	0.0167838
861.186	0.0168414
861.265	0.0167949
861.343	0.0168594
861.421	0.0169608
861.499	0.0168017
861.577	0.0168464
861.655	0.0167142
861.733	0.0166420
861.811	0.0168005
861.890	0.0167446
861.968	0.0168638
862.046	0.0168663
862.124	0.0168068
862.202	0.0167257
862.280	0.0165733
862.358	0.0167677
862.436	0.0168090
862.515	0.0167349
862.593	0.0166437
862.671	0.0167253
862.749	0.0168080
862.827	0.0166814
862.905	0.0167221
862.983	0.0166917
863.061	0.0168039
863.140	0.0167394
863.218	0.0166816
863.296	0.0166718
863.374	0.0167194
863.452	0.0168064
863.530	0.0167918
863.608	0.0166502
863.686	0.0168077
863.765	0.0166422
863.843	0.0167953
863.921	0.0166871
863.999	0.0166427
864.077	0.0166905
864.155	0.0168230
864.233	0.0168796
864.311	0.0167711
864.390	0.0168111
864.468	0.0167432
864.546	0.0167774
864.624	0.0167524
864.702	0.0166415
864.780	0.0167527
864.858	0.0169501
864.936	0.0168665
865.015	0.0167881
865.093	0.0167032
865.171	0.0167674
865.249	0.0168128
865.327	0.0168287
865.405	0.0167595
865.483	0.0167284
865.561	0.0167934
865.640	0.0167989
865.718	0.0168047
865.796	0.0168256
865.874	0.0168828
865.952	0.0168288
866.030	0.0168256
866.108	0.0168386
866.186	0.0167683
866.265	0.0169064
866.343	0.0169256
866.421	0.0166812
866.499	0.0165895
866.577	0.0166539
866.655	0.0168313
866.733	0.0167181
866.811	0.0168240
866.890	0.0167043
866.968	0.0166007
867.046	0.0167619
867.124	0.0167268
867.202	0.0166939
867.280	0.0166705
867.358	0.0167030
867.436	0.0166718
867.515	0.0165931
867.593	0.0165834
867.671	0.0165894
867.749	0.0166708
867.827	0.0166328
867.905	0.0165223
867.983	0.0164867
868.061	0.0165264
868.140	0.0166307
868.218	0.0165261
868.296	0.0166237
868.374	0.0164867
868.452	0.0165166
868.530	0.0165154
868.608	0.0165061
868.686	0.0166055
868.765	0.0164906
868.843	0.0164822
868.921	0.0165889
868.999	0.0165321
869.077	0.0164581
869.155	0.0163853
869.233	0.0165145
869.311	0.0166490
869.390	0.0165990
869.468	0.0164401
869.546	0.0165743
869.624	0.0166407
869.702	0.0166276
869.780	0.0164798
869.858	0.0166174
869.936	0.0165633
870.015	0.0165836
870.093	0.0166403
870.171	0.0168130
870.249	0.0166416
870.327	0.0166930
870.405	0.0168040
870.483	0.0166604
870.561	0.0166051
870.640	0.0166486
870.718	0.0168410
870.796	0.0167657
870.874	0.0167453
870.952	0.0167685
871.030	0.0168008
871.108	0.0167611
871.186	0.0166156
871.265	0.0167210
871.343	0.0165529
871.421	0.0166393
871.499	0.0165926
871.577	0.0164436
871.655	0.0165923
871.733	0.0166107
871.811	0.0165646
871.890	0.0166397
871.968	0.0166795
872.046	0.0165569
872.124	0.0167741
872.202	0.0166280
872.280	0.0165045
872.358	0.0167081
872.436	0.0167744
872.515	0.0167365
872.593	0.0166472
872.671	0.0167548
872.749	0.0167611
872.827	0.0166946
872.905	0.0168320
872.983	0.0168198
873.061	0.0168911
873.140	0.0167720
873.218	0.0168175
873.296	0.0167303
873.374	0.0169320
873.452	0.0168999
873.530	0.0168821
873.608	0.0169598
873.686	0.0169209
873.765	0.0168775
873.843	0.0168462
873.921	0.0168829
873.999	0.0168068
874.077	0.0168159
874.155	0.0169189
874.233	0.0169638
874.311	0.0166657
874.390	0.0168657
874.468	0.0167792
874.546	0.0168033
874.624	0.0167827
874.702	0.0167971
874.780	0.0168446
874.858	0.0167890
874.936	0.0168177
875.015	0.0168859
875.093	0.0166856
875.171	0.0167505
875.249	0.0167852
875.327	0.0166985
875.405	0.0166561
875.483	0.0168032
875.561	0.0166617
875.640	0.0167118
875.718	0.0167093
875.796	0.0168535
875.874	0.0166357
875.952	0.0166637
876.030	0.0166405
876.108	0.0167171
876.186	0.0167329
876.265	0.0167561
876.343	0.0167709
876.421	0.0166246
876.499	0.0166689
876.577	0.0167532
876.655	0.0167326
876.733	0.0168733
876.811	0.0169425
876.890	0.0168260
876.968	0.0168255
877.046	0.0167757
877.124	0.0168458
877.202	0.0168986
877.280	0.0168861
877.358	0.0168355
877.436	0.0167896
877.515	0.0169103
877.593	0.0168716
877.671	0.0168735
877.749	0.0168407
877.827	0.0168039
877.905	0.0168250
877.983	0.0168259
878.061	0.0167360
878.140	0.0166428
878.218	0.0168284
878.296	0.0167397
878.374	0.0167493
878.452	0.0166787
878.530	0.0167828
878.608	0.0167170
878.686	0.0165022
878.765	0.0166929
878.843	0.0168820
878.921	0.0166533
878.999	0.0166307
879.077	0.0166146
879.155	0.0166246
879.233	0.0167188
879.311	0.0166695
879.390	0.0166381
879.468	0.0166531
879.546	0.0167470
879.624	0.0167416
879.702	0.0166923
879.780	0.0167270
879.858	0.0167122
879.936	0.0167337
880.015	0.0166611
880.093	0.0167039
880.171	0.0166533
880.249	0.0167863
880.327	0.0168645
880.405	0.0167706
880.483	0.0167573
880.561	0.0166451
880.640	0.0166823
880.718	0.0167803
880.796	0.0167046
880.874	0.0168726
880.952	0.0166834
881.030	0.0167371
881.108	0.0167973
881.186	0.0167480
881.265	0.0166921
881.343	0.0166831
881.421	0.0167266
881.499	0.0168542
881.577	0.0168938
881.655	0.0168143
881.733	0.0168240
881.811	0.0167387
881.890	0.0166571
881.968	0.0167847
882.046	0.0166130
882.124	0.0167303
882.202	0.0166280
882.280	0.0167133
882.358	0.0167796
882.436	0.0166203
882.515	0.0168007
882.593	0.0167223
882.671	0.0167742
882.749	0.0167851
882.827	0.0166481
882.905	0.0167789
882.983	0.0167113
883.061	0.0167690
883.140	0.0166851
883.218	0.0166682
883.296	0.0167458
883.374	0.0167110
883.452	0.0166789
883.530	0.0166658
883.608	0.0165714
883.686	0.0166118
883.765	0.0166225
883.843	0.0166125
883.921	0.0165077
883.999	0.0166101
884.077	0.0166389
884.155	0.0164807
884.233	0.0166192
884.311	0.0165526
884.390	0.0164120
884.468	0.0166024
884.546	0.0165258
884.624	0.0165994
884.702	0.0165450
884.780	0.0165907
884.858	0.0164450
884.936	0.0165150
885.015	0.0165113
885.093	0.0166058
885.171	0.0164130
885.249	0.0165353
885.327	0.0165598
885.405	0.0165955
885.483	0.0165562
885.561	0.0166557
885.640	0.0165460
885.718	0.0164635
885.796	0.0165395
885.874	0.0166172
885.952	0.0166921
886.030	0.0165141
886.108	0.0165334
886.186	0.0166045
886.265	0.0165578
886.343	0.0165073
886.421	0.0165864
886.499	0.0165707
886.577	0.0165337
886.655	0.0164078
886.733	0.0166248
886.811	0.0165606
886.890	0.0164502
886.968	0.0165792
887.046	0.0165768
887.124	0.0165861
887.202	0.0165840
887.280	0.0166748
887.358	0.0165274
887.436	0.0165931
887.515	0.0165820
887.593	0.0167805
887.671	0.0166111
887.749	0.0165336
887.827	0.0165788
887.905	0.0168309
887.983	0.0167443
888.061	0.0165747
888.140	0.0165583
888.218	0.0165939
888.296	0.0166489
888.374	0.0167339
888.452	0.0166604
888.530	0.0167138
888.608	0.0167159
888.686	0.0166133
888.765	0.0167156
888.843	0.0166760
888.921	0.0167172
888.999	0.0166511
889.077	0.0169011
889.155	0.0167672
889.233	0.0167841
889.311	0.0167635
889.390	0.0166576
889.468	0.0166331
889.546	0.0167519
889.624	0.0168555
889.702	0.0167749
889.780	0.0167218
889.858	0.0166850
889.936	0.0166869
890.015	0.0167636
890.093	0.0166469
890.171	0.0167722
890.249	0.0168233
890.327	0.0167480
890.405	0.0166981
890.483	0.0166319
890.561	0.0165878
890.640	0.0166149
890.718	0.0165777
890.796	0.0167152
890.874	0.0164417
890.952	0.0165104
891.030	0.0166058
891.108	0.0166489
891.186	0.0166488
891.265	0.0165739
891.343	0.0164005
891.421	0.0166418
891.499	0.0167318
891.577	0.0166483
891.655	0.0167030
891.733	0.0165576
891.811	0.0165645
891.890	0.0166334
891.968	0.0164744
892.046	0.0165679
892.124	0.0165253
892.202	0.0166219
892.280	0.0166090
892.358	0.0165658
892.436	0.0166119
892.515	0.0166499
892.593	0.0166171
892.671	0.0166669
892.749	0.0166307
892.827	0.0165920
892.905	0.0166151
892.983	0.0166072
893.061	0.0165357
893.140	0.0166708
893.218	0.0166383
893.296	0.0165891
893.374	0.0165214
893.452	0.0165884
893.530	0.0166354
893.608	0.0166149
893.686	0.0167067
893.765	0.0166788
893.843	0.0167181
893.921	0.0167101
893.999	0.0166322
894.077	0.0167875
894.155	0.0166446
894.233	0.0167236
894.311	0.0168030
894.390	0.0167270
894.468	0.0167633
894.546	0.0167072
894.624	0.0166495
894.702	0.0168608
894.780	0.0168700
894.858	0.0168259
894.936	0.0168207
895.015	0.0167984
895.093	0.0168097
895.171	0.0168665
895.249	0.0168574
895.327	0.0167950
895.405	0.0167709
895.483	0.0168995
895.561	0.0168557
895.640	0.0168326
895.718	0.0167402
895.796	0.0167905
895.874	0.0167428
895.952	0.0168042
896.030	0.0169373
896.108	0.0169054
896.186	0.0167746
896.265	0.0167683
896.343	0.0168038
896.421	0.0166747
896.499	0.0167153
896.577	0.0167979
896.655	0.0169833
896.733	0.0166884
896.811	0.0168411
896.890	0.0167860
896.968	0.0167421
897.046	0.0167570
897.124	0.0167770
897.202	0.0167896
897.280	0.0166422
897.358	0.0167980
897.436	0.0167669
897.515	0.0167559
897.593	0.0167149
897.671	0.0167496
897.749	0.0168247
897.827	0.0166518
897.905	0.0167608
897.983	0.0167171
898.061	0.0168423
898.140	0.0168382
898.218	0.0166251
898.296	0.0167894
898.374	0.0166483
898.452	0.0166685
898.530	0.0166941
898.608	0.0167278
898.686	0.0165509
898.765	0.0166209
898.843	0.0167503
898.921	0.0165600
898.999	0.0165131
899.077	0.0166773
899.155	0.0167025
899.233	0.0166066
899.311	0.0165393
899.390	0.0165121
899.468	0.0165600
899.546	0.0166981
899.624	0.0165966
899.702	0.0166939
899.780	0.0167863
899.858	0.0166402
899.936	0.0166695
