05/24/2022	20:54:17	Ver.	4.1	UNKNOWN
Optical Delay	580.014591	Delta X		0.078125	Sweeps	1	Scan Rate	0/0
Coordinates	Axis 1	NaN	Axis 2	NaN	Axis 3	NaN	Axis 4	NaN	Axis 5	NaN	Axis 6	0.000000
TX Power	0.000000	RX Power	0.000000

580.015	0.0166074
580.093	0.0166627
580.171	0.0165607
580.249	0.0166470
580.327	0.0167686
580.405	0.0165393
580.483	0.0166462
580.561	0.0167904
580.640	0.0167142
580.718	0.0167145
580.796	0.0166587
580.874	0.0169030
580.952	0.0167258
581.030	0.0168466
581.108	0.0167184
581.186	0.0168122
581.265	0.0167441
581.343	0.0167661
581.421	0.0166638
581.499	0.0166456
581.577	0.0166447
581.655	0.0168867
581.733	0.0168281
581.811	0.0166296
581.890	0.0166406
581.968	0.0166381
582.046	0.0167149
582.124	0.0168031
582.202	0.0166978
582.280	0.0166720
582.358	0.0166435
582.436	0.0166929
582.515	0.0167860
582.593	0.0167192
582.671	0.0167615
582.749	0.0167827
582.827	0.0167506
582.905	0.0168288
582.983	0.0167338
583.061	0.0167278
583.140	0.0168041
583.218	0.0166741
583.296	0.0166383
583.374	0.0167314
583.452	0.0167342
583.530	0.0168668
583.608	0.0167218
583.686	0.0167846
583.765	0.0167817
583.843	0.0167963
583.921	0.0168198
583.999	0.0168333
584.077	0.0167983
584.155	0.0168070
584.233	0.0167889
584.311	0.0167157
584.390	0.0167992
584.468	0.0168033
584.546	0.0166928
584.624	0.0167029
584.702	0.0168759
584.780	0.0168169
584.858	0.0167992
584.936	0.0168590
585.015	0.0167637
585.093	0.0167384
585.171	0.0166235
585.249	0.0166861
585.327	0.0166077
585.405	0.0166375
585.483	0.0167232
585.561	0.0167038
585.640	0.0166830
585.718	0.0166973
585.796	0.0167443
585.874	0.0167441
585.952	0.0166669
586.030	0.0167795
586.108	0.0166785
586.186	0.0166005
586.265	0.0166445
586.343	0.0166475
586.421	0.0167010
586.499	0.0166917
586.577	0.0167020
586.655	0.0167536
586.733	0.0165865
586.811	0.0165805
586.890	0.0167394
586.968	0.0168456
587.046	0.0166708
587.124	0.0166656
587.202	0.0166022
587.280	0.0166062
587.358	0.0165949
587.436	0.0165852
587.515	0.0166920
587.593	0.0165876
587.671	0.0167207
587.749	0.0167637
587.827	0.0167030
587.905	0.0167896
587.983	0.0168156
588.061	0.0168566
588.140	0.0167607
588.218	0.0167041
588.296	0.0167799
588.374	0.0167895
588.452	0.0168549
588.530	0.0167731
588.608	0.0168703
588.686	0.0168823
588.765	0.0167752
588.843	0.0166792
588.921	0.0168427
588.999	0.0165221
589.077	0.0166991
589.155	0.0166596
589.233	0.0166344
589.311	0.0168279
589.390	0.0166883
589.468	0.0165919
589.546	0.0166934
589.624	0.0166444
589.702	0.0165914
589.780	0.0165535
589.858	0.0165665
589.936	0.0165091
590.015	0.0165572
590.093	0.0166896
590.171	0.0166286
590.249	0.0166589
590.327	0.0166302
590.405	0.0167180
590.483	0.0168026
590.561	0.0167290
590.640	0.0168419
590.718	0.0167230
590.796	0.0166771
590.874	0.0166790
590.952	0.0168831
591.030	0.0167404
591.108	0.0166338
591.186	0.0167788
591.265	0.0168135
591.343	0.0166695
591.421	0.0167587
591.499	0.0167494
591.577	0.0167131
591.655	0.0167069
591.733	0.0165939
591.811	0.0165739
591.890	0.0165175
591.968	0.0166817
592.046	0.0167511
592.124	0.0166864
592.202	0.0165542
592.280	0.0166409
592.358	0.0166388
592.436	0.0166865
592.515	0.0166543
592.593	0.0167411
592.671	0.0169211
592.749	0.0167274
592.827	0.0167609
592.905	0.0167933
592.983	0.0167269
593.061	0.0169437
593.140	0.0167748
593.218	0.0168851
593.296	0.0168312
593.374	0.0167938
593.452	0.0168520
593.530	0.0168222
593.608	0.0168723
593.686	0.0168257
593.765	0.0167729
593.843	0.0166404
593.921	0.0166788
593.999	0.0165670
594.077	0.0167106
594.155	0.0166024
594.233	0.0165067
594.311	0.0165945
594.390	0.0166316
594.468	0.0165704
594.546	0.0165176
594.624	0.0166895
594.702	0.0167327
594.780	0.0166148
594.858	0.0165945
594.936	0.0166486
595.015	0.0167336
595.093	0.0166552
595.171	0.0166618
595.249	0.0167618
595.327	0.0165858
595.405	0.0165959
595.483	0.0167389
595.561	0.0166116
595.640	0.0166487
595.718	0.0167059
595.796	0.0166747
595.874	0.0166359
595.952	0.0166389
596.030	0.0165742
596.108	0.0166294
596.186	0.0164430
596.265	0.0164828
596.343	0.0165713
596.421	0.0165182
596.499	0.0165366
596.577	0.0164686
596.655	0.0165365
596.733	0.0164721
596.811	0.0164744
596.890	0.0164302
596.968	0.0164928
597.046	0.0165405
597.124	0.0164167
597.202	0.0165697
597.280	0.0164745
597.358	0.0165873
597.436	0.0166348
597.515	0.0167132
597.593	0.0166039
597.671	0.0165626
597.749	0.0168081
597.827	0.0168076
597.905	0.0167272
597.983	0.0166606
598.061	0.0167673
598.140	0.0165962
598.218	0.0166410
598.296	0.0165540
598.374	0.0167833
598.452	0.0167014
598.530	0.0165167
598.608	0.0165681
598.686	0.0166566
598.765	0.0166873
598.843	0.0166124
598.921	0.0165904
598.999	0.0165544
599.077	0.0165324
599.155	0.0166148
599.233	0.0166671
599.311	0.0166658
599.390	0.0166174
599.468	0.0164609
599.546	0.0165646
599.624	0.0165010
599.702	0.0165475
599.780	0.0165726
599.858	0.0166203
599.936	0.0165197
600.015	0.0166085
600.093	0.0167075
600.171	0.0167612
600.249	0.0167448
600.327	0.0167710
600.405	0.0167558
600.483	0.0168497
600.561	0.0168088
600.640	0.0169054
600.718	0.0168572
600.796	0.0167899
600.874	0.0168927
600.952	0.0169236
601.030	0.0167146
601.108	0.0167726
601.186	0.0168479
601.265	0.0166647
601.343	0.0167716
601.421	0.0167987
601.499	0.0168487
601.577	0.0167769
601.655	0.0168513
601.733	0.0166826
601.811	0.0166278
601.890	0.0166538
601.968	0.0166761
602.046	0.0164767
602.124	0.0165324
602.202	0.0166495
602.280	0.0166424
602.358	0.0167310
602.436	0.0166369
602.515	0.0166355
602.593	0.0168130
602.671	0.0167981
602.749	0.0167501
602.827	0.0167258
602.905	0.0167516
602.983	0.0169173
603.061	0.0169386
603.140	0.0168449
603.218	0.0168153
603.296	0.0168026
603.374	0.0167711
603.452	0.0166181
603.530	0.0166046
603.608	0.0166239
603.686	0.0165296
603.765	0.0165822
603.843	0.0164188
603.921	0.0164526
603.999	0.0164101
604.077	0.0163914
604.155	0.0164936
604.233	0.0163855
604.311	0.0163685
604.390	0.0164615
604.468	0.0164913
604.546	0.0165655
604.624	0.0165399
604.702	0.0169331
604.780	0.0167471
604.858	0.0168166
604.936	0.0170292
605.015	0.0169519
605.093	0.0169408
605.171	0.0169880
605.249	0.0171679
605.327	0.0171117
605.405	0.0171239
605.483	0.0169701
605.561	0.0168114
605.640	0.0168153
605.718	0.0166866
605.796	0.0166128
605.874	0.0165802
605.952	0.0164777
606.030	0.0165078
606.108	0.0161433
606.186	0.0160590
606.265	0.0161380
606.343	0.0160429
606.421	0.0160607
606.499	0.0161266
606.577	0.0162054
606.655	0.0161730
606.733	0.0162542
606.811	0.0163469
606.890	0.0164509
606.968	0.0166597
607.046	0.0167280
607.124	0.0168932
607.202	0.0171086
607.280	0.0170145
607.358	0.0170973
607.436	0.0172648
607.515	0.0173605
607.593	0.0174751
607.671	0.0173417
607.749	0.0172500
607.827	0.0173301
607.905	0.0173688
607.983	0.0172673
608.061	0.0172515
608.140	0.0171666
608.218	0.0169651
608.296	0.0168923
608.374	0.0168008
608.452	0.0166357
608.530	0.0164197
608.608	0.0161935
608.686	0.0162499
608.765	0.0160966
608.843	0.0160760
608.921	0.0157822
608.999	0.0155979
609.077	0.0157767
609.155	0.0156217
609.233	0.0155554
609.311	0.0154249
609.390	0.0157286
609.468	0.0156089
609.546	0.0156793
609.624	0.0156186
609.702	0.0157880
609.780	0.0160339
609.858	0.0161851
609.936	0.0162836
610.015	0.0164068
610.093	0.0166605
610.171	0.0168109
610.249	0.0170683
610.327	0.0173346
610.405	0.0174250
610.483	0.0177029
610.561	0.0178757
610.640	0.0178571
610.718	0.0179672
610.796	0.0181579
610.874	0.0180932
610.952	0.0182045
611.030	0.0180595
611.108	0.0180697
611.186	0.0179514
611.265	0.0177240
611.343	0.0177020
611.421	0.0173618
611.499	0.0170397
611.577	0.0168225
611.655	0.0166940
611.733	0.0164195
611.811	0.0160310
611.890	0.0158646
611.968	0.0157433
612.046	0.0155048
612.124	0.0153344
612.202	0.0151955
612.280	0.0151630
612.358	0.0150921
612.436	0.0151985
612.515	0.0151084
612.593	0.0151729
612.671	0.0155537
612.749	0.0154901
612.827	0.0156757
612.905	0.0157280
612.983	0.0159525
613.061	0.0160961
613.140	0.0164343
613.218	0.0165428
613.296	0.0165464
613.374	0.0167250
613.452	0.0168778
613.530	0.0171259
613.608	0.0171690
613.686	0.0173613
613.765	0.0174094
613.843	0.0173013
613.921	0.0174603
613.999	0.0174854
614.077	0.0172868
614.155	0.0172567
614.233	0.0172696
614.311	0.0171731
614.390	0.0171797
614.468	0.0169427
614.546	0.0167878
614.624	0.0168135
614.702	0.0168848
614.780	0.0167181
614.858	0.0164848
614.936	0.0166663
615.015	0.0165827
615.093	0.0164748
615.171	0.0165934
615.249	0.0165179
615.327	0.0164165
615.405	0.0165842
615.483	0.0166202
615.561	0.0166214
615.640	0.0169530
615.718	0.0170994
615.796	0.0169633
615.874	0.0170956
615.952	0.0172798
616.030	0.0173328
616.108	0.0171999
616.186	0.0172428
616.265	0.0173925
616.343	0.0172644
616.421	0.0172939
616.499	0.0171976
616.577	0.0171824
616.655	0.0171209
616.733	0.0167303
616.811	0.0167700
616.890	0.0165945
616.968	0.0163503
617.046	0.0162720
617.124	0.0161757
617.202	0.0160831
617.280	0.0158247
617.358	0.0156081
617.436	0.0157587
617.515	0.0154983
617.593	0.0154376
617.671	0.0153113
617.749	0.0153240
617.827	0.0152969
617.905	0.0155273
617.983	0.0155070
618.061	0.0155782
618.140	0.0157481
618.218	0.0158887
618.296	0.0160048
618.374	0.0162933
618.452	0.0165079
618.530	0.0167017
618.608	0.0167395
618.686	0.0169151
618.765	0.0171034
618.843	0.0171149
618.921	0.0174216
618.999	0.0173447
619.077	0.0173126
619.155	0.0173390
619.233	0.0174877
619.311	0.0173994
619.390	0.0175314
619.468	0.0174023
619.546	0.0174127
619.624	0.0171980
619.702	0.0174058
619.780	0.0173836
619.858	0.0174754
619.936	0.0174704
620.015	0.0174123
620.093	0.0175348
620.171	0.0174716
620.249	0.0175593
620.327	0.0174709
620.405	0.0174880
620.483	0.0173952
620.561	0.0173978
620.640	0.0173430
620.718	0.0172070
620.796	0.0171352
620.874	0.0168396
620.952	0.0168265
621.030	0.0165958
621.108	0.0164276
621.186	0.0161991
621.265	0.0160589
621.343	0.0158743
621.421	0.0156946
621.499	0.0154194
621.577	0.0152224
621.655	0.0152737
621.733	0.0150976
621.811	0.0150769
621.890	0.0149199
621.968	0.0149091
622.046	0.0150140
622.124	0.0150333
622.202	0.0151091
622.280	0.0152098
622.358	0.0153230
622.436	0.0152370
622.515	0.0155746
622.593	0.0157063
622.671	0.0157484
622.749	0.0158911
622.827	0.0160348
622.905	0.0162099
622.983	0.0163786
623.061	0.0165043
623.140	0.0166382
623.218	0.0168768
623.296	0.0169388
623.374	0.0168726
623.452	0.0170111
623.530	0.0171867
623.608	0.0172230
623.686	0.0172873
623.765	0.0173034
623.843	0.0174698
623.921	0.0174043
623.999	0.0176058
624.077	0.0176519
624.155	0.0175883
624.233	0.0176591
624.311	0.0174919
624.390	0.0176256
624.468	0.0176186
624.546	0.0175435
624.624	0.0175592
624.702	0.0176915
624.780	0.0175771
624.858	0.0174429
624.936	0.0174807
625.015	0.0175440
625.093	0.0174345
625.171	0.0176647
625.249	0.0177376
625.327	0.0176873
625.405	0.0177314
625.483	0.0175869
625.561	0.0177372
625.640	0.0175219
625.718	0.0174319
625.796	0.0173835
625.874	0.0174110
625.952	0.0170617
626.030	0.0169084
626.108	0.0169495
626.186	0.0166476
626.265	0.0163070
626.343	0.0158913
626.421	0.0158712
626.499	0.0154765
626.577	0.0152444
626.655	0.0149684
626.733	0.0149265
626.811	0.0146549
626.890	0.0144542
626.968	0.0145603
627.046	0.0144691
627.124	0.0142865
627.202	0.0144371
627.280	0.0142776
627.358	0.0143762
627.436	0.0145172
627.515	0.0146919
627.593	0.0149175
627.671	0.0150880
627.749	0.0152681
627.827	0.0155696
627.905	0.0158154
627.983	0.0161177
628.061	0.0163648
628.140	0.0165751
628.218	0.0167988
628.296	0.0171489
628.374	0.0173833
628.452	0.0175763
628.530	0.0179392
628.608	0.0180739
628.686	0.0182304
628.765	0.0184087
628.843	0.0185165
628.921	0.0186450
628.999	0.0186968
629.077	0.0187208
629.155	0.0186776
629.233	0.0184875
629.311	0.0185107
629.390	0.0182936
629.468	0.0182072
629.546	0.0181097
629.624	0.0178402
629.702	0.0175689
629.780	0.0174751
629.858	0.0171814
629.936	0.0169952
630.015	0.0168666
630.093	0.0166212
630.171	0.0164256
630.249	0.0164157
630.327	0.0164941
630.405	0.0162524
630.483	0.0160506
630.561	0.0159716
630.640	0.0159579
630.718	0.0159496
630.796	0.0159453
630.874	0.0157372
630.952	0.0156883
631.030	0.0156151
631.108	0.0156935
631.186	0.0156321
631.265	0.0155594
631.343	0.0156302
631.421	0.0157404
631.499	0.0157890
631.577	0.0157200
631.655	0.0157669
631.733	0.0159416
631.811	0.0158388
631.890	0.0159630
631.968	0.0159196
632.046	0.0159689
632.124	0.0160240
632.202	0.0159412
632.280	0.0160027
632.358	0.0161109
632.436	0.0161150
632.515	0.0160568
632.593	0.0160913
632.671	0.0160764
632.749	0.0162132
632.827	0.0162151
632.905	0.0162135
632.983	0.0163084
633.061	0.0162711
633.140	0.0163637
633.218	0.0165565
633.296	0.0166131
633.374	0.0166733
633.452	0.0167645
633.530	0.0167601
633.608	0.0168150
633.686	0.0171028
633.765	0.0170465
633.843	0.0171997
633.921	0.0171825
633.999	0.0173023
634.077	0.0172383
634.155	0.0173285
634.233	0.0170463
634.311	0.0170388
634.390	0.0169349
634.468	0.0168680
634.546	0.0167801
634.624	0.0167181
634.702	0.0164297
634.780	0.0164532
634.858	0.0163797
634.936	0.0162280
635.015	0.0160783
635.093	0.0161161
635.171	0.0160677
635.249	0.0159862
635.327	0.0159280
635.405	0.0160208
635.483	0.0160423
635.561	0.0160970
635.640	0.0161349
635.718	0.0164521
635.796	0.0163579
635.874	0.0164796
635.952	0.0166837
636.030	0.0168297
636.108	0.0168948
636.186	0.0171407
636.265	0.0174018
636.343	0.0175248
636.421	0.0175406
636.499	0.0177386
636.577	0.0178691
636.655	0.0179999
636.733	0.0177968
636.811	0.0179115
636.890	0.0178508
636.968	0.0176694
637.046	0.0176688
637.124	0.0175637
637.202	0.0174095
637.280	0.0172398
637.358	0.0169225
637.436	0.0168502
637.515	0.0166961
637.593	0.0165036
637.671	0.0163279
637.749	0.0161684
637.827	0.0159499
637.905	0.0158770
637.983	0.0157204
638.061	0.0157121
638.140	0.0155167
638.218	0.0153967
638.296	0.0152683
638.374	0.0151532
638.452	0.0152142
638.530	0.0151088
638.608	0.0151661
638.686	0.0151389
638.765	0.0152158
638.843	0.0152736
638.921	0.0153581
638.999	0.0154411
639.077	0.0156140
639.155	0.0157287
639.233	0.0158666
639.311	0.0160406
639.390	0.0160538
639.468	0.0163039
639.546	0.0164095
639.624	0.0164574
639.702	0.0167355
639.780	0.0166003
639.858	0.0165047
639.936	0.0166692
640.015	0.0167259
640.093	0.0168695
640.171	0.0169190
640.249	0.0168616
640.327	0.0170555
640.405	0.0171347
640.483	0.0172357
640.561	0.0172760
640.640	0.0176093
640.718	0.0175890
640.796	0.0178049
640.874	0.0180048
640.952	0.0180164
641.030	0.0180990
641.108	0.0182256
641.186	0.0182752
641.265	0.0181762
641.343	0.0181445
641.421	0.0180704
641.499	0.0180353
641.577	0.0178737
641.655	0.0178938
641.733	0.0175974
641.811	0.0174180
641.890	0.0170781
641.968	0.0169364
642.046	0.0166450
642.124	0.0161451
642.202	0.0161824
642.280	0.0159690
642.358	0.0157203
642.436	0.0154867
642.515	0.0153867
642.593	0.0153687
642.671	0.0153096
642.749	0.0153272
642.827	0.0152113
642.905	0.0153152
642.983	0.0153546
643.061	0.0154691
643.140	0.0156808
643.218	0.0156817
643.296	0.0160654
643.374	0.0160894
643.452	0.0162048
643.530	0.0163850
643.608	0.0165848
643.686	0.0167262
643.765	0.0167745
643.843	0.0169552
643.921	0.0170235
643.999	0.0170991
644.077	0.0171298
644.155	0.0174850
644.233	0.0174551
644.311	0.0173245
644.390	0.0175134
644.468	0.0176214
644.546	0.0177336
644.624	0.0177065
644.702	0.0175878
644.780	0.0175860
644.858	0.0176279
644.936	0.0175381
645.015	0.0173161
645.093	0.0171410
645.171	0.0169310
645.249	0.0168382
645.327	0.0165690
645.405	0.0163330
645.483	0.0160004
645.561	0.0156017
645.640	0.0154263
645.718	0.0150780
645.796	0.0147827
645.874	0.0147729
645.952	0.0145752
646.030	0.0144695
646.108	0.0144601
646.186	0.0145815
646.265	0.0147280
646.343	0.0146365
646.421	0.0150125
646.499	0.0153084
646.577	0.0153391
646.655	0.0156118
646.733	0.0160758
646.811	0.0164514
646.890	0.0166471
646.968	0.0167953
647.046	0.0170498
647.124	0.0173606
647.202	0.0176096
647.280	0.0178522
647.358	0.0180392
647.436	0.0181194
647.515	0.0184080
647.593	0.0185173
647.671	0.0186037
647.749	0.0186531
647.827	0.0187938
647.905	0.0188010
647.983	0.0187080
648.061	0.0185328
648.140	0.0185323
648.218	0.0184525
648.296	0.0182785
648.374	0.0182232
648.452	0.0179253
648.530	0.0178842
648.608	0.0178943
648.686	0.0176812
648.765	0.0176018
648.843	0.0173711
648.921	0.0173269
648.999	0.0171371
649.077	0.0171227
649.155	0.0167818
649.233	0.0168234
649.311	0.0166017
649.390	0.0164733
649.468	0.0164334
649.546	0.0161778
649.624	0.0160842
649.702	0.0159590
649.780	0.0159673
649.858	0.0157024
649.936	0.0155401
650.015	0.0155527
650.093	0.0153746
650.171	0.0152363
650.249	0.0153849
650.327	0.0152696
650.405	0.0151078
650.483	0.0149982
650.561	0.0151199
650.640	0.0152834
650.718	0.0151636
650.796	0.0152051
650.874	0.0152615
650.952	0.0154126
651.030	0.0153866
651.108	0.0154266
651.186	0.0155163
651.265	0.0155800
651.343	0.0158177
651.421	0.0158936
651.499	0.0158774
651.577	0.0161124
651.655	0.0162008
651.733	0.0164387
651.811	0.0164848
651.890	0.0169093
651.968	0.0170061
652.046	0.0172433
652.124	0.0173447
652.202	0.0176967
652.280	0.0179044
652.358	0.0179530
652.436	0.0182057
652.515	0.0182742
652.593	0.0181992
652.671	0.0183054
652.749	0.0182823
652.827	0.0184102
652.905	0.0184071
652.983	0.0182391
653.061	0.0182009
653.140	0.0181223
653.218	0.0179601
653.296	0.0178027
653.374	0.0177281
653.452	0.0176027
653.530	0.0173029
653.608	0.0172458
653.686	0.0170814
653.765	0.0169363
653.843	0.0167638
653.921	0.0166921
653.999	0.0167287
654.077	0.0163528
654.155	0.0163402
654.233	0.0161753
654.311	0.0160661
654.390	0.0159576
654.468	0.0159711
654.546	0.0160577
654.624	0.0159106
654.702	0.0159784
654.780	0.0161421
654.858	0.0162353
654.936	0.0163139
655.015	0.0162407
655.093	0.0162962
655.171	0.0166111
655.249	0.0166618
655.327	0.0166797
655.405	0.0167654
655.483	0.0168317
655.561	0.0170007
655.640	0.0169351
655.718	0.0169196
655.796	0.0168050
655.874	0.0168095
655.952	0.0167633
656.030	0.0168430
656.108	0.0166827
656.186	0.0165495
656.265	0.0164839
656.343	0.0163547
656.421	0.0161344
656.499	0.0161864
656.577	0.0160796
656.655	0.0158286
656.733	0.0156329
656.811	0.0155712
656.890	0.0155412
656.968	0.0155203
657.046	0.0153387
657.124	0.0153810
657.202	0.0154491
657.280	0.0152687
657.358	0.0153159
657.436	0.0153602
657.515	0.0153712
657.593	0.0154108
657.671	0.0155109
657.749	0.0158299
657.827	0.0160201
657.905	0.0163008
657.983	0.0165013
658.061	0.0166012
658.140	0.0167938
658.218	0.0169827
658.296	0.0171913
658.374	0.0173814
658.452	0.0174761
658.530	0.0176229
658.608	0.0176096
658.686	0.0176553
658.765	0.0178805
658.843	0.0178477
658.921	0.0176580
658.999	0.0175775
659.077	0.0175720
659.155	0.0174635
659.233	0.0172832
659.311	0.0171455
659.390	0.0171343
659.468	0.0168895
659.546	0.0168315
659.624	0.0168195
659.702	0.0167155
659.780	0.0166467
659.858	0.0166440
659.936	0.0166508
660.015	0.0166620
660.093	0.0165550
660.171	0.0165657
660.249	0.0166660
660.327	0.0164748
660.405	0.0166181
660.483	0.0166682
660.561	0.0165614
660.640	0.0166895
660.718	0.0166837
660.796	0.0166232
660.874	0.0166442
660.952	0.0166502
661.030	0.0166185
661.108	0.0165922
661.186	0.0167181
661.265	0.0166520
661.343	0.0166999
661.421	0.0165710
661.499	0.0165994
661.577	0.0165585
661.655	0.0165147
661.733	0.0165150
661.811	0.0165364
661.890	0.0165033
661.968	0.0165955
662.046	0.0164971
662.124	0.0163139
662.202	0.0164471
662.280	0.0163012
662.358	0.0162862
662.436	0.0163609
662.515	0.0162383
662.593	0.0162992
662.671	0.0161549
662.749	0.0162263
662.827	0.0163379
662.905	0.0162824
662.983	0.0160810
663.061	0.0162363
663.140	0.0162511
663.218	0.0161181
663.296	0.0161772
663.374	0.0162551
663.452	0.0162226
663.530	0.0164132
663.608	0.0164258
663.686	0.0165533
663.765	0.0165865
663.843	0.0164966
663.921	0.0167055
663.999	0.0167710
664.077	0.0168521
664.155	0.0169496
664.233	0.0170538
664.311	0.0170676
664.390	0.0171174
664.468	0.0170885
664.546	0.0173625
664.624	0.0171894
664.702	0.0173448
664.780	0.0173809
664.858	0.0174495
664.936	0.0173770
665.015	0.0172134
665.093	0.0173493
665.171	0.0174170
665.249	0.0173853
665.327	0.0172448
665.405	0.0172954
665.483	0.0173890
665.561	0.0173142
665.640	0.0171632
665.718	0.0171945
665.796	0.0171911
665.874	0.0172044
665.952	0.0169159
666.030	0.0169210
666.108	0.0170289
666.186	0.0168811
666.265	0.0167204
666.343	0.0166075
666.421	0.0166882
666.499	0.0166235
666.577	0.0163954
666.655	0.0163909
666.733	0.0163959
666.811	0.0162222
666.890	0.0162646
666.968	0.0162086
667.046	0.0162913
667.124	0.0163067
667.202	0.0163933
667.280	0.0162443
667.358	0.0163515
667.436	0.0163998
667.515	0.0165031
667.593	0.0164377
667.671	0.0163477
667.749	0.0165154
667.827	0.0164420
667.905	0.0165710
667.983	0.0164931
668.061	0.0166007
668.140	0.0165691
668.218	0.0166151
668.296	0.0166129
668.374	0.0166827
668.452	0.0166601
668.530	0.0167571
668.608	0.0167975
668.686	0.0169157
668.765	0.0168603
668.843	0.0169206
668.921	0.0168617
668.999	0.0168221
669.077	0.0168858
669.155	0.0171906
669.233	0.0171745
669.311	0.0170177
669.390	0.0170553
669.468	0.0169849
669.546	0.0168739
669.624	0.0168613
669.702	0.0167414
669.780	0.0167915
669.858	0.0166830
669.936	0.0168057
670.015	0.0166240
670.093	0.0166384
670.171	0.0165427
670.249	0.0165369
670.327	0.0165351
670.405	0.0166341
670.483	0.0165718
670.561	0.0166851
670.640	0.0165636
670.718	0.0165937
670.796	0.0166301
670.874	0.0167081
670.952	0.0167202
671.030	0.0166659
671.108	0.0167171
671.186	0.0169136
671.265	0.0168416
671.343	0.0168685
671.421	0.0168301
671.499	0.0169209
671.577	0.0169952
671.655	0.0170247
671.733	0.0169470
671.811	0.0169604
671.890	0.0170145
671.968	0.0170075
672.046	0.0169907
672.124	0.0170148
672.202	0.0169708
672.280	0.0168219
672.358	0.0168147
672.436	0.0168479
672.515	0.0168429
672.593	0.0167542
672.671	0.0166885
672.749	0.0167197
672.827	0.0167210
672.905	0.0165755
672.983	0.0165752
673.061	0.0166909
673.140	0.0166363
673.218	0.0166709
673.296	0.0167809
673.374	0.0168602
673.452	0.0167975
673.530	0.0168507
673.608	0.0167892
673.686	0.0169491
673.765	0.0168444
673.843	0.0168858
673.921	0.0167053
673.999	0.0165913
674.077	0.0166716
674.155	0.0167332
674.233	0.0165354
674.311	0.0164425
674.390	0.0164246
674.468	0.0163133
674.546	0.0163152
674.624	0.0161764
674.702	0.0162115
674.780	0.0160431
674.858	0.0160484
674.936	0.0159903
675.015	0.0160637
675.093	0.0160481
675.171	0.0161001
675.249	0.0160539
675.327	0.0162865
675.405	0.0162311
675.483	0.0161810
675.561	0.0162520
675.640	0.0165475
675.718	0.0166634
675.796	0.0166233
675.874	0.0166856
675.952	0.0168166
676.030	0.0168564
676.108	0.0167977
676.186	0.0167858
676.265	0.0169561
676.343	0.0169147
676.421	0.0169176
676.499	0.0167725
676.577	0.0167265
676.655	0.0166906
676.733	0.0166949
676.811	0.0167965
676.890	0.0168019
676.968	0.0169266
677.046	0.0168832
677.124	0.0168491
677.202	0.0167588
677.280	0.0168925
677.358	0.0168005
677.436	0.0167605
677.515	0.0168364
677.593	0.0169364
677.671	0.0168835
677.749	0.0168596
677.827	0.0169180
677.905	0.0168806
677.983	0.0168423
678.061	0.0169933
678.140	0.0168701
678.218	0.0168320
678.296	0.0167680
678.374	0.0166789
678.452	0.0167143
678.530	0.0165985
678.608	0.0166353
678.686	0.0165540
678.765	0.0164288
678.843	0.0165324
678.921	0.0164123
678.999	0.0165284
679.077	0.0165372
679.155	0.0163743
679.233	0.0164839
679.311	0.0163705
679.390	0.0163716
679.468	0.0163812
679.546	0.0165052
679.624	0.0164160
679.702	0.0164493
679.780	0.0163947
679.858	0.0164365
679.936	0.0164718
680.015	0.0163538
680.093	0.0163925
680.171	0.0163775
680.249	0.0162850
680.327	0.0165614
680.405	0.0166743
680.483	0.0166035
680.561	0.0166860
680.640	0.0166657
680.718	0.0167696
680.796	0.0167432
680.874	0.0168635
680.952	0.0170066
681.030	0.0168667
681.108	0.0169600
681.186	0.0171072
681.265	0.0170628
681.343	0.0169736
681.421	0.0169889
681.499	0.0169049
681.577	0.0167989
681.655	0.0169281
681.733	0.0168972
681.811	0.0166663
681.890	0.0166409
681.968	0.0167033
682.046	0.0166077
682.124	0.0164923
682.202	0.0164630
682.280	0.0166600
682.358	0.0164576
682.436	0.0163981
682.515	0.0164402
682.593	0.0163498
682.671	0.0164381
682.749	0.0165439
682.827	0.0163093
682.905	0.0163486
682.983	0.0164124
683.061	0.0164061
683.140	0.0164084
683.218	0.0165388
683.296	0.0163851
683.374	0.0163161
683.452	0.0163998
683.530	0.0165478
683.608	0.0165782
683.686	0.0166074
683.765	0.0164669
683.843	0.0163731
683.921	0.0164518
683.999	0.0167628
684.077	0.0166824
684.155	0.0164885
684.233	0.0165959
684.311	0.0167189
684.390	0.0168029
684.468	0.0165957
684.546	0.0167043
684.624	0.0166950
684.702	0.0167559
684.780	0.0167329
684.858	0.0167909
684.936	0.0168816
685.015	0.0167491
685.093	0.0167316
685.171	0.0168227
685.249	0.0167900
685.327	0.0167922
685.405	0.0167834
685.483	0.0166935
685.561	0.0167668
685.640	0.0167565
685.718	0.0168553
685.796	0.0168802
685.874	0.0167878
685.952	0.0168576
686.030	0.0168270
686.108	0.0168696
686.186	0.0168867
686.265	0.0168147
686.343	0.0167350
686.421	0.0168997
686.499	0.0168371
686.577	0.0168972
686.655	0.0168893
686.733	0.0167977
686.811	0.0168412
686.890	0.0168623
686.968	0.0166463
687.046	0.0165935
687.124	0.0167193
687.202	0.0168431
687.280	0.0166485
687.358	0.0167860
687.436	0.0167892
687.515	0.0168114
687.593	0.0166698
687.671	0.0168188
687.749	0.0167445
687.827	0.0167182
687.905	0.0167896
687.983	0.0167041
688.061	0.0165739
688.140	0.0165824
688.218	0.0165710
688.296	0.0166694
688.374	0.0164410
688.452	0.0166579
688.530	0.0166649
688.608	0.0166190
688.686	0.0166627
688.765	0.0167713
688.843	0.0167403
688.921	0.0167545
688.999	0.0168586
689.077	0.0167979
689.155	0.0167374
689.233	0.0169262
689.311	0.0169679
689.390	0.0170622
689.468	0.0167411
689.546	0.0169686
689.624	0.0170516
689.702	0.0169691
689.780	0.0169330
689.858	0.0168356
689.936	0.0166625
690.015	0.0166199
690.093	0.0165307
690.171	0.0165957
690.249	0.0165151
690.327	0.0163879
690.405	0.0163396
690.483	0.0163792
690.561	0.0161536
690.640	0.0163059
690.718	0.0161890
690.796	0.0161873
690.874	0.0162794
690.952	0.0160537
691.030	0.0162491
691.108	0.0164503
691.186	0.0163737
691.265	0.0164774
691.343	0.0165308
691.421	0.0166578
691.499	0.0165922
691.577	0.0166644
691.655	0.0167382
691.733	0.0169280
691.811	0.0168671
691.890	0.0169218
691.968	0.0168999
692.046	0.0168855
692.124	0.0167448
692.202	0.0170857
692.280	0.0169530
692.358	0.0169356
692.436	0.0169427
692.515	0.0168686
692.593	0.0171473
692.671	0.0170525
692.749	0.0169272
692.827	0.0169947
692.905	0.0168647
692.983	0.0169237
693.061	0.0169959
693.140	0.0169064
693.218	0.0168581
693.296	0.0167941
693.374	0.0167291
693.452	0.0166354
693.530	0.0166496
693.608	0.0166029
693.686	0.0166788
693.765	0.0165157
693.843	0.0163397
693.921	0.0163293
693.999	0.0162368
694.077	0.0162817
694.155	0.0163593
694.233	0.0163062
694.311	0.0163355
694.390	0.0163660
694.468	0.0164227
694.546	0.0163248
694.624	0.0163029
694.702	0.0163197
694.780	0.0163642
694.858	0.0163904
694.936	0.0162400
695.015	0.0163520
695.093	0.0164834
695.171	0.0163232
695.249	0.0163091
695.327	0.0164438
695.405	0.0164611
695.483	0.0165955
695.561	0.0164388
695.640	0.0165590
695.718	0.0165269
695.796	0.0165536
695.874	0.0166287
695.952	0.0165812
696.030	0.0165614
696.108	0.0166990
696.186	0.0165723
696.265	0.0166667
696.343	0.0166406
696.421	0.0165507
696.499	0.0166478
696.577	0.0165885
696.655	0.0166228
696.733	0.0164404
696.811	0.0164546
696.890	0.0165912
696.968	0.0165726
697.046	0.0165196
697.124	0.0165595
697.202	0.0167110
697.280	0.0165073
697.358	0.0164833
697.436	0.0165485
697.515	0.0165930
697.593	0.0164845
697.671	0.0165689
697.749	0.0165519
697.827	0.0164487
697.905	0.0164774
697.983	0.0165942
698.061	0.0166364
698.140	0.0166052
698.218	0.0165980
698.296	0.0165320
698.374	0.0166423
698.452	0.0167550
698.530	0.0165839
698.608	0.0166203
698.686	0.0165367
698.765	0.0166324
698.843	0.0166466
698.921	0.0165633
698.999	0.0166744
699.077	0.0167511
699.155	0.0166643
699.233	0.0165728
699.311	0.0166187
699.390	0.0166811
699.468	0.0165774
699.546	0.0166931
699.624	0.0166464
699.702	0.0168170
699.780	0.0167462
699.858	0.0166625
699.936	0.0167514
700.015	0.0168243
700.093	0.0168478
700.171	0.0169027
700.249	0.0167912
700.327	0.0167681
700.405	0.0168494
700.483	0.0168676
700.561	0.0168667
700.640	0.0166346
700.718	0.0166850
700.796	0.0167587
700.874	0.0167467
700.952	0.0167656
701.030	0.0167419
701.108	0.0166899
701.186	0.0166840
701.265	0.0166121
701.343	0.0165820
701.421	0.0165616
701.499	0.0164859
701.577	0.0164986
701.655	0.0165134
701.733	0.0163879
701.811	0.0166068
701.890	0.0164033
701.968	0.0164275
702.046	0.0163847
702.124	0.0163257
702.202	0.0163856
702.280	0.0165031
702.358	0.0165043
702.436	0.0163142
702.515	0.0163261
702.593	0.0164101
702.671	0.0164848
702.749	0.0163611
702.827	0.0164732
702.905	0.0165221
702.983	0.0165286
703.061	0.0165610
703.140	0.0167154
703.218	0.0165270
703.296	0.0166128
703.374	0.0167674
703.452	0.0167715
703.530	0.0168228
703.608	0.0167601
703.686	0.0168267
703.765	0.0167820
703.843	0.0168384
703.921	0.0169046
703.999	0.0168168
704.077	0.0167507
704.155	0.0167436
704.233	0.0168648
704.311	0.0169394
704.390	0.0168090
704.468	0.0167984
704.546	0.0166685
704.624	0.0167390
704.702	0.0166861
704.780	0.0166354
704.858	0.0165211
704.936	0.0166241
705.015	0.0164236
705.093	0.0163777
705.171	0.0165406
705.249	0.0165482
705.327	0.0163725
705.405	0.0163775
705.483	0.0163127
705.561	0.0164458
705.640	0.0163078
705.718	0.0164999
705.796	0.0165760
705.874	0.0164969
705.952	0.0165414
706.030	0.0166252
706.108	0.0164839
706.186	0.0164437
706.265	0.0166132
706.343	0.0167601
706.421	0.0167439
706.499	0.0167833
706.577	0.0167601
706.655	0.0167213
706.733	0.0166735
706.811	0.0166820
706.890	0.0167796
706.968	0.0167020
707.046	0.0166312
707.124	0.0166930
707.202	0.0164608
707.280	0.0165832
707.358	0.0166586
707.436	0.0164760
707.515	0.0165648
707.593	0.0167202
707.671	0.0165725
707.749	0.0165135
707.827	0.0165670
707.905	0.0165205
707.983	0.0166481
708.061	0.0166611
708.140	0.0165093
708.218	0.0165812
708.296	0.0165914
708.374	0.0166251
708.452	0.0166161
708.530	0.0165137
708.608	0.0165131
708.686	0.0163835
708.765	0.0164005
708.843	0.0165148
708.921	0.0165253
708.999	0.0165097
709.077	0.0164087
709.155	0.0164408
709.233	0.0164668
709.311	0.0164223
709.390	0.0163910
709.468	0.0162697
709.546	0.0164862
709.624	0.0165078
709.702	0.0164258
709.780	0.0165324
709.858	0.0165814
709.936	0.0166539
710.015	0.0166230
710.093	0.0165865
710.171	0.0166700
710.249	0.0168777
710.327	0.0166503
710.405	0.0168073
710.483	0.0168477
710.561	0.0166972
710.640	0.0167510
710.718	0.0168586
710.796	0.0169353
710.874	0.0167085
710.952	0.0167952
711.030	0.0169488
711.108	0.0169195
711.186	0.0169698
711.265	0.0168495
711.343	0.0169597
711.421	0.0170306
711.499	0.0170695
711.577	0.0169421
711.655	0.0170260
711.733	0.0169456
711.811	0.0169666
711.890	0.0169926
711.968	0.0169595
712.046	0.0167648
712.124	0.0170061
712.202	0.0168664
712.280	0.0169612
712.358	0.0168614
712.436	0.0167086
712.515	0.0166992
712.593	0.0165501
712.671	0.0167221
712.749	0.0165424
712.827	0.0164886
712.905	0.0164275
712.983	0.0163229
713.061	0.0163349
713.140	0.0162610
713.218	0.0161648
713.296	0.0162570
713.374	0.0161536
713.452	0.0161269
713.530	0.0162311
713.608	0.0162440
713.686	0.0162317
713.765	0.0161910
713.843	0.0162184
713.921	0.0162920
713.999	0.0163462
714.077	0.0162382
714.155	0.0162445
714.233	0.0164449
714.311	0.0164617
714.390	0.0163256
714.468	0.0164420
714.546	0.0164822
714.624	0.0164140
714.702	0.0162997
714.780	0.0164055
714.858	0.0165775
714.936	0.0165599
715.015	0.0164773
715.093	0.0165432
715.171	0.0165195
715.249	0.0165076
715.327	0.0166479
715.405	0.0164721
715.483	0.0164560
715.561	0.0166077
715.640	0.0166421
715.718	0.0165816
715.796	0.0164780
715.874	0.0166301
715.952	0.0164226
716.030	0.0166365
716.108	0.0164926
716.186	0.0164371
716.265	0.0167139
716.343	0.0165970
716.421	0.0166753
716.499	0.0166288
716.577	0.0166039
716.655	0.0167485
716.733	0.0167430
716.811	0.0168343
716.890	0.0167805
716.968	0.0167663
717.046	0.0167647
717.124	0.0168130
717.202	0.0168298
717.280	0.0169440
717.358	0.0167920
717.436	0.0168052
717.515	0.0168163
717.593	0.0165715
717.671	0.0165388
717.749	0.0166620
717.827	0.0165749
717.905	0.0163507
717.983	0.0164343
718.061	0.0163596
718.140	0.0163891
718.218	0.0163086
718.296	0.0163063
718.374	0.0163289
718.452	0.0162096
718.530	0.0162309
718.608	0.0162836
718.686	0.0162289
718.765	0.0162757
718.843	0.0161025
718.921	0.0161188
718.999	0.0163152
719.077	0.0162118
719.155	0.0164114
719.233	0.0162648
719.311	0.0164508
719.390	0.0163963
719.468	0.0165770
719.546	0.0166126
719.624	0.0166895
719.702	0.0166975
719.780	0.0166172
719.858	0.0166760
719.936	0.0167590
720.015	0.0168206
720.093	0.0167278
720.171	0.0167767
720.249	0.0167842
720.327	0.0167599
720.405	0.0168362
720.483	0.0168182
720.561	0.0168028
720.640	0.0167448
720.718	0.0168893
720.796	0.0167495
720.874	0.0166660
720.952	0.0167595
721.030	0.0167716
721.108	0.0168930
721.186	0.0167456
721.265	0.0168641
721.343	0.0169664
721.421	0.0166991
721.499	0.0168107
721.577	0.0169695
721.655	0.0169445
721.733	0.0169298
721.811	0.0169403
721.890	0.0168365
721.968	0.0168683
722.046	0.0167929
722.124	0.0170111
722.202	0.0169393
722.280	0.0168324
722.358	0.0169655
722.436	0.0168153
722.515	0.0167876
722.593	0.0168394
722.671	0.0168008
722.749	0.0166820
722.827	0.0168496
722.905	0.0168501
722.983	0.0167968
723.061	0.0167895
723.140	0.0166006
723.218	0.0167677
723.296	0.0166915
723.374	0.0166776
723.452	0.0167737
723.530	0.0167094
723.608	0.0165894
723.686	0.0165194
723.765	0.0165488
723.843	0.0165735
723.921	0.0164601
723.999	0.0163795
724.077	0.0163003
724.155	0.0163650
724.233	0.0164068
724.311	0.0164030
724.390	0.0164850
724.468	0.0164768
724.546	0.0164532
724.624	0.0165388
724.702	0.0164276
724.780	0.0164099
724.858	0.0165736
724.936	0.0164779
725.015	0.0165106
725.093	0.0164930
725.171	0.0165188
725.249	0.0165201
725.327	0.0166349
725.405	0.0166751
725.483	0.0166030
725.561	0.0166961
725.640	0.0165576
725.718	0.0167134
725.796	0.0165896
725.874	0.0164756
725.952	0.0166447
726.030	0.0165919
726.108	0.0167313
726.186	0.0167311
726.265	0.0166201
726.343	0.0166506
726.421	0.0165278
726.499	0.0166888
726.577	0.0166056
726.655	0.0166472
726.733	0.0167107
726.811	0.0168050
726.890	0.0167799
726.968	0.0167392
727.046	0.0166022
727.124	0.0166364
727.202	0.0166131
727.280	0.0166805
727.358	0.0166959
727.436	0.0166014
727.515	0.0166251
727.593	0.0167222
727.671	0.0165398
727.749	0.0165260
727.827	0.0166404
727.905	0.0166602
727.983	0.0164526
728.061	0.0166036
728.140	0.0166653
728.218	0.0166647
728.296	0.0166277
728.374	0.0165504
728.452	0.0165106
728.530	0.0167361
728.608	0.0167227
728.686	0.0165466
728.765	0.0166129
728.843	0.0167168
728.921	0.0166293
728.999	0.0165543
729.077	0.0167400
729.155	0.0165406
729.233	0.0165890
729.311	0.0167055
729.390	0.0165433
729.468	0.0166034
729.546	0.0165314
729.624	0.0166277
729.702	0.0165001
729.780	0.0164743
729.858	0.0164888
729.936	0.0165317
730.015	0.0165815
730.093	0.0164211
730.171	0.0163988
730.249	0.0164231
730.327	0.0163578
730.405	0.0163187
730.483	0.0162540
730.561	0.0163046
730.640	0.0163583
730.718	0.0164299
730.796	0.0162212
730.874	0.0161942
730.952	0.0162931
731.030	0.0163049
731.108	0.0163017
731.186	0.0161402
731.265	0.0162075
731.343	0.0163409
731.421	0.0163910
731.499	0.0162474
731.577	0.0163400
731.655	0.0164682
731.733	0.0164511
731.811	0.0165834
731.890	0.0166711
731.968	0.0165691
732.046	0.0165673
732.124	0.0166044
732.202	0.0167461
732.280	0.0167333
732.358	0.0168136
732.436	0.0168011
732.515	0.0168764
732.593	0.0169541
732.671	0.0167853
732.749	0.0167513
732.827	0.0167072
732.905	0.0167863
732.983	0.0168920
733.061	0.0168025
733.140	0.0168343
733.218	0.0167422
733.296	0.0166610
733.374	0.0166827
733.452	0.0167052
733.530	0.0165849
733.608	0.0167589
733.686	0.0166006
733.765	0.0165219
733.843	0.0165731
733.921	0.0165474
733.999	0.0164935
734.077	0.0165354
734.155	0.0165260
734.233	0.0164296
734.311	0.0165125
734.390	0.0165868
734.468	0.0167158
734.546	0.0164520
734.624	0.0165349
734.702	0.0166261
734.780	0.0165512
734.858	0.0166111
734.936	0.0166054
735.015	0.0165118
735.093	0.0165611
735.171	0.0166167
735.249	0.0165842
735.327	0.0166467
735.405	0.0166426
735.483	0.0166879
735.561	0.0167023
735.640	0.0166540
735.718	0.0164740
735.796	0.0165134
735.874	0.0166489
735.952	0.0166982
736.030	0.0164590
736.108	0.0165934
736.186	0.0165922
736.265	0.0166209
736.343	0.0165417
736.421	0.0166145
736.499	0.0167030
736.577	0.0166831
736.655	0.0166525
736.733	0.0167416
736.811	0.0166286
736.890	0.0166669
736.968	0.0168784
737.046	0.0168272
737.124	0.0168095
737.202	0.0167165
737.280	0.0168604
737.358	0.0169924
737.436	0.0168805
737.515	0.0169561
737.593	0.0169583
737.671	0.0168742
737.749	0.0168319
737.827	0.0169209
737.905	0.0169817
737.983	0.0168246
738.061	0.0168403
738.140	0.0168969
738.218	0.0165847
738.296	0.0166470
738.374	0.0165975
738.452	0.0166445
738.530	0.0165519
738.608	0.0164519
738.686	0.0164049
738.765	0.0164114
738.843	0.0163897
738.921	0.0163004
738.999	0.0162547
739.077	0.0162354
739.155	0.0161653
739.233	0.0161980
739.311	0.0161591
739.390	0.0161707
739.468	0.0163268
739.546	0.0161573
739.624	0.0161729
739.702	0.0163422
739.780	0.0161536
739.858	0.0162276
739.936	0.0163044
740.015	0.0162830
740.093	0.0162688
740.171	0.0163639
740.249	0.0163554
740.327	0.0163470
740.405	0.0164700
740.483	0.0164590
740.561	0.0164752
740.640	0.0166877
740.718	0.0165286
740.796	0.0165823
740.874	0.0165940
740.952	0.0165040
741.030	0.0165442
741.108	0.0165923
741.186	0.0165310
741.265	0.0165845
741.343	0.0165995
741.421	0.0164610
741.499	0.0164896
741.577	0.0164311
741.655	0.0166106
741.733	0.0164105
741.811	0.0165248
741.890	0.0166765
741.968	0.0165079
742.046	0.0165523
742.124	0.0163118
742.202	0.0164867
742.280	0.0166399
742.358	0.0164664
742.436	0.0166101
742.515	0.0165888
742.593	0.0165861
742.671	0.0166673
742.749	0.0165906
742.827	0.0166952
742.905	0.0165656
742.983	0.0166376
743.061	0.0167529
743.140	0.0165995
743.218	0.0168011
743.296	0.0167797
743.374	0.0167976
743.452	0.0168364
743.530	0.0168049
743.608	0.0168761
743.686	0.0167473
743.765	0.0167809
743.843	0.0169070
743.921	0.0167681
743.999	0.0168359
744.077	0.0169271
744.155	0.0168103
744.233	0.0168006
744.311	0.0167507
744.390	0.0168188
744.468	0.0167260
744.546	0.0166547
744.624	0.0167916
744.702	0.0167912
744.780	0.0168314
744.858	0.0168159
744.936	0.0168058
745.015	0.0166179
745.093	0.0166490
745.171	0.0166677
745.249	0.0166413
745.327	0.0167414
745.405	0.0165914
745.483	0.0165472
745.561	0.0165998
745.640	0.0165926
745.718	0.0166160
745.796	0.0165501
745.874	0.0164777
745.952	0.0163285
746.030	0.0163702
746.108	0.0164616
746.186	0.0163783
746.265	0.0162514
746.343	0.0163190
746.421	0.0163406
746.499	0.0162418
746.577	0.0163256
746.655	0.0162116
746.733	0.0162933
746.811	0.0164358
746.890	0.0163684
746.968	0.0162428
747.046	0.0163675
747.124	0.0163596
747.202	0.0162572
747.280	0.0162734
747.358	0.0162584
747.436	0.0164023
747.515	0.0162923
747.593	0.0163763
747.671	0.0164593
747.749	0.0165244
747.827	0.0165359
747.905	0.0163525
747.983	0.0164609
748.061	0.0166130
748.140	0.0166006
748.218	0.0166876
748.296	0.0167065
748.374	0.0166608
748.452	0.0166724
748.530	0.0167883
748.608	0.0167377
748.686	0.0167031
748.765	0.0166547
748.843	0.0166852
748.921	0.0168974
748.999	0.0168256
749.077	0.0168277
749.155	0.0167411
749.233	0.0168616
749.311	0.0168668
749.390	0.0169109
749.468	0.0168880
749.546	0.0168166
749.624	0.0168230
749.702	0.0169198
749.780	0.0167712
749.858	0.0168927
749.936	0.0168733
750.015	0.0168125
750.093	0.0167738
750.171	0.0168501
750.249	0.0168239
750.327	0.0167666
750.405	0.0168237
750.483	0.0166658
750.561	0.0167094
750.640	0.0167914
750.718	0.0166640
750.796	0.0166715
750.874	0.0166562
750.952	0.0166384
751.030	0.0168388
751.108	0.0165884
751.186	0.0167784
751.265	0.0167083
751.343	0.0166504
751.421	0.0167374
751.499	0.0166305
751.577	0.0167393
751.655	0.0166027
751.733	0.0166028
751.811	0.0167317
751.890	0.0167823
751.968	0.0166443
752.046	0.0168282
752.124	0.0166294
752.202	0.0166360
752.280	0.0166844
752.358	0.0165296
752.436	0.0165789
752.515	0.0165734
752.593	0.0165877
752.671	0.0164498
752.749	0.0165260
752.827	0.0166668
752.905	0.0165437
752.983	0.0166926
753.061	0.0163763
753.140	0.0164091
753.218	0.0165283
753.296	0.0163609
753.374	0.0164455
753.452	0.0165168
753.530	0.0165341
753.608	0.0164782
753.686	0.0164033
753.765	0.0164291
753.843	0.0164408
753.921	0.0165139
753.999	0.0164914
754.077	0.0164642
754.155	0.0165192
754.233	0.0165173
754.311	0.0165952
754.390	0.0166450
754.468	0.0165302
754.546	0.0166026
754.624	0.0165895
754.702	0.0165977
754.780	0.0167372
754.858	0.0166373
754.936	0.0167641
755.015	0.0166259
755.093	0.0167133
755.171	0.0167744
755.249	0.0168039
755.327	0.0167658
755.405	0.0169002
755.483	0.0167249
755.561	0.0167885
755.640	0.0167312
755.718	0.0167367
755.796	0.0166196
755.874	0.0167519
755.952	0.0168739
756.030	0.0168382
756.108	0.0168723
756.186	0.0167462
756.265	0.0167039
756.343	0.0166341
756.421	0.0167344
756.499	0.0168526
756.577	0.0167998
756.655	0.0167721
756.733	0.0167416
756.811	0.0166995
756.890	0.0167977
756.968	0.0168530
757.046	0.0167953
757.124	0.0168088
757.202	0.0167490
757.280	0.0166051
757.358	0.0166975
757.436	0.0166863
757.515	0.0167186
757.593	0.0166260
757.671	0.0165556
757.749	0.0166846
757.827	0.0166273
757.905	0.0166727
757.983	0.0165595
758.061	0.0164844
758.140	0.0166776
758.218	0.0165801
758.296	0.0165539
758.374	0.0166858
758.452	0.0167241
758.530	0.0166364
758.608	0.0166314
758.686	0.0165130
758.765	0.0164951
758.843	0.0165618
758.921	0.0165750
758.999	0.0165499
759.077	0.0166369
759.155	0.0166058
759.233	0.0164952
759.311	0.0166373
759.390	0.0165309
759.468	0.0165056
759.546	0.0166209
759.624	0.0166553
759.702	0.0165223
759.780	0.0163489
759.858	0.0165355
759.936	0.0167026
760.015	0.0165192
760.093	0.0165266
760.171	0.0166007
760.249	0.0165583
760.327	0.0165067
760.405	0.0165620
760.483	0.0165942
760.561	0.0165892
760.640	0.0166579
760.718	0.0165517
760.796	0.0165686
760.874	0.0167234
760.952	0.0166699
761.030	0.0166750
761.108	0.0166669
761.186	0.0167514
761.265	0.0169395
761.343	0.0168536
761.421	0.0168957
761.499	0.0167926
761.577	0.0168488
761.655	0.0169460
761.733	0.0169056
761.811	0.0169151
761.890	0.0169137
761.968	0.0169327
762.046	0.0170415
762.124	0.0169701
762.202	0.0169110
762.280	0.0169225
762.358	0.0168665
762.436	0.0169021
762.515	0.0168108
762.593	0.0168478
762.671	0.0168626
762.749	0.0169530
762.827	0.0169197
762.905	0.0170017
762.983	0.0167483
763.061	0.0167200
763.140	0.0169141
763.218	0.0168175
763.296	0.0168800
763.374	0.0167608
763.452	0.0167852
763.530	0.0167123
763.608	0.0167920
763.686	0.0166797
763.765	0.0167832
763.843	0.0167110
763.921	0.0166624
763.999	0.0167109
764.077	0.0167941
764.155	0.0167697
764.233	0.0167130
764.311	0.0168978
764.390	0.0166164
764.468	0.0167307
764.546	0.0166540
764.624	0.0166924
764.702	0.0167049
764.780	0.0166178
764.858	0.0167055
764.936	0.0164552
765.015	0.0165867
765.093	0.0166286
765.171	0.0165186
765.249	0.0165860
765.327	0.0165083
765.405	0.0164848
765.483	0.0165182
765.561	0.0166177
765.640	0.0166254
765.718	0.0165276
765.796	0.0165266
765.874	0.0164992
765.952	0.0164713
766.030	0.0164914
766.108	0.0165099
766.186	0.0166045
766.265	0.0165722
766.343	0.0166470
766.421	0.0164937
766.499	0.0165331
766.577	0.0166116
766.655	0.0166149
766.733	0.0166681
766.811	0.0165728
766.890	0.0165900
766.968	0.0165642
767.046	0.0166711
767.124	0.0165696
767.202	0.0166232
767.280	0.0164967
767.358	0.0164470
767.436	0.0165594
767.515	0.0165017
767.593	0.0166137
767.671	0.0167300
767.749	0.0165919
767.827	0.0164407
767.905	0.0165404
767.983	0.0167123
768.061	0.0165209
768.140	0.0164706
768.218	0.0165242
768.296	0.0163979
768.374	0.0166418
768.452	0.0164749
768.530	0.0166406
768.608	0.0164978
768.686	0.0165986
768.765	0.0165355
768.843	0.0165638
768.921	0.0167123
768.999	0.0167740
769.077	0.0166284
769.155	0.0165643
769.233	0.0167363
769.311	0.0167773
769.390	0.0166925
769.468	0.0166219
769.546	0.0166479
769.624	0.0166087
769.702	0.0166448
769.780	0.0165868
769.858	0.0166996
769.936	0.0166598
770.015	0.0167162
770.093	0.0166563
770.171	0.0166832
770.249	0.0166931
770.327	0.0166994
770.405	0.0165167
770.483	0.0166711
770.561	0.0165559
770.640	0.0167115
770.718	0.0167988
770.796	0.0167465
770.874	0.0166389
770.952	0.0165739
771.030	0.0166957
771.108	0.0166092
771.186	0.0165897
771.265	0.0167726
771.343	0.0168137
771.421	0.0166037
771.499	0.0165660
771.577	0.0166350
771.655	0.0167764
771.733	0.0167052
771.811	0.0166765
771.890	0.0167503
771.968	0.0165514
772.046	0.0166963
772.124	0.0166084
772.202	0.0166991
772.280	0.0166510
772.358	0.0166329
772.436	0.0166704
772.515	0.0168415
772.593	0.0166283
772.671	0.0167009
772.749	0.0166591
772.827	0.0166293
772.905	0.0165762
772.983	0.0165960
773.061	0.0166238
773.140	0.0166473
773.218	0.0165798
773.296	0.0167974
773.374	0.0166317
773.452	0.0166737
773.530	0.0167485
773.608	0.0166785
773.686	0.0166966
773.765	0.0165900
773.843	0.0166605
773.921	0.0166454
773.999	0.0168668
774.077	0.0167691
774.155	0.0165316
774.233	0.0167446
774.311	0.0167574
774.390	0.0166564
774.468	0.0166332
774.546	0.0166764
774.624	0.0168009
774.702	0.0168182
774.780	0.0168336
774.858	0.0167599
774.936	0.0167080
775.015	0.0167064
775.093	0.0167561
775.171	0.0168356
775.249	0.0167625
775.327	0.0164855
775.405	0.0165318
775.483	0.0166592
775.561	0.0166895
775.640	0.0166412
775.718	0.0165026
775.796	0.0165686
775.874	0.0166055
775.952	0.0165406
776.030	0.0166622
776.108	0.0165850
776.186	0.0164198
776.265	0.0165193
776.343	0.0165458
776.421	0.0164206
776.499	0.0165638
776.577	0.0165494
776.655	0.0164454
776.733	0.0163161
776.811	0.0164071
776.890	0.0164449
776.968	0.0165581
777.046	0.0164014
777.124	0.0163651
777.202	0.0164602
777.280	0.0164350
777.358	0.0165510
777.436	0.0165506
777.515	0.0165072
777.593	0.0163722
777.671	0.0166097
777.749	0.0164906
777.827	0.0164746
777.905	0.0166207
777.983	0.0164867
778.061	0.0166426
778.140	0.0165852
778.218	0.0164544
778.296	0.0165436
778.374	0.0164397
778.452	0.0165526
778.530	0.0165525
778.608	0.0166825
778.686	0.0166531
778.765	0.0166597
778.843	0.0167168
778.921	0.0166418
778.999	0.0166519
779.077	0.0167743
779.155	0.0168585
779.233	0.0168127
779.311	0.0166859
779.390	0.0168024
779.468	0.0167521
779.546	0.0168089
779.624	0.0168952
779.702	0.0168650
779.780	0.0167796
779.858	0.0168777
779.936	0.0168803
780.015	0.0167198
780.093	0.0167194
780.171	0.0165804
780.249	0.0168467
780.327	0.0168596
780.405	0.0168181
780.483	0.0167683
780.561	0.0166673
780.640	0.0167208
780.718	0.0167702
780.796	0.0167958
780.874	0.0167947
780.952	0.0167190
781.030	0.0168211
781.108	0.0167249
781.186	0.0166766
781.265	0.0166048
781.343	0.0167375
781.421	0.0165389
781.499	0.0167402
781.577	0.0167210
781.655	0.0167159
781.733	0.0165954
781.811	0.0168434
781.890	0.0168204
781.968	0.0167707
782.046	0.0167441
782.124	0.0167030
782.202	0.0168319
782.280	0.0168394
782.358	0.0167303
782.436	0.0168163
782.515	0.0166621
782.593	0.0167908
782.671	0.0168501
782.749	0.0167609
782.827	0.0168181
782.905	0.0166929
782.983	0.0167543
783.061	0.0167124
783.140	0.0168420
783.218	0.0167392
783.296	0.0167014
783.374	0.0168865
783.452	0.0167976
783.530	0.0167302
783.608	0.0167767
783.686	0.0167109
783.765	0.0166460
783.843	0.0168005
783.921	0.0167253
783.999	0.0168529
784.077	0.0168588
784.155	0.0167697
784.233	0.0168938
784.311	0.0168630
784.390	0.0167906
784.468	0.0168030
784.546	0.0167761
784.624	0.0168241
784.702	0.0166917
784.780	0.0166780
784.858	0.0166977
784.936	0.0167253
785.015	0.0167308
785.093	0.0166756
785.171	0.0168063
785.249	0.0167361
785.327	0.0166697
785.405	0.0167142
785.483	0.0166973
785.561	0.0168082
785.640	0.0167303
785.718	0.0168282
785.796	0.0167205
785.874	0.0166727
785.952	0.0168807
786.030	0.0168089
786.108	0.0167953
786.186	0.0167701
786.265	0.0167252
786.343	0.0167183
786.421	0.0167204
786.499	0.0166959
786.577	0.0168464
786.655	0.0166948
786.733	0.0167352
786.811	0.0168025
786.890	0.0166195
786.968	0.0167070
787.046	0.0166122
787.124	0.0166848
787.202	0.0167757
787.280	0.0166129
787.358	0.0165701
787.436	0.0166330
787.515	0.0166991
787.593	0.0166333
787.671	0.0166207
787.749	0.0166114
787.827	0.0166759
787.905	0.0167127
787.983	0.0166110
788.061	0.0167257
788.140	0.0166801
788.218	0.0164687
788.296	0.0165907
788.374	0.0166909
788.452	0.0167519
788.530	0.0164783
788.608	0.0165910
788.686	0.0166012
788.765	0.0166206
788.843	0.0165402
788.921	0.0164534
788.999	0.0165781
789.077	0.0164801
789.155	0.0165882
789.233	0.0166502
789.311	0.0166342
789.390	0.0166529
789.468	0.0167069
789.546	0.0166289
789.624	0.0165992
789.702	0.0164955
789.780	0.0166166
789.858	0.0168049
789.936	0.0166174
790.015	0.0165456
790.093	0.0166032
790.171	0.0165927
790.249	0.0164975
790.327	0.0165652
790.405	0.0165892
790.483	0.0165805
790.561	0.0165182
790.640	0.0165319
790.718	0.0166441
790.796	0.0167344
790.874	0.0166074
790.952	0.0165803
791.030	0.0165757
791.108	0.0166743
791.186	0.0167257
791.265	0.0166372
791.343	0.0166692
791.421	0.0166732
791.499	0.0166754
791.577	0.0167307
791.655	0.0166044
791.733	0.0166518
791.811	0.0166683
791.890	0.0166359
791.968	0.0167048
792.046	0.0166312
792.124	0.0167419
792.202	0.0166281
792.280	0.0167082
792.358	0.0166682
792.436	0.0166859
792.515	0.0166462
792.593	0.0166948
792.671	0.0165521
792.749	0.0167181
792.827	0.0167010
792.905	0.0165350
792.983	0.0164857
793.061	0.0165875
793.140	0.0165766
793.218	0.0165726
793.296	0.0166242
793.374	0.0165521
793.452	0.0165950
793.530	0.0164420
793.608	0.0165364
793.686	0.0166213
793.765	0.0167854
793.843	0.0166714
793.921	0.0165629
793.999	0.0165543
794.077	0.0166568
794.155	0.0166569
794.233	0.0165759
794.311	0.0166306
794.390	0.0166315
794.468	0.0167927
794.546	0.0166902
794.624	0.0165546
794.702	0.0167506
794.780	0.0165762
794.858	0.0165477
794.936	0.0165856
795.015	0.0167649
795.093	0.0167239
795.171	0.0164571
795.249	0.0165907
795.327	0.0167282
795.405	0.0166357
795.483	0.0165424
795.561	0.0167536
795.640	0.0167511
795.718	0.0165183
795.796	0.0165762
795.874	0.0165479
795.952	0.0165513
796.030	0.0165747
796.108	0.0166569
796.186	0.0166062
796.265	0.0166417
796.343	0.0166200
796.421	0.0163921
796.499	0.0164462
796.577	0.0164343
796.655	0.0165069
796.733	0.0166515
796.811	0.0166257
796.890	0.0166083
796.968	0.0165493
797.046	0.0166809
797.124	0.0165720
797.202	0.0166032
797.280	0.0165615
797.358	0.0165412
797.436	0.0164472
797.515	0.0165231
797.593	0.0165046
797.671	0.0164556
797.749	0.0163863
797.827	0.0164018
797.905	0.0165061
797.983	0.0164846
798.061	0.0165488
798.140	0.0163806
798.218	0.0164334
798.296	0.0165183
798.374	0.0166439
798.452	0.0166097
798.530	0.0166461
798.608	0.0167572
798.686	0.0166887
798.765	0.0166585
798.843	0.0167446
798.921	0.0167124
798.999	0.0168658
799.077	0.0168417
799.155	0.0167782
799.233	0.0168372
799.311	0.0168893
799.390	0.0167779
799.468	0.0167683
799.546	0.0168288
799.624	0.0168374
799.702	0.0167397
799.780	0.0167935
799.858	0.0166639
799.936	0.0167231
800.015	0.0167112
800.093	0.0166624
800.171	0.0166328
800.249	0.0165041
800.327	0.0166074
800.405	0.0164745
800.483	0.0165318
800.561	0.0166242
800.640	0.0165222
800.718	0.0165820
800.796	0.0165274
800.874	0.0164991
800.952	0.0166452
801.030	0.0165343
801.108	0.0165583
801.186	0.0166351
801.265	0.0166236
801.343	0.0165873
801.421	0.0165408
801.499	0.0165578
801.577	0.0165242
801.655	0.0166990
801.733	0.0167190
801.811	0.0166397
801.890	0.0168294
801.968	0.0166592
802.046	0.0166195
802.124	0.0167324
802.202	0.0167352
802.280	0.0167244
802.358	0.0168970
802.436	0.0167717
802.515	0.0167546
802.593	0.0168823
802.671	0.0167448
802.749	0.0168475
802.827	0.0167741
802.905	0.0167849
802.983	0.0166496
803.061	0.0166565
803.140	0.0166637
803.218	0.0165459
803.296	0.0165598
803.374	0.0166476
803.452	0.0164825
803.530	0.0164855
803.608	0.0164280
803.686	0.0164264
803.765	0.0164666
803.843	0.0163518
803.921	0.0165166
803.999	0.0166012
804.077	0.0165106
804.155	0.0165438
804.233	0.0165529
804.311	0.0163914
804.390	0.0166132
804.468	0.0166887
804.546	0.0166785
804.624	0.0167906
804.702	0.0167850
804.780	0.0167137
804.858	0.0167372
804.936	0.0166878
805.015	0.0168329
805.093	0.0167850
805.171	0.0166914
805.249	0.0167416
805.327	0.0168975
805.405	0.0167543
805.483	0.0167617
805.561	0.0167252
805.640	0.0167583
805.718	0.0168350
805.796	0.0167126
805.874	0.0166998
805.952	0.0167025
806.030	0.0166679
806.108	0.0166928
806.186	0.0166083
806.265	0.0166269
806.343	0.0167548
806.421	0.0167540
806.499	0.0166081
806.577	0.0166552
806.655	0.0166487
806.733	0.0166988
806.811	0.0166508
806.890	0.0167490
806.968	0.0168188
807.046	0.0168190
807.124	0.0168111
807.202	0.0168221
807.280	0.0167917
807.358	0.0166932
807.436	0.0168030
807.515	0.0167037
807.593	0.0169360
807.671	0.0167755
807.749	0.0167880
807.827	0.0168832
807.905	0.0167327
807.983	0.0167519
808.061	0.0166201
808.140	0.0167467
808.218	0.0166373
808.296	0.0167379
808.374	0.0167467
808.452	0.0165847
808.530	0.0165803
808.608	0.0165018
808.686	0.0166228
808.765	0.0165479
808.843	0.0164778
808.921	0.0165301
808.999	0.0164468
809.077	0.0165012
809.155	0.0165990
809.233	0.0165178
809.311	0.0164952
809.390	0.0165215
809.468	0.0164516
809.546	0.0165521
809.624	0.0165424
809.702	0.0165008
809.780	0.0165815
809.858	0.0165498
809.936	0.0164548
810.015	0.0165796
810.093	0.0165546
810.171	0.0165556
810.249	0.0166249
810.327	0.0165678
810.405	0.0166331
810.483	0.0166418
810.561	0.0165794
810.640	0.0166705
810.718	0.0166652
810.796	0.0166198
810.874	0.0167025
810.952	0.0166833
811.030	0.0167194
811.108	0.0165747
811.186	0.0166338
811.265	0.0166718
811.343	0.0166566
811.421	0.0166283
811.499	0.0165427
811.577	0.0165762
811.655	0.0167493
811.733	0.0166947
811.811	0.0167372
811.890	0.0166339
811.968	0.0165535
812.046	0.0165908
812.124	0.0166279
812.202	0.0167217
812.280	0.0167199
812.358	0.0167480
812.436	0.0167592
812.515	0.0166489
812.593	0.0166791
812.671	0.0167413
812.749	0.0165765
812.827	0.0166286
812.905	0.0165975
812.983	0.0167573
813.061	0.0167097
813.140	0.0166068
813.218	0.0167388
813.296	0.0166592
813.374	0.0166037
813.452	0.0166608
813.530	0.0166117
813.608	0.0165523
813.686	0.0166983
813.765	0.0165316
813.843	0.0163890
813.921	0.0165289
813.999	0.0166055
814.077	0.0165182
814.155	0.0165362
814.233	0.0165999
814.311	0.0165070
814.390	0.0165244
814.468	0.0165463
814.546	0.0167199
814.624	0.0164803
814.702	0.0165685
814.780	0.0165622
814.858	0.0167217
814.936	0.0167018
815.015	0.0166357
815.093	0.0165662
815.171	0.0165121
815.249	0.0166571
815.327	0.0167233
815.405	0.0166730
815.483	0.0165142
815.561	0.0165885
815.640	0.0165554
815.718	0.0165376
815.796	0.0166561
815.874	0.0167192
815.952	0.0164716
816.030	0.0166878
816.108	0.0165367
816.186	0.0164737
816.265	0.0165845
816.343	0.0166140
816.421	0.0166047
816.499	0.0166069
816.577	0.0166821
816.655	0.0167274
816.733	0.0166151
816.811	0.0166270
816.890	0.0165005
816.968	0.0166678
817.046	0.0166908
817.124	0.0167354
817.202	0.0164605
817.280	0.0166175
817.358	0.0169098
817.436	0.0167556
817.515	0.0167155
817.593	0.0165592
817.671	0.0165182
817.749	0.0165773
817.827	0.0166575
817.905	0.0165557
817.983	0.0165211
818.061	0.0166991
818.140	0.0164464
818.218	0.0163628
818.296	0.0164486
818.374	0.0164137
818.452	0.0165214
818.530	0.0164966
818.608	0.0164316
818.686	0.0165103
818.765	0.0165638
818.843	0.0164912
818.921	0.0166315
818.999	0.0165472
819.077	0.0164065
819.155	0.0165508
819.233	0.0165465
819.311	0.0166711
819.390	0.0165530
819.468	0.0167107
819.546	0.0166473
819.624	0.0166458
819.702	0.0166816
819.780	0.0168206
819.858	0.0168048
819.936	0.0166727
820.015	0.0166521
820.093	0.0167203
820.171	0.0167664
820.249	0.0166996
820.327	0.0167125
820.405	0.0167647
820.483	0.0167469
820.561	0.0167303
820.640	0.0167275
820.718	0.0166498
820.796	0.0167561
820.874	0.0168537
820.952	0.0165524
821.030	0.0166119
821.108	0.0167157
821.186	0.0166942
821.265	0.0166326
821.343	0.0165351
821.421	0.0165346
821.499	0.0164404
821.577	0.0164880
821.655	0.0165189
821.733	0.0163847
821.811	0.0163940
821.890	0.0163838
821.968	0.0164581
822.046	0.0164907
822.124	0.0165639
822.202	0.0164495
822.280	0.0165532
822.358	0.0165512
822.436	0.0164499
822.515	0.0164005
822.593	0.0164653
822.671	0.0166134
822.749	0.0165413
822.827	0.0165635
822.905	0.0165714
822.983	0.0165363
823.061	0.0165018
823.140	0.0165598
823.218	0.0167966
823.296	0.0165442
823.374	0.0167055
823.452	0.0168679
823.530	0.0167873
823.608	0.0166442
823.686	0.0166781
823.765	0.0166419
823.843	0.0167754
823.921	0.0167728
823.999	0.0167517
824.077	0.0166977
824.155	0.0168658
824.233	0.0167996
824.311	0.0167623
824.390	0.0167178
824.468	0.0167430
824.546	0.0165891
824.624	0.0166789
824.702	0.0166238
824.780	0.0166837
824.858	0.0166788
824.936	0.0166747
825.015	0.0167320
825.093	0.0167199
825.171	0.0166946
825.249	0.0166036
825.327	0.0166099
825.405	0.0166797
825.483	0.0167539
825.561	0.0167444
825.640	0.0166199
825.718	0.0166668
825.796	0.0167505
825.874	0.0166622
825.952	0.0166171
826.030	0.0166406
826.108	0.0166250
826.186	0.0165050
826.265	0.0165111
826.343	0.0167170
826.421	0.0163519
826.499	0.0164269
826.577	0.0165409
826.655	0.0165871
826.733	0.0165724
826.811	0.0164265
826.890	0.0164377
826.968	0.0166260
827.046	0.0164915
827.124	0.0164830
827.202	0.0164635
827.280	0.0165105
827.358	0.0165987
827.436	0.0166726
827.515	0.0166653
827.593	0.0166538
827.671	0.0166838
827.749	0.0167350
827.827	0.0166620
827.905	0.0166172
827.983	0.0167081
828.061	0.0166801
828.140	0.0167905
828.218	0.0166799
828.296	0.0166212
828.374	0.0166885
828.452	0.0168505
828.530	0.0167480
828.608	0.0167915
828.686	0.0165501
828.765	0.0166428
828.843	0.0165974
828.921	0.0167101
828.999	0.0167326
829.077	0.0166300
829.155	0.0164253
829.233	0.0165296
829.311	0.0167651
829.390	0.0164648
829.468	0.0165176
829.546	0.0166969
829.624	0.0165572
829.702	0.0164181
829.780	0.0165468
829.858	0.0163859
829.936	0.0167038
830.015	0.0164761
830.093	0.0166435
830.171	0.0164277
830.249	0.0165483
830.327	0.0167185
830.405	0.0166005
830.483	0.0166927
830.561	0.0166752
830.640	0.0165359
830.718	0.0165204
830.796	0.0167721
830.874	0.0165744
830.952	0.0165277
831.030	0.0166842
831.108	0.0165860
831.186	0.0166428
831.265	0.0165810
831.343	0.0166737
831.421	0.0167412
831.499	0.0166118
831.577	0.0166895
831.655	0.0166844
831.733	0.0167527
831.811	0.0165841
831.890	0.0167001
831.968	0.0166092
832.046	0.0167155
832.124	0.0165776
832.202	0.0167197
832.280	0.0167448
832.358	0.0167868
832.436	0.0166454
832.515	0.0166443
832.593	0.0167131
832.671	0.0167904
832.749	0.0166560
832.827	0.0167299
832.905	0.0167884
832.983	0.0167840
833.061	0.0167075
833.140	0.0168076
833.218	0.0167290
833.296	0.0166609
833.374	0.0166635
833.452	0.0166187
833.530	0.0166189
833.608	0.0165728
833.686	0.0166142
833.765	0.0166322
833.843	0.0167452
833.921	0.0166376
833.999	0.0165636
834.077	0.0166028
834.155	0.0165679
834.233	0.0166714
834.311	0.0165613
834.390	0.0165572
834.468	0.0165435
834.546	0.0165826
834.624	0.0166719
834.702	0.0165822
834.780	0.0166322
834.858	0.0166334
834.936	0.0166444
835.015	0.0167348
835.093	0.0166206
835.171	0.0166577
835.249	0.0168850
835.327	0.0167581
835.405	0.0167207
835.483	0.0167902
835.561	0.0165030
835.640	0.0167290
835.718	0.0167311
835.796	0.0166490
835.874	0.0167847
835.952	0.0167056
836.030	0.0165725
836.108	0.0167509
836.186	0.0167804
836.265	0.0167120
836.343	0.0166705
836.421	0.0167251
836.499	0.0166251
836.577	0.0165546
836.655	0.0165360
836.733	0.0167435
836.811	0.0166558
836.890	0.0165109
836.968	0.0165918
837.046	0.0165189
837.124	0.0165986
837.202	0.0165823
837.280	0.0164906
837.358	0.0165908
837.436	0.0165588
837.515	0.0165261
837.593	0.0164941
837.671	0.0165543
837.749	0.0165891
837.827	0.0165077
837.905	0.0165556
837.983	0.0165290
838.061	0.0165636
838.140	0.0167596
838.218	0.0166741
838.296	0.0166535
838.374	0.0167880
838.452	0.0167822
838.530	0.0167825
838.608	0.0166441
838.686	0.0168230
838.765	0.0168446
838.843	0.0167304
838.921	0.0167712
838.999	0.0166219
839.077	0.0167332
839.155	0.0167106
839.233	0.0167297
839.311	0.0167772
839.390	0.0166077
839.468	0.0165919
839.546	0.0166267
839.624	0.0167271
839.702	0.0167010
839.780	0.0166564
839.858	0.0167390
839.936	0.0165414
840.015	0.0165364
840.093	0.0165211
840.171	0.0164758
840.249	0.0165203
840.327	0.0165730
840.405	0.0166172
840.483	0.0165015
840.561	0.0166978
840.640	0.0166405
840.718	0.0166978
840.796	0.0167382
840.874	0.0166927
840.952	0.0166790
841.030	0.0165859
841.108	0.0167599
841.186	0.0166573
841.265	0.0166438
841.343	0.0167147
841.421	0.0167638
841.499	0.0167495
841.577	0.0167673
841.655	0.0167612
841.733	0.0167440
841.811	0.0167235
841.890	0.0166750
841.968	0.0167050
842.046	0.0168304
842.124	0.0166888
842.202	0.0166655
842.280	0.0167747
842.358	0.0166703
842.436	0.0167422
842.515	0.0168321
842.593	0.0167926
842.671	0.0166877
842.749	0.0165875
842.827	0.0167017
842.905	0.0167699
842.983	0.0165001
843.061	0.0165582
843.140	0.0165865
843.218	0.0166288
843.296	0.0166639
843.374	0.0166513
843.452	0.0165965
843.530	0.0166858
843.608	0.0166685
843.686	0.0166525
843.765	0.0165131
843.843	0.0166361
843.921	0.0167802
843.999	0.0166041
844.077	0.0166698
844.155	0.0167298
844.233	0.0166646
844.311	0.0166328
844.390	0.0167046
844.468	0.0166494
844.546	0.0166504
844.624	0.0166062
844.702	0.0167529
844.780	0.0166159
844.858	0.0166118
844.936	0.0165067
845.015	0.0166483
845.093	0.0165957
845.171	0.0166070
845.249	0.0166694
845.327	0.0166296
845.405	0.0166307
845.483	0.0167065
845.561	0.0165829
845.640	0.0165690
845.718	0.0167145
845.796	0.0167947
845.874	0.0166457
845.952	0.0167227
846.030	0.0167584
846.108	0.0167952
846.186	0.0168562
846.265	0.0168790
846.343	0.0166841
846.421	0.0168186
846.499	0.0167205
846.577	0.0167581
846.655	0.0168378
846.733	0.0167590
846.811	0.0168304
846.890	0.0166915
846.968	0.0167214
847.046	0.0168401
847.124	0.0167712
847.202	0.0168188
847.280	0.0168118
847.358	0.0167455
847.436	0.0168538
847.515	0.0167183
847.593	0.0168002
847.671	0.0166421
847.749	0.0165926
847.827	0.0166732
847.905	0.0166340
847.983	0.0167645
848.061	0.0165232
848.140	0.0164952
848.218	0.0165067
848.296	0.0167094
848.374	0.0165234
848.452	0.0165962
848.530	0.0166409
848.608	0.0166846
848.686	0.0165207
848.765	0.0164436
848.843	0.0165688
848.921	0.0166219
848.999	0.0165916
849.077	0.0166262
849.155	0.0165106
849.233	0.0165805
849.311	0.0167999
849.390	0.0166422
849.468	0.0167091
849.546	0.0167344
849.624	0.0165884
849.702	0.0166378
849.780	0.0165778
849.858	0.0166550
849.936	0.0166896
850.015	0.0166339
850.093	0.0167612
850.171	0.0166344
850.249	0.0165000
850.327	0.0166801
850.405	0.0165318
850.483	0.0166975
850.561	0.0165887
850.640	0.0165562
850.718	0.0165421
850.796	0.0165499
850.874	0.0164555
850.952	0.0164436
851.030	0.0164040
851.108	0.0165659
851.186	0.0165689
851.265	0.0164809
851.343	0.0164854
851.421	0.0164135
851.499	0.0164905
851.577	0.0166263
851.655	0.0165214
851.733	0.0167506
851.811	0.0166418
851.890	0.0166829
851.968	0.0168048
852.046	0.0167876
852.124	0.0165978
852.202	0.0166607
852.280	0.0165703
852.358	0.0165829
852.436	0.0166804
852.515	0.0166540
852.593	0.0167067
852.671	0.0166785
852.749	0.0168119
852.827	0.0166550
852.905	0.0165565
852.983	0.0166518
853.061	0.0167092
853.140	0.0165874
853.218	0.0166043
853.296	0.0166209
853.374	0.0166903
853.452	0.0166105
853.530	0.0166174
853.608	0.0164435
853.686	0.0166433
853.765	0.0166810
853.843	0.0167240
853.921	0.0166904
853.999	0.0167278
854.077	0.0168023
854.155	0.0167034
854.233	0.0167397
854.311	0.0167491
854.390	0.0168011
854.468	0.0167043
854.546	0.0168557
854.624	0.0168088
854.702	0.0168547
854.780	0.0169009
854.858	0.0167676
854.936	0.0167782
855.015	0.0167948
855.093	0.0167799
855.171	0.0168008
855.249	0.0169104
855.327	0.0168100
855.405	0.0168445
855.483	0.0167403
855.561	0.0167274
855.640	0.0166280
855.718	0.0167365
855.796	0.0166982
855.874	0.0167535
855.952	0.0167546
856.030	0.0166796
856.108	0.0166690
856.186	0.0167234
856.265	0.0165973
856.343	0.0167552
856.421	0.0167153
856.499	0.0166888
856.577	0.0165038
856.655	0.0165451
856.733	0.0166497
856.811	0.0166430
856.890	0.0167635
856.968	0.0167854
857.046	0.0167292
857.124	0.0166444
857.202	0.0167078
857.280	0.0167370
857.358	0.0167467
857.436	0.0167194
857.515	0.0166936
857.593	0.0165459
857.671	0.0167637
857.749	0.0167116
857.827	0.0167350
857.905	0.0167259
857.983	0.0166219
858.061	0.0166252
858.140	0.0167449
858.218	0.0166517
858.296	0.0165684
858.374	0.0165862
858.452	0.0166817
858.530	0.0165791
858.608	0.0167207
858.686	0.0166441
858.765	0.0165550
858.843	0.0167017
858.921	0.0166068
858.999	0.0165684
859.077	0.0166332
859.155	0.0165943
859.233	0.0165668
859.311	0.0165180
859.390	0.0166644
859.468	0.0166057
859.546	0.0166183
859.624	0.0165244
859.702	0.0166974
859.780	0.0166368
859.858	0.0165811
859.936	0.0166425
860.015	0.0167107
860.093	0.0167906
860.171	0.0165431
860.249	0.0165798
860.327	0.0165024
860.405	0.0167013
860.483	0.0164700
860.561	0.0165075
860.640	0.0167283
860.718	0.0164970
860.796	0.0164766
860.874	0.0165215
860.952	0.0165179
861.030	0.0167094
861.108	0.0165189
861.186	0.0164705
861.265	0.0164415
861.343	0.0163178
861.421	0.0163230
861.499	0.0164403
861.577	0.0165694
861.655	0.0164541
861.733	0.0164441
861.811	0.0164369
861.890	0.0163110
861.968	0.0165044
862.046	0.0164348
862.124	0.0164832
862.202	0.0165002
862.280	0.0164543
862.358	0.0166004
862.436	0.0165813
862.515	0.0164410
862.593	0.0164839
862.671	0.0164467
862.749	0.0166478
862.827	0.0166263
862.905	0.0166376
862.983	0.0165124
863.061	0.0166273
863.140	0.0165508
863.218	0.0165070
863.296	0.0165482
863.374	0.0166425
863.452	0.0165942
863.530	0.0165778
863.608	0.0166786
863.686	0.0166191
863.765	0.0165791
863.843	0.0164965
863.921	0.0164719
863.999	0.0166707
864.077	0.0165912
864.155	0.0166013
864.233	0.0165064
864.311	0.0165987
864.390	0.0165821
864.468	0.0166236
864.546	0.0165748
864.624	0.0166332
864.702	0.0165896
864.780	0.0165590
864.858	0.0166203
864.936	0.0167566
865.015	0.0166169
865.093	0.0166105
865.171	0.0167884
865.249	0.0166291
865.327	0.0168058
865.405	0.0167125
865.483	0.0166176
865.561	0.0166018
865.640	0.0167816
865.718	0.0167445
865.796	0.0166465
865.874	0.0166632
865.952	0.0166123
866.030	0.0166112
866.108	0.0166307
866.186	0.0166154
866.265	0.0165437
866.343	0.0165079
866.421	0.0166428
866.499	0.0165689
866.577	0.0166483
866.655	0.0165471
866.733	0.0166003
866.811	0.0167194
866.890	0.0167514
866.968	0.0167210
867.046	0.0167481
867.124	0.0167052
867.202	0.0165845
867.280	0.0168924
867.358	0.0168053
867.436	0.0167670
867.515	0.0168040
867.593	0.0167038
867.671	0.0167215
867.749	0.0169122
867.827	0.0168580
867.905	0.0167997
867.983	0.0168323
868.061	0.0168461
868.140	0.0168766
868.218	0.0169385
868.296	0.0169162
868.374	0.0168121
868.452	0.0167374
868.530	0.0167925
868.608	0.0167996
868.686	0.0168586
868.765	0.0168451
868.843	0.0167574
868.921	0.0169110
868.999	0.0168421
869.077	0.0167231
869.155	0.0166117
869.233	0.0168074
869.311	0.0167221
869.390	0.0167229
869.468	0.0167004
869.546	0.0167928
869.624	0.0166810
869.702	0.0166323
869.780	0.0166110
869.858	0.0166199
869.936	0.0166171
870.015	0.0167361
870.093	0.0167432
870.171	0.0167720
870.249	0.0164568
870.327	0.0166412
870.405	0.0165782
870.483	0.0165755
870.561	0.0166766
870.640	0.0166747
870.718	0.0165591
870.796	0.0165918
870.874	0.0165080
870.952	0.0165837
871.030	0.0166030
871.108	0.0165190
871.186	0.0165748
871.265	0.0165075
871.343	0.0165053
871.421	0.0164880
871.499	0.0165477
871.577	0.0165149
871.655	0.0164846
871.733	0.0165258
871.811	0.0165910
871.890	0.0164889
871.968	0.0164887
872.046	0.0165250
872.124	0.0165604
872.202	0.0165488
872.280	0.0165763
872.358	0.0165790
872.436	0.0165110
872.515	0.0164767
872.593	0.0166395
872.671	0.0165041
872.749	0.0165201
872.827	0.0166900
872.905	0.0165635
872.983	0.0164407
873.061	0.0166589
873.140	0.0165077
873.218	0.0164435
873.296	0.0166336
873.374	0.0165110
873.452	0.0165278
873.530	0.0164731
873.608	0.0164929
873.686	0.0166084
873.765	0.0164581
873.843	0.0164013
873.921	0.0165176
873.999	0.0164857
874.077	0.0165754
874.155	0.0165080
874.233	0.0165436
874.311	0.0165887
874.390	0.0164807
874.468	0.0164728
874.546	0.0165086
874.624	0.0165129
874.702	0.0164208
874.780	0.0165573
874.858	0.0164220
874.936	0.0165047
875.015	0.0163990
875.093	0.0165156
875.171	0.0163986
875.249	0.0164687
875.327	0.0164688
875.405	0.0164831
875.483	0.0166238
875.561	0.0165288
875.640	0.0164715
875.718	0.0166132
875.796	0.0166560
875.874	0.0165286
875.952	0.0166492
876.030	0.0165646
876.108	0.0165691
876.186	0.0165331
876.265	0.0166226
876.343	0.0166282
876.421	0.0165249
876.499	0.0166976
876.577	0.0166956
876.655	0.0165806
876.733	0.0165652
876.811	0.0165747
876.890	0.0165217
876.968	0.0166360
877.046	0.0166781
877.124	0.0165289
877.202	0.0164143
877.280	0.0164927
877.358	0.0164803
877.436	0.0164204
877.515	0.0166634
877.593	0.0165325
877.671	0.0163856
877.749	0.0165344
877.827	0.0164927
877.905	0.0164410
877.983	0.0164222
878.061	0.0165131
878.140	0.0166562
878.218	0.0164648
878.296	0.0163897
878.374	0.0164008
878.452	0.0164140
878.530	0.0165741
878.608	0.0164017
878.686	0.0164960
878.765	0.0165054
878.843	0.0163372
878.921	0.0165303
878.999	0.0166106
879.077	0.0166573
879.155	0.0165149
879.233	0.0164206
879.311	0.0164876
879.390	0.0165923
879.468	0.0166117
879.546	0.0166732
879.624	0.0166988
879.702	0.0164922
879.780	0.0167385
879.858	0.0167130
879.936	0.0165467
880.015	0.0165682
880.093	0.0167770
880.171	0.0166624
880.249	0.0166627
880.327	0.0165323
880.405	0.0166640
880.483	0.0168173
880.561	0.0166828
880.640	0.0166142
880.718	0.0167127
880.796	0.0165861
880.874	0.0166277
880.952	0.0167428
881.030	0.0166913
881.108	0.0167395
881.186	0.0166633
881.265	0.0168713
881.343	0.0166585
881.421	0.0165874
881.499	0.0166277
881.577	0.0168051
881.655	0.0167330
881.733	0.0166235
881.811	0.0166160
881.890	0.0166382
881.968	0.0167970
882.046	0.0165891
882.124	0.0164517
882.202	0.0166113
882.280	0.0166038
882.358	0.0165979
882.436	0.0165060
882.515	0.0166409
882.593	0.0164644
882.671	0.0165715
882.749	0.0165838
882.827	0.0165160
882.905	0.0165204
882.983	0.0165778
883.061	0.0166133
883.140	0.0165989
883.218	0.0165814
883.296	0.0164722
883.374	0.0165595
883.452	0.0164980
883.530	0.0166948
883.608	0.0165067
883.686	0.0165507
883.765	0.0165749
883.843	0.0165168
883.921	0.0164942
883.999	0.0166253
884.077	0.0164943
884.155	0.0165134
884.233	0.0165134
884.311	0.0165564
884.390	0.0166096
884.468	0.0166753
884.546	0.0166785
884.624	0.0164870
884.702	0.0165967
884.780	0.0164914
884.858	0.0165668
884.936	0.0165482
885.015	0.0165222
885.093	0.0165407
885.171	0.0165140
885.249	0.0163463
885.327	0.0164636
885.405	0.0165651
885.483	0.0165366
885.561	0.0162916
885.640	0.0165375
885.718	0.0164226
885.796	0.0163947
885.874	0.0163159
885.952	0.0164214
886.030	0.0165163
886.108	0.0165990
886.186	0.0164164
886.265	0.0164637
886.343	0.0164372
886.421	0.0164383
886.499	0.0165260
886.577	0.0163624
886.655	0.0165196
886.733	0.0165595
886.811	0.0164742
886.890	0.0165304
886.968	0.0164789
887.046	0.0165794
887.124	0.0164458
887.202	0.0164898
887.280	0.0167442
887.358	0.0166483
887.436	0.0164848
887.515	0.0165926
887.593	0.0165273
887.671	0.0167045
887.749	0.0166556
887.827	0.0167556
887.905	0.0166348
887.983	0.0167458
888.061	0.0166478
888.140	0.0166865
888.218	0.0166757
888.296	0.0166453
888.374	0.0167575
888.452	0.0167115
888.530	0.0166072
888.608	0.0166858
888.686	0.0166672
888.765	0.0166658
888.843	0.0165585
888.921	0.0165456
888.999	0.0166225
889.077	0.0166776
889.155	0.0166565
889.233	0.0165331
889.311	0.0165465
889.390	0.0165936
889.468	0.0166304
889.546	0.0165899
889.624	0.0165131
889.702	0.0164508
889.780	0.0165914
889.858	0.0167133
889.936	0.0166187
890.015	0.0165545
890.093	0.0167466
890.171	0.0167226
890.249	0.0165319
890.327	0.0166858
890.405	0.0165945
890.483	0.0165196
890.561	0.0165231
890.640	0.0165236
890.718	0.0165838
890.796	0.0166891
890.874	0.0165637
890.952	0.0166399
891.030	0.0166158
891.108	0.0164836
891.186	0.0165662
891.265	0.0165566
891.343	0.0166309
891.421	0.0166353
891.499	0.0164439
891.577	0.0165051
891.655	0.0166250
891.733	0.0165140
891.811	0.0165464
891.890	0.0164557
891.968	0.0165403
892.046	0.0164680
892.124	0.0166279
892.202	0.0165508
892.280	0.0165778
892.358	0.0166306
892.436	0.0166354
892.515	0.0166030
892.593	0.0166315
892.671	0.0167851
892.749	0.0166824
892.827	0.0166727
892.905	0.0166350
892.983	0.0167608
893.061	0.0167628
893.140	0.0166845
893.218	0.0167623
893.296	0.0167073
893.374	0.0169220
893.452	0.0168729
893.530	0.0168149
893.608	0.0167692
893.686	0.0168953
893.765	0.0168080
893.843	0.0168501
893.921	0.0168751
893.999	0.0168938
894.077	0.0168525
894.155	0.0168435
894.233	0.0169350
894.311	0.0168777
894.390	0.0169227
894.468	0.0170844
894.546	0.0169492
894.624	0.0169505
894.702	0.0169050
894.780	0.0170263
894.858	0.0168767
894.936	0.0168891
895.015	0.0169427
895.093	0.0169387
895.171	0.0168817
895.249	0.0168147
895.327	0.0167568
895.405	0.0168257
895.483	0.0166964
895.561	0.0167689
895.640	0.0168046
895.718	0.0167897
895.796	0.0167527
895.874	0.0166756
895.952	0.0166236
896.030	0.0167559
896.108	0.0166760
896.186	0.0168264
896.265	0.0167063
896.343	0.0166834
896.421	0.0166872
896.499	0.0166006
896.577	0.0166956
896.655	0.0164656
896.733	0.0166092
896.811	0.0166960
896.890	0.0165929
896.968	0.0166709
897.046	0.0165756
897.124	0.0165446
897.202	0.0166363
897.280	0.0164929
897.358	0.0165626
897.436	0.0165594
897.515	0.0166634
897.593	0.0166041
897.671	0.0165449
897.749	0.0165774
897.827	0.0165643
897.905	0.0164516
897.983	0.0164412
898.061	0.0166534
898.140	0.0164863
898.218	0.0166692
898.296	0.0165740
898.374	0.0166098
898.452	0.0166691
898.530	0.0165524
898.608	0.0166335
898.686	0.0166140
898.765	0.0166899
898.843	0.0166304
898.921	0.0165453
898.999	0.0165533
899.077	0.0165448
899.155	0.0167610
899.233	0.0166616
899.311	0.0165881
899.390	0.0166533
899.468	0.0165725
899.546	0.0166560
899.624	0.0167019
899.702	0.0166179
899.780	0.0165018
899.858	0.0165740
899.936	0.0165820
