05/24/2022	20:00:12	Ver.	4.1	UNKNOWN
Optical Delay	580.001249	Delta X		0.078125	Sweeps	1	Scan Rate	0/0
Coordinates	Axis 1	NaN	Axis 2	NaN	Axis 3	NaN	Axis 4	NaN	Axis 5	NaN	Axis 6	0.000000
TX Power	0.000000	RX Power	0.000000

580.001	0.0165887
580.079	0.0165549
580.157	0.0165805
580.236	0.0166231
580.314	0.0165578
580.392	0.0166409
580.470	0.0165662
580.548	0.0164993
580.626	0.0166849
580.704	0.0165163
580.782	0.0164565
580.861	0.0164710
580.939	0.0166175
581.017	0.0166041
581.095	0.0165470
581.173	0.0165292
581.251	0.0165748
581.329	0.0166348
581.407	0.0166024
581.486	0.0165554
581.564	0.0164761
581.642	0.0164761
581.720	0.0165446
581.798	0.0165659
581.876	0.0165656
581.954	0.0164741
582.032	0.0164444
582.111	0.0165617
582.189	0.0164736
582.267	0.0165844
582.345	0.0164855
582.423	0.0165367
582.501	0.0166497
582.579	0.0166068
582.657	0.0166325
582.736	0.0164150
582.814	0.0165401
582.892	0.0165717
582.970	0.0165601
583.048	0.0166129
583.126	0.0165526
583.204	0.0165186
583.282	0.0165517
583.361	0.0167119
583.439	0.0165968
583.517	0.0166270
583.595	0.0164753
583.673	0.0165915
583.751	0.0166953
583.829	0.0165893
583.907	0.0165691
583.986	0.0165385
584.064	0.0166012
584.142	0.0167275
584.220	0.0167096
584.298	0.0165002
584.376	0.0165321
584.454	0.0164856
584.532	0.0166891
584.611	0.0166881
584.689	0.0166152
584.767	0.0167138
584.845	0.0164617
584.923	0.0167202
585.001	0.0167197
585.079	0.0165334
585.157	0.0166631
585.236	0.0167037
585.314	0.0164758
585.392	0.0164973
585.470	0.0166047
585.548	0.0165759
585.626	0.0166508
585.704	0.0164660
585.782	0.0166297
585.861	0.0165910
585.939	0.0167397
586.017	0.0165583
586.095	0.0166862
586.173	0.0166576
586.251	0.0165190
586.329	0.0165866
586.407	0.0167389
586.486	0.0165771
586.564	0.0166086
586.642	0.0165097
586.720	0.0166753
586.798	0.0165253
586.876	0.0165166
586.954	0.0165424
587.032	0.0165198
587.111	0.0166178
587.189	0.0166107
587.267	0.0165324
587.345	0.0165186
587.423	0.0166591
587.501	0.0165274
587.579	0.0166134
587.657	0.0166143
587.736	0.0165211
587.814	0.0165518
587.892	0.0165253
587.970	0.0164605
588.048	0.0166795
588.126	0.0164667
588.204	0.0165668
588.282	0.0165569
588.361	0.0164270
588.439	0.0166136
588.517	0.0166634
588.595	0.0164793
588.673	0.0165987
588.751	0.0165637
588.829	0.0166392
588.907	0.0165673
588.986	0.0165257
589.064	0.0166563
589.142	0.0166499
589.220	0.0165447
589.298	0.0166013
589.376	0.0166303
589.454	0.0165685
589.532	0.0165033
589.611	0.0166094
589.689	0.0166888
589.767	0.0166947
589.845	0.0166351
589.923	0.0165708
590.001	0.0164903
590.079	0.0167033
590.157	0.0165616
590.236	0.0165298
590.314	0.0166704
590.392	0.0165620
590.470	0.0166960
590.548	0.0166103
590.626	0.0165721
590.704	0.0165027
590.782	0.0167576
590.861	0.0166602
590.939	0.0166734
591.017	0.0165697
591.095	0.0166125
591.173	0.0165621
591.251	0.0166285
591.329	0.0165520
591.407	0.0166132
591.486	0.0165454
591.564	0.0165266
591.642	0.0165883
591.720	0.0165567
591.798	0.0165770
591.876	0.0165992
591.954	0.0165899
592.032	0.0164262
592.111	0.0166897
592.189	0.0165466
592.267	0.0166403
592.345	0.0164823
592.423	0.0165296
592.501	0.0166302
592.579	0.0166492
592.657	0.0165953
592.736	0.0164927
592.814	0.0165491
592.892	0.0166587
592.970	0.0164998
593.048	0.0164764
593.126	0.0167323
593.204	0.0165637
593.282	0.0166100
593.361	0.0165986
593.439	0.0166280
593.517	0.0165739
593.595	0.0165944
593.673	0.0165962
593.751	0.0167300
593.829	0.0166486
593.907	0.0165160
593.986	0.0165124
594.064	0.0166615
594.142	0.0167847
594.220	0.0165813
594.298	0.0166032
594.376	0.0165200
594.454	0.0165950
594.532	0.0166374
594.611	0.0165360
594.689	0.0166512
594.767	0.0166988
594.845	0.0165924
594.923	0.0165369
595.001	0.0165232
595.079	0.0164908
595.157	0.0165495
595.236	0.0167129
595.314	0.0166472
595.392	0.0166182
595.470	0.0165997
595.548	0.0164847
595.626	0.0167265
595.704	0.0166636
595.782	0.0165588
595.861	0.0164616
595.939	0.0166220
596.017	0.0166190
596.095	0.0166456
596.173	0.0164155
596.251	0.0165003
596.329	0.0166415
596.407	0.0166976
596.486	0.0166039
596.564	0.0165190
596.642	0.0165655
596.720	0.0167567
596.798	0.0165498
596.876	0.0165906
596.954	0.0165158
597.032	0.0166292
597.111	0.0166302
597.189	0.0164135
597.267	0.0166225
597.345	0.0166708
597.423	0.0165489
597.501	0.0165558
597.579	0.0165951
597.657	0.0165652
597.736	0.0166116
597.814	0.0165154
597.892	0.0165050
597.970	0.0164751
598.048	0.0166502
598.126	0.0165674
598.204	0.0166953
598.282	0.0164219
598.361	0.0165121
598.439	0.0167530
598.517	0.0166902
598.595	0.0165479
598.673	0.0165990
598.751	0.0164662
598.829	0.0165594
598.907	0.0165949
598.986	0.0165853
599.064	0.0166057
599.142	0.0165778
599.220	0.0164977
599.298	0.0165263
599.376	0.0166242
599.454	0.0166962
599.532	0.0165762
599.611	0.0165349
599.689	0.0165459
599.767	0.0166496
599.845	0.0165632
599.923	0.0165952
600.001	0.0165965
600.079	0.0166024
600.157	0.0166193
600.236	0.0166226
600.314	0.0166271
600.392	0.0166167
600.470	0.0165998
600.548	0.0166403
600.626	0.0165210
600.704	0.0167015
600.782	0.0166804
600.861	0.0166520
600.939	0.0164973
601.017	0.0166841
601.095	0.0165829
601.173	0.0164394
601.251	0.0166386
601.329	0.0166122
601.407	0.0165299
601.486	0.0166279
601.564	0.0165031
601.642	0.0165568
601.720	0.0166048
601.798	0.0165464
601.876	0.0167165
601.954	0.0164909
602.032	0.0166109
602.111	0.0165510
602.189	0.0166520
602.267	0.0165942
602.345	0.0166238
602.423	0.0166137
602.501	0.0165428
602.579	0.0164999
602.657	0.0165607
602.736	0.0165659
602.814	0.0165021
602.892	0.0166971
602.970	0.0166008
603.048	0.0164961
603.126	0.0164777
603.204	0.0165967
603.282	0.0166611
603.361	0.0166737
603.439	0.0166568
603.517	0.0166251
603.595	0.0166310
603.673	0.0165698
603.751	0.0166010
603.829	0.0165855
603.907	0.0166717
603.986	0.0165085
604.064	0.0165483
604.142	0.0166374
604.220	0.0165575
604.298	0.0166033
604.376	0.0165129
604.454	0.0164326
604.532	0.0166425
604.611	0.0166143
604.689	0.0166527
604.767	0.0166284
604.845	0.0166684
604.923	0.0166612
605.001	0.0164996
605.079	0.0165302
605.157	0.0165220
605.236	0.0165702
605.314	0.0166965
605.392	0.0166309
605.470	0.0165533
605.548	0.0164969
605.626	0.0167393
605.704	0.0167062
605.782	0.0165610
605.861	0.0165736
605.939	0.0164249
606.017	0.0165842
606.095	0.0166515
606.173	0.0166448
606.251	0.0165044
606.329	0.0164744
606.407	0.0165614
606.486	0.0165601
606.564	0.0166010
606.642	0.0165707
606.720	0.0165649
606.798	0.0165888
606.876	0.0165875
606.954	0.0164540
607.032	0.0164871
607.111	0.0166258
607.189	0.0165886
607.267	0.0166463
607.345	0.0165571
607.423	0.0165459
607.501	0.0165953
607.579	0.0164896
607.657	0.0166303
607.736	0.0165901
607.814	0.0167072
607.892	0.0165073
607.970	0.0165156
608.048	0.0165170
608.126	0.0165302
608.204	0.0164744
608.282	0.0165300
608.361	0.0165080
608.439	0.0165969
608.517	0.0165396
608.595	0.0166093
608.673	0.0167328
608.751	0.0165180
608.829	0.0166115
608.907	0.0165536
608.986	0.0165751
609.064	0.0166422
609.142	0.0165228
609.220	0.0164931
609.298	0.0166767
609.376	0.0165010
609.454	0.0165720
609.532	0.0166510
609.611	0.0165967
609.689	0.0165993
609.767	0.0166351
609.845	0.0165301
609.923	0.0166169
610.001	0.0165249
610.079	0.0166030
610.157	0.0166346
610.236	0.0166568
610.314	0.0166102
610.392	0.0167474
610.470	0.0165797
610.548	0.0165473
610.626	0.0167165
610.704	0.0165546
610.782	0.0165442
610.861	0.0166742
610.939	0.0166651
611.017	0.0166446
611.095	0.0165735
611.173	0.0166574
611.251	0.0163830
611.329	0.0166972
611.407	0.0166892
611.486	0.0165175
611.564	0.0165124
611.642	0.0165582
611.720	0.0166869
611.798	0.0166454
611.876	0.0166186
611.954	0.0166738
612.032	0.0166318
612.111	0.0165801
612.189	0.0164996
612.267	0.0165710
612.345	0.0165541
612.423	0.0166042
612.501	0.0167293
612.579	0.0165169
612.657	0.0166024
612.736	0.0166688
612.814	0.0165729
612.892	0.0166509
612.970	0.0165730
613.048	0.0165211
613.126	0.0166190
613.204	0.0166374
613.282	0.0164545
613.361	0.0164233
613.439	0.0166637
613.517	0.0166996
613.595	0.0164509
613.673	0.0163429
613.751	0.0165080
613.829	0.0166565
613.907	0.0166281
613.986	0.0165524
614.064	0.0165300
614.142	0.0165513
614.220	0.0165457
614.298	0.0165567
614.376	0.0164605
614.454	0.0166580
614.532	0.0165161
614.611	0.0167083
614.689	0.0165025
614.767	0.0166121
614.845	0.0166170
614.923	0.0165086
615.001	0.0165401
615.079	0.0165459
615.157	0.0165939
615.236	0.0166232
615.314	0.0166172
615.392	0.0165684
615.470	0.0166312
615.548	0.0165981
615.626	0.0166286
615.704	0.0166052
615.782	0.0165372
615.861	0.0165617
615.939	0.0166027
616.017	0.0166068
616.095	0.0164734
616.173	0.0166609
616.251	0.0165969
616.329	0.0165399
616.407	0.0166580
616.486	0.0165797
616.564	0.0165843
616.642	0.0165429
616.720	0.0166122
616.798	0.0164864
616.876	0.0166216
616.954	0.0166843
617.032	0.0166608
617.111	0.0165921
617.189	0.0165228
617.267	0.0165746
617.345	0.0165003
617.423	0.0166685
617.501	0.0167052
617.579	0.0166544
617.657	0.0164832
617.736	0.0164699
617.814	0.0165591
617.892	0.0165569
617.970	0.0166644
618.048	0.0165235
618.126	0.0165629
618.204	0.0165037
618.282	0.0166181
618.361	0.0165221
618.439	0.0165573
618.517	0.0165135
618.595	0.0165791
618.673	0.0164742
618.751	0.0166105
618.829	0.0165640
618.907	0.0166037
618.986	0.0167411
619.064	0.0166025
619.142	0.0166428
619.220	0.0166551
619.298	0.0166743
619.376	0.0164716
619.454	0.0165339
619.532	0.0165842
619.611	0.0165836
619.689	0.0165379
619.767	0.0166510
619.845	0.0165691
619.923	0.0166472
620.001	0.0165759
620.079	0.0166006
620.157	0.0165076
620.236	0.0165798
620.314	0.0165334
620.392	0.0165840
620.470	0.0165557
620.548	0.0166821
620.626	0.0167025
620.704	0.0166707
620.782	0.0166304
620.861	0.0164764
620.939	0.0166091
621.017	0.0167094
621.095	0.0166000
621.173	0.0164138
621.251	0.0165986
621.329	0.0165704
621.407	0.0166031
621.486	0.0165334
621.564	0.0167168
621.642	0.0165663
621.720	0.0165852
621.798	0.0166157
621.876	0.0166805
621.954	0.0165266
622.032	0.0165743
622.111	0.0165763
622.189	0.0165758
622.267	0.0166914
622.345	0.0165495
622.423	0.0166818
622.501	0.0165244
622.579	0.0165866
622.657	0.0166624
622.736	0.0166785
622.814	0.0165887
622.892	0.0165486
622.970	0.0166032
623.048	0.0166157
623.126	0.0165133
623.204	0.0165694
623.282	0.0165615
623.361	0.0166394
623.439	0.0164796
623.517	0.0165781
623.595	0.0165707
623.673	0.0164913
623.751	0.0166216
623.829	0.0167298
623.907	0.0166363
623.986	0.0164857
624.064	0.0165232
624.142	0.0166111
624.220	0.0166821
624.298	0.0165336
624.376	0.0164443
624.454	0.0165353
624.532	0.0167360
624.611	0.0166283
624.689	0.0166857
624.767	0.0165505
624.845	0.0166489
624.923	0.0166925
625.001	0.0165079
625.079	0.0166212
625.157	0.0166319
625.236	0.0166674
625.314	0.0165150
625.392	0.0166427
625.470	0.0167042
625.548	0.0166417
625.626	0.0165911
625.704	0.0166401
625.782	0.0166882
625.861	0.0166448
625.939	0.0165832
626.017	0.0165848
626.095	0.0165239
626.173	0.0166328
626.251	0.0165788
626.329	0.0165463
626.407	0.0165044
626.486	0.0166267
626.564	0.0166138
626.642	0.0167591
626.720	0.0165534
626.798	0.0165054
626.876	0.0166324
626.954	0.0165975
627.032	0.0166774
627.111	0.0166644
627.189	0.0165477
627.267	0.0166824
627.345	0.0166090
627.423	0.0166093
627.501	0.0165099
627.579	0.0166066
627.657	0.0166912
627.736	0.0165815
627.814	0.0164339
627.892	0.0164131
627.970	0.0166287
628.048	0.0166647
628.126	0.0165300
628.204	0.0166231
628.282	0.0167080
628.361	0.0166246
628.439	0.0164352
628.517	0.0166306
628.595	0.0165572
628.673	0.0165924
628.751	0.0166183
628.829	0.0164539
628.907	0.0166743
628.986	0.0165889
629.064	0.0165948
629.142	0.0164742
629.220	0.0164523
629.298	0.0164622
629.376	0.0165811
629.454	0.0165563
629.532	0.0166064
629.611	0.0164281
629.689	0.0164635
629.767	0.0164749
629.845	0.0166132
629.923	0.0165928
630.001	0.0165076
630.079	0.0166051
630.157	0.0165723
630.236	0.0165422
630.314	0.0164523
630.392	0.0164794
630.470	0.0166135
630.548	0.0166128
630.626	0.0166386
630.704	0.0166370
630.782	0.0165325
630.861	0.0165255
630.939	0.0165551
631.017	0.0165484
631.095	0.0165725
631.173	0.0165268
631.251	0.0164984
631.329	0.0165266
631.407	0.0165053
631.486	0.0164466
631.564	0.0165659
631.642	0.0165154
631.720	0.0165465
631.798	0.0164954
631.876	0.0166218
631.954	0.0165246
632.032	0.0166314
632.111	0.0164456
632.189	0.0164993
632.267	0.0166965
632.345	0.0165923
632.423	0.0165455
632.501	0.0166901
632.579	0.0166641
632.657	0.0164304
632.736	0.0164629
632.814	0.0166885
632.892	0.0165681
632.970	0.0165353
633.048	0.0165361
633.126	0.0166436
633.204	0.0166776
633.282	0.0164887
633.361	0.0164692
633.439	0.0166390
633.517	0.0166306
633.595	0.0165152
633.673	0.0163390
633.751	0.0167067
633.829	0.0166699
633.907	0.0167185
633.986	0.0165727
634.064	0.0167013
634.142	0.0166006
634.220	0.0166245
634.298	0.0165691
634.376	0.0165672
634.454	0.0165874
634.532	0.0164069
634.611	0.0164282
634.689	0.0165978
634.767	0.0165813
634.845	0.0166319
634.923	0.0166155
635.001	0.0165632
635.079	0.0165157
635.157	0.0165916
635.236	0.0166741
635.314	0.0166273
635.392	0.0166900
635.470	0.0166181
635.548	0.0165099
635.626	0.0166022
635.704	0.0166483
635.782	0.0165946
635.861	0.0166177
635.939	0.0165240
636.017	0.0165344
636.095	0.0166060
636.173	0.0164428
636.251	0.0165175
636.329	0.0166145
636.407	0.0165704
636.486	0.0165847
636.564	0.0167439
636.642	0.0166695
636.720	0.0166055
636.798	0.0166267
636.876	0.0165842
636.954	0.0165987
637.032	0.0166176
637.111	0.0165582
637.189	0.0165603
637.267	0.0165598
637.345	0.0165813
637.423	0.0165816
637.501	0.0165530
637.579	0.0165473
637.657	0.0164830
637.736	0.0165752
637.814	0.0166126
637.892	0.0165380
637.970	0.0166093
638.048	0.0167508
638.126	0.0165762
638.204	0.0165149
638.282	0.0166252
638.361	0.0165567
638.439	0.0165208
638.517	0.0166563
638.595	0.0166275
638.673	0.0166129
638.751	0.0166158
638.829	0.0165269
638.907	0.0165403
638.986	0.0164634
639.064	0.0165752
639.142	0.0165689
639.220	0.0165594
639.298	0.0165550
639.376	0.0165628
639.454	0.0165659
639.532	0.0166398
639.611	0.0166910
639.689	0.0165273
639.767	0.0166179
639.845	0.0167638
639.923	0.0165620
640.001	0.0165203
640.079	0.0166899
640.157	0.0165528
640.236	0.0164387
640.314	0.0165811
640.392	0.0166881
640.470	0.0165396
640.548	0.0165035
640.626	0.0166560
640.704	0.0166261
640.782	0.0164758
640.861	0.0165361
640.939	0.0166567
641.017	0.0165456
641.095	0.0165787
641.173	0.0165783
641.251	0.0165928
641.329	0.0165829
641.407	0.0166422
641.486	0.0166425
641.564	0.0165891
641.642	0.0165121
641.720	0.0166703
641.798	0.0166259
641.876	0.0164759
641.954	0.0163538
642.032	0.0165455
642.111	0.0166179
642.189	0.0165771
642.267	0.0166303
642.345	0.0165128
642.423	0.0166060
642.501	0.0166103
642.579	0.0165416
642.657	0.0165661
642.736	0.0166348
642.814	0.0166881
642.892	0.0165707
642.970	0.0165159
643.048	0.0165630
643.126	0.0166061
643.204	0.0165195
643.282	0.0165489
643.361	0.0166154
643.439	0.0165155
643.517	0.0165935
643.595	0.0165518
643.673	0.0166055
643.751	0.0165788
643.829	0.0165159
643.907	0.0166094
643.986	0.0166214
644.064	0.0166309
644.142	0.0165592
644.220	0.0165665
644.298	0.0165086
644.376	0.0165397
644.454	0.0166408
644.532	0.0164872
644.611	0.0165411
644.689	0.0165577
644.767	0.0165749
644.845	0.0165665
644.923	0.0165441
645.001	0.0164349
645.079	0.0167076
645.157	0.0166142
645.236	0.0165442
645.314	0.0164758
645.392	0.0164415
645.470	0.0165363
645.548	0.0165621
645.626	0.0164653
645.704	0.0164250
645.782	0.0165022
645.861	0.0165756
645.939	0.0166847
646.017	0.0166642
646.095	0.0165858
646.173	0.0165609
646.251	0.0165199
646.329	0.0165251
646.407	0.0166469
646.486	0.0166285
646.564	0.0166369
646.642	0.0166090
646.720	0.0166101
646.798	0.0165513
646.876	0.0165662
646.954	0.0166389
647.032	0.0164910
647.111	0.0166104
647.189	0.0165652
647.267	0.0165254
647.345	0.0165614
647.423	0.0165600
647.501	0.0165400
647.579	0.0167149
647.657	0.0165800
647.736	0.0166016
647.814	0.0165320
647.892	0.0166290
647.970	0.0165945
648.048	0.0166293
648.126	0.0165858
648.204	0.0166632
648.282	0.0165511
648.361	0.0164687
648.439	0.0165677
648.517	0.0167262
648.595	0.0165009
648.673	0.0165090
648.751	0.0165914
648.829	0.0164864
648.907	0.0164960
648.986	0.0164691
649.064	0.0166445
649.142	0.0166589
649.220	0.0164749
649.298	0.0165057
649.376	0.0164312
649.454	0.0165840
649.532	0.0165704
649.611	0.0166166
649.689	0.0164551
649.767	0.0164148
649.845	0.0164213
649.923	0.0167600
650.001	0.0166100
650.079	0.0165299
650.157	0.0165581
650.236	0.0166425
650.314	0.0165070
650.392	0.0165534
650.470	0.0165951
650.548	0.0166024
650.626	0.0165091
650.704	0.0165972
650.782	0.0165878
650.861	0.0165292
650.939	0.0166398
651.017	0.0166797
651.095	0.0165379
651.173	0.0165443
651.251	0.0165802
651.329	0.0165368
651.407	0.0165694
651.486	0.0166580
651.564	0.0166603
651.642	0.0165280
651.720	0.0166062
651.798	0.0166696
651.876	0.0166961
651.954	0.0165537
652.032	0.0164467
652.111	0.0165110
652.189	0.0166337
652.267	0.0166164
652.345	0.0166179
652.423	0.0166242
652.501	0.0165813
652.579	0.0166124
652.657	0.0165888
652.736	0.0166554
652.814	0.0166066
652.892	0.0166380
652.970	0.0166142
653.048	0.0165549
653.126	0.0165448
653.204	0.0166419
653.282	0.0164854
653.361	0.0165371
653.439	0.0166479
653.517	0.0165660
653.595	0.0167461
653.673	0.0166539
653.751	0.0164106
653.829	0.0164647
653.907	0.0166320
653.986	0.0166652
654.064	0.0165833
654.142	0.0165102
654.220	0.0165816
654.298	0.0165843
654.376	0.0166173
654.454	0.0165797
654.532	0.0166106
654.611	0.0165170
654.689	0.0165024
654.767	0.0166731
654.845	0.0166286
654.923	0.0165774
655.001	0.0165884
655.079	0.0165145
655.157	0.0165591
655.236	0.0166116
655.314	0.0166183
655.392	0.0165071
655.470	0.0164108
655.548	0.0165259
655.626	0.0164064
655.704	0.0164621
655.782	0.0164693
655.861	0.0165775
655.939	0.0164397
656.017	0.0164881
656.095	0.0166470
656.173	0.0165159
656.251	0.0164893
656.329	0.0165454
656.407	0.0165760
656.486	0.0165371
656.564	0.0165091
656.642	0.0165428
656.720	0.0166294
656.798	0.0166727
656.876	0.0165823
656.954	0.0165751
657.032	0.0165297
657.111	0.0165879
657.189	0.0166019
657.267	0.0166714
657.345	0.0165804
657.423	0.0165495
657.501	0.0166209
657.579	0.0165622
657.657	0.0166148
657.736	0.0166140
657.814	0.0164605
657.892	0.0166083
657.970	0.0166338
658.048	0.0167270
658.126	0.0165650
658.204	0.0166181
658.282	0.0165803
658.361	0.0166400
658.439	0.0165491
658.517	0.0165084
658.595	0.0165739
658.673	0.0165816
658.751	0.0165737
658.829	0.0164780
658.907	0.0164964
658.986	0.0165475
659.064	0.0165372
659.142	0.0165666
659.220	0.0165915
659.298	0.0165675
659.376	0.0166508
659.454	0.0164960
659.532	0.0166386
659.611	0.0165725
659.689	0.0166518
659.767	0.0166560
659.845	0.0166034
659.923	0.0166197
660.001	0.0165916
660.079	0.0165529
660.157	0.0165481
660.236	0.0166588
660.314	0.0166165
660.392	0.0165247
660.470	0.0165971
660.548	0.0165903
660.626	0.0165567
660.704	0.0166032
660.782	0.0166910
660.861	0.0166267
660.939	0.0166039
661.017	0.0165442
661.095	0.0165433
661.173	0.0166013
661.251	0.0167852
661.329	0.0165497
661.407	0.0165520
661.486	0.0166509
661.564	0.0164925
661.642	0.0164758
661.720	0.0166048
661.798	0.0166054
661.876	0.0166154
661.954	0.0166511
662.032	0.0165794
662.111	0.0165208
662.189	0.0167309
662.267	0.0166219
662.345	0.0164462
662.423	0.0165561
662.501	0.0167087
662.579	0.0166730
662.657	0.0165876
662.736	0.0165283
662.814	0.0166035
662.892	0.0165781
662.970	0.0167041
663.048	0.0166676
663.126	0.0166103
663.204	0.0165701
663.282	0.0165162
663.361	0.0166094
663.439	0.0165839
663.517	0.0166288
663.595	0.0165211
663.673	0.0165257
663.751	0.0165038
663.829	0.0163932
663.907	0.0163928
663.986	0.0166647
664.064	0.0166071
664.142	0.0166626
664.220	0.0167094
664.298	0.0166484
664.376	0.0165303
664.454	0.0164844
664.532	0.0165148
664.611	0.0166086
664.689	0.0166123
664.767	0.0165292
664.845	0.0166344
664.923	0.0166261
665.001	0.0167017
665.079	0.0165605
665.157	0.0166712
665.236	0.0165808
665.314	0.0166556
665.392	0.0165677
665.470	0.0165533
665.548	0.0165678
665.626	0.0166810
665.704	0.0166230
665.782	0.0165824
665.861	0.0165196
665.939	0.0167177
666.017	0.0165730
666.095	0.0165450
666.173	0.0164954
666.251	0.0166939
666.329	0.0165117
666.407	0.0165876
666.486	0.0165320
666.564	0.0164394
666.642	0.0164499
666.720	0.0165058
666.798	0.0164897
666.876	0.0165965
666.954	0.0166980
667.032	0.0166091
667.111	0.0166104
667.189	0.0165781
667.267	0.0165016
667.345	0.0167176
667.423	0.0166780
667.501	0.0165744
667.579	0.0166329
667.657	0.0165593
667.736	0.0165961
667.814	0.0165683
667.892	0.0166415
667.970	0.0166248
668.048	0.0165430
668.126	0.0165458
668.204	0.0164862
668.282	0.0165053
668.361	0.0165912
668.439	0.0165515
668.517	0.0165723
668.595	0.0165166
668.673	0.0165289
668.751	0.0166714
668.829	0.0166602
668.907	0.0166967
668.986	0.0166148
669.064	0.0166722
669.142	0.0166533
669.220	0.0166867
669.298	0.0165923
669.376	0.0165148
669.454	0.0166586
669.532	0.0165472
669.611	0.0166550
669.689	0.0166098
669.767	0.0166264
669.845	0.0166151
669.923	0.0165818
670.001	0.0166183
670.079	0.0166210
670.157	0.0166406
670.236	0.0166473
670.314	0.0165639
670.392	0.0165720
670.470	0.0166460
670.548	0.0165524
670.626	0.0165491
670.704	0.0166640
670.782	0.0165816
670.861	0.0167322
670.939	0.0165212
671.017	0.0165775
671.095	0.0166315
671.173	0.0166952
671.251	0.0165287
671.329	0.0165682
671.407	0.0166454
671.486	0.0165606
671.564	0.0166410
671.642	0.0165658
671.720	0.0166246
671.798	0.0165667
671.876	0.0165764
671.954	0.0165661
672.032	0.0165514
672.111	0.0165148
672.189	0.0165285
672.267	0.0166151
672.345	0.0166484
672.423	0.0166170
672.501	0.0166030
672.579	0.0166240
672.657	0.0167082
672.736	0.0166113
672.814	0.0166000
672.892	0.0165755
672.970	0.0165468
673.048	0.0167340
673.126	0.0165825
673.204	0.0166028
673.282	0.0164997
673.361	0.0166325
673.439	0.0166733
673.517	0.0165115
673.595	0.0165413
673.673	0.0167322
673.751	0.0166027
673.829	0.0165781
673.907	0.0165657
673.986	0.0165703
674.064	0.0165767
674.142	0.0167154
674.220	0.0165850
674.298	0.0166228
674.376	0.0165944
674.454	0.0163789
674.532	0.0166238
674.611	0.0166539
674.689	0.0165750
674.767	0.0164639
674.845	0.0164214
674.923	0.0165362
675.001	0.0165557
675.079	0.0165139
675.157	0.0165044
675.236	0.0165018
675.314	0.0163512
675.392	0.0166243
675.470	0.0166126
675.548	0.0164610
675.626	0.0166228
675.704	0.0167142
675.782	0.0164491
675.861	0.0165686
675.939	0.0165911
676.017	0.0165131
676.095	0.0166084
676.173	0.0164837
676.251	0.0166706
676.329	0.0166315
676.407	0.0165284
676.486	0.0165512
676.564	0.0166605
676.642	0.0164995
676.720	0.0165358
676.798	0.0165125
676.876	0.0165388
676.954	0.0167176
677.032	0.0166504
677.111	0.0165467
677.189	0.0165338
677.267	0.0167219
677.345	0.0167049
677.423	0.0166383
677.501	0.0165772
677.579	0.0166354
677.657	0.0167369
677.736	0.0165645
677.814	0.0167160
677.892	0.0165892
677.970	0.0166760
678.048	0.0167807
678.126	0.0166795
678.204	0.0165655
678.282	0.0164917
678.361	0.0165327
678.439	0.0165961
678.517	0.0166875
678.595	0.0166959
678.673	0.0165712
678.751	0.0164838
678.829	0.0167190
678.907	0.0168410
678.986	0.0165774
679.064	0.0165903
679.142	0.0166570
679.220	0.0166799
679.298	0.0165186
679.376	0.0165883
679.454	0.0167960
679.532	0.0165392
679.611	0.0167474
679.689	0.0165740
679.767	0.0165200
679.845	0.0166059
679.923	0.0166945
680.001	0.0166418
680.079	0.0165981
680.157	0.0166774
680.236	0.0165207
680.314	0.0165462
680.392	0.0165806
680.470	0.0165082
680.548	0.0166764
680.626	0.0166473
680.704	0.0166843
680.782	0.0167096
680.861	0.0166991
680.939	0.0164455
681.017	0.0166759
681.095	0.0166878
681.173	0.0165539
681.251	0.0165602
681.329	0.0165201
681.407	0.0166818
681.486	0.0165501
681.564	0.0166542
681.642	0.0166134
681.720	0.0166263
681.798	0.0167030
681.876	0.0166643
681.954	0.0166723
682.032	0.0165734
682.111	0.0165524
682.189	0.0167071
682.267	0.0166067
682.345	0.0167281
682.423	0.0165681
682.501	0.0164734
682.579	0.0167129
682.657	0.0166321
682.736	0.0165302
682.814	0.0165993
682.892	0.0166550
682.970	0.0166724
683.048	0.0167074
683.126	0.0166315
683.204	0.0164615
683.282	0.0165331
683.361	0.0166358
683.439	0.0165607
683.517	0.0166206
683.595	0.0166908
683.673	0.0165228
683.751	0.0166243
683.829	0.0164613
683.907	0.0164811
683.986	0.0165803
684.064	0.0166240
684.142	0.0166711
684.220	0.0164700
684.298	0.0167000
684.376	0.0163937
684.454	0.0165853
684.532	0.0165871
684.611	0.0166842
684.689	0.0166810
684.767	0.0165733
684.845	0.0166228
684.923	0.0166325
685.001	0.0165187
685.079	0.0165154
685.157	0.0165928
685.236	0.0166344
685.314	0.0165951
685.392	0.0167520
685.470	0.0164996
685.548	0.0165791
685.626	0.0166183
685.704	0.0165859
685.782	0.0165883
685.861	0.0165903
685.939	0.0165084
686.017	0.0165839
686.095	0.0165913
686.173	0.0166764
686.251	0.0164451
686.329	0.0166557
686.407	0.0164361
686.486	0.0165868
686.564	0.0166526
686.642	0.0165488
686.720	0.0166626
686.798	0.0165689
686.876	0.0166364
686.954	0.0166491
687.032	0.0165898
687.111	0.0165245
687.189	0.0165312
687.267	0.0165375
687.345	0.0164858
687.423	0.0164988
687.501	0.0165981
687.579	0.0166807
687.657	0.0166459
687.736	0.0166145
687.814	0.0166047
687.892	0.0166653
687.970	0.0165509
688.048	0.0166002
688.126	0.0166319
688.204	0.0166529
688.282	0.0164210
688.361	0.0164009
688.439	0.0164295
688.517	0.0165292
688.595	0.0164383
688.673	0.0165044
688.751	0.0164803
688.829	0.0164962
688.907	0.0165518
688.986	0.0167373
689.064	0.0167405
689.142	0.0166607
689.220	0.0167738
689.298	0.0166136
689.376	0.0167301
689.454	0.0166656
689.532	0.0167740
689.611	0.0166890
689.689	0.0167365
689.767	0.0167726
689.845	0.0166856
689.923	0.0165548
690.001	0.0166192
690.079	0.0166239
690.157	0.0164936
690.236	0.0166319
690.314	0.0165809
690.392	0.0164938
690.470	0.0165897
690.548	0.0167167
690.626	0.0166254
690.704	0.0165539
690.782	0.0165855
690.861	0.0164745
690.939	0.0164979
691.017	0.0165832
691.095	0.0165618
691.173	0.0166782
691.251	0.0167510
691.329	0.0165733
691.407	0.0166098
691.486	0.0167360
691.564	0.0166496
691.642	0.0166036
691.720	0.0165530
691.798	0.0167359
691.876	0.0166901
691.954	0.0166740
692.032	0.0168487
692.111	0.0167834
692.189	0.0167323
692.267	0.0167299
692.345	0.0167190
692.423	0.0166531
692.501	0.0167005
692.579	0.0167194
692.657	0.0166422
692.736	0.0165120
692.814	0.0166377
692.892	0.0163978
692.970	0.0164510
693.048	0.0164590
693.126	0.0164699
693.204	0.0165693
693.282	0.0163467
693.361	0.0164127
693.439	0.0165625
693.517	0.0164371
693.595	0.0165163
693.673	0.0166719
693.751	0.0166844
693.829	0.0166087
693.907	0.0166491
693.986	0.0165358
694.064	0.0165422
694.142	0.0166708
694.220	0.0166931
694.298	0.0168535
694.376	0.0166357
694.454	0.0165089
694.532	0.0167173
694.611	0.0167668
694.689	0.0167002
694.767	0.0166685
694.845	0.0165372
694.923	0.0166505
695.001	0.0167256
695.079	0.0166483
695.157	0.0167023
695.236	0.0166529
695.314	0.0165390
695.392	0.0165970
695.470	0.0168237
695.548	0.0166695
695.626	0.0164890
695.704	0.0166130
695.782	0.0165955
695.861	0.0165685
695.939	0.0164367
696.017	0.0165371
696.095	0.0164771
696.173	0.0165199
696.251	0.0164395
696.329	0.0165488
696.407	0.0165189
696.486	0.0166161
696.564	0.0166698
696.642	0.0164880
696.720	0.0166784
696.798	0.0167839
696.876	0.0165826
696.954	0.0167339
697.032	0.0166684
697.111	0.0166371
697.189	0.0166577
697.267	0.0165234
697.345	0.0164805
697.423	0.0164966
697.501	0.0164679
697.579	0.0163622
697.657	0.0165505
697.736	0.0164327
697.814	0.0165086
697.892	0.0165570
697.970	0.0166428
698.048	0.0165665
698.126	0.0166837
698.204	0.0166586
698.282	0.0167468
698.361	0.0168504
698.439	0.0167902
698.517	0.0168189
698.595	0.0168290
698.673	0.0168233
698.751	0.0168556
698.829	0.0167303
698.907	0.0168167
698.986	0.0167399
699.064	0.0165193
699.142	0.0165982
699.220	0.0166740
699.298	0.0165318
699.376	0.0165091
699.454	0.0163242
699.532	0.0162996
699.611	0.0163166
699.689	0.0162093
699.767	0.0163005
699.845	0.0163335
699.923	0.0163228
700.001	0.0162907
700.079	0.0162625
700.157	0.0164276
700.236	0.0163708
700.314	0.0164369
700.392	0.0164631
700.470	0.0165417
700.548	0.0164542
700.626	0.0165622
700.704	0.0165874
700.782	0.0165858
700.861	0.0165860
700.939	0.0167205
701.017	0.0166529
701.095	0.0166837
701.173	0.0166921
701.251	0.0166933
701.329	0.0169241
701.407	0.0167138
701.486	0.0169222
701.564	0.0168661
701.642	0.0167809
701.720	0.0168417
701.798	0.0168660
701.876	0.0168868
701.954	0.0167107
702.032	0.0168003
702.111	0.0167649
702.189	0.0166192
702.267	0.0166283
702.345	0.0166882
702.423	0.0166576
702.501	0.0163553
702.579	0.0164510
702.657	0.0163686
702.736	0.0163423
702.814	0.0164256
702.892	0.0165143
702.970	0.0163484
703.048	0.0164143
703.126	0.0164729
703.204	0.0165138
703.282	0.0163883
703.361	0.0164571
703.439	0.0163651
703.517	0.0163250
703.595	0.0163853
703.673	0.0163997
703.751	0.0164366
703.829	0.0165054
703.907	0.0164156
703.986	0.0163647
704.064	0.0164001
704.142	0.0165013
704.220	0.0165533
704.298	0.0165128
704.376	0.0165307
704.454	0.0166560
704.532	0.0166284
704.611	0.0167252
704.689	0.0166488
704.767	0.0167265
704.845	0.0167733
704.923	0.0167136
705.001	0.0168253
705.079	0.0168192
705.157	0.0168629
705.236	0.0168504
705.314	0.0168331
705.392	0.0169886
705.470	0.0169025
705.548	0.0168833
705.626	0.0168416
705.704	0.0168694
705.782	0.0166605
705.861	0.0168074
705.939	0.0168394
706.017	0.0167946
706.095	0.0166744
706.173	0.0167004
706.251	0.0164650
706.329	0.0166134
706.407	0.0166278
706.486	0.0165060
706.564	0.0166443
706.642	0.0166186
706.720	0.0165151
706.798	0.0164386
706.876	0.0165665
706.954	0.0165306
707.032	0.0164970
707.111	0.0164445
707.189	0.0164615
707.267	0.0164090
707.345	0.0164444
707.423	0.0164134
707.501	0.0164957
707.579	0.0164255
707.657	0.0164551
707.736	0.0165208
707.814	0.0166041
707.892	0.0164638
707.970	0.0163957
708.048	0.0163938
708.126	0.0164424
708.204	0.0165369
708.282	0.0164212
708.361	0.0164188
708.439	0.0164491
708.517	0.0164468
708.595	0.0164919
708.673	0.0164516
708.751	0.0165289
708.829	0.0165456
708.907	0.0164651
708.986	0.0163756
709.064	0.0166421
709.142	0.0164344
709.220	0.0165419
709.298	0.0164785
709.376	0.0165723
709.454	0.0166950
709.532	0.0166987
709.611	0.0167684
709.689	0.0166315
709.767	0.0166602
709.845	0.0167941
709.923	0.0167532
710.001	0.0167317
710.079	0.0167654
710.157	0.0166224
710.236	0.0167114
710.314	0.0167137
710.392	0.0167027
710.470	0.0167265
710.548	0.0166854
710.626	0.0166387
710.704	0.0166582
710.782	0.0166850
710.861	0.0165604
710.939	0.0165209
711.017	0.0165515
711.095	0.0166261
711.173	0.0166553
711.251	0.0166434
711.329	0.0166626
711.407	0.0166783
711.486	0.0166106
711.564	0.0167021
711.642	0.0165518
711.720	0.0165800
711.798	0.0165963
711.876	0.0165588
711.954	0.0165616
712.032	0.0165936
712.111	0.0164545
712.189	0.0165992
712.267	0.0165870
712.345	0.0164391
712.423	0.0164500
712.501	0.0164853
712.579	0.0167044
712.657	0.0165461
712.736	0.0165015
712.814	0.0164885
712.892	0.0165743
712.970	0.0166742
713.048	0.0165588
713.126	0.0165601
713.204	0.0166332
713.282	0.0165647
713.361	0.0164825
713.439	0.0165465
713.517	0.0167022
713.595	0.0165655
713.673	0.0165366
713.751	0.0165664
713.829	0.0164424
713.907	0.0164619
713.986	0.0165022
714.064	0.0165045
714.142	0.0164500
714.220	0.0165172
714.298	0.0165810
714.376	0.0165260
714.454	0.0165462
714.532	0.0165826
714.611	0.0165795
714.689	0.0165383
714.767	0.0166291
714.845	0.0167117
714.923	0.0165806
715.001	0.0165823
715.079	0.0166782
715.157	0.0167459
715.236	0.0166408
715.314	0.0167470
715.392	0.0164821
715.470	0.0166663
715.548	0.0167408
715.626	0.0166877
715.704	0.0167464
715.782	0.0167545
715.861	0.0166277
715.939	0.0166746
716.017	0.0167093
716.095	0.0166180
716.173	0.0165210
716.251	0.0165257
716.329	0.0165567
716.407	0.0163897
716.486	0.0163566
716.564	0.0165675
716.642	0.0165409
716.720	0.0163426
716.798	0.0165166
716.876	0.0165508
716.954	0.0166195
717.032	0.0164899
717.111	0.0165098
717.189	0.0165056
717.267	0.0163995
717.345	0.0164654
717.423	0.0165430
717.501	0.0165390
717.579	0.0163898
717.657	0.0165179
717.736	0.0163535
717.814	0.0165558
717.892	0.0164303
717.970	0.0164609
718.048	0.0166057
718.126	0.0165685
718.204	0.0164655
718.282	0.0164213
718.361	0.0165778
718.439	0.0165277
718.517	0.0163737
718.595	0.0167288
718.673	0.0166215
718.751	0.0166327
718.829	0.0165194
718.907	0.0166494
718.986	0.0166943
719.064	0.0167750
719.142	0.0166663
719.220	0.0166924
719.298	0.0167287
719.376	0.0168301
719.454	0.0168053
719.532	0.0168818
719.611	0.0169637
719.689	0.0167426
719.767	0.0167670
719.845	0.0169029
719.923	0.0167924
720.001	0.0166782
720.079	0.0167085
720.157	0.0167941
720.236	0.0166529
720.314	0.0166687
720.392	0.0167096
720.470	0.0166355
720.548	0.0165990
720.626	0.0165775
720.704	0.0165150
720.782	0.0165894
720.861	0.0166151
720.939	0.0164761
721.017	0.0165218
721.095	0.0166625
721.173	0.0164499
721.251	0.0165297
721.329	0.0166277
721.407	0.0166292
721.486	0.0164429
721.564	0.0165646
721.642	0.0164990
721.720	0.0163833
721.798	0.0165012
721.876	0.0165483
721.954	0.0164158
722.032	0.0164597
722.111	0.0165196
722.189	0.0165669
722.267	0.0166294
722.345	0.0164935
722.423	0.0165313
722.501	0.0164876
722.579	0.0166083
722.657	0.0165545
722.736	0.0164838
722.814	0.0164815
722.892	0.0165089
722.970	0.0166183
723.048	0.0166779
723.126	0.0166495
723.204	0.0165544
723.282	0.0166740
723.361	0.0165726
723.439	0.0164728
723.517	0.0165071
723.595	0.0166597
723.673	0.0165658
723.751	0.0165986
723.829	0.0165352
723.907	0.0166244
723.986	0.0165211
724.064	0.0165527
724.142	0.0166222
724.220	0.0166348
724.298	0.0165117
724.376	0.0166311
724.454	0.0165811
724.532	0.0167004
724.611	0.0166601
724.689	0.0165686
724.767	0.0165879
724.845	0.0166692
724.923	0.0165931
725.001	0.0166013
725.079	0.0166368
725.157	0.0166087
725.236	0.0166216
725.314	0.0165725
725.392	0.0167371
725.470	0.0167377
725.548	0.0165047
725.626	0.0166703
725.704	0.0168429
725.782	0.0167712
725.861	0.0165814
725.939	0.0166116
726.017	0.0165849
726.095	0.0167201
726.173	0.0167151
726.251	0.0165637
726.329	0.0164512
726.407	0.0165775
726.486	0.0166972
726.564	0.0165881
726.642	0.0165732
726.720	0.0165081
726.798	0.0165611
726.876	0.0165250
726.954	0.0166171
727.032	0.0165658
727.111	0.0165546
727.189	0.0165712
727.267	0.0165398
727.345	0.0165642
727.423	0.0166246
727.501	0.0166647
727.579	0.0166496
727.657	0.0167573
727.736	0.0165036
727.814	0.0165001
727.892	0.0164243
727.970	0.0165043
728.048	0.0165760
728.126	0.0164712
728.204	0.0165279
728.282	0.0163599
728.361	0.0163486
728.439	0.0164899
728.517	0.0165110
728.595	0.0165109
728.673	0.0165799
728.751	0.0166347
728.829	0.0165101
728.907	0.0166911
728.986	0.0167042
729.064	0.0167220
729.142	0.0166793
729.220	0.0167734
729.298	0.0167816
729.376	0.0167895
729.454	0.0167157
729.532	0.0166964
729.611	0.0166402
729.689	0.0166814
729.767	0.0167174
729.845	0.0165736
729.923	0.0166775
730.001	0.0166056
730.079	0.0167272
730.157	0.0165998
730.236	0.0165189
730.314	0.0167142
730.392	0.0166576
730.470	0.0166245
730.548	0.0166459
730.626	0.0167098
730.704	0.0166520
730.782	0.0166637
730.861	0.0165760
730.939	0.0167301
731.017	0.0167055
731.095	0.0166285
731.173	0.0166550
731.251	0.0167020
731.329	0.0167428
731.407	0.0166751
731.486	0.0166248
731.564	0.0166759
731.642	0.0165468
731.720	0.0165977
731.798	0.0166155
731.876	0.0165384
731.954	0.0164659
732.032	0.0167130
732.111	0.0165781
732.189	0.0164410
732.267	0.0165173
732.345	0.0164673
732.423	0.0164205
732.501	0.0167536
732.579	0.0166508
732.657	0.0167430
732.736	0.0165251
732.814	0.0165026
732.892	0.0165827
732.970	0.0164876
733.048	0.0165007
733.126	0.0166670
733.204	0.0164902
733.282	0.0165923
733.361	0.0166779
733.439	0.0166144
733.517	0.0166569
733.595	0.0167244
733.673	0.0165456
733.751	0.0165691
733.829	0.0167020
733.907	0.0166757
733.986	0.0166359
734.064	0.0165783
734.142	0.0168034
734.220	0.0167081
734.298	0.0165438
734.376	0.0167245
734.454	0.0165422
734.532	0.0164091
734.611	0.0165377
734.689	0.0165110
734.767	0.0166435
734.845	0.0165720
734.923	0.0166767
735.001	0.0166549
735.079	0.0167331
735.157	0.0165206
735.236	0.0167135
735.314	0.0165379
735.392	0.0165738
735.470	0.0165757
735.548	0.0164473
735.626	0.0164873
735.704	0.0164876
735.782	0.0165510
735.861	0.0165971
735.939	0.0164758
736.017	0.0165211
736.095	0.0165536
736.173	0.0163875
736.251	0.0166115
736.329	0.0166840
736.407	0.0165295
736.486	0.0165218
736.564	0.0165310
736.642	0.0166470
736.720	0.0165710
736.798	0.0166070
736.876	0.0165939
736.954	0.0165832
737.032	0.0165471
737.111	0.0165503
737.189	0.0165586
737.267	0.0166930
737.345	0.0164997
737.423	0.0165886
737.501	0.0166322
737.579	0.0166210
737.657	0.0166407
737.736	0.0166564
737.814	0.0166318
737.892	0.0166030
737.970	0.0166891
738.048	0.0166536
738.126	0.0165916
738.204	0.0167039
738.282	0.0166180
738.361	0.0164571
738.439	0.0165891
738.517	0.0167353
738.595	0.0165730
738.673	0.0166589
738.751	0.0166457
738.829	0.0165885
738.907	0.0165939
738.986	0.0165953
739.064	0.0166999
739.142	0.0165438
739.220	0.0166498
739.298	0.0165636
739.376	0.0164808
739.454	0.0165961
739.532	0.0166298
739.611	0.0165627
739.689	0.0165732
739.767	0.0166875
739.845	0.0165546
739.923	0.0164317
740.001	0.0165765
740.079	0.0166484
740.157	0.0165485
740.236	0.0164993
740.314	0.0165738
740.392	0.0165419
740.470	0.0166770
740.548	0.0165937
740.626	0.0165263
740.704	0.0165005
740.782	0.0166216
740.861	0.0166264
740.939	0.0167184
741.017	0.0167015
741.095	0.0166541
741.173	0.0165437
741.251	0.0166469
741.329	0.0166257
741.407	0.0167493
741.486	0.0166373
741.564	0.0166692
741.642	0.0165981
741.720	0.0165729
741.798	0.0166048
741.876	0.0166138
741.954	0.0165376
742.032	0.0165091
742.111	0.0163736
742.189	0.0165345
742.267	0.0165524
742.345	0.0166546
742.423	0.0165824
742.501	0.0163789
742.579	0.0164843
742.657	0.0164323
742.736	0.0165828
742.814	0.0167302
742.892	0.0166338
742.970	0.0163500
743.048	0.0164872
743.126	0.0165060
743.204	0.0166830
743.282	0.0165358
743.361	0.0164041
743.439	0.0164427
743.517	0.0165082
743.595	0.0163955
743.673	0.0165806
743.751	0.0164507
743.829	0.0165597
743.907	0.0164913
743.986	0.0164845
744.064	0.0165907
744.142	0.0166207
744.220	0.0163847
744.298	0.0166073
744.376	0.0165280
744.454	0.0166237
744.532	0.0167216
744.611	0.0165986
744.689	0.0167697
744.767	0.0167654
744.845	0.0166112
744.923	0.0165919
745.001	0.0165323
745.079	0.0165330
745.157	0.0165753
745.236	0.0166655
745.314	0.0168123
745.392	0.0165210
745.470	0.0167572
745.548	0.0165800
745.626	0.0166054
745.704	0.0167294
745.782	0.0165255
745.861	0.0164627
745.939	0.0165119
746.017	0.0166223
746.095	0.0165448
746.173	0.0165150
746.251	0.0164779
746.329	0.0163489
746.407	0.0164889
746.486	0.0164752
746.564	0.0164586
746.642	0.0164828
746.720	0.0164327
746.798	0.0164494
746.876	0.0164099
746.954	0.0163898
747.032	0.0165166
747.111	0.0164449
747.189	0.0164603
747.267	0.0164846
747.345	0.0163477
747.423	0.0164927
747.501	0.0163480
747.579	0.0164527
747.657	0.0166180
747.736	0.0165194
747.814	0.0166046
747.892	0.0166315
747.970	0.0167052
748.048	0.0167022
748.126	0.0165713
748.204	0.0165482
748.282	0.0165700
748.361	0.0166079
748.439	0.0165967
748.517	0.0165382
748.595	0.0166098
748.673	0.0166567
748.751	0.0165952
748.829	0.0165936
748.907	0.0165430
748.986	0.0165405
749.064	0.0167519
749.142	0.0165699
749.220	0.0167085
749.298	0.0166389
749.376	0.0165676
749.454	0.0166114
749.532	0.0165844
749.611	0.0166279
749.689	0.0166589
749.767	0.0167178
749.845	0.0166512
749.923	0.0167145
750.001	0.0165879
750.079	0.0165042
750.157	0.0166197
750.236	0.0166695
750.314	0.0166860
750.392	0.0165474
750.470	0.0166189
750.548	0.0166727
750.626	0.0166236
750.704	0.0165851
750.782	0.0165034
750.861	0.0164884
750.939	0.0165681
751.017	0.0165979
751.095	0.0165334
751.173	0.0166238
751.251	0.0166430
751.329	0.0164191
751.407	0.0166579
751.486	0.0166212
751.564	0.0166000
751.642	0.0165947
751.720	0.0165296
751.798	0.0165708
751.876	0.0166811
751.954	0.0165160
752.032	0.0164812
752.111	0.0165760
752.189	0.0165383
752.267	0.0166367
752.345	0.0166106
752.423	0.0165627
752.501	0.0165993
752.579	0.0165102
752.657	0.0164385
752.736	0.0165839
752.814	0.0164660
752.892	0.0165854
752.970	0.0165198
753.048	0.0164342
753.126	0.0164881
753.204	0.0164575
753.282	0.0165821
753.361	0.0165849
753.439	0.0165746
753.517	0.0166079
753.595	0.0166203
753.673	0.0166349
753.751	0.0165676
753.829	0.0166598
753.907	0.0165874
753.986	0.0165154
754.064	0.0167359
754.142	0.0165605
754.220	0.0165933
754.298	0.0165725
754.376	0.0166434
754.454	0.0167349
754.532	0.0166872
754.611	0.0166352
754.689	0.0168008
754.767	0.0166859
754.845	0.0167957
754.923	0.0166320
755.001	0.0167220
755.079	0.0166785
755.157	0.0166683
755.236	0.0166901
755.314	0.0167226
755.392	0.0167046
755.470	0.0166788
755.548	0.0166448
755.626	0.0166245
755.704	0.0165061
755.782	0.0166284
755.861	0.0165559
755.939	0.0166284
756.017	0.0165004
756.095	0.0164522
756.173	0.0165857
756.251	0.0166524
756.329	0.0165688
756.407	0.0165134
756.486	0.0166316
756.564	0.0166460
756.642	0.0165906
756.720	0.0164619
756.798	0.0167201
756.876	0.0167315
756.954	0.0166228
757.032	0.0166606
757.111	0.0166154
757.189	0.0167390
757.267	0.0166264
757.345	0.0165302
757.423	0.0166259
757.501	0.0166053
757.579	0.0166850
757.657	0.0165741
757.736	0.0165996
757.814	0.0165261
757.892	0.0164899
757.970	0.0165440
758.048	0.0165327
758.126	0.0166032
758.204	0.0165511
758.282	0.0165705
758.361	0.0165409
758.439	0.0165394
758.517	0.0165260
758.595	0.0165691
758.673	0.0165493
758.751	0.0164837
758.829	0.0166522
758.907	0.0165442
758.986	0.0165318
759.064	0.0166187
759.142	0.0166792
759.220	0.0165741
759.298	0.0165868
759.376	0.0166371
759.454	0.0165884
759.532	0.0165797
759.611	0.0164409
759.689	0.0165842
759.767	0.0167097
759.845	0.0167593
759.923	0.0166281
760.001	0.0166003
760.079	0.0168085
760.157	0.0165978
760.236	0.0166326
760.314	0.0167438
760.392	0.0165789
760.470	0.0165411
760.548	0.0167250
760.626	0.0166726
760.704	0.0165687
760.782	0.0165218
760.861	0.0166068
760.939	0.0165688
761.017	0.0166705
761.095	0.0165730
761.173	0.0165279
761.251	0.0166766
761.329	0.0166589
761.407	0.0164883
761.486	0.0167080
761.564	0.0165578
761.642	0.0165669
761.720	0.0166928
761.798	0.0166010
761.876	0.0164902
761.954	0.0165105
762.032	0.0163939
762.111	0.0166166
762.189	0.0164702
762.267	0.0164355
762.345	0.0165684
762.423	0.0164705
762.501	0.0165548
762.579	0.0165884
762.657	0.0164578
762.736	0.0164896
762.814	0.0164769
762.892	0.0164929
762.970	0.0165482
763.048	0.0165134
763.126	0.0165111
763.204	0.0164897
763.282	0.0164552
763.361	0.0166064
763.439	0.0164188
763.517	0.0164520
763.595	0.0165203
763.673	0.0166322
763.751	0.0165947
763.829	0.0165742
763.907	0.0165588
763.986	0.0165883
764.064	0.0165489
764.142	0.0166029
764.220	0.0166310
764.298	0.0167069
764.376	0.0165515
764.454	0.0164674
764.532	0.0165370
764.611	0.0166796
764.689	0.0165749
764.767	0.0166528
764.845	0.0166476
764.923	0.0165098
765.001	0.0166885
765.079	0.0165308
765.157	0.0165841
765.236	0.0166077
765.314	0.0166589
765.392	0.0166201
765.470	0.0166247
765.548	0.0165830
765.626	0.0165887
765.704	0.0166444
765.782	0.0167302
765.861	0.0167256
765.939	0.0165884
766.017	0.0166276
766.095	0.0164302
766.173	0.0166850
766.251	0.0165725
766.329	0.0164526
766.407	0.0164263
766.486	0.0165822
766.564	0.0165107
766.642	0.0165813
766.720	0.0165699
766.798	0.0165931
766.876	0.0165739
766.954	0.0164728
767.032	0.0165004
767.111	0.0164832
767.189	0.0164842
767.267	0.0163955
767.345	0.0165705
767.423	0.0164763
767.501	0.0165752
767.579	0.0164870
767.657	0.0163436
767.736	0.0165377
767.814	0.0165395
767.892	0.0163366
767.970	0.0165022
768.048	0.0164024
768.126	0.0165616
768.204	0.0165234
768.282	0.0164507
768.361	0.0165488
768.439	0.0166095
768.517	0.0164520
768.595	0.0165379
768.673	0.0165235
768.751	0.0165657
768.829	0.0164835
768.907	0.0165020
768.986	0.0165988
769.064	0.0166531
769.142	0.0165741
769.220	0.0166258
769.298	0.0167561
769.376	0.0165972
769.454	0.0167331
769.532	0.0165413
769.611	0.0165016
769.689	0.0166244
769.767	0.0166897
769.845	0.0165939
769.923	0.0166125
770.001	0.0164449
770.079	0.0165634
770.157	0.0164291
770.236	0.0165720
770.314	0.0166224
770.392	0.0166145
770.470	0.0165142
770.548	0.0165821
770.626	0.0166962
770.704	0.0166334
770.782	0.0165447
770.861	0.0166824
770.939	0.0166738
771.017	0.0166605
771.095	0.0166228
771.173	0.0165181
771.251	0.0165744
771.329	0.0165737
771.407	0.0165602
771.486	0.0167276
771.564	0.0166781
771.642	0.0166156
771.720	0.0165720
771.798	0.0166973
771.876	0.0167715
771.954	0.0165115
772.032	0.0165916
772.111	0.0166305
772.189	0.0165393
772.267	0.0166265
772.345	0.0165434
772.423	0.0165422
772.501	0.0164803
772.579	0.0167104
772.657	0.0165728
772.736	0.0165646
772.814	0.0165894
772.892	0.0164984
772.970	0.0165846
773.048	0.0166209
773.126	0.0164881
773.204	0.0165595
773.282	0.0167237
773.361	0.0166226
773.439	0.0166720
773.517	0.0166219
773.595	0.0166486
773.673	0.0165807
773.751	0.0165591
773.829	0.0166261
773.907	0.0165767
773.986	0.0165020
774.064	0.0167622
774.142	0.0167310
774.220	0.0166852
774.298	0.0165125
774.376	0.0166285
774.454	0.0165582
774.532	0.0165897
774.611	0.0164214
774.689	0.0166418
774.767	0.0167164
774.845	0.0165929
774.923	0.0165599
775.001	0.0166095
775.079	0.0164588
775.157	0.0165986
775.236	0.0165939
775.314	0.0166925
775.392	0.0166875
775.470	0.0165966
775.548	0.0165892
775.626	0.0166595
775.704	0.0165836
775.782	0.0166708
775.861	0.0166340
775.939	0.0164140
776.017	0.0165584
776.095	0.0166453
776.173	0.0166329
776.251	0.0165356
776.329	0.0166642
776.407	0.0165594
776.486	0.0165118
776.564	0.0166438
776.642	0.0166156
776.720	0.0165791
776.798	0.0164828
776.876	0.0165771
776.954	0.0167133
777.032	0.0165990
777.111	0.0165803
777.189	0.0165517
777.267	0.0166098
777.345	0.0165105
777.423	0.0166187
777.501	0.0165835
777.579	0.0165839
777.657	0.0166842
777.736	0.0165541
777.814	0.0166351
777.892	0.0166344
777.970	0.0165460
778.048	0.0165261
778.126	0.0164555
778.204	0.0164734
778.282	0.0165800
778.361	0.0165726
778.439	0.0166007
778.517	0.0165799
778.595	0.0165371
778.673	0.0166544
778.751	0.0165041
778.829	0.0166016
778.907	0.0165991
778.986	0.0165960
779.064	0.0167389
779.142	0.0164910
779.220	0.0165652
779.298	0.0166728
779.376	0.0166418
779.454	0.0165067
779.532	0.0166798
779.611	0.0166972
779.689	0.0165881
779.767	0.0165553
779.845	0.0166178
779.923	0.0166495
780.001	0.0165382
780.079	0.0166464
780.157	0.0165543
780.236	0.0166541
780.314	0.0165296
780.392	0.0166183
780.470	0.0166208
780.548	0.0165637
780.626	0.0166270
780.704	0.0166940
780.782	0.0167956
780.861	0.0166821
780.939	0.0166095
781.017	0.0165019
781.095	0.0165802
781.173	0.0166469
781.251	0.0166709
781.329	0.0165485
781.407	0.0165694
781.486	0.0166110
781.564	0.0165489
781.642	0.0166122
781.720	0.0165687
781.798	0.0165584
781.876	0.0165645
781.954	0.0165485
782.032	0.0166193
782.111	0.0166202
782.189	0.0165498
782.267	0.0165137
782.345	0.0165515
782.423	0.0164923
782.501	0.0164304
782.579	0.0165441
782.657	0.0165392
782.736	0.0165579
782.814	0.0165076
782.892	0.0165586
782.970	0.0166051
783.048	0.0166189
783.126	0.0164964
783.204	0.0164113
783.282	0.0165730
783.361	0.0165594
783.439	0.0165169
783.517	0.0166461
783.595	0.0164780
783.673	0.0166136
783.751	0.0165451
783.829	0.0164793
783.907	0.0164639
783.986	0.0165991
784.064	0.0165742
784.142	0.0164262
784.220	0.0165309
784.298	0.0166007
784.376	0.0165092
784.454	0.0165180
784.532	0.0165187
784.611	0.0166157
784.689	0.0166660
784.767	0.0165292
784.845	0.0163891
784.923	0.0164528
785.001	0.0166315
785.079	0.0166777
785.157	0.0166470
785.236	0.0166921
785.314	0.0164978
785.392	0.0166714
785.470	0.0165276
785.548	0.0164272
785.626	0.0164543
785.704	0.0166496
785.782	0.0165407
785.861	0.0166142
785.939	0.0166463
786.017	0.0166514
786.095	0.0164967
786.173	0.0165861
786.251	0.0165639
786.329	0.0165867
786.407	0.0166454
786.486	0.0164837
786.564	0.0166009
786.642	0.0165691
786.720	0.0165823
786.798	0.0165836
786.876	0.0165208
786.954	0.0166272
787.032	0.0165588
787.111	0.0166338
787.189	0.0166467
787.267	0.0166228
787.345	0.0165175
787.423	0.0163685
787.501	0.0165503
787.579	0.0165305
787.657	0.0165140
787.736	0.0164272
787.814	0.0164796
787.892	0.0165520
787.970	0.0165302
788.048	0.0164532
788.126	0.0166499
788.204	0.0166510
788.282	0.0164587
788.361	0.0165308
788.439	0.0167023
788.517	0.0165086
788.595	0.0163362
788.673	0.0163989
788.751	0.0165028
788.829	0.0166452
788.907	0.0165422
788.986	0.0166036
789.064	0.0166053
789.142	0.0165885
789.220	0.0166112
789.298	0.0165347
789.376	0.0166365
789.454	0.0167489
789.532	0.0165901
789.611	0.0166776
789.689	0.0167219
789.767	0.0166978
789.845	0.0165172
789.923	0.0166068
790.001	0.0165578
790.079	0.0166552
790.157	0.0165041
790.236	0.0166492
790.314	0.0165836
790.392	0.0166670
790.470	0.0165146
790.548	0.0167191
790.626	0.0166211
790.704	0.0165829
790.782	0.0166846
790.861	0.0166209
790.939	0.0165692
791.017	0.0166521
791.095	0.0168472
791.173	0.0165342
791.251	0.0165557
791.329	0.0165761
791.407	0.0165869
791.486	0.0166458
791.564	0.0165915
791.642	0.0166518
791.720	0.0165923
791.798	0.0166704
791.876	0.0165701
791.954	0.0164714
792.032	0.0167480
792.111	0.0166341
792.189	0.0165410
792.267	0.0165873
792.345	0.0165507
792.423	0.0165232
792.501	0.0167155
792.579	0.0166193
792.657	0.0165310
792.736	0.0165995
792.814	0.0165439
792.892	0.0166827
792.970	0.0166187
793.048	0.0165047
793.126	0.0165594
793.204	0.0166614
793.282	0.0166943
793.361	0.0165987
793.439	0.0166114
793.517	0.0165922
793.595	0.0164391
793.673	0.0164349
793.751	0.0165300
793.829	0.0165259
793.907	0.0164702
793.986	0.0164935
794.064	0.0165939
794.142	0.0165729
794.220	0.0167612
794.298	0.0165157
794.376	0.0166007
794.454	0.0166091
794.532	0.0165942
794.611	0.0166214
794.689	0.0166171
794.767	0.0166322
794.845	0.0166956
794.923	0.0164965
795.001	0.0166607
795.079	0.0165191
795.157	0.0166136
795.236	0.0167574
795.314	0.0166534
795.392	0.0166047
795.470	0.0166277
795.548	0.0166682
795.626	0.0166788
795.704	0.0165670
795.782	0.0165305
795.861	0.0165807
795.939	0.0165750
796.017	0.0166689
796.095	0.0165607
796.173	0.0164227
796.251	0.0165974
796.329	0.0166644
796.407	0.0165397
796.486	0.0165355
796.564	0.0165454
796.642	0.0165370
796.720	0.0165888
796.798	0.0164445
796.876	0.0165038
796.954	0.0164725
797.032	0.0165942
797.111	0.0165807
797.189	0.0164628
797.267	0.0165090
797.345	0.0164728
797.423	0.0166267
797.501	0.0166525
797.579	0.0165750
797.657	0.0165611
797.736	0.0165763
797.814	0.0167281
797.892	0.0165874
797.970	0.0166786
798.048	0.0167176
798.126	0.0165204
798.204	0.0166395
798.282	0.0165399
798.361	0.0165511
798.439	0.0166335
798.517	0.0166982
798.595	0.0166238
798.673	0.0166711
798.751	0.0166926
798.829	0.0166056
798.907	0.0166348
798.986	0.0165240
799.064	0.0165088
799.142	0.0165413
799.220	0.0167386
799.298	0.0167200
799.376	0.0165549
799.454	0.0166056
799.532	0.0164987
799.611	0.0164760
799.689	0.0165780
799.767	0.0165712
799.845	0.0165113
799.923	0.0165578
800.001	0.0164998
800.079	0.0166741
800.157	0.0165650
800.236	0.0166338
800.314	0.0165720
800.392	0.0166495
800.470	0.0164081
800.548	0.0164787
800.626	0.0166431
800.704	0.0165293
800.782	0.0164801
800.861	0.0166651
800.939	0.0164880
801.017	0.0165134
801.095	0.0166933
801.173	0.0168067
801.251	0.0166369
801.329	0.0165161
801.407	0.0166400
801.486	0.0166552
801.564	0.0165973
801.642	0.0165957
801.720	0.0165788
801.798	0.0166663
801.876	0.0167001
801.954	0.0167870
802.032	0.0166994
802.111	0.0165175
802.189	0.0166087
802.267	0.0165803
802.345	0.0166271
802.423	0.0168238
802.501	0.0167631
802.579	0.0165682
802.657	0.0165749
802.736	0.0166446
802.814	0.0168761
802.892	0.0167041
802.970	0.0165662
803.048	0.0166428
803.126	0.0166957
803.204	0.0164910
803.282	0.0164831
803.361	0.0166058
803.439	0.0165848
803.517	0.0165519
803.595	0.0166744
803.673	0.0164716
803.751	0.0165392
803.829	0.0165452
803.907	0.0165416
803.986	0.0165840
804.064	0.0165525
804.142	0.0164626
804.220	0.0165188
804.298	0.0165214
804.376	0.0165952
804.454	0.0165984
804.532	0.0164925
804.611	0.0165650
804.689	0.0166501
804.767	0.0166848
804.845	0.0165811
804.923	0.0166618
805.001	0.0166335
805.079	0.0167550
805.157	0.0165630
805.236	0.0165675
805.314	0.0166020
805.392	0.0165874
805.470	0.0164824
805.548	0.0164835
805.626	0.0166154
805.704	0.0168082
805.782	0.0166127
805.861	0.0166154
805.939	0.0165714
806.017	0.0164959
806.095	0.0166463
806.173	0.0165304
806.251	0.0165248
806.329	0.0165718
806.407	0.0165524
806.486	0.0165384
806.564	0.0166782
806.642	0.0167451
806.720	0.0165782
806.798	0.0166516
806.876	0.0165977
806.954	0.0166616
807.032	0.0166498
807.111	0.0165222
807.189	0.0167415
807.267	0.0166317
807.345	0.0166605
807.423	0.0165962
807.501	0.0164821
807.579	0.0165163
807.657	0.0167427
807.736	0.0165572
807.814	0.0165579
807.892	0.0165550
807.970	0.0166640
808.048	0.0165857
808.126	0.0164926
808.204	0.0164439
808.282	0.0165326
808.361	0.0165164
808.439	0.0166782
808.517	0.0165634
808.595	0.0165785
808.673	0.0166284
808.751	0.0164764
808.829	0.0164912
808.907	0.0166437
808.986	0.0166166
809.064	0.0166129
809.142	0.0166180
809.220	0.0165862
809.298	0.0166397
809.376	0.0166518
809.454	0.0167245
809.532	0.0165968
809.611	0.0165510
809.689	0.0166185
809.767	0.0165304
809.845	0.0166029
809.923	0.0166962
810.001	0.0165427
810.079	0.0166241
810.157	0.0165068
810.236	0.0164708
810.314	0.0164488
810.392	0.0165176
810.470	0.0165624
810.548	0.0164394
810.626	0.0163929
810.704	0.0166076
810.782	0.0166598
810.861	0.0167651
810.939	0.0166412
811.017	0.0166918
811.095	0.0167076
811.173	0.0165797
811.251	0.0165603
811.329	0.0166564
811.407	0.0165456
811.486	0.0166277
811.564	0.0166984
811.642	0.0166118
811.720	0.0166092
811.798	0.0165730
811.876	0.0165359
811.954	0.0166434
812.032	0.0164184
812.111	0.0164547
812.189	0.0165726
812.267	0.0164124
812.345	0.0164488
812.423	0.0165924
812.501	0.0164599
812.579	0.0164223
812.657	0.0164431
812.736	0.0165659
812.814	0.0165741
812.892	0.0164562
812.970	0.0164196
813.048	0.0165109
813.126	0.0165430
813.204	0.0166154
813.282	0.0166530
813.361	0.0165089
813.439	0.0164286
813.517	0.0165794
813.595	0.0164793
813.673	0.0166216
813.751	0.0166395
813.829	0.0166599
813.907	0.0166251
813.986	0.0165520
814.064	0.0166352
814.142	0.0166542
814.220	0.0166127
814.298	0.0165935
814.376	0.0166583
814.454	0.0166299
814.532	0.0166212
814.611	0.0166666
814.689	0.0166441
814.767	0.0166518
814.845	0.0166554
814.923	0.0166275
815.001	0.0166688
815.079	0.0165495
815.157	0.0164860
815.236	0.0166348
815.314	0.0166096
815.392	0.0164884
815.470	0.0164625
815.548	0.0164577
815.626	0.0165265
815.704	0.0165076
815.782	0.0162811
815.861	0.0162533
815.939	0.0164042
816.017	0.0163675
816.095	0.0162894
816.173	0.0162784
816.251	0.0162570
816.329	0.0162695
816.407	0.0163304
816.486	0.0163577
816.564	0.0165399
816.642	0.0163669
816.720	0.0165537
816.798	0.0165176
816.876	0.0166646
816.954	0.0166573
817.032	0.0167058
817.111	0.0168517
817.189	0.0168237
817.267	0.0168509
817.345	0.0168224
817.423	0.0168815
817.501	0.0169469
817.579	0.0169260
817.657	0.0169858
817.736	0.0169660
817.814	0.0167449
817.892	0.0166898
817.970	0.0168002
818.048	0.0165897
818.126	0.0165828
818.204	0.0166666
818.282	0.0166319
818.361	0.0164630
818.439	0.0164128
818.517	0.0163280
818.595	0.0164167
818.673	0.0162808
818.751	0.0162798
818.829	0.0162682
818.907	0.0162471
818.986	0.0162096
819.064	0.0163149
819.142	0.0162496
819.220	0.0161912
819.298	0.0163873
819.376	0.0163614
819.454	0.0164066
819.532	0.0166216
819.611	0.0166206
819.689	0.0165470
819.767	0.0165874
819.845	0.0166731
819.923	0.0166210
820.001	0.0167303
820.079	0.0168003
820.157	0.0167593
820.236	0.0168816
820.314	0.0167921
820.392	0.0166693
820.470	0.0167918
820.548	0.0168184
820.626	0.0168410
820.704	0.0167580
820.782	0.0168797
820.861	0.0167662
820.939	0.0166999
821.017	0.0167699
821.095	0.0166414
821.173	0.0167430
821.251	0.0166534
821.329	0.0166090
821.407	0.0166430
821.486	0.0165673
821.564	0.0164783
821.642	0.0165100
821.720	0.0164344
821.798	0.0165010
821.876	0.0164618
821.954	0.0164672
822.032	0.0164892
822.111	0.0164525
822.189	0.0162995
822.267	0.0164519
822.345	0.0164665
822.423	0.0164826
822.501	0.0164812
822.579	0.0165002
822.657	0.0165926
822.736	0.0165617
822.814	0.0164842
822.892	0.0165742
822.970	0.0166338
823.048	0.0165769
823.126	0.0165294
823.204	0.0166384
823.282	0.0166592
823.361	0.0165932
823.439	0.0167595
823.517	0.0165314
823.595	0.0166185
823.673	0.0166222
823.751	0.0166216
823.829	0.0165605
823.907	0.0166263
823.986	0.0165804
824.064	0.0165168
824.142	0.0166132
824.220	0.0165601
824.298	0.0164643
824.376	0.0166185
824.454	0.0165237
824.532	0.0165441
824.611	0.0164615
824.689	0.0164921
824.767	0.0165765
824.845	0.0165373
824.923	0.0165771
825.001	0.0165163
825.079	0.0166628
825.157	0.0165442
825.236	0.0165367
825.314	0.0165840
825.392	0.0166658
825.470	0.0165517
825.548	0.0165253
825.626	0.0165200
825.704	0.0164491
825.782	0.0166075
825.861	0.0165958
825.939	0.0167568
826.017	0.0165672
826.095	0.0167397
826.173	0.0167186
826.251	0.0164833
826.329	0.0165900
826.407	0.0166710
826.486	0.0166212
826.564	0.0165334
826.642	0.0167886
826.720	0.0167533
826.798	0.0166399
826.876	0.0166772
826.954	0.0167407
827.032	0.0165987
827.111	0.0167575
827.189	0.0167419
827.267	0.0165349
827.345	0.0165305
827.423	0.0165415
827.501	0.0166475
827.579	0.0166882
827.657	0.0164384
827.736	0.0164574
827.814	0.0164797
827.892	0.0165334
827.970	0.0165837
828.048	0.0165038
828.126	0.0162828
828.204	0.0163330
828.282	0.0163918
828.361	0.0165073
828.439	0.0163726
828.517	0.0164542
828.595	0.0165496
828.673	0.0164388
828.751	0.0164664
828.829	0.0165336
828.907	0.0166574
828.986	0.0166450
829.064	0.0164614
829.142	0.0165140
829.220	0.0166264
829.298	0.0168065
829.376	0.0166868
829.454	0.0166942
829.532	0.0167152
829.611	0.0167330
829.689	0.0167882
829.767	0.0168309
829.845	0.0167090
829.923	0.0167340
830.001	0.0168021
830.079	0.0169717
830.157	0.0168582
830.236	0.0166379
830.314	0.0166278
830.392	0.0165961
830.470	0.0167132
830.548	0.0166177
830.626	0.0163570
830.704	0.0165617
830.782	0.0166325
830.861	0.0163799
830.939	0.0163448
831.017	0.0163602
831.095	0.0163023
831.173	0.0162173
831.251	0.0162753
831.329	0.0162994
831.407	0.0161591
831.486	0.0163512
831.564	0.0162030
831.642	0.0163851
831.720	0.0163686
831.798	0.0162354
831.876	0.0163210
831.954	0.0164265
832.032	0.0165758
832.111	0.0164414
832.189	0.0164688
832.267	0.0166463
832.345	0.0166710
832.423	0.0166750
832.501	0.0168919
832.579	0.0167769
832.657	0.0166794
832.736	0.0168567
832.814	0.0168031
832.892	0.0167993
832.970	0.0168289
833.048	0.0168176
833.126	0.0169036
833.204	0.0166663
833.282	0.0166814
833.361	0.0167762
833.439	0.0166955
833.517	0.0166934
833.595	0.0166534
833.673	0.0167049
833.751	0.0165028
833.829	0.0166582
833.907	0.0165341
833.986	0.0166635
834.064	0.0164976
834.142	0.0164105
834.220	0.0165055
834.298	0.0164195
834.376	0.0165108
834.454	0.0164861
834.532	0.0164730
834.611	0.0165599
834.689	0.0165385
834.767	0.0165139
834.845	0.0166291
834.923	0.0165305
835.001	0.0165736
835.079	0.0165334
835.157	0.0165848
835.236	0.0165432
835.314	0.0166327
835.392	0.0164887
835.470	0.0165684
835.548	0.0166614
835.626	0.0167871
835.704	0.0167072
835.782	0.0165894
835.861	0.0166336
835.939	0.0165149
836.017	0.0165215
836.095	0.0167989
836.173	0.0166483
836.251	0.0165331
836.329	0.0165483
836.407	0.0165381
836.486	0.0163741
836.564	0.0163764
836.642	0.0164414
836.720	0.0163489
836.798	0.0163544
836.876	0.0164894
836.954	0.0165260
837.032	0.0163329
837.111	0.0163914
837.189	0.0164137
837.267	0.0165017
837.345	0.0165537
837.423	0.0165079
837.501	0.0166605
837.579	0.0165643
837.657	0.0163428
837.736	0.0165549
837.814	0.0164484
837.892	0.0167283
837.970	0.0166216
838.048	0.0165105
838.126	0.0165220
838.204	0.0166911
838.282	0.0167426
838.361	0.0166219
838.439	0.0167181
838.517	0.0166519
838.595	0.0166629
838.673	0.0168005
838.751	0.0167302
838.829	0.0168180
838.907	0.0167138
838.986	0.0167026
839.064	0.0167053
839.142	0.0166553
839.220	0.0166797
839.298	0.0167104
839.376	0.0166998
839.454	0.0167238
839.532	0.0165661
839.611	0.0166399
839.689	0.0165614
839.767	0.0164517
839.845	0.0164182
839.923	0.0164631
840.001	0.0164349
840.079	0.0165102
840.157	0.0164758
840.236	0.0165150
840.314	0.0163608
840.392	0.0164052
840.470	0.0164424
840.548	0.0165623
840.626	0.0165728
840.704	0.0166262
840.782	0.0165105
840.861	0.0166605
840.939	0.0165384
841.017	0.0165912
841.095	0.0167774
841.173	0.0166093
841.251	0.0166875
841.329	0.0166051
841.407	0.0165699
841.486	0.0166689
841.564	0.0166804
841.642	0.0165271
841.720	0.0165909
841.798	0.0166892
841.876	0.0164708
841.954	0.0164661
842.032	0.0165137
842.111	0.0164127
842.189	0.0165399
842.267	0.0164086
842.345	0.0163676
842.423	0.0164664
842.501	0.0164581
842.579	0.0165749
842.657	0.0165443
842.736	0.0163705
842.814	0.0163831
842.892	0.0165217
842.970	0.0163625
843.048	0.0165479
843.126	0.0166048
843.204	0.0163798
843.282	0.0165021
843.361	0.0166592
843.439	0.0165292
843.517	0.0165838
843.595	0.0165975
843.673	0.0165704
843.751	0.0165582
843.829	0.0165712
843.907	0.0165463
843.986	0.0168212
844.064	0.0166190
844.142	0.0165211
844.220	0.0166511
844.298	0.0167371
844.376	0.0165730
844.454	0.0166087
844.532	0.0166681
844.611	0.0166614
844.689	0.0165441
844.767	0.0166228
844.845	0.0165954
844.923	0.0165801
845.001	0.0165623
845.079	0.0165797
845.157	0.0167380
845.236	0.0166702
845.314	0.0167366
845.392	0.0167168
845.470	0.0167201
845.548	0.0168025
845.626	0.0167236
845.704	0.0167977
845.782	0.0166113
845.861	0.0167064
845.939	0.0167435
846.017	0.0166513
846.095	0.0167087
846.173	0.0165548
846.251	0.0165932
846.329	0.0167170
846.407	0.0165284
846.486	0.0164853
846.564	0.0165804
846.642	0.0164741
846.720	0.0164596
846.798	0.0164619
846.876	0.0164856
846.954	0.0165102
847.032	0.0165788
847.111	0.0165343
847.189	0.0164310
847.267	0.0165370
847.345	0.0166502
847.423	0.0167152
847.501	0.0164754
847.579	0.0166053
847.657	0.0165388
847.736	0.0165390
847.814	0.0165369
847.892	0.0166328
847.970	0.0166235
848.048	0.0165071
848.126	0.0166318
848.204	0.0165302
848.282	0.0166035
848.361	0.0164616
848.439	0.0164051
848.517	0.0164441
848.595	0.0164894
848.673	0.0165945
848.751	0.0165323
848.829	0.0163694
848.907	0.0164462
848.986	0.0163767
849.064	0.0164798
849.142	0.0163782
849.220	0.0164382
849.298	0.0164101
849.376	0.0165356
849.454	0.0163499
849.532	0.0163738
849.611	0.0165794
849.689	0.0165425
849.767	0.0164088
849.845	0.0165960
849.923	0.0165365
850.001	0.0166904
850.079	0.0167021
850.157	0.0168106
850.236	0.0165820
850.314	0.0166227
850.392	0.0167927
850.470	0.0167343
850.548	0.0166618
850.626	0.0167922
850.704	0.0168731
850.782	0.0167953
850.861	0.0166577
850.939	0.0166869
851.017	0.0169218
851.095	0.0167722
851.173	0.0166727
851.251	0.0168290
851.329	0.0167107
851.407	0.0167349
851.486	0.0167506
851.564	0.0166417
851.642	0.0167159
851.720	0.0166461
851.798	0.0165985
851.876	0.0166071
851.954	0.0166930
852.032	0.0165802
852.111	0.0165872
852.189	0.0165529
852.267	0.0164464
852.345	0.0164844
852.423	0.0165361
852.501	0.0165618
852.579	0.0164961
852.657	0.0165927
852.736	0.0163476
852.814	0.0164288
852.892	0.0165190
852.970	0.0165381
853.048	0.0163436
853.126	0.0164475
853.204	0.0164909
853.282	0.0164713
853.361	0.0164451
853.439	0.0166926
853.517	0.0164759
853.595	0.0164180
853.673	0.0166696
853.751	0.0166113
853.829	0.0166766
853.907	0.0167152
853.986	0.0166248
854.064	0.0165887
854.142	0.0164718
854.220	0.0165615
854.298	0.0165125
854.376	0.0166157
854.454	0.0164755
854.532	0.0167223
854.611	0.0165401
854.689	0.0165787
854.767	0.0166914
854.845	0.0166647
854.923	0.0166418
855.001	0.0166453
855.079	0.0165858
855.157	0.0167172
855.236	0.0168152
855.314	0.0168048
855.392	0.0167413
855.470	0.0167020
855.548	0.0166959
855.626	0.0166822
855.704	0.0166973
855.782	0.0167942
855.861	0.0166959
855.939	0.0165106
856.017	0.0166626
856.095	0.0165714
856.173	0.0164986
856.251	0.0165828
856.329	0.0164101
856.407	0.0163695
856.486	0.0166638
856.564	0.0165417
856.642	0.0164407
856.720	0.0165016
856.798	0.0165001
856.876	0.0164558
856.954	0.0166094
857.032	0.0165906
857.111	0.0166127
857.189	0.0165195
857.267	0.0167304
857.345	0.0166586
857.423	0.0166864
857.501	0.0167976
857.579	0.0167473
857.657	0.0167757
857.736	0.0167361
857.814	0.0167968
857.892	0.0167665
857.970	0.0166528
858.048	0.0166458
858.126	0.0165491
858.204	0.0166868
858.282	0.0165760
858.361	0.0166826
858.439	0.0164679
858.517	0.0166109
858.595	0.0165563
858.673	0.0166653
858.751	0.0167133
858.829	0.0166174
858.907	0.0166768
858.986	0.0166728
859.064	0.0165532
859.142	0.0166206
859.220	0.0166625
859.298	0.0167107
859.376	0.0167748
859.454	0.0169099
859.532	0.0167673
859.611	0.0167316
859.689	0.0167749
859.767	0.0166241
859.845	0.0167851
859.923	0.0167845
860.001	0.0168124
860.079	0.0167756
860.157	0.0168395
860.236	0.0166550
860.314	0.0165888
860.392	0.0166036
860.470	0.0164992
860.548	0.0164037
860.626	0.0162892
860.704	0.0162595
860.782	0.0162878
860.861	0.0163506
860.939	0.0162362
861.017	0.0162496
861.095	0.0162089
861.173	0.0163691
861.251	0.0163101
861.329	0.0162562
861.407	0.0164293
861.486	0.0164174
861.564	0.0163060
861.642	0.0164890
861.720	0.0164130
861.798	0.0163904
861.876	0.0163805
861.954	0.0164845
862.032	0.0165498
862.111	0.0165626
862.189	0.0166466
862.267	0.0166517
862.345	0.0166619
862.423	0.0164955
862.501	0.0166056
862.579	0.0166633
862.657	0.0166092
862.736	0.0165376
862.814	0.0167432
862.892	0.0166689
862.970	0.0166660
863.048	0.0166512
863.126	0.0166362
863.204	0.0167216
863.282	0.0167231
863.361	0.0168168
863.439	0.0168665
863.517	0.0168345
863.595	0.0168913
863.673	0.0168362
863.751	0.0168993
863.829	0.0169138
863.907	0.0169176
863.986	0.0168959
864.064	0.0169331
864.142	0.0169066
864.220	0.0169323
864.298	0.0170654
864.376	0.0168330
864.454	0.0168167
864.532	0.0168725
864.611	0.0168520
864.689	0.0167443
864.767	0.0166348
864.845	0.0164860
864.923	0.0165958
865.001	0.0167847
865.079	0.0166359
865.157	0.0166103
865.236	0.0165417
865.314	0.0164590
865.392	0.0165784
865.470	0.0163416
865.548	0.0164143
865.626	0.0162955
865.704	0.0163865
865.782	0.0162531
865.861	0.0162708
865.939	0.0162072
866.017	0.0163549
866.095	0.0163134
866.173	0.0163156
866.251	0.0162720
866.329	0.0162889
866.407	0.0161961
866.486	0.0163407
866.564	0.0164395
866.642	0.0161958
866.720	0.0164806
866.798	0.0164147
866.876	0.0164777
866.954	0.0164581
867.032	0.0166344
867.111	0.0164671
867.189	0.0166100
867.267	0.0166751
867.345	0.0165793
867.423	0.0166959
867.501	0.0167091
867.579	0.0167101
867.657	0.0167075
867.736	0.0167129
867.814	0.0167253
867.892	0.0168031
867.970	0.0167585
868.048	0.0167009
868.126	0.0168226
868.204	0.0167505
868.282	0.0166414
868.361	0.0166916
868.439	0.0165188
868.517	0.0167676
868.595	0.0167731
868.673	0.0167892
868.751	0.0166323
868.829	0.0167216
868.907	0.0167178
868.986	0.0166743
869.064	0.0166160
869.142	0.0167496
869.220	0.0167128
869.298	0.0166275
869.376	0.0165856
869.454	0.0165948
869.532	0.0167117
869.611	0.0167185
869.689	0.0166522
869.767	0.0166813
869.845	0.0167477
869.923	0.0166961
870.001	0.0167263
870.079	0.0166664
870.157	0.0167447
870.236	0.0166063
870.314	0.0167528
870.392	0.0166029
870.470	0.0165366
870.548	0.0166397
870.626	0.0166810
870.704	0.0166171
870.782	0.0166020
870.861	0.0167001
870.939	0.0166042
871.017	0.0166620
871.095	0.0166940
871.173	0.0165659
871.251	0.0166169
871.329	0.0165863
871.407	0.0165551
871.486	0.0165205
871.564	0.0165588
871.642	0.0166396
871.720	0.0165630
871.798	0.0164897
871.876	0.0164961
871.954	0.0166675
872.032	0.0165010
872.111	0.0165663
872.189	0.0165354
872.267	0.0165677
872.345	0.0165385
872.423	0.0165725
872.501	0.0164081
872.579	0.0164424
872.657	0.0165036
872.736	0.0166098
872.814	0.0165620
872.892	0.0165929
872.970	0.0164874
873.048	0.0164488
873.126	0.0164232
873.204	0.0164457
873.282	0.0164665
873.361	0.0164911
873.439	0.0164788
873.517	0.0164832
873.595	0.0163601
873.673	0.0163457
873.751	0.0163348
873.829	0.0165526
873.907	0.0164742
873.986	0.0164719
874.064	0.0166054
874.142	0.0166650
874.220	0.0166751
874.298	0.0166525
874.376	0.0166499
874.454	0.0167327
874.532	0.0168488
874.611	0.0167410
874.689	0.0166254
874.767	0.0169221
874.845	0.0169086
874.923	0.0168801
875.001	0.0168134
875.079	0.0167345
875.157	0.0168939
875.236	0.0169188
875.314	0.0167393
875.392	0.0167202
875.470	0.0166009
875.548	0.0166534
875.626	0.0164947
875.704	0.0165175
875.782	0.0167725
875.861	0.0165974
875.939	0.0165318
876.017	0.0165205
876.095	0.0165498
876.173	0.0165353
876.251	0.0165249
876.329	0.0165330
876.407	0.0166171
876.486	0.0165121
876.564	0.0167250
876.642	0.0167332
876.720	0.0166987
876.798	0.0167072
876.876	0.0166786
876.954	0.0166901
877.032	0.0167369
877.111	0.0166321
877.189	0.0166799
877.267	0.0167514
877.345	0.0166402
877.423	0.0165778
877.501	0.0165991
877.579	0.0165827
877.657	0.0164882
877.736	0.0165116
877.814	0.0165601
877.892	0.0165879
877.970	0.0166010
878.048	0.0164860
878.126	0.0165679
878.204	0.0164661
878.282	0.0166644
878.361	0.0165412
878.439	0.0167305
878.517	0.0165347
878.595	0.0165912
878.673	0.0165781
878.751	0.0166319
878.829	0.0165420
878.907	0.0165308
878.986	0.0166315
879.064	0.0165965
879.142	0.0164103
879.220	0.0165317
879.298	0.0165096
879.376	0.0166182
879.454	0.0164479
879.532	0.0163515
879.611	0.0164150
879.689	0.0164792
879.767	0.0164158
879.845	0.0163748
879.923	0.0163789
880.001	0.0164581
880.079	0.0163894
880.157	0.0163836
880.236	0.0165141
880.314	0.0163692
880.392	0.0162642
880.470	0.0165503
880.548	0.0163686
880.626	0.0165208
880.704	0.0164142
880.782	0.0164685
880.861	0.0165466
880.939	0.0165361
881.017	0.0165094
881.095	0.0164831
881.173	0.0167855
881.251	0.0166049
881.329	0.0165020
881.407	0.0166193
881.486	0.0167240
881.564	0.0166815
881.642	0.0168049
881.720	0.0167718
881.798	0.0167656
881.876	0.0166924
881.954	0.0167625
882.032	0.0166935
882.111	0.0167692
882.189	0.0167223
882.267	0.0167553
882.345	0.0168236
882.423	0.0167608
882.501	0.0168372
882.579	0.0167918
882.657	0.0167927
882.736	0.0167060
882.814	0.0167867
882.892	0.0168323
882.970	0.0168444
883.048	0.0167958
883.126	0.0167241
883.204	0.0167849
883.282	0.0168549
883.361	0.0166676
883.439	0.0166762
883.517	0.0166385
883.595	0.0166875
883.673	0.0165906
883.751	0.0166685
883.829	0.0165533
883.907	0.0164912
883.986	0.0163750
884.064	0.0163969
884.142	0.0164571
884.220	0.0164168
884.298	0.0162160
884.376	0.0162796
884.454	0.0163113
884.532	0.0163399
884.611	0.0164279
884.689	0.0163380
884.767	0.0162337
884.845	0.0163809
884.923	0.0162674
885.001	0.0162830
885.079	0.0163432
885.157	0.0163567
885.236	0.0163476
885.314	0.0163587
885.392	0.0163181
885.470	0.0163342
885.548	0.0163971
885.626	0.0162908
885.704	0.0164070
885.782	0.0165391
885.861	0.0164175
885.939	0.0163169
886.017	0.0165583
886.095	0.0165754
886.173	0.0166633
886.251	0.0167181
886.329	0.0164600
886.407	0.0166129
886.486	0.0166071
886.564	0.0166208
886.642	0.0166501
886.720	0.0165623
886.798	0.0166496
886.876	0.0167913
886.954	0.0165565
887.032	0.0167364
887.111	0.0168711
887.189	0.0166952
887.267	0.0167683
887.345	0.0166902
887.423	0.0166756
887.501	0.0166354
887.579	0.0168147
887.657	0.0168021
887.736	0.0166427
887.814	0.0166589
887.892	0.0167204
887.970	0.0166390
888.048	0.0166061
888.126	0.0166859
888.204	0.0165256
888.282	0.0164825
888.361	0.0167408
888.439	0.0166885
888.517	0.0166836
888.595	0.0167383
888.673	0.0165331
888.751	0.0166418
888.829	0.0165591
888.907	0.0167201
888.986	0.0166964
889.064	0.0165714
889.142	0.0167182
889.220	0.0165974
889.298	0.0165929
889.376	0.0166836
889.454	0.0164208
889.532	0.0166333
889.611	0.0166537
889.689	0.0164325
889.767	0.0163387
889.845	0.0163026
889.923	0.0164587
890.001	0.0163717
890.079	0.0164756
890.157	0.0164571
890.236	0.0164075
890.314	0.0165513
890.392	0.0165276
890.470	0.0166155
890.548	0.0165533
890.626	0.0164278
890.704	0.0164460
890.782	0.0166853
890.861	0.0165958
890.939	0.0164413
891.017	0.0165547
891.095	0.0164330
891.173	0.0165507
891.251	0.0166116
891.329	0.0164526
891.407	0.0165490
891.486	0.0166162
891.564	0.0165871
891.642	0.0165749
891.720	0.0165345
891.798	0.0165983
891.876	0.0165643
891.954	0.0167060
892.032	0.0166174
892.111	0.0164787
892.189	0.0165985
892.267	0.0166721
892.345	0.0166499
892.423	0.0165177
892.501	0.0165191
892.579	0.0165467
892.657	0.0166809
892.736	0.0165568
892.814	0.0167283
892.892	0.0168465
892.970	0.0167142
893.048	0.0166866
893.126	0.0166666
893.204	0.0166280
893.282	0.0167429
893.361	0.0167693
893.439	0.0165639
893.517	0.0166975
893.595	0.0167627
893.673	0.0167432
893.751	0.0165193
893.829	0.0166601
893.907	0.0165094
893.986	0.0165614
894.064	0.0166579
894.142	0.0165946
894.220	0.0164904
894.298	0.0166221
894.376	0.0165121
894.454	0.0166134
894.532	0.0164594
894.611	0.0164942
894.689	0.0165747
894.767	0.0165445
894.845	0.0165623
894.923	0.0164825
895.001	0.0165648
895.079	0.0164952
895.157	0.0165408
895.236	0.0166147
895.314	0.0165877
895.392	0.0165350
895.470	0.0165520
895.548	0.0166302
895.626	0.0164815
895.704	0.0166541
895.782	0.0166901
895.861	0.0165681
895.939	0.0166779
896.017	0.0166777
896.095	0.0166613
896.173	0.0165593
896.251	0.0166116
896.329	0.0165058
896.407	0.0164473
896.486	0.0164412
896.564	0.0165143
896.642	0.0167128
896.720	0.0164487
896.798	0.0164237
896.876	0.0163870
896.954	0.0165347
897.032	0.0164304
897.111	0.0164143
897.189	0.0165725
897.267	0.0165062
897.345	0.0164331
897.423	0.0165147
897.501	0.0164880
897.579	0.0164536
897.657	0.0166563
897.736	0.0167102
897.814	0.0165789
897.892	0.0164917
897.970	0.0166211
898.048	0.0165771
898.126	0.0165874
898.204	0.0165997
898.282	0.0166293
898.361	0.0167030
898.439	0.0166324
898.517	0.0166885
898.595	0.0165678
898.673	0.0166633
898.751	0.0165946
898.829	0.0165247
898.907	0.0166512
898.986	0.0166539
899.064	0.0165343
899.142	0.0166898
899.220	0.0166932
899.298	0.0166899
899.376	0.0166019
899.454	0.0165454
899.532	0.0165527
899.611	0.0166261
899.689	0.0165292
899.767	0.0166009
899.845	0.0166675
899.923	0.0165994
