05/24/2022	20:07:38	Ver.	4.1	UNKNOWN
Optical Delay	599.988409	Delta X		0.078125	Sweeps	1	Scan Rate	0/0
Coordinates	Axis 1	NaN	Axis 2	NaN	Axis 3	NaN	Axis 4	NaN	Axis 5	NaN	Axis 6	0.000000
TX Power	0.000000	RX Power	0.000000

599.988	0.0168732
600.067	0.0169498
600.145	0.0169693
600.223	0.0168691
600.301	0.0169073
600.379	0.0170161
600.457	0.0168024
600.535	0.0169534
600.613	0.0170411
600.692	0.0167902
600.770	0.0169131
600.848	0.0168839
600.926	0.0168375
601.004	0.0168350
601.082	0.0168816
601.160	0.0168745
601.238	0.0169596
601.317	0.0168428
601.395	0.0169490
601.473	0.0169498
601.551	0.0168367
601.629	0.0168851
601.707	0.0170476
601.785	0.0167967
601.863	0.0169300
601.942	0.0169237
602.020	0.0168586
602.098	0.0170053
602.176	0.0169514
602.254	0.0168555
602.332	0.0169038
602.410	0.0168457
602.488	0.0169750
602.567	0.0168329
602.645	0.0169526
602.723	0.0169419
602.801	0.0169147
602.879	0.0167390
602.957	0.0168274
603.035	0.0169508
603.113	0.0168893
603.192	0.0170135
603.270	0.0169331
603.348	0.0169097
603.426	0.0168269
603.504	0.0169381
603.582	0.0168657
603.660	0.0167838
603.738	0.0169395
603.817	0.0169392
603.895	0.0169670
603.973	0.0168230
604.051	0.0168479
604.129	0.0169506
604.207	0.0169541
604.285	0.0168538
604.363	0.0169176
604.442	0.0168504
604.520	0.0169721
604.598	0.0169913
604.676	0.0169405
604.754	0.0168314
604.832	0.0168913
604.910	0.0168380
604.988	0.0170045
605.067	0.0168385
605.145	0.0168369
605.223	0.0170650
605.301	0.0169063
605.379	0.0168372
605.457	0.0168839
605.535	0.0168885
605.613	0.0169262
605.692	0.0169045
605.770	0.0168871
605.848	0.0168460
605.926	0.0169324
606.004	0.0168427
606.082	0.0169564
606.160	0.0168192
606.238	0.0168772
606.317	0.0169660
606.395	0.0169181
606.473	0.0168609
606.551	0.0168667
606.629	0.0168269
606.707	0.0169199
606.785	0.0169543
606.863	0.0168981
606.942	0.0168627
607.020	0.0168265
607.098	0.0168800
607.176	0.0168433
607.254	0.0168597
607.332	0.0169019
607.410	0.0167879
607.488	0.0168645
607.567	0.0169594
607.645	0.0169080
607.723	0.0169375
607.801	0.0168121
607.879	0.0168215
607.957	0.0169627
608.035	0.0167746
608.113	0.0169035
608.192	0.0168545
608.270	0.0169960
608.348	0.0170070
608.426	0.0169140
608.504	0.0170397
608.582	0.0170000
608.660	0.0169960
608.738	0.0169302
608.817	0.0169674
608.895	0.0169492
608.973	0.0169219
609.051	0.0169306
609.129	0.0168971
609.207	0.0168410
609.285	0.0168344
609.363	0.0168190
609.442	0.0168424
609.520	0.0169247
609.598	0.0166738
609.676	0.0167484
609.754	0.0168472
609.832	0.0168367
609.910	0.0169243
609.988	0.0169706
610.067	0.0167658
610.145	0.0167608
610.223	0.0169015
610.301	0.0168745
610.379	0.0169108
610.457	0.0168862
610.535	0.0169733
610.613	0.0168719
610.692	0.0168278
610.770	0.0168488
610.848	0.0169727
610.926	0.0170269
611.004	0.0169138
611.082	0.0169324
611.160	0.0168961
611.238	0.0169636
611.317	0.0169057
611.395	0.0169266
611.473	0.0169834
611.551	0.0169337
611.629	0.0168997
611.707	0.0168051
611.785	0.0168137
611.863	0.0169038
611.942	0.0169323
612.020	0.0168919
612.098	0.0168397
612.176	0.0167828
612.254	0.0168888
612.332	0.0168309
612.410	0.0167980
612.488	0.0168164
612.567	0.0169749
612.645	0.0167925
612.723	0.0169067
612.801	0.0168298
612.879	0.0168596
612.957	0.0168607
613.035	0.0168269
613.113	0.0170224
613.192	0.0169004
613.270	0.0169087
613.348	0.0168450
613.426	0.0168244
613.504	0.0170743
613.582	0.0169532
613.660	0.0168958
613.738	0.0168011
613.817	0.0168407
613.895	0.0168774
613.973	0.0168973
614.051	0.0169291
614.129	0.0168843
614.207	0.0167904
614.285	0.0168945
614.363	0.0169225
614.442	0.0170002
614.520	0.0169447
614.598	0.0168887
614.676	0.0168471
614.754	0.0168490
614.832	0.0168514
614.910	0.0169271
614.988	0.0169610
615.067	0.0168410
615.145	0.0169341
615.223	0.0167877
615.301	0.0168351
615.379	0.0168717
615.457	0.0168979
615.535	0.0168356
615.613	0.0168432
615.692	0.0168714
615.770	0.0167274
615.848	0.0167942
615.926	0.0168887
616.004	0.0169212
616.082	0.0169157
616.160	0.0167609
616.238	0.0168984
616.317	0.0169591
616.395	0.0168391
616.473	0.0169011
616.551	0.0170228
616.629	0.0168716
616.707	0.0168981
616.785	0.0168773
616.863	0.0168992
616.942	0.0169467
617.020	0.0170377
617.098	0.0169104
617.176	0.0170438
617.254	0.0169425
617.332	0.0168094
617.410	0.0167928
617.488	0.0169733
617.567	0.0168137
617.645	0.0169091
617.723	0.0169156
617.801	0.0168376
617.879	0.0169113
617.957	0.0167802
618.035	0.0168758
618.113	0.0168607
618.192	0.0168716
618.270	0.0168891
618.348	0.0167932
618.426	0.0168220
618.504	0.0169330
618.582	0.0168772
618.660	0.0168561
618.738	0.0168798
618.817	0.0168968
618.895	0.0168685
618.973	0.0168559
619.051	0.0169553
619.129	0.0168924
619.207	0.0167879
619.285	0.0169322
619.363	0.0169010
619.442	0.0169341
619.520	0.0168933
619.598	0.0169965
619.676	0.0169326
619.754	0.0168400
619.832	0.0170601
619.910	0.0169895
619.988	0.0169901
620.067	0.0169084
620.145	0.0169514
620.223	0.0169459
620.301	0.0170698
620.379	0.0167691
620.457	0.0170266
620.535	0.0169792
620.613	0.0169839
620.692	0.0169913
620.770	0.0169578
620.848	0.0169304
620.926	0.0168127
621.004	0.0169437
621.082	0.0167808
621.160	0.0168208
621.238	0.0168334
621.317	0.0167006
621.395	0.0168319
621.473	0.0168709
621.551	0.0169724
621.629	0.0169816
621.707	0.0169045
621.785	0.0167742
621.863	0.0169241
621.942	0.0170248
622.020	0.0168227
622.098	0.0169064
622.176	0.0169948
622.254	0.0169606
622.332	0.0168922
622.410	0.0169740
622.488	0.0168430
622.567	0.0168327
622.645	0.0169057
622.723	0.0168575
622.801	0.0168833
622.879	0.0167273
622.957	0.0168781
623.035	0.0169431
623.113	0.0168671
623.192	0.0169509
623.270	0.0169888
623.348	0.0169668
623.426	0.0169120
623.504	0.0169124
623.582	0.0169607
623.660	0.0169702
623.738	0.0168933
623.817	0.0168554
623.895	0.0169985
623.973	0.0168455
624.051	0.0167896
624.129	0.0169135
624.207	0.0169514
624.285	0.0168877
624.363	0.0169608
624.442	0.0168837
624.520	0.0169534
624.598	0.0168555
624.676	0.0168637
624.754	0.0168815
624.832	0.0169664
624.910	0.0169591
624.988	0.0169466
625.067	0.0168388
625.145	0.0168169
625.223	0.0168952
625.301	0.0168059
625.379	0.0167563
625.457	0.0168396
625.535	0.0169119
625.613	0.0169924
625.692	0.0168360
625.770	0.0168238
625.848	0.0168655
625.926	0.0168504
626.004	0.0169279
626.082	0.0167946
626.160	0.0169100
626.238	0.0168607
626.317	0.0168192
626.395	0.0167843
626.473	0.0169246
626.551	0.0168858
626.629	0.0168782
626.707	0.0169073
626.785	0.0169101
626.863	0.0168660
626.942	0.0169127
627.020	0.0168183
627.098	0.0170484
627.176	0.0170081
627.254	0.0168639
627.332	0.0168929
627.410	0.0168831
627.488	0.0168797
627.567	0.0168209
627.645	0.0168895
627.723	0.0169003
627.801	0.0169521
627.879	0.0168021
627.957	0.0167783
628.035	0.0169807
628.113	0.0167972
628.192	0.0169086
628.270	0.0168832
628.348	0.0168849
628.426	0.0168719
628.504	0.0168852
628.582	0.0169192
628.660	0.0169267
628.738	0.0169089
628.817	0.0169363
628.895	0.0168623
628.973	0.0169350
629.051	0.0169038
629.129	0.0167795
629.207	0.0168745
629.285	0.0167993
629.363	0.0169062
629.442	0.0167908
629.520	0.0168660
629.598	0.0168202
629.676	0.0169071
629.754	0.0169324
629.832	0.0168937
629.910	0.0169200
629.988	0.0169286
630.067	0.0168339
630.145	0.0169446
630.223	0.0168578
630.301	0.0168389
630.379	0.0168209
630.457	0.0169226
630.535	0.0169417
630.613	0.0168416
630.692	0.0167787
630.770	0.0169247
630.848	0.0169181
630.926	0.0170158
631.004	0.0168821
631.082	0.0169137
631.160	0.0168324
631.238	0.0169601
631.317	0.0169499
631.395	0.0170068
631.473	0.0168084
631.551	0.0169587
631.629	0.0169809
631.707	0.0170210
631.785	0.0169049
631.863	0.0168981
631.942	0.0169736
632.020	0.0168304
632.098	0.0169498
632.176	0.0169118
632.254	0.0167796
632.332	0.0168484
632.410	0.0168978
632.488	0.0168695
632.567	0.0170049
632.645	0.0169975
632.723	0.0169057
632.801	0.0167901
632.879	0.0168604
632.957	0.0168159
633.035	0.0169209
633.113	0.0168803
633.192	0.0168327
633.270	0.0168316
633.348	0.0167796
633.426	0.0169703
633.504	0.0170055
633.582	0.0168644
633.660	0.0168375
633.738	0.0169321
633.817	0.0169492
633.895	0.0169693
633.973	0.0168584
634.051	0.0168475
634.129	0.0168101
634.207	0.0168259
634.285	0.0169436
634.363	0.0169049
634.442	0.0168191
634.520	0.0167677
634.598	0.0169040
634.676	0.0168973
634.754	0.0169440
634.832	0.0168072
634.910	0.0168709
634.988	0.0168354
635.067	0.0170518
635.145	0.0169897
635.223	0.0168498
635.301	0.0168579
635.379	0.0169382
635.457	0.0168126
635.535	0.0168778
635.613	0.0168371
635.692	0.0168423
635.770	0.0168969
635.848	0.0168658
635.926	0.0167871
636.004	0.0168460
636.082	0.0168655
636.160	0.0168514
636.238	0.0168967
636.317	0.0169278
636.395	0.0169538
636.473	0.0167333
636.551	0.0168766
636.629	0.0169173
636.707	0.0168678
636.785	0.0169485
636.863	0.0168195
636.942	0.0169080
637.020	0.0168970
637.098	0.0169029
637.176	0.0169856
637.254	0.0168512
637.332	0.0169080
637.410	0.0167455
637.488	0.0168954
637.567	0.0169386
637.645	0.0168626
637.723	0.0169331
637.801	0.0169627
637.879	0.0169359
637.957	0.0169953
638.035	0.0169798
638.113	0.0168581
638.192	0.0169268
638.270	0.0168295
638.348	0.0169239
638.426	0.0169558
638.504	0.0168189
638.582	0.0169206
638.660	0.0168867
638.738	0.0169097
638.817	0.0169619
638.895	0.0168680
638.973	0.0169912
639.051	0.0169073
639.129	0.0168244
639.207	0.0169528
639.285	0.0170434
639.363	0.0170867
639.442	0.0169515
639.520	0.0168274
639.598	0.0166905
639.676	0.0168534
639.754	0.0168645
639.832	0.0169959
639.910	0.0170496
639.988	0.0168671
640.067	0.0168969
640.145	0.0169092
640.223	0.0169581
640.301	0.0170139
640.379	0.0168388
640.457	0.0170397
640.535	0.0169194
640.613	0.0169434
640.692	0.0169524
640.770	0.0169688
640.848	0.0170354
640.926	0.0167837
641.004	0.0168468
641.082	0.0170658
641.160	0.0168835
641.238	0.0169019
641.317	0.0169791
641.395	0.0170313
641.473	0.0169750
641.551	0.0168811
641.629	0.0169770
641.707	0.0170048
641.785	0.0168684
641.863	0.0169112
641.942	0.0169215
642.020	0.0166752
642.098	0.0168276
642.176	0.0170175
642.254	0.0170452
642.332	0.0169455
642.410	0.0169678
642.488	0.0170461
642.567	0.0170688
642.645	0.0168793
642.723	0.0168988
642.801	0.0168455
642.879	0.0169994
642.957	0.0167715
643.035	0.0168541
643.113	0.0169029
643.192	0.0167833
643.270	0.0168897
643.348	0.0170325
643.426	0.0167487
643.504	0.0169097
643.582	0.0169271
643.660	0.0168802
643.738	0.0168896
643.817	0.0169584
643.895	0.0170504
643.973	0.0169675
644.051	0.0170026
644.129	0.0170424
644.207	0.0170458
644.285	0.0169643
644.363	0.0168367
644.442	0.0169118
644.520	0.0169291
644.598	0.0170485
644.676	0.0168941
644.754	0.0170314
644.832	0.0168683
644.910	0.0169582
644.988	0.0170187
645.067	0.0170062
645.145	0.0168680
645.223	0.0169408
645.301	0.0169015
645.379	0.0168700
645.457	0.0168719
645.535	0.0168614
645.613	0.0169172
645.692	0.0169338
645.770	0.0166637
645.848	0.0169547
645.926	0.0170798
646.004	0.0168974
646.082	0.0168919
646.160	0.0168808
646.238	0.0169280
646.317	0.0168208
646.395	0.0168710
646.473	0.0169013
646.551	0.0170181
646.629	0.0169802
646.707	0.0170152
646.785	0.0169601
646.863	0.0169940
646.942	0.0169432
647.020	0.0168000
647.098	0.0168326
647.176	0.0170618
647.254	0.0168613
647.332	0.0169141
647.410	0.0168949
647.488	0.0168776
647.567	0.0169180
647.645	0.0168128
647.723	0.0168546
647.801	0.0169657
647.879	0.0170403
647.957	0.0169367
648.035	0.0167631
648.113	0.0169598
648.192	0.0168742
648.270	0.0169588
648.348	0.0170171
648.426	0.0168896
648.504	0.0169041
648.582	0.0168114
648.660	0.0169386
648.738	0.0169659
648.817	0.0167950
648.895	0.0168965
648.973	0.0168346
649.051	0.0169440
649.129	0.0169864
649.207	0.0168071
649.285	0.0169136
649.363	0.0168794
649.442	0.0170722
649.520	0.0170064
649.598	0.0168699
649.676	0.0168729
649.754	0.0169812
649.832	0.0169862
649.910	0.0169873
649.988	0.0169953
650.067	0.0169068
650.145	0.0167840
650.223	0.0168892
650.301	0.0167732
650.379	0.0169851
650.457	0.0169726
650.535	0.0170165
650.613	0.0168474
650.692	0.0168608
650.770	0.0168272
650.848	0.0169474
650.926	0.0169753
651.004	0.0169263
651.082	0.0168243
651.160	0.0170162
651.238	0.0170016
651.317	0.0168963
651.395	0.0168256
651.473	0.0170874
651.551	0.0169920
651.629	0.0169353
651.707	0.0170043
651.785	0.0169062
651.863	0.0167510
651.942	0.0169021
652.020	0.0169415
652.098	0.0168489
652.176	0.0167599
652.254	0.0169283
652.332	0.0168958
652.410	0.0169219
652.488	0.0168819
652.567	0.0170084
652.645	0.0168985
652.723	0.0168468
652.801	0.0167991
652.879	0.0169732
652.957	0.0169187
653.035	0.0169285
653.113	0.0170001
653.192	0.0168250
653.270	0.0167307
653.348	0.0169282
653.426	0.0168900
653.504	0.0169091
653.582	0.0167136
653.660	0.0168864
653.738	0.0168410
653.817	0.0167800
653.895	0.0168790
653.973	0.0167288
654.051	0.0167941
654.129	0.0168582
654.207	0.0169154
654.285	0.0168479
654.363	0.0168942
654.442	0.0169622
654.520	0.0168198
654.598	0.0169129
654.676	0.0168851
654.754	0.0169302
654.832	0.0168192
654.910	0.0169930
654.988	0.0169018
655.067	0.0168298
655.145	0.0169221
655.223	0.0168329
655.301	0.0168703
655.379	0.0169331
655.457	0.0168998
655.535	0.0169585
655.613	0.0169668
655.692	0.0169559
655.770	0.0169397
655.848	0.0168568
655.926	0.0167772
656.004	0.0168913
656.082	0.0169812
656.160	0.0170062
656.238	0.0169371
656.317	0.0170313
656.395	0.0170487
656.473	0.0168971
656.551	0.0168292
656.629	0.0168637
656.707	0.0170241
656.785	0.0168645
656.863	0.0169188
656.942	0.0169021
657.020	0.0169898
657.098	0.0168929
657.176	0.0167517
657.254	0.0169439
657.332	0.0169234
657.410	0.0168209
657.488	0.0168530
657.567	0.0170499
657.645	0.0169626
657.723	0.0169985
657.801	0.0168173
657.879	0.0170028
657.957	0.0169194
658.035	0.0169122
658.113	0.0168275
658.192	0.0169227
658.270	0.0169299
658.348	0.0169189
658.426	0.0169994
658.504	0.0168194
658.582	0.0167603
658.660	0.0169330
658.738	0.0169775
658.817	0.0169181
658.895	0.0169197
658.973	0.0168661
659.051	0.0169004
659.129	0.0169199
659.207	0.0169256
659.285	0.0169258
659.363	0.0168622
659.442	0.0168587
659.520	0.0168948
659.598	0.0169368
659.676	0.0169062
659.754	0.0168704
659.832	0.0168309
659.910	0.0168270
659.988	0.0170154
660.067	0.0169881
660.145	0.0168376
660.223	0.0169654
660.301	0.0167525
660.379	0.0169513
660.457	0.0169492
660.535	0.0168667
660.613	0.0169144
660.692	0.0168747
660.770	0.0169099
660.848	0.0168196
660.926	0.0167682
661.004	0.0169135
661.082	0.0170660
661.160	0.0168411
661.238	0.0167499
661.317	0.0169099
661.395	0.0168366
661.473	0.0168674
661.551	0.0169073
661.629	0.0168928
661.707	0.0167714
661.785	0.0168414
661.863	0.0169706
661.942	0.0169024
662.020	0.0168535
662.098	0.0168295
662.176	0.0169371
662.254	0.0168140
662.332	0.0168554
662.410	0.0168581
662.488	0.0168780
662.567	0.0168528
662.645	0.0168569
662.723	0.0169690
662.801	0.0167553
662.879	0.0167258
662.957	0.0169636
663.035	0.0169490
663.113	0.0169213
663.192	0.0169027
663.270	0.0167758
663.348	0.0168157
663.426	0.0169559
663.504	0.0168195
663.582	0.0169009
663.660	0.0167641
663.738	0.0167903
663.817	0.0167854
663.895	0.0169273
663.973	0.0166605
664.051	0.0168472
664.129	0.0168451
664.207	0.0167545
664.285	0.0168840
664.363	0.0169352
664.442	0.0168404
664.520	0.0168714
664.598	0.0169467
664.676	0.0168830
664.754	0.0167811
664.832	0.0168710
664.910	0.0169151
664.988	0.0169135
665.067	0.0168709
665.145	0.0169829
665.223	0.0169742
665.301	0.0169416
665.379	0.0170496
665.457	0.0170731
665.535	0.0169209
665.613	0.0168377
665.692	0.0168867
665.770	0.0170151
665.848	0.0169337
665.926	0.0167666
666.004	0.0170808
666.082	0.0169483
666.160	0.0169526
666.238	0.0169258
666.317	0.0169970
666.395	0.0169989
666.473	0.0169372
666.551	0.0170564
666.629	0.0170442
666.707	0.0170458
666.785	0.0169223
666.863	0.0169302
666.942	0.0169678
667.020	0.0170908
667.098	0.0169985
667.176	0.0170070
667.254	0.0169504
667.332	0.0169267
667.410	0.0170525
667.488	0.0169199
667.567	0.0169723
667.645	0.0170204
667.723	0.0169567
667.801	0.0169295
667.879	0.0169707
667.957	0.0170671
668.035	0.0169711
668.113	0.0169814
668.192	0.0169196
668.270	0.0169701
668.348	0.0168935
668.426	0.0170872
668.504	0.0169166
668.582	0.0170597
668.660	0.0169360
668.738	0.0169341
668.817	0.0168326
668.895	0.0169714
668.973	0.0169421
669.051	0.0171810
669.129	0.0170787
669.207	0.0169738
669.285	0.0169227
669.363	0.0169009
669.442	0.0169663
669.520	0.0169157
669.598	0.0170459
669.676	0.0171312
669.754	0.0170473
669.832	0.0169999
669.910	0.0169618
669.988	0.0169312
670.067	0.0170325
670.145	0.0169917
670.223	0.0170381
670.301	0.0169754
670.379	0.0170086
670.457	0.0169304
670.535	0.0169045
670.613	0.0170343
670.692	0.0169529
670.770	0.0170651
670.848	0.0169454
670.926	0.0169663
671.004	0.0169997
671.082	0.0170933
671.160	0.0170773
671.238	0.0169556
671.317	0.0170232
671.395	0.0169480
671.473	0.0168554
671.551	0.0169581
671.629	0.0168805
671.707	0.0169299
671.785	0.0169063
671.863	0.0169013
671.942	0.0170287
672.020	0.0168550
672.098	0.0168611
672.176	0.0169052
672.254	0.0168558
672.332	0.0169302
672.410	0.0168823
672.488	0.0168187
672.567	0.0169164
672.645	0.0169888
672.723	0.0167636
672.801	0.0168124
672.879	0.0168461
672.957	0.0168432
673.035	0.0168787
673.113	0.0168673
673.192	0.0169247
673.270	0.0167857
673.348	0.0168163
673.426	0.0170591
673.504	0.0168866
673.582	0.0167654
673.660	0.0169026
673.738	0.0168053
673.817	0.0168446
673.895	0.0168192
673.973	0.0168919
674.051	0.0168872
674.129	0.0169476
674.207	0.0167990
674.285	0.0168781
674.363	0.0167841
674.442	0.0168966
674.520	0.0168848
674.598	0.0169154
674.676	0.0167428
674.754	0.0167611
674.832	0.0167559
674.910	0.0166623
674.988	0.0166907
675.067	0.0167882
675.145	0.0168377
675.223	0.0168409
675.301	0.0168510
675.379	0.0167184
675.457	0.0168216
675.535	0.0167850
675.613	0.0168165
675.692	0.0168339
675.770	0.0168343
675.848	0.0168495
675.926	0.0169427
676.004	0.0168791
676.082	0.0168193
676.160	0.0167822
676.238	0.0168494
676.317	0.0167843
676.395	0.0168154
676.473	0.0170087
676.551	0.0168182
676.629	0.0169381
676.707	0.0168617
676.785	0.0167603
676.863	0.0168923
676.942	0.0170155
677.020	0.0167656
677.098	0.0166983
677.176	0.0168650
677.254	0.0168335
677.332	0.0168591
677.410	0.0169360
677.488	0.0168401
677.567	0.0167863
677.645	0.0168987
677.723	0.0169358
677.801	0.0168550
677.879	0.0168839
677.957	0.0169444
678.035	0.0168859
678.113	0.0167955
678.192	0.0167980
678.270	0.0169367
678.348	0.0168517
678.426	0.0167616
678.504	0.0169717
678.582	0.0168356
678.660	0.0170495
678.738	0.0169906
678.817	0.0170123
678.895	0.0168887
678.973	0.0169946
679.051	0.0169826
679.129	0.0168286
679.207	0.0170470
679.285	0.0170686
679.363	0.0169642
679.442	0.0169482
679.520	0.0169706
679.598	0.0169702
679.676	0.0169818
679.754	0.0169259
679.832	0.0168826
679.910	0.0169917
679.988	0.0169442
680.067	0.0168715
680.145	0.0168340
680.223	0.0168417
680.301	0.0170347
680.379	0.0169517
680.457	0.0168616
680.535	0.0169070
680.613	0.0169987
680.692	0.0171062
680.770	0.0168192
680.848	0.0168645
680.926	0.0169956
681.004	0.0168896
681.082	0.0168786
681.160	0.0169246
681.238	0.0170322
681.317	0.0170776
681.395	0.0167935
681.473	0.0168818
681.551	0.0170276
681.629	0.0169698
681.707	0.0169259
681.785	0.0169479
681.863	0.0170472
681.942	0.0169540
682.020	0.0169923
682.098	0.0171053
682.176	0.0169278
682.254	0.0169979
682.332	0.0170219
682.410	0.0170876
682.488	0.0171889
682.567	0.0170010
682.645	0.0169885
682.723	0.0169477
682.801	0.0168082
682.879	0.0168188
682.957	0.0168086
683.035	0.0165615
683.113	0.0166219
683.192	0.0165859
683.270	0.0166482
683.348	0.0167201
683.426	0.0168555
683.504	0.0171033
683.582	0.0173420
683.660	0.0174375
683.738	0.0176601
683.817	0.0178226
683.895	0.0178465
683.973	0.0179933
684.051	0.0177785
684.129	0.0176097
684.207	0.0173668
684.285	0.0167600
684.363	0.0162524
684.442	0.0156950
684.520	0.0149714
684.598	0.0146822
684.676	0.0142783
684.754	0.0140760
684.832	0.0139560
684.910	0.0143471
684.988	0.0149562
685.067	0.0154496
685.145	0.0163193
685.223	0.0175410
685.301	0.0185413
685.379	0.0197189
685.457	0.0206510
685.535	0.0215244
685.613	0.0223045
685.692	0.0227788
685.770	0.0227581
685.848	0.0224783
685.926	0.0217338
686.004	0.0206742
686.082	0.0193860
686.160	0.0178150
686.238	0.0161879
686.317	0.0143145
686.395	0.0127562
686.473	0.0112002
686.551	0.00999451
686.629	0.00893448
686.707	0.00830101
686.785	0.00796112
686.863	0.00808937
686.942	0.00843338
687.020	0.00913506
687.098	0.0103323
687.176	0.0119467
687.254	0.0140966
687.332	0.0162673
687.410	0.0188506
687.488	0.0213544
687.567	0.0239571
687.645	0.0264017
687.723	0.0283203
687.801	0.0298480
687.879	0.0309703
687.957	0.0311427
688.035	0.0308278
688.113	0.0294941
688.192	0.0276553
688.270	0.0253796
688.348	0.0225204
688.426	0.0194824
688.504	0.0163822
688.582	0.0134895
688.660	0.0108294
688.738	0.00863045
688.817	0.00689743
688.895	0.00547569
688.973	0.00469742
689.051	0.00425186
689.129	0.00423981
689.207	0.00458061
689.285	0.00534775
689.363	0.00654160
689.442	0.00770065
689.520	0.00931007
689.598	0.0110348
689.676	0.0127007
689.754	0.0148639
689.832	0.0171047
689.910	0.0188882
689.988	0.0207813
690.067	0.0227208
690.145	0.0242499
690.223	0.0255998
690.301	0.0267600
690.379	0.0272137
690.457	0.0271342
690.535	0.0268211
690.613	0.0261001
690.692	0.0250103
690.770	0.0237229
690.848	0.0221580
690.926	0.0206844
691.004	0.0190950
691.082	0.0178020
691.160	0.0163927
691.238	0.0153117
691.317	0.0143359
691.395	0.0136611
691.473	0.0128572
691.551	0.0124856
691.629	0.0122545
691.707	0.0120379
691.785	0.0120528
691.863	0.0122201
691.942	0.0125132
692.020	0.0126659
692.098	0.0132232
692.176	0.0134682
692.254	0.0140722
692.332	0.0149129
692.410	0.0153622
692.488	0.0156898
692.567	0.0164407
692.645	0.0169749
692.723	0.0174213
692.801	0.0179539
692.879	0.0183401
692.957	0.0187278
693.035	0.0189638
693.113	0.0192831
693.192	0.0193015
693.270	0.0196424
693.348	0.0199061
693.426	0.0200263
693.504	0.0199767
693.582	0.0199092
693.660	0.0196892
693.738	0.0194149
693.817	0.0190392
693.895	0.0186436
693.973	0.0182232
694.051	0.0177684
694.129	0.0171132
694.207	0.0166530
694.285	0.0159718
694.363	0.0155144
694.442	0.0151141
694.520	0.0147421
694.598	0.0143275
694.676	0.0141803
694.754	0.0139375
694.832	0.0139991
694.910	0.0138083
694.988	0.0138386
695.067	0.0139206
695.145	0.0140900
695.223	0.0140611
695.301	0.0144799
695.379	0.0146509
695.457	0.0149148
695.535	0.0151873
695.613	0.0157197
695.692	0.0162447
695.770	0.0168877
695.848	0.0173085
695.926	0.0179427
696.004	0.0186194
696.082	0.0193566
696.160	0.0201157
696.238	0.0206455
696.317	0.0212005
696.395	0.0215591
696.473	0.0216650
696.551	0.0219449
696.629	0.0217407
696.707	0.0213560
696.785	0.0207386
696.863	0.0200838
696.942	0.0194924
697.020	0.0186955
697.098	0.0178918
697.176	0.0169507
697.254	0.0162609
697.332	0.0154929
697.410	0.0146413
697.488	0.0140685
697.567	0.0137729
697.645	0.0134338
697.723	0.0132967
697.801	0.0130086
697.879	0.0129673
697.957	0.0133415
698.035	0.0134453
698.113	0.0141230
698.192	0.0146832
698.270	0.0152897
698.348	0.0156425
698.426	0.0162376
698.504	0.0168057
698.582	0.0173309
698.660	0.0178046
698.738	0.0181454
698.817	0.0183541
698.895	0.0184917
698.973	0.0186107
699.051	0.0187645
699.129	0.0188132
699.207	0.0185128
699.285	0.0183682
699.363	0.0181657
699.442	0.0179247
699.520	0.0175300
699.598	0.0173930
699.676	0.0170087
699.754	0.0168505
699.832	0.0163929
699.910	0.0162212
699.988	0.0161280
700.067	0.0159431
700.145	0.0158960
700.223	0.0157307
700.301	0.0158214
700.379	0.0160214
700.457	0.0163165
700.535	0.0166212
700.613	0.0169257
700.692	0.0170702
700.770	0.0173252
700.848	0.0175936
700.926	0.0179124
701.004	0.0179227
701.082	0.0180244
701.160	0.0180713
701.238	0.0178338
701.317	0.0176823
701.395	0.0174959
701.473	0.0170098
701.551	0.0167076
701.629	0.0164790
701.707	0.0162024
701.785	0.0160510
701.863	0.0156602
701.942	0.0156375
702.020	0.0155676
702.098	0.0158881
702.176	0.0159785
702.254	0.0161705
702.332	0.0166140
702.410	0.0169536
702.488	0.0172488
702.567	0.0175831
702.645	0.0179268
702.723	0.0179940
702.801	0.0182296
702.879	0.0183591
702.957	0.0185278
703.035	0.0184147
703.113	0.0183257
703.192	0.0182153
703.270	0.0179796
703.348	0.0178085
703.426	0.0174654
703.504	0.0171796
703.582	0.0169582
703.660	0.0169042
703.738	0.0166479
703.817	0.0165067
703.895	0.0163129
703.973	0.0162824
704.051	0.0162521
704.129	0.0162634
704.207	0.0162388
704.285	0.0164815
704.363	0.0164256
704.442	0.0164745
704.520	0.0165137
704.598	0.0164185
704.676	0.0163085
704.754	0.0161050
704.832	0.0160726
704.910	0.0158564
704.988	0.0157773
705.067	0.0157943
705.145	0.0157553
705.223	0.0157234
705.301	0.0159229
705.379	0.0159409
705.457	0.0159996
705.535	0.0162840
705.613	0.0164694
705.692	0.0166118
705.770	0.0169631
705.848	0.0172922
705.926	0.0174447
706.004	0.0174991
706.082	0.0177868
706.160	0.0177946
706.238	0.0178814
706.317	0.0180124
706.395	0.0179071
706.473	0.0178136
706.551	0.0178797
706.629	0.0179885
706.707	0.0178088
706.785	0.0176833
706.863	0.0177156
706.942	0.0177493
707.020	0.0177425
707.098	0.0176822
707.176	0.0177972
707.254	0.0177979
707.332	0.0177763
707.410	0.0175033
707.488	0.0174140
707.567	0.0173705
707.645	0.0171235
707.723	0.0170681
707.801	0.0170944
707.879	0.0169448
707.957	0.0168830
708.035	0.0167514
708.113	0.0166461
708.192	0.0165582
708.270	0.0166643
708.348	0.0166044
708.426	0.0167385
708.504	0.0167212
708.582	0.0165670
708.660	0.0164912
708.738	0.0163061
708.817	0.0164983
708.895	0.0163322
708.973	0.0162372
709.051	0.0161976
709.129	0.0161948
709.207	0.0163524
709.285	0.0160065
709.363	0.0160534
709.442	0.0161673
709.520	0.0161629
709.598	0.0159844
709.676	0.0160559
709.754	0.0161578
709.832	0.0162753
709.910	0.0162669
709.988	0.0162837
710.067	0.0163405
710.145	0.0164388
710.223	0.0165781
710.301	0.0167918
710.379	0.0168921
710.457	0.0170222
710.535	0.0172237
710.613	0.0173817
710.692	0.0175479
710.770	0.0176531
710.848	0.0176237
710.926	0.0178274
711.004	0.0178238
711.082	0.0176202
711.160	0.0176970
711.238	0.0176765
711.317	0.0176514
711.395	0.0173283
711.473	0.0173695
711.551	0.0174046
711.629	0.0173685
711.707	0.0171895
711.785	0.0172776
711.863	0.0173522
711.942	0.0170219
712.020	0.0171207
712.098	0.0171364
712.176	0.0170699
712.254	0.0171107
712.332	0.0168942
712.410	0.0168683
712.488	0.0167514
712.567	0.0166760
712.645	0.0167608
712.723	0.0165748
712.801	0.0165205
712.879	0.0164066
712.957	0.0164425
713.035	0.0164059
713.113	0.0163309
713.192	0.0164510
713.270	0.0163483
713.348	0.0165611
713.426	0.0166309
713.504	0.0165350
713.582	0.0168004
713.660	0.0167623
713.738	0.0166678
713.817	0.0166924
713.895	0.0167954
713.973	0.0167970
714.051	0.0165426
714.129	0.0165247
714.207	0.0164971
714.285	0.0164907
714.363	0.0165123
714.442	0.0165115
714.520	0.0165225
714.598	0.0164724
714.676	0.0165360
714.754	0.0165253
714.832	0.0166342
714.910	0.0168143
714.988	0.0169176
715.067	0.0170599
715.145	0.0171225
715.223	0.0173048
715.301	0.0174740
715.379	0.0175372
715.457	0.0177022
715.535	0.0176184
715.613	0.0175912
715.692	0.0175981
715.770	0.0175858
715.848	0.0173098
715.926	0.0171770
716.004	0.0169342
716.082	0.0168548
716.160	0.0168758
716.238	0.0168178
716.317	0.0167631
716.395	0.0165379
716.473	0.0165330
716.551	0.0166836
716.629	0.0166022
716.707	0.0168275
716.785	0.0168430
716.863	0.0169029
716.942	0.0170926
717.020	0.0171525
717.098	0.0171555
717.176	0.0173319
717.254	0.0174229
717.332	0.0175113
717.410	0.0174819
717.488	0.0174061
717.567	0.0172980
717.645	0.0171324
717.723	0.0169778
717.801	0.0168976
717.879	0.0166545
717.957	0.0165096
718.035	0.0165060
718.113	0.0162306
718.192	0.0159073
718.270	0.0159747
718.348	0.0160590
718.426	0.0159995
718.504	0.0160067
718.582	0.0161240
718.660	0.0163389
718.738	0.0163107
718.817	0.0165365
718.895	0.0167570
718.973	0.0168798
719.051	0.0170229
719.129	0.0171684
719.207	0.0172932
719.285	0.0173494
719.363	0.0173055
719.442	0.0174364
719.520	0.0176357
719.598	0.0175258
719.676	0.0174037
719.754	0.0174406
719.832	0.0172411
719.910	0.0171448
719.988	0.0171577
720.067	0.0170670
720.145	0.0170228
720.223	0.0170961
720.301	0.0169270
720.379	0.0168647
720.457	0.0168300
720.535	0.0168841
720.613	0.0169299
720.692	0.0169852
720.770	0.0169884
720.848	0.0171580
720.926	0.0171183
721.004	0.0171330
721.082	0.0172536
721.160	0.0172772
721.238	0.0172810
721.317	0.0173805
721.395	0.0172512
721.473	0.0171255
721.551	0.0172198
721.629	0.0169250
721.707	0.0170443
721.785	0.0169701
721.863	0.0168192
721.942	0.0168774
722.020	0.0167216
722.098	0.0167141
722.176	0.0166237
722.254	0.0165572
722.332	0.0165500
722.410	0.0164258
722.488	0.0163273
722.567	0.0164960
722.645	0.0163506
722.723	0.0163704
722.801	0.0163718
722.879	0.0163403
722.957	0.0164130
723.035	0.0164647
723.113	0.0165251
723.192	0.0165705
723.270	0.0165340
723.348	0.0168552
723.426	0.0170330
723.504	0.0170659
723.582	0.0170415
723.660	0.0170877
723.738	0.0171920
723.817	0.0173177
723.895	0.0172436
723.973	0.0172961
724.051	0.0176172
724.129	0.0173808
724.207	0.0173599
724.285	0.0175549
724.363	0.0174250
724.442	0.0174103
724.520	0.0173864
724.598	0.0171421
724.676	0.0172963
724.754	0.0172289
724.832	0.0171295
724.910	0.0170898
724.988	0.0169754
725.067	0.0168748
725.145	0.0167323
725.223	0.0167046
725.301	0.0166245
725.379	0.0166232
725.457	0.0164594
725.535	0.0165028
725.613	0.0166196
725.692	0.0166148
725.770	0.0166706
725.848	0.0167069
725.926	0.0167953
726.004	0.0169500
726.082	0.0169386
726.160	0.0170524
726.238	0.0172400
726.317	0.0171267
726.395	0.0171933
726.473	0.0170407
726.551	0.0169497
726.629	0.0169696
726.707	0.0167592
726.785	0.0168392
726.863	0.0167223
726.942	0.0168470
727.020	0.0166898
727.098	0.0165745
727.176	0.0164387
727.254	0.0165781
727.332	0.0163102
727.410	0.0164291
727.488	0.0166022
727.567	0.0164011
727.645	0.0163606
727.723	0.0164024
727.801	0.0164024
727.879	0.0164350
727.957	0.0166113
728.035	0.0166300
728.113	0.0168938
728.192	0.0169687
728.270	0.0169920
728.348	0.0171402
728.426	0.0172026
728.504	0.0172890
728.582	0.0174760
728.660	0.0173504
728.738	0.0173607
728.817	0.0174592
728.895	0.0174423
728.973	0.0175056
729.051	0.0174140
729.129	0.0173827
729.207	0.0174095
729.285	0.0171513
729.363	0.0171135
729.442	0.0172135
729.520	0.0171064
729.598	0.0170352
729.676	0.0171124
729.754	0.0170811
729.832	0.0169874
729.910	0.0169737
729.988	0.0167867
730.067	0.0167977
730.145	0.0167044
730.223	0.0165076
730.301	0.0164957
730.379	0.0164948
730.457	0.0165317
730.535	0.0164684
730.613	0.0162769
730.692	0.0163591
730.770	0.0164796
730.848	0.0165116
730.926	0.0166017
731.004	0.0167402
731.082	0.0167344
731.160	0.0167944
731.238	0.0169157
731.317	0.0170486
731.395	0.0171526
731.473	0.0171886
731.551	0.0173817
731.629	0.0173723
731.707	0.0174982
731.785	0.0175824
731.863	0.0175323
731.942	0.0175146
732.020	0.0175484
732.098	0.0174041
732.176	0.0173054
732.254	0.0174718
732.332	0.0173162
732.410	0.0170710
732.488	0.0170954
732.567	0.0169453
732.645	0.0168788
732.723	0.0166103
732.801	0.0165533
732.879	0.0165432
732.957	0.0163655
733.035	0.0162260
733.113	0.0162700
733.192	0.0161556
733.270	0.0162615
733.348	0.0164261
733.426	0.0164198
733.504	0.0164008
733.582	0.0165239
733.660	0.0165759
733.738	0.0166599
733.817	0.0169211
733.895	0.0169272
733.973	0.0172996
734.051	0.0171839
734.129	0.0172566
734.207	0.0172467
734.285	0.0172096
734.363	0.0171194
734.442	0.0173379
734.520	0.0174533
734.598	0.0173803
734.676	0.0172472
734.754	0.0173332
734.832	0.0173378
734.910	0.0172096
734.988	0.0171693
735.067	0.0172509
735.145	0.0172877
735.223	0.0173247
735.301	0.0171006
735.379	0.0170069
735.457	0.0169651
735.535	0.0168774
735.613	0.0168615
735.692	0.0168245
735.770	0.0166959
735.848	0.0167960
735.926	0.0165880
736.004	0.0166460
736.082	0.0167735
736.160	0.0167364
736.238	0.0166080
736.317	0.0168951
736.395	0.0168288
736.473	0.0169094
736.551	0.0167543
736.629	0.0168235
736.707	0.0168283
736.785	0.0168160
736.863	0.0167625
736.942	0.0168195
737.020	0.0167117
737.098	0.0166799
737.176	0.0168097
737.254	0.0167711
737.332	0.0166644
737.410	0.0167250
737.488	0.0166574
737.567	0.0166458
737.645	0.0165906
737.723	0.0165204
737.801	0.0164123
737.879	0.0163538
737.957	0.0162981
738.035	0.0161683
738.113	0.0162921
738.192	0.0163247
738.270	0.0162865
738.348	0.0163883
738.426	0.0164271
738.504	0.0165789
738.582	0.0167052
738.660	0.0167773
738.738	0.0168607
738.817	0.0171838
738.895	0.0172713
738.973	0.0173957
739.051	0.0174786
739.129	0.0176022
739.207	0.0176085
739.285	0.0176438
739.363	0.0175761
739.442	0.0176609
739.520	0.0174432
739.598	0.0174107
739.676	0.0173263
739.754	0.0171989
739.832	0.0172048
739.910	0.0171566
739.988	0.0169627
740.067	0.0168922
740.145	0.0168363
740.223	0.0169169
740.301	0.0167585
740.379	0.0166269
740.457	0.0166911
740.535	0.0166801
740.613	0.0167363
740.692	0.0167233
740.770	0.0167493
740.848	0.0166277
740.926	0.0168857
741.004	0.0168419
741.082	0.0168368
741.160	0.0168243
741.238	0.0168813
741.317	0.0168594
741.395	0.0167135
741.473	0.0165710
741.551	0.0167627
741.629	0.0167926
741.707	0.0165946
741.785	0.0166707
741.863	0.0167464
741.942	0.0169030
742.020	0.0170065
742.098	0.0169120
742.176	0.0170235
742.254	0.0170420
742.332	0.0171069
742.410	0.0172073
742.488	0.0170050
742.567	0.0172285
742.645	0.0170962
742.723	0.0170567
742.801	0.0169267
742.879	0.0168584
742.957	0.0167363
743.035	0.0165997
743.113	0.0165904
743.192	0.0164217
743.270	0.0163322
743.348	0.0161910
743.426	0.0160785
743.504	0.0161890
743.582	0.0161868
743.660	0.0162658
743.738	0.0162436
743.817	0.0162169
743.895	0.0164587
743.973	0.0165479
744.051	0.0165542
744.129	0.0168176
744.207	0.0170331
744.285	0.0172514
744.363	0.0173206
744.442	0.0171886
744.520	0.0175998
744.598	0.0175405
744.676	0.0177424
744.754	0.0175816
744.832	0.0177771
744.910	0.0177453
744.988	0.0177498
745.067	0.0177076
745.145	0.0177309
745.223	0.0175686
745.301	0.0175372
745.379	0.0174966
745.457	0.0173920
745.535	0.0172815
745.613	0.0172126
745.692	0.0172616
745.770	0.0171707
745.848	0.0170928
745.926	0.0169616
746.004	0.0167412
746.082	0.0168063
746.160	0.0166647
746.238	0.0167709
746.317	0.0168729
746.395	0.0167111
746.473	0.0166023
746.551	0.0166137
746.629	0.0166110
746.707	0.0167728
746.785	0.0167972
746.863	0.0166867
746.942	0.0167341
747.020	0.0170326
747.098	0.0170720
747.176	0.0169595
747.254	0.0170275
747.332	0.0170615
747.410	0.0169579
747.488	0.0170294
747.567	0.0171920
747.645	0.0170188
747.723	0.0170329
747.801	0.0170581
747.879	0.0168136
747.957	0.0169065
748.035	0.0167764
748.113	0.0168579
748.192	0.0167033
748.270	0.0167236
748.348	0.0165351
748.426	0.0165114
748.504	0.0166201
748.582	0.0166399
748.660	0.0165254
748.738	0.0164922
748.817	0.0165343
748.895	0.0164172
748.973	0.0165184
749.051	0.0164959
749.129	0.0165709
749.207	0.0165787
749.285	0.0167041
749.363	0.0166404
749.442	0.0167078
749.520	0.0168507
749.598	0.0169058
749.676	0.0170174
749.754	0.0168831
749.832	0.0170235
749.910	0.0171668
749.988	0.0169863
750.067	0.0170741
750.145	0.0170393
750.223	0.0169816
750.301	0.0169976
750.379	0.0168442
750.457	0.0169218
750.535	0.0169366
750.613	0.0167628
750.692	0.0168896
750.770	0.0167979
750.848	0.0169001
750.926	0.0169946
751.004	0.0167382
751.082	0.0169051
751.160	0.0169798
751.238	0.0169704
751.317	0.0169984
751.395	0.0170705
751.473	0.0171240
751.551	0.0170980
751.629	0.0171488
751.707	0.0170911
751.785	0.0171992
751.863	0.0169852
751.942	0.0172097
752.020	0.0171851
752.098	0.0172208
752.176	0.0172398
752.254	0.0172169
752.332	0.0171748
752.410	0.0171693
752.488	0.0171064
752.567	0.0172028
752.645	0.0171459
752.723	0.0172005
752.801	0.0172047
752.879	0.0171540
752.957	0.0169259
753.035	0.0170705
753.113	0.0168924
753.192	0.0169419
753.270	0.0169825
753.348	0.0168021
753.426	0.0167410
753.504	0.0167326
753.582	0.0164713
753.660	0.0166586
753.738	0.0163443
753.817	0.0163390
753.895	0.0163034
753.973	0.0162439
754.051	0.0162570
754.129	0.0162407
754.207	0.0162392
754.285	0.0162956
754.363	0.0162460
754.442	0.0165366
754.520	0.0164806
754.598	0.0165855
754.676	0.0167760
754.754	0.0168966
754.832	0.0170228
754.910	0.0171687
754.988	0.0171030
755.067	0.0172463
755.145	0.0173438
755.223	0.0173115
755.301	0.0173958
755.379	0.0173318
755.457	0.0172897
755.535	0.0173701
755.613	0.0171954
755.692	0.0170689
755.770	0.0171793
755.848	0.0171295
755.926	0.0170366
756.004	0.0169623
756.082	0.0169790
756.160	0.0169896
756.238	0.0169450
756.317	0.0171472
756.395	0.0170730
756.473	0.0169677
756.551	0.0170317
756.629	0.0171601
756.707	0.0171790
756.785	0.0170808
756.863	0.0170074
756.942	0.0170696
757.020	0.0171027
757.098	0.0172070
757.176	0.0169687
757.254	0.0167175
757.332	0.0168780
757.410	0.0168166
757.488	0.0167919
757.567	0.0168462
757.645	0.0166962
757.723	0.0168347
757.801	0.0168558
757.879	0.0168370
757.957	0.0168877
758.035	0.0168187
758.113	0.0168999
758.192	0.0168459
758.270	0.0168842
758.348	0.0169942
758.426	0.0168929
758.504	0.0169977
758.582	0.0169053
758.660	0.0170016
758.738	0.0168541
758.817	0.0170023
758.895	0.0170419
758.973	0.0169676
759.051	0.0170670
759.129	0.0170610
759.207	0.0170287
759.285	0.0170066
759.363	0.0171828
759.442	0.0171706
759.520	0.0170860
759.598	0.0172354
759.676	0.0171689
759.754	0.0172107
759.832	0.0173234
759.910	0.0173045
759.988	0.0171536
760.067	0.0173510
760.145	0.0172552
760.223	0.0172304
760.301	0.0170788
760.379	0.0171327
760.457	0.0170983
760.535	0.0168193
760.613	0.0169127
760.692	0.0169666
760.770	0.0170265
760.848	0.0168079
760.926	0.0167448
761.004	0.0166052
761.082	0.0166905
761.160	0.0166803
761.238	0.0165892
761.317	0.0165279
761.395	0.0164989
761.473	0.0165043
761.551	0.0166837
761.629	0.0166753
761.707	0.0166122
761.785	0.0166431
761.863	0.0165755
761.942	0.0166068
762.020	0.0166975
762.098	0.0168372
762.176	0.0167405
762.254	0.0167921
762.332	0.0168355
762.410	0.0168356
762.488	0.0169241
762.567	0.0168891
762.645	0.0168559
762.723	0.0169853
762.801	0.0170543
762.879	0.0169785
762.957	0.0170432
763.035	0.0169855
763.113	0.0170319
763.192	0.0169743
763.270	0.0169603
763.348	0.0169880
763.426	0.0169981
763.504	0.0169811
763.582	0.0170441
763.660	0.0169368
763.738	0.0168757
763.817	0.0167610
763.895	0.0168927
763.973	0.0169650
764.051	0.0169149
764.129	0.0168819
764.207	0.0169384
764.285	0.0170759
764.363	0.0169563
764.442	0.0170368
764.520	0.0172183
764.598	0.0171833
764.676	0.0170717
764.754	0.0172369
764.832	0.0172797
764.910	0.0171745
764.988	0.0171795
765.067	0.0172921
765.145	0.0171983
765.223	0.0170938
765.301	0.0169991
765.379	0.0168732
765.457	0.0170107
765.535	0.0169066
765.613	0.0170301
765.692	0.0170951
765.770	0.0169584
765.848	0.0169286
765.926	0.0170330
766.004	0.0168639
766.082	0.0169634
766.160	0.0169077
766.238	0.0171269
766.317	0.0170374
766.395	0.0170985
766.473	0.0170555
766.551	0.0171227
766.629	0.0171320
766.707	0.0171555
766.785	0.0171378
766.863	0.0172439
766.942	0.0171567
767.020	0.0170197
767.098	0.0170168
767.176	0.0169801
767.254	0.0171486
767.332	0.0168952
767.410	0.0168919
767.488	0.0169987
767.567	0.0169132
767.645	0.0167442
767.723	0.0166021
767.801	0.0167735
767.879	0.0167796
767.957	0.0166219
768.035	0.0166130
768.113	0.0165032
768.192	0.0164172
768.270	0.0163430
768.348	0.0164128
768.426	0.0163808
768.504	0.0164233
768.582	0.0164783
768.660	0.0163718
768.738	0.0163639
768.817	0.0165323
768.895	0.0165903
768.973	0.0166694
769.051	0.0168184
769.129	0.0167725
769.207	0.0169559
769.285	0.0170140
769.363	0.0169488
769.442	0.0171828
769.520	0.0171635
769.598	0.0171409
769.676	0.0170657
769.754	0.0170689
769.832	0.0172006
769.910	0.0170770
769.988	0.0170222
770.067	0.0170513
770.145	0.0171242
770.223	0.0171162
770.301	0.0171293
770.379	0.0171478
770.457	0.0171978
770.535	0.0171460
770.613	0.0171431
770.692	0.0172340
770.770	0.0172086
770.848	0.0172630
770.926	0.0173233
771.004	0.0173197
771.082	0.0172336
771.160	0.0171642
771.238	0.0170730
771.317	0.0171588
771.395	0.0169965
771.473	0.0170565
771.551	0.0170061
771.629	0.0170279
771.707	0.0167786
771.785	0.0167654
771.863	0.0168901
771.942	0.0168884
772.020	0.0169254
772.098	0.0167953
772.176	0.0167697
772.254	0.0168896
772.332	0.0168355
772.410	0.0170245
772.488	0.0168741
772.567	0.0169341
772.645	0.0169841
772.723	0.0170695
772.801	0.0170195
772.879	0.0171193
772.957	0.0170220
773.035	0.0171072
773.113	0.0170300
773.192	0.0167999
773.270	0.0167679
773.348	0.0168480
773.426	0.0166637
773.504	0.0166889
773.582	0.0166241
773.660	0.0166573
773.738	0.0165547
773.817	0.0164828
773.895	0.0162729
773.973	0.0165089
774.051	0.0163177
774.129	0.0163767
774.207	0.0164129
774.285	0.0163860
774.363	0.0165110
774.442	0.0165453
774.520	0.0167645
774.598	0.0167515
774.676	0.0167253
774.754	0.0167276
774.832	0.0169485
774.910	0.0168384
774.988	0.0168514
775.067	0.0169906
775.145	0.0169611
775.223	0.0171105
775.301	0.0170765
775.379	0.0171258
775.457	0.0171851
775.535	0.0170824
775.613	0.0172216
775.692	0.0171777
775.770	0.0172100
775.848	0.0172113
775.926	0.0172079
776.004	0.0171588
776.082	0.0172008
776.160	0.0171454
776.238	0.0171590
776.317	0.0171542
776.395	0.0170468
776.473	0.0171371
776.551	0.0171655
776.629	0.0169885
776.707	0.0172097
776.785	0.0171938
776.863	0.0170514
776.942	0.0171001
777.020	0.0171910
777.098	0.0169917
777.176	0.0169331
777.254	0.0172580
777.332	0.0170635
777.410	0.0169855
777.488	0.0169656
777.567	0.0169231
777.645	0.0168055
777.723	0.0168576
777.801	0.0167924
777.879	0.0168532
777.957	0.0168615
778.035	0.0168115
778.113	0.0168584
778.192	0.0167928
778.270	0.0166525
778.348	0.0165948
778.426	0.0166784
778.504	0.0166450
778.582	0.0166636
778.660	0.0167135
778.738	0.0166724
778.817	0.0165505
778.895	0.0165862
778.973	0.0166228
779.051	0.0165722
779.129	0.0167432
779.207	0.0167100
779.285	0.0165195
779.363	0.0167680
779.442	0.0166821
779.520	0.0166794
779.598	0.0167494
779.676	0.0166837
779.754	0.0167873
779.832	0.0168941
779.910	0.0168855
779.988	0.0170477
780.067	0.0169904
780.145	0.0171133
780.223	0.0171706
780.301	0.0171252
780.379	0.0170147
780.457	0.0171185
780.535	0.0171157
780.613	0.0170863
780.692	0.0171876
780.770	0.0171358
780.848	0.0172272
780.926	0.0169971
781.004	0.0170161
781.082	0.0169608
781.160	0.0167872
781.238	0.0171057
781.317	0.0169460
781.395	0.0169766
781.473	0.0170300
781.551	0.0171707
781.629	0.0171316
781.707	0.0171342
781.785	0.0171768
781.863	0.0171181
781.942	0.0171947
782.020	0.0170561
782.098	0.0173870
782.176	0.0171138
782.254	0.0171109
782.332	0.0169931
782.410	0.0168214
782.488	0.0168625
782.567	0.0167075
782.645	0.0166326
782.723	0.0165413
782.801	0.0165604
782.879	0.0165699
782.957	0.0164010
783.035	0.0165299
783.113	0.0165738
783.192	0.0164370
783.270	0.0163827
783.348	0.0164936
783.426	0.0166938
783.504	0.0167391
783.582	0.0169948
783.660	0.0169945
783.738	0.0171452
783.817	0.0172377
783.895	0.0173680
783.973	0.0174941
784.051	0.0175535
784.129	0.0175257
784.207	0.0174921
784.285	0.0175278
784.363	0.0174638
784.442	0.0174981
784.520	0.0172128
784.598	0.0170760
784.676	0.0170475
784.754	0.0168806
784.832	0.0167644
784.910	0.0166898
784.988	0.0166390
785.067	0.0165466
785.145	0.0165981
785.223	0.0164883
785.301	0.0165691
785.379	0.0166281
785.457	0.0164503
785.535	0.0166500
785.613	0.0167265
785.692	0.0167013
785.770	0.0167525
785.848	0.0167720
785.926	0.0168208
786.004	0.0168018
786.082	0.0168668
786.160	0.0169113
786.238	0.0168027
786.317	0.0168316
786.395	0.0169138
786.473	0.0169562
786.551	0.0169638
786.629	0.0170140
786.707	0.0169447
786.785	0.0170541
786.863	0.0170811
786.942	0.0171276
787.020	0.0169904
787.098	0.0169214
787.176	0.0171976
787.254	0.0170493
787.332	0.0170316
787.410	0.0169781
787.488	0.0171811
787.567	0.0170287
787.645	0.0170421
787.723	0.0170630
787.801	0.0169075
787.879	0.0171569
787.957	0.0171030
788.035	0.0170617
788.113	0.0172137
788.192	0.0171465
788.270	0.0170722
788.348	0.0170834
788.426	0.0170660
788.504	0.0170192
788.582	0.0170147
788.660	0.0167737
788.738	0.0167432
788.817	0.0167374
788.895	0.0166264
788.973	0.0166114
789.051	0.0165794
789.129	0.0165815
789.207	0.0166717
789.285	0.0166145
789.363	0.0165270
789.442	0.0165926
789.520	0.0167402
789.598	0.0167519
789.676	0.0167603
789.754	0.0169041
789.832	0.0168766
789.910	0.0170335
789.988	0.0169316
790.067	0.0171083
790.145	0.0170200
790.223	0.0172400
790.301	0.0171133
790.379	0.0172523
790.457	0.0174198
790.535	0.0173248
790.613	0.0172378
790.692	0.0174235
790.770	0.0174715
790.848	0.0173986
790.926	0.0172887
791.004	0.0172546
791.082	0.0171465
791.160	0.0171603
791.238	0.0171407
791.317	0.0171139
791.395	0.0168504
791.473	0.0166956
791.551	0.0167542
791.629	0.0167956
791.707	0.0165881
791.785	0.0164233
791.863	0.0164504
791.942	0.0165609
792.020	0.0165982
792.098	0.0163866
792.176	0.0164077
792.254	0.0164101
792.332	0.0164071
792.410	0.0165997
792.488	0.0165813
792.567	0.0166576
792.645	0.0167815
792.723	0.0167832
792.801	0.0168340
792.879	0.0169598
792.957	0.0169607
793.035	0.0170414
793.113	0.0171353
793.192	0.0171001
793.270	0.0170490
793.348	0.0170341
793.426	0.0170217
793.504	0.0171310
793.582	0.0168519
793.660	0.0169580
793.738	0.0168977
793.817	0.0169421
793.895	0.0167714
793.973	0.0165439
794.051	0.0168155
794.129	0.0165974
794.207	0.0165813
794.285	0.0166626
794.363	0.0166901
794.442	0.0167693
794.520	0.0166207
794.598	0.0167556
794.676	0.0168152
794.754	0.0167848
794.832	0.0168776
794.910	0.0170216
794.988	0.0168747
795.067	0.0167245
795.145	0.0170107
795.223	0.0171133
795.301	0.0171734
795.379	0.0169608
795.457	0.0170592
795.535	0.0171671
795.613	0.0170256
795.692	0.0172112
795.770	0.0171541
795.848	0.0172047
795.926	0.0170583
796.004	0.0170827
796.082	0.0171260
796.160	0.0171618
796.238	0.0171253
796.317	0.0172783
796.395	0.0172622
796.473	0.0171471
796.551	0.0170475
796.629	0.0170801
796.707	0.0170301
796.785	0.0171218
796.863	0.0172163
796.942	0.0170348
797.020	0.0171075
797.098	0.0169492
797.176	0.0170224
797.254	0.0169905
797.332	0.0169517
797.410	0.0169650
797.488	0.0169850
797.567	0.0169949
797.645	0.0169687
797.723	0.0169089
797.801	0.0170407
797.879	0.0168867
797.957	0.0169105
798.035	0.0168435
798.113	0.0168117
798.192	0.0167672
798.270	0.0168567
798.348	0.0167941
798.426	0.0168173
798.504	0.0166786
798.582	0.0167724
798.660	0.0167480
798.738	0.0167439
798.817	0.0168061
798.895	0.0166631
798.973	0.0165643
799.051	0.0166000
799.129	0.0166499
799.207	0.0164419
799.285	0.0164291
799.363	0.0166873
799.442	0.0165748
799.520	0.0165857
799.598	0.0167682
799.676	0.0166729
799.754	0.0167618
799.832	0.0166628
799.910	0.0165427
799.988	0.0167652
800.067	0.0169202
800.145	0.0168575
800.223	0.0169248
800.301	0.0170745
800.379	0.0170000
800.457	0.0169600
800.535	0.0169596
800.613	0.0170360
800.692	0.0171594
800.770	0.0171394
800.848	0.0170610
800.926	0.0171393
801.004	0.0169698
801.082	0.0169736
801.160	0.0170023
801.238	0.0169771
801.317	0.0170750
801.395	0.0169022
801.473	0.0167347
801.551	0.0167963
801.629	0.0167931
801.707	0.0166057
801.785	0.0166843
801.863	0.0168031
801.942	0.0166221
802.020	0.0166514
802.098	0.0166986
802.176	0.0165694
802.254	0.0166527
802.332	0.0166318
802.410	0.0168678
802.488	0.0169466
802.567	0.0168686
802.645	0.0169419
802.723	0.0170814
802.801	0.0171564
802.879	0.0173374
802.957	0.0173812
803.035	0.0172994
803.113	0.0173019
803.192	0.0173893
803.270	0.0175176
803.348	0.0174326
803.426	0.0174716
803.504	0.0175727
803.582	0.0175744
803.660	0.0173982
803.738	0.0174973
803.817	0.0172683
803.895	0.0171811
803.973	0.0172778
804.051	0.0171832
804.129	0.0171230
804.207	0.0168938
804.285	0.0167983
804.363	0.0167696
804.442	0.0167055
804.520	0.0168105
804.598	0.0165625
804.676	0.0164784
804.754	0.0167230
804.832	0.0164095
804.910	0.0163355
804.988	0.0164249
805.067	0.0164752
805.145	0.0164533
805.223	0.0164690
805.301	0.0164455
805.379	0.0163691
805.457	0.0165116
805.535	0.0166386
805.613	0.0164599
805.692	0.0165669
805.770	0.0167598
805.848	0.0165743
805.926	0.0166363
806.004	0.0168542
806.082	0.0165883
806.160	0.0168034
806.238	0.0167628
806.317	0.0166920
806.395	0.0166871
806.473	0.0167557
806.551	0.0169182
806.629	0.0169363
806.707	0.0168896
806.785	0.0167754
806.863	0.0167998
806.942	0.0169321
807.020	0.0169165
807.098	0.0168618
807.176	0.0168276
807.254	0.0167135
807.332	0.0168833
807.410	0.0169455
807.488	0.0167835
807.567	0.0168114
807.645	0.0167970
807.723	0.0167407
807.801	0.0168658
807.879	0.0168195
807.957	0.0170666
808.035	0.0170779
808.113	0.0171269
808.192	0.0171989
808.270	0.0173177
808.348	0.0174574
808.426	0.0173460
808.504	0.0174814
808.582	0.0174389
808.660	0.0174554
808.738	0.0174969
808.817	0.0174178
808.895	0.0172877
808.973	0.0171650
809.051	0.0171088
809.129	0.0170429
809.207	0.0171474
809.285	0.0169433
809.363	0.0169306
809.442	0.0167818
809.520	0.0168539
809.598	0.0168233
809.676	0.0166042
809.754	0.0165439
809.832	0.0166405
809.910	0.0166787
809.988	0.0166975
810.067	0.0165756
810.145	0.0163870
810.223	0.0165969
810.301	0.0165954
810.379	0.0164818
810.457	0.0163620
810.535	0.0165179
810.613	0.0165942
810.692	0.0166336
810.770	0.0166097
810.848	0.0167192
810.926	0.0167294
811.004	0.0166328
811.082	0.0168085
811.160	0.0166201
811.238	0.0166134
811.317	0.0167602
811.395	0.0167789
811.473	0.0167538
811.551	0.0166501
811.629	0.0165316
811.707	0.0167899
811.785	0.0167874
811.863	0.0167668
811.942	0.0168877
812.020	0.0167120
812.098	0.0169159
812.176	0.0168466
812.254	0.0169050
812.332	0.0170660
812.410	0.0169975
812.488	0.0169061
812.567	0.0170567
812.645	0.0170639
812.723	0.0172214
812.801	0.0173087
812.879	0.0173054
812.957	0.0173062
813.035	0.0173194
813.113	0.0173250
813.192	0.0171648
813.270	0.0173118
813.348	0.0173952
813.426	0.0173210
813.504	0.0171140
813.582	0.0171718
813.660	0.0170539
813.738	0.0170945
813.817	0.0169357
813.895	0.0168821
813.973	0.0168722
814.051	0.0167756
814.129	0.0167522
814.207	0.0168092
814.285	0.0167271
814.363	0.0164697
814.442	0.0165804
814.520	0.0164218
814.598	0.0166131
814.676	0.0165813
814.754	0.0164668
814.832	0.0164275
814.910	0.0166270
814.988	0.0166164
815.067	0.0164975
815.145	0.0165745
815.223	0.0166171
815.301	0.0166625
815.379	0.0166615
815.457	0.0166325
815.535	0.0166570
815.613	0.0167345
815.692	0.0167854
815.770	0.0167638
815.848	0.0167495
815.926	0.0167100
816.004	0.0167477
816.082	0.0167276
816.160	0.0167062
816.238	0.0168526
816.317	0.0166090
816.395	0.0166822
816.473	0.0168404
816.551	0.0167649
816.629	0.0167416
816.707	0.0167744
816.785	0.0169202
816.863	0.0168314
816.942	0.0168980
817.020	0.0169229
817.098	0.0169107
817.176	0.0170429
817.254	0.0171487
817.332	0.0170955
817.410	0.0173646
817.488	0.0172356
817.567	0.0173732
817.645	0.0173206
817.723	0.0173806
817.801	0.0174366
817.879	0.0176404
817.957	0.0174875
818.035	0.0174522
818.113	0.0175272
818.192	0.0174493
818.270	0.0174340
818.348	0.0173895
818.426	0.0173740
818.504	0.0172772
818.582	0.0172397
818.660	0.0171360
818.738	0.0171796
818.817	0.0170383
818.895	0.0171696
818.973	0.0170340
819.051	0.0170042
819.129	0.0169132
819.207	0.0168925
819.285	0.0168279
819.363	0.0167866
819.442	0.0168980
819.520	0.0168226
819.598	0.0168087
819.676	0.0167126
819.754	0.0168208
819.832	0.0167272
819.910	0.0167537
819.988	0.0167716
820.067	0.0167585
820.145	0.0166814
820.223	0.0167404
820.301	0.0167814
820.379	0.0167197
820.457	0.0166921
820.535	0.0168140
820.613	0.0167397
820.692	0.0167022
820.770	0.0166985
820.848	0.0167188
820.926	0.0166566
821.004	0.0167320
821.082	0.0166683
821.160	0.0166534
821.238	0.0165540
821.317	0.0164527
821.395	0.0165553
821.473	0.0164975
821.551	0.0165201
821.629	0.0164082
821.707	0.0163686
821.785	0.0163349
821.863	0.0163510
821.942	0.0162803
822.020	0.0163960
822.098	0.0163423
822.176	0.0165702
822.254	0.0165569
822.332	0.0166348
822.410	0.0167033
822.488	0.0168079
822.567	0.0168488
822.645	0.0169428
822.723	0.0171104
822.801	0.0171304
822.879	0.0173479
822.957	0.0173743
823.035	0.0174106
823.113	0.0175667
823.192	0.0175576
823.270	0.0177986
823.348	0.0177565
823.426	0.0178466
823.504	0.0178622
823.582	0.0178127
823.660	0.0179054
823.738	0.0178938
823.817	0.0177903
823.895	0.0176086
823.973	0.0175892
824.051	0.0176180
824.129	0.0175432
824.207	0.0174528
824.285	0.0175735
824.363	0.0173341
824.442	0.0171432
824.520	0.0172316
824.598	0.0170518
824.676	0.0169299
824.754	0.0168053
824.832	0.0167397
824.910	0.0167407
824.988	0.0167516
825.067	0.0165884
825.145	0.0167348
825.223	0.0165678
825.301	0.0164128
825.379	0.0164578
825.457	0.0165589
825.535	0.0165292
825.613	0.0163997
825.692	0.0165137
825.770	0.0162691
825.848	0.0163397
825.926	0.0164133
826.004	0.0162657
826.082	0.0162989
826.160	0.0164384
826.238	0.0165431
826.317	0.0163676
826.395	0.0164314
826.473	0.0165998
826.551	0.0165472
826.629	0.0166264
826.707	0.0167007
826.785	0.0167013
826.863	0.0166594
826.942	0.0168397
827.020	0.0167236
827.098	0.0167654
827.176	0.0168507
827.254	0.0166637
827.332	0.0169600
827.410	0.0167628
827.488	0.0170009
827.567	0.0169711
827.645	0.0170388
827.723	0.0170451
827.801	0.0171408
827.879	0.0171632
827.957	0.0170195
828.035	0.0172010
828.113	0.0173826
828.192	0.0172366
828.270	0.0173716
828.348	0.0173108
828.426	0.0173545
828.504	0.0174030
828.582	0.0173740
828.660	0.0175319
828.738	0.0173553
828.817	0.0174492
828.895	0.0174289
828.973	0.0174039
829.051	0.0173823
829.129	0.0174508
829.207	0.0173550
829.285	0.0173282
829.363	0.0170633
829.442	0.0170734
829.520	0.0169585
829.598	0.0170247
829.676	0.0168987
829.754	0.0169760
829.832	0.0168432
829.910	0.0168425
829.988	0.0168468
830.067	0.0167010
830.145	0.0168248
830.223	0.0167109
830.301	0.0168839
830.379	0.0168420
830.457	0.0168192
830.535	0.0168616
830.613	0.0167810
830.692	0.0167516
830.770	0.0168343
830.848	0.0168314
830.926	0.0168158
831.004	0.0168524
831.082	0.0167975
831.160	0.0169219
831.238	0.0168967
831.317	0.0168594
831.395	0.0168958
831.473	0.0168053
831.551	0.0168822
831.629	0.0167775
831.707	0.0168697
831.785	0.0167197
831.863	0.0167420
831.942	0.0167875
832.020	0.0166572
832.098	0.0165829
832.176	0.0167419
832.254	0.0166934
832.332	0.0166116
832.410	0.0166951
832.488	0.0167750
832.567	0.0166763
832.645	0.0166808
832.723	0.0166776
832.801	0.0167131
832.879	0.0166886
832.957	0.0168031
833.035	0.0167419
833.113	0.0167905
833.192	0.0167416
833.270	0.0168216
833.348	0.0167509
833.426	0.0167033
833.504	0.0166233
833.582	0.0168524
833.660	0.0168767
833.738	0.0169541
833.817	0.0169398
833.895	0.0167456
833.973	0.0168241
834.051	0.0169669
834.129	0.0169582
834.207	0.0169281
834.285	0.0170050
834.363	0.0171069
834.442	0.0170634
834.520	0.0170364
834.598	0.0168697
834.676	0.0169909
834.754	0.0169679
834.832	0.0168983
834.910	0.0169466
834.988	0.0168224
835.067	0.0169789
835.145	0.0170380
835.223	0.0169588
835.301	0.0170508
835.379	0.0171767
835.457	0.0170498
835.535	0.0172444
835.613	0.0172508
835.692	0.0171570
835.770	0.0172276
835.848	0.0172930
835.926	0.0174164
836.004	0.0173864
836.082	0.0173477
836.160	0.0174155
836.238	0.0173004
836.317	0.0174689
836.395	0.0175415
836.473	0.0174092
836.551	0.0174170
836.629	0.0175310
836.707	0.0174074
836.785	0.0173557
836.863	0.0172932
836.942	0.0172234
837.020	0.0170828
837.098	0.0170549
837.176	0.0170401
837.254	0.0169218
837.332	0.0168406
837.410	0.0168212
837.488	0.0165613
837.567	0.0165935
837.645	0.0164201
837.723	0.0164645
837.801	0.0164235
837.879	0.0162997
837.957	0.0164086
838.035	0.0162903
838.113	0.0163198
838.192	0.0162923
838.270	0.0163340
838.348	0.0164263
838.426	0.0163647
838.504	0.0163975
838.582	0.0163422
838.660	0.0164809
838.738	0.0165029
838.817	0.0166045
838.895	0.0165397
838.973	0.0166483
839.051	0.0167768
839.129	0.0167786
839.207	0.0168538
839.285	0.0167451
839.363	0.0168593
839.442	0.0169928
839.520	0.0168821
839.598	0.0168977
839.676	0.0169472
839.754	0.0169822
839.832	0.0171219
839.910	0.0170737
839.988	0.0169489
840.067	0.0169794
840.145	0.0171371
840.223	0.0171776
840.301	0.0171111
840.379	0.0172682
840.457	0.0172954
840.535	0.0173067
840.613	0.0172784
840.692	0.0173961
840.770	0.0173426
840.848	0.0173048
840.926	0.0173992
841.004	0.0174813
841.082	0.0173266
841.160	0.0174106
841.238	0.0173953
841.317	0.0173681
841.395	0.0174525
841.473	0.0173022
841.551	0.0173232
841.629	0.0173471
841.707	0.0171406
841.785	0.0172089
841.863	0.0171958
841.942	0.0169966
842.020	0.0170100
842.098	0.0169128
842.176	0.0169884
842.254	0.0169820
842.332	0.0170312
842.410	0.0169159
842.488	0.0168502
842.567	0.0167856
842.645	0.0167538
842.723	0.0167428
842.801	0.0168088
842.879	0.0168636
842.957	0.0167880
843.035	0.0167537
843.113	0.0167991
843.192	0.0167951
843.270	0.0168089
843.348	0.0167722
843.426	0.0168135
843.504	0.0170287
843.582	0.0168950
843.660	0.0168940
843.738	0.0169586
843.817	0.0167957
843.895	0.0170292
843.973	0.0171332
844.051	0.0170537
844.129	0.0170628
844.207	0.0170849
844.285	0.0170202
844.363	0.0169781
844.442	0.0169610
844.520	0.0168637
844.598	0.0169576
844.676	0.0169862
844.754	0.0169463
844.832	0.0169731
844.910	0.0167744
844.988	0.0167538
845.067	0.0167040
845.145	0.0167371
845.223	0.0166339
845.301	0.0164993
845.379	0.0165821
845.457	0.0165773
845.535	0.0165781
845.613	0.0166176
845.692	0.0166194
845.770	0.0164727
845.848	0.0164845
845.926	0.0165724
846.004	0.0164626
846.082	0.0165256
846.160	0.0164374
846.238	0.0165840
846.317	0.0165487
846.395	0.0166368
846.473	0.0167003
846.551	0.0167578
846.629	0.0168242
846.707	0.0168493
846.785	0.0168575
846.863	0.0170628
846.942	0.0172002
847.020	0.0171336
847.098	0.0170953
847.176	0.0171724
847.254	0.0171615
847.332	0.0172932
847.410	0.0174097
847.488	0.0173901
847.567	0.0173499
847.645	0.0174207
847.723	0.0173463
847.801	0.0174788
847.879	0.0174026
847.957	0.0175098
848.035	0.0173160
848.113	0.0174811
848.192	0.0175427
848.270	0.0174566
848.348	0.0174236
848.426	0.0173165
848.504	0.0174126
848.582	0.0173654
848.660	0.0172837
848.738	0.0171019
848.817	0.0172105
848.895	0.0172602
848.973	0.0171838
849.051	0.0170772
849.129	0.0171857
849.207	0.0171149
849.285	0.0170875
849.363	0.0172049
849.442	0.0169753
849.520	0.0168752
849.598	0.0169323
849.676	0.0167723
849.754	0.0169778
849.832	0.0167593
849.910	0.0168181
849.988	0.0168236
850.067	0.0166368
850.145	0.0167825
850.223	0.0166794
850.301	0.0166684
850.379	0.0165328
850.457	0.0166392
850.535	0.0166696
850.613	0.0167157
850.692	0.0165653
850.770	0.0165021
850.848	0.0165765
850.926	0.0165091
851.004	0.0164929
851.082	0.0166258
851.160	0.0165054
851.238	0.0168232
851.317	0.0166343
851.395	0.0166995
851.473	0.0165971
851.551	0.0167403
851.629	0.0167844
851.707	0.0167114
851.785	0.0168026
851.863	0.0168306
851.942	0.0166614
852.020	0.0166138
852.098	0.0167502
852.176	0.0167086
852.254	0.0166157
852.332	0.0168553
852.410	0.0166259
852.488	0.0167011
852.567	0.0168479
852.645	0.0167997
852.723	0.0168285
852.801	0.0168662
852.879	0.0168552
852.957	0.0170425
853.035	0.0170114
853.113	0.0170385
853.192	0.0170358
853.270	0.0171284
853.348	0.0172802
853.426	0.0172657
853.504	0.0172015
853.582	0.0172986
853.660	0.0173817
853.738	0.0174691
853.817	0.0174720
853.895	0.0174876
853.973	0.0175255
854.051	0.0174373
854.129	0.0174602
854.207	0.0174966
854.285	0.0175037
854.363	0.0175475
854.442	0.0175044
854.520	0.0174059
854.598	0.0173779
854.676	0.0173238
854.754	0.0172602
854.832	0.0171410
854.910	0.0170358
854.988	0.0169959
855.067	0.0170751
855.145	0.0169536
855.223	0.0170114
855.301	0.0170552
855.379	0.0169376
855.457	0.0168917
855.535	0.0168648
855.613	0.0168182
855.692	0.0169469
855.770	0.0169932
855.848	0.0170417
855.926	0.0168829
856.004	0.0169054
856.082	0.0169313
856.160	0.0168479
856.238	0.0169007
856.317	0.0169574
856.395	0.0168410
856.473	0.0169962
856.551	0.0171059
856.629	0.0169327
856.707	0.0169203
856.785	0.0169021
856.863	0.0169160
856.942	0.0168958
857.020	0.0167688
857.098	0.0166880
857.176	0.0167712
857.254	0.0166328
857.332	0.0165603
857.410	0.0164000
857.488	0.0165291
857.567	0.0164950
857.645	0.0164871
857.723	0.0165195
857.801	0.0164810
857.879	0.0163676
857.957	0.0164696
858.035	0.0164802
858.113	0.0165472
858.192	0.0167049
858.270	0.0167743
858.348	0.0165978
858.426	0.0167259
858.504	0.0168586
858.582	0.0168777
858.660	0.0167867
858.738	0.0169140
858.817	0.0169523
858.895	0.0170583
858.973	0.0170569
859.051	0.0171199
859.129	0.0171499
859.207	0.0172800
859.285	0.0171562
859.363	0.0170448
859.442	0.0171881
859.520	0.0172190
859.598	0.0171339
859.676	0.0169415
859.754	0.0170325
859.832	0.0171049
859.910	0.0170502
859.988	0.0170890
860.067	0.0171066
860.145	0.0169174
860.223	0.0170011
860.301	0.0170873
860.379	0.0170246
860.457	0.0169138
860.535	0.0170484
860.613	0.0171541
860.692	0.0170659
860.770	0.0170328
860.848	0.0171730
860.926	0.0171701
861.004	0.0171706
861.082	0.0172323
861.160	0.0173642
861.238	0.0172472
861.317	0.0173026
861.395	0.0173935
861.473	0.0172436
861.551	0.0172340
861.629	0.0172829
861.707	0.0172935
861.785	0.0171877
861.863	0.0171558
861.942	0.0172105
862.020	0.0170865
862.098	0.0170666
862.176	0.0169063
862.254	0.0169291
862.332	0.0168635
862.410	0.0168875
862.488	0.0169136
862.567	0.0166279
862.645	0.0167904
862.723	0.0166922
862.801	0.0165268
862.879	0.0166100
862.957	0.0165907
863.035	0.0165934
863.113	0.0167666
863.192	0.0166328
863.270	0.0167280
863.348	0.0167387
863.426	0.0167098
863.504	0.0167997
863.582	0.0168056
863.660	0.0169188
863.738	0.0168885
863.817	0.0167567
863.895	0.0168410
863.973	0.0167318
864.051	0.0168278
864.129	0.0167734
864.207	0.0167767
864.285	0.0167072
864.363	0.0166811
864.442	0.0166537
864.520	0.0167291
864.598	0.0167211
864.676	0.0167268
864.754	0.0167738
864.832	0.0167908
864.910	0.0167963
864.988	0.0168100
865.067	0.0167883
865.145	0.0168333
865.223	0.0168365
865.301	0.0169401
865.379	0.0169810
865.457	0.0170461
865.535	0.0169933
865.613	0.0170314
865.692	0.0169970
865.770	0.0170375
865.848	0.0172339
865.926	0.0171278
866.004	0.0171844
866.082	0.0172369
866.160	0.0173280
866.238	0.0172318
866.317	0.0173473
866.395	0.0173406
866.473	0.0172825
866.551	0.0171965
866.629	0.0171867
866.707	0.0172417
866.785	0.0172965
866.863	0.0173102
866.942	0.0171999
867.020	0.0170813
867.098	0.0170103
867.176	0.0171580
867.254	0.0170384
867.332	0.0171031
867.410	0.0171243
867.488	0.0169402
867.567	0.0171089
867.645	0.0169698
867.723	0.0169125
867.801	0.0168504
867.879	0.0168500
867.957	0.0168988
868.035	0.0167397
868.113	0.0167192
868.192	0.0168238
868.270	0.0165786
868.348	0.0166998
868.426	0.0166662
868.504	0.0167966
868.582	0.0167316
868.660	0.0167822
868.738	0.0166351
868.817	0.0166455
868.895	0.0167365
868.973	0.0166473
869.051	0.0167459
869.129	0.0167666
869.207	0.0167968
869.285	0.0166636
869.363	0.0166714
869.442	0.0167560
869.520	0.0166983
869.598	0.0167741
869.676	0.0166983
869.754	0.0167548
869.832	0.0167827
869.910	0.0167979
869.988	0.0168132
870.067	0.0167559
870.145	0.0167345
870.223	0.0168244
870.301	0.0169451
870.379	0.0168418
870.457	0.0168968
870.535	0.0169910
870.613	0.0169055
870.692	0.0168301
870.770	0.0169162
870.848	0.0169180
870.926	0.0169118
871.004	0.0170432
871.082	0.0168916
871.160	0.0170795
871.238	0.0170564
871.317	0.0169614
871.395	0.0169046
871.473	0.0169693
871.551	0.0169499
871.629	0.0169363
871.707	0.0170666
871.785	0.0171067
871.863	0.0170679
871.942	0.0170570
872.020	0.0170744
872.098	0.0171027
872.176	0.0171725
872.254	0.0170535
872.332	0.0170980
872.410	0.0170237
872.488	0.0171045
872.567	0.0172169
872.645	0.0169729
872.723	0.0169682
872.801	0.0170454
872.879	0.0170264
872.957	0.0169280
873.035	0.0170432
873.113	0.0170199
873.192	0.0169703
873.270	0.0169377
873.348	0.0170277
873.426	0.0170029
873.504	0.0171029
873.582	0.0169167
873.660	0.0169202
873.738	0.0169290
873.817	0.0168832
873.895	0.0168655
873.973	0.0167601
874.051	0.0168206
874.129	0.0168168
874.207	0.0168172
874.285	0.0167604
874.363	0.0166571
874.442	0.0167738
874.520	0.0168341
874.598	0.0167339
874.676	0.0166599
874.754	0.0167091
874.832	0.0167270
874.910	0.0166605
874.988	0.0167239
875.067	0.0166739
875.145	0.0166778
875.223	0.0166479
875.301	0.0166516
875.379	0.0165471
875.457	0.0165762
875.535	0.0166842
875.613	0.0166758
875.692	0.0168147
875.770	0.0167326
875.848	0.0167836
875.926	0.0165870
876.004	0.0166235
876.082	0.0167599
876.160	0.0166768
876.238	0.0166171
876.317	0.0167706
876.395	0.0165813
876.473	0.0167284
876.551	0.0168710
876.629	0.0167142
876.707	0.0169790
876.785	0.0169298
876.863	0.0171437
876.942	0.0171849
877.020	0.0173248
877.098	0.0175312
877.176	0.0175362
877.254	0.0176762
877.332	0.0175257
877.410	0.0175491
877.488	0.0175060
877.567	0.0175294
877.645	0.0172837
877.723	0.0172031
877.801	0.0170771
877.879	0.0169368
877.957	0.0167693
878.035	0.0165984
878.113	0.0164731
878.192	0.0162173
878.270	0.0161813
878.348	0.0161174
878.426	0.0159357
878.504	0.0162074
878.582	0.0161320
878.660	0.0162849
878.738	0.0163015
878.817	0.0166025
878.895	0.0167120
878.973	0.0169033
879.051	0.0170950
879.129	0.0173355
879.207	0.0176192
879.285	0.0176826
879.363	0.0178206
879.442	0.0180204
879.520	0.0181702
879.598	0.0179873
879.676	0.0180635
879.754	0.0179800
879.832	0.0177018
879.910	0.0175966
879.988	0.0173138
880.067	0.0170090
880.145	0.0166672
880.223	0.0164696
880.301	0.0161952
880.379	0.0160340
880.457	0.0158991
880.535	0.0158620
880.613	0.0157989
880.692	0.0157417
880.770	0.0158977
880.848	0.0159590
880.926	0.0160164
881.004	0.0161293
881.082	0.0164258
881.160	0.0166239
881.238	0.0166712
881.317	0.0168514
881.395	0.0170133
881.473	0.0169672
881.551	0.0171608
881.629	0.0173364
881.707	0.0175705
881.785	0.0175623
881.863	0.0177747
881.942	0.0177760
882.020	0.0178719
882.098	0.0179649
882.176	0.0179498
882.254	0.0178723
882.332	0.0177847
882.410	0.0175697
882.488	0.0174738
882.567	0.0173563
882.645	0.0170885
882.723	0.0167966
882.801	0.0169391
882.879	0.0166322
882.957	0.0163494
883.035	0.0164730
883.113	0.0164367
883.192	0.0163194
883.270	0.0163123
883.348	0.0161662
883.426	0.0160956
883.504	0.0162061
883.582	0.0162778
883.660	0.0163152
883.738	0.0162658
883.817	0.0165370
883.895	0.0166114
883.973	0.0166678
884.051	0.0166997
884.129	0.0167179
884.207	0.0170220
884.285	0.0171823
884.363	0.0172075
884.442	0.0173500
884.520	0.0174727
884.598	0.0174842
884.676	0.0174855
884.754	0.0174565
884.832	0.0174561
884.910	0.0174683
884.988	0.0174274
885.067	0.0173254
885.145	0.0172029
885.223	0.0171156
885.301	0.0169693
885.379	0.0169457
885.457	0.0167703
885.535	0.0166924
885.613	0.0165797
885.692	0.0163602
885.770	0.0165756
885.848	0.0164101
885.926	0.0163865
886.004	0.0164215
886.082	0.0162688
886.160	0.0163927
886.238	0.0163380
886.317	0.0165685
886.395	0.0167541
886.473	0.0167738
886.551	0.0167137
886.629	0.0167737
886.707	0.0169419
886.785	0.0169215
886.863	0.0171148
886.942	0.0171635
887.020	0.0171055
887.098	0.0173301
887.176	0.0171334
887.254	0.0172593
887.332	0.0173347
887.410	0.0172827
887.488	0.0170245
887.567	0.0171160
887.645	0.0171075
887.723	0.0170342
887.801	0.0171181
887.879	0.0171598
887.957	0.0170214
888.035	0.0169117
888.113	0.0170074
888.192	0.0169698
888.270	0.0169627
888.348	0.0168839
888.426	0.0167609
888.504	0.0167606
888.582	0.0166973
888.660	0.0166613
888.738	0.0164988
888.817	0.0166172
888.895	0.0164697
888.973	0.0164483
889.051	0.0164333
889.129	0.0164544
889.207	0.0164561
889.285	0.0165290
889.363	0.0165251
889.442	0.0163721
889.520	0.0165650
889.598	0.0167089
889.676	0.0167313
889.754	0.0169123
889.832	0.0168827
889.910	0.0169217
889.988	0.0170824
890.067	0.0171274
890.145	0.0172324
890.223	0.0174019
890.301	0.0174199
890.379	0.0174512
890.457	0.0176143
890.535	0.0174689
890.613	0.0174117
890.692	0.0172669
890.770	0.0172743
890.848	0.0171595
890.926	0.0170708
891.004	0.0169597
891.082	0.0168386
891.160	0.0169021
891.238	0.0167026
891.317	0.0167226
891.395	0.0166025
891.473	0.0165205
891.551	0.0164932
891.629	0.0165428
891.707	0.0166719
891.785	0.0164924
891.863	0.0166757
891.942	0.0165548
892.020	0.0166838
892.098	0.0167629
892.176	0.0167062
892.254	0.0167667
892.332	0.0168058
892.410	0.0168937
892.488	0.0169346
892.567	0.0170058
892.645	0.0169549
892.723	0.0170266
892.801	0.0170604
892.879	0.0170779
892.957	0.0169067
893.035	0.0170349
893.113	0.0171533
893.192	0.0169776
893.270	0.0168998
893.348	0.0169298
893.426	0.0168864
893.504	0.0167380
893.582	0.0168733
893.660	0.0167955
893.738	0.0168346
893.817	0.0166822
893.895	0.0166724
893.973	0.0166730
894.051	0.0168849
894.129	0.0169103
894.207	0.0168053
894.285	0.0168213
894.363	0.0168901
894.442	0.0169504
894.520	0.0169609
894.598	0.0171251
894.676	0.0171050
894.754	0.0170356
894.832	0.0170139
894.910	0.0169936
894.988	0.0170500
895.067	0.0170182
895.145	0.0169962
895.223	0.0169843
895.301	0.0170798
895.379	0.0170116
895.457	0.0169128
895.535	0.0169624
895.613	0.0170193
895.692	0.0169887
895.770	0.0170429
895.848	0.0171167
895.926	0.0169680
896.004	0.0169020
896.082	0.0170178
896.160	0.0169044
896.238	0.0168675
896.317	0.0168315
896.395	0.0169854
896.473	0.0168614
896.551	0.0168611
896.629	0.0168011
896.707	0.0167439
896.785	0.0167901
896.863	0.0168208
896.942	0.0168473
897.020	0.0168096
897.098	0.0166328
897.176	0.0168410
897.254	0.0168032
897.332	0.0167950
897.410	0.0169483
897.488	0.0167567
897.567	0.0168133
897.645	0.0169650
897.723	0.0168878
897.801	0.0168391
897.879	0.0167697
897.957	0.0167266
898.035	0.0169101
898.113	0.0169077
898.192	0.0169815
898.270	0.0167562
898.348	0.0168024
898.426	0.0168381
898.504	0.0168295
898.582	0.0169628
898.660	0.0169023
898.738	0.0170016
898.817	0.0169308
898.895	0.0169588
898.973	0.0169353
899.051	0.0170695
899.129	0.0168703
899.207	0.0169433
899.285	0.0169216
899.363	0.0170350
899.442	0.0169407
899.520	0.0169005
899.598	0.0169242
899.676	0.0168429
899.754	0.0168477
899.832	0.0167818
899.910	0.0168305
899.988	0.0170840
900.067	0.0170787
900.145	0.0171039
900.223	0.0169608
900.301	0.0170099
900.379	0.0169760
900.457	0.0170461
900.535	0.0170071
900.613	0.0168760
900.692	0.0169482
900.770	0.0170925
900.848	0.0168564
900.926	0.0168221
901.004	0.0168313
901.082	0.0166554
901.160	0.0168904
901.238	0.0167841
901.317	0.0168158
901.395	0.0165897
901.473	0.0167936
901.551	0.0167797
901.629	0.0167152
901.707	0.0166688
901.785	0.0164853
901.863	0.0169611
901.942	0.0167041
902.020	0.0167113
902.098	0.0167889
902.176	0.0168254
902.254	0.0167347
902.332	0.0171085
902.410	0.0169315
902.488	0.0170851
902.567	0.0171408
902.645	0.0170699
902.723	0.0170149
902.801	0.0171506
902.879	0.0170250
902.957	0.0172023
903.035	0.0172576
903.113	0.0171706
903.192	0.0171485
903.270	0.0171471
903.348	0.0171219
903.426	0.0171015
903.504	0.0172110
903.582	0.0170322
903.660	0.0169875
903.738	0.0170374
903.817	0.0171196
903.895	0.0168977
903.973	0.0169778
904.051	0.0170922
904.129	0.0169997
904.207	0.0168079
904.285	0.0168189
904.363	0.0167881
904.442	0.0166943
904.520	0.0168114
904.598	0.0166995
904.676	0.0165899
904.754	0.0166008
904.832	0.0165039
904.910	0.0165618
904.988	0.0164823
905.067	0.0165956
905.145	0.0165657
905.223	0.0165861
905.301	0.0166431
905.379	0.0167619
905.457	0.0168457
905.535	0.0168522
905.613	0.0169075
905.692	0.0168839
905.770	0.0169871
905.848	0.0169762
905.926	0.0168554
906.004	0.0170241
906.082	0.0171351
906.160	0.0170905
906.238	0.0169930
906.317	0.0171159
906.395	0.0170766
906.473	0.0170697
906.551	0.0170219
906.629	0.0170864
906.707	0.0171096
906.785	0.0169199
906.863	0.0170444
906.942	0.0170813
907.020	0.0169379
907.098	0.0167403
907.176	0.0169147
907.254	0.0169061
907.332	0.0168954
907.410	0.0168556
907.488	0.0167506
907.567	0.0168211
907.645	0.0168584
907.723	0.0167403
907.801	0.0167439
907.879	0.0167431
907.957	0.0168753
908.035	0.0168705
908.113	0.0168353
908.192	0.0168317
908.270	0.0169387
908.348	0.0169920
908.426	0.0167999
908.504	0.0169724
908.582	0.0169245
908.660	0.0168634
908.738	0.0168287
908.817	0.0167517
908.895	0.0168257
908.973	0.0167855
909.051	0.0168077
909.129	0.0167462
909.207	0.0166784
909.285	0.0166634
909.363	0.0166899
909.442	0.0166526
909.520	0.0165977
909.598	0.0165229
909.676	0.0166730
909.754	0.0166761
909.832	0.0166743
909.910	0.0168322
909.988	0.0169906
910.067	0.0168408
910.145	0.0169504
910.223	0.0169276
910.301	0.0169904
910.379	0.0169726
910.457	0.0170444
910.535	0.0172337
910.613	0.0171993
910.692	0.0170397
910.770	0.0170693
910.848	0.0171224
910.926	0.0172225
911.004	0.0172829
911.082	0.0172575
911.160	0.0171178
911.238	0.0171002
911.317	0.0171003
911.395	0.0170638
911.473	0.0169870
911.551	0.0169130
911.629	0.0169582
911.707	0.0167867
911.785	0.0167881
911.863	0.0167707
911.942	0.0168376
912.020	0.0166287
912.098	0.0167385
912.176	0.0168856
912.254	0.0167369
912.332	0.0167120
912.410	0.0167693
912.488	0.0167329
912.567	0.0167361
912.645	0.0168775
912.723	0.0168052
912.801	0.0167667
912.879	0.0169211
912.957	0.0168381
913.035	0.0168335
913.113	0.0168945
913.192	0.0168925
913.270	0.0169162
913.348	0.0168568
913.426	0.0170530
913.504	0.0169334
913.582	0.0168999
913.660	0.0168986
913.738	0.0168645
913.817	0.0168853
913.895	0.0169312
913.973	0.0169061
914.051	0.0168481
914.129	0.0169576
914.207	0.0170169
914.285	0.0169852
914.363	0.0169164
914.442	0.0170187
914.520	0.0169166
914.598	0.0169696
914.676	0.0170796
914.754	0.0171584
914.832	0.0171880
914.910	0.0170801
914.988	0.0172622
915.067	0.0170307
915.145	0.0170848
915.223	0.0171254
915.301	0.0171169
915.379	0.0172332
915.457	0.0170142
915.535	0.0169065
915.613	0.0169827
915.692	0.0169695
915.770	0.0169387
915.848	0.0170017
915.926	0.0169373
916.004	0.0167728
916.082	0.0168561
916.160	0.0166986
916.238	0.0168062
916.317	0.0168385
916.395	0.0168272
916.473	0.0168171
916.551	0.0167692
916.629	0.0168282
916.707	0.0167647
916.785	0.0167721
916.863	0.0166898
916.942	0.0168261
917.020	0.0168478
917.098	0.0168338
917.176	0.0167368
917.254	0.0168320
917.332	0.0170036
917.410	0.0169480
917.488	0.0168649
917.567	0.0169137
917.645	0.0169740
917.723	0.0169209
917.801	0.0170338
917.879	0.0169531
917.957	0.0168612
918.035	0.0170161
918.113	0.0168216
918.192	0.0168252
918.270	0.0169958
918.348	0.0170181
918.426	0.0169064
918.504	0.0169209
918.582	0.0169548
918.660	0.0169424
918.738	0.0168998
918.817	0.0169425
918.895	0.0167493
918.973	0.0168272
919.051	0.0169530
919.129	0.0171152
919.207	0.0169725
919.285	0.0170521
919.363	0.0170222
919.442	0.0168982
919.520	0.0170673
919.598	0.0171574
919.676	0.0171591
919.754	0.0171404
919.832	0.0171411
919.910	0.0170558
