05/24/2022	20:08:03	Ver.	4.1	UNKNOWN
Optical Delay	599.988409	Delta X		0.078125	Sweeps	1	Scan Rate	0/0
Coordinates	Axis 1	NaN	Axis 2	NaN	Axis 3	NaN	Axis 4	NaN	Axis 5	NaN	Axis 6	0.000000
TX Power	0.000000	RX Power	0.000000

599.988	0.0172066
600.067	0.0172388
600.145	0.0171662
600.223	0.0171700
600.301	0.0171439
600.379	0.0171344
600.457	0.0171041
600.535	0.0170361
600.613	0.0171934
600.692	0.0171887
600.770	0.0172089
600.848	0.0172340
600.926	0.0170878
601.004	0.0171207
601.082	0.0172761
601.160	0.0172052
601.238	0.0173239
601.317	0.0172044
601.395	0.0171981
601.473	0.0172406
601.551	0.0171848
601.629	0.0171218
601.707	0.0172044
601.785	0.0172261
601.863	0.0172044
601.942	0.0173693
602.020	0.0171822
602.098	0.0171456
602.176	0.0171528
602.254	0.0172011
602.332	0.0172803
602.410	0.0172021
602.488	0.0172621
602.567	0.0172606
602.645	0.0173211
602.723	0.0171556
602.801	0.0172694
602.879	0.0172066
602.957	0.0172052
603.035	0.0173675
603.113	0.0173467
603.192	0.0172294
603.270	0.0171225
603.348	0.0171363
603.426	0.0172530
603.504	0.0172646
603.582	0.0170748
603.660	0.0172466
603.738	0.0172905
603.817	0.0170164
603.895	0.0172138
603.973	0.0172443
604.051	0.0171802
604.129	0.0171228
604.207	0.0170623
604.285	0.0171021
604.363	0.0172427
604.442	0.0172632
604.520	0.0171794
604.598	0.0172818
604.676	0.0172462
604.754	0.0171510
604.832	0.0171559
604.910	0.0172033
604.988	0.0171196
605.067	0.0171906
605.145	0.0170570
605.223	0.0173019
605.301	0.0173701
605.379	0.0172154
605.457	0.0172401
605.535	0.0173524
605.613	0.0172803
605.692	0.0171297
605.770	0.0171392
605.848	0.0172926
605.926	0.0172361
606.004	0.0172295
606.082	0.0172794
606.160	0.0172912
606.238	0.0171201
606.317	0.0170363
606.395	0.0171181
606.473	0.0171008
606.551	0.0170972
606.629	0.0171338
606.707	0.0171508
606.785	0.0171477
606.863	0.0171504
606.942	0.0172266
607.020	0.0170460
607.098	0.0170890
607.176	0.0170683
607.254	0.0170068
607.332	0.0172112
607.410	0.0171140
607.488	0.0170833
607.567	0.0171703
607.645	0.0171630
607.723	0.0171960
607.801	0.0173335
607.879	0.0173331
607.957	0.0172977
608.035	0.0173840
608.113	0.0172183
608.192	0.0173710
608.270	0.0172788
608.348	0.0171789
608.426	0.0171832
608.504	0.0171786
608.582	0.0171471
608.660	0.0171175
608.738	0.0172028
608.817	0.0172135
608.895	0.0171708
608.973	0.0172316
609.051	0.0170242
609.129	0.0170947
609.207	0.0170129
609.285	0.0171465
609.363	0.0171606
609.442	0.0170507
609.520	0.0171422
609.598	0.0172141
609.676	0.0171165
609.754	0.0170762
609.832	0.0171250
609.910	0.0171838
609.988	0.0172626
610.067	0.0171503
610.145	0.0172583
610.223	0.0174197
610.301	0.0171509
610.379	0.0171692
610.457	0.0171467
610.535	0.0172616
610.613	0.0173420
610.692	0.0171863
610.770	0.0173335
610.848	0.0172073
610.926	0.0172132
611.004	0.0171416
611.082	0.0172320
611.160	0.0172218
611.238	0.0172909
611.317	0.0172624
611.395	0.0172696
611.473	0.0171116
611.551	0.0172492
611.629	0.0172278
611.707	0.0170454
611.785	0.0172679
611.863	0.0172443
611.942	0.0173009
612.020	0.0172361
612.098	0.0170499
612.176	0.0172768
612.254	0.0172046
612.332	0.0171326
612.410	0.0171657
612.488	0.0172050
612.567	0.0171236
612.645	0.0171767
612.723	0.0170786
612.801	0.0172079
612.879	0.0172476
612.957	0.0172458
613.035	0.0172495
613.113	0.0171590
613.192	0.0172446
613.270	0.0171972
613.348	0.0172415
613.426	0.0172091
613.504	0.0172679
613.582	0.0171651
613.660	0.0171941
613.738	0.0172129
613.817	0.0172278
613.895	0.0172424
613.973	0.0171609
614.051	0.0171635
614.129	0.0171138
614.207	0.0173098
614.285	0.0172597
614.363	0.0172413
614.442	0.0173027
614.520	0.0171472
614.598	0.0173469
614.676	0.0172931
614.754	0.0171164
614.832	0.0171355
614.910	0.0171959
614.988	0.0172353
615.067	0.0173293
615.145	0.0171415
615.223	0.0171384
615.301	0.0171923
615.379	0.0171773
615.457	0.0173179
615.535	0.0172998
615.613	0.0172360
615.692	0.0172862
615.770	0.0171948
615.848	0.0170238
615.926	0.0171921
616.004	0.0172742
616.082	0.0171906
616.160	0.0173356
616.238	0.0172594
616.317	0.0170056
616.395	0.0171685
616.473	0.0170765
616.551	0.0172590
616.629	0.0172829
616.707	0.0172477
616.785	0.0172339
616.863	0.0172600
616.942	0.0170398
617.020	0.0171631
617.098	0.0172633
617.176	0.0172236
617.254	0.0171360
617.332	0.0171482
617.410	0.0172707
617.488	0.0172235
617.567	0.0171512
617.645	0.0171767
617.723	0.0173180
617.801	0.0171893
617.879	0.0171510
617.957	0.0172142
618.035	0.0172337
618.113	0.0171255
618.192	0.0172172
618.270	0.0171532
618.348	0.0170833
618.426	0.0172245
618.504	0.0173065
618.582	0.0171455
618.660	0.0171583
618.738	0.0173183
618.817	0.0172272
618.895	0.0172826
618.973	0.0171577
619.051	0.0172794
619.129	0.0171135
619.207	0.0171282
619.285	0.0171269
619.363	0.0170874
619.442	0.0170969
619.520	0.0172907
619.598	0.0172175
619.676	0.0172102
619.754	0.0173001
619.832	0.0172644
619.910	0.0171543
619.988	0.0172314
620.067	0.0171605
620.145	0.0172910
620.223	0.0172595
620.301	0.0172833
620.379	0.0172057
620.457	0.0173003
620.535	0.0171566
620.613	0.0170246
620.692	0.0172701
620.770	0.0172786
620.848	0.0171445
620.926	0.0172405
621.004	0.0171671
621.082	0.0172910
621.160	0.0174013
621.238	0.0172117
621.317	0.0172605
621.395	0.0172574
621.473	0.0172433
621.551	0.0172469
621.629	0.0172803
621.707	0.0170640
621.785	0.0171542
621.863	0.0172147
621.942	0.0172772
622.020	0.0172271
622.098	0.0170467
622.176	0.0172324
622.254	0.0172638
622.332	0.0171924
622.410	0.0172538
622.488	0.0171834
622.567	0.0172511
622.645	0.0171327
622.723	0.0171490
622.801	0.0171978
622.879	0.0172774
622.957	0.0173771
623.035	0.0172811
623.113	0.0171304
623.192	0.0171720
623.270	0.0171849
623.348	0.0172675
623.426	0.0173292
623.504	0.0172185
623.582	0.0171508
623.660	0.0172234
623.738	0.0171651
623.817	0.0172883
623.895	0.0172845
623.973	0.0171768
624.051	0.0172362
624.129	0.0172335
624.207	0.0172977
624.285	0.0171992
624.363	0.0171996
624.442	0.0172108
624.520	0.0171830
624.598	0.0172775
624.676	0.0171764
624.754	0.0171432
624.832	0.0171566
624.910	0.0173372
624.988	0.0171018
625.067	0.0172832
625.145	0.0172442
625.223	0.0172433
625.301	0.0171723
625.379	0.0172288
625.457	0.0173592
625.535	0.0171946
625.613	0.0171404
625.692	0.0170309
625.770	0.0171805
625.848	0.0173041
625.926	0.0171154
626.004	0.0171574
626.082	0.0170908
626.160	0.0172272
626.238	0.0172199
626.317	0.0172655
626.395	0.0171219
626.473	0.0171404
626.551	0.0172683
626.629	0.0172633
626.707	0.0171831
626.785	0.0172217
626.863	0.0170966
626.942	0.0171081
627.020	0.0171428
627.098	0.0172950
627.176	0.0172270
627.254	0.0172174
627.332	0.0171693
627.410	0.0172306
627.488	0.0171272
627.567	0.0172128
627.645	0.0171704
627.723	0.0173518
627.801	0.0170802
627.879	0.0170600
627.957	0.0171510
628.035	0.0172434
628.113	0.0172551
628.192	0.0171433
628.270	0.0171832
628.348	0.0171989
628.426	0.0171004
628.504	0.0171342
628.582	0.0171751
628.660	0.0172395
628.738	0.0173003
628.817	0.0172186
628.895	0.0172107
628.973	0.0171817
629.051	0.0171233
629.129	0.0170751
629.207	0.0172021
629.285	0.0172379
629.363	0.0171230
629.442	0.0171811
629.520	0.0172267
629.598	0.0172249
629.676	0.0171001
629.754	0.0171407
629.832	0.0172884
629.910	0.0171809
629.988	0.0170684
630.067	0.0172552
630.145	0.0172916
630.223	0.0171590
630.301	0.0172012
630.379	0.0172179
630.457	0.0171982
630.535	0.0173679
630.613	0.0173206
630.692	0.0172682
630.770	0.0170959
630.848	0.0173605
630.926	0.0172690
631.004	0.0173122
631.082	0.0172927
631.160	0.0171344
631.238	0.0170966
631.317	0.0171320
631.395	0.0170344
631.473	0.0171859
631.551	0.0171787
631.629	0.0172482
631.707	0.0171313
631.785	0.0171634
631.863	0.0171863
631.942	0.0172175
632.020	0.0170439
632.098	0.0172313
632.176	0.0171766
632.254	0.0170606
632.332	0.0172513
632.410	0.0171848
632.488	0.0172268
632.567	0.0172007
632.645	0.0172205
632.723	0.0171690
632.801	0.0171996
632.879	0.0172693
632.957	0.0172300
633.035	0.0171672
633.113	0.0172514
633.192	0.0172294
633.270	0.0172195
633.348	0.0172048
633.426	0.0170797
633.504	0.0172704
633.582	0.0171769
633.660	0.0172443
633.738	0.0172958
633.817	0.0170458
633.895	0.0172186
633.973	0.0171802
634.051	0.0172559
634.129	0.0170408
634.207	0.0172235
634.285	0.0172460
634.363	0.0172227
634.442	0.0172056
634.520	0.0172517
634.598	0.0171667
634.676	0.0170214
634.754	0.0173521
634.832	0.0171140
634.910	0.0171407
634.988	0.0172093
635.067	0.0171127
635.145	0.0172208
635.223	0.0171101
635.301	0.0171870
635.379	0.0171651
635.457	0.0171621
635.535	0.0172392
635.613	0.0171355
635.692	0.0172646
635.770	0.0172144
635.848	0.0170958
635.926	0.0172321
636.004	0.0172545
636.082	0.0171454
636.160	0.0171635
636.238	0.0172294
636.317	0.0171587
636.395	0.0171294
636.473	0.0173392
636.551	0.0172746
636.629	0.0171994
636.707	0.0172077
636.785	0.0171724
636.863	0.0171156
636.942	0.0171428
637.020	0.0172944
637.098	0.0172404
637.176	0.0172311
637.254	0.0171833
637.332	0.0171440
637.410	0.0172276
637.488	0.0171291
637.567	0.0172365
637.645	0.0171861
637.723	0.0172118
637.801	0.0172709
637.879	0.0172156
637.957	0.0171118
638.035	0.0172882
638.113	0.0174062
638.192	0.0171649
638.270	0.0170027
638.348	0.0171462
638.426	0.0171615
638.504	0.0172133
638.582	0.0172000
638.660	0.0173067
638.738	0.0171137
638.817	0.0172546
638.895	0.0172453
638.973	0.0171167
639.051	0.0171918
639.129	0.0171071
639.207	0.0172045
639.285	0.0171934
639.363	0.0173040
639.442	0.0171926
639.520	0.0171753
639.598	0.0171954
639.676	0.0172701
639.754	0.0171012
639.832	0.0171728
639.910	0.0171712
639.988	0.0172739
640.067	0.0172169
640.145	0.0171498
640.223	0.0169767
640.301	0.0173026
640.379	0.0172166
640.457	0.0171909
640.535	0.0173391
640.613	0.0172040
640.692	0.0172397
640.770	0.0171209
640.848	0.0171259
640.926	0.0170078
641.004	0.0171801
641.082	0.0171914
641.160	0.0172041
641.238	0.0171234
641.317	0.0171463
641.395	0.0170730
641.473	0.0171453
641.551	0.0173473
641.629	0.0171175
641.707	0.0172730
641.785	0.0172045
641.863	0.0172738
641.942	0.0171553
642.020	0.0172060
642.098	0.0170869
642.176	0.0171431
642.254	0.0172449
642.332	0.0172198
642.410	0.0172811
642.488	0.0172984
642.567	0.0172082
642.645	0.0172044
642.723	0.0171657
642.801	0.0172212
642.879	0.0172279
642.957	0.0172842
643.035	0.0171129
643.113	0.0170938
643.192	0.0173512
643.270	0.0171822
643.348	0.0172668
643.426	0.0170781
643.504	0.0172462
643.582	0.0172829
643.660	0.0171360
643.738	0.0170901
643.817	0.0171886
643.895	0.0170834
643.973	0.0172129
644.051	0.0171185
644.129	0.0172076
644.207	0.0172577
644.285	0.0172096
644.363	0.0172708
644.442	0.0172015
644.520	0.0171446
644.598	0.0171900
644.676	0.0171727
644.754	0.0171479
644.832	0.0170782
644.910	0.0172673
644.988	0.0172549
645.067	0.0171938
645.145	0.0173031
645.223	0.0172057
645.301	0.0171861
645.379	0.0171793
645.457	0.0171695
645.535	0.0172542
645.613	0.0171532
645.692	0.0172249
645.770	0.0171925
645.848	0.0172020
645.926	0.0170179
646.004	0.0172511
646.082	0.0172134
646.160	0.0172001
646.238	0.0172203
646.317	0.0170029
646.395	0.0172170
646.473	0.0172394
646.551	0.0172284
646.629	0.0172444
646.707	0.0172224
646.785	0.0171202
646.863	0.0172832
646.942	0.0172507
647.020	0.0171996
647.098	0.0172967
647.176	0.0172539
647.254	0.0172115
647.332	0.0172347
647.410	0.0172675
647.488	0.0171973
647.567	0.0172623
647.645	0.0172940
647.723	0.0172230
647.801	0.0172941
647.879	0.0171957
647.957	0.0173338
648.035	0.0172820
648.113	0.0171540
648.192	0.0172612
648.270	0.0172161
648.348	0.0173299
648.426	0.0170763
648.504	0.0171014
648.582	0.0171587
648.660	0.0172201
648.738	0.0171238
648.817	0.0172071
648.895	0.0172624
648.973	0.0170123
649.051	0.0171308
649.129	0.0171748
649.207	0.0172134
649.285	0.0171669
649.363	0.0172475
649.442	0.0172504
649.520	0.0171997
649.598	0.0173148
649.676	0.0171891
649.754	0.0173592
649.832	0.0171909
649.910	0.0173006
649.988	0.0173109
650.067	0.0172391
650.145	0.0172617
650.223	0.0173330
650.301	0.0172165
650.379	0.0171391
650.457	0.0172158
650.535	0.0171578
650.613	0.0172186
650.692	0.0171471
650.770	0.0172639
650.848	0.0173087
650.926	0.0173679
651.004	0.0172334
651.082	0.0172679
651.160	0.0173190
651.238	0.0171712
651.317	0.0172355
651.395	0.0172099
651.473	0.0171191
651.551	0.0170921
651.629	0.0171643
651.707	0.0172781
651.785	0.0172924
651.863	0.0173311
651.942	0.0171419
652.020	0.0171278
652.098	0.0172041
652.176	0.0172824
652.254	0.0172454
652.332	0.0171788
652.410	0.0172802
652.488	0.0172388
652.567	0.0171177
652.645	0.0171430
652.723	0.0171597
652.801	0.0172598
652.879	0.0171338
652.957	0.0172322
653.035	0.0170277
653.113	0.0171616
653.192	0.0171420
653.270	0.0171845
653.348	0.0173382
653.426	0.0172082
653.504	0.0170892
653.582	0.0171178
653.660	0.0171058
653.738	0.0171839
653.817	0.0172399
653.895	0.0172732
653.973	0.0172050
654.051	0.0170898
654.129	0.0171361
654.207	0.0172759
654.285	0.0172743
654.363	0.0172386
654.442	0.0172378
654.520	0.0172531
654.598	0.0171479
654.676	0.0172181
654.754	0.0171371
654.832	0.0172031
654.910	0.0172334
654.988	0.0171644
655.067	0.0171986
655.145	0.0171086
655.223	0.0171854
655.301	0.0171379
655.379	0.0171391
655.457	0.0171265
655.535	0.0172569
655.613	0.0173139
655.692	0.0171059
655.770	0.0172057
655.848	0.0171877
655.926	0.0172258
656.004	0.0172581
656.082	0.0171107
656.160	0.0172453
656.238	0.0172212
656.317	0.0171469
656.395	0.0172778
656.473	0.0172939
656.551	0.0172578
656.629	0.0171891
656.707	0.0172661
656.785	0.0171635
656.863	0.0171391
656.942	0.0172260
657.020	0.0172095
657.098	0.0171046
657.176	0.0172395
657.254	0.0170637
657.332	0.0172762
657.410	0.0171166
657.488	0.0172498
657.567	0.0173136
657.645	0.0170652
657.723	0.0172423
657.801	0.0172476
657.879	0.0171887
657.957	0.0171769
658.035	0.0171695
658.113	0.0172086
658.192	0.0171406
658.270	0.0172807
658.348	0.0173012
658.426	0.0171624
658.504	0.0171631
658.582	0.0172433
658.660	0.0171283
658.738	0.0171556
658.817	0.0172446
658.895	0.0171667
658.973	0.0171663
659.051	0.0172837
659.129	0.0172066
659.207	0.0172629
659.285	0.0173438
659.363	0.0172437
659.442	0.0171314
659.520	0.0171385
659.598	0.0172587
659.676	0.0172504
659.754	0.0171095
659.832	0.0172160
659.910	0.0172623
659.988	0.0171397
660.067	0.0170840
660.145	0.0170464
660.223	0.0171893
660.301	0.0171591
660.379	0.0171429
660.457	0.0171110
660.535	0.0172575
660.613	0.0171419
660.692	0.0169780
660.770	0.0173116
660.848	0.0170967
660.926	0.0170726
661.004	0.0171658
661.082	0.0171006
661.160	0.0171232
661.238	0.0170521
661.317	0.0171233
661.395	0.0172497
661.473	0.0170985
661.551	0.0172327
661.629	0.0170968
661.707	0.0170661
661.785	0.0170690
661.863	0.0171619
661.942	0.0171831
662.020	0.0172308
662.098	0.0171633
662.176	0.0171474
662.254	0.0172041
662.332	0.0172969
662.410	0.0171813
662.488	0.0171464
662.567	0.0172527
662.645	0.0171423
662.723	0.0169093
662.801	0.0171638
662.879	0.0171717
662.957	0.0171292
663.035	0.0172701
663.113	0.0171674
663.192	0.0171717
663.270	0.0171824
663.348	0.0170823
663.426	0.0171762
663.504	0.0171986
663.582	0.0172724
663.660	0.0171551
663.738	0.0172342
663.817	0.0172169
663.895	0.0170715
663.973	0.0171305
664.051	0.0172120
664.129	0.0171561
664.207	0.0172282
664.285	0.0171848
664.363	0.0170805
664.442	0.0171457
664.520	0.0173371
664.598	0.0172990
664.676	0.0171387
664.754	0.0173692
664.832	0.0172254
664.910	0.0171066
664.988	0.0171757
665.067	0.0171372
665.145	0.0171942
665.223	0.0172935
665.301	0.0172486
665.379	0.0172336
665.457	0.0171739
665.535	0.0171219
665.613	0.0172347
665.692	0.0172837
665.770	0.0173280
665.848	0.0170102
665.926	0.0171864
666.004	0.0173501
666.082	0.0173173
666.160	0.0172012
666.238	0.0171239
666.317	0.0172078
666.395	0.0172911
666.473	0.0173281
666.551	0.0173199
666.629	0.0170938
666.707	0.0172198
666.785	0.0171695
666.863	0.0173043
666.942	0.0173096
667.020	0.0172900
667.098	0.0173299
667.176	0.0173263
667.254	0.0173126
667.332	0.0173325
667.410	0.0173093
667.488	0.0172146
667.567	0.0172695
667.645	0.0173165
667.723	0.0173166
667.801	0.0172812
667.879	0.0173210
667.957	0.0174192
668.035	0.0173215
668.113	0.0171445
668.192	0.0172347
668.270	0.0173582
668.348	0.0172680
668.426	0.0172753
668.504	0.0172028
668.582	0.0171444
668.660	0.0172827
668.738	0.0173414
668.817	0.0171668
668.895	0.0172723
668.973	0.0171852
669.051	0.0172092
669.129	0.0173166
669.207	0.0173160
669.285	0.0172865
669.363	0.0171819
669.442	0.0171150
669.520	0.0172444
669.598	0.0172171
669.676	0.0173061
669.754	0.0174485
669.832	0.0171958
669.910	0.0171722
669.988	0.0172379
670.067	0.0172826
670.145	0.0173105
670.223	0.0174200
670.301	0.0172641
670.379	0.0171141
670.457	0.0173289
670.535	0.0172610
670.613	0.0172305
670.692	0.0171911
670.770	0.0173022
670.848	0.0173150
670.926	0.0172445
671.004	0.0170802
671.082	0.0172553
671.160	0.0171533
671.238	0.0171626
671.317	0.0172483
671.395	0.0171988
671.473	0.0173180
671.551	0.0171035
671.629	0.0171623
671.707	0.0171822
671.785	0.0170072
671.863	0.0172201
671.942	0.0171175
672.020	0.0169989
672.098	0.0170667
672.176	0.0171323
672.254	0.0172313
672.332	0.0170901
672.410	0.0170615
672.488	0.0170625
672.567	0.0171378
672.645	0.0171068
672.723	0.0172124
672.801	0.0171326
672.879	0.0171009
672.957	0.0170944
673.035	0.0170088
673.113	0.0172021
673.192	0.0171355
673.270	0.0171587
673.348	0.0172119
673.426	0.0170213
673.504	0.0170554
673.582	0.0171946
673.660	0.0173003
673.738	0.0172293
673.817	0.0171355
673.895	0.0171525
673.973	0.0172255
674.051	0.0170119
674.129	0.0170935
674.207	0.0170315
674.285	0.0169470
674.363	0.0170298
674.442	0.0171069
674.520	0.0171780
674.598	0.0171716
674.676	0.0170818
674.754	0.0170734
674.832	0.0171303
674.910	0.0170525
674.988	0.0172679
675.067	0.0171652
675.145	0.0170036
675.223	0.0172501
675.301	0.0170064
675.379	0.0172141
675.457	0.0170438
675.535	0.0171670
675.613	0.0171773
675.692	0.0171682
675.770	0.0172447
675.848	0.0170907
675.926	0.0170599
676.004	0.0171396
676.082	0.0171332
676.160	0.0170959
676.238	0.0170497
676.317	0.0170934
676.395	0.0171497
676.473	0.0171289
676.551	0.0170241
676.629	0.0171374
676.707	0.0171860
676.785	0.0171900
676.863	0.0171531
676.942	0.0171675
677.020	0.0170995
677.098	0.0171749
677.176	0.0170923
677.254	0.0169759
677.332	0.0171662
677.410	0.0170657
677.488	0.0172550
677.567	0.0170935
677.645	0.0170863
677.723	0.0170811
677.801	0.0172458
677.879	0.0172016
677.957	0.0172069
678.035	0.0171702
678.113	0.0171663
678.192	0.0172220
678.270	0.0172746
678.348	0.0172878
678.426	0.0172476
678.504	0.0171837
678.582	0.0172403
678.660	0.0170358
678.738	0.0172808
678.817	0.0173014
678.895	0.0172092
678.973	0.0172462
679.051	0.0171510
679.129	0.0172472
679.207	0.0173533
679.285	0.0171764
679.363	0.0171754
679.442	0.0172559
679.520	0.0171958
679.598	0.0172304
679.676	0.0172803
679.754	0.0170744
679.832	0.0170953
679.910	0.0170456
679.988	0.0173956
680.067	0.0172401
680.145	0.0170823
680.223	0.0171029
680.301	0.0172137
680.379	0.0171187
680.457	0.0171420
680.535	0.0171804
680.613	0.0172179
680.692	0.0171738
680.770	0.0171262
680.848	0.0171038
680.926	0.0173227
681.004	0.0172612
681.082	0.0171574
681.160	0.0172650
681.238	0.0172385
681.317	0.0173451
681.395	0.0173641
681.473	0.0171515
681.551	0.0173420
681.629	0.0172845
681.707	0.0172623
681.785	0.0172597
681.863	0.0172842
681.942	0.0173030
682.020	0.0172204
682.098	0.0172243
682.176	0.0170947
682.254	0.0171177
682.332	0.0170676
682.410	0.0170345
682.488	0.0169847
682.567	0.0169950
682.645	0.0171494
682.723	0.0172309
682.801	0.0173203
682.879	0.0175131
682.957	0.0176012
683.035	0.0177135
683.113	0.0179003
683.192	0.0180378
683.270	0.0181717
683.348	0.0181008
683.426	0.0180805
683.504	0.0177406
683.582	0.0175961
683.660	0.0170046
683.738	0.0164751
683.817	0.0159669
683.895	0.0153524
683.973	0.0149326
684.051	0.0147934
684.129	0.0145346
684.207	0.0144518
684.285	0.0147900
684.363	0.0152277
684.442	0.0158277
684.520	0.0166232
684.598	0.0176486
684.676	0.0186272
684.754	0.0196116
684.832	0.0204729
684.910	0.0213335
684.988	0.0218796
685.067	0.0222038
685.145	0.0222482
685.223	0.0220958
685.301	0.0215466
685.379	0.0207648
685.457	0.0196922
685.535	0.0182751
685.613	0.0169044
685.692	0.0154636
685.770	0.0139879
685.848	0.0124867
685.926	0.0113436
686.004	0.0104735
686.082	0.00982155
686.160	0.00906105
686.238	0.00909309
686.317	0.00930939
686.395	0.00970253
686.473	0.0107302
686.551	0.0119715
686.629	0.0134865
686.707	0.0153400
686.785	0.0175951
686.863	0.0201817
686.942	0.0223638
687.020	0.0250365
687.098	0.0272440
687.176	0.0293065
687.254	0.0306660
687.332	0.0317303
687.410	0.0319363
687.488	0.0312453
687.567	0.0302515
687.645	0.0282346
687.723	0.0258456
687.801	0.0228596
687.879	0.0194144
687.957	0.0162234
688.035	0.0130014
688.113	0.0100975
688.192	0.00760704
688.270	0.00544533
688.348	0.00403091
688.426	0.00301476
688.504	0.00233665
688.582	0.00222511
688.660	0.00238480
688.738	0.00317558
688.817	0.00417343
688.895	0.00547363
688.973	0.00721634
689.051	0.00928787
689.129	0.0113314
689.207	0.0137915
689.285	0.0164665
689.363	0.0190686
689.442	0.0214571
689.520	0.0239677
689.598	0.0262469
689.676	0.0281474
689.754	0.0296307
689.832	0.0308720
689.910	0.0311641
689.988	0.0312319
690.067	0.0305863
690.145	0.0294736
690.223	0.0279860
690.301	0.0263337
690.379	0.0241792
690.457	0.0221358
690.535	0.0200352
690.613	0.0181303
690.692	0.0166280
690.770	0.0148302
690.848	0.0137984
690.926	0.0126979
691.004	0.0118038
691.082	0.0111380
691.160	0.0106722
691.238	0.0103139
691.317	0.0100383
691.395	0.00989212
691.473	0.00998528
691.551	0.0101299
691.629	0.0104633
691.707	0.0107874
691.785	0.0114505
691.863	0.0121554
691.942	0.0131815
692.020	0.0141608
692.098	0.0151847
692.176	0.0163942
692.254	0.0175159
692.332	0.0186003
692.410	0.0195357
692.488	0.0203788
692.567	0.0209524
692.645	0.0214843
692.723	0.0218629
692.801	0.0218181
692.879	0.0217614
692.957	0.0218671
693.035	0.0214626
693.113	0.0209704
693.192	0.0207265
693.270	0.0201128
693.348	0.0194984
693.426	0.0187711
693.504	0.0182149
693.582	0.0175220
693.660	0.0170357
693.738	0.0163886
693.817	0.0160141
693.895	0.0157716
693.973	0.0152423
694.051	0.0150392
694.129	0.0148841
694.207	0.0147382
694.285	0.0145089
694.363	0.0145831
694.442	0.0146961
694.520	0.0147840
694.598	0.0149680
694.676	0.0151717
694.754	0.0154530
694.832	0.0156088
694.910	0.0161452
694.988	0.0165417
695.067	0.0169921
695.145	0.0173732
695.223	0.0181306
695.301	0.0186810
695.379	0.0191708
695.457	0.0196720
695.535	0.0198013
695.613	0.0201003
695.692	0.0204775
695.770	0.0206136
695.848	0.0205220
695.926	0.0204880
696.004	0.0201579
696.082	0.0198640
696.160	0.0194855
696.238	0.0189507
696.317	0.0183090
696.395	0.0176711
696.473	0.0172012
696.551	0.0165789
696.629	0.0159888
696.707	0.0156449
696.785	0.0150204
696.863	0.0148911
696.942	0.0144705
697.020	0.0142323
697.098	0.0140704
697.176	0.0139275
697.254	0.0139149
697.332	0.0140110
697.410	0.0138794
697.488	0.0140785
697.567	0.0145083
697.645	0.0148856
697.723	0.0152681
697.801	0.0158167
697.879	0.0163387
697.957	0.0171254
698.035	0.0179325
698.113	0.0186212
698.192	0.0193168
698.270	0.0197992
698.348	0.0204637
698.426	0.0207629
698.504	0.0208392
698.582	0.0207222
698.660	0.0205460
698.738	0.0204265
698.817	0.0201366
698.895	0.0194012
698.973	0.0187624
699.051	0.0181414
699.129	0.0176377
699.207	0.0168640
699.285	0.0164278
699.363	0.0157894
699.442	0.0153586
699.520	0.0151549
699.598	0.0150674
699.676	0.0151018
699.754	0.0151043
699.832	0.0152957
699.910	0.0155225
699.988	0.0158118
700.067	0.0163181
700.145	0.0166978
700.223	0.0170303
700.301	0.0174442
700.379	0.0177146
700.457	0.0179421
700.535	0.0179939
700.613	0.0181200
700.692	0.0181636
700.770	0.0179205
700.848	0.0177274
700.926	0.0176560
701.004	0.0176888
701.082	0.0172816
701.160	0.0171297
701.238	0.0168963
701.317	0.0167589
701.395	0.0166238
701.473	0.0164536
701.551	0.0164289
701.629	0.0165196
701.707	0.0165343
701.785	0.0165524
701.863	0.0165047
701.942	0.0166654
702.020	0.0168869
702.098	0.0170547
702.176	0.0172021
702.254	0.0174442
702.332	0.0176051
702.410	0.0177271
702.488	0.0178902
702.567	0.0179723
702.645	0.0181002
702.723	0.0181166
702.801	0.0181420
702.879	0.0182088
702.957	0.0181240
703.035	0.0183646
703.113	0.0181272
703.192	0.0180861
703.270	0.0181358
703.348	0.0180411
703.426	0.0179013
703.504	0.0178452
703.582	0.0176904
703.660	0.0175684
703.738	0.0173465
703.817	0.0170503
703.895	0.0167783
703.973	0.0165593
704.051	0.0163629
704.129	0.0161761
704.207	0.0162238
704.285	0.0159962
704.363	0.0156221
704.442	0.0156345
704.520	0.0155255
704.598	0.0155231
704.676	0.0155015
704.754	0.0157389
704.832	0.0160326
704.910	0.0163007
704.988	0.0165830
705.067	0.0167941
705.145	0.0171966
705.223	0.0175987
705.301	0.0177135
705.379	0.0178117
705.457	0.0179775
705.535	0.0181410
705.613	0.0181014
705.692	0.0181015
705.770	0.0180686
705.848	0.0179259
705.926	0.0180123
706.004	0.0179755
706.082	0.0177956
706.160	0.0179210
706.238	0.0180855
706.317	0.0180896
706.395	0.0178491
706.473	0.0177488
706.551	0.0178143
706.629	0.0176823
706.707	0.0175853
706.785	0.0173595
706.863	0.0172972
706.942	0.0170214
707.020	0.0167920
707.098	0.0166563
707.176	0.0164559
707.254	0.0165060
707.332	0.0166601
707.410	0.0165184
707.488	0.0167678
707.567	0.0168639
707.645	0.0171881
707.723	0.0174850
707.801	0.0177364
707.879	0.0180413
707.957	0.0179266
708.035	0.0180037
708.113	0.0180991
708.192	0.0181030
708.270	0.0180348
708.348	0.0177218
708.426	0.0173426
708.504	0.0170362
708.582	0.0168301
708.660	0.0164954
708.738	0.0161434
708.817	0.0158942
708.895	0.0158475
708.973	0.0156821
709.051	0.0156667
709.129	0.0159068
709.207	0.0159691
709.285	0.0163000
709.363	0.0163760
709.442	0.0167120
709.520	0.0168316
709.598	0.0171160
709.676	0.0171563
709.754	0.0173224
709.832	0.0175307
709.910	0.0178149
709.988	0.0177872
710.067	0.0177322
710.145	0.0178035
710.223	0.0179022
710.301	0.0177728
710.379	0.0177338
710.457	0.0177523
710.535	0.0176325
710.613	0.0174427
710.692	0.0174303
710.770	0.0174323
710.848	0.0172732
710.926	0.0174016
711.004	0.0173244
711.082	0.0174886
711.160	0.0173637
711.238	0.0172924
711.317	0.0173207
711.395	0.0170614
711.473	0.0171593
711.551	0.0170742
711.629	0.0170269
711.707	0.0170761
711.785	0.0169365
711.863	0.0168822
711.942	0.0168050
712.020	0.0168467
712.098	0.0167365
712.176	0.0167108
712.254	0.0168339
712.332	0.0168342
712.410	0.0167238
712.488	0.0169002
712.567	0.0171116
712.645	0.0172065
712.723	0.0173464
712.801	0.0174006
712.879	0.0173360
712.957	0.0175067
713.035	0.0174693
713.113	0.0173857
713.192	0.0174110
713.270	0.0174397
713.348	0.0174320
713.426	0.0173474
713.504	0.0170588
713.582	0.0169643
713.660	0.0169498
713.738	0.0168864
713.817	0.0168585
713.895	0.0167301
713.973	0.0167030
714.051	0.0168334
714.129	0.0169619
714.207	0.0169623
714.285	0.0170776
714.363	0.0172278
714.442	0.0172989
714.520	0.0173935
714.598	0.0174698
714.676	0.0175568
714.754	0.0175123
714.832	0.0175759
714.910	0.0174921
714.988	0.0176125
715.067	0.0176086
715.145	0.0176495
715.223	0.0175683
715.301	0.0177348
715.379	0.0174942
715.457	0.0176104
715.535	0.0175590
715.613	0.0174689
715.692	0.0173482
715.770	0.0171913
715.848	0.0171594
715.926	0.0171560
716.004	0.0169865
716.082	0.0170638
716.160	0.0168657
716.238	0.0168945
716.317	0.0167391
716.395	0.0167806
716.473	0.0167342
716.551	0.0168050
716.629	0.0167651
716.707	0.0167728
716.785	0.0168629
716.863	0.0166771
716.942	0.0168655
717.020	0.0170087
717.098	0.0168594
717.176	0.0169186
717.254	0.0168934
717.332	0.0170112
717.410	0.0170284
717.488	0.0169371
717.567	0.0168987
717.645	0.0168913
717.723	0.0168251
717.801	0.0168775
717.879	0.0169442
717.957	0.0171048
718.035	0.0172599
718.113	0.0172525
718.192	0.0172598
718.270	0.0174258
718.348	0.0175347
718.426	0.0176702
718.504	0.0177393
718.582	0.0179314
718.660	0.0179687
718.738	0.0178988
718.817	0.0178885
718.895	0.0178403
718.973	0.0176561
719.051	0.0177542
719.129	0.0177013
719.207	0.0174535
719.285	0.0174166
719.363	0.0173586
719.442	0.0173279
719.520	0.0170296
719.598	0.0169992
719.676	0.0168640
719.754	0.0169185
719.832	0.0169223
719.910	0.0167931
719.988	0.0169139
720.067	0.0171088
720.145	0.0171998
720.223	0.0173776
720.301	0.0173137
720.379	0.0175646
720.457	0.0177232
720.535	0.0178181
720.613	0.0179015
720.692	0.0177544
720.770	0.0177157
720.848	0.0175754
720.926	0.0175230
721.004	0.0173074
721.082	0.0170078
721.160	0.0169732
721.238	0.0168660
721.317	0.0167155
721.395	0.0164861
721.473	0.0164620
721.551	0.0162217
721.629	0.0163212
721.707	0.0161189
721.785	0.0162736
721.863	0.0162409
721.942	0.0161639
722.020	0.0163685
722.098	0.0164372
722.176	0.0166837
722.254	0.0166514
722.332	0.0168152
722.410	0.0169933
722.488	0.0172188
722.567	0.0173273
722.645	0.0174408
722.723	0.0174682
722.801	0.0176614
722.879	0.0178613
722.957	0.0179934
723.035	0.0181114
723.113	0.0180216
723.192	0.0179534
723.270	0.0179537
723.348	0.0180857
723.426	0.0179761
723.504	0.0180502
723.582	0.0179638
723.660	0.0178716
723.738	0.0177856
723.817	0.0176657
723.895	0.0175751
723.973	0.0173715
724.051	0.0172102
724.129	0.0172770
724.207	0.0171867
724.285	0.0170359
724.363	0.0169239
724.442	0.0168511
724.520	0.0168698
724.598	0.0166474
724.676	0.0166257
724.754	0.0168580
724.832	0.0167961
724.910	0.0167963
724.988	0.0169021
725.067	0.0171017
725.145	0.0171375
725.223	0.0172540
725.301	0.0174419
725.379	0.0175195
725.457	0.0174800
725.535	0.0175661
725.613	0.0176565
725.692	0.0174130
725.770	0.0175718
725.848	0.0173832
725.926	0.0172061
726.004	0.0172059
726.082	0.0169479
726.160	0.0169247
726.238	0.0169649
726.317	0.0167507
726.395	0.0166557
726.473	0.0166878
726.551	0.0168569
726.629	0.0166591
726.707	0.0165254
726.785	0.0166444
726.863	0.0166432
726.942	0.0166401
727.020	0.0166373
727.098	0.0166511
727.176	0.0167246
727.254	0.0168387
727.332	0.0169637
727.410	0.0169026
727.488	0.0170790
727.567	0.0170872
727.645	0.0173874
727.723	0.0172857
727.801	0.0173483
727.879	0.0177532
727.957	0.0176460
728.035	0.0177974
728.113	0.0177505
728.192	0.0179612
728.270	0.0178994
728.348	0.0178706
728.426	0.0178619
728.504	0.0178758
728.582	0.0176261
728.660	0.0178517
728.738	0.0176295
728.817	0.0175123
728.895	0.0173631
728.973	0.0172452
729.051	0.0172313
729.129	0.0172012
729.207	0.0171738
729.285	0.0169565
729.363	0.0168903
729.442	0.0168931
729.520	0.0168718
729.598	0.0168280
729.676	0.0167975
729.754	0.0169188
729.832	0.0167931
729.910	0.0169999
729.988	0.0169554
730.067	0.0170034
730.145	0.0169796
730.223	0.0170538
730.301	0.0170549
730.379	0.0170841
730.457	0.0171114
730.535	0.0173400
730.613	0.0172961
730.692	0.0173164
730.770	0.0172453
730.848	0.0173178
730.926	0.0174914
731.004	0.0174829
731.082	0.0174518
731.160	0.0174709
731.238	0.0175627
731.317	0.0176574
731.395	0.0175121
731.473	0.0174302
731.551	0.0176204
731.629	0.0174501
731.707	0.0174120
731.785	0.0172820
731.863	0.0172031
731.942	0.0171095
732.020	0.0169663
732.098	0.0166946
732.176	0.0165981
732.254	0.0165184
732.332	0.0165868
732.410	0.0165501
732.488	0.0164468
732.567	0.0165408
732.645	0.0163475
732.723	0.0163464
732.801	0.0164689
732.879	0.0167760
732.957	0.0169204
733.035	0.0169385
733.113	0.0170733
733.192	0.0172971
733.270	0.0173974
733.348	0.0174574
733.426	0.0173947
733.504	0.0176191
733.582	0.0176759
733.660	0.0177795
733.738	0.0177317
733.817	0.0178333
733.895	0.0177375
733.973	0.0176408
734.051	0.0177443
734.129	0.0176170
734.207	0.0176098
734.285	0.0176646
734.363	0.0175095
734.442	0.0175600
734.520	0.0175675
734.598	0.0173991
734.676	0.0174713
734.754	0.0172813
734.832	0.0172803
734.910	0.0172877
734.988	0.0170676
735.067	0.0171269
735.145	0.0171773
735.223	0.0171562
735.301	0.0170556
735.379	0.0171957
735.457	0.0170614
735.535	0.0171205
735.613	0.0171525
735.692	0.0172582
735.770	0.0172423
735.848	0.0172017
735.926	0.0173708
736.004	0.0173173
736.082	0.0172716
736.160	0.0171252
736.238	0.0170461
736.317	0.0169609
736.395	0.0169931
736.473	0.0169038
736.551	0.0167882
736.629	0.0166920
736.707	0.0166587
736.785	0.0166291
736.863	0.0165820
736.942	0.0164255
737.020	0.0164349
737.098	0.0166331
737.176	0.0164292
737.254	0.0164378
737.332	0.0163821
737.410	0.0167029
737.488	0.0164886
737.567	0.0166553
737.645	0.0168156
737.723	0.0168424
737.801	0.0169735
737.879	0.0170037
737.957	0.0172895
738.035	0.0172669
738.113	0.0174728
738.192	0.0175980
738.270	0.0177596
738.348	0.0177691
738.426	0.0178410
738.504	0.0177122
738.582	0.0176908
738.660	0.0177380
738.738	0.0176871
738.817	0.0176121
738.895	0.0177376
738.973	0.0177267
739.051	0.0175829
739.129	0.0174103
739.207	0.0172692
739.285	0.0172201
739.363	0.0172814
739.442	0.0171057
739.520	0.0169148
739.598	0.0170030
739.676	0.0170061
739.754	0.0169099
739.832	0.0171210
739.910	0.0170911
739.988	0.0170216
740.067	0.0170603
740.145	0.0170719
740.223	0.0172746
740.301	0.0173022
740.379	0.0172358
740.457	0.0172748
740.535	0.0173843
740.613	0.0173760
740.692	0.0173643
740.770	0.0172887
740.848	0.0173902
740.926	0.0174327
741.004	0.0173026
741.082	0.0172015
741.160	0.0173118
741.238	0.0171806
741.317	0.0172087
741.395	0.0170827
741.473	0.0171570
741.551	0.0170739
741.629	0.0170412
741.707	0.0171044
741.785	0.0170565
741.863	0.0168609
741.942	0.0169243
742.020	0.0170071
742.098	0.0170799
742.176	0.0167889
742.254	0.0168498
742.332	0.0168281
742.410	0.0168840
742.488	0.0166660
742.567	0.0166533
742.645	0.0166372
742.723	0.0165888
742.801	0.0165379
742.879	0.0165018
742.957	0.0165912
743.035	0.0166357
743.113	0.0166689
743.192	0.0167796
743.270	0.0168658
743.348	0.0170796
743.426	0.0171666
743.504	0.0172638
743.582	0.0173080
743.660	0.0174603
743.738	0.0177010
743.817	0.0178304
743.895	0.0178799
743.973	0.0179741
744.051	0.0179074
744.129	0.0179168
744.207	0.0180682
744.285	0.0179540
744.363	0.0178309
744.442	0.0177464
744.520	0.0177464
744.598	0.0177657
744.676	0.0177206
744.754	0.0175543
744.832	0.0174712
744.910	0.0174669
744.988	0.0174349
745.067	0.0171626
745.145	0.0172402
745.223	0.0173313
745.301	0.0173323
745.379	0.0170879
745.457	0.0171519
745.535	0.0172573
745.613	0.0173918
745.692	0.0172607
745.770	0.0172248
745.848	0.0173853
745.926	0.0173335
746.004	0.0171703
746.082	0.0171766
746.160	0.0173439
746.238	0.0173714
746.317	0.0174545
746.395	0.0173781
746.473	0.0173103
746.551	0.0173341
746.629	0.0173365
746.707	0.0172224
746.785	0.0172585
746.863	0.0172060
746.942	0.0171857
747.020	0.0170467
747.098	0.0171264
747.176	0.0170863
747.254	0.0168474
747.332	0.0170220
747.410	0.0169592
747.488	0.0168389
747.567	0.0168800
747.645	0.0167933
747.723	0.0167903
747.801	0.0168493
747.879	0.0167788
747.957	0.0167499
748.035	0.0168015
748.113	0.0169230
748.192	0.0167616
748.270	0.0168551
748.348	0.0167495
748.426	0.0168822
748.504	0.0171121
748.582	0.0169676
748.660	0.0170299
748.738	0.0170763
748.817	0.0172380
748.895	0.0172086
748.973	0.0172385
749.051	0.0172525
749.129	0.0172639
749.207	0.0172128
749.285	0.0172558
749.363	0.0173914
749.442	0.0172532
749.520	0.0172539
749.598	0.0171708
749.676	0.0172689
749.754	0.0171243
749.832	0.0171001
749.910	0.0170518
749.988	0.0173011
750.067	0.0171075
750.145	0.0172859
750.223	0.0173309
750.301	0.0173871
750.379	0.0172961
750.457	0.0173654
750.535	0.0173956
750.613	0.0175621
750.692	0.0175347
750.770	0.0175481
750.848	0.0175775
750.926	0.0176266
751.004	0.0175708
751.082	0.0175131
751.160	0.0175574
751.238	0.0175897
751.317	0.0174292
751.395	0.0175877
751.473	0.0174854
751.551	0.0176187
751.629	0.0175913
751.707	0.0174249
751.785	0.0174251
751.863	0.0173138
751.942	0.0173623
752.020	0.0173427
752.098	0.0171687
752.176	0.0173380
752.254	0.0171134
752.332	0.0171241
752.410	0.0169742
752.488	0.0170885
752.567	0.0169198
752.645	0.0168086
752.723	0.0168222
752.801	0.0167462
752.879	0.0168958
752.957	0.0167846
753.035	0.0167446
753.113	0.0166396
753.192	0.0167077
753.270	0.0168011
753.348	0.0167403
753.426	0.0167405
753.504	0.0168941
753.582	0.0168977
753.660	0.0169479
753.738	0.0170975
753.817	0.0171409
753.895	0.0173247
753.973	0.0172489
754.051	0.0173718
754.129	0.0173600
754.207	0.0174850
754.285	0.0174779
754.363	0.0173988
754.442	0.0175589
754.520	0.0174815
754.598	0.0175152
754.676	0.0174036
754.754	0.0174055
754.832	0.0173132
754.910	0.0172134
754.988	0.0172742
755.067	0.0173239
755.145	0.0173563
755.223	0.0172363
755.301	0.0172121
755.379	0.0172823
755.457	0.0173472
755.535	0.0173852
755.613	0.0172468
755.692	0.0174035
755.770	0.0172535
755.848	0.0173800
755.926	0.0173885
756.004	0.0172635
756.082	0.0173354
756.160	0.0173110
756.238	0.0173458
756.317	0.0172766
756.395	0.0173137
756.473	0.0171776
756.551	0.0172440
756.629	0.0171352
756.707	0.0171201
756.785	0.0169596
756.863	0.0169433
756.942	0.0170106
757.020	0.0171331
757.098	0.0169987
757.176	0.0169925
757.254	0.0169859
757.332	0.0169779
757.410	0.0170150
757.488	0.0170195
757.567	0.0170827
757.645	0.0169453
757.723	0.0170345
757.801	0.0171006
757.879	0.0170586
757.957	0.0171124
758.035	0.0170322
758.113	0.0171858
758.192	0.0172361
758.270	0.0171786
758.348	0.0172171
758.426	0.0172995
758.504	0.0174547
758.582	0.0174834
758.660	0.0175956
758.738	0.0176172
758.817	0.0175494
758.895	0.0176520
758.973	0.0176667
759.051	0.0176867
759.129	0.0177384
759.207	0.0176122
759.285	0.0174427
759.363	0.0174518
759.442	0.0173969
759.520	0.0172855
759.598	0.0173671
759.676	0.0173458
759.754	0.0171850
759.832	0.0171198
759.910	0.0171665
759.988	0.0170281
760.067	0.0169790
760.145	0.0168764
760.223	0.0169774
760.301	0.0168526
760.379	0.0168079
760.457	0.0168763
760.535	0.0167797
760.613	0.0169202
760.692	0.0169860
760.770	0.0167144
760.848	0.0168472
760.926	0.0170095
761.004	0.0170434
761.082	0.0169955
761.160	0.0170376
761.238	0.0168801
761.317	0.0169025
761.395	0.0172487
761.473	0.0171609
761.551	0.0171120
761.629	0.0171667
761.707	0.0172444
761.785	0.0171843
761.863	0.0172137
761.942	0.0173088
762.020	0.0172126
762.098	0.0171837
762.176	0.0170958
762.254	0.0170954
762.332	0.0172046
762.410	0.0171574
762.488	0.0169505
762.567	0.0170892
762.645	0.0171696
762.723	0.0170087
762.801	0.0169775
762.879	0.0170841
762.957	0.0170992
763.035	0.0171996
763.113	0.0170847
763.192	0.0170837
763.270	0.0173733
763.348	0.0174332
763.426	0.0175005
763.504	0.0174644
763.582	0.0175387
763.660	0.0175807
763.738	0.0177753
763.817	0.0177074
763.895	0.0174853
763.973	0.0176550
764.051	0.0176614
764.129	0.0176019
764.207	0.0174399
764.285	0.0175385
764.363	0.0174583
764.442	0.0174520
764.520	0.0174583
764.598	0.0172786
764.676	0.0171519
764.754	0.0171075
764.832	0.0171336
764.910	0.0172043
764.988	0.0171487
765.067	0.0170992
765.145	0.0171917
765.223	0.0172948
765.301	0.0170620
765.379	0.0170736
765.457	0.0172247
765.535	0.0173717
765.613	0.0173578
765.692	0.0173155
765.770	0.0173045
765.848	0.0173575
765.926	0.0172749
766.004	0.0173895
766.082	0.0175424
766.160	0.0175966
766.238	0.0175005
766.317	0.0174758
766.395	0.0174461
766.473	0.0174879
766.551	0.0174663
766.629	0.0173974
766.707	0.0173190
766.785	0.0172858
766.863	0.0172945
766.942	0.0170849
767.020	0.0170766
767.098	0.0169295
767.176	0.0169544
767.254	0.0168661
767.332	0.0167420
767.410	0.0166016
767.488	0.0166455
767.567	0.0165995
767.645	0.0164589
767.723	0.0165391
767.801	0.0167489
767.879	0.0166000
767.957	0.0165831
768.035	0.0168003
768.113	0.0168777
768.192	0.0168023
768.270	0.0168686
768.348	0.0169302
768.426	0.0172318
768.504	0.0171889
768.582	0.0172649
768.660	0.0172445
768.738	0.0174515
768.817	0.0173620
768.895	0.0174030
768.973	0.0174274
769.051	0.0175463
769.129	0.0176860
769.207	0.0175076
769.285	0.0175208
769.363	0.0176023
769.442	0.0176508
769.520	0.0176735
769.598	0.0175198
769.676	0.0174911
769.754	0.0175220
769.832	0.0175578
769.910	0.0173233
769.988	0.0174562
770.067	0.0176543
770.145	0.0174216
770.223	0.0175351
770.301	0.0173512
770.379	0.0172843
770.457	0.0173317
770.535	0.0173819
770.613	0.0173169
770.692	0.0171841
770.770	0.0172503
770.848	0.0173196
770.926	0.0172389
771.004	0.0172059
771.082	0.0172560
771.160	0.0172872
771.238	0.0172160
771.317	0.0173161
771.395	0.0171969
771.473	0.0172054
771.551	0.0174226
771.629	0.0173610
771.707	0.0174491
771.785	0.0174093
771.863	0.0172418
771.942	0.0171767
772.020	0.0171967
772.098	0.0171010
772.176	0.0171443
772.254	0.0171281
772.332	0.0170822
772.410	0.0170132
772.488	0.0169480
772.567	0.0170031
772.645	0.0169170
772.723	0.0168577
772.801	0.0168835
772.879	0.0167277
772.957	0.0167951
773.035	0.0169043
773.113	0.0168761
773.192	0.0168390
773.270	0.0169244
773.348	0.0169242
773.426	0.0170412
773.504	0.0169195
773.582	0.0170419
773.660	0.0170900
773.738	0.0170709
773.817	0.0171143
773.895	0.0171198
773.973	0.0172269
774.051	0.0172463
774.129	0.0172940
774.207	0.0172741
774.285	0.0174036
774.363	0.0174532
774.442	0.0174280
774.520	0.0174319
774.598	0.0174148
774.676	0.0175271
774.754	0.0173606
774.832	0.0174193
774.910	0.0173526
774.988	0.0173299
775.067	0.0173730
775.145	0.0174999
775.223	0.0173651
775.301	0.0173716
775.379	0.0173907
775.457	0.0173605
775.535	0.0174540
775.613	0.0172593
775.692	0.0173723
775.770	0.0174252
775.848	0.0174317
775.926	0.0174978
776.004	0.0174065
776.082	0.0174792
776.160	0.0173239
776.238	0.0174239
776.317	0.0175064
776.395	0.0174318
776.473	0.0173692
776.551	0.0174032
776.629	0.0173975
776.707	0.0173244
776.785	0.0172298
776.863	0.0172208
776.942	0.0170725
777.020	0.0170058
777.098	0.0170462
777.176	0.0170118
777.254	0.0169894
777.332	0.0169795
777.410	0.0170329
777.488	0.0169704
777.567	0.0169558
777.645	0.0168253
777.723	0.0169405
777.801	0.0168990
777.879	0.0170467
777.957	0.0169903
778.035	0.0169276
778.113	0.0170968
778.192	0.0170398
778.270	0.0170049
778.348	0.0169839
778.426	0.0169461
778.504	0.0171089
778.582	0.0170089
778.660	0.0170028
778.738	0.0169684
778.817	0.0171049
778.895	0.0170862
778.973	0.0171267
779.051	0.0172971
779.129	0.0172920
779.207	0.0172462
779.285	0.0171739
779.363	0.0171286
779.442	0.0174057
779.520	0.0174225
779.598	0.0173061
779.676	0.0175072
779.754	0.0173991
779.832	0.0172639
779.910	0.0174704
779.988	0.0174008
780.067	0.0174283
780.145	0.0173945
780.223	0.0173293
780.301	0.0172890
780.379	0.0172444
780.457	0.0172703
780.535	0.0173560
780.613	0.0173505
780.692	0.0171946
780.770	0.0173711
780.848	0.0172826
780.926	0.0173079
781.004	0.0173805
781.082	0.0174422
781.160	0.0173370
781.238	0.0175867
781.317	0.0176411
781.395	0.0174181
781.473	0.0174639
781.551	0.0174284
781.629	0.0173188
781.707	0.0173273
781.785	0.0172189
781.863	0.0170851
781.942	0.0170002
782.020	0.0170106
782.098	0.0169931
782.176	0.0168118
782.254	0.0167630
782.332	0.0167771
782.410	0.0167852
782.488	0.0168555
782.567	0.0168264
782.645	0.0166641
782.723	0.0169006
782.801	0.0170815
782.879	0.0170582
782.957	0.0170337
783.035	0.0170848
783.113	0.0172473
783.192	0.0174769
783.270	0.0177095
783.348	0.0177426
783.426	0.0176608
783.504	0.0178386
783.582	0.0179616
783.660	0.0179478
783.738	0.0179527
783.817	0.0177818
783.895	0.0177972
783.973	0.0177005
784.051	0.0176085
784.129	0.0174777
784.207	0.0173186
784.285	0.0172608
784.363	0.0172226
784.442	0.0171001
784.520	0.0169582
784.598	0.0169046
784.676	0.0167847
784.754	0.0166679
784.832	0.0167143
784.910	0.0166127
784.988	0.0167454
785.067	0.0165765
785.145	0.0167043
785.223	0.0166234
785.301	0.0167574
785.379	0.0167481
785.457	0.0166867
785.535	0.0168179
785.613	0.0169487
785.692	0.0167761
785.770	0.0171291
785.848	0.0171285
785.926	0.0171371
786.004	0.0173068
786.082	0.0175090
786.160	0.0174223
786.238	0.0175066
786.317	0.0175188
786.395	0.0176811
786.473	0.0176241
786.551	0.0174886
786.629	0.0175340
786.707	0.0175610
786.785	0.0175637
786.863	0.0176366
786.942	0.0173806
787.020	0.0174607
787.098	0.0175042
787.176	0.0174623
787.254	0.0174477
787.332	0.0174367
787.410	0.0174303
787.488	0.0174889
787.567	0.0172752
787.645	0.0171554
787.723	0.0172920
787.801	0.0172282
787.879	0.0171902
787.957	0.0171097
788.035	0.0170735
788.113	0.0169729
788.192	0.0168422
788.270	0.0168665
788.348	0.0169285
788.426	0.0167561
788.504	0.0167207
788.582	0.0168090
788.660	0.0168973
788.738	0.0168551
788.817	0.0167200
788.895	0.0168004
788.973	0.0169571
789.051	0.0169395
789.129	0.0169279
789.207	0.0171375
789.285	0.0171030
789.363	0.0172131
789.442	0.0171601
789.520	0.0171986
789.598	0.0173061
789.676	0.0174390
789.754	0.0173587
789.832	0.0172936
789.910	0.0175009
789.988	0.0174638
790.067	0.0176229
790.145	0.0176621
790.223	0.0176142
790.301	0.0177481
790.379	0.0176027
790.457	0.0176645
790.535	0.0176534
790.613	0.0175371
790.692	0.0174860
790.770	0.0173891
790.848	0.0175615
790.926	0.0171666
791.004	0.0173078
791.082	0.0172926
791.160	0.0171094
791.238	0.0171761
791.317	0.0170213
791.395	0.0168895
791.473	0.0169286
791.551	0.0169828
791.629	0.0169949
791.707	0.0169170
791.785	0.0168508
791.863	0.0169212
791.942	0.0169109
792.020	0.0170461
792.098	0.0170284
792.176	0.0169332
792.254	0.0168578
792.332	0.0171279
792.410	0.0170273
792.488	0.0170721
792.567	0.0172076
792.645	0.0171400
792.723	0.0170217
792.801	0.0171062
792.879	0.0170621
792.957	0.0170383
793.035	0.0170986
793.113	0.0171552
793.192	0.0170676
793.270	0.0170770
793.348	0.0170684
793.426	0.0169334
793.504	0.0169802
793.582	0.0169901
793.660	0.0171136
793.738	0.0171173
793.817	0.0170927
793.895	0.0171100
793.973	0.0171827
794.051	0.0173256
794.129	0.0172932
794.207	0.0171706
794.285	0.0172839
794.363	0.0173457
794.442	0.0174785
794.520	0.0175859
794.598	0.0173076
794.676	0.0174018
794.754	0.0173923
794.832	0.0175307
794.910	0.0174570
794.988	0.0173976
795.067	0.0176373
795.145	0.0174957
795.223	0.0174744
795.301	0.0174667
795.379	0.0175166
795.457	0.0174411
795.535	0.0175149
795.613	0.0174918
795.692	0.0174226
795.770	0.0174538
795.848	0.0173541
795.926	0.0173589
796.004	0.0172987
796.082	0.0173391
796.160	0.0174496
796.238	0.0173429
796.317	0.0174254
796.395	0.0174484
796.473	0.0172816
796.551	0.0173795
796.629	0.0174110
796.707	0.0173143
796.785	0.0171896
796.863	0.0171534
796.942	0.0171083
797.020	0.0170560
797.098	0.0172106
797.176	0.0171349
797.254	0.0169780
797.332	0.0170416
797.410	0.0170872
797.488	0.0170632
797.567	0.0168694
797.645	0.0168221
797.723	0.0171577
797.801	0.0170229
797.879	0.0171082
797.957	0.0168681
798.035	0.0170818
798.113	0.0171705
798.192	0.0170715
798.270	0.0171673
798.348	0.0170491
798.426	0.0170296
798.504	0.0170934
798.582	0.0171088
798.660	0.0169705
798.738	0.0171472
798.817	0.0170623
798.895	0.0171764
798.973	0.0170806
799.051	0.0169863
799.129	0.0171528
799.207	0.0172165
799.285	0.0172800
799.363	0.0169919
799.442	0.0170683
799.520	0.0171813
799.598	0.0172352
799.676	0.0172913
799.754	0.0171742
799.832	0.0171947
799.910	0.0173872
799.988	0.0172168
800.067	0.0171868
800.145	0.0172027
800.223	0.0171905
800.301	0.0171864
800.379	0.0171831
800.457	0.0171499
800.535	0.0173130
800.613	0.0170184
800.692	0.0170507
800.770	0.0171614
800.848	0.0170820
800.926	0.0172900
801.004	0.0171532
801.082	0.0172202
801.160	0.0172021
801.238	0.0172888
801.317	0.0172206
801.395	0.0172309
801.473	0.0172424
801.551	0.0173821
801.629	0.0173975
801.707	0.0173554
801.785	0.0174731
801.863	0.0173900
801.942	0.0174454
802.020	0.0175600
802.098	0.0176585
802.176	0.0175130
802.254	0.0175468
802.332	0.0174561
802.410	0.0175620
802.488	0.0175013
802.567	0.0176260
802.645	0.0175891
802.723	0.0175553
802.801	0.0175469
802.879	0.0175206
802.957	0.0174068
803.035	0.0172664
803.113	0.0174310
803.192	0.0173705
803.270	0.0172781
803.348	0.0171815
803.426	0.0172190
803.504	0.0170198
803.582	0.0171584
803.660	0.0169358
803.738	0.0169860
803.817	0.0169756
803.895	0.0170345
803.973	0.0170051
804.051	0.0167430
804.129	0.0168414
804.207	0.0168877
804.285	0.0168421
804.363	0.0167168
804.442	0.0168236
804.520	0.0168450
804.598	0.0167842
804.676	0.0167042
804.754	0.0168523
804.832	0.0167056
804.910	0.0167195
804.988	0.0169199
805.067	0.0169583
805.145	0.0169051
805.223	0.0169486
805.301	0.0170589
805.379	0.0171294
805.457	0.0170295
805.535	0.0169975
805.613	0.0172409
805.692	0.0171673
805.770	0.0172142
805.848	0.0173273
805.926	0.0173077
806.004	0.0173998
806.082	0.0174464
806.160	0.0176262
806.238	0.0175459
806.317	0.0173559
806.395	0.0175058
806.473	0.0174328
806.551	0.0172142
806.629	0.0174325
806.707	0.0173956
806.785	0.0172302
806.863	0.0171938
806.942	0.0171279
807.020	0.0170652
807.098	0.0172012
807.176	0.0171508
807.254	0.0170310
807.332	0.0170739
807.410	0.0171203
807.488	0.0172013
807.567	0.0172837
807.645	0.0172467
807.723	0.0173109
807.801	0.0172498
807.879	0.0173370
807.957	0.0175751
808.035	0.0175196
808.113	0.0175517
808.192	0.0175143
808.270	0.0174506
808.348	0.0174031
808.426	0.0173462
808.504	0.0174393
808.582	0.0171576
808.660	0.0171218
808.738	0.0170618
808.817	0.0171490
808.895	0.0170794
808.973	0.0167989
809.051	0.0169531
809.129	0.0168688
809.207	0.0169057
809.285	0.0168629
809.363	0.0166788
809.442	0.0168884
809.520	0.0166245
809.598	0.0166247
809.676	0.0168136
809.754	0.0168501
809.832	0.0168522
809.910	0.0168302
809.988	0.0169365
810.067	0.0170892
810.145	0.0171355
810.223	0.0171235
810.301	0.0172630
810.379	0.0171258
810.457	0.0171814
810.535	0.0173580
810.613	0.0174226
810.692	0.0175262
810.770	0.0173715
810.848	0.0173493
810.926	0.0173885
811.004	0.0174893
811.082	0.0175113
811.160	0.0175123
811.238	0.0173974
811.317	0.0174466
811.395	0.0174117
811.473	0.0174363
811.551	0.0175797
811.629	0.0174763
811.707	0.0174396
811.785	0.0172741
811.863	0.0174978
811.942	0.0174184
812.020	0.0173306
812.098	0.0173131
812.176	0.0173822
812.254	0.0174381
812.332	0.0174949
812.410	0.0173540
812.488	0.0172971
812.567	0.0173344
812.645	0.0172674
812.723	0.0171391
812.801	0.0172580
812.879	0.0172000
812.957	0.0171904
813.035	0.0170844
813.113	0.0169814
813.192	0.0169682
813.270	0.0169601
813.348	0.0170937
813.426	0.0169130
813.504	0.0169145
813.582	0.0167947
813.660	0.0169243
813.738	0.0167999
813.817	0.0167179
813.895	0.0167862
813.973	0.0167014
814.051	0.0167397
814.129	0.0166969
814.207	0.0166073
814.285	0.0168075
814.363	0.0167403
814.442	0.0169359
814.520	0.0168181
814.598	0.0167253
814.676	0.0167075
814.754	0.0168549
814.832	0.0169784
814.910	0.0170580
814.988	0.0169616
815.067	0.0170176
815.145	0.0171891
815.223	0.0171793
815.301	0.0173140
815.379	0.0171796
815.457	0.0171603
815.535	0.0173609
815.613	0.0172698
815.692	0.0173476
815.770	0.0172686
815.848	0.0173790
815.926	0.0174341
816.004	0.0173618
816.082	0.0173259
816.160	0.0175130
816.238	0.0176553
816.317	0.0175745
816.395	0.0176469
816.473	0.0176777
816.551	0.0177103
816.629	0.0177529
816.707	0.0178567
816.785	0.0178487
816.863	0.0177388
816.942	0.0178513
817.020	0.0178384
817.098	0.0179237
817.176	0.0178098
817.254	0.0177512
817.332	0.0178934
817.410	0.0176393
817.488	0.0176202
817.567	0.0175818
817.645	0.0175627
817.723	0.0175813
817.801	0.0172909
817.879	0.0172178
817.957	0.0171799
818.035	0.0171875
818.113	0.0170018
818.192	0.0170148
818.270	0.0168755
818.348	0.0168533
818.426	0.0169193
818.504	0.0167231
818.582	0.0167071
818.660	0.0167812
818.738	0.0167817
818.817	0.0167518
818.895	0.0168333
818.973	0.0168024
819.051	0.0167154
819.129	0.0167007
819.207	0.0168747
819.285	0.0169188
819.363	0.0168391
819.442	0.0170264
819.520	0.0169875
819.598	0.0169542
819.676	0.0170006
819.754	0.0169538
819.832	0.0170327
819.910	0.0169485
819.988	0.0171489
820.067	0.0170437
820.145	0.0170483
820.223	0.0168784
820.301	0.0170721
820.379	0.0170482
820.457	0.0170236
820.535	0.0169987
820.613	0.0169506
820.692	0.0169963
820.770	0.0170897
820.848	0.0170023
820.926	0.0168732
821.004	0.0169829
821.082	0.0169739
821.160	0.0170898
821.238	0.0171786
821.317	0.0172769
821.395	0.0172707
821.473	0.0173244
821.551	0.0172916
821.629	0.0173324
821.707	0.0174991
821.785	0.0175761
821.863	0.0175713
821.942	0.0174632
822.020	0.0175962
822.098	0.0175758
822.176	0.0177164
822.254	0.0176375
822.332	0.0176886
822.410	0.0177262
822.488	0.0177424
822.567	0.0178078
822.645	0.0178668
822.723	0.0177540
822.801	0.0175901
822.879	0.0177857
822.957	0.0177776
823.035	0.0177720
823.113	0.0175627
823.192	0.0174754
823.270	0.0174458
823.348	0.0174290
823.426	0.0174175
823.504	0.0172030
823.582	0.0170388
823.660	0.0170223
823.738	0.0169238
823.817	0.0169736
823.895	0.0168974
823.973	0.0168751
824.051	0.0167392
824.129	0.0168653
824.207	0.0168967
824.285	0.0167611
824.363	0.0167566
824.442	0.0167907
824.520	0.0167801
824.598	0.0166566
824.676	0.0166687
824.754	0.0168774
824.832	0.0167078
824.910	0.0168438
824.988	0.0167632
825.067	0.0168183
825.145	0.0168185
825.223	0.0168098
825.301	0.0168562
825.379	0.0167568
825.457	0.0170897
825.535	0.0170164
825.613	0.0170709
825.692	0.0171608
825.770	0.0171284
825.848	0.0172269
825.926	0.0172847
826.004	0.0172108
826.082	0.0172746
826.160	0.0172749
826.238	0.0174182
826.317	0.0173322
826.395	0.0175232
826.473	0.0174685
826.551	0.0174969
826.629	0.0174657
826.707	0.0174512
826.785	0.0175127
826.863	0.0175272
826.942	0.0173307
827.020	0.0174457
827.098	0.0174796
827.176	0.0173432
827.254	0.0173594
827.332	0.0174859
827.410	0.0172720
827.488	0.0174628
827.567	0.0175389
827.645	0.0174729
827.723	0.0174864
827.801	0.0175291
827.879	0.0175064
827.957	0.0174781
828.035	0.0174720
828.113	0.0174052
828.192	0.0174862
828.270	0.0173917
828.348	0.0174128
828.426	0.0173568
828.504	0.0174525
828.582	0.0173909
828.660	0.0173483
828.738	0.0172314
828.817	0.0171716
828.895	0.0171846
828.973	0.0171269
829.051	0.0170961
829.129	0.0171869
829.207	0.0170287
829.285	0.0169138
829.363	0.0170047
829.442	0.0169861
829.520	0.0169415
829.598	0.0168535
829.676	0.0168527
829.754	0.0169789
829.832	0.0169727
829.910	0.0168507
829.988	0.0170811
830.067	0.0168885
830.145	0.0169491
830.223	0.0171267
830.301	0.0171113
830.379	0.0171249
830.457	0.0171944
830.535	0.0170204
830.613	0.0171181
830.692	0.0171879
830.770	0.0170249
830.848	0.0170681
830.926	0.0170072
831.004	0.0170029
831.082	0.0171257
831.160	0.0170873
831.238	0.0171782
831.317	0.0168979
831.395	0.0170268
831.473	0.0171037
831.551	0.0168426
831.629	0.0169778
831.707	0.0169974
831.785	0.0170246
831.863	0.0170190
831.942	0.0170853
832.020	0.0169936
832.098	0.0170943
832.176	0.0170422
832.254	0.0172093
832.332	0.0170776
832.410	0.0171103
832.488	0.0173517
832.567	0.0172704
832.645	0.0173117
832.723	0.0173219
832.801	0.0172194
832.879	0.0171688
832.957	0.0173385
833.035	0.0173971
833.113	0.0173292
833.192	0.0173219
833.270	0.0173428
833.348	0.0173871
833.426	0.0173148
833.504	0.0172937
833.582	0.0173856
833.660	0.0175741
833.738	0.0175114
833.817	0.0174191
833.895	0.0174609
833.973	0.0173186
834.051	0.0174281
834.129	0.0174404
834.207	0.0175360
834.285	0.0173306
834.363	0.0173369
834.442	0.0174155
834.520	0.0173453
834.598	0.0172787
834.676	0.0173547
834.754	0.0174213
834.832	0.0172868
834.910	0.0172438
834.988	0.0173598
835.067	0.0173861
835.145	0.0173638
835.223	0.0172376
835.301	0.0174561
835.379	0.0173567
835.457	0.0172836
835.535	0.0172704
835.613	0.0173631
835.692	0.0174702
835.770	0.0173935
835.848	0.0174185
835.926	0.0173951
836.004	0.0173242
836.082	0.0173225
836.160	0.0173326
836.238	0.0172703
836.317	0.0172733
836.395	0.0171923
836.473	0.0172016
836.551	0.0170432
836.629	0.0170744
836.707	0.0170229
836.785	0.0170079
836.863	0.0167458
836.942	0.0168383
837.020	0.0168885
837.098	0.0168540
837.176	0.0166820
837.254	0.0168027
837.332	0.0167664
837.410	0.0166083
837.488	0.0166116
837.567	0.0166836
837.645	0.0167817
837.723	0.0167368
837.801	0.0167779
837.879	0.0168349
837.957	0.0168842
838.035	0.0168852
838.113	0.0169036
838.192	0.0168636
838.270	0.0171062
838.348	0.0168890
838.426	0.0170523
838.504	0.0172502
838.582	0.0170784
838.660	0.0172464
838.738	0.0171125
838.817	0.0172297
838.895	0.0173315
838.973	0.0173240
839.051	0.0173837
839.129	0.0174303
839.207	0.0174306
839.285	0.0174664
839.363	0.0175398
839.442	0.0175344
839.520	0.0175928
839.598	0.0176635
839.676	0.0176682
839.754	0.0176372
839.832	0.0177443
839.910	0.0177905
839.988	0.0176694
840.067	0.0177843
840.145	0.0176870
840.223	0.0177304
840.301	0.0177758
840.379	0.0177914
840.457	0.0176069
840.535	0.0175731
840.613	0.0177281
840.692	0.0175851
840.770	0.0175479
840.848	0.0175018
840.926	0.0174961
841.004	0.0174776
841.082	0.0174612
841.160	0.0174307
841.238	0.0174406
841.317	0.0173813
841.395	0.0173681
841.473	0.0171946
841.551	0.0173342
841.629	0.0172765
841.707	0.0171122
841.785	0.0170155
841.863	0.0171741
841.942	0.0171255
842.020	0.0170259
842.098	0.0169314
842.176	0.0169923
842.254	0.0169884
842.332	0.0169125
842.410	0.0171053
842.488	0.0169653
842.567	0.0170120
842.645	0.0170692
842.723	0.0170662
842.801	0.0170425
842.879	0.0170152
842.957	0.0171281
843.035	0.0170014
843.113	0.0170315
843.192	0.0170470
843.270	0.0169576
843.348	0.0168678
843.426	0.0170274
843.504	0.0169421
843.582	0.0168631
843.660	0.0167635
843.738	0.0168610
843.817	0.0169855
843.895	0.0168904
843.973	0.0169476
844.051	0.0169536
844.129	0.0169830
844.207	0.0170471
844.285	0.0171421
844.363	0.0170195
844.442	0.0171377
844.520	0.0170308
844.598	0.0170686
844.676	0.0170116
844.754	0.0170291
844.832	0.0170826
844.910	0.0171650
844.988	0.0172172
845.067	0.0172114
845.145	0.0171166
845.223	0.0172941
845.301	0.0172773
845.379	0.0172572
845.457	0.0172079
845.535	0.0172697
845.613	0.0172314
845.692	0.0173240
845.770	0.0173806
845.848	0.0173499
845.926	0.0174058
846.004	0.0174486
846.082	0.0175144
846.160	0.0174607
846.238	0.0172955
846.317	0.0176034
846.395	0.0176981
846.473	0.0176785
846.551	0.0176585
846.629	0.0177887
846.707	0.0177921
846.785	0.0177116
846.863	0.0177314
846.942	0.0177983
847.020	0.0177880
847.098	0.0176479
847.176	0.0176543
847.254	0.0177464
847.332	0.0176586
847.410	0.0176151
847.488	0.0175416
847.567	0.0175375
847.645	0.0175524
847.723	0.0176164
847.801	0.0175338
847.879	0.0175457
847.957	0.0172763
848.035	0.0172765
848.113	0.0172540
848.192	0.0173716
848.270	0.0173148
848.348	0.0171124
848.426	0.0170057
848.504	0.0171398
848.582	0.0171019
848.660	0.0170879
848.738	0.0171844
848.817	0.0171851
848.895	0.0171932
848.973	0.0169548
849.051	0.0169752
849.129	0.0169886
849.207	0.0170025
849.285	0.0170260
849.363	0.0166470
849.442	0.0168298
849.520	0.0168185
849.598	0.0166909
849.676	0.0167774
849.754	0.0168337
849.832	0.0167446
849.910	0.0166753
849.988	0.0168449
850.067	0.0167370
850.145	0.0168432
850.223	0.0169766
850.301	0.0169021
850.379	0.0169609
850.457	0.0169985
850.535	0.0170439
850.613	0.0170644
850.692	0.0170953
850.770	0.0171075
850.848	0.0171508
850.926	0.0170195
851.004	0.0171117
851.082	0.0173038
851.160	0.0172846
851.238	0.0172270
851.317	0.0172107
851.395	0.0173320
851.473	0.0173286
851.551	0.0173147
851.629	0.0172894
851.707	0.0174205
851.785	0.0173689
851.863	0.0172061
851.942	0.0172612
852.020	0.0174136
852.098	0.0172559
852.176	0.0174008
852.254	0.0174287
852.332	0.0173728
852.410	0.0175523
852.488	0.0175381
852.567	0.0174602
852.645	0.0176809
852.723	0.0175348
852.801	0.0176431
852.879	0.0175353
852.957	0.0177034
853.035	0.0176723
853.113	0.0176688
853.192	0.0178381
853.270	0.0176561
853.348	0.0176460
853.426	0.0175979
853.504	0.0176053
853.582	0.0175613
853.660	0.0175549
853.738	0.0172942
853.817	0.0173299
853.895	0.0174559
853.973	0.0173161
854.051	0.0172293
854.129	0.0170539
854.207	0.0171302
854.285	0.0170387
854.363	0.0170486
854.442	0.0170300
854.520	0.0169003
854.598	0.0169936
854.676	0.0168830
854.754	0.0169717
854.832	0.0169253
854.910	0.0169822
854.988	0.0170973
855.067	0.0171048
855.145	0.0171252
855.223	0.0170847
855.301	0.0171390
855.379	0.0170902
855.457	0.0171187
855.535	0.0171895
855.613	0.0171095
855.692	0.0171030
855.770	0.0171164
855.848	0.0171669
855.926	0.0170473
856.004	0.0172108
856.082	0.0173274
856.160	0.0171738
856.238	0.0172388
856.317	0.0170882
856.395	0.0171432
856.473	0.0170098
856.551	0.0169129
856.629	0.0169558
856.707	0.0170216
856.785	0.0169842
856.863	0.0171450
856.942	0.0170657
857.020	0.0169070
857.098	0.0168315
857.176	0.0169895
857.254	0.0171048
857.332	0.0170233
857.410	0.0170511
857.488	0.0169569
857.567	0.0170552
857.645	0.0169966
857.723	0.0170825
857.801	0.0171463
857.879	0.0171906
857.957	0.0171745
858.035	0.0172122
858.113	0.0173542
858.192	0.0173433
858.270	0.0173768
858.348	0.0173967
858.426	0.0173380
858.504	0.0174210
858.582	0.0174433
858.660	0.0174738
858.738	0.0175666
858.817	0.0175653
858.895	0.0173756
858.973	0.0174780
859.051	0.0174749
859.129	0.0175465
859.207	0.0174577
859.285	0.0173762
859.363	0.0174635
859.442	0.0173301
859.520	0.0173656
859.598	0.0172888
859.676	0.0171889
859.754	0.0172539
859.832	0.0173360
859.910	0.0173092
859.988	0.0173122
860.067	0.0173174
860.145	0.0173171
860.223	0.0172965
860.301	0.0174376
860.379	0.0172401
860.457	0.0174827
860.535	0.0175358
860.613	0.0175098
860.692	0.0175536
860.770	0.0174423
860.848	0.0174786
860.926	0.0174970
861.004	0.0173736
861.082	0.0174272
861.160	0.0173521
861.238	0.0173959
861.317	0.0174033
861.395	0.0173058
861.473	0.0172024
861.551	0.0171361
861.629	0.0171337
861.707	0.0171100
861.785	0.0169217
861.863	0.0169100
861.942	0.0167516
862.020	0.0168582
862.098	0.0169055
862.176	0.0168530
862.254	0.0167087
862.332	0.0166845
862.410	0.0167152
862.488	0.0168739
862.567	0.0168169
862.645	0.0168304
862.723	0.0168630
862.801	0.0169292
862.879	0.0169411
862.957	0.0168183
863.035	0.0168751
863.113	0.0170237
863.192	0.0170605
863.270	0.0171059
863.348	0.0171964
863.426	0.0171359
863.504	0.0171464
863.582	0.0171853
863.660	0.0171781
863.738	0.0172547
863.817	0.0172105
863.895	0.0171189
863.973	0.0171953
864.051	0.0172572
864.129	0.0172693
864.207	0.0172533
864.285	0.0173151
864.363	0.0174008
864.442	0.0173859
864.520	0.0172701
864.598	0.0173613
864.676	0.0173267
864.754	0.0173312
864.832	0.0172264
864.910	0.0173405
864.988	0.0174269
865.067	0.0174377
865.145	0.0174580
865.223	0.0173659
865.301	0.0174329
865.379	0.0174285
865.457	0.0175752
865.535	0.0174868
865.613	0.0173766
865.692	0.0174876
865.770	0.0174526
865.848	0.0174983
865.926	0.0174935
866.004	0.0173367
866.082	0.0175471
866.160	0.0175778
866.238	0.0176570
866.317	0.0175101
866.395	0.0174859
866.473	0.0174487
866.551	0.0174123
866.629	0.0172920
866.707	0.0172771
866.785	0.0173701
866.863	0.0171773
866.942	0.0171751
867.020	0.0170754
867.098	0.0169672
867.176	0.0170693
867.254	0.0170226
867.332	0.0168508
867.410	0.0168016
867.488	0.0169455
867.567	0.0168061
867.645	0.0168847
867.723	0.0169248
867.801	0.0168752
867.879	0.0169126
867.957	0.0168928
868.035	0.0167152
868.113	0.0169324
868.192	0.0170576
868.270	0.0169475
868.348	0.0169594
868.426	0.0169582
868.504	0.0170510
868.582	0.0170525
868.660	0.0171376
868.738	0.0169020
868.817	0.0172684
868.895	0.0169838
868.973	0.0171544
869.051	0.0172154
869.129	0.0170850
869.207	0.0170515
869.285	0.0171219
869.363	0.0171296
869.442	0.0172527
869.520	0.0171809
869.598	0.0172743
869.676	0.0171796
869.754	0.0172655
869.832	0.0171073
869.910	0.0172746
869.988	0.0172627
870.067	0.0172014
870.145	0.0172140
870.223	0.0173274
870.301	0.0173327
870.379	0.0172980
870.457	0.0172355
870.535	0.0173321
870.613	0.0173320
870.692	0.0173067
870.770	0.0173944
870.848	0.0173557
870.926	0.0175014
871.004	0.0174265
871.082	0.0173209
871.160	0.0174337
871.238	0.0174559
871.317	0.0173516
871.395	0.0172720
871.473	0.0174357
871.551	0.0174082
871.629	0.0172167
871.707	0.0174078
871.785	0.0172527
871.863	0.0172783
871.942	0.0172063
872.020	0.0172137
872.098	0.0171808
872.176	0.0172118
872.254	0.0172445
872.332	0.0173399
872.410	0.0171600
872.488	0.0171589
872.567	0.0172245
872.645	0.0173114
872.723	0.0173071
872.801	0.0172448
872.879	0.0172120
872.957	0.0171735
873.035	0.0171545
873.113	0.0171923
873.192	0.0170379
873.270	0.0171952
873.348	0.0170040
873.426	0.0169735
873.504	0.0171427
873.582	0.0169871
873.660	0.0169085
873.738	0.0169443
873.817	0.0170063
873.895	0.0168584
873.973	0.0170543
874.051	0.0169672
874.129	0.0168844
874.207	0.0169228
874.285	0.0170617
874.363	0.0169424
874.442	0.0169093
874.520	0.0171663
874.598	0.0170673
874.676	0.0169186
874.754	0.0170938
874.832	0.0171722
874.910	0.0171520
874.988	0.0171343
875.067	0.0171844
875.145	0.0171102
875.223	0.0171220
875.301	0.0170960
875.379	0.0171219
875.457	0.0171613
875.535	0.0170367
875.613	0.0169492
875.692	0.0169266
875.770	0.0169583
875.848	0.0170838
875.926	0.0171777
876.004	0.0170406
876.082	0.0171799
876.160	0.0174136
876.238	0.0174404
876.317	0.0175471
876.395	0.0176225
876.473	0.0175952
876.551	0.0178017
876.629	0.0177728
876.707	0.0178920
876.785	0.0178912
876.863	0.0177562
876.942	0.0177991
877.020	0.0176592
877.098	0.0174832
877.176	0.0174187
877.254	0.0171255
877.332	0.0170639
877.410	0.0169901
877.488	0.0167223
877.567	0.0166456
877.645	0.0166108
877.723	0.0165303
877.801	0.0162544
877.879	0.0163881
877.957	0.0164027
878.035	0.0164728
878.113	0.0165765
878.192	0.0167690
878.270	0.0168535
878.348	0.0168750
878.426	0.0172065
878.504	0.0174258
878.582	0.0176456
878.660	0.0177586
878.738	0.0179585
878.817	0.0182121
878.895	0.0183616
878.973	0.0184254
879.051	0.0184277
879.129	0.0183908
879.207	0.0182703
879.285	0.0179536
879.363	0.0178095
879.442	0.0175140
879.520	0.0172393
879.598	0.0169427
879.676	0.0167361
879.754	0.0164149
879.832	0.0161975
879.910	0.0161527
879.988	0.0160006
880.067	0.0159882
880.145	0.0160291
880.223	0.0161078
880.301	0.0161558
880.379	0.0163013
880.457	0.0164330
880.535	0.0165221
880.613	0.0167130
880.692	0.0167583
880.770	0.0170844
880.848	0.0173448
880.926	0.0174657
881.004	0.0175601
881.082	0.0176976
881.160	0.0179714
881.238	0.0181195
881.317	0.0183627
881.395	0.0183802
881.473	0.0183760
881.551	0.0182948
881.629	0.0184133
881.707	0.0183442
881.785	0.0181706
881.863	0.0180923
881.942	0.0177917
882.020	0.0176607
882.098	0.0174377
882.176	0.0172520
882.254	0.0168953
882.332	0.0167556
882.410	0.0165810
882.488	0.0164903
882.567	0.0165001
882.645	0.0164056
882.723	0.0162495
882.801	0.0162185
882.879	0.0164509
882.957	0.0163427
883.035	0.0163914
883.113	0.0164972
883.192	0.0167137
883.270	0.0167319
883.348	0.0167986
883.426	0.0170229
883.504	0.0169698
883.582	0.0171208
883.660	0.0173719
883.738	0.0174924
883.817	0.0175336
883.895	0.0177193
883.973	0.0177985
884.051	0.0179362
884.129	0.0179157
884.207	0.0180028
884.285	0.0181974
884.363	0.0178989
884.442	0.0178214
884.520	0.0178684
884.598	0.0175683
884.676	0.0176019
884.754	0.0173666
884.832	0.0173241
884.910	0.0170710
884.988	0.0169031
885.067	0.0168345
885.145	0.0167452
885.223	0.0167554
885.301	0.0168383
885.379	0.0166633
885.457	0.0167892
885.535	0.0167190
885.613	0.0167671
885.692	0.0167556
885.770	0.0168880
885.848	0.0168947
885.926	0.0170145
886.004	0.0171606
886.082	0.0170559
886.160	0.0172853
886.238	0.0172119
886.317	0.0173071
886.395	0.0174173
886.473	0.0174505
886.551	0.0173911
886.629	0.0174472
886.707	0.0175385
886.785	0.0175964
886.863	0.0174693
886.942	0.0174420
887.020	0.0174349
887.098	0.0173591
887.176	0.0173621
887.254	0.0172549
887.332	0.0172411
887.410	0.0172985
887.488	0.0173274
887.567	0.0170140
887.645	0.0170588
887.723	0.0170151
887.801	0.0170605
887.879	0.0169501
887.957	0.0169312
888.035	0.0168940
888.113	0.0170514
888.192	0.0169055
888.270	0.0167741
888.348	0.0169686
888.426	0.0170353
888.504	0.0169431
888.582	0.0169151
888.660	0.0169044
888.738	0.0167982
888.817	0.0170009
888.895	0.0169698
888.973	0.0169999
889.051	0.0171083
889.129	0.0170096
889.207	0.0169953
889.285	0.0170567
889.363	0.0171190
889.442	0.0172800
889.520	0.0173875
889.598	0.0174674
889.676	0.0175559
889.754	0.0176896
889.832	0.0177744
889.910	0.0176941
889.988	0.0179429
890.067	0.0177983
890.145	0.0176891
890.223	0.0177706
890.301	0.0175347
890.379	0.0174146
890.457	0.0174392
890.535	0.0172662
890.613	0.0171172
890.692	0.0169051
890.770	0.0168351
890.848	0.0168806
890.926	0.0167819
891.004	0.0166933
891.082	0.0166295
891.160	0.0167706
891.238	0.0166782
891.317	0.0167099
891.395	0.0168314
891.473	0.0169730
891.551	0.0169883
891.629	0.0170801
891.707	0.0171523
891.785	0.0171133
891.863	0.0172890
891.942	0.0172440
892.020	0.0173203
892.098	0.0173756
892.176	0.0173918
892.254	0.0173768
892.332	0.0174084
892.410	0.0172172
892.488	0.0172731
892.567	0.0172749
892.645	0.0173023
892.723	0.0170103
892.801	0.0170499
892.879	0.0171361
892.957	0.0170451
893.035	0.0171600
893.113	0.0170515
893.192	0.0171478
893.270	0.0169946
893.348	0.0170264
893.426	0.0170776
893.504	0.0171458
893.582	0.0170998
893.660	0.0171924
893.738	0.0173474
893.817	0.0171599
893.895	0.0171143
893.973	0.0171938
894.051	0.0171446
894.129	0.0171839
894.207	0.0172863
894.285	0.0172719
894.363	0.0173809
894.442	0.0173936
894.520	0.0174339
894.598	0.0173053
894.676	0.0174899
894.754	0.0173901
894.832	0.0172673
894.910	0.0173236
894.988	0.0174043
895.067	0.0173175
895.145	0.0172584
895.223	0.0173292
895.301	0.0170894
895.379	0.0171978
895.457	0.0172041
895.535	0.0170537
895.613	0.0171652
895.692	0.0172681
895.770	0.0170864
895.848	0.0170947
895.926	0.0171532
896.004	0.0170303
896.082	0.0170072
896.160	0.0170068
896.238	0.0171283
896.317	0.0170152
896.395	0.0170479
896.473	0.0170707
896.551	0.0171014
896.629	0.0170763
896.707	0.0171992
896.785	0.0171284
896.863	0.0171953
896.942	0.0172627
897.020	0.0172958
897.098	0.0173245
897.176	0.0173497
897.254	0.0172413
897.332	0.0171624
897.410	0.0172330
897.488	0.0172901
897.567	0.0172702
897.645	0.0172781
897.723	0.0172626
897.801	0.0171861
897.879	0.0171662
897.957	0.0172021
898.035	0.0171632
898.113	0.0170945
898.192	0.0171257
898.270	0.0172008
898.348	0.0171051
898.426	0.0171776
898.504	0.0171243
898.582	0.0170869
898.660	0.0170982
898.738	0.0170078
898.817	0.0170173
898.895	0.0170403
898.973	0.0171211
899.051	0.0171009
899.129	0.0170998
899.207	0.0170734
899.285	0.0173326
899.363	0.0171902
899.442	0.0173336
899.520	0.0172950
899.598	0.0174210
899.676	0.0175322
899.754	0.0175461
899.832	0.0175704
899.910	0.0174992
899.988	0.0175217
900.067	0.0175417
900.145	0.0174480
900.223	0.0172414
900.301	0.0171146
900.379	0.0172473
900.457	0.0171547
900.535	0.0171244
900.613	0.0170694
900.692	0.0170679
900.770	0.0171021
900.848	0.0170232
900.926	0.0169798
901.004	0.0168174
901.082	0.0168800
901.160	0.0169345
901.238	0.0169538
901.317	0.0170438
901.395	0.0171337
901.473	0.0171125
901.551	0.0171387
901.629	0.0170894
901.707	0.0171394
901.785	0.0172112
901.863	0.0171748
901.942	0.0172475
902.020	0.0172081
902.098	0.0173698
902.176	0.0173064
902.254	0.0173238
902.332	0.0173366
902.410	0.0175964
902.488	0.0174930
902.567	0.0174870
902.645	0.0173743
902.723	0.0175724
902.801	0.0175377
902.879	0.0175180
902.957	0.0174201
903.035	0.0174235
903.113	0.0176328
903.192	0.0175088
903.270	0.0172980
903.348	0.0173027
903.426	0.0171671
903.504	0.0172435
903.582	0.0170921
903.660	0.0171087
903.738	0.0169421
903.817	0.0169653
903.895	0.0170470
903.973	0.0169366
904.051	0.0169139
904.129	0.0168418
904.207	0.0170157
904.285	0.0169075
904.363	0.0168980
904.442	0.0169802
904.520	0.0169386
904.598	0.0170012
904.676	0.0170902
904.754	0.0172101
904.832	0.0171104
904.910	0.0170817
904.988	0.0170443
905.067	0.0171407
905.145	0.0172945
905.223	0.0172543
905.301	0.0172604
905.379	0.0173048
905.457	0.0172456
905.535	0.0172797
905.613	0.0172417
905.692	0.0173445
905.770	0.0174504
905.848	0.0174094
905.926	0.0174463
906.004	0.0174822
906.082	0.0173048
906.160	0.0174120
906.238	0.0173857
906.317	0.0174134
906.395	0.0172885
906.473	0.0172752
906.551	0.0171782
906.629	0.0171725
906.707	0.0170824
906.785	0.0171355
906.863	0.0171575
906.942	0.0170043
907.020	0.0171598
907.098	0.0171301
907.176	0.0171399
907.254	0.0170700
907.332	0.0170989
907.410	0.0171690
907.488	0.0172112
907.567	0.0171011
907.645	0.0172045
907.723	0.0172457
907.801	0.0170261
907.879	0.0171730
907.957	0.0171803
908.035	0.0170748
908.113	0.0171833
908.192	0.0172263
908.270	0.0172730
908.348	0.0170366
908.426	0.0170079
908.504	0.0171850
908.582	0.0172147
908.660	0.0171406
908.738	0.0171452
908.817	0.0171114
908.895	0.0169910
908.973	0.0171621
909.051	0.0172308
909.129	0.0172350
909.207	0.0170833
909.285	0.0171584
909.363	0.0172121
909.442	0.0172009
909.520	0.0173385
909.598	0.0173483
909.676	0.0173995
909.754	0.0172781
909.832	0.0173787
909.910	0.0174249
909.988	0.0174606
910.067	0.0173916
910.145	0.0173335
910.223	0.0174593
910.301	0.0175253
910.379	0.0174009
910.457	0.0174064
910.535	0.0175103
910.613	0.0174203
910.692	0.0173392
910.770	0.0173501
910.848	0.0171845
910.926	0.0173028
911.004	0.0173531
911.082	0.0171757
911.160	0.0170949
911.238	0.0172017
911.317	0.0169435
911.395	0.0169692
911.473	0.0170370
911.551	0.0169816
911.629	0.0171024
911.707	0.0169734
911.785	0.0168694
911.863	0.0170387
911.942	0.0171392
912.020	0.0171165
912.098	0.0171332
912.176	0.0170849
912.254	0.0171155
912.332	0.0171263
912.410	0.0171404
912.488	0.0172391
912.567	0.0171882
912.645	0.0171122
912.723	0.0171122
912.801	0.0170722
912.879	0.0171843
912.957	0.0172300
913.035	0.0171712
913.113	0.0172168
913.192	0.0171460
913.270	0.0171959
913.348	0.0171537
913.426	0.0172832
913.504	0.0171829
913.582	0.0172675
913.660	0.0173426
913.738	0.0173737
913.817	0.0173190
913.895	0.0173852
913.973	0.0174128
914.051	0.0174832
914.129	0.0173711
914.207	0.0174550
914.285	0.0175478
914.363	0.0175254
914.442	0.0174162
914.520	0.0174185
914.598	0.0173689
914.676	0.0173648
914.754	0.0172763
914.832	0.0173666
914.910	0.0172076
914.988	0.0172198
915.067	0.0171397
915.145	0.0170821
915.223	0.0171234
915.301	0.0171047
915.379	0.0171339
915.457	0.0172383
915.535	0.0171040
915.613	0.0170055
915.692	0.0171163
915.770	0.0170364
915.848	0.0170928
915.926	0.0169185
916.004	0.0170793
916.082	0.0170534
916.160	0.0169830
916.238	0.0168530
916.317	0.0171253
916.395	0.0170303
916.473	0.0170792
916.551	0.0170605
916.629	0.0171616
916.707	0.0171413
916.785	0.0171768
916.863	0.0173569
916.942	0.0173304
917.020	0.0172290
917.098	0.0174327
917.176	0.0173851
917.254	0.0172904
917.332	0.0175278
917.410	0.0173232
917.488	0.0172813
917.567	0.0174052
917.645	0.0173535
917.723	0.0173401
917.801	0.0172334
917.879	0.0173862
917.957	0.0173504
918.035	0.0171844
918.113	0.0173258
918.192	0.0173322
918.270	0.0173560
918.348	0.0172421
918.426	0.0173244
918.504	0.0172817
918.582	0.0171298
918.660	0.0173292
918.738	0.0172936
918.817	0.0172204
918.895	0.0173748
918.973	0.0173526
919.051	0.0172268
919.129	0.0174525
919.207	0.0174881
919.285	0.0172604
919.363	0.0173630
919.442	0.0174009
919.520	0.0171945
919.598	0.0172301
919.676	0.0172279
919.754	0.0171107
919.832	0.0171291
919.910	0.0172755
