05/24/2022	20:08:53	Ver.	4.1	UNKNOWN
Optical Delay	599.988409	Delta X		0.078125	Sweeps	1	Scan Rate	0/0
Coordinates	Axis 1	NaN	Axis 2	NaN	Axis 3	NaN	Axis 4	NaN	Axis 5	NaN	Axis 6	0.000000
TX Power	0.000000	RX Power	0.000000

599.988	0.0165511
600.067	0.0164855
600.145	0.0165665
600.223	0.0166247
600.301	0.0166639
600.379	0.0164998
600.457	0.0165274
600.535	0.0164986
600.613	0.0165727
600.692	0.0164648
600.770	0.0165575
600.848	0.0165508
600.926	0.0164735
601.004	0.0166191
601.082	0.0165912
601.160	0.0165547
601.238	0.0165975
601.317	0.0165832
601.395	0.0165995
601.473	0.0164698
601.551	0.0165759
601.629	0.0165914
601.707	0.0165208
601.785	0.0164679
601.863	0.0165660
601.942	0.0165320
602.020	0.0165410
602.098	0.0164545
602.176	0.0165300
602.254	0.0167070
602.332	0.0164696
602.410	0.0165162
602.488	0.0163902
602.567	0.0165844
602.645	0.0166009
602.723	0.0165129
602.801	0.0165391
602.879	0.0165429
602.957	0.0166246
603.035	0.0165707
603.113	0.0164396
603.192	0.0163360
603.270	0.0165414
603.348	0.0165699
603.426	0.0164918
603.504	0.0166054
603.582	0.0166855
603.660	0.0166102
603.738	0.0165723
603.817	0.0164394
603.895	0.0164161
603.973	0.0164793
604.051	0.0166012
604.129	0.0166570
604.207	0.0164433
604.285	0.0164322
604.363	0.0165368
604.442	0.0164838
604.520	0.0165413
604.598	0.0165933
604.676	0.0164583
604.754	0.0164767
604.832	0.0165810
604.910	0.0165986
604.988	0.0164729
605.067	0.0164574
605.145	0.0165725
605.223	0.0165255
605.301	0.0165338
605.379	0.0166256
605.457	0.0166346
605.535	0.0166787
605.613	0.0166852
605.692	0.0164900
605.770	0.0165468
605.848	0.0166693
605.926	0.0165442
606.004	0.0165040
606.082	0.0165176
606.160	0.0165997
606.238	0.0166456
606.317	0.0165681
606.395	0.0164860
606.473	0.0164278
606.551	0.0165522
606.629	0.0164806
606.707	0.0165097
606.785	0.0165942
606.863	0.0165158
606.942	0.0165098
607.020	0.0166216
607.098	0.0165211
607.176	0.0164577
607.254	0.0165597
607.332	0.0166302
607.410	0.0166475
607.488	0.0166451
607.567	0.0166074
607.645	0.0165809
607.723	0.0166604
607.801	0.0166335
607.879	0.0165536
607.957	0.0166476
608.035	0.0164971
608.113	0.0166971
608.192	0.0166512
608.270	0.0165343
608.348	0.0165594
608.426	0.0165485
608.504	0.0163821
608.582	0.0163954
608.660	0.0165222
608.738	0.0164726
608.817	0.0165159
608.895	0.0165961
608.973	0.0164828
609.051	0.0163929
609.129	0.0163480
609.207	0.0164655
609.285	0.0165766
609.363	0.0166541
609.442	0.0165276
609.520	0.0164993
609.598	0.0165179
609.676	0.0164622
609.754	0.0164989
609.832	0.0165163
609.910	0.0166166
609.988	0.0166695
610.067	0.0165784
610.145	0.0167117
610.223	0.0167313
610.301	0.0166621
610.379	0.0167865
610.457	0.0166107
610.535	0.0166580
610.613	0.0167197
610.692	0.0167485
610.770	0.0166684
610.848	0.0165926
610.926	0.0165426
611.004	0.0165208
611.082	0.0165632
611.160	0.0165546
611.238	0.0164829
611.317	0.0164440
611.395	0.0165154
611.473	0.0165655
611.551	0.0163419
611.629	0.0165388
611.707	0.0165891
611.785	0.0166531
611.863	0.0164695
611.942	0.0164635
612.020	0.0164549
612.098	0.0164208
612.176	0.0164480
612.254	0.0165286
612.332	0.0164394
612.410	0.0166590
612.488	0.0165113
612.567	0.0164902
612.645	0.0165368
612.723	0.0164818
612.801	0.0164883
612.879	0.0165076
612.957	0.0165752
613.035	0.0165197
613.113	0.0166993
613.192	0.0166715
613.270	0.0165095
613.348	0.0166971
613.426	0.0166776
613.504	0.0165609
613.582	0.0166116
613.660	0.0166444
613.738	0.0165502
613.817	0.0166447
613.895	0.0166048
613.973	0.0165089
614.051	0.0165472
614.129	0.0166286
614.207	0.0165929
614.285	0.0166158
614.363	0.0165694
614.442	0.0165321
614.520	0.0165134
614.598	0.0165476
614.676	0.0164818
614.754	0.0166319
614.832	0.0165852
614.910	0.0165097
614.988	0.0165666
615.067	0.0165789
615.145	0.0165173
615.223	0.0165240
615.301	0.0165435
615.379	0.0165489
615.457	0.0166087
615.535	0.0165596
615.613	0.0164906
615.692	0.0164590
615.770	0.0165653
615.848	0.0165138
615.926	0.0167018
616.004	0.0165086
616.082	0.0164848
616.160	0.0165366
616.238	0.0164851
616.317	0.0165623
616.395	0.0166158
616.473	0.0165619
616.551	0.0166271
616.629	0.0166031
616.707	0.0165160
616.785	0.0164108
616.863	0.0165186
616.942	0.0163647
617.020	0.0164249
617.098	0.0164654
617.176	0.0163554
617.254	0.0164848
617.332	0.0165549
617.410	0.0165771
617.488	0.0165325
617.567	0.0165572
617.645	0.0165085
617.723	0.0165929
617.801	0.0165376
617.879	0.0166865
617.957	0.0166493
618.035	0.0164578
618.113	0.0166225
618.192	0.0165132
618.270	0.0164664
618.348	0.0166877
618.426	0.0166573
618.504	0.0165205
618.582	0.0166811
618.660	0.0166847
618.738	0.0165958
618.817	0.0165749
618.895	0.0166946
618.973	0.0166988
619.051	0.0166135
619.129	0.0165253
619.207	0.0167505
619.285	0.0165235
619.363	0.0164838
619.442	0.0166390
619.520	0.0167041
619.598	0.0166232
619.676	0.0165492
619.754	0.0165948
619.832	0.0166705
619.910	0.0165796
619.988	0.0164396
620.067	0.0165566
620.145	0.0164878
620.223	0.0166223
620.301	0.0165194
620.379	0.0164380
620.457	0.0165115
620.535	0.0166530
620.613	0.0165829
620.692	0.0166262
620.770	0.0167630
620.848	0.0165829
620.926	0.0165830
621.004	0.0166247
621.082	0.0164569
621.160	0.0166799
621.238	0.0165688
621.317	0.0164127
621.395	0.0166104
621.473	0.0166015
621.551	0.0165524
621.629	0.0164280
621.707	0.0165993
621.785	0.0163901
621.863	0.0164714
621.942	0.0166763
622.020	0.0166035
622.098	0.0164986
622.176	0.0164694
622.254	0.0165006
622.332	0.0166609
622.410	0.0165499
622.488	0.0164686
622.567	0.0166941
622.645	0.0166270
622.723	0.0164340
622.801	0.0166561
622.879	0.0165589
622.957	0.0165120
623.035	0.0165752
623.113	0.0166045
623.192	0.0165666
623.270	0.0164715
623.348	0.0165527
623.426	0.0165588
623.504	0.0166231
623.582	0.0166114
623.660	0.0165141
623.738	0.0165501
623.817	0.0166956
623.895	0.0165114
623.973	0.0165251
624.051	0.0166496
624.129	0.0165223
624.207	0.0165699
624.285	0.0166113
624.363	0.0166279
624.442	0.0166595
624.520	0.0165963
624.598	0.0164262
624.676	0.0165227
624.754	0.0164165
624.832	0.0164684
624.910	0.0165422
624.988	0.0166334
625.067	0.0165638
625.145	0.0164473
625.223	0.0164669
625.301	0.0165031
625.379	0.0165765
625.457	0.0164899
625.535	0.0164153
625.613	0.0163448
625.692	0.0164105
625.770	0.0167102
625.848	0.0166910
625.926	0.0165699
626.004	0.0164926
626.082	0.0165382
626.160	0.0166121
626.238	0.0165401
626.317	0.0165151
626.395	0.0165204
626.473	0.0165658
626.551	0.0165240
626.629	0.0164159
626.707	0.0165643
626.785	0.0165308
626.863	0.0165147
626.942	0.0164848
627.020	0.0164755
627.098	0.0164662
627.176	0.0165544
627.254	0.0165340
627.332	0.0166575
627.410	0.0166013
627.488	0.0165687
627.567	0.0166135
627.645	0.0164988
627.723	0.0165823
627.801	0.0166231
627.879	0.0163976
627.957	0.0165005
628.035	0.0165565
628.113	0.0163830
628.192	0.0166805
628.270	0.0166175
628.348	0.0164463
628.426	0.0165691
628.504	0.0165569
628.582	0.0165616
628.660	0.0165229
628.738	0.0166467
628.817	0.0164539
628.895	0.0165738
628.973	0.0165320
629.051	0.0165229
629.129	0.0165685
629.207	0.0165221
629.285	0.0165166
629.363	0.0166100
629.442	0.0166277
629.520	0.0166364
629.598	0.0165268
629.676	0.0165273
629.754	0.0165801
629.832	0.0164952
629.910	0.0166473
629.988	0.0165224
630.067	0.0164138
630.145	0.0163192
630.223	0.0165314
630.301	0.0166018
630.379	0.0166148
630.457	0.0165563
630.535	0.0165623
630.613	0.0165942
630.692	0.0166367
630.770	0.0164928
630.848	0.0165977
630.926	0.0166498
631.004	0.0165087
631.082	0.0165448
631.160	0.0165444
631.238	0.0166299
631.317	0.0165674
631.395	0.0165073
631.473	0.0165475
631.551	0.0164909
631.629	0.0164993
631.707	0.0164784
631.785	0.0165613
631.863	0.0166051
631.942	0.0166048
632.020	0.0164883
632.098	0.0165189
632.176	0.0164335
632.254	0.0164987
632.332	0.0165538
632.410	0.0164724
632.488	0.0165862
632.567	0.0165309
632.645	0.0166027
632.723	0.0166013
632.801	0.0165938
632.879	0.0166698
632.957	0.0165856
633.035	0.0166032
633.113	0.0165874
633.192	0.0164657
633.270	0.0164845
633.348	0.0165768
633.426	0.0164693
633.504	0.0164575
633.582	0.0164307
633.660	0.0165847
633.738	0.0166460
633.817	0.0165209
633.895	0.0164699
633.973	0.0164874
634.051	0.0165707
634.129	0.0164971
634.207	0.0165562
634.285	0.0165781
634.363	0.0164714
634.442	0.0164857
634.520	0.0165329
634.598	0.0165518
634.676	0.0165479
634.754	0.0164798
634.832	0.0165108
634.910	0.0165548
634.988	0.0165542
635.067	0.0166308
635.145	0.0164104
635.223	0.0165324
635.301	0.0165156
635.379	0.0166949
635.457	0.0165444
635.535	0.0166371
635.613	0.0165875
635.692	0.0165919
635.770	0.0165005
635.848	0.0165186
635.926	0.0164341
636.004	0.0165747
636.082	0.0165752
636.160	0.0166328
636.238	0.0165614
636.317	0.0164822
636.395	0.0165033
636.473	0.0165811
636.551	0.0165548
636.629	0.0165312
636.707	0.0166138
636.785	0.0165350
636.863	0.0165379
636.942	0.0165324
637.020	0.0164886
637.098	0.0165135
637.176	0.0165430
637.254	0.0165085
637.332	0.0166021
637.410	0.0165769
637.488	0.0164571
637.567	0.0164916
637.645	0.0166029
637.723	0.0165642
637.801	0.0165578
637.879	0.0166637
637.957	0.0165516
638.035	0.0164421
638.113	0.0165359
638.192	0.0164664
638.270	0.0166264
638.348	0.0165959
638.426	0.0166226
638.504	0.0166927
638.582	0.0165979
638.660	0.0164821
638.738	0.0165222
638.817	0.0166479
638.895	0.0165578
638.973	0.0164404
639.051	0.0165965
639.129	0.0167504
639.207	0.0166550
639.285	0.0166556
639.363	0.0166512
639.442	0.0165585
639.520	0.0164848
639.598	0.0165584
639.676	0.0165987
639.754	0.0165233
639.832	0.0164871
639.910	0.0165263
639.988	0.0166095
640.067	0.0165578
640.145	0.0165180
640.223	0.0165988
640.301	0.0165944
640.379	0.0164916
640.457	0.0165960
640.535	0.0165748
640.613	0.0165257
640.692	0.0166598
640.770	0.0165640
640.848	0.0166100
640.926	0.0166085
641.004	0.0166507
641.082	0.0164805
641.160	0.0165248
641.238	0.0165741
641.317	0.0165783
641.395	0.0166453
641.473	0.0165013
641.551	0.0165964
641.629	0.0165601
641.707	0.0165034
641.785	0.0164853
641.863	0.0165125
641.942	0.0165479
642.020	0.0166032
642.098	0.0166060
642.176	0.0166057
642.254	0.0166332
642.332	0.0165636
642.410	0.0166273
642.488	0.0165958
642.567	0.0165165
642.645	0.0165652
642.723	0.0166376
642.801	0.0165796
642.879	0.0166590
642.957	0.0165468
643.035	0.0164382
643.113	0.0165269
643.192	0.0165421
643.270	0.0166582
643.348	0.0165630
643.426	0.0165368
643.504	0.0165501
643.582	0.0164895
643.660	0.0165041
643.738	0.0165936
643.817	0.0165234
643.895	0.0165133
643.973	0.0165708
644.051	0.0165903
644.129	0.0166183
644.207	0.0166875
644.285	0.0165714
644.363	0.0166848
644.442	0.0166230
644.520	0.0165263
644.598	0.0165633
644.676	0.0165051
644.754	0.0166460
644.832	0.0166526
644.910	0.0165903
644.988	0.0166926
645.067	0.0164549
645.145	0.0164968
645.223	0.0165805
645.301	0.0166235
645.379	0.0165283
645.457	0.0166807
645.535	0.0165105
645.613	0.0164842
645.692	0.0165726
645.770	0.0165539
645.848	0.0165232
645.926	0.0166451
646.004	0.0166359
646.082	0.0166871
646.160	0.0165756
646.238	0.0165031
646.317	0.0165642
646.395	0.0165705
646.473	0.0165324
646.551	0.0164734
646.629	0.0166051
646.707	0.0165740
646.785	0.0166675
646.863	0.0165802
646.942	0.0165177
647.020	0.0164835
647.098	0.0165356
647.176	0.0164419
647.254	0.0165381
647.332	0.0166139
647.410	0.0166278
647.488	0.0164795
647.567	0.0166328
647.645	0.0165988
647.723	0.0166389
647.801	0.0165401
647.879	0.0165604
647.957	0.0165743
648.035	0.0165589
648.113	0.0165508
648.192	0.0165438
648.270	0.0165846
648.348	0.0165188
648.426	0.0165494
648.504	0.0166179
648.582	0.0165788
648.660	0.0165829
648.738	0.0166382
648.817	0.0164584
648.895	0.0165688
648.973	0.0165494
649.051	0.0165440
649.129	0.0165712
649.207	0.0167052
649.285	0.0165192
649.363	0.0164355
649.442	0.0166167
649.520	0.0164671
649.598	0.0166663
649.676	0.0165764
649.754	0.0165060
649.832	0.0164465
649.910	0.0165611
649.988	0.0165479
650.067	0.0166632
650.145	0.0165446
650.223	0.0165122
650.301	0.0165546
650.379	0.0166203
650.457	0.0165295
650.535	0.0165015
650.613	0.0168076
650.692	0.0165108
650.770	0.0165456
650.848	0.0166025
650.926	0.0165018
651.004	0.0164259
651.082	0.0165425
651.160	0.0164935
651.238	0.0165434
651.317	0.0165103
651.395	0.0165608
651.473	0.0165523
651.551	0.0165286
651.629	0.0163643
651.707	0.0167087
651.785	0.0165905
651.863	0.0164963
651.942	0.0165930
652.020	0.0165484
652.098	0.0165632
652.176	0.0164835
652.254	0.0166035
652.332	0.0165466
652.410	0.0165580
652.488	0.0165247
652.567	0.0166367
652.645	0.0164240
652.723	0.0164005
652.801	0.0165044
652.879	0.0166664
652.957	0.0165260
653.035	0.0165633
653.113	0.0167238
653.192	0.0164529
653.270	0.0164237
653.348	0.0166132
653.426	0.0165990
653.504	0.0166369
653.582	0.0165813
653.660	0.0166978
653.738	0.0167124
653.817	0.0166360
653.895	0.0165215
653.973	0.0165356
654.051	0.0165594
654.129	0.0166579
654.207	0.0166926
654.285	0.0166352
654.363	0.0165381
654.442	0.0165904
654.520	0.0165911
654.598	0.0165975
654.676	0.0165710
654.754	0.0167168
654.832	0.0166194
654.910	0.0164898
654.988	0.0167462
655.067	0.0167094
655.145	0.0165337
655.223	0.0165762
655.301	0.0165865
655.379	0.0166973
655.457	0.0166121
655.535	0.0165590
655.613	0.0166423
655.692	0.0166625
655.770	0.0166988
655.848	0.0165517
655.926	0.0166692
656.004	0.0164904
656.082	0.0165135
656.160	0.0165707
656.238	0.0162781
656.317	0.0164161
656.395	0.0164317
656.473	0.0166991
656.551	0.0166058
656.629	0.0165035
656.707	0.0165343
656.785	0.0165240
656.863	0.0165538
656.942	0.0165569
657.020	0.0165656
657.098	0.0165494
657.176	0.0165778
657.254	0.0166062
657.332	0.0165009
657.410	0.0165247
657.488	0.0164776
657.567	0.0166360
657.645	0.0165568
657.723	0.0166386
657.801	0.0167089
657.879	0.0164837
657.957	0.0165293
658.035	0.0166425
658.113	0.0164787
658.192	0.0165919
658.270	0.0165454
658.348	0.0166912
658.426	0.0165800
658.504	0.0165286
658.582	0.0166032
658.660	0.0164642
658.738	0.0164986
658.817	0.0165305
658.895	0.0164574
658.973	0.0165186
659.051	0.0165411
659.129	0.0165950
659.207	0.0164539
659.285	0.0166035
659.363	0.0165073
659.442	0.0165875
659.520	0.0165285
659.598	0.0166117
659.676	0.0166005
659.754	0.0165839
659.832	0.0165666
659.910	0.0165885
659.988	0.0166908
660.067	0.0167181
660.145	0.0165556
660.223	0.0165928
660.301	0.0165318
660.379	0.0165026
660.457	0.0165668
660.535	0.0165292
660.613	0.0166434
660.692	0.0165731
660.770	0.0164495
660.848	0.0165599
660.926	0.0165345
661.004	0.0164322
661.082	0.0165295
661.160	0.0166196
661.238	0.0166225
661.317	0.0164792
661.395	0.0165554
661.473	0.0164703
661.551	0.0164598
661.629	0.0164886
661.707	0.0165412
661.785	0.0164228
661.863	0.0166069
661.942	0.0164802
662.020	0.0164569
662.098	0.0166711
662.176	0.0165295
662.254	0.0164857
662.332	0.0164839
662.410	0.0164515
662.488	0.0166470
662.567	0.0165379
662.645	0.0166347
662.723	0.0166051
662.801	0.0164383
662.879	0.0166021
662.957	0.0166194
663.035	0.0165154
663.113	0.0163857
663.192	0.0165445
663.270	0.0165570
663.348	0.0165094
663.426	0.0166089
663.504	0.0166996
663.582	0.0165768
663.660	0.0164983
663.738	0.0165777
663.817	0.0166690
663.895	0.0166970
663.973	0.0166573
664.051	0.0164967
664.129	0.0167129
664.207	0.0166445
664.285	0.0166885
664.363	0.0165965
664.442	0.0165456
664.520	0.0166739
664.598	0.0166493
664.676	0.0166146
664.754	0.0166011
664.832	0.0166502
664.910	0.0166670
664.988	0.0165926
665.067	0.0166887
665.145	0.0167025
665.223	0.0165854
665.301	0.0165746
665.379	0.0166656
665.457	0.0166070
665.535	0.0166699
665.613	0.0166215
665.692	0.0165283
665.770	0.0166499
665.848	0.0167477
665.926	0.0165836
666.004	0.0166055
666.082	0.0167433
666.160	0.0167159
666.238	0.0166241
666.317	0.0166265
666.395	0.0167446
666.473	0.0165797
666.551	0.0166754
666.629	0.0165952
666.707	0.0167787
666.785	0.0167228
666.863	0.0164633
666.942	0.0166118
667.020	0.0166934
667.098	0.0167033
667.176	0.0165321
667.254	0.0166442
667.332	0.0166420
667.410	0.0166680
667.488	0.0167131
667.567	0.0166789
667.645	0.0166652
667.723	0.0165668
667.801	0.0165353
667.879	0.0165591
667.957	0.0165450
668.035	0.0166431
668.113	0.0166749
668.192	0.0165285
668.270	0.0165981
668.348	0.0166541
668.426	0.0166235
668.504	0.0166519
668.582	0.0167561
668.660	0.0164935
668.738	0.0165729
668.817	0.0167499
668.895	0.0165955
668.973	0.0167484
669.051	0.0165749
669.129	0.0165482
669.207	0.0166655
669.285	0.0165707
669.363	0.0167020
669.442	0.0165091
669.520	0.0165931
669.598	0.0165424
669.676	0.0166174
669.754	0.0166400
669.832	0.0166121
669.910	0.0164140
669.988	0.0165412
670.067	0.0165702
670.145	0.0164873
670.223	0.0165517
670.301	0.0165360
670.379	0.0166077
670.457	0.0165823
670.535	0.0165224
670.613	0.0167348
670.692	0.0164897
670.770	0.0165806
670.848	0.0166351
670.926	0.0165227
671.004	0.0164804
671.082	0.0165047
671.160	0.0164917
671.238	0.0164756
671.317	0.0163924
671.395	0.0165440
671.473	0.0166400
671.551	0.0165851
671.629	0.0164629
671.707	0.0164429
671.785	0.0164131
671.863	0.0164879
671.942	0.0164296
672.020	0.0165407
672.098	0.0164502
672.176	0.0164080
672.254	0.0165331
672.332	0.0164679
672.410	0.0165965
672.488	0.0166094
672.567	0.0164240
672.645	0.0166019
672.723	0.0165915
672.801	0.0164042
672.879	0.0165388
672.957	0.0166177
673.035	0.0166039
673.113	0.0165043
673.192	0.0164198
673.270	0.0164839
673.348	0.0164278
673.426	0.0166921
673.504	0.0165946
673.582	0.0165244
673.660	0.0164191
673.738	0.0164538
673.817	0.0166071
673.895	0.0164984
673.973	0.0164419
674.051	0.0164361
674.129	0.0163967
674.207	0.0163401
674.285	0.0165021
674.363	0.0165603
674.442	0.0164733
674.520	0.0165044
674.598	0.0165210
674.676	0.0164963
674.754	0.0164200
674.832	0.0164804
674.910	0.0165543
674.988	0.0165311
675.067	0.0165953
675.145	0.0165915
675.223	0.0164642
675.301	0.0165964
675.379	0.0166122
675.457	0.0164529
675.535	0.0165109
675.613	0.0165392
675.692	0.0165897
675.770	0.0164539
675.848	0.0166599
675.926	0.0165427
676.004	0.0165589
676.082	0.0165706
676.160	0.0165350
676.238	0.0165018
676.317	0.0165577
676.395	0.0165475
676.473	0.0165987
676.551	0.0164738
676.629	0.0164696
676.707	0.0165855
676.785	0.0164872
676.863	0.0165173
676.942	0.0165140
677.020	0.0164077
677.098	0.0165102
677.176	0.0164168
677.254	0.0166537
677.332	0.0165430
677.410	0.0165963
677.488	0.0165630
677.567	0.0166852
677.645	0.0166273
677.723	0.0165287
677.801	0.0164376
677.879	0.0166573
677.957	0.0166328
678.035	0.0166506
678.113	0.0164838
678.192	0.0165044
678.270	0.0166966
678.348	0.0165668
678.426	0.0163902
678.504	0.0165134
678.582	0.0165932
678.660	0.0165992
678.738	0.0165795
678.817	0.0165041
678.895	0.0165694
678.973	0.0165851
679.051	0.0164618
679.129	0.0165408
679.207	0.0164877
679.285	0.0163838
679.363	0.0165116
679.442	0.0165089
679.520	0.0166024
679.598	0.0164639
679.676	0.0164788
679.754	0.0164034
679.832	0.0166017
679.910	0.0164709
679.988	0.0164365
680.067	0.0165209
680.145	0.0164619
680.223	0.0165779
680.301	0.0164899
680.379	0.0163304
680.457	0.0165649
680.535	0.0166475
680.613	0.0165314
680.692	0.0166055
680.770	0.0166591
680.848	0.0164971
680.926	0.0166846
681.004	0.0167366
681.082	0.0165830
681.160	0.0166882
681.238	0.0166472
681.317	0.0167500
681.395	0.0166805
681.473	0.0165855
681.551	0.0166560
681.629	0.0166628
681.707	0.0165460
681.785	0.0166042
681.863	0.0165370
681.942	0.0165543
682.020	0.0165089
682.098	0.0166441
682.176	0.0167547
682.254	0.0168940
682.332	0.0169281
682.410	0.0169657
682.488	0.0170258
682.567	0.0173316
682.645	0.0172924
682.723	0.0173699
682.801	0.0173205
682.879	0.0173643
682.957	0.0170176
683.035	0.0167608
683.113	0.0166323
683.192	0.0159671
683.270	0.0157200
683.348	0.0152973
683.426	0.0146975
683.504	0.0142720
683.582	0.0139341
683.660	0.0137832
683.738	0.0137815
683.817	0.0140133
683.895	0.0144373
683.973	0.0149044
684.051	0.0157321
684.129	0.0167445
684.207	0.0177124
684.285	0.0185831
684.363	0.0195682
684.442	0.0203664
684.520	0.0208990
684.598	0.0210143
684.676	0.0211012
684.754	0.0208654
684.832	0.0204127
684.910	0.0195769
684.988	0.0185918
685.067	0.0177406
685.145	0.0168382
685.223	0.0158385
685.301	0.0151224
685.379	0.0141889
685.457	0.0133649
685.535	0.0128068
685.613	0.0119389
685.692	0.0115383
685.770	0.0110547
685.848	0.0108991
685.926	0.0106749
686.004	0.0110256
686.082	0.0113203
686.160	0.0120385
686.238	0.0132049
686.317	0.0145554
686.395	0.0162968
686.473	0.0182787
686.551	0.0204797
686.629	0.0224518
686.707	0.0245824
686.785	0.0264763
686.863	0.0279287
686.942	0.0288697
687.020	0.0293921
687.098	0.0290952
687.176	0.0282953
687.254	0.0269233
687.332	0.0246468
687.410	0.0219939
687.488	0.0191925
687.567	0.0161298
687.645	0.0130775
687.723	0.0102876
687.801	0.00773064
687.879	0.00558525
687.957	0.00366791
688.035	0.00229065
688.113	0.00137108
688.192	0.000938110
688.270	0.000768356
688.348	0.000835342
688.426	0.00167236
688.504	0.00279175
688.582	0.00413460
688.660	0.00586456
688.738	0.00815491
688.817	0.0104616
688.895	0.0132059
688.973	0.0162628
689.051	0.0194653
689.129	0.0227923
689.207	0.0262663
689.285	0.0294797
689.363	0.0324100
689.442	0.0349312
689.520	0.0369193
689.598	0.0382278
689.676	0.0387296
689.754	0.0384003
689.832	0.0371291
689.910	0.0352522
689.988	0.0323838
690.067	0.0293434
690.145	0.0256017
690.223	0.0220611
690.301	0.0182535
690.379	0.0144680
690.457	0.0111372
690.535	0.00811722
690.613	0.00556641
690.692	0.00327553
690.770	0.00196365
690.848	0.000875626
690.926	0.000268173
691.004	0.000110474
691.082	0.000195847
691.160	0.000617065
691.238	0.00122116
691.317	0.00233147
691.395	0.00345650
691.473	0.00470757
691.551	0.00639061
691.629	0.00824898
691.707	0.0101180
691.785	0.0122414
691.863	0.0146371
691.942	0.0170288
692.020	0.0194037
692.098	0.0217172
692.176	0.0239123
692.254	0.0259222
692.332	0.0275154
692.410	0.0287500
692.488	0.0296537
692.567	0.0299284
692.645	0.0298099
692.723	0.0292684
692.801	0.0281568
692.879	0.0269833
692.957	0.0253841
693.035	0.0236204
693.113	0.0218131
693.192	0.0200936
693.270	0.0183273
693.348	0.0168903
693.426	0.0157026
693.504	0.0146764
693.582	0.0139060
693.660	0.0133445
693.738	0.0132110
693.817	0.0129887
693.895	0.0127004
693.973	0.0127840
694.051	0.0128375
694.129	0.0128910
694.207	0.0129477
694.285	0.0128767
694.363	0.0128603
694.442	0.0129337
694.520	0.0128895
694.598	0.0130502
694.676	0.0131674
694.754	0.0134502
694.832	0.0139894
694.910	0.0143498
694.988	0.0148619
695.067	0.0154765
695.145	0.0160194
695.223	0.0166587
695.301	0.0171155
695.379	0.0176707
695.457	0.0180364
695.535	0.0182942
695.613	0.0184581
695.692	0.0184742
695.770	0.0184312
695.848	0.0183133
695.926	0.0179612
696.004	0.0178190
696.082	0.0174069
696.160	0.0169838
696.238	0.0166013
696.317	0.0160869
696.395	0.0158476
696.473	0.0155758
696.551	0.0151549
696.629	0.0153050
696.707	0.0152600
696.785	0.0152178
696.863	0.0153523
696.942	0.0154561
697.020	0.0157434
697.098	0.0159433
697.176	0.0160905
697.254	0.0163618
697.332	0.0167321
697.410	0.0168554
697.488	0.0172868
697.567	0.0178154
697.645	0.0181828
697.723	0.0186790
697.801	0.0189120
697.879	0.0193089
697.957	0.0197095
698.035	0.0199781
698.113	0.0200519
698.192	0.0200516
698.270	0.0199865
698.348	0.0197491
698.426	0.0193253
698.504	0.0187564
698.582	0.0181040
698.660	0.0174120
698.738	0.0167171
698.817	0.0157259
698.895	0.0150294
698.973	0.0141849
699.051	0.0136226
699.129	0.0128403
699.207	0.0124577
699.285	0.0123351
699.363	0.0125867
699.442	0.0127057
699.520	0.0130218
699.598	0.0134456
699.676	0.0142097
699.754	0.0147278
699.832	0.0157240
699.910	0.0163785
699.988	0.0170847
700.067	0.0178419
700.145	0.0182711
700.223	0.0185937
700.301	0.0188095
700.379	0.0187997
700.457	0.0187781
700.535	0.0183661
700.613	0.0180659
700.692	0.0175294
700.770	0.0169081
700.848	0.0164355
700.926	0.0159229
701.004	0.0154859
701.082	0.0150648
701.160	0.0147934
701.238	0.0146590
701.317	0.0145899
701.395	0.0145985
701.473	0.0150636
701.551	0.0154889
701.629	0.0158948
701.707	0.0165022
701.785	0.0169780
701.863	0.0176940
701.942	0.0180688
702.020	0.0184521
702.098	0.0188207
702.176	0.0190367
702.254	0.0189745
702.332	0.0188157
702.410	0.0187498
702.488	0.0186068
702.567	0.0182015
702.645	0.0179389
702.723	0.0176218
702.801	0.0173325
702.879	0.0171446
702.957	0.0169650
703.035	0.0168266
703.113	0.0169195
703.192	0.0166770
703.270	0.0166064
703.348	0.0166196
703.426	0.0164212
703.504	0.0165408
703.582	0.0163290
703.660	0.0161683
703.738	0.0160561
703.817	0.0157332
703.895	0.0155785
703.973	0.0153207
704.051	0.0152554
704.129	0.0151169
704.207	0.0149395
704.285	0.0149641
704.363	0.0150341
704.442	0.0153983
704.520	0.0154846
704.598	0.0157506
704.676	0.0158697
704.754	0.0163033
704.832	0.0165761
704.910	0.0165937
704.988	0.0166718
705.067	0.0167627
705.145	0.0166849
705.223	0.0167183
705.301	0.0167596
705.379	0.0167849
705.457	0.0166263
705.535	0.0165287
705.613	0.0165342
705.692	0.0164522
705.770	0.0164183
705.848	0.0163622
705.926	0.0164478
706.004	0.0163857
706.082	0.0164947
706.160	0.0163908
706.238	0.0163981
706.317	0.0164349
706.395	0.0164337
706.473	0.0164847
706.551	0.0165265
706.629	0.0165751
706.707	0.0165057
706.785	0.0165679
706.863	0.0167850
706.942	0.0166490
707.020	0.0170389
707.098	0.0173116
707.176	0.0172916
707.254	0.0174120
707.332	0.0178305
707.410	0.0179866
707.488	0.0181953
707.567	0.0184985
707.645	0.0183881
707.723	0.0182444
707.801	0.0181682
707.879	0.0180952
707.957	0.0178247
708.035	0.0177330
708.113	0.0173071
708.192	0.0169305
708.270	0.0166728
708.348	0.0163574
708.426	0.0160406
708.504	0.0158676
708.582	0.0156882
708.660	0.0154459
708.738	0.0152389
708.817	0.0152739
708.895	0.0151623
708.973	0.0149997
709.051	0.0150734
709.129	0.0151036
709.207	0.0151492
709.285	0.0152051
709.363	0.0153680
709.442	0.0155029
709.520	0.0156571
709.598	0.0158465
709.676	0.0161309
709.754	0.0163770
709.832	0.0166101
709.910	0.0166795
709.988	0.0167941
710.067	0.0170162
710.145	0.0172105
710.223	0.0172240
710.301	0.0170370
710.379	0.0170493
710.457	0.0169285
710.535	0.0167775
710.613	0.0166721
710.692	0.0163766
710.770	0.0160640
710.848	0.0160381
710.926	0.0158118
711.004	0.0156662
711.082	0.0156176
711.160	0.0156378
711.238	0.0157023
711.317	0.0158735
711.395	0.0158752
711.473	0.0161131
711.551	0.0162510
711.629	0.0165174
711.707	0.0166317
711.785	0.0168331
711.863	0.0169607
711.942	0.0171397
712.020	0.0173312
712.098	0.0174289
712.176	0.0175100
712.254	0.0176241
712.332	0.0175797
712.410	0.0174966
712.488	0.0175928
712.567	0.0175642
712.645	0.0173615
712.723	0.0174357
712.801	0.0174706
712.879	0.0173914
712.957	0.0173025
713.035	0.0171384
713.113	0.0171967
713.192	0.0169362
713.270	0.0168137
713.348	0.0164995
713.426	0.0163263
713.504	0.0162625
713.582	0.0160555
713.660	0.0159368
713.738	0.0158874
713.817	0.0157007
713.895	0.0158408
713.973	0.0158157
714.051	0.0158602
714.129	0.0159562
714.207	0.0159060
714.285	0.0161852
714.363	0.0163337
714.442	0.0166050
714.520	0.0164954
714.598	0.0166348
714.676	0.0168697
714.754	0.0168275
714.832	0.0169564
714.910	0.0170611
714.988	0.0169254
715.067	0.0168874
715.145	0.0169285
715.223	0.0166737
715.301	0.0164100
715.379	0.0162216
715.457	0.0160692
715.535	0.0158648
715.613	0.0155643
715.692	0.0155931
715.770	0.0154875
715.848	0.0153767
715.926	0.0152423
716.004	0.0153382
716.082	0.0155181
716.160	0.0155509
716.238	0.0154571
716.317	0.0158480
716.395	0.0160985
716.473	0.0161530
716.551	0.0162882
716.629	0.0165444
716.707	0.0167337
716.785	0.0169850
716.863	0.0171814
716.942	0.0170863
717.020	0.0173697
717.098	0.0174152
717.176	0.0174444
717.254	0.0174274
717.332	0.0173297
717.410	0.0174847
717.488	0.0175905
717.567	0.0176131
717.645	0.0175269
717.723	0.0174948
717.801	0.0175879
717.879	0.0176431
717.957	0.0173912
718.035	0.0173907
718.113	0.0174524
718.192	0.0173283
718.270	0.0172542
718.348	0.0171680
718.426	0.0168613
718.504	0.0166646
718.582	0.0165491
718.660	0.0164551
718.738	0.0163411
718.817	0.0162416
718.895	0.0161372
718.973	0.0161024
719.051	0.0160978
719.129	0.0160617
719.207	0.0161343
719.285	0.0161131
719.363	0.0162017
719.442	0.0162177
719.520	0.0162659
719.598	0.0165271
719.676	0.0165711
719.754	0.0165108
719.832	0.0167536
719.910	0.0167225
719.988	0.0165638
720.067	0.0167384
720.145	0.0164929
720.223	0.0164383
720.301	0.0164173
720.379	0.0164207
720.457	0.0161165
720.535	0.0161272
720.613	0.0161229
720.692	0.0160848
720.770	0.0161456
720.848	0.0160683
720.926	0.0159417
721.004	0.0159290
721.082	0.0159669
721.160	0.0158548
721.238	0.0159095
721.317	0.0159335
721.395	0.0159391
721.473	0.0158273
721.551	0.0160036
721.629	0.0160104
721.707	0.0160377
721.785	0.0163752
721.863	0.0165286
721.942	0.0164925
722.020	0.0168378
722.098	0.0169497
722.176	0.0171029
722.254	0.0174267
722.332	0.0175193
722.410	0.0176357
722.488	0.0177524
722.567	0.0176591
722.645	0.0176827
722.723	0.0177480
722.801	0.0176266
722.879	0.0174686
722.957	0.0174213
723.035	0.0172249
723.113	0.0170867
723.192	0.0170243
723.270	0.0167679
723.348	0.0166847
723.426	0.0166178
723.504	0.0165040
723.582	0.0165762
723.660	0.0164462
723.738	0.0165327
723.817	0.0164321
723.895	0.0164551
723.973	0.0166305
724.051	0.0165709
724.129	0.0165209
724.207	0.0166209
724.285	0.0167249
724.363	0.0166562
724.442	0.0167038
724.520	0.0166493
724.598	0.0166291
724.676	0.0168625
724.754	0.0167240
724.832	0.0167161
724.910	0.0166839
724.988	0.0166965
725.067	0.0165797
725.145	0.0165057
725.223	0.0164098
725.301	0.0163977
725.379	0.0161154
725.457	0.0162151
725.535	0.0161143
725.613	0.0159227
725.692	0.0159618
725.770	0.0158035
725.848	0.0159606
725.926	0.0160608
726.004	0.0159957
726.082	0.0162055
726.160	0.0162533
726.238	0.0163327
726.317	0.0163913
726.395	0.0162823
726.473	0.0163239
726.551	0.0163216
726.629	0.0164880
726.707	0.0164976
726.785	0.0165096
726.863	0.0163898
726.942	0.0164566
727.020	0.0162805
727.098	0.0164006
727.176	0.0164632
727.254	0.0164241
727.332	0.0165955
727.410	0.0165740
727.488	0.0167411
727.567	0.0167127
727.645	0.0166763
727.723	0.0167214
727.801	0.0167964
727.879	0.0168805
727.957	0.0169925
728.035	0.0169832
728.113	0.0169491
728.192	0.0170770
728.270	0.0171509
728.348	0.0172339
728.426	0.0171804
728.504	0.0172257
728.582	0.0172366
728.660	0.0171597
728.738	0.0172531
728.817	0.0171941
728.895	0.0171896
728.973	0.0171259
729.051	0.0170079
729.129	0.0169728
729.207	0.0168195
729.285	0.0166338
729.363	0.0164821
729.442	0.0166062
729.520	0.0164217
729.598	0.0164171
729.676	0.0164081
729.754	0.0162999
729.832	0.0162046
729.910	0.0161636
729.988	0.0162125
730.067	0.0162176
730.145	0.0162018
730.223	0.0161311
730.301	0.0162021
730.379	0.0162420
730.457	0.0162054
730.535	0.0162627
730.613	0.0163248
730.692	0.0163329
730.770	0.0165102
730.848	0.0163383
730.926	0.0164021
731.004	0.0165955
731.082	0.0166872
731.160	0.0166453
731.238	0.0166917
731.317	0.0167129
731.395	0.0167027
731.473	0.0165571
731.551	0.0165485
731.629	0.0166029
731.707	0.0164603
731.785	0.0164144
731.863	0.0163165
731.942	0.0163750
732.020	0.0162468
732.098	0.0161358
732.176	0.0158984
732.254	0.0158372
732.332	0.0160389
732.410	0.0161340
732.488	0.0160760
732.567	0.0160320
732.645	0.0163390
732.723	0.0163181
732.801	0.0163861
732.879	0.0165013
732.957	0.0166138
733.035	0.0167127
733.113	0.0169547
733.192	0.0169189
733.270	0.0169782
733.348	0.0171201
733.426	0.0172381
733.504	0.0172900
733.582	0.0171835
733.660	0.0172105
733.738	0.0174383
733.817	0.0174391
733.895	0.0175401
733.973	0.0174116
734.051	0.0173072
734.129	0.0172851
734.207	0.0172447
734.285	0.0171719
734.363	0.0170444
734.442	0.0170975
734.520	0.0169810
734.598	0.0168206
734.676	0.0168534
734.754	0.0166988
734.832	0.0165145
734.910	0.0164754
734.988	0.0164275
735.067	0.0163250
735.145	0.0161389
735.223	0.0162208
735.301	0.0162823
735.379	0.0162028
735.457	0.0162136
735.535	0.0159225
735.613	0.0160630
735.692	0.0160197
735.770	0.0159084
735.848	0.0158507
735.926	0.0159219
736.004	0.0159007
736.082	0.0158412
736.160	0.0159459
736.238	0.0158284
736.317	0.0159893
736.395	0.0160609
736.473	0.0160746
736.551	0.0159955
736.629	0.0161897
736.707	0.0163231
736.785	0.0164027
736.863	0.0164795
736.942	0.0165038
737.020	0.0166508
737.098	0.0167074
737.176	0.0166981
737.254	0.0166745
737.332	0.0166527
737.410	0.0168009
737.488	0.0166201
737.567	0.0166520
737.645	0.0166762
737.723	0.0167373
737.801	0.0169441
737.879	0.0166568
737.957	0.0167717
738.035	0.0166730
738.113	0.0166871
738.192	0.0167861
738.270	0.0167095
738.348	0.0167371
738.426	0.0166418
738.504	0.0167716
738.582	0.0165931
738.660	0.0165608
738.738	0.0167014
738.817	0.0166264
738.895	0.0166354
738.973	0.0166479
739.051	0.0166003
739.129	0.0165401
739.207	0.0166111
739.285	0.0166270
739.363	0.0167323
739.442	0.0169165
739.520	0.0168102
739.598	0.0168546
739.676	0.0169761
739.754	0.0169846
739.832	0.0170410
739.910	0.0171155
739.988	0.0170893
740.067	0.0169640
740.145	0.0168410
740.223	0.0168513
740.301	0.0168821
740.379	0.0166373
740.457	0.0165279
740.535	0.0163947
740.613	0.0164056
740.692	0.0162392
740.770	0.0161106
740.848	0.0159492
740.926	0.0158808
741.004	0.0159760
741.082	0.0159030
741.160	0.0160435
741.238	0.0161431
741.317	0.0161147
741.395	0.0161504
741.473	0.0162717
741.551	0.0161893
741.629	0.0163398
741.707	0.0164384
741.785	0.0165124
741.863	0.0164185
741.942	0.0165074
742.020	0.0165726
742.098	0.0164890
742.176	0.0164053
742.254	0.0164133
742.332	0.0165742
742.410	0.0165961
742.488	0.0164470
742.567	0.0166161
742.645	0.0165160
742.723	0.0165223
742.801	0.0165031
742.879	0.0165197
742.957	0.0165658
743.035	0.0165582
743.113	0.0166111
743.192	0.0166948
743.270	0.0167219
743.348	0.0168695
743.426	0.0167278
743.504	0.0167183
743.582	0.0166834
743.660	0.0169936
743.738	0.0167825
743.817	0.0166644
743.895	0.0167587
743.973	0.0168646
744.051	0.0168881
744.129	0.0168995
744.207	0.0169691
744.285	0.0169634
744.363	0.0170514
744.442	0.0171032
744.520	0.0172069
744.598	0.0170502
744.676	0.0172558
744.754	0.0170566
744.832	0.0172007
744.910	0.0170963
744.988	0.0169290
745.067	0.0169046
745.145	0.0168723
745.223	0.0167567
745.301	0.0167313
745.379	0.0166074
745.457	0.0166058
745.535	0.0164912
745.613	0.0164375
745.692	0.0163845
745.770	0.0162781
745.848	0.0163161
745.926	0.0163198
746.004	0.0164147
746.082	0.0164046
746.160	0.0164308
746.238	0.0164397
746.317	0.0164715
746.395	0.0164001
746.473	0.0163865
746.551	0.0164645
746.629	0.0163519
746.707	0.0163195
746.785	0.0163819
746.863	0.0164925
746.942	0.0162514
747.020	0.0164001
747.098	0.0163708
747.176	0.0164458
747.254	0.0165232
747.332	0.0166286
747.410	0.0165959
747.488	0.0167081
747.567	0.0167268
747.645	0.0168221
747.723	0.0167477
747.801	0.0166203
747.879	0.0164980
747.957	0.0163678
748.035	0.0165048
748.113	0.0164406
748.192	0.0162476
748.270	0.0162805
748.348	0.0161845
748.426	0.0161556
748.504	0.0162595
748.582	0.0161888
748.660	0.0161983
748.738	0.0161292
748.817	0.0162332
748.895	0.0162892
748.973	0.0164320
749.051	0.0163926
749.129	0.0165889
749.207	0.0166057
749.285	0.0164636
749.363	0.0167831
749.442	0.0168664
749.520	0.0169346
749.598	0.0168579
749.676	0.0171156
749.754	0.0171535
749.832	0.0171732
749.910	0.0171101
749.988	0.0171785
750.067	0.0172190
750.145	0.0170313
750.223	0.0171162
750.301	0.0169491
750.379	0.0169294
750.457	0.0168240
750.535	0.0168661
750.613	0.0167799
750.692	0.0166906
750.770	0.0165978
750.848	0.0165108
750.926	0.0165509
751.004	0.0163582
751.082	0.0163927
751.160	0.0163636
751.238	0.0162315
751.317	0.0162350
751.395	0.0162291
751.473	0.0162296
751.551	0.0162572
751.629	0.0163152
751.707	0.0162472
751.785	0.0161369
751.863	0.0163104
751.942	0.0163344
752.020	0.0163770
752.098	0.0165491
752.176	0.0163998
752.254	0.0166994
752.332	0.0166798
752.410	0.0167238
752.488	0.0167899
752.567	0.0168211
752.645	0.0170055
752.723	0.0168472
752.801	0.0167747
752.879	0.0168471
752.957	0.0168278
753.035	0.0168950
753.113	0.0167821
753.192	0.0166131
753.270	0.0166654
753.348	0.0167699
753.426	0.0167575
753.504	0.0165527
753.582	0.0165440
753.660	0.0166589
753.738	0.0166310
753.817	0.0165884
753.895	0.0164952
753.973	0.0163564
754.051	0.0166181
754.129	0.0165196
754.207	0.0163885
754.285	0.0166261
754.363	0.0165642
754.442	0.0165107
754.520	0.0164789
754.598	0.0165226
754.676	0.0165358
754.754	0.0164239
754.832	0.0164166
754.910	0.0165069
754.988	0.0166337
755.067	0.0166637
755.145	0.0167999
755.223	0.0166998
755.301	0.0166883
755.379	0.0168308
755.457	0.0167875
755.535	0.0168909
755.613	0.0166910
755.692	0.0165971
755.770	0.0166341
755.848	0.0166529
755.926	0.0164723
756.004	0.0163964
756.082	0.0162643
756.160	0.0161063
756.238	0.0159978
756.317	0.0161187
756.395	0.0160094
756.473	0.0160917
756.551	0.0161101
756.629	0.0159985
756.707	0.0162486
756.785	0.0163113
756.863	0.0164014
756.942	0.0164532
757.020	0.0165939
757.098	0.0166311
757.176	0.0167065
757.254	0.0168385
757.332	0.0169006
757.410	0.0170101
757.488	0.0171021
757.567	0.0172321
757.645	0.0171651
757.723	0.0171876
757.801	0.0172771
757.879	0.0172440
757.957	0.0172256
758.035	0.0172995
758.113	0.0172958
758.192	0.0172643
758.270	0.0170811
758.348	0.0169656
758.426	0.0169415
758.504	0.0169292
758.582	0.0168655
758.660	0.0168434
758.738	0.0167764
758.817	0.0167690
758.895	0.0164561
758.973	0.0165502
759.051	0.0165451
759.129	0.0163649
759.207	0.0162976
759.285	0.0162909
759.363	0.0161845
759.442	0.0162531
759.520	0.0160349
759.598	0.0160513
759.676	0.0160083
759.754	0.0162173
759.832	0.0162389
759.910	0.0161716
759.988	0.0161948
760.067	0.0162232
760.145	0.0163346
760.223	0.0164570
760.301	0.0163494
760.379	0.0165535
760.457	0.0166468
760.535	0.0165313
760.613	0.0164414
760.692	0.0165295
760.770	0.0164846
760.848	0.0165250
760.926	0.0165250
761.004	0.0163793
761.082	0.0163164
761.160	0.0163331
761.238	0.0163413
761.317	0.0160242
761.395	0.0161034
761.473	0.0160857
761.551	0.0160635
761.629	0.0160821
761.707	0.0162851
761.785	0.0161785
761.863	0.0163183
761.942	0.0162894
762.020	0.0164192
762.098	0.0166446
762.176	0.0168112
762.254	0.0167645
762.332	0.0167427
762.410	0.0169505
762.488	0.0170195
762.567	0.0168800
762.645	0.0169543
762.723	0.0169663
762.801	0.0170007
762.879	0.0169747
762.957	0.0169934
763.035	0.0169227
763.113	0.0168931
763.192	0.0169804
763.270	0.0170149
763.348	0.0170089
763.426	0.0170568
763.504	0.0168816
763.582	0.0169353
763.660	0.0168476
763.738	0.0167492
763.817	0.0168044
763.895	0.0167194
763.973	0.0166376
764.051	0.0166799
764.129	0.0165148
764.207	0.0166276
764.285	0.0165245
764.363	0.0164329
764.442	0.0163550
764.520	0.0163047
764.598	0.0164257
764.676	0.0165157
764.754	0.0164767
764.832	0.0163862
764.910	0.0165343
764.988	0.0165933
765.067	0.0166789
765.145	0.0166978
765.223	0.0167830
765.301	0.0168772
765.379	0.0167810
765.457	0.0168344
765.535	0.0169004
765.613	0.0169446
765.692	0.0168874
765.770	0.0168201
765.848	0.0168060
765.926	0.0167611
766.004	0.0167059
766.082	0.0166104
766.160	0.0163278
766.238	0.0165107
766.317	0.0164826
766.395	0.0161859
766.473	0.0162176
766.551	0.0161449
766.629	0.0159970
766.707	0.0160271
766.785	0.0158946
766.863	0.0158910
766.942	0.0159917
767.020	0.0159427
767.098	0.0157275
767.176	0.0158720
767.254	0.0159882
767.332	0.0161665
767.410	0.0161134
767.488	0.0161254
767.567	0.0162180
767.645	0.0162569
767.723	0.0164108
767.801	0.0165671
767.879	0.0165920
767.957	0.0167187
768.035	0.0166472
768.113	0.0169210
768.192	0.0168174
768.270	0.0169646
768.348	0.0169257
768.426	0.0171190
768.504	0.0172115
768.582	0.0171483
768.660	0.0170603
768.738	0.0171001
768.817	0.0170237
768.895	0.0171305
768.973	0.0171024
769.051	0.0168550
769.129	0.0170058
769.207	0.0167767
769.285	0.0166687
769.363	0.0165529
769.442	0.0165535
769.520	0.0168205
769.598	0.0166692
769.676	0.0165306
769.754	0.0164854
769.832	0.0165071
769.910	0.0166590
769.988	0.0166821
770.067	0.0166104
770.145	0.0167461
770.223	0.0166728
770.301	0.0165941
770.379	0.0166634
770.457	0.0166753
770.535	0.0165427
770.613	0.0165308
770.692	0.0165147
770.770	0.0165235
770.848	0.0163779
770.926	0.0165237
771.004	0.0165307
771.082	0.0164532
771.160	0.0164759
771.238	0.0164105
771.317	0.0162832
771.395	0.0161613
771.473	0.0162871
771.551	0.0161758
771.629	0.0163427
771.707	0.0162238
771.785	0.0162576
771.863	0.0163104
771.942	0.0162755
772.020	0.0162172
772.098	0.0162870
772.176	0.0164308
772.254	0.0163486
772.332	0.0163098
772.410	0.0163806
772.488	0.0164002
772.567	0.0165512
772.645	0.0166198
772.723	0.0167086
772.801	0.0167413
772.879	0.0166949
772.957	0.0166977
773.035	0.0167171
773.113	0.0167319
773.192	0.0167809
773.270	0.0167093
773.348	0.0166777
773.426	0.0168075
773.504	0.0167605
773.582	0.0167992
773.660	0.0165896
773.738	0.0165920
773.817	0.0165662
773.895	0.0165402
773.973	0.0165551
774.051	0.0165961
774.129	0.0165233
774.207	0.0165660
774.285	0.0167640
774.363	0.0166614
774.442	0.0165668
774.520	0.0166430
774.598	0.0167778
774.676	0.0167484
774.754	0.0166791
774.832	0.0167554
774.910	0.0167740
774.988	0.0167068
775.067	0.0167513
775.145	0.0168698
775.223	0.0167764
775.301	0.0167204
775.379	0.0167043
775.457	0.0166666
775.535	0.0167188
775.613	0.0166916
775.692	0.0164780
775.770	0.0165405
775.848	0.0165285
775.926	0.0166410
776.004	0.0165741
776.082	0.0165088
776.160	0.0163691
776.238	0.0162720
776.317	0.0164640
776.395	0.0162730
776.473	0.0162780
776.551	0.0164624
776.629	0.0163601
776.707	0.0161573
776.785	0.0162341
776.863	0.0164025
776.942	0.0161803
777.020	0.0163828
777.098	0.0163254
777.176	0.0162955
777.254	0.0163805
777.332	0.0164146
777.410	0.0163647
777.488	0.0163669
777.567	0.0164552
777.645	0.0165060
777.723	0.0164890
777.801	0.0165283
777.879	0.0166686
777.957	0.0166644
778.035	0.0167207
778.113	0.0166534
778.192	0.0167704
778.270	0.0167138
778.348	0.0166373
778.426	0.0165893
778.504	0.0167104
778.582	0.0167198
778.660	0.0167178
778.738	0.0166148
778.817	0.0164979
778.895	0.0165338
778.973	0.0165717
779.051	0.0165868
779.129	0.0165343
779.207	0.0165738
779.285	0.0166182
779.363	0.0166826
779.442	0.0165271
779.520	0.0167120
779.598	0.0166284
779.676	0.0166320
779.754	0.0164505
779.832	0.0164621
779.910	0.0166051
779.988	0.0165868
780.067	0.0166481
780.145	0.0166858
780.223	0.0165432
780.301	0.0167387
780.379	0.0167229
780.457	0.0167747
780.535	0.0167995
780.613	0.0169049
780.692	0.0167433
780.770	0.0167629
780.848	0.0169733
780.926	0.0170331
781.004	0.0168995
781.082	0.0167638
781.160	0.0167471
781.238	0.0167314
781.317	0.0166576
781.395	0.0164291
781.473	0.0164420
781.551	0.0163780
781.629	0.0160848
781.707	0.0161012
781.785	0.0160820
781.863	0.0160175
781.942	0.0159840
782.020	0.0159892
782.098	0.0160040
782.176	0.0160635
782.254	0.0159509
782.332	0.0160761
782.410	0.0160612
782.488	0.0162969
782.567	0.0164690
782.645	0.0166426
782.723	0.0167963
782.801	0.0168994
782.879	0.0169113
782.957	0.0171420
783.035	0.0173553
783.113	0.0173903
783.192	0.0174139
783.270	0.0174726
783.348	0.0174597
783.426	0.0176167
783.504	0.0174527
783.582	0.0172652
783.660	0.0171398
783.738	0.0170119
783.817	0.0167226
783.895	0.0166474
783.973	0.0163995
784.051	0.0161308
784.129	0.0161501
784.207	0.0160109
784.285	0.0158215
784.363	0.0157634
784.442	0.0155396
784.520	0.0156449
784.598	0.0154913
784.676	0.0156393
784.754	0.0156382
784.832	0.0155463
784.910	0.0155779
784.988	0.0157803
785.067	0.0159666
785.145	0.0160237
785.223	0.0162260
785.301	0.0163091
785.379	0.0165909
785.457	0.0168160
785.535	0.0168904
785.613	0.0172135
785.692	0.0173242
785.770	0.0175330
785.848	0.0175195
785.926	0.0176073
786.004	0.0177012
786.082	0.0176009
786.160	0.0176083
786.238	0.0174043
786.317	0.0174003
786.395	0.0173573
786.473	0.0171140
786.551	0.0169551
786.629	0.0168478
786.707	0.0167494
786.785	0.0166644
786.863	0.0164866
786.942	0.0165289
787.020	0.0163663
787.098	0.0162927
787.176	0.0162988
787.254	0.0162745
787.332	0.0161262
787.410	0.0161736
787.488	0.0161614
787.567	0.0160804
787.645	0.0159903
787.723	0.0159868
787.801	0.0159292
787.879	0.0159404
787.957	0.0160429
788.035	0.0160743
788.113	0.0160534
788.192	0.0160734
788.270	0.0161481
788.348	0.0161140
788.426	0.0161742
788.504	0.0162206
788.582	0.0163052
788.660	0.0163912
788.738	0.0166082
788.817	0.0165750
788.895	0.0165670
788.973	0.0166592
789.051	0.0166529
789.129	0.0167880
789.207	0.0169121
789.285	0.0169286
789.363	0.0168980
789.442	0.0171164
789.520	0.0170750
789.598	0.0171442
789.676	0.0172710
789.754	0.0173415
789.832	0.0173072
789.910	0.0173856
789.988	0.0173781
790.067	0.0173841
790.145	0.0173106
790.223	0.0173334
790.301	0.0171969
790.379	0.0171275
790.457	0.0170702
790.535	0.0170430
790.613	0.0169371
790.692	0.0166543
790.770	0.0166583
790.848	0.0163271
790.926	0.0161393
791.004	0.0160442
791.082	0.0159247
791.160	0.0158024
791.238	0.0157652
791.317	0.0157447
791.395	0.0155064
791.473	0.0156349
791.551	0.0156039
791.629	0.0155553
791.707	0.0155666
791.785	0.0154453
791.863	0.0155681
791.942	0.0157203
792.020	0.0157722
792.098	0.0158572
792.176	0.0158533
792.254	0.0160539
792.332	0.0162392
792.410	0.0162212
792.488	0.0163881
792.567	0.0164208
792.645	0.0166434
792.723	0.0166695
792.801	0.0168440
792.879	0.0169260
792.957	0.0168890
793.035	0.0168739
793.113	0.0170203
793.192	0.0170918
793.270	0.0170691
793.348	0.0171571
793.426	0.0171356
793.504	0.0171823
793.582	0.0171523
793.660	0.0172776
793.738	0.0170969
793.817	0.0170644
793.895	0.0170683
793.973	0.0171788
794.051	0.0170776
794.129	0.0170193
794.207	0.0169003
794.285	0.0169273
794.363	0.0168398
794.442	0.0167731
794.520	0.0168633
794.598	0.0165678
794.676	0.0165676
794.754	0.0166070
794.832	0.0165903
794.910	0.0165542
794.988	0.0165048
795.067	0.0166440
795.145	0.0165675
795.223	0.0165678
795.301	0.0167008
795.379	0.0166197
795.457	0.0165971
795.535	0.0165755
795.613	0.0166781
795.692	0.0166743
795.770	0.0166473
795.848	0.0165394
795.926	0.0166497
796.004	0.0165730
796.082	0.0166629
796.160	0.0164655
796.238	0.0165531
796.317	0.0164197
796.395	0.0163879
796.473	0.0164568
796.551	0.0164387
796.629	0.0162792
796.707	0.0161592
796.785	0.0161840
796.863	0.0162335
796.942	0.0161309
797.020	0.0160687
797.098	0.0160744
797.176	0.0160571
797.254	0.0161596
797.332	0.0160711
797.410	0.0160732
797.488	0.0161506
797.567	0.0160605
797.645	0.0163920
797.723	0.0162542
797.801	0.0163453
797.879	0.0163531
797.957	0.0164709
798.035	0.0166289
798.113	0.0165298
798.192	0.0165078
798.270	0.0166093
798.348	0.0165637
798.426	0.0167879
798.504	0.0167979
798.582	0.0166733
798.660	0.0168141
798.738	0.0166891
798.817	0.0166680
798.895	0.0168005
798.973	0.0166923
799.051	0.0166272
799.129	0.0166913
799.207	0.0168580
799.285	0.0168684
799.363	0.0166924
799.442	0.0166866
799.520	0.0167072
799.598	0.0166892
799.676	0.0167714
799.754	0.0167084
799.832	0.0166869
799.910	0.0164990
799.988	0.0165512
800.067	0.0165784
800.145	0.0163522
800.223	0.0164364
800.301	0.0164788
800.379	0.0165398
800.457	0.0164518
800.535	0.0163078
800.613	0.0163876
800.692	0.0163303
800.770	0.0164527
800.848	0.0165697
800.926	0.0166347
801.004	0.0166264
801.082	0.0166620
801.160	0.0167287
801.238	0.0167429
801.317	0.0166927
801.395	0.0167627
801.473	0.0167085
801.551	0.0166538
801.629	0.0166039
801.707	0.0167746
801.785	0.0167486
801.863	0.0167034
801.942	0.0166476
802.020	0.0166407
802.098	0.0166589
802.176	0.0164897
802.254	0.0165108
802.332	0.0164929
802.410	0.0165132
802.488	0.0165343
802.567	0.0165334
802.645	0.0163303
802.723	0.0163200
802.801	0.0163650
802.879	0.0161959
802.957	0.0163441
803.035	0.0162608
803.113	0.0163457
803.192	0.0163127
803.270	0.0162789
803.348	0.0164673
803.426	0.0163946
803.504	0.0163823
803.582	0.0164257
803.660	0.0164439
803.738	0.0164667
803.817	0.0164876
803.895	0.0164640
803.973	0.0164581
804.051	0.0164418
804.129	0.0164256
804.207	0.0165414
804.285	0.0165637
804.363	0.0166530
804.442	0.0167399
804.520	0.0166286
804.598	0.0167802
804.676	0.0166962
804.754	0.0167594
804.832	0.0168375
804.910	0.0168932
804.988	0.0168045
805.067	0.0168443
805.145	0.0167836
805.223	0.0169003
805.301	0.0167966
805.379	0.0167097
805.457	0.0167683
805.535	0.0167085
805.613	0.0167470
805.692	0.0167040
805.770	0.0166690
805.848	0.0167276
805.926	0.0166000
806.004	0.0165249
806.082	0.0165781
806.160	0.0165907
806.238	0.0165046
806.317	0.0164351
806.395	0.0163449
806.473	0.0164114
806.551	0.0162784
806.629	0.0162805
806.707	0.0161060
806.785	0.0159433
806.863	0.0160690
806.942	0.0158719
807.020	0.0159739
807.098	0.0159260
807.176	0.0159421
807.254	0.0160965
807.332	0.0161288
807.410	0.0161457
807.488	0.0161538
807.567	0.0162000
807.645	0.0164606
807.723	0.0164856
807.801	0.0164553
807.879	0.0166530
807.957	0.0166195
808.035	0.0168262
808.113	0.0167426
808.192	0.0167678
808.270	0.0167155
808.348	0.0167538
808.426	0.0168768
808.504	0.0168200
808.582	0.0168424
808.660	0.0169610
808.738	0.0167687
808.817	0.0167665
808.895	0.0168501
808.973	0.0167944
809.051	0.0167084
809.129	0.0168004
809.207	0.0165543
809.285	0.0166505
809.363	0.0166491
809.442	0.0164714
809.520	0.0165540
809.598	0.0165372
809.676	0.0165125
809.754	0.0165843
809.832	0.0165390
809.910	0.0166165
809.988	0.0166586
810.067	0.0168971
810.145	0.0169458
810.223	0.0170148
810.301	0.0170161
810.379	0.0168908
810.457	0.0171026
810.535	0.0170130
810.613	0.0170665
810.692	0.0169636
810.770	0.0168689
810.848	0.0168992
810.926	0.0168984
811.004	0.0169465
811.082	0.0167535
811.160	0.0166839
811.238	0.0165489
811.317	0.0166271
811.395	0.0163779
811.473	0.0162080
811.551	0.0161813
811.629	0.0162547
811.707	0.0161150
811.785	0.0160568
811.863	0.0160790
811.942	0.0159677
812.020	0.0157094
812.098	0.0158485
812.176	0.0158461
812.254	0.0159238
812.332	0.0158943
812.410	0.0159584
812.488	0.0160316
812.567	0.0160339
812.645	0.0160820
812.723	0.0161684
812.801	0.0160677
812.879	0.0161485
812.957	0.0162875
813.035	0.0165069
813.113	0.0162786
813.192	0.0164338
813.270	0.0165543
813.348	0.0165388
813.426	0.0165750
813.504	0.0166882
813.582	0.0166142
813.660	0.0167423
813.738	0.0166183
813.817	0.0166405
813.895	0.0166918
813.973	0.0167439
814.051	0.0168642
814.129	0.0167963
814.207	0.0168978
814.285	0.0169820
814.363	0.0169090
814.442	0.0169321
814.520	0.0169241
814.598	0.0169209
814.676	0.0168665
814.754	0.0168700
814.832	0.0169537
814.910	0.0168711
814.988	0.0168712
815.067	0.0170601
815.145	0.0168449
815.223	0.0169102
815.301	0.0169173
815.379	0.0168883
815.457	0.0169889
815.535	0.0170576
815.613	0.0169518
815.692	0.0169496
815.770	0.0168501
815.848	0.0169090
815.926	0.0169843
816.004	0.0169878
816.082	0.0169907
816.160	0.0170463
816.238	0.0168062
816.317	0.0167301
816.395	0.0168690
816.473	0.0167964
816.551	0.0168751
816.629	0.0167276
816.707	0.0167609
816.785	0.0166701
816.863	0.0165833
816.942	0.0164394
817.020	0.0164811
817.098	0.0162397
817.176	0.0161877
817.254	0.0161777
817.332	0.0160961
817.410	0.0159812
817.488	0.0159233
817.567	0.0158941
817.645	0.0157529
817.723	0.0158197
817.801	0.0157793
817.879	0.0158710
817.957	0.0158032
818.035	0.0160500
818.113	0.0158816
818.192	0.0158840
818.270	0.0160646
818.348	0.0160225
818.426	0.0161655
818.504	0.0161340
818.582	0.0162344
818.660	0.0164424
818.738	0.0165565
818.817	0.0166835
818.895	0.0167039
818.973	0.0167639
819.051	0.0169223
819.129	0.0169840
819.207	0.0168602
819.285	0.0168884
819.363	0.0171443
819.442	0.0171318
819.520	0.0171714
819.598	0.0173115
819.676	0.0172379
819.754	0.0171164
819.832	0.0171148
819.910	0.0172301
819.988	0.0172175
820.067	0.0170983
820.145	0.0170155
820.223	0.0171571
820.301	0.0171181
820.379	0.0170100
820.457	0.0169536
820.535	0.0169644
820.613	0.0167484
820.692	0.0168153
820.770	0.0169092
820.848	0.0167157
820.926	0.0167950
821.004	0.0167178
821.082	0.0167677
821.160	0.0166402
821.238	0.0166175
821.317	0.0165017
821.395	0.0164772
821.473	0.0163025
821.551	0.0164938
821.629	0.0163492
821.707	0.0164303
821.785	0.0163136
821.863	0.0162892
821.942	0.0162764
822.020	0.0163477
822.098	0.0163240
822.176	0.0163081
822.254	0.0162493
822.332	0.0164272
822.410	0.0163389
822.488	0.0163515
822.567	0.0162457
822.645	0.0163835
822.723	0.0163610
822.801	0.0164196
822.879	0.0162946
822.957	0.0163018
823.035	0.0162669
823.113	0.0162914
823.192	0.0162133
823.270	0.0161004
823.348	0.0161677
823.426	0.0162826
823.504	0.0162197
823.582	0.0162375
823.660	0.0161284
823.738	0.0162389
823.817	0.0161317
823.895	0.0162144
823.973	0.0161949
824.051	0.0164100
824.129	0.0164711
824.207	0.0163718
824.285	0.0164746
824.363	0.0166549
824.442	0.0165246
824.520	0.0166772
824.598	0.0166245
824.676	0.0168805
824.754	0.0169354
824.832	0.0168989
824.910	0.0170304
824.988	0.0171749
825.067	0.0170428
825.145	0.0170387
825.223	0.0171355
825.301	0.0171268
825.379	0.0171107
825.457	0.0171007
825.535	0.0171705
825.613	0.0172881
825.692	0.0171089
825.770	0.0171820
825.848	0.0171247
825.926	0.0170890
826.004	0.0169611
826.082	0.0169534
826.160	0.0169971
826.238	0.0167989
826.317	0.0168109
826.395	0.0167183
826.473	0.0166245
826.551	0.0165752
826.629	0.0163228
826.707	0.0163831
826.785	0.0165397
826.863	0.0164420
826.942	0.0162157
827.020	0.0163576
827.098	0.0163550
827.176	0.0163461
827.254	0.0163020
827.332	0.0162403
827.410	0.0163027
827.488	0.0163127
827.567	0.0161533
827.645	0.0162634
827.723	0.0161798
827.801	0.0162810
827.879	0.0164121
827.957	0.0162408
828.035	0.0164662
828.113	0.0163663
828.192	0.0163688
828.270	0.0164517
828.348	0.0163752
828.426	0.0164587
828.504	0.0162859
828.582	0.0163905
828.660	0.0164099
828.738	0.0164244
828.817	0.0163996
828.895	0.0164162
828.973	0.0164555
829.051	0.0164392
829.129	0.0163701
829.207	0.0164555
829.285	0.0164200
829.363	0.0163255
829.442	0.0164639
829.520	0.0163026
829.598	0.0163795
829.676	0.0164523
829.754	0.0164899
829.832	0.0164188
829.910	0.0164830
829.988	0.0165802
830.067	0.0164721
830.145	0.0163512
830.223	0.0165249
830.301	0.0165468
830.379	0.0165553
830.457	0.0165625
830.535	0.0166618
830.613	0.0165514
830.692	0.0166669
830.770	0.0167815
830.848	0.0166722
830.926	0.0167488
831.004	0.0168197
831.082	0.0168082
831.160	0.0167640
831.238	0.0169025
831.317	0.0169064
831.395	0.0168384
831.473	0.0169305
831.551	0.0169423
831.629	0.0168172
831.707	0.0168857
831.785	0.0168307
831.863	0.0169218
831.942	0.0167026
832.020	0.0166301
832.098	0.0166643
832.176	0.0167538
832.254	0.0166189
832.332	0.0166833
832.410	0.0167039
832.488	0.0167066
832.567	0.0166621
832.645	0.0166059
832.723	0.0166373
832.801	0.0165482
832.879	0.0164892
832.957	0.0166503
833.035	0.0166370
833.113	0.0165395
833.192	0.0166351
833.270	0.0165495
833.348	0.0166214
833.426	0.0165942
833.504	0.0165122
833.582	0.0165412
833.660	0.0165651
833.738	0.0166080
833.817	0.0165686
833.895	0.0165883
833.973	0.0164448
834.051	0.0164807
834.129	0.0164627
834.207	0.0164426
834.285	0.0163178
834.363	0.0163914
834.442	0.0163184
834.520	0.0163915
834.598	0.0164398
834.676	0.0163351
834.754	0.0163271
834.832	0.0162179
834.910	0.0162126
834.988	0.0163767
835.067	0.0163483
835.145	0.0163892
835.223	0.0163925
835.301	0.0165195
835.379	0.0163969
835.457	0.0165417
835.535	0.0164444
835.613	0.0165112
835.692	0.0165498
835.770	0.0167113
835.848	0.0167122
835.926	0.0166805
836.004	0.0165791
836.082	0.0167257
836.160	0.0167041
836.238	0.0166969
836.317	0.0167612
836.395	0.0165819
836.473	0.0166137
836.551	0.0165403
836.629	0.0165231
836.707	0.0164803
836.785	0.0164906
836.863	0.0163837
836.942	0.0163605
837.020	0.0163797
837.098	0.0162116
837.176	0.0162279
837.254	0.0162686
837.332	0.0163908
837.410	0.0163357
837.488	0.0163988
837.567	0.0164057
837.645	0.0164190
837.723	0.0164449
837.801	0.0166439
837.879	0.0165028
837.957	0.0165868
838.035	0.0165176
838.113	0.0165035
838.192	0.0165711
838.270	0.0166113
838.348	0.0167197
838.426	0.0168042
838.504	0.0167752
838.582	0.0167899
838.660	0.0169044
838.738	0.0170028
838.817	0.0169418
838.895	0.0170102
838.973	0.0168558
839.051	0.0169386
839.129	0.0170463
839.207	0.0168842
839.285	0.0170472
839.363	0.0171100
839.442	0.0170710
839.520	0.0169604
839.598	0.0170576
839.676	0.0169178
839.754	0.0167749
839.832	0.0169311
839.910	0.0168700
839.988	0.0168871
840.067	0.0167924
840.145	0.0167926
840.223	0.0167401
840.301	0.0166702
840.379	0.0167126
840.457	0.0166539
840.535	0.0165588
840.613	0.0165799
840.692	0.0164951
840.770	0.0165907
840.848	0.0166215
840.926	0.0165582
841.004	0.0165058
841.082	0.0164228
841.160	0.0163861
841.238	0.0164491
841.317	0.0163607
841.395	0.0163138
841.473	0.0161811
841.551	0.0163084
841.629	0.0162331
841.707	0.0162270
841.785	0.0161436
841.863	0.0160442
841.942	0.0159254
842.020	0.0160426
842.098	0.0159880
842.176	0.0159429
842.254	0.0160256
842.332	0.0159623
842.410	0.0160220
842.488	0.0159515
842.567	0.0161140
842.645	0.0160343
842.723	0.0161209
842.801	0.0162373
842.879	0.0162122
842.957	0.0163960
843.035	0.0164543
843.113	0.0164346
843.192	0.0164827
843.270	0.0165636
843.348	0.0165635
843.426	0.0165993
843.504	0.0166186
843.582	0.0166673
843.660	0.0167869
843.738	0.0168069
843.817	0.0167452
843.895	0.0169350
843.973	0.0168758
844.051	0.0169146
844.129	0.0169095
844.207	0.0169662
844.285	0.0169321
844.363	0.0170082
844.442	0.0170152
844.520	0.0170042
844.598	0.0169860
844.676	0.0170348
844.754	0.0170091
844.832	0.0169847
844.910	0.0170168
844.988	0.0170030
845.067	0.0168888
845.145	0.0169341
845.223	0.0170122
845.301	0.0167949
845.379	0.0168137
845.457	0.0168886
845.535	0.0169668
845.613	0.0168474
845.692	0.0169553
845.770	0.0169848
845.848	0.0168548
845.926	0.0169993
846.004	0.0168427
846.082	0.0169154
846.160	0.0168672
846.238	0.0168867
846.317	0.0169344
846.395	0.0167601
846.473	0.0167145
846.551	0.0166827
846.629	0.0167647
846.707	0.0166821
846.785	0.0165965
846.863	0.0165964
846.942	0.0164380
847.020	0.0164729
847.098	0.0164278
847.176	0.0163986
847.254	0.0163144
847.332	0.0162099
847.410	0.0161689
847.488	0.0162836
847.567	0.0162428
847.645	0.0160767
847.723	0.0160394
847.801	0.0160928
847.879	0.0162062
847.957	0.0161640
848.035	0.0162411
848.113	0.0160620
848.192	0.0161422
848.270	0.0162932
848.348	0.0162069
848.426	0.0163111
848.504	0.0161600
848.582	0.0163614
848.660	0.0163891
848.738	0.0164027
848.817	0.0163057
848.895	0.0164782
848.973	0.0164353
849.051	0.0164478
849.129	0.0164768
849.207	0.0163519
849.285	0.0165148
849.363	0.0165733
849.442	0.0165661
849.520	0.0165266
849.598	0.0165466
849.676	0.0166719
849.754	0.0165415
849.832	0.0166992
849.910	0.0165900
849.988	0.0167255
850.067	0.0169670
850.145	0.0167971
850.223	0.0169711
850.301	0.0170765
850.379	0.0169558
850.457	0.0170437
850.535	0.0170216
850.613	0.0171555
850.692	0.0171738
850.770	0.0169999
850.848	0.0172110
850.926	0.0170489
851.004	0.0171188
851.082	0.0169382
851.160	0.0170650
851.238	0.0170540
851.317	0.0169390
851.395	0.0168042
851.473	0.0169534
851.551	0.0166869
851.629	0.0167138
851.707	0.0166586
851.785	0.0166172
851.863	0.0165610
851.942	0.0163632
852.020	0.0165931
852.098	0.0164024
852.176	0.0162923
852.254	0.0163680
852.332	0.0162946
852.410	0.0163132
852.488	0.0162521
852.567	0.0162135
852.645	0.0162717
852.723	0.0163779
852.801	0.0162300
852.879	0.0163046
852.957	0.0164925
853.035	0.0165582
853.113	0.0164548
853.192	0.0164706
853.270	0.0164383
853.348	0.0164746
853.426	0.0165839
853.504	0.0164155
853.582	0.0164203
853.660	0.0165832
853.738	0.0164870
853.817	0.0163759
853.895	0.0164351
853.973	0.0164970
854.051	0.0164964
854.129	0.0165104
854.207	0.0163447
854.285	0.0163862
854.363	0.0163683
854.442	0.0163748
854.520	0.0163766
854.598	0.0163137
854.676	0.0163985
854.754	0.0163704
854.832	0.0164627
854.910	0.0163346
854.988	0.0164031
855.067	0.0163859
855.145	0.0163878
855.223	0.0164046
855.301	0.0163674
855.379	0.0164475
855.457	0.0165555
855.535	0.0164097
855.613	0.0165880
855.692	0.0166654
855.770	0.0166746
855.848	0.0166941
855.926	0.0166956
856.004	0.0166882
856.082	0.0166183
856.160	0.0167301
856.238	0.0166647
856.317	0.0167137
856.395	0.0166599
856.473	0.0166382
856.551	0.0165745
856.629	0.0165820
856.707	0.0166034
856.785	0.0165623
856.863	0.0166972
856.942	0.0166406
857.020	0.0167091
857.098	0.0165810
857.176	0.0167102
857.254	0.0167808
857.332	0.0167441
857.410	0.0165493
857.488	0.0166623
857.567	0.0166800
857.645	0.0166799
857.723	0.0166488
857.801	0.0166025
857.879	0.0167519
857.957	0.0169161
858.035	0.0167834
858.113	0.0168224
858.192	0.0168315
858.270	0.0169090
858.348	0.0169482
858.426	0.0169200
858.504	0.0168416
858.582	0.0168353
858.660	0.0169505
858.738	0.0166992
858.817	0.0167431
858.895	0.0166199
858.973	0.0166283
859.051	0.0165036
859.129	0.0164407
859.207	0.0165737
859.285	0.0164336
859.363	0.0162760
859.442	0.0163735
859.520	0.0163130
859.598	0.0162020
859.676	0.0164127
859.754	0.0164382
859.832	0.0162196
859.910	0.0165085
859.988	0.0163374
860.067	0.0163853
860.145	0.0165283
860.223	0.0163882
860.301	0.0164622
860.379	0.0164087
860.457	0.0164369
860.535	0.0164921
860.613	0.0164195
860.692	0.0163831
860.770	0.0165374
860.848	0.0164784
860.926	0.0163372
861.004	0.0164542
861.082	0.0163940
861.160	0.0164384
861.238	0.0164526
861.317	0.0163641
861.395	0.0163796
861.473	0.0164706
861.551	0.0163114
861.629	0.0162749
861.707	0.0163895
861.785	0.0162995
861.863	0.0163091
861.942	0.0164713
862.020	0.0164513
862.098	0.0163989
862.176	0.0165509
862.254	0.0165201
862.332	0.0165263
862.410	0.0165337
862.488	0.0164732
862.567	0.0165963
862.645	0.0167175
862.723	0.0167404
862.801	0.0167560
862.879	0.0167352
862.957	0.0167458
863.035	0.0167602
863.113	0.0168238
863.192	0.0169080
863.270	0.0167321
863.348	0.0168184
863.426	0.0167717
863.504	0.0168015
863.582	0.0169492
863.660	0.0169463
863.738	0.0167281
863.817	0.0169770
863.895	0.0167485
863.973	0.0168105
864.051	0.0167754
864.129	0.0166460
864.207	0.0166820
864.285	0.0166604
864.363	0.0168182
864.442	0.0167255
864.520	0.0166091
864.598	0.0167007
864.676	0.0166576
864.754	0.0165646
864.832	0.0165810
864.910	0.0166893
864.988	0.0166621
865.067	0.0166364
865.145	0.0166612
865.223	0.0166572
865.301	0.0165862
865.379	0.0166188
865.457	0.0167058
865.535	0.0165788
865.613	0.0164707
865.692	0.0165308
865.770	0.0165266
865.848	0.0165453
865.926	0.0163515
866.004	0.0164565
866.082	0.0164146
866.160	0.0163951
866.238	0.0165993
866.317	0.0162756
866.395	0.0161988
866.473	0.0162448
866.551	0.0161711
866.629	0.0163782
866.707	0.0162955
866.785	0.0163630
866.863	0.0162266
866.942	0.0162237
867.020	0.0162820
867.098	0.0162151
867.176	0.0163912
867.254	0.0163270
867.332	0.0162589
867.410	0.0163667
867.488	0.0163459
867.567	0.0162847
867.645	0.0163676
867.723	0.0164127
867.801	0.0164971
867.879	0.0165086
867.957	0.0163649
868.035	0.0164165
868.113	0.0165883
868.192	0.0165427
868.270	0.0165526
868.348	0.0166689
868.426	0.0166608
868.504	0.0165211
868.582	0.0167377
868.660	0.0166913
868.738	0.0166711
868.817	0.0167148
868.895	0.0166412
868.973	0.0166479
869.051	0.0167387
869.129	0.0166508
869.207	0.0166745
869.285	0.0166217
869.363	0.0167642
869.442	0.0166693
869.520	0.0165381
869.598	0.0167388
869.676	0.0166216
869.754	0.0167845
869.832	0.0166591
869.910	0.0167842
869.988	0.0166332
870.067	0.0165890
870.145	0.0166403
870.223	0.0165724
870.301	0.0165504
870.379	0.0164961
870.457	0.0166091
870.535	0.0165248
870.613	0.0164818
870.692	0.0166259
870.770	0.0165981
870.848	0.0165944
870.926	0.0164978
871.004	0.0166238
871.082	0.0165536
871.160	0.0165477
871.238	0.0166837
871.317	0.0166901
871.395	0.0166193
871.473	0.0166132
871.551	0.0167648
871.629	0.0167889
871.707	0.0166743
871.785	0.0166262
871.863	0.0165044
871.942	0.0165108
872.020	0.0167345
872.098	0.0165752
872.176	0.0163887
872.254	0.0164140
872.332	0.0166348
872.410	0.0163733
872.488	0.0164304
872.567	0.0164909
872.645	0.0163284
872.723	0.0164430
872.801	0.0163171
872.879	0.0163669
872.957	0.0163234
873.035	0.0163307
873.113	0.0164310
873.192	0.0163403
873.270	0.0164969
873.348	0.0163139
873.426	0.0163380
873.504	0.0163898
873.582	0.0165424
873.660	0.0163422
873.738	0.0163519
873.817	0.0164373
873.895	0.0164474
873.973	0.0166247
874.051	0.0165034
874.129	0.0164781
874.207	0.0165891
874.285	0.0166288
874.363	0.0166130
874.442	0.0164592
874.520	0.0165363
874.598	0.0164167
874.676	0.0165017
874.754	0.0165032
874.832	0.0164404
874.910	0.0162978
874.988	0.0163428
875.067	0.0163911
875.145	0.0163787
875.223	0.0163836
875.301	0.0162848
875.379	0.0161707
875.457	0.0163975
875.535	0.0164467
875.613	0.0162851
875.692	0.0165140
875.770	0.0165819
875.848	0.0168410
875.926	0.0167419
876.004	0.0169543
876.082	0.0168838
876.160	0.0170281
876.238	0.0171870
876.317	0.0171268
876.395	0.0169562
876.473	0.0171352
876.551	0.0167788
876.629	0.0167950
876.707	0.0167626
876.785	0.0165837
876.863	0.0164072
876.942	0.0161367
877.020	0.0162092
877.098	0.0160579
877.176	0.0159608
877.254	0.0160409
877.332	0.0158443
877.410	0.0159837
877.488	0.0159209
877.567	0.0159182
877.645	0.0161573
877.723	0.0160629
877.801	0.0160791
877.879	0.0162096
877.957	0.0163802
878.035	0.0163585
878.113	0.0166461
878.192	0.0168672
878.270	0.0169786
878.348	0.0172689
878.426	0.0173899
878.504	0.0174178
878.582	0.0175632
878.660	0.0176849
878.738	0.0175623
878.817	0.0174039
878.895	0.0174248
878.973	0.0171916
879.051	0.0170182
879.129	0.0168376
879.207	0.0165918
879.285	0.0161777
879.363	0.0158474
879.442	0.0157986
879.520	0.0155686
879.598	0.0154495
879.676	0.0152988
879.754	0.0152569
879.832	0.0152571
879.910	0.0154120
879.988	0.0154202
880.067	0.0155505
880.145	0.0156821
880.223	0.0159145
880.301	0.0160823
880.379	0.0162504
880.457	0.0165086
880.535	0.0167809
880.613	0.0168841
880.692	0.0172555
880.770	0.0172920
880.848	0.0174168
880.926	0.0176505
881.004	0.0178337
881.082	0.0179338
881.160	0.0180088
881.238	0.0181371
881.317	0.0178936
881.395	0.0178880
881.473	0.0178532
881.551	0.0176877
881.629	0.0173809
881.707	0.0171193
881.785	0.0167902
881.863	0.0163873
881.942	0.0159840
882.020	0.0156812
882.098	0.0155932
882.176	0.0154228
882.254	0.0152117
882.332	0.0150565
882.410	0.0149809
882.488	0.0151340
882.567	0.0151547
882.645	0.0151876
882.723	0.0153501
882.801	0.0154537
882.879	0.0156110
882.957	0.0157640
883.035	0.0158680
883.113	0.0160366
883.192	0.0163600
883.270	0.0165234
883.348	0.0164684
883.426	0.0166514
883.504	0.0170733
883.582	0.0171117
883.660	0.0173199
883.738	0.0174834
883.817	0.0174741
883.895	0.0176658
883.973	0.0177276
884.051	0.0176726
884.129	0.0176648
884.207	0.0175365
884.285	0.0175793
884.363	0.0173501
884.442	0.0169612
884.520	0.0168965
884.598	0.0167443
884.676	0.0163392
884.754	0.0162374
884.832	0.0161133
884.910	0.0159132
884.988	0.0159547
885.067	0.0156773
885.145	0.0156981
885.223	0.0157456
885.301	0.0158333
885.379	0.0159624
885.457	0.0160104
885.535	0.0160676
885.613	0.0161323
885.692	0.0164012
885.770	0.0164642
885.848	0.0163773
885.926	0.0165544
886.004	0.0164621
886.082	0.0165723
886.160	0.0165356
886.238	0.0165231
886.317	0.0167313
886.395	0.0167221
886.473	0.0168308
886.551	0.0168169
886.629	0.0167475
886.707	0.0167717
886.785	0.0167574
886.863	0.0166821
886.942	0.0167352
887.020	0.0167754
887.098	0.0166518
887.176	0.0165864
887.254	0.0167003
887.332	0.0165794
887.410	0.0164846
887.488	0.0164534
887.567	0.0163615
887.645	0.0162437
887.723	0.0161830
887.801	0.0162376
887.879	0.0161926
887.957	0.0162292
888.035	0.0162984
888.113	0.0163593
888.192	0.0163232
888.270	0.0164272
888.348	0.0162984
888.426	0.0163435
888.504	0.0163373
888.582	0.0164089
888.660	0.0164916
888.738	0.0165122
888.817	0.0165038
888.895	0.0167010
888.973	0.0166049
889.051	0.0166158
889.129	0.0166631
889.207	0.0167079
889.285	0.0167445
889.363	0.0166357
889.442	0.0167767
889.520	0.0168039
889.598	0.0168896
889.676	0.0168574
889.754	0.0169460
889.832	0.0167783
889.910	0.0167662
889.988	0.0167333
890.067	0.0166827
890.145	0.0165178
890.223	0.0163023
890.301	0.0163498
890.379	0.0163240
890.457	0.0161645
890.535	0.0160083
890.613	0.0160424
890.692	0.0159603
890.770	0.0160222
890.848	0.0159623
890.926	0.0161276
891.004	0.0161526
891.082	0.0161725
891.160	0.0162103
891.238	0.0162570
891.317	0.0163882
891.395	0.0164108
891.473	0.0164529
891.551	0.0165630
891.629	0.0166039
891.707	0.0167621
891.785	0.0167270
891.863	0.0168450
891.942	0.0168066
892.020	0.0168269
892.098	0.0169328
892.176	0.0167754
892.254	0.0166800
892.332	0.0167030
892.410	0.0168048
892.488	0.0165946
892.567	0.0166235
892.645	0.0165577
892.723	0.0165275
892.801	0.0162573
892.879	0.0163716
892.957	0.0165044
893.035	0.0164995
893.113	0.0164597
893.192	0.0164455
893.270	0.0163932
893.348	0.0165128
893.426	0.0165813
893.504	0.0166636
893.582	0.0165942
893.660	0.0167005
893.738	0.0167795
893.817	0.0168445
893.895	0.0168991
893.973	0.0167332
894.051	0.0167898
894.129	0.0167014
894.207	0.0166158
894.285	0.0165406
894.363	0.0164828
894.442	0.0163638
894.520	0.0164080
894.598	0.0164713
894.676	0.0165070
894.754	0.0162564
894.832	0.0164544
894.910	0.0163943
894.988	0.0163610
895.067	0.0163828
895.145	0.0164690
895.223	0.0167010
895.301	0.0163745
895.379	0.0164308
895.457	0.0164418
895.535	0.0164957
895.613	0.0165170
895.692	0.0165966
895.770	0.0163235
895.848	0.0163549
895.926	0.0165572
896.004	0.0164967
896.082	0.0164976
896.160	0.0165060
896.238	0.0165979
896.317	0.0165647
896.395	0.0165654
896.473	0.0166194
896.551	0.0167153
896.629	0.0168031
896.707	0.0167734
896.785	0.0166696
896.863	0.0167803
896.942	0.0167334
897.020	0.0167354
897.098	0.0167010
897.176	0.0164697
897.254	0.0165218
897.332	0.0165009
897.410	0.0163976
897.488	0.0164046
897.567	0.0162956
897.645	0.0162297
897.723	0.0163603
897.801	0.0163312
897.879	0.0163258
897.957	0.0163004
898.035	0.0163865
898.113	0.0163589
898.192	0.0163103
898.270	0.0163327
898.348	0.0164013
898.426	0.0164713
898.504	0.0164362
898.582	0.0164889
898.660	0.0165162
898.738	0.0164616
898.817	0.0165221
898.895	0.0165499
898.973	0.0165601
899.051	0.0167569
899.129	0.0167953
899.207	0.0168600
899.285	0.0167157
899.363	0.0167204
899.442	0.0168278
899.520	0.0167690
899.598	0.0167780
899.676	0.0169149
899.754	0.0167515
899.832	0.0168089
899.910	0.0166913
899.988	0.0166283
900.067	0.0166418
900.145	0.0163647
900.223	0.0163572
900.301	0.0162961
900.379	0.0162794
900.457	0.0161865
900.535	0.0161913
900.613	0.0161662
900.692	0.0161324
900.770	0.0160481
900.848	0.0161244
900.926	0.0161941
901.004	0.0161770
901.082	0.0160508
901.160	0.0163189
901.238	0.0163177
901.317	0.0163727
901.395	0.0163730
901.473	0.0165071
901.551	0.0165482
901.629	0.0166742
901.707	0.0168755
901.785	0.0167900
901.863	0.0167674
901.942	0.0166869
902.020	0.0167543
902.098	0.0168843
902.176	0.0168257
902.254	0.0167732
902.332	0.0168069
902.410	0.0167703
902.488	0.0167418
902.567	0.0166876
902.645	0.0168314
902.723	0.0168285
902.801	0.0168159
902.879	0.0167586
902.957	0.0166267
903.035	0.0165424
903.113	0.0166082
903.192	0.0166119
903.270	0.0164628
903.348	0.0164337
903.426	0.0163592
903.504	0.0164574
903.582	0.0163814
903.660	0.0163444
903.738	0.0164036
903.817	0.0162906
903.895	0.0162875
903.973	0.0163660
904.051	0.0161964
904.129	0.0163206
904.207	0.0164470
904.285	0.0162794
904.363	0.0162443
904.442	0.0163931
904.520	0.0163667
904.598	0.0165358
904.676	0.0164888
904.754	0.0164655
904.832	0.0166005
904.910	0.0164961
904.988	0.0163642
905.067	0.0165126
905.145	0.0165375
905.223	0.0166035
905.301	0.0164017
905.379	0.0166061
905.457	0.0165509
905.535	0.0163676
905.613	0.0165304
905.692	0.0165239
905.770	0.0166188
905.848	0.0165753
905.926	0.0165883
906.004	0.0165832
906.082	0.0166486
906.160	0.0166062
906.238	0.0166906
906.317	0.0166553
906.395	0.0164756
906.473	0.0165155
906.551	0.0165565
906.629	0.0165871
906.707	0.0165946
906.785	0.0165346
906.863	0.0164529
906.942	0.0165943
907.020	0.0164394
907.098	0.0164764
907.176	0.0165140
907.254	0.0165893
907.332	0.0165961
907.410	0.0165383
907.488	0.0164308
907.567	0.0165231
907.645	0.0164307
907.723	0.0164155
907.801	0.0165135
907.879	0.0164971
907.957	0.0165421
908.035	0.0165017
908.113	0.0164999
908.192	0.0165400
908.270	0.0164045
908.348	0.0164214
908.426	0.0165174
908.504	0.0163559
908.582	0.0164677
908.660	0.0164066
908.738	0.0165219
908.817	0.0164795
908.895	0.0163636
908.973	0.0164762
909.051	0.0163849
909.129	0.0164210
909.207	0.0163725
909.285	0.0164966
909.363	0.0164261
909.442	0.0164577
909.520	0.0164451
909.598	0.0165178
909.676	0.0165709
909.754	0.0167847
909.832	0.0166164
909.910	0.0167031
909.988	0.0165950
910.067	0.0167090
910.145	0.0168372
910.223	0.0167601
910.301	0.0167455
910.379	0.0165483
910.457	0.0168406
910.535	0.0168045
910.613	0.0166921
910.692	0.0166158
910.770	0.0165541
910.848	0.0165839
910.926	0.0166799
911.004	0.0165649
911.082	0.0165134
911.160	0.0165936
911.238	0.0164130
911.317	0.0165174
911.395	0.0164595
911.473	0.0163318
911.551	0.0162697
911.629	0.0164708
911.707	0.0163942
911.785	0.0165431
911.863	0.0164272
911.942	0.0164453
912.020	0.0164772
912.098	0.0163790
912.176	0.0164114
912.254	0.0165113
912.332	0.0165572
912.410	0.0164913
912.488	0.0166726
912.567	0.0165911
912.645	0.0165300
912.723	0.0165810
912.801	0.0165311
912.879	0.0164722
912.957	0.0165511
913.035	0.0167018
913.113	0.0166413
913.192	0.0166812
913.270	0.0165614
913.348	0.0164626
913.426	0.0166232
913.504	0.0167344
913.582	0.0166779
913.660	0.0166729
913.738	0.0166792
913.817	0.0168072
913.895	0.0167334
913.973	0.0168082
914.051	0.0168752
914.129	0.0167064
914.207	0.0168098
914.285	0.0167043
914.363	0.0166111
914.442	0.0167681
914.520	0.0165668
914.598	0.0166401
914.676	0.0164403
914.754	0.0164109
914.832	0.0164195
914.910	0.0162845
914.988	0.0161819
915.067	0.0162038
915.145	0.0162468
915.223	0.0163740
915.301	0.0162997
915.379	0.0163396
915.457	0.0162274
915.535	0.0162604
915.613	0.0162434
915.692	0.0164255
915.770	0.0164195
915.848	0.0163939
915.926	0.0163566
916.004	0.0165139
916.082	0.0166020
916.160	0.0165530
916.238	0.0166446
916.317	0.0167664
916.395	0.0168142
916.473	0.0167543
916.551	0.0167117
916.629	0.0168066
916.707	0.0167448
916.785	0.0168993
916.863	0.0169006
916.942	0.0168698
917.020	0.0168468
917.098	0.0168039
917.176	0.0167112
917.254	0.0166947
917.332	0.0166205
917.410	0.0165691
917.488	0.0166492
917.567	0.0166832
917.645	0.0166405
917.723	0.0165685
917.801	0.0164920
917.879	0.0164302
917.957	0.0166132
918.035	0.0164751
918.113	0.0164033
918.192	0.0165896
918.270	0.0163162
918.348	0.0164485
918.426	0.0165072
918.504	0.0166446
918.582	0.0164347
918.660	0.0164600
918.738	0.0166147
918.817	0.0166544
918.895	0.0165129
918.973	0.0166770
919.051	0.0166753
919.129	0.0166169
919.207	0.0166229
919.285	0.0167616
919.363	0.0168538
919.442	0.0167054
919.520	0.0166079
919.598	0.0167195
919.676	0.0166042
919.754	0.0165247
919.832	0.0166221
919.910	0.0167094
