05/24/2022	20:09:33	Ver.	4.1	UNKNOWN
Optical Delay	599.988409	Delta X		0.078125	Sweeps	1	Scan Rate	0/0
Coordinates	Axis 1	NaN	Axis 2	NaN	Axis 3	NaN	Axis 4	NaN	Axis 5	NaN	Axis 6	0.000000
TX Power	0.000000	RX Power	0.000000

599.988	0.0170950
600.067	0.0172052
600.145	0.0172197
600.223	0.0171265
600.301	0.0171685
600.379	0.0171246
600.457	0.0171691
600.535	0.0171285
600.613	0.0171052
600.692	0.0171976
600.770	0.0171092
600.848	0.0170038
600.926	0.0170957
601.004	0.0172826
601.082	0.0172948
601.160	0.0170466
601.238	0.0171729
601.317	0.0171057
601.395	0.0172103
601.473	0.0170348
601.551	0.0170864
601.629	0.0171411
601.707	0.0172306
601.785	0.0171633
601.863	0.0169301
601.942	0.0170434
602.020	0.0171463
602.098	0.0171901
602.176	0.0170905
602.254	0.0170301
602.332	0.0170978
602.410	0.0170782
602.488	0.0170856
602.567	0.0170713
602.645	0.0170562
602.723	0.0170307
602.801	0.0171411
602.879	0.0171425
602.957	0.0171503
603.035	0.0170676
603.113	0.0171842
603.192	0.0171722
603.270	0.0170867
603.348	0.0170642
603.426	0.0172559
603.504	0.0172192
603.582	0.0172301
603.660	0.0172736
603.738	0.0172192
603.817	0.0172119
603.895	0.0171455
603.973	0.0170614
604.051	0.0172172
604.129	0.0170170
604.207	0.0172207
604.285	0.0171622
604.363	0.0172325
604.442	0.0171626
604.520	0.0170973
604.598	0.0170882
604.676	0.0172047
604.754	0.0172301
604.832	0.0170344
604.910	0.0170616
604.988	0.0171601
605.067	0.0171536
605.145	0.0170335
605.223	0.0170890
605.301	0.0170890
605.379	0.0171089
605.457	0.0172134
605.535	0.0170562
605.613	0.0170551
605.692	0.0171313
605.770	0.0171531
605.848	0.0170940
605.926	0.0170538
606.004	0.0170159
606.082	0.0169478
606.160	0.0171855
606.238	0.0171214
606.317	0.0171481
606.395	0.0172623
606.473	0.0170622
606.551	0.0169786
606.629	0.0171884
606.707	0.0172636
606.785	0.0171117
606.863	0.0170782
606.942	0.0171921
607.020	0.0171513
607.098	0.0171042
607.176	0.0171562
607.254	0.0172408
607.332	0.0170936
607.410	0.0170687
607.488	0.0171310
607.567	0.0171250
607.645	0.0170993
607.723	0.0171307
607.801	0.0170091
607.879	0.0171584
607.957	0.0171097
608.035	0.0170350
608.113	0.0170505
608.192	0.0170363
608.270	0.0170115
608.348	0.0170699
608.426	0.0171239
608.504	0.0170651
608.582	0.0170377
608.660	0.0170162
608.738	0.0169560
608.817	0.0170846
608.895	0.0171178
608.973	0.0171659
609.051	0.0171491
609.129	0.0172312
609.207	0.0171265
609.285	0.0172377
609.363	0.0171398
609.442	0.0171598
609.520	0.0170010
609.598	0.0172247
609.676	0.0172899
609.754	0.0172784
609.832	0.0172776
609.910	0.0171503
609.988	0.0172675
610.067	0.0171938
610.145	0.0171342
610.223	0.0171665
610.301	0.0170963
610.379	0.0170995
610.457	0.0172157
610.535	0.0170716
610.613	0.0170491
610.692	0.0171167
610.770	0.0170428
610.848	0.0170967
610.926	0.0170313
611.004	0.0169691
611.082	0.0168334
611.160	0.0170386
611.238	0.0169141
611.317	0.0170463
611.395	0.0171136
611.473	0.0171325
611.551	0.0169421
611.629	0.0170971
611.707	0.0172093
611.785	0.0170752
611.863	0.0169591
611.942	0.0169495
612.020	0.0171452
612.098	0.0172466
612.176	0.0172128
612.254	0.0172427
612.332	0.0171485
612.410	0.0172028
612.488	0.0171224
612.567	0.0171705
612.645	0.0171313
612.723	0.0172419
612.801	0.0172588
612.879	0.0171230
612.957	0.0171028
613.035	0.0171041
613.113	0.0172035
613.192	0.0171475
613.270	0.0171597
613.348	0.0170522
613.426	0.0171516
613.504	0.0170723
613.582	0.0170302
613.660	0.0169903
613.738	0.0170843
613.817	0.0168994
613.895	0.0171166
613.973	0.0171239
614.051	0.0170224
614.129	0.0169834
614.207	0.0169688
614.285	0.0170140
614.363	0.0171265
614.442	0.0171125
614.520	0.0171162
614.598	0.0170897
614.676	0.0169286
614.754	0.0169658
614.832	0.0170224
614.910	0.0170633
614.988	0.0171299
615.067	0.0170893
615.145	0.0171109
615.223	0.0172230
615.301	0.0171691
615.379	0.0171040
615.457	0.0170943
615.535	0.0171860
615.613	0.0172031
615.692	0.0172170
615.770	0.0171307
615.848	0.0170895
615.926	0.0170322
616.004	0.0170425
616.082	0.0171306
616.160	0.0171629
616.238	0.0171076
616.317	0.0170761
616.395	0.0171605
616.473	0.0170638
616.551	0.0171288
616.629	0.0171984
616.707	0.0171214
616.785	0.0171985
616.863	0.0170759
616.942	0.0171843
617.020	0.0170393
617.098	0.0170074
617.176	0.0172436
617.254	0.0170885
617.332	0.0172105
617.410	0.0170371
617.488	0.0170948
617.567	0.0172224
617.645	0.0171142
617.723	0.0171466
617.801	0.0172188
617.879	0.0171783
617.957	0.0171853
618.035	0.0170386
618.113	0.0170858
618.192	0.0169277
618.270	0.0170883
618.348	0.0171888
618.426	0.0171353
618.504	0.0172486
618.582	0.0171307
618.660	0.0170216
618.738	0.0170530
618.817	0.0170420
618.895	0.0171188
618.973	0.0171487
619.051	0.0172233
619.129	0.0169896
619.207	0.0171461
619.285	0.0171908
619.363	0.0171447
619.442	0.0168806
619.520	0.0170853
619.598	0.0171169
619.676	0.0171649
619.754	0.0170709
619.832	0.0170622
619.910	0.0170919
619.988	0.0171080
620.067	0.0169581
620.145	0.0171139
620.223	0.0170308
620.301	0.0171999
620.379	0.0170312
620.457	0.0172285
620.535	0.0170693
620.613	0.0172144
620.692	0.0170895
620.770	0.0172751
620.848	0.0171288
620.926	0.0170193
621.004	0.0171326
621.082	0.0172447
621.160	0.0172291
621.238	0.0171983
621.317	0.0170052
621.395	0.0170003
621.473	0.0171290
621.551	0.0170297
621.629	0.0171123
621.707	0.0171681
621.785	0.0171652
621.863	0.0170801
621.942	0.0171236
622.020	0.0170436
622.098	0.0170996
622.176	0.0171355
622.254	0.0169845
622.332	0.0171477
622.410	0.0169693
622.488	0.0170989
622.567	0.0172712
622.645	0.0170332
622.723	0.0170626
622.801	0.0171139
622.879	0.0171648
622.957	0.0171359
623.035	0.0170650
623.113	0.0171396
623.192	0.0172048
623.270	0.0170713
623.348	0.0169176
623.426	0.0170976
623.504	0.0171009
623.582	0.0171873
623.660	0.0170377
623.738	0.0171072
623.817	0.0171210
623.895	0.0171363
623.973	0.0172008
624.051	0.0171259
624.129	0.0170927
624.207	0.0171420
624.285	0.0171816
624.363	0.0171196
624.442	0.0170656
624.520	0.0170880
624.598	0.0171647
624.676	0.0170565
624.754	0.0171197
624.832	0.0170377
624.910	0.0170226
624.988	0.0171396
625.067	0.0170995
625.145	0.0170727
625.223	0.0170391
625.301	0.0170953
625.379	0.0171926
625.457	0.0171156
625.535	0.0170001
625.613	0.0170670
625.692	0.0170502
625.770	0.0170648
625.848	0.0170885
625.926	0.0171146
626.004	0.0170774
626.082	0.0171522
626.160	0.0170325
626.238	0.0170944
626.317	0.0170747
626.395	0.0171877
626.473	0.0170100
626.551	0.0170418
626.629	0.0172279
626.707	0.0171848
626.785	0.0170618
626.863	0.0171851
626.942	0.0169836
627.020	0.0171753
627.098	0.0172774
627.176	0.0170872
627.254	0.0170406
627.332	0.0171200
627.410	0.0171561
627.488	0.0170344
627.567	0.0170904
627.645	0.0170760
627.723	0.0170086
627.801	0.0171284
627.879	0.0171545
627.957	0.0171492
628.035	0.0171675
628.113	0.0171350
628.192	0.0172421
628.270	0.0172005
628.348	0.0168150
628.426	0.0170361
628.504	0.0172099
628.582	0.0172022
628.660	0.0171608
628.738	0.0171249
628.817	0.0169602
628.895	0.0171582
628.973	0.0171827
629.051	0.0169390
629.129	0.0170350
629.207	0.0171626
629.285	0.0170803
629.363	0.0169186
629.442	0.0171016
629.520	0.0170869
629.598	0.0170536
629.676	0.0171664
629.754	0.0170821
629.832	0.0170876
629.910	0.0170792
629.988	0.0170827
630.067	0.0170293
630.145	0.0170598
630.223	0.0169022
630.301	0.0171116
630.379	0.0171786
630.457	0.0171955
630.535	0.0170615
630.613	0.0171394
630.692	0.0170951
630.770	0.0171429
630.848	0.0169929
630.926	0.0171049
631.004	0.0170747
631.082	0.0171037
631.160	0.0170884
631.238	0.0170773
631.317	0.0171185
631.395	0.0170251
631.473	0.0170818
631.551	0.0170084
631.629	0.0169910
631.707	0.0171456
631.785	0.0170784
631.863	0.0169524
631.942	0.0171281
632.020	0.0172017
632.098	0.0170307
632.176	0.0170750
632.254	0.0170063
632.332	0.0169488
632.410	0.0168975
632.488	0.0171573
632.567	0.0171262
632.645	0.0171777
632.723	0.0171966
632.801	0.0171083
632.879	0.0170718
632.957	0.0169986
633.035	0.0171233
633.113	0.0171012
633.192	0.0170565
633.270	0.0171386
633.348	0.0169919
633.426	0.0170839
633.504	0.0170772
633.582	0.0169655
633.660	0.0170670
633.738	0.0170301
633.817	0.0172285
633.895	0.0170586
633.973	0.0171491
634.051	0.0169238
634.129	0.0169846
634.207	0.0171300
634.285	0.0170174
634.363	0.0170770
634.442	0.0171194
634.520	0.0169967
634.598	0.0170823
634.676	0.0170882
634.754	0.0170027
634.832	0.0171583
634.910	0.0171323
634.988	0.0171491
635.067	0.0170003
635.145	0.0170689
635.223	0.0170486
635.301	0.0170670
635.379	0.0170249
635.457	0.0170956
635.535	0.0171074
635.613	0.0170628
635.692	0.0169936
635.770	0.0170125
635.848	0.0171400
635.926	0.0171556
636.004	0.0171172
636.082	0.0171849
636.160	0.0171205
636.238	0.0170993
636.317	0.0172229
636.395	0.0170655
636.473	0.0171651
636.551	0.0171852
636.629	0.0170416
636.707	0.0170203
636.785	0.0170776
636.863	0.0170290
636.942	0.0172134
637.020	0.0171553
637.098	0.0171281
637.176	0.0171219
637.254	0.0171027
637.332	0.0170795
637.410	0.0170936
637.488	0.0170339
637.567	0.0171055
637.645	0.0170805
637.723	0.0170396
637.801	0.0171713
637.879	0.0170312
637.957	0.0171498
638.035	0.0171482
638.113	0.0171066
638.192	0.0171099
638.270	0.0171722
638.348	0.0170884
638.426	0.0170409
638.504	0.0170796
638.582	0.0170706
638.660	0.0169385
638.738	0.0171642
638.817	0.0172213
638.895	0.0170973
638.973	0.0169701
639.051	0.0171611
639.129	0.0170690
639.207	0.0171392
639.285	0.0170137
639.363	0.0170747
639.442	0.0170654
639.520	0.0170587
639.598	0.0170489
639.676	0.0171450
639.754	0.0170759
639.832	0.0170672
639.910	0.0170200
639.988	0.0170630
640.067	0.0170723
640.145	0.0171222
640.223	0.0170135
640.301	0.0170754
640.379	0.0170381
640.457	0.0168279
640.535	0.0170322
640.613	0.0170823
640.692	0.0170281
640.770	0.0170535
640.848	0.0169669
640.926	0.0170578
641.004	0.0169221
641.082	0.0170435
641.160	0.0170204
641.238	0.0171333
641.317	0.0170466
641.395	0.0170582
641.473	0.0170831
641.551	0.0170210
641.629	0.0170174
641.707	0.0170352
641.785	0.0172051
641.863	0.0171312
641.942	0.0171111
642.020	0.0170425
642.098	0.0171124
642.176	0.0170399
642.254	0.0169859
642.332	0.0170410
642.410	0.0170919
642.488	0.0171613
642.567	0.0170605
642.645	0.0171210
642.723	0.0170323
642.801	0.0170347
642.879	0.0169994
642.957	0.0170061
643.035	0.0171218
643.113	0.0170614
643.192	0.0171149
643.270	0.0170615
643.348	0.0169180
643.426	0.0171817
643.504	0.0170969
643.582	0.0171130
643.660	0.0169891
643.738	0.0172339
643.817	0.0171078
643.895	0.0169540
643.973	0.0170407
644.051	0.0169499
644.129	0.0168941
644.207	0.0170596
644.285	0.0169256
644.363	0.0170356
644.442	0.0171324
644.520	0.0169994
644.598	0.0170316
644.676	0.0170706
644.754	0.0172100
644.832	0.0171091
644.910	0.0169761
644.988	0.0171039
645.067	0.0172083
645.145	0.0170641
645.223	0.0171022
645.301	0.0170921
645.379	0.0169623
645.457	0.0169889
645.535	0.0170977
645.613	0.0171155
645.692	0.0170734
645.770	0.0170981
645.848	0.0170194
645.926	0.0170986
646.004	0.0169118
646.082	0.0170795
646.160	0.0171465
646.238	0.0171394
646.317	0.0171367
646.395	0.0170547
646.473	0.0170350
646.551	0.0171101
646.629	0.0171039
646.707	0.0171150
646.785	0.0171642
646.863	0.0170618
646.942	0.0169598
647.020	0.0170632
647.098	0.0171301
647.176	0.0170842
647.254	0.0169372
647.332	0.0170414
647.410	0.0170442
647.488	0.0171198
647.567	0.0171851
647.645	0.0171125
647.723	0.0171651
647.801	0.0171098
647.879	0.0171394
647.957	0.0170955
648.035	0.0170151
648.113	0.0170373
648.192	0.0169731
648.270	0.0171809
648.348	0.0169468
648.426	0.0171252
648.504	0.0171542
648.582	0.0171848
648.660	0.0171110
648.738	0.0170753
648.817	0.0171101
648.895	0.0169922
648.973	0.0169332
649.051	0.0171256
649.129	0.0170867
649.207	0.0171311
649.285	0.0169662
649.363	0.0170979
649.442	0.0171025
649.520	0.0168658
649.598	0.0170680
649.676	0.0170934
649.754	0.0169015
649.832	0.0171010
649.910	0.0171152
649.988	0.0170580
650.067	0.0169899
650.145	0.0170952
650.223	0.0170945
650.301	0.0171200
650.379	0.0170654
650.457	0.0170248
650.535	0.0169810
650.613	0.0170523
650.692	0.0171374
650.770	0.0172160
650.848	0.0169928
650.926	0.0170256
651.004	0.0171309
651.082	0.0170947
651.160	0.0170934
651.238	0.0170132
651.317	0.0171188
651.395	0.0170990
651.473	0.0170698
651.551	0.0170773
651.629	0.0171555
651.707	0.0170679
651.785	0.0169635
651.863	0.0170731
651.942	0.0170475
652.020	0.0170254
652.098	0.0171420
652.176	0.0171362
652.254	0.0171906
652.332	0.0170539
652.410	0.0170344
652.488	0.0171867
652.567	0.0171786
652.645	0.0169959
652.723	0.0169853
652.801	0.0170354
652.879	0.0170985
652.957	0.0170061
653.035	0.0170352
653.113	0.0172550
653.192	0.0171035
653.270	0.0169981
653.348	0.0171333
653.426	0.0171372
653.504	0.0170105
653.582	0.0170849
653.660	0.0170023
653.738	0.0171145
653.817	0.0170774
653.895	0.0169466
653.973	0.0172252
654.051	0.0170612
654.129	0.0171527
654.207	0.0168636
654.285	0.0170035
654.363	0.0170547
654.442	0.0171861
654.520	0.0170567
654.598	0.0170555
654.676	0.0170415
654.754	0.0171088
654.832	0.0170375
654.910	0.0171292
654.988	0.0170366
655.067	0.0170387
655.145	0.0170438
655.223	0.0169568
655.301	0.0170694
655.379	0.0170436
655.457	0.0170900
655.535	0.0171003
655.613	0.0170899
655.692	0.0170950
655.770	0.0171021
655.848	0.0170202
655.926	0.0171659
656.004	0.0172134
656.082	0.0169962
656.160	0.0170749
656.238	0.0170506
656.317	0.0170621
656.395	0.0169555
656.473	0.0171132
656.551	0.0170699
656.629	0.0170840
656.707	0.0170679
656.785	0.0171213
656.863	0.0170471
656.942	0.0170553
657.020	0.0170430
657.098	0.0170490
657.176	0.0170397
657.254	0.0170166
657.332	0.0171232
657.410	0.0171234
657.488	0.0171736
657.567	0.0171352
657.645	0.0170447
657.723	0.0171027
657.801	0.0170597
657.879	0.0170712
657.957	0.0171183
658.035	0.0170557
658.113	0.0171080
658.192	0.0170684
658.270	0.0169408
658.348	0.0172051
658.426	0.0171790
658.504	0.0170130
658.582	0.0170354
658.660	0.0170429
658.738	0.0170599
658.817	0.0169832
658.895	0.0170793
658.973	0.0170461
659.051	0.0168978
659.129	0.0171527
659.207	0.0170969
659.285	0.0169917
659.363	0.0171715
659.442	0.0169768
659.520	0.0169852
659.598	0.0171252
659.676	0.0168300
659.754	0.0171872
659.832	0.0171703
659.910	0.0170368
659.988	0.0169730
660.067	0.0171729
660.145	0.0171631
660.223	0.0170563
660.301	0.0170176
660.379	0.0170461
660.457	0.0171771
660.535	0.0171758
660.613	0.0170501
660.692	0.0170683
660.770	0.0170764
660.848	0.0170315
660.926	0.0170364
661.004	0.0172058
661.082	0.0171188
661.160	0.0170257
661.238	0.0170961
661.317	0.0171587
661.395	0.0171020
661.473	0.0170702
661.551	0.0170747
661.629	0.0170182
661.707	0.0172223
661.785	0.0171375
661.863	0.0170863
661.942	0.0170890
662.020	0.0170249
662.098	0.0170829
662.176	0.0170755
662.254	0.0172157
662.332	0.0171400
662.410	0.0171368
662.488	0.0169392
662.567	0.0169594
662.645	0.0171724
662.723	0.0172712
662.801	0.0171896
662.879	0.0171500
662.957	0.0171844
663.035	0.0170909
663.113	0.0171094
663.192	0.0172449
663.270	0.0171423
663.348	0.0170822
663.426	0.0170686
663.504	0.0172714
663.582	0.0171700
663.660	0.0171365
663.738	0.0171189
663.817	0.0170441
663.895	0.0171132
663.973	0.0170688
664.051	0.0171272
664.129	0.0171573
664.207	0.0170797
664.285	0.0171075
664.363	0.0170197
664.442	0.0171400
664.520	0.0171586
664.598	0.0170737
664.676	0.0171708
664.754	0.0172102
664.832	0.0170957
664.910	0.0172018
664.988	0.0171232
665.067	0.0171474
665.145	0.0171736
665.223	0.0171743
665.301	0.0171063
665.379	0.0170467
665.457	0.0171762
665.535	0.0171617
665.613	0.0170923
665.692	0.0170805
665.770	0.0171279
665.848	0.0171992
665.926	0.0172757
666.004	0.0171759
666.082	0.0171432
666.160	0.0171790
666.238	0.0171938
666.317	0.0172212
666.395	0.0171545
666.473	0.0171122
666.551	0.0171979
666.629	0.0171861
666.707	0.0171766
666.785	0.0170873
666.863	0.0170907
666.942	0.0173028
667.020	0.0169305
667.098	0.0169667
667.176	0.0171406
667.254	0.0170930
667.332	0.0171114
667.410	0.0172592
667.488	0.0170734
667.567	0.0171980
667.645	0.0169566
667.723	0.0170878
667.801	0.0172004
667.879	0.0171799
667.957	0.0170813
668.035	0.0169983
668.113	0.0170552
668.192	0.0171033
668.270	0.0170473
668.348	0.0171767
668.426	0.0170162
668.504	0.0170370
668.582	0.0171032
668.660	0.0170319
668.738	0.0171368
668.817	0.0169703
668.895	0.0171617
668.973	0.0171574
669.051	0.0170941
669.129	0.0171419
669.207	0.0171971
669.285	0.0171248
669.363	0.0169873
669.442	0.0171796
669.520	0.0171209
669.598	0.0170930
669.676	0.0170664
669.754	0.0171067
669.832	0.0170728
669.910	0.0171064
669.988	0.0170387
670.067	0.0170595
670.145	0.0171233
670.223	0.0169776
670.301	0.0170187
670.379	0.0170991
670.457	0.0170065
670.535	0.0170260
670.613	0.0169172
670.692	0.0170797
670.770	0.0171154
670.848	0.0169632
670.926	0.0169512
671.004	0.0170307
671.082	0.0170203
671.160	0.0170718
671.238	0.0169777
671.317	0.0169549
671.395	0.0169704
671.473	0.0169700
671.551	0.0171423
671.629	0.0171400
671.707	0.0171261
671.785	0.0169518
671.863	0.0170521
671.942	0.0169669
672.020	0.0170925
672.098	0.0171021
672.176	0.0171080
672.254	0.0170380
672.332	0.0171297
672.410	0.0169446
672.488	0.0169481
672.567	0.0171606
672.645	0.0170328
672.723	0.0170692
672.801	0.0169792
672.879	0.0169909
672.957	0.0171009
673.035	0.0170291
673.113	0.0170238
673.192	0.0169489
673.270	0.0169340
673.348	0.0171078
673.426	0.0170781
673.504	0.0170429
673.582	0.0172803
673.660	0.0171216
673.738	0.0171150
673.817	0.0171442
673.895	0.0171311
673.973	0.0170685
674.051	0.0170764
674.129	0.0171485
674.207	0.0171339
674.285	0.0170028
674.363	0.0171288
674.442	0.0170622
674.520	0.0171549
674.598	0.0171936
674.676	0.0172009
674.754	0.0171718
674.832	0.0172316
674.910	0.0171146
674.988	0.0172060
675.067	0.0171493
675.145	0.0171735
675.223	0.0170756
675.301	0.0171588
675.379	0.0170350
675.457	0.0171185
675.535	0.0170696
675.613	0.0171032
675.692	0.0171893
675.770	0.0169882
675.848	0.0169778
675.926	0.0172255
676.004	0.0171130
676.082	0.0171111
676.160	0.0171608
676.238	0.0171698
676.317	0.0171044
676.395	0.0170357
676.473	0.0170987
676.551	0.0170908
676.629	0.0170828
676.707	0.0170468
676.785	0.0172706
676.863	0.0170052
676.942	0.0170351
677.020	0.0171213
677.098	0.0171341
677.176	0.0170558
677.254	0.0171809
677.332	0.0171082
677.410	0.0171983
677.488	0.0171271
677.567	0.0171387
677.645	0.0170004
677.723	0.0170369
677.801	0.0170978
677.879	0.0171712
677.957	0.0171017
678.035	0.0169065
678.113	0.0169980
678.192	0.0170921
678.270	0.0170461
678.348	0.0170630
678.426	0.0169770
678.504	0.0170217
678.582	0.0169819
678.660	0.0169870
678.738	0.0169281
678.817	0.0169421
678.895	0.0169740
678.973	0.0171005
679.051	0.0170844
679.129	0.0170059
679.207	0.0170953
679.285	0.0170157
679.363	0.0170137
679.442	0.0171268
679.520	0.0170078
679.598	0.0170448
679.676	0.0171917
679.754	0.0171876
679.832	0.0170670
679.910	0.0171929
679.988	0.0174562
680.067	0.0173086
680.145	0.0173056
680.223	0.0172218
680.301	0.0171863
680.379	0.0173674
680.457	0.0173360
680.535	0.0173778
680.613	0.0172278
680.692	0.0173866
680.770	0.0173829
680.848	0.0174937
680.926	0.0172663
681.004	0.0171253
681.082	0.0172784
681.160	0.0173447
681.238	0.0172478
681.317	0.0171480
681.395	0.0173329
681.473	0.0172174
681.551	0.0171720
681.629	0.0172773
681.707	0.0173283
681.785	0.0171002
681.863	0.0172353
681.942	0.0170257
682.020	0.0168265
682.098	0.0166829
682.176	0.0164532
682.254	0.0161616
682.332	0.0159663
682.410	0.0155961
682.488	0.0152719
682.567	0.0150892
682.645	0.0149918
682.723	0.0148766
682.801	0.0148616
682.879	0.0151552
682.957	0.0153588
683.035	0.0158723
683.113	0.0165277
683.192	0.0171906
683.270	0.0180949
683.348	0.0188874
683.426	0.0196864
683.504	0.0206834
683.582	0.0213782
683.660	0.0218903
683.738	0.0222726
683.817	0.0223607
683.895	0.0222770
683.973	0.0217093
684.051	0.0210134
684.129	0.0199879
684.207	0.0188139
684.285	0.0176061
684.363	0.0164974
684.442	0.0153212
684.520	0.0141921
684.598	0.0136036
684.676	0.0128808
684.754	0.0124693
684.832	0.0121063
684.910	0.0121340
684.988	0.0119595
685.067	0.0120798
685.145	0.0122768
685.223	0.0123408
685.301	0.0125095
685.379	0.0127789
685.457	0.0134724
685.535	0.0142001
685.613	0.0151293
685.692	0.0162995
685.770	0.0178851
685.848	0.0196350
685.926	0.0214716
686.004	0.0232600
686.082	0.0251025
686.160	0.0264377
686.238	0.0274459
686.317	0.0280173
686.395	0.0277219
686.473	0.0268806
686.551	0.0257596
686.629	0.0240096
686.707	0.0218031
686.785	0.0192640
686.863	0.0168730
686.942	0.0142130
687.020	0.0118304
687.098	0.00973793
687.176	0.00814041
687.254	0.00672508
687.332	0.00570366
687.410	0.00516220
687.488	0.00501556
687.567	0.00519722
687.645	0.00564117
687.723	0.00667229
687.801	0.00766212
687.879	0.00900070
687.957	0.0103419
688.035	0.0119792
688.113	0.0138270
688.192	0.0155770
688.270	0.0177709
688.348	0.0200439
688.426	0.0221671
688.504	0.0245232
688.582	0.0269330
688.660	0.0290443
688.738	0.0309607
688.817	0.0329332
688.895	0.0342195
688.973	0.0350779
689.051	0.0354729
689.129	0.0352395
689.207	0.0342880
689.285	0.0328312
689.363	0.0306074
689.442	0.0277502
689.520	0.0246990
689.598	0.0211681
689.676	0.0173988
689.754	0.0135215
689.832	0.00978851
689.910	0.00644310
689.988	0.00322502
690.067	0.000673981
690.145	-0.00141739
690.223	-0.00285416
690.301	-0.00364113
690.379	-0.00398460
690.457	-0.00393402
690.535	-0.00308723
690.613	-0.00185127
690.692	-0.000163727
690.770	0.00161705
690.848	0.00396530
690.926	0.00635483
691.004	0.00916466
691.082	0.0119339
691.160	0.0148683
691.238	0.0179926
691.317	0.0211374
691.395	0.0242128
691.473	0.0272980
691.551	0.0301155
691.629	0.0326689
691.707	0.0349928
691.785	0.0368687
691.863	0.0380505
691.942	0.0387994
692.020	0.0386136
692.098	0.0379772
692.176	0.0369034
692.254	0.0349302
692.332	0.0325150
692.410	0.0295950
692.488	0.0266892
692.567	0.0234901
692.645	0.0202294
692.723	0.0171138
692.801	0.0143802
692.879	0.0117461
692.957	0.00959465
693.035	0.00767075
693.113	0.00637039
693.192	0.00553177
693.270	0.00484421
693.348	0.00449150
693.426	0.00438721
693.504	0.00459488
693.582	0.00483940
693.660	0.00513046
693.738	0.00594147
693.817	0.00653297
693.895	0.00750961
693.973	0.00838463
694.051	0.00964333
694.129	0.0107216
694.207	0.0121120
694.285	0.0134697
694.363	0.0148236
694.442	0.0162122
694.520	0.0176997
694.598	0.0191354
694.676	0.0204191
694.754	0.0217074
694.832	0.0224395
694.910	0.0232158
694.988	0.0237305
695.067	0.0242085
695.145	0.0242469
695.223	0.0239775
695.301	0.0237666
695.379	0.0233420
695.457	0.0226259
695.535	0.0219962
695.613	0.0210909
695.692	0.0202308
695.770	0.0194312
695.848	0.0186964
695.926	0.0180994
696.004	0.0175634
696.082	0.0171911
696.160	0.0168996
696.238	0.0165353
696.317	0.0163624
696.395	0.0163786
696.473	0.0162733
696.551	0.0163183
696.629	0.0163322
696.707	0.0165068
696.785	0.0165577
696.863	0.0165513
696.942	0.0168461
697.020	0.0169886
697.098	0.0169947
697.176	0.0172490
697.254	0.0173484
697.332	0.0174892
697.410	0.0173605
697.488	0.0177179
697.567	0.0178500
697.645	0.0177988
697.723	0.0179091
697.801	0.0179246
697.879	0.0179375
697.957	0.0178342
698.035	0.0174512
698.113	0.0170966
698.192	0.0166825
698.270	0.0162128
698.348	0.0156776
698.426	0.0149773
698.504	0.0145528
698.582	0.0140043
698.660	0.0135909
698.738	0.0132659
698.817	0.0131770
698.895	0.0132226
698.973	0.0133620
699.051	0.0137857
699.129	0.0141603
699.207	0.0149049
699.285	0.0155363
699.363	0.0162133
699.442	0.0168007
699.520	0.0175246
699.598	0.0180813
699.676	0.0187309
699.754	0.0191322
699.832	0.0195006
699.910	0.0197461
699.988	0.0198022
700.067	0.0198160
700.145	0.0198541
700.223	0.0195904
700.301	0.0191244
700.379	0.0189031
700.457	0.0187719
700.535	0.0183464
700.613	0.0179176
700.692	0.0175788
700.770	0.0176221
700.848	0.0175625
700.926	0.0175996
701.004	0.0174729
701.082	0.0175047
701.160	0.0178236
701.238	0.0178153
701.317	0.0177557
701.395	0.0178972
701.473	0.0178714
701.551	0.0177428
701.629	0.0177212
701.707	0.0175574
701.785	0.0175509
701.863	0.0172862
701.942	0.0173031
702.020	0.0171801
702.098	0.0170528
702.176	0.0168925
702.254	0.0168064
702.332	0.0168212
702.410	0.0172252
702.488	0.0170435
702.567	0.0172291
702.645	0.0172491
702.723	0.0172793
702.801	0.0174400
702.879	0.0175253
702.957	0.0172672
703.035	0.0171455
703.113	0.0169449
703.192	0.0165775
703.270	0.0165102
703.348	0.0161701
703.426	0.0157086
703.504	0.0155291
703.582	0.0151792
703.660	0.0150622
703.738	0.0150540
703.817	0.0151773
703.895	0.0152930
703.973	0.0153497
704.051	0.0154480
704.129	0.0156764
704.207	0.0157378
704.285	0.0159133
704.363	0.0160095
704.442	0.0163087
704.520	0.0165022
704.598	0.0166050
704.676	0.0168724
704.754	0.0170147
704.832	0.0173301
704.910	0.0173780
704.988	0.0176567
705.067	0.0180151
705.145	0.0181611
705.223	0.0182660
705.301	0.0183562
705.379	0.0183432
705.457	0.0184100
705.535	0.0183359
705.613	0.0181273
705.692	0.0179789
705.770	0.0177204
705.848	0.0174728
705.926	0.0173991
706.004	0.0170867
706.082	0.0171107
706.160	0.0172342
706.238	0.0173260
706.317	0.0174998
706.395	0.0177764
706.473	0.0180877
706.551	0.0183970
706.629	0.0187679
706.707	0.0188950
706.785	0.0190244
706.863	0.0193501
706.942	0.0192704
707.020	0.0191400
707.098	0.0192072
707.176	0.0189949
707.254	0.0186672
707.332	0.0181746
707.410	0.0178086
707.488	0.0172820
707.567	0.0169075
707.645	0.0165227
707.723	0.0161761
707.801	0.0157402
707.879	0.0155847
707.957	0.0154507
708.035	0.0151509
708.113	0.0149103
708.192	0.0150142
708.270	0.0149127
708.348	0.0149893
708.426	0.0149083
708.504	0.0150491
708.582	0.0148756
708.660	0.0151017
708.738	0.0152505
708.817	0.0154470
708.895	0.0154572
708.973	0.0155523
709.051	0.0157296
709.129	0.0159844
709.207	0.0163411
709.285	0.0164826
709.363	0.0167376
709.442	0.0171154
709.520	0.0174299
709.598	0.0177367
709.676	0.0178658
709.754	0.0179991
709.832	0.0179939
709.910	0.0181527
709.988	0.0181455
710.067	0.0180569
710.145	0.0179437
710.223	0.0177483
710.301	0.0175087
710.379	0.0173288
710.457	0.0171238
710.535	0.0170221
710.613	0.0167823
710.692	0.0168216
710.770	0.0169510
710.848	0.0170770
710.926	0.0170870
711.004	0.0173765
711.082	0.0177231
711.160	0.0179263
711.238	0.0181477
711.317	0.0183209
711.395	0.0186805
711.473	0.0187392
711.551	0.0187980
711.629	0.0188374
711.707	0.0187652
711.785	0.0186324
711.863	0.0183828
711.942	0.0183126
712.020	0.0180081
712.098	0.0178486
712.176	0.0176195
712.254	0.0175251
712.332	0.0174423
712.410	0.0173019
712.488	0.0173890
712.567	0.0171110
712.645	0.0171329
712.723	0.0169710
712.801	0.0168738
712.879	0.0167799
712.957	0.0163981
713.035	0.0163904
713.113	0.0163332
713.192	0.0161285
713.270	0.0158983
713.348	0.0158656
713.426	0.0157498
713.504	0.0157011
713.582	0.0156793
713.660	0.0155415
713.738	0.0155485
713.817	0.0156207
713.895	0.0158148
713.973	0.0158980
714.051	0.0159940
714.129	0.0164504
714.207	0.0166260
714.285	0.0165656
714.363	0.0167187
714.442	0.0169523
714.520	0.0172562
714.598	0.0172894
714.676	0.0172983
714.754	0.0174045
714.832	0.0172973
714.910	0.0173209
714.988	0.0171452
715.067	0.0171168
715.145	0.0170184
715.223	0.0170068
715.301	0.0170224
715.379	0.0170152
715.457	0.0172330
715.535	0.0172852
715.613	0.0172071
715.692	0.0174503
715.770	0.0176476
715.848	0.0178024
715.926	0.0176746
716.004	0.0179239
716.082	0.0178638
716.160	0.0177985
716.238	0.0179434
716.317	0.0179372
716.395	0.0178892
716.473	0.0176386
716.551	0.0176888
716.629	0.0175196
716.707	0.0175476
716.785	0.0173473
716.863	0.0173540
716.942	0.0173868
717.020	0.0174747
717.098	0.0176788
717.176	0.0177068
717.254	0.0176656
717.332	0.0177183
717.410	0.0177036
717.488	0.0178763
717.567	0.0178022
717.645	0.0179446
717.723	0.0178298
717.801	0.0176485
717.879	0.0175146
717.957	0.0171276
718.035	0.0169992
718.113	0.0166660
718.192	0.0163561
718.270	0.0162443
718.348	0.0159395
718.426	0.0157638
718.504	0.0156761
718.582	0.0156707
718.660	0.0159663
718.738	0.0161132
718.817	0.0162447
718.895	0.0165653
718.973	0.0168066
719.051	0.0170262
719.129	0.0172385
719.207	0.0175310
719.285	0.0175802
719.363	0.0175811
719.442	0.0176119
719.520	0.0175774
719.598	0.0174197
719.676	0.0173012
719.754	0.0171797
719.832	0.0169849
719.910	0.0168488
719.988	0.0168677
720.067	0.0168830
720.145	0.0168629
720.223	0.0168227
720.301	0.0167570
720.379	0.0169097
720.457	0.0167899
720.535	0.0167649
720.613	0.0167724
720.692	0.0167273
720.770	0.0164725
720.848	0.0166048
720.926	0.0165190
721.004	0.0165179
721.082	0.0163921
721.160	0.0164404
721.238	0.0165152
721.317	0.0166329
721.395	0.0167421
721.473	0.0170000
721.551	0.0171079
721.629	0.0172855
721.707	0.0175712
721.785	0.0179292
721.863	0.0180228
721.942	0.0182216
722.020	0.0182968
722.098	0.0183543
722.176	0.0184016
722.254	0.0184875
722.332	0.0184438
722.410	0.0182108
722.488	0.0182607
722.567	0.0179762
722.645	0.0178561
722.723	0.0176610
722.801	0.0176065
722.879	0.0174089
722.957	0.0173666
723.035	0.0171886
723.113	0.0170316
723.192	0.0170659
723.270	0.0168647
723.348	0.0169955
723.426	0.0170238
723.504	0.0168539
723.582	0.0168735
723.660	0.0169680
723.738	0.0169801
723.817	0.0170002
723.895	0.0171223
723.973	0.0169593
724.051	0.0169537
724.129	0.0170106
724.207	0.0168537
724.285	0.0168294
724.363	0.0167364
724.442	0.0167354
724.520	0.0165608
724.598	0.0166305
724.676	0.0164722
724.754	0.0164645
724.832	0.0164974
724.910	0.0163721
724.988	0.0166035
725.067	0.0166566
725.145	0.0165671
725.223	0.0168051
725.301	0.0169522
725.379	0.0170672
725.457	0.0171508
725.535	0.0171812
725.613	0.0171551
725.692	0.0172108
725.770	0.0172614
725.848	0.0170705
725.926	0.0170263
726.004	0.0169280
726.082	0.0169250
726.160	0.0168363
726.238	0.0167547
726.317	0.0167082
726.395	0.0167537
726.473	0.0167016
726.551	0.0168027
726.629	0.0167657
726.707	0.0170477
726.785	0.0170806
726.863	0.0172272
726.942	0.0171106
727.020	0.0172365
727.098	0.0174542
727.176	0.0176702
727.254	0.0175902
727.332	0.0177049
727.410	0.0177020
727.488	0.0178522
727.567	0.0180289
727.645	0.0179375
727.723	0.0179237
727.801	0.0179388
727.879	0.0180771
727.957	0.0180070
728.035	0.0179939
728.113	0.0179629
728.192	0.0177644
728.270	0.0176902
728.348	0.0175244
728.426	0.0175110
728.504	0.0172675
728.582	0.0172871
728.660	0.0170243
728.738	0.0167672
728.817	0.0167054
728.895	0.0165690
728.973	0.0164374
729.051	0.0163332
729.129	0.0162540
729.207	0.0161314
729.285	0.0159217
729.363	0.0160857
729.442	0.0161922
729.520	0.0162965
729.598	0.0164297
729.676	0.0166367
729.754	0.0168067
729.832	0.0169635
729.910	0.0171331
729.988	0.0173620
730.067	0.0174928
730.145	0.0176190
730.223	0.0177208
730.301	0.0177478
730.379	0.0177342
730.457	0.0177831
730.535	0.0177704
730.613	0.0177081
730.692	0.0174403
730.770	0.0172868
730.848	0.0171703
730.926	0.0169334
731.004	0.0167296
731.082	0.0166594
731.160	0.0164672
731.238	0.0162045
731.317	0.0161134
731.395	0.0163657
731.473	0.0160725
731.551	0.0162904
731.629	0.0162799
731.707	0.0162917
731.785	0.0163876
731.863	0.0165939
731.942	0.0166753
732.020	0.0167744
732.098	0.0170806
732.176	0.0171539
732.254	0.0171357
732.332	0.0173290
732.410	0.0175735
732.488	0.0178470
732.567	0.0176576
732.645	0.0177743
732.723	0.0180087
732.801	0.0179795
732.879	0.0178987
732.957	0.0180867
733.035	0.0179492
733.113	0.0180869
733.192	0.0179790
733.270	0.0178927
733.348	0.0176678
733.426	0.0176324
733.504	0.0175016
733.582	0.0174452
733.660	0.0171722
733.738	0.0171201
733.817	0.0170847
733.895	0.0168268
733.973	0.0165607
734.051	0.0167033
734.129	0.0165411
734.207	0.0164216
734.285	0.0162920
734.363	0.0165710
734.442	0.0162489
734.520	0.0163444
734.598	0.0165145
734.676	0.0166472
734.754	0.0166618
734.832	0.0167976
734.910	0.0169443
734.988	0.0170593
735.067	0.0170036
735.145	0.0169904
735.223	0.0171606
735.301	0.0171759
735.379	0.0171190
735.457	0.0170782
735.535	0.0171055
735.613	0.0171691
735.692	0.0171401
735.770	0.0172008
735.848	0.0169893
735.926	0.0170100
736.004	0.0169868
736.082	0.0170631
736.160	0.0170364
736.238	0.0169656
736.317	0.0169016
736.395	0.0168534
736.473	0.0169003
736.551	0.0169696
736.629	0.0170702
736.707	0.0169300
736.785	0.0169070
736.863	0.0169129
736.942	0.0168590
737.020	0.0168471
737.098	0.0169025
737.176	0.0168806
737.254	0.0168312
737.332	0.0168509
737.410	0.0170734
737.488	0.0169610
737.567	0.0171025
737.645	0.0171628
737.723	0.0172633
737.801	0.0172160
737.879	0.0175224
737.957	0.0175398
738.035	0.0174755
738.113	0.0174461
738.192	0.0175827
738.270	0.0175826
738.348	0.0175332
738.426	0.0175916
738.504	0.0175745
738.582	0.0174942
738.660	0.0174152
738.738	0.0173998
738.817	0.0172079
738.895	0.0173416
738.973	0.0171144
739.051	0.0171246
739.129	0.0171114
739.207	0.0169329
739.285	0.0169363
739.363	0.0169798
739.442	0.0167820
739.520	0.0167175
739.598	0.0167653
739.676	0.0165203
739.754	0.0166186
739.832	0.0166389
739.910	0.0164934
739.988	0.0166278
740.067	0.0167394
740.145	0.0166189
740.223	0.0167840
740.301	0.0168868
740.379	0.0171058
740.457	0.0171517
740.535	0.0172357
740.613	0.0172364
740.692	0.0175983
740.770	0.0176643
740.848	0.0176183
740.926	0.0175609
741.004	0.0177435
741.082	0.0175894
741.160	0.0174741
741.238	0.0174615
741.317	0.0172672
741.395	0.0171496
741.473	0.0171403
741.551	0.0170977
741.629	0.0169247
741.707	0.0168973
741.785	0.0166891
741.863	0.0168436
741.942	0.0164945
742.020	0.0165436
742.098	0.0167062
742.176	0.0166658
742.254	0.0167215
742.332	0.0167560
742.410	0.0167865
742.488	0.0169009
742.567	0.0171414
742.645	0.0172194
742.723	0.0171455
742.801	0.0172304
742.879	0.0173726
742.957	0.0174995
743.035	0.0176033
743.113	0.0175034
743.192	0.0173865
743.270	0.0175086
743.348	0.0175020
743.426	0.0175494
743.504	0.0175802
743.582	0.0174555
743.660	0.0173694
743.738	0.0173903
743.817	0.0173054
743.895	0.0171452
743.973	0.0172144
744.051	0.0170728
744.129	0.0171422
744.207	0.0172022
744.285	0.0170265
744.363	0.0170245
744.442	0.0168383
744.520	0.0168103
744.598	0.0167516
744.676	0.0167030
744.754	0.0165497
744.832	0.0167258
744.910	0.0168813
744.988	0.0166570
745.067	0.0166586
745.145	0.0167824
745.223	0.0169233
745.301	0.0170161
745.379	0.0172141
745.457	0.0174165
745.535	0.0174413
745.613	0.0175884
745.692	0.0175801
745.770	0.0176192
745.848	0.0177200
745.926	0.0176600
746.004	0.0175444
746.082	0.0174536
746.160	0.0175710
746.238	0.0174643
746.317	0.0172091
746.395	0.0173384
746.473	0.0171259
746.551	0.0171118
746.629	0.0168971
746.707	0.0167850
746.785	0.0169179
746.863	0.0167686
746.942	0.0167835
747.020	0.0168044
747.098	0.0167780
747.176	0.0167705
747.254	0.0168551
747.332	0.0167847
747.410	0.0169308
747.488	0.0169226
747.567	0.0168933
747.645	0.0167830
747.723	0.0169147
747.801	0.0168124
747.879	0.0169135
747.957	0.0169218
748.035	0.0169415
748.113	0.0170070
748.192	0.0170427
748.270	0.0170021
748.348	0.0171649
748.426	0.0172336
748.504	0.0170604
748.582	0.0173060
748.660	0.0171591
748.738	0.0173326
748.817	0.0175200
748.895	0.0173959
748.973	0.0174280
749.051	0.0174338
749.129	0.0173980
749.207	0.0174061
749.285	0.0172841
749.363	0.0173335
749.442	0.0173314
749.520	0.0171729
749.598	0.0169933
749.676	0.0169366
749.754	0.0168046
749.832	0.0166969
749.910	0.0167611
749.988	0.0167119
750.067	0.0167020
750.145	0.0166949
750.223	0.0167835
750.301	0.0168681
750.379	0.0168513
750.457	0.0170487
750.535	0.0170723
750.613	0.0172043
750.692	0.0172497
750.770	0.0172933
750.848	0.0173917
750.926	0.0173444
751.004	0.0174173
751.082	0.0174584
751.160	0.0175450
751.238	0.0175642
751.317	0.0172925
751.395	0.0174417
751.473	0.0174841
751.551	0.0173977
751.629	0.0173409
751.707	0.0173726
751.785	0.0173083
751.863	0.0173709
751.942	0.0173410
752.020	0.0170943
752.098	0.0173469
752.176	0.0174015
752.254	0.0173711
752.332	0.0173643
752.410	0.0173107
752.488	0.0173403
752.567	0.0172824
752.645	0.0173295
752.723	0.0171844
752.801	0.0172358
752.879	0.0170610
752.957	0.0169802
753.035	0.0168498
753.113	0.0167999
753.192	0.0168942
753.270	0.0169508
753.348	0.0167538
753.426	0.0167141
753.504	0.0168233
753.582	0.0168788
753.660	0.0168446
753.738	0.0166676
753.817	0.0167717
753.895	0.0166980
753.973	0.0167284
754.051	0.0166763
754.129	0.0168448
754.207	0.0167407
754.285	0.0168701
754.363	0.0166874
754.442	0.0166837
754.520	0.0167251
754.598	0.0168939
754.676	0.0168727
754.754	0.0167716
754.832	0.0168541
754.910	0.0169847
754.988	0.0168158
755.067	0.0167807
755.145	0.0168223
755.223	0.0168383
755.301	0.0169317
755.379	0.0167765
755.457	0.0168513
755.535	0.0169934
755.613	0.0168902
755.692	0.0170168
755.770	0.0171246
755.848	0.0173111
755.926	0.0172614
756.004	0.0172662
756.082	0.0173674
756.160	0.0174644
756.238	0.0175822
756.317	0.0174435
756.395	0.0175536
756.473	0.0176797
756.551	0.0177821
756.629	0.0176669
756.707	0.0175931
756.785	0.0178534
756.863	0.0177277
756.942	0.0176521
757.020	0.0175320
757.098	0.0175420
757.176	0.0174348
757.254	0.0175636
757.332	0.0174906
757.410	0.0174489
757.488	0.0174149
757.567	0.0174062
757.645	0.0173122
757.723	0.0172578
757.801	0.0170564
757.879	0.0170737
757.957	0.0170369
758.035	0.0170728
758.113	0.0168887
758.192	0.0167168
758.270	0.0167735
758.348	0.0166405
758.426	0.0166040
758.504	0.0166941
758.582	0.0166486
758.660	0.0165647
758.738	0.0163515
758.817	0.0165773
758.895	0.0166147
758.973	0.0166348
759.051	0.0165865
759.129	0.0165923
759.207	0.0167783
759.285	0.0167999
759.363	0.0166708
759.442	0.0168851
759.520	0.0169398
759.598	0.0169530
759.676	0.0170376
759.754	0.0169795
759.832	0.0170914
759.910	0.0171631
759.988	0.0171364
760.067	0.0170808
760.145	0.0171345
760.223	0.0171732
760.301	0.0171977
760.379	0.0170473
760.457	0.0170234
760.535	0.0170918
760.613	0.0169427
760.692	0.0169807
760.770	0.0169764
760.848	0.0169761
760.926	0.0169276
761.004	0.0170058
761.082	0.0169221
761.160	0.0169753
761.238	0.0170979
761.317	0.0171081
761.395	0.0170956
761.473	0.0172673
761.551	0.0172800
761.629	0.0174068
761.707	0.0174689
761.785	0.0175986
761.863	0.0174452
761.942	0.0175709
762.020	0.0176022
762.098	0.0175706
762.176	0.0175335
762.254	0.0173978
762.332	0.0173922
762.410	0.0174696
762.488	0.0173498
762.567	0.0172987
762.645	0.0173399
762.723	0.0173814
762.801	0.0172929
762.879	0.0172014
762.957	0.0171423
763.035	0.0170879
763.113	0.0172559
763.192	0.0171031
763.270	0.0170358
763.348	0.0170683
763.426	0.0170881
763.504	0.0169611
763.582	0.0168739
763.660	0.0168353
763.738	0.0169988
763.817	0.0168745
763.895	0.0170462
763.973	0.0168915
764.051	0.0168028
764.129	0.0169034
764.207	0.0169975
764.285	0.0169524
764.363	0.0169397
764.442	0.0170522
764.520	0.0170966
764.598	0.0170805
764.676	0.0170302
764.754	0.0172034
764.832	0.0171874
764.910	0.0171041
764.988	0.0170843
765.067	0.0172575
765.145	0.0173512
765.223	0.0172356
765.301	0.0174458
765.379	0.0172751
765.457	0.0172039
765.535	0.0173225
765.613	0.0170711
765.692	0.0170911
765.770	0.0169542
765.848	0.0168147
765.926	0.0166380
766.004	0.0166514
766.082	0.0166217
766.160	0.0165314
766.238	0.0165099
766.317	0.0166920
766.395	0.0166352
766.473	0.0166481
766.551	0.0166978
766.629	0.0169296
766.707	0.0169386
766.785	0.0168721
766.863	0.0169653
766.942	0.0170437
767.020	0.0170216
767.098	0.0171506
767.176	0.0172961
767.254	0.0172903
767.332	0.0173231
767.410	0.0174191
767.488	0.0173565
767.567	0.0175574
767.645	0.0175667
767.723	0.0174750
767.801	0.0174719
767.879	0.0175352
767.957	0.0176942
768.035	0.0176219
768.113	0.0176721
768.192	0.0175703
768.270	0.0175399
768.348	0.0174757
768.426	0.0175258
768.504	0.0174526
768.582	0.0173482
768.660	0.0172266
768.738	0.0172221
768.817	0.0171515
768.895	0.0170866
768.973	0.0170615
769.051	0.0170142
769.129	0.0168743
769.207	0.0168987
769.285	0.0168680
769.363	0.0166515
769.442	0.0167897
769.520	0.0168875
769.598	0.0168024
769.676	0.0167722
769.754	0.0167462
769.832	0.0168218
769.910	0.0167641
769.988	0.0169272
770.067	0.0168679
770.145	0.0168445
770.223	0.0168990
770.301	0.0170072
770.379	0.0171262
770.457	0.0169588
770.535	0.0170808
770.613	0.0170620
770.692	0.0170417
770.770	0.0171809
770.848	0.0171841
770.926	0.0170828
771.004	0.0172936
771.082	0.0173246
771.160	0.0171894
771.238	0.0172820
771.317	0.0172303
771.395	0.0172600
771.473	0.0171619
771.551	0.0170914
771.629	0.0172073
771.707	0.0171652
771.785	0.0170139
771.863	0.0170772
771.942	0.0171812
772.020	0.0170165
772.098	0.0170223
772.176	0.0171078
772.254	0.0171713
772.332	0.0170017
772.410	0.0170724
772.488	0.0171417
772.567	0.0169861
772.645	0.0170409
772.723	0.0169734
772.801	0.0171200
772.879	0.0171386
772.957	0.0171154
773.035	0.0171655
773.113	0.0171068
773.192	0.0171864
773.270	0.0171327
773.348	0.0170570
773.426	0.0172223
773.504	0.0171725
773.582	0.0172115
773.660	0.0171223
773.738	0.0171223
773.817	0.0171135
773.895	0.0172041
773.973	0.0172216
774.051	0.0171982
774.129	0.0171877
774.207	0.0171007
774.285	0.0171886
774.363	0.0172403
774.442	0.0172650
774.520	0.0171025
774.598	0.0170375
774.676	0.0171044
774.754	0.0172485
774.832	0.0170822
774.910	0.0169971
774.988	0.0168842
775.067	0.0170763
775.145	0.0169663
775.223	0.0170124
775.301	0.0169601
775.379	0.0169157
775.457	0.0169465
775.535	0.0168534
775.613	0.0169248
775.692	0.0169792
775.770	0.0168896
775.848	0.0169550
775.926	0.0168899
776.004	0.0169567
776.082	0.0170130
776.160	0.0170906
776.238	0.0170460
776.317	0.0169894
776.395	0.0170787
776.473	0.0170906
776.551	0.0170170
776.629	0.0172510
776.707	0.0171606
776.785	0.0171909
776.863	0.0171662
776.942	0.0171700
777.020	0.0171823
777.098	0.0172182
777.176	0.0171053
777.254	0.0170801
777.332	0.0171886
777.410	0.0170298
777.488	0.0170921
777.567	0.0171132
777.645	0.0171156
777.723	0.0169995
777.801	0.0170155
777.879	0.0170058
777.957	0.0170041
778.035	0.0170394
778.113	0.0168714
778.192	0.0168863
778.270	0.0169408
778.348	0.0169483
778.426	0.0169370
778.504	0.0169661
778.582	0.0169779
778.660	0.0170432
778.738	0.0170007
778.817	0.0170771
778.895	0.0169633
778.973	0.0170439
779.051	0.0170718
779.129	0.0171820
779.207	0.0171842
779.285	0.0171495
779.363	0.0171570
779.442	0.0172483
779.520	0.0171397
779.598	0.0172338
779.676	0.0171623
779.754	0.0173037
779.832	0.0173498
779.910	0.0173432
779.988	0.0173667
780.067	0.0173136
780.145	0.0173306
780.223	0.0173940
780.301	0.0173344
780.379	0.0171665
780.457	0.0172727
780.535	0.0170747
780.613	0.0171044
780.692	0.0169117
780.770	0.0169704
780.848	0.0169538
780.926	0.0169964
781.004	0.0167459
781.082	0.0167381
781.160	0.0167654
781.238	0.0167371
781.317	0.0166995
781.395	0.0167773
781.473	0.0167180
781.551	0.0168491
781.629	0.0169417
781.707	0.0169108
781.785	0.0169845
781.863	0.0170287
781.942	0.0170388
782.020	0.0173558
782.098	0.0173688
782.176	0.0173388
782.254	0.0175056
782.332	0.0175443
782.410	0.0176929
782.488	0.0177338
782.567	0.0178848
782.645	0.0178505
782.723	0.0178509
782.801	0.0178088
782.879	0.0178310
782.957	0.0176777
783.035	0.0175343
783.113	0.0174665
783.192	0.0172180
783.270	0.0171404
783.348	0.0170346
783.426	0.0167728
783.504	0.0166390
783.582	0.0165746
783.660	0.0165990
783.738	0.0164665
783.817	0.0162389
783.895	0.0162407
783.973	0.0161816
784.051	0.0162609
784.129	0.0161343
784.207	0.0160901
784.285	0.0162059
784.363	0.0162969
784.442	0.0164449
784.520	0.0166294
784.598	0.0166766
784.676	0.0168736
784.754	0.0171149
784.832	0.0171078
784.910	0.0175653
784.988	0.0177366
785.067	0.0178615
785.145	0.0180662
785.223	0.0181474
785.301	0.0183920
785.379	0.0183927
785.457	0.0182851
785.535	0.0181937
785.613	0.0182549
785.692	0.0180497
785.770	0.0179280
785.848	0.0178632
785.926	0.0176962
786.004	0.0175646
786.082	0.0171856
786.160	0.0170168
786.238	0.0169933
786.317	0.0168272
786.395	0.0166512
786.473	0.0165796
786.551	0.0164922
786.629	0.0164164
786.707	0.0162291
786.785	0.0160892
786.863	0.0160285
786.942	0.0159864
787.020	0.0159971
787.098	0.0160190
787.176	0.0161015
787.254	0.0161494
787.332	0.0160606
787.410	0.0164542
787.488	0.0166275
787.567	0.0166615
787.645	0.0168060
787.723	0.0170562
787.801	0.0172701
787.879	0.0173282
787.957	0.0176619
788.035	0.0176691
788.113	0.0178274
788.192	0.0179424
788.270	0.0180398
788.348	0.0180951
788.426	0.0180860
788.504	0.0178914
788.582	0.0181681
788.660	0.0181179
788.738	0.0180382
788.817	0.0180796
788.895	0.0180573
788.973	0.0178418
789.051	0.0178398
789.129	0.0177885
789.207	0.0177321
789.285	0.0173556
789.363	0.0175056
789.442	0.0174804
789.520	0.0172420
789.598	0.0170889
789.676	0.0168873
789.754	0.0169534
789.832	0.0167229
789.910	0.0166334
789.988	0.0163184
790.067	0.0162892
790.145	0.0162828
790.223	0.0160938
790.301	0.0159995
790.379	0.0160217
790.457	0.0160355
790.535	0.0160215
790.613	0.0161198
790.692	0.0159714
790.770	0.0160758
790.848	0.0161312
790.926	0.0162159
791.004	0.0161633
791.082	0.0163065
791.160	0.0165361
791.238	0.0165048
791.317	0.0165784
791.395	0.0166438
791.473	0.0167492
791.551	0.0168221
791.629	0.0169683
791.707	0.0170324
791.785	0.0172204
791.863	0.0173397
791.942	0.0174599
792.020	0.0174741
792.098	0.0176386
792.176	0.0177842
792.254	0.0177961
792.332	0.0180519
792.410	0.0179729
792.488	0.0180404
792.567	0.0181039
792.645	0.0179990
792.723	0.0181377
792.801	0.0180635
792.879	0.0181203
792.957	0.0181426
793.035	0.0179892
793.113	0.0178645
793.192	0.0177701
793.270	0.0178173
793.348	0.0176910
793.426	0.0176962
793.504	0.0176402
793.582	0.0173930
793.660	0.0173177
793.738	0.0174472
793.817	0.0172292
793.895	0.0171294
793.973	0.0170229
794.051	0.0169483
794.129	0.0169410
794.207	0.0168262
794.285	0.0168329
794.363	0.0166891
794.442	0.0165622
794.520	0.0165963
794.598	0.0165231
794.676	0.0164657
794.754	0.0165691
794.832	0.0163966
794.910	0.0163998
794.988	0.0164532
795.067	0.0163471
795.145	0.0163704
795.223	0.0165450
795.301	0.0165877
795.379	0.0165704
795.457	0.0164446
795.535	0.0167677
795.613	0.0168626
795.692	0.0169981
795.770	0.0169449
795.848	0.0170558
795.926	0.0170891
796.004	0.0172218
796.082	0.0173295
796.160	0.0172479
796.238	0.0173623
796.317	0.0172404
796.395	0.0172797
796.473	0.0172343
796.551	0.0172150
796.629	0.0173115
796.707	0.0171590
796.785	0.0171240
796.863	0.0171364
796.942	0.0170803
797.020	0.0169585
797.098	0.0170328
797.176	0.0170208
797.254	0.0169679
797.332	0.0170235
797.410	0.0170460
797.488	0.0169931
797.567	0.0172145
797.645	0.0171566
797.723	0.0170121
797.801	0.0172406
797.879	0.0172096
797.957	0.0171738
798.035	0.0173986
798.113	0.0174504
798.192	0.0174002
798.270	0.0173457
798.348	0.0174354
798.426	0.0174496
798.504	0.0174701
798.582	0.0175734
798.660	0.0173520
798.738	0.0175956
798.817	0.0175009
798.895	0.0175175
798.973	0.0173000
799.051	0.0172877
799.129	0.0171621
799.207	0.0170361
799.285	0.0169501
799.363	0.0168523
799.442	0.0168784
799.520	0.0166726
799.598	0.0165057
799.676	0.0166345
799.754	0.0166811
799.832	0.0167049
799.910	0.0165489
799.988	0.0165574
800.067	0.0166260
800.145	0.0167227
800.223	0.0167406
800.301	0.0167304
800.379	0.0167638
800.457	0.0169039
800.535	0.0168977
800.613	0.0171831
800.692	0.0171423
800.770	0.0172377
800.848	0.0171361
800.926	0.0173756
801.004	0.0173898
801.082	0.0174530
801.160	0.0172622
801.238	0.0174010
801.317	0.0174750
801.395	0.0173489
801.473	0.0174350
801.551	0.0173631
801.629	0.0172392
801.707	0.0173888
801.785	0.0173505
801.863	0.0172139
801.942	0.0171925
802.020	0.0171969
802.098	0.0171718
802.176	0.0169911
802.254	0.0170348
802.332	0.0168877
802.410	0.0169142
802.488	0.0169852
802.567	0.0169550
802.645	0.0170722
802.723	0.0170455
802.801	0.0170691
802.879	0.0171023
802.957	0.0169652
803.035	0.0171674
803.113	0.0170412
803.192	0.0171895
803.270	0.0170786
803.348	0.0170877
803.426	0.0172066
803.504	0.0170077
803.582	0.0171835
803.660	0.0171291
803.738	0.0172108
803.817	0.0171416
803.895	0.0172784
803.973	0.0174138
804.051	0.0172330
804.129	0.0172392
804.207	0.0173158
804.285	0.0172626
804.363	0.0172166
804.442	0.0173422
804.520	0.0170117
804.598	0.0170491
804.676	0.0169407
804.754	0.0168562
804.832	0.0168553
804.910	0.0167109
804.988	0.0165886
805.067	0.0165820
805.145	0.0166261
805.223	0.0165907
805.301	0.0165150
805.379	0.0163862
805.457	0.0164906
805.535	0.0165537
805.613	0.0165509
805.692	0.0166386
805.770	0.0164638
805.848	0.0165936
805.926	0.0166012
806.004	0.0166904
806.082	0.0166187
806.160	0.0166417
806.238	0.0169313
806.317	0.0169140
806.395	0.0168269
806.473	0.0168800
806.551	0.0171246
806.629	0.0172490
806.707	0.0172460
806.785	0.0174371
806.863	0.0172749
806.942	0.0174928
807.020	0.0175322
807.098	0.0174728
807.176	0.0174302
807.254	0.0175073
807.332	0.0174789
807.410	0.0175070
807.488	0.0176183
807.567	0.0174028
807.645	0.0176568
807.723	0.0174421
807.801	0.0175296
807.879	0.0174117
807.957	0.0174412
808.035	0.0174285
808.113	0.0174785
808.192	0.0175112
808.270	0.0174378
808.348	0.0174040
808.426	0.0174352
808.504	0.0174024
808.582	0.0174072
808.660	0.0173919
808.738	0.0171008
808.817	0.0171737
808.895	0.0172192
808.973	0.0169781
809.051	0.0169633
809.129	0.0169933
809.207	0.0170002
809.285	0.0169200
809.363	0.0168565
809.442	0.0169315
809.520	0.0167494
809.598	0.0168659
809.676	0.0168597
809.754	0.0167993
809.832	0.0168153
809.910	0.0167671
809.988	0.0168925
810.067	0.0168739
810.145	0.0168204
810.223	0.0166761
810.301	0.0167844
810.379	0.0167645
810.457	0.0168216
810.535	0.0167072
810.613	0.0166467
810.692	0.0166980
810.770	0.0167407
810.848	0.0167576
810.926	0.0168312
811.004	0.0169320
811.082	0.0168355
811.160	0.0168230
811.238	0.0168851
811.317	0.0169190
811.395	0.0169345
811.473	0.0169159
811.551	0.0169901
811.629	0.0170524
811.707	0.0169975
811.785	0.0171220
811.863	0.0171678
811.942	0.0172566
812.020	0.0172320
812.098	0.0172424
812.176	0.0173762
812.254	0.0172397
812.332	0.0174349
812.410	0.0173875
812.488	0.0174500
812.567	0.0174709
812.645	0.0173686
812.723	0.0172824
812.801	0.0172576
812.879	0.0174020
812.957	0.0174714
813.035	0.0174883
813.113	0.0175124
813.192	0.0176102
813.270	0.0174996
813.348	0.0174773
813.426	0.0176170
813.504	0.0178036
813.582	0.0177129
813.660	0.0176377
813.738	0.0176596
813.817	0.0174593
813.895	0.0174043
813.973	0.0175160
814.051	0.0174286
814.129	0.0171555
814.207	0.0171320
814.285	0.0171236
814.363	0.0170650
814.442	0.0169971
814.520	0.0169839
814.598	0.0171018
814.676	0.0166560
814.754	0.0166720
814.832	0.0166875
814.910	0.0166457
814.988	0.0166295
815.067	0.0166829
815.145	0.0166722
815.223	0.0166659
815.301	0.0165887
815.379	0.0166023
815.457	0.0167307
815.535	0.0168504
815.613	0.0167827
815.692	0.0169741
815.770	0.0169239
815.848	0.0170219
815.926	0.0171342
816.004	0.0170753
816.082	0.0170448
816.160	0.0171262
816.238	0.0170692
816.317	0.0170446
816.395	0.0170628
816.473	0.0170946
816.551	0.0170724
816.629	0.0171958
816.707	0.0170249
816.785	0.0168485
816.863	0.0171147
816.942	0.0170502
817.020	0.0169558
817.098	0.0170449
817.176	0.0171473
817.254	0.0171185
817.332	0.0170727
817.410	0.0170316
817.488	0.0169502
817.567	0.0170266
817.645	0.0171286
817.723	0.0170929
817.801	0.0171844
817.879	0.0174207
817.957	0.0174801
818.035	0.0174725
818.113	0.0173164
818.192	0.0175653
818.270	0.0176872
818.348	0.0176024
818.426	0.0177789
818.504	0.0177795
818.582	0.0179903
818.660	0.0178605
818.738	0.0178175
818.817	0.0178822
818.895	0.0179904
818.973	0.0177946
819.051	0.0179326
819.129	0.0176747
819.207	0.0174997
819.285	0.0174931
819.363	0.0174578
819.442	0.0172482
819.520	0.0170923
819.598	0.0168729
819.676	0.0169591
819.754	0.0168008
819.832	0.0164268
819.910	0.0163626
819.988	0.0163935
820.067	0.0162411
820.145	0.0162207
820.223	0.0163252
820.301	0.0162649
820.379	0.0162858
820.457	0.0161583
820.535	0.0160600
820.613	0.0162878
820.692	0.0162796
820.770	0.0162378
820.848	0.0163684
820.926	0.0166035
821.004	0.0167284
821.082	0.0167289
821.160	0.0169072
821.238	0.0169516
821.317	0.0171220
821.395	0.0171933
821.473	0.0172786
821.551	0.0172395
821.629	0.0173973
821.707	0.0174361
821.785	0.0174331
821.863	0.0175282
821.942	0.0175581
822.020	0.0175089
822.098	0.0174185
822.176	0.0173775
822.254	0.0173779
822.332	0.0174442
822.410	0.0174429
822.488	0.0174112
822.567	0.0171460
822.645	0.0171457
822.723	0.0172604
822.801	0.0171009
822.879	0.0171786
822.957	0.0171863
823.035	0.0169777
823.113	0.0170858
823.192	0.0171696
823.270	0.0169343
823.348	0.0170213
823.426	0.0171253
823.504	0.0170866
823.582	0.0172636
823.660	0.0172618
823.738	0.0172645
823.817	0.0173422
823.895	0.0174286
823.973	0.0175214
824.051	0.0175610
824.129	0.0175805
824.207	0.0175774
824.285	0.0175707
824.363	0.0174902
824.442	0.0174494
824.520	0.0175279
824.598	0.0175593
824.676	0.0174525
824.754	0.0175333
824.832	0.0174390
824.910	0.0174084
824.988	0.0175572
825.067	0.0172649
825.145	0.0171939
825.223	0.0173246
825.301	0.0172273
825.379	0.0170673
825.457	0.0169363
825.535	0.0169386
825.613	0.0168732
825.692	0.0167800
825.770	0.0167624
825.848	0.0167364
825.926	0.0165739
826.004	0.0165519
826.082	0.0166134
826.160	0.0166479
826.238	0.0166119
826.317	0.0166556
826.395	0.0166492
826.473	0.0167963
826.551	0.0167576
826.629	0.0168011
826.707	0.0166972
826.785	0.0168766
826.863	0.0168699
826.942	0.0168663
827.020	0.0169637
827.098	0.0169358
827.176	0.0171643
827.254	0.0169097
827.332	0.0170422
827.410	0.0171162
827.488	0.0170577
827.567	0.0169169
827.645	0.0168669
827.723	0.0170063
827.801	0.0171739
827.879	0.0170297
827.957	0.0170541
828.035	0.0170448
828.113	0.0170082
828.192	0.0170327
828.270	0.0170630
828.348	0.0169487
828.426	0.0171210
828.504	0.0172423
828.582	0.0170199
828.660	0.0170362
828.738	0.0172402
828.817	0.0170500
828.895	0.0170859
828.973	0.0170152
829.051	0.0171024
829.129	0.0172465
829.207	0.0171999
829.285	0.0172349
829.363	0.0172557
829.442	0.0171803
829.520	0.0171803
829.598	0.0173221
829.676	0.0172356
829.754	0.0173322
829.832	0.0174229
829.910	0.0175053
829.988	0.0174041
830.067	0.0173595
830.145	0.0174602
830.223	0.0175790
830.301	0.0174974
830.379	0.0173570
830.457	0.0173505
830.535	0.0173679
830.613	0.0174928
830.692	0.0174282
830.770	0.0172574
830.848	0.0173631
830.926	0.0174849
831.004	0.0173031
831.082	0.0173119
831.160	0.0172864
831.238	0.0172898
831.317	0.0172745
831.395	0.0171970
831.473	0.0171498
831.551	0.0169965
831.629	0.0170478
831.707	0.0170743
831.785	0.0169891
831.863	0.0167635
831.942	0.0168809
832.020	0.0169661
832.098	0.0168364
832.176	0.0169189
832.254	0.0167697
832.332	0.0169354
832.410	0.0168113
832.488	0.0169234
832.567	0.0168757
832.645	0.0167892
832.723	0.0168544
832.801	0.0167366
832.879	0.0167139
832.957	0.0169273
833.035	0.0167220
833.113	0.0166836
833.192	0.0167386
833.270	0.0167935
833.348	0.0167543
833.426	0.0168382
833.504	0.0168317
833.582	0.0167474
833.660	0.0168932
833.738	0.0168393
833.817	0.0169052
833.895	0.0171413
833.973	0.0171110
834.051	0.0172232
834.129	0.0172116
834.207	0.0171296
834.285	0.0171403
834.363	0.0172797
834.442	0.0172533
834.520	0.0173078
834.598	0.0173122
834.676	0.0173027
834.754	0.0173707
834.832	0.0173554
834.910	0.0174034
834.988	0.0173364
835.067	0.0175334
835.145	0.0175407
835.223	0.0174431
835.301	0.0174918
835.379	0.0175243
835.457	0.0174402
835.535	0.0174081
835.613	0.0174529
835.692	0.0173370
835.770	0.0173237
835.848	0.0172070
835.926	0.0173586
836.004	0.0172527
836.082	0.0170745
836.160	0.0171707
836.238	0.0170193
836.317	0.0170918
836.395	0.0171641
836.473	0.0168935
836.551	0.0170616
836.629	0.0171095
836.707	0.0169819
836.785	0.0169962
836.863	0.0169738
836.942	0.0170198
837.020	0.0171055
837.098	0.0170770
837.176	0.0169586
837.254	0.0169972
837.332	0.0169166
837.410	0.0168668
837.488	0.0170119
837.567	0.0170370
837.645	0.0169916
837.723	0.0170840
837.801	0.0171014
837.879	0.0170377
837.957	0.0171457
838.035	0.0171910
838.113	0.0172091
838.192	0.0171944
838.270	0.0173568
838.348	0.0172211
838.426	0.0171613
838.504	0.0171705
838.582	0.0172629
838.660	0.0172568
838.738	0.0173613
838.817	0.0173282
838.895	0.0175127
838.973	0.0172048
839.051	0.0171902
839.129	0.0172018
839.207	0.0172132
839.285	0.0173077
839.363	0.0172193
839.442	0.0170953
839.520	0.0170928
839.598	0.0171595
839.676	0.0170265
839.754	0.0171043
839.832	0.0170479
839.910	0.0169257
839.988	0.0169774
840.067	0.0169067
840.145	0.0169973
840.223	0.0170231
840.301	0.0169401
840.379	0.0169026
840.457	0.0168773
840.535	0.0168854
840.613	0.0168646
840.692	0.0167748
840.770	0.0168322
840.848	0.0166734
840.926	0.0167207
841.004	0.0168893
841.082	0.0168635
841.160	0.0167933
841.238	0.0168862
841.317	0.0169714
841.395	0.0169104
841.473	0.0170144
841.551	0.0170641
841.629	0.0170899
841.707	0.0171516
841.785	0.0170657
841.863	0.0171210
841.942	0.0171248
842.020	0.0171791
842.098	0.0172614
842.176	0.0171715
842.254	0.0172569
842.332	0.0172854
842.410	0.0174336
842.488	0.0174496
842.567	0.0174674
842.645	0.0173804
842.723	0.0174189
842.801	0.0176540
842.879	0.0175749
842.957	0.0175199
843.035	0.0173580
843.113	0.0175080
843.192	0.0176245
843.270	0.0175529
843.348	0.0174599
843.426	0.0175329
843.504	0.0176008
843.582	0.0174762
843.660	0.0175046
843.738	0.0173686
843.817	0.0173234
843.895	0.0173693
843.973	0.0172791
844.051	0.0171355
844.129	0.0171158
844.207	0.0170271
844.285	0.0170880
844.363	0.0169435
844.442	0.0169930
844.520	0.0169573
844.598	0.0168594
844.676	0.0168179
844.754	0.0168449
844.832	0.0168804
844.910	0.0168292
844.988	0.0169766
845.067	0.0170495
845.145	0.0170452
845.223	0.0168071
845.301	0.0167806
845.379	0.0169088
845.457	0.0169746
845.535	0.0169767
845.613	0.0170800
845.692	0.0169032
845.770	0.0170132
845.848	0.0169998
845.926	0.0169563
846.004	0.0170286
846.082	0.0170207
846.160	0.0169653
846.238	0.0170009
846.317	0.0170968
846.395	0.0170428
846.473	0.0170383
846.551	0.0170097
846.629	0.0169169
846.707	0.0169199
846.785	0.0168732
846.863	0.0169719
846.942	0.0169785
847.020	0.0169333
847.098	0.0169575
847.176	0.0170126
847.254	0.0170274
847.332	0.0169251
847.410	0.0170039
847.488	0.0170292
847.567	0.0169940
847.645	0.0171720
847.723	0.0173286
847.801	0.0171539
847.879	0.0170903
847.957	0.0174059
848.035	0.0173051
848.113	0.0172218
848.192	0.0172664
848.270	0.0172929
848.348	0.0174401
848.426	0.0173078
848.504	0.0174559
848.582	0.0174171
848.660	0.0174677
848.738	0.0174548
848.817	0.0174792
848.895	0.0174957
848.973	0.0174705
849.051	0.0174945
849.129	0.0174862
849.207	0.0175357
849.285	0.0173814
849.363	0.0174238
849.442	0.0174959
849.520	0.0175499
849.598	0.0174361
849.676	0.0174837
849.754	0.0174233
849.832	0.0173642
849.910	0.0172733
849.988	0.0172842
850.067	0.0171787
850.145	0.0171790
850.223	0.0172049
850.301	0.0170320
850.379	0.0170657
850.457	0.0171622
850.535	0.0169704
850.613	0.0168250
850.692	0.0169059
850.770	0.0167594
850.848	0.0167664
850.926	0.0167838
851.004	0.0167046
851.082	0.0167018
851.160	0.0168541
851.238	0.0167856
851.317	0.0165714
851.395	0.0166177
851.473	0.0165932
851.551	0.0167715
851.629	0.0165968
851.707	0.0167950
851.785	0.0167252
851.863	0.0168392
851.942	0.0167932
852.020	0.0168644
852.098	0.0168733
852.176	0.0168754
852.254	0.0171408
852.332	0.0170415
852.410	0.0170451
852.488	0.0171175
852.567	0.0172607
852.645	0.0172485
852.723	0.0172582
852.801	0.0172869
852.879	0.0173195
852.957	0.0172103
853.035	0.0173064
853.113	0.0172527
853.192	0.0172038
853.270	0.0172040
853.348	0.0170807
853.426	0.0172318
853.504	0.0172810
853.582	0.0172076
853.660	0.0173067
853.738	0.0171347
853.817	0.0171828
853.895	0.0172726
853.973	0.0172335
854.051	0.0171979
854.129	0.0172991
854.207	0.0172213
854.285	0.0172720
854.363	0.0172192
854.442	0.0172656
854.520	0.0172266
854.598	0.0171030
854.676	0.0171394
854.754	0.0173412
854.832	0.0173170
854.910	0.0173543
854.988	0.0173289
855.067	0.0172773
855.145	0.0173862
855.223	0.0174066
855.301	0.0172705
855.379	0.0172347
855.457	0.0172830
855.535	0.0171847
855.613	0.0171175
855.692	0.0170882
855.770	0.0172195
855.848	0.0170776
855.926	0.0170929
856.004	0.0170257
856.082	0.0169275
856.160	0.0169253
856.238	0.0169857
856.317	0.0170068
856.395	0.0169637
856.473	0.0169534
856.551	0.0169590
856.629	0.0169855
856.707	0.0170743
856.785	0.0171825
856.863	0.0171147
856.942	0.0169576
857.020	0.0169113
857.098	0.0170812
857.176	0.0169388
857.254	0.0170799
857.332	0.0169595
857.410	0.0169764
857.488	0.0170473
857.567	0.0171769
857.645	0.0171954
857.723	0.0170641
857.801	0.0170261
857.879	0.0171616
857.957	0.0170782
858.035	0.0170020
858.113	0.0170444
858.192	0.0170862
858.270	0.0170728
858.348	0.0170562
858.426	0.0170019
858.504	0.0169794
858.582	0.0168665
858.660	0.0167798
858.738	0.0167943
858.817	0.0168900
858.895	0.0168329
858.973	0.0168181
859.051	0.0169382
859.129	0.0169360
859.207	0.0169432
859.285	0.0169905
859.363	0.0168909
859.442	0.0171449
859.520	0.0171487
859.598	0.0170703
859.676	0.0172385
859.754	0.0170453
859.832	0.0171923
859.910	0.0171295
859.988	0.0171445
860.067	0.0170470
860.145	0.0170818
860.223	0.0169647
860.301	0.0170416
860.379	0.0171774
860.457	0.0170658
860.535	0.0169630
860.613	0.0172098
860.692	0.0170803
860.770	0.0170243
860.848	0.0171030
860.926	0.0171944
861.004	0.0170165
861.082	0.0170408
861.160	0.0171194
861.238	0.0172226
861.317	0.0171400
861.395	0.0172532
861.473	0.0172170
861.551	0.0172073
861.629	0.0172658
861.707	0.0173186
861.785	0.0173140
861.863	0.0172354
861.942	0.0172532
862.020	0.0174278
862.098	0.0174037
862.176	0.0172685
862.254	0.0173312
862.332	0.0172664
862.410	0.0172454
862.488	0.0172478
862.567	0.0173004
862.645	0.0170422
862.723	0.0171431
862.801	0.0170406
862.879	0.0170828
862.957	0.0171110
863.035	0.0170701
863.113	0.0170938
863.192	0.0170736
863.270	0.0170813
863.348	0.0170519
863.426	0.0170990
863.504	0.0169630
863.582	0.0170943
863.660	0.0170741
863.738	0.0170262
863.817	0.0170753
863.895	0.0170493
863.973	0.0170498
864.051	0.0170463
864.129	0.0169044
864.207	0.0169797
864.285	0.0170544
864.363	0.0170834
864.442	0.0171179
864.520	0.0168968
864.598	0.0169244
864.676	0.0170192
864.754	0.0171196
864.832	0.0171751
864.910	0.0171220
864.988	0.0171158
865.067	0.0171362
865.145	0.0171160
865.223	0.0170345
865.301	0.0170968
865.379	0.0171760
865.457	0.0170878
865.535	0.0169250
865.613	0.0171381
865.692	0.0170248
865.770	0.0170540
865.848	0.0169037
865.926	0.0169365
866.004	0.0168620
866.082	0.0168807
866.160	0.0169072
866.238	0.0169908
866.317	0.0168528
866.395	0.0170187
866.473	0.0169137
866.551	0.0168847
866.629	0.0168317
866.707	0.0168875
866.785	0.0168281
866.863	0.0168571
866.942	0.0170863
867.020	0.0169930
867.098	0.0169759
867.176	0.0169618
867.254	0.0170001
867.332	0.0169648
867.410	0.0172150
867.488	0.0171974
867.567	0.0170556
867.645	0.0172133
867.723	0.0173163
867.801	0.0172268
867.879	0.0171740
867.957	0.0173039
868.035	0.0172921
868.113	0.0172896
868.192	0.0172631
868.270	0.0173666
868.348	0.0173434
868.426	0.0173513
868.504	0.0171590
868.582	0.0174482
868.660	0.0172372
868.738	0.0172568
868.817	0.0171774
868.895	0.0170763
868.973	0.0172751
869.051	0.0173372
869.129	0.0171817
869.207	0.0173221
869.285	0.0171796
869.363	0.0169941
869.442	0.0172504
869.520	0.0170385
869.598	0.0169057
869.676	0.0169225
869.754	0.0169578
869.832	0.0170226
869.910	0.0168964
869.988	0.0168804
870.067	0.0169578
870.145	0.0168198
870.223	0.0168201
870.301	0.0168856
870.379	0.0169007
870.457	0.0168516
870.535	0.0168630
870.613	0.0169917
870.692	0.0170104
870.770	0.0169453
870.848	0.0169392
870.926	0.0170319
871.004	0.0171632
871.082	0.0170316
871.160	0.0170899
871.238	0.0171542
871.317	0.0171838
871.395	0.0171815
871.473	0.0169163
871.551	0.0170674
871.629	0.0171103
871.707	0.0171250
871.785	0.0171209
871.863	0.0173185
871.942	0.0171065
872.020	0.0169817
872.098	0.0170603
872.176	0.0170528
872.254	0.0171691
872.332	0.0170889
872.410	0.0171140
872.488	0.0171401
872.567	0.0169734
872.645	0.0169267
872.723	0.0169926
872.801	0.0170811
872.879	0.0169709
872.957	0.0170572
873.035	0.0169938
873.113	0.0171058
873.192	0.0169421
873.270	0.0169777
873.348	0.0169901
873.426	0.0170756
873.504	0.0170039
873.582	0.0169886
873.660	0.0169885
873.738	0.0169615
873.817	0.0169057
873.895	0.0168750
873.973	0.0170035
874.051	0.0168939
874.129	0.0167169
874.207	0.0167694
874.285	0.0167687
874.363	0.0167683
874.442	0.0168032
874.520	0.0167305
874.598	0.0167397
874.676	0.0169867
874.754	0.0169406
874.832	0.0170267
874.910	0.0169364
874.988	0.0171592
875.067	0.0171185
875.145	0.0173823
875.223	0.0173450
875.301	0.0175936
875.379	0.0175838
875.457	0.0175098
875.535	0.0174700
875.613	0.0175307
875.692	0.0174513
875.770	0.0173796
875.848	0.0172804
875.926	0.0171040
876.004	0.0170568
876.082	0.0168469
876.160	0.0167039
876.238	0.0166654
876.317	0.0165842
876.395	0.0164728
876.473	0.0164725
876.551	0.0166350
876.629	0.0165876
876.707	0.0166344
876.785	0.0169085
876.863	0.0168399
876.942	0.0169605
877.020	0.0168817
877.098	0.0168953
877.176	0.0171400
877.254	0.0170660
877.332	0.0172275
877.410	0.0172395
877.488	0.0174342
877.567	0.0174499
877.645	0.0176535
877.723	0.0177386
877.801	0.0177644
877.879	0.0179761
877.957	0.0178223
878.035	0.0180888
878.113	0.0179002
878.192	0.0178305
878.270	0.0175801
878.348	0.0172429
878.426	0.0172207
878.504	0.0169161
878.582	0.0166273
878.660	0.0165369
878.738	0.0162224
878.817	0.0161210
878.895	0.0160478
878.973	0.0159573
879.051	0.0159653
879.129	0.0160294
879.207	0.0162818
879.285	0.0161136
879.363	0.0165097
879.442	0.0166559
879.520	0.0167224
879.598	0.0170628
879.676	0.0171551
879.754	0.0173322
879.832	0.0176322
879.910	0.0176470
879.988	0.0176810
880.067	0.0178839
880.145	0.0178780
880.223	0.0182226
880.301	0.0183103
880.379	0.0182555
880.457	0.0182690
880.535	0.0183142
880.613	0.0181341
880.692	0.0181656
880.770	0.0181783
880.848	0.0178571
880.926	0.0178459
881.004	0.0175092
881.082	0.0172723
881.160	0.0170498
881.238	0.0166896
881.317	0.0164786
881.395	0.0160619
881.473	0.0158487
881.551	0.0156510
881.629	0.0153461
881.707	0.0154211
881.785	0.0153062
881.863	0.0152990
881.942	0.0153708
882.020	0.0153616
882.098	0.0157130
882.176	0.0160346
882.254	0.0163066
882.332	0.0163416
882.410	0.0165042
882.488	0.0170132
882.567	0.0172599
882.645	0.0174242
882.723	0.0175318
882.801	0.0177016
882.879	0.0178101
882.957	0.0181763
883.035	0.0182513
883.113	0.0182998
883.192	0.0183890
883.270	0.0186256
883.348	0.0185329
883.426	0.0183645
883.504	0.0183315
883.582	0.0183958
883.660	0.0181152
883.738	0.0180344
883.817	0.0179574
883.895	0.0175881
883.973	0.0172868
884.051	0.0171288
884.129	0.0169153
884.207	0.0164677
884.285	0.0164167
884.363	0.0163261
884.442	0.0162025
884.520	0.0161153
884.598	0.0160126
884.676	0.0161800
884.754	0.0163691
884.832	0.0163007
884.910	0.0163376
884.988	0.0164909
885.067	0.0166562
885.145	0.0166734
885.223	0.0168256
885.301	0.0168266
885.379	0.0169645
885.457	0.0171442
885.535	0.0171923
885.613	0.0170732
885.692	0.0172536
885.770	0.0171591
885.848	0.0171824
885.926	0.0170441
886.004	0.0171183
886.082	0.0172050
886.160	0.0172319
886.238	0.0170603
886.317	0.0170810
886.395	0.0171564
886.473	0.0170736
886.551	0.0170918
886.629	0.0171391
886.707	0.0169568
886.785	0.0169492
886.863	0.0170594
886.942	0.0170698
887.020	0.0170542
887.098	0.0169611
887.176	0.0169252
887.254	0.0170934
887.332	0.0171037
887.410	0.0168605
887.488	0.0170774
887.567	0.0170515
887.645	0.0170341
887.723	0.0170295
887.801	0.0172012
887.879	0.0172392
887.957	0.0170872
888.035	0.0171465
888.113	0.0173132
888.192	0.0172688
888.270	0.0171971
888.348	0.0172312
888.426	0.0172560
888.504	0.0172195
888.582	0.0171609
888.660	0.0172726
888.738	0.0172233
888.817	0.0172627
888.895	0.0170792
888.973	0.0169927
889.051	0.0170796
889.129	0.0169396
889.207	0.0169927
889.285	0.0169206
889.363	0.0168422
889.442	0.0167905
889.520	0.0167087
889.598	0.0166819
889.676	0.0166755
889.754	0.0165546
889.832	0.0166658
889.910	0.0165868
889.988	0.0165345
890.067	0.0166356
890.145	0.0165807
890.223	0.0167135
890.301	0.0168612
890.379	0.0169225
890.457	0.0168446
890.535	0.0168635
890.613	0.0171114
890.692	0.0171977
890.770	0.0171614
890.848	0.0172781
890.926	0.0173948
891.004	0.0173887
891.082	0.0174406
891.160	0.0176221
891.238	0.0175416
891.317	0.0174763
891.395	0.0176152
891.473	0.0174679
891.551	0.0173846
891.629	0.0174243
891.707	0.0174580
891.785	0.0173255
891.863	0.0171552
891.942	0.0169262
892.020	0.0171508
892.098	0.0170805
892.176	0.0169577
892.254	0.0167898
892.332	0.0167316
892.410	0.0167213
892.488	0.0168691
892.567	0.0167198
892.645	0.0168205
892.723	0.0169177
892.801	0.0169273
892.879	0.0168515
892.957	0.0170510
893.035	0.0171151
893.113	0.0172280
893.192	0.0172723
893.270	0.0171273
893.348	0.0172711
893.426	0.0171938
893.504	0.0170323
893.582	0.0170718
893.660	0.0170154
893.738	0.0169167
893.817	0.0171908
893.895	0.0169373
893.973	0.0169690
894.051	0.0169268
894.129	0.0170010
894.207	0.0169141
894.285	0.0167669
894.363	0.0169411
894.442	0.0170423
894.520	0.0168549
894.598	0.0170574
894.676	0.0169694
894.754	0.0171478
894.832	0.0171246
894.910	0.0171497
894.988	0.0172284
895.067	0.0170689
895.145	0.0172099
895.223	0.0171671
895.301	0.0172202
895.379	0.0170639
895.457	0.0171156
895.535	0.0171001
895.613	0.0171292
895.692	0.0171943
895.770	0.0172116
895.848	0.0171178
895.926	0.0172428
896.004	0.0173239
896.082	0.0171906
896.160	0.0172144
896.238	0.0171654
896.317	0.0174066
896.395	0.0172781
896.473	0.0171675
896.551	0.0172072
896.629	0.0170752
896.707	0.0171438
896.785	0.0169167
896.863	0.0169091
896.942	0.0169914
897.020	0.0168661
897.098	0.0167624
897.176	0.0168177
897.254	0.0167800
897.332	0.0168124
897.410	0.0167793
897.488	0.0167455
897.567	0.0167184
897.645	0.0167831
897.723	0.0168557
897.801	0.0168856
897.879	0.0168525
897.957	0.0169852
898.035	0.0169991
898.113	0.0170594
898.192	0.0170295
898.270	0.0171436
898.348	0.0172807
898.426	0.0172985
898.504	0.0172308
898.582	0.0172755
898.660	0.0172901
898.738	0.0172814
898.817	0.0174173
898.895	0.0174158
898.973	0.0173583
899.051	0.0171191
899.129	0.0172347
899.207	0.0171357
899.285	0.0169946
899.363	0.0170681
899.442	0.0171494
899.520	0.0169421
899.598	0.0168365
899.676	0.0169653
899.754	0.0169366
899.832	0.0169359
899.910	0.0168360
899.988	0.0168458
900.067	0.0167780
900.145	0.0166932
900.223	0.0169591
900.301	0.0169192
900.379	0.0167923
900.457	0.0168024
900.535	0.0169718
900.613	0.0168093
900.692	0.0169437
900.770	0.0170870
900.848	0.0171819
900.926	0.0171751
901.004	0.0171561
901.082	0.0173162
901.160	0.0172549
901.238	0.0173812
901.317	0.0174329
901.395	0.0174927
901.473	0.0174556
901.551	0.0175313
901.629	0.0173666
901.707	0.0175076
901.785	0.0173355
901.863	0.0172999
901.942	0.0172428
902.020	0.0172309
902.098	0.0171891
902.176	0.0171154
902.254	0.0170705
902.332	0.0168908
902.410	0.0168395
902.488	0.0169230
902.567	0.0169915
902.645	0.0168226
902.723	0.0168935
902.801	0.0167534
902.879	0.0167072
902.957	0.0166814
903.035	0.0167674
903.113	0.0167159
903.192	0.0167319
903.270	0.0166350
903.348	0.0166101
903.426	0.0167886
903.504	0.0168539
903.582	0.0167482
903.660	0.0170273
903.738	0.0168450
903.817	0.0168776
903.895	0.0170190
903.973	0.0170755
904.051	0.0170642
904.129	0.0171799
904.207	0.0174333
904.285	0.0172422
904.363	0.0173894
904.442	0.0172064
904.520	0.0172376
904.598	0.0172570
904.676	0.0172943
904.754	0.0172528
904.832	0.0173315
904.910	0.0171671
904.988	0.0171803
905.067	0.0171255
905.145	0.0170890
905.223	0.0170330
905.301	0.0171225
905.379	0.0169849
905.457	0.0170001
905.535	0.0170802
905.613	0.0170215
905.692	0.0170231
905.770	0.0170800
905.848	0.0170998
905.926	0.0171839
906.004	0.0169586
906.082	0.0170105
906.160	0.0170407
906.238	0.0172047
906.317	0.0172260
906.395	0.0170240
906.473	0.0170161
906.551	0.0170559
906.629	0.0170618
906.707	0.0170660
906.785	0.0169276
906.863	0.0170037
906.942	0.0170372
907.020	0.0168758
907.098	0.0169743
907.176	0.0168692
907.254	0.0168879
907.332	0.0168839
907.410	0.0170330
907.488	0.0169121
907.567	0.0168524
907.645	0.0168310
907.723	0.0168854
907.801	0.0168005
907.879	0.0168529
907.957	0.0168710
908.035	0.0168200
908.113	0.0168625
908.192	0.0169961
908.270	0.0168743
908.348	0.0168871
908.426	0.0168467
908.504	0.0170367
908.582	0.0170757
908.660	0.0170286
908.738	0.0170705
908.817	0.0171652
908.895	0.0170810
908.973	0.0170595
909.051	0.0172146
909.129	0.0173711
909.207	0.0171558
909.285	0.0172675
909.363	0.0173325
909.442	0.0172062
909.520	0.0172355
909.598	0.0172954
909.676	0.0174805
909.754	0.0172404
909.832	0.0171609
909.910	0.0172234
909.988	0.0172604
910.067	0.0170976
910.145	0.0170689
910.223	0.0170456
910.301	0.0171076
910.379	0.0171412
910.457	0.0170332
910.535	0.0170621
910.613	0.0171748
910.692	0.0171624
910.770	0.0171236
910.848	0.0170802
910.926	0.0171189
911.004	0.0170966
911.082	0.0168268
911.160	0.0170081
911.238	0.0168889
911.317	0.0168095
911.395	0.0168816
911.473	0.0168938
911.551	0.0167387
911.629	0.0167699
911.707	0.0166483
911.785	0.0169014
911.863	0.0167796
911.942	0.0166528
912.020	0.0168163
912.098	0.0167785
912.176	0.0169075
912.254	0.0168660
912.332	0.0168517
912.410	0.0168374
912.488	0.0170200
912.567	0.0169893
912.645	0.0170859
912.723	0.0170721
912.801	0.0171684
912.879	0.0172572
912.957	0.0173036
913.035	0.0171030
913.113	0.0172610
913.192	0.0173714
913.270	0.0174284
913.348	0.0173855
913.426	0.0172406
913.504	0.0172946
913.582	0.0172562
913.660	0.0173713
913.738	0.0172717
913.817	0.0172133
913.895	0.0170001
913.973	0.0171362
914.051	0.0170389
914.129	0.0171029
914.207	0.0169968
914.285	0.0168528
914.363	0.0168806
914.442	0.0169440
914.520	0.0168414
914.598	0.0168805
914.676	0.0169554
914.754	0.0169988
914.832	0.0170538
914.910	0.0170344
914.988	0.0170203
915.067	0.0170491
915.145	0.0171843
915.223	0.0171712
915.301	0.0173029
915.379	0.0171918
915.457	0.0171361
915.535	0.0173461
915.613	0.0171598
915.692	0.0172459
915.770	0.0171623
915.848	0.0171127
915.926	0.0172997
916.004	0.0171117
916.082	0.0171016
916.160	0.0170779
916.238	0.0169810
916.317	0.0169649
916.395	0.0169253
916.473	0.0168922
916.551	0.0169389
916.629	0.0168398
916.707	0.0170428
916.785	0.0169884
916.863	0.0169053
916.942	0.0170179
917.020	0.0170030
917.098	0.0170859
917.176	0.0170734
917.254	0.0170885
917.332	0.0169956
917.410	0.0169326
917.488	0.0169554
917.567	0.0172014
917.645	0.0171017
917.723	0.0169576
917.801	0.0170808
917.879	0.0171333
917.957	0.0170967
918.035	0.0170205
918.113	0.0170126
918.192	0.0171490
918.270	0.0171169
918.348	0.0172488
918.426	0.0171754
918.504	0.0173512
918.582	0.0173741
918.660	0.0173020
918.738	0.0172591
918.817	0.0174492
918.895	0.0173432
918.973	0.0173959
919.051	0.0173476
919.129	0.0172971
919.207	0.0173309
919.285	0.0172882
919.363	0.0171370
919.442	0.0173194
919.520	0.0172073
919.598	0.0172450
919.676	0.0171094
919.754	0.0170670
919.832	0.0170924
919.910	0.0169108
