05/24/2022	20:10:13	Ver.	4.1	UNKNOWN
Optical Delay	599.988409	Delta X		0.078125	Sweeps	1	Scan Rate	0/0
Coordinates	Axis 1	NaN	Axis 2	NaN	Axis 3	NaN	Axis 4	NaN	Axis 5	NaN	Axis 6	0.000000
TX Power	0.000000	RX Power	0.000000

599.988	0.0174232
600.067	0.0175170
600.145	0.0174335
600.223	0.0173449
600.301	0.0174961
600.379	0.0174155
600.457	0.0173778
600.535	0.0173987
600.613	0.0173597
600.692	0.0173223
600.770	0.0174012
600.848	0.0174161
600.926	0.0174603
601.004	0.0173615
601.082	0.0173533
601.160	0.0173167
601.238	0.0174383
601.317	0.0175241
601.395	0.0173276
601.473	0.0173531
601.551	0.0174281
601.629	0.0173935
601.707	0.0172849
601.785	0.0173326
601.863	0.0173868
601.942	0.0172190
602.020	0.0173856
602.098	0.0174229
602.176	0.0173066
602.254	0.0173373
602.332	0.0174531
602.410	0.0173448
602.488	0.0174318
602.567	0.0174184
602.645	0.0174963
602.723	0.0174351
602.801	0.0173569
602.879	0.0173685
602.957	0.0173517
603.035	0.0175056
603.113	0.0174400
603.192	0.0174606
603.270	0.0173403
603.348	0.0175172
603.426	0.0174207
603.504	0.0173534
603.582	0.0174808
603.660	0.0174181
603.738	0.0174264
603.817	0.0174260
603.895	0.0174902
603.973	0.0174409
604.051	0.0174926
604.129	0.0173719
604.207	0.0174379
604.285	0.0174931
604.363	0.0172955
604.442	0.0174764
604.520	0.0174070
604.598	0.0174107
604.676	0.0173957
604.754	0.0172831
604.832	0.0172964
604.910	0.0174568
604.988	0.0175189
605.067	0.0174272
605.145	0.0173042
605.223	0.0174038
605.301	0.0173807
605.379	0.0174837
605.457	0.0174679
605.535	0.0173975
605.613	0.0174868
605.692	0.0173264
605.770	0.0173976
605.848	0.0173643
605.926	0.0172543
606.004	0.0174870
606.082	0.0174321
606.160	0.0174093
606.238	0.0173589
606.317	0.0173906
606.395	0.0175153
606.473	0.0174138
606.551	0.0174438
606.629	0.0174451
606.707	0.0175922
606.785	0.0173701
606.863	0.0173912
606.942	0.0173251
607.020	0.0173724
607.098	0.0174580
607.176	0.0174011
607.254	0.0173807
607.332	0.0172641
607.410	0.0174950
607.488	0.0173333
607.567	0.0173154
607.645	0.0173956
607.723	0.0175078
607.801	0.0172315
607.879	0.0174063
607.957	0.0172476
608.035	0.0172913
608.113	0.0173980
608.192	0.0174060
608.270	0.0173367
608.348	0.0173433
608.426	0.0174226
608.504	0.0174369
608.582	0.0175058
608.660	0.0175179
608.738	0.0174069
608.817	0.0174247
608.895	0.0174418
608.973	0.0174377
609.051	0.0175839
609.129	0.0175597
609.207	0.0174428
609.285	0.0175913
609.363	0.0176588
609.442	0.0175793
609.520	0.0175466
609.598	0.0174347
609.676	0.0175621
609.754	0.0174352
609.832	0.0173635
609.910	0.0173821
609.988	0.0173048
610.067	0.0174008
610.145	0.0175782
610.223	0.0174571
610.301	0.0173898
610.379	0.0172630
610.457	0.0173655
610.535	0.0172083
610.613	0.0174033
610.692	0.0172540
610.770	0.0173022
610.848	0.0173436
610.926	0.0173088
611.004	0.0174081
611.082	0.0173559
611.160	0.0174511
611.238	0.0174232
611.317	0.0172239
611.395	0.0173412
611.473	0.0175284
611.551	0.0173469
611.629	0.0174331
611.707	0.0176074
611.785	0.0174459
611.863	0.0174887
611.942	0.0174912
612.020	0.0174954
612.098	0.0174626
612.176	0.0175460
612.254	0.0175759
612.332	0.0174475
612.410	0.0173753
612.488	0.0174157
612.567	0.0174555
612.645	0.0174353
612.723	0.0173592
612.801	0.0174673
612.879	0.0173737
612.957	0.0174859
613.035	0.0173933
613.113	0.0172970
613.192	0.0172586
613.270	0.0174814
613.348	0.0173278
613.426	0.0173811
613.504	0.0173633
613.582	0.0173154
613.660	0.0172999
613.738	0.0174361
613.817	0.0173761
613.895	0.0173600
613.973	0.0173705
614.051	0.0173973
614.129	0.0173883
614.207	0.0173779
614.285	0.0172849
614.363	0.0173127
614.442	0.0173155
614.520	0.0172929
614.598	0.0173820
614.676	0.0173921
614.754	0.0173999
614.832	0.0173921
614.910	0.0174000
614.988	0.0173923
615.067	0.0174380
615.145	0.0175037
615.223	0.0174667
615.301	0.0174580
615.379	0.0174239
615.457	0.0174424
615.535	0.0174734
615.613	0.0175478
615.692	0.0174247
615.770	0.0172646
615.848	0.0174883
615.926	0.0174632
616.004	0.0173763
616.082	0.0173791
616.160	0.0173186
616.238	0.0173201
616.317	0.0172607
616.395	0.0173600
616.473	0.0174048
616.551	0.0172993
616.629	0.0174673
616.707	0.0174292
616.785	0.0172446
616.863	0.0173802
616.942	0.0173378
617.020	0.0174549
617.098	0.0174000
617.176	0.0174096
617.254	0.0173714
617.332	0.0174534
617.410	0.0173778
617.488	0.0173029
617.567	0.0173615
617.645	0.0173356
617.723	0.0172784
617.801	0.0172800
617.879	0.0173603
617.957	0.0174628
618.035	0.0172942
618.113	0.0173902
618.192	0.0175113
618.270	0.0173524
618.348	0.0172260
618.426	0.0173067
618.504	0.0173006
618.582	0.0173961
618.660	0.0172620
618.738	0.0173702
618.817	0.0174020
618.895	0.0173012
618.973	0.0174490
619.051	0.0173599
619.129	0.0174883
619.207	0.0173775
619.285	0.0174052
619.363	0.0173657
619.442	0.0173518
619.520	0.0173163
619.598	0.0175241
619.676	0.0173882
619.754	0.0173474
619.832	0.0174286
619.910	0.0174100
619.988	0.0175067
620.067	0.0173099
620.145	0.0173190
620.223	0.0174432
620.301	0.0173025
620.379	0.0173042
620.457	0.0173817
620.535	0.0173954
620.613	0.0173685
620.692	0.0173693
620.770	0.0173176
620.848	0.0172442
620.926	0.0173106
621.004	0.0171973
621.082	0.0174450
621.160	0.0173597
621.238	0.0173645
621.317	0.0174279
621.395	0.0173677
621.473	0.0174059
621.551	0.0174941
621.629	0.0174222
621.707	0.0173055
621.785	0.0173090
621.863	0.0174875
621.942	0.0173602
622.020	0.0172439
622.098	0.0173676
622.176	0.0173489
622.254	0.0173193
622.332	0.0173979
622.410	0.0173409
622.488	0.0172796
622.567	0.0173489
622.645	0.0173344
622.723	0.0173055
622.801	0.0173989
622.879	0.0174049
622.957	0.0173637
623.035	0.0175392
623.113	0.0174216
623.192	0.0172891
623.270	0.0174049
623.348	0.0173567
623.426	0.0172745
623.504	0.0174759
623.582	0.0174666
623.660	0.0173203
623.738	0.0172493
623.817	0.0173952
623.895	0.0173580
623.973	0.0173407
624.051	0.0174194
624.129	0.0173486
624.207	0.0173923
624.285	0.0173521
624.363	0.0174330
624.442	0.0173720
624.520	0.0174180
624.598	0.0173096
624.676	0.0173943
624.754	0.0173930
624.832	0.0173928
624.910	0.0174627
624.988	0.0173969
625.067	0.0174393
625.145	0.0174048
625.223	0.0174791
625.301	0.0175045
625.379	0.0173927
625.457	0.0173397
625.535	0.0175593
625.613	0.0174020
625.692	0.0174225
625.770	0.0174221
625.848	0.0174198
625.926	0.0174444
626.004	0.0174490
626.082	0.0173069
626.160	0.0174050
626.238	0.0173804
626.317	0.0173402
626.395	0.0174699
626.473	0.0172558
626.551	0.0174806
626.629	0.0174057
626.707	0.0173029
626.785	0.0173980
626.863	0.0174258
626.942	0.0173747
627.020	0.0173712
627.098	0.0173615
627.176	0.0173324
627.254	0.0173133
627.332	0.0174506
627.410	0.0175864
627.488	0.0173888
627.567	0.0174070
627.645	0.0174158
627.723	0.0174232
627.801	0.0175008
627.879	0.0174393
627.957	0.0174910
628.035	0.0173620
628.113	0.0173653
628.192	0.0173627
628.270	0.0174240
628.348	0.0173179
628.426	0.0174223
628.504	0.0172688
628.582	0.0172719
628.660	0.0174119
628.738	0.0174481
628.817	0.0174138
628.895	0.0173679
628.973	0.0174399
629.051	0.0175328
629.129	0.0174059
629.207	0.0173029
629.285	0.0174095
629.363	0.0174545
629.442	0.0174667
629.520	0.0174338
629.598	0.0173863
629.676	0.0173465
629.754	0.0173790
629.832	0.0174210
629.910	0.0173792
629.988	0.0174246
630.067	0.0174545
630.145	0.0173863
630.223	0.0174907
630.301	0.0173463
630.379	0.0173788
630.457	0.0174626
630.535	0.0174232
630.613	0.0175194
630.692	0.0175157
630.770	0.0175187
630.848	0.0174255
630.926	0.0174084
631.004	0.0174132
631.082	0.0175735
631.160	0.0174942
631.238	0.0174109
631.317	0.0173979
631.395	0.0174520
631.473	0.0175137
631.551	0.0173873
631.629	0.0174099
631.707	0.0174901
631.785	0.0173681
631.863	0.0174091
631.942	0.0175332
632.020	0.0173208
632.098	0.0173099
632.176	0.0175155
632.254	0.0174938
632.332	0.0173794
632.410	0.0174540
632.488	0.0174853
632.567	0.0174226
632.645	0.0173887
632.723	0.0174110
632.801	0.0174977
632.879	0.0173569
632.957	0.0173781
633.035	0.0173946
633.113	0.0174522
633.192	0.0174127
633.270	0.0174741
633.348	0.0174507
633.426	0.0174699
633.504	0.0174129
633.582	0.0174371
633.660	0.0175180
633.738	0.0174418
633.817	0.0172935
633.895	0.0173069
633.973	0.0175083
634.051	0.0174799
634.129	0.0173916
634.207	0.0174311
634.285	0.0173081
634.363	0.0173722
634.442	0.0172092
634.520	0.0173106
634.598	0.0174527
634.676	0.0174903
634.754	0.0174259
634.832	0.0173688
634.910	0.0174353
634.988	0.0174985
635.067	0.0173695
635.145	0.0173949
635.223	0.0174232
635.301	0.0173568
635.379	0.0173779
635.457	0.0174268
635.535	0.0174596
635.613	0.0173491
635.692	0.0172184
635.770	0.0173981
635.848	0.0173296
635.926	0.0174537
636.004	0.0173293
636.082	0.0173626
636.160	0.0173563
636.238	0.0175131
636.317	0.0173560
636.395	0.0174792
636.473	0.0172166
636.551	0.0173090
636.629	0.0175011
636.707	0.0174267
636.785	0.0173019
636.863	0.0173462
636.942	0.0173786
637.020	0.0172981
637.098	0.0173878
637.176	0.0174464
637.254	0.0173264
637.332	0.0173955
637.410	0.0174565
637.488	0.0173539
637.567	0.0173705
637.645	0.0173647
637.723	0.0172583
637.801	0.0173569
637.879	0.0172998
637.957	0.0173406
638.035	0.0174052
638.113	0.0174445
638.192	0.0173338
638.270	0.0173771
638.348	0.0173415
638.426	0.0173626
638.504	0.0174494
638.582	0.0174574
638.660	0.0175383
638.738	0.0174923
638.817	0.0173085
638.895	0.0174153
638.973	0.0173626
639.051	0.0172715
639.129	0.0174680
639.207	0.0173530
639.285	0.0174647
639.363	0.0174104
639.442	0.0173880
639.520	0.0173315
639.598	0.0173871
639.676	0.0175273
639.754	0.0174224
639.832	0.0173348
639.910	0.0173899
639.988	0.0173750
640.067	0.0174187
640.145	0.0173479
640.223	0.0174349
640.301	0.0173158
640.379	0.0173275
640.457	0.0173577
640.535	0.0174626
640.613	0.0174658
640.692	0.0173969
640.770	0.0173958
640.848	0.0173745
640.926	0.0175031
641.004	0.0174635
641.082	0.0174405
641.160	0.0173847
641.238	0.0173911
641.317	0.0173549
641.395	0.0174236
641.473	0.0173363
641.551	0.0174918
641.629	0.0174309
641.707	0.0174557
641.785	0.0172993
641.863	0.0173801
641.942	0.0173474
642.020	0.0173362
642.098	0.0174370
642.176	0.0174613
642.254	0.0174840
642.332	0.0173373
642.410	0.0172615
642.488	0.0174850
642.567	0.0173576
642.645	0.0173369
642.723	0.0174041
642.801	0.0174634
642.879	0.0175809
642.957	0.0173556
643.035	0.0174188
643.113	0.0172959
643.192	0.0174847
643.270	0.0173986
643.348	0.0174695
643.426	0.0173425
643.504	0.0173846
643.582	0.0175053
643.660	0.0174861
643.738	0.0172978
643.817	0.0174236
643.895	0.0173574
643.973	0.0173752
644.051	0.0174053
644.129	0.0174177
644.207	0.0174317
644.285	0.0173735
644.363	0.0173789
644.442	0.0173721
644.520	0.0174052
644.598	0.0173695
644.676	0.0173484
644.754	0.0174583
644.832	0.0173695
644.910	0.0174211
644.988	0.0174313
645.067	0.0173083
645.145	0.0174480
645.223	0.0174268
645.301	0.0174297
645.379	0.0173185
645.457	0.0174159
645.535	0.0174250
645.613	0.0174084
645.692	0.0175237
645.770	0.0174386
645.848	0.0173660
645.926	0.0173728
646.004	0.0173464
646.082	0.0174157
646.160	0.0175729
646.238	0.0173843
646.317	0.0173228
646.395	0.0173417
646.473	0.0174085
646.551	0.0173485
646.629	0.0173406
646.707	0.0173110
646.785	0.0175611
646.863	0.0173788
646.942	0.0172803
647.020	0.0173448
647.098	0.0173685
647.176	0.0174963
647.254	0.0175790
647.332	0.0174864
647.410	0.0173721
647.488	0.0174303
647.567	0.0173676
647.645	0.0174702
647.723	0.0174159
647.801	0.0174063
647.879	0.0173815
647.957	0.0174061
648.035	0.0173850
648.113	0.0173429
648.192	0.0173954
648.270	0.0173757
648.348	0.0172823
648.426	0.0173417
648.504	0.0173477
648.582	0.0174389
648.660	0.0175639
648.738	0.0173870
648.817	0.0173693
648.895	0.0173961
648.973	0.0173770
649.051	0.0174298
649.129	0.0174184
649.207	0.0174097
649.285	0.0173170
649.363	0.0174031
649.442	0.0174380
649.520	0.0175330
649.598	0.0174025
649.676	0.0174196
649.754	0.0174116
649.832	0.0174938
649.910	0.0174140
649.988	0.0173515
650.067	0.0173757
650.145	0.0173362
650.223	0.0174175
650.301	0.0173719
650.379	0.0173147
650.457	0.0173985
650.535	0.0173726
650.613	0.0174122
650.692	0.0173669
650.770	0.0172787
650.848	0.0173550
650.926	0.0174481
651.004	0.0174235
651.082	0.0173051
651.160	0.0173970
651.238	0.0174013
651.317	0.0174858
651.395	0.0174169
651.473	0.0174342
651.551	0.0173078
651.629	0.0174378
651.707	0.0173582
651.785	0.0173677
651.863	0.0173573
651.942	0.0173168
652.020	0.0172978
652.098	0.0173708
652.176	0.0173739
652.254	0.0173020
652.332	0.0174151
652.410	0.0173315
652.488	0.0173753
652.567	0.0172858
652.645	0.0173116
652.723	0.0174179
652.801	0.0174280
652.879	0.0174025
652.957	0.0174644
653.035	0.0174485
653.113	0.0173572
653.192	0.0173286
653.270	0.0172740
653.348	0.0173653
653.426	0.0173071
653.504	0.0174538
653.582	0.0174223
653.660	0.0174282
653.738	0.0173597
653.817	0.0175144
653.895	0.0175588
653.973	0.0173591
654.051	0.0172949
654.129	0.0173080
654.207	0.0173205
654.285	0.0173533
654.363	0.0174294
654.442	0.0174669
654.520	0.0175291
654.598	0.0174088
654.676	0.0173719
654.754	0.0173358
654.832	0.0174865
654.910	0.0173427
654.988	0.0173016
655.067	0.0175197
655.145	0.0173893
655.223	0.0174673
655.301	0.0173592
655.379	0.0174274
655.457	0.0174723
655.535	0.0173389
655.613	0.0173271
655.692	0.0175273
655.770	0.0173278
655.848	0.0173459
655.926	0.0172987
656.004	0.0173727
656.082	0.0173318
656.160	0.0172398
656.238	0.0174309
656.317	0.0173055
656.395	0.0174182
656.473	0.0173761
656.551	0.0172527
656.629	0.0174505
656.707	0.0173956
656.785	0.0175409
656.863	0.0173845
656.942	0.0173087
657.020	0.0174841
657.098	0.0174135
657.176	0.0173376
657.254	0.0173167
657.332	0.0174960
657.410	0.0172955
657.488	0.0172736
657.567	0.0173076
657.645	0.0174546
657.723	0.0173125
657.801	0.0173590
657.879	0.0172602
657.957	0.0174173
658.035	0.0173768
658.113	0.0173698
658.192	0.0174651
658.270	0.0174355
658.348	0.0173531
658.426	0.0171461
658.504	0.0173298
658.582	0.0173460
658.660	0.0173134
658.738	0.0175409
658.817	0.0175313
658.895	0.0174371
658.973	0.0173629
659.051	0.0174372
659.129	0.0174888
659.207	0.0174828
659.285	0.0172553
659.363	0.0172966
659.442	0.0174680
659.520	0.0173987
659.598	0.0173515
659.676	0.0174268
659.754	0.0173415
659.832	0.0173627
659.910	0.0173854
659.988	0.0174551
660.067	0.0172662
660.145	0.0174445
660.223	0.0173897
660.301	0.0173847
660.379	0.0175079
660.457	0.0174722
660.535	0.0174136
660.613	0.0173308
660.692	0.0173930
660.770	0.0172965
660.848	0.0173167
660.926	0.0175167
661.004	0.0175259
661.082	0.0172706
661.160	0.0172915
661.238	0.0173611
661.317	0.0173489
661.395	0.0174718
661.473	0.0174006
661.551	0.0174450
661.629	0.0174380
661.707	0.0174705
661.785	0.0174702
661.863	0.0173553
661.942	0.0172797
662.020	0.0172050
662.098	0.0173896
662.176	0.0172665
662.254	0.0173594
662.332	0.0175144
662.410	0.0174699
662.488	0.0175138
662.567	0.0174419
662.645	0.0173795
662.723	0.0173766
662.801	0.0173319
662.879	0.0173978
662.957	0.0174025
663.035	0.0175626
663.113	0.0173885
663.192	0.0173947
663.270	0.0173533
663.348	0.0175177
663.426	0.0174298
663.504	0.0174948
663.582	0.0173792
663.660	0.0173920
663.738	0.0174657
663.817	0.0173572
663.895	0.0174337
663.973	0.0173512
664.051	0.0173271
664.129	0.0174126
664.207	0.0174192
664.285	0.0173770
664.363	0.0174623
664.442	0.0173413
664.520	0.0173392
664.598	0.0173209
664.676	0.0174657
664.754	0.0173534
664.832	0.0174163
664.910	0.0174632
664.988	0.0174452
665.067	0.0173532
665.145	0.0174834
665.223	0.0174138
665.301	0.0174031
665.379	0.0174791
665.457	0.0173777
665.535	0.0173994
665.613	0.0174880
665.692	0.0173952
665.770	0.0174139
665.848	0.0172590
665.926	0.0174586
666.004	0.0176377
666.082	0.0174980
666.160	0.0174564
666.238	0.0173618
666.317	0.0173379
666.395	0.0173675
666.473	0.0174549
666.551	0.0175761
666.629	0.0173592
666.707	0.0174193
666.785	0.0173482
666.863	0.0174576
666.942	0.0172685
667.020	0.0173709
667.098	0.0174600
667.176	0.0172890
667.254	0.0173221
667.332	0.0172955
667.410	0.0173566
667.488	0.0173427
667.567	0.0173860
667.645	0.0174388
667.723	0.0173314
667.801	0.0173572
667.879	0.0175426
667.957	0.0173700
668.035	0.0173088
668.113	0.0172900
668.192	0.0172582
668.270	0.0174554
668.348	0.0173170
668.426	0.0172233
668.504	0.0173579
668.582	0.0173477
668.660	0.0173518
668.738	0.0172904
668.817	0.0174234
668.895	0.0174502
668.973	0.0174388
669.051	0.0173476
669.129	0.0174629
669.207	0.0173645
669.285	0.0173495
669.363	0.0172822
669.442	0.0173619
669.520	0.0173046
669.598	0.0173031
669.676	0.0173500
669.754	0.0172662
669.832	0.0173675
669.910	0.0174490
669.988	0.0173809
670.067	0.0173334
670.145	0.0172888
670.223	0.0172863
670.301	0.0173112
670.379	0.0173581
670.457	0.0173833
670.535	0.0173296
670.613	0.0172593
670.692	0.0173283
670.770	0.0172961
670.848	0.0174803
670.926	0.0172950
671.004	0.0173154
671.082	0.0172945
671.160	0.0172810
671.238	0.0174036
671.317	0.0174006
671.395	0.0173077
671.473	0.0173738
671.551	0.0175471
671.629	0.0174350
671.707	0.0173130
671.785	0.0173869
671.863	0.0173750
671.942	0.0174863
672.020	0.0173206
672.098	0.0175839
672.176	0.0173170
672.254	0.0173340
672.332	0.0172722
672.410	0.0174691
672.488	0.0174518
672.567	0.0174226
672.645	0.0172372
672.723	0.0172083
672.801	0.0173458
672.879	0.0174251
672.957	0.0174151
673.035	0.0173782
673.113	0.0173048
673.192	0.0172929
673.270	0.0174040
673.348	0.0174991
673.426	0.0172845
673.504	0.0172875
673.582	0.0174219
673.660	0.0174825
673.738	0.0173418
673.817	0.0174001
673.895	0.0174075
673.973	0.0174587
674.051	0.0174248
674.129	0.0174516
674.207	0.0175145
674.285	0.0174557
674.363	0.0173903
674.442	0.0173975
674.520	0.0173882
674.598	0.0172480
674.676	0.0173001
674.754	0.0174819
674.832	0.0173167
674.910	0.0173206
674.988	0.0173745
675.067	0.0174393
675.145	0.0173576
675.223	0.0172354
675.301	0.0173320
675.379	0.0173021
675.457	0.0173093
675.535	0.0174678
675.613	0.0172236
675.692	0.0173080
675.770	0.0173450
675.848	0.0173268
675.926	0.0173538
676.004	0.0172501
676.082	0.0173322
676.160	0.0174513
676.238	0.0173631
676.317	0.0173401
676.395	0.0172575
676.473	0.0174127
676.551	0.0173065
676.629	0.0172639
676.707	0.0173558
676.785	0.0174581
676.863	0.0173727
676.942	0.0173913
677.020	0.0173688
677.098	0.0175583
677.176	0.0173958
677.254	0.0173077
677.332	0.0171282
677.410	0.0173938
677.488	0.0173771
677.567	0.0173930
677.645	0.0174466
677.723	0.0172944
677.801	0.0172546
677.879	0.0173198
677.957	0.0173410
678.035	0.0172894
678.113	0.0174335
678.192	0.0174907
678.270	0.0173983
678.348	0.0173595
678.426	0.0172197
678.504	0.0172553
678.582	0.0174810
678.660	0.0173611
678.738	0.0173306
678.817	0.0174214
678.895	0.0174258
678.973	0.0174067
679.051	0.0176433
679.129	0.0175906
679.207	0.0174962
679.285	0.0175669
679.363	0.0174921
679.442	0.0175698
679.520	0.0176111
679.598	0.0175505
679.676	0.0175871
679.754	0.0174873
679.832	0.0175491
679.910	0.0174755
679.988	0.0172362
680.067	0.0172866
680.145	0.0171786
680.223	0.0170320
680.301	0.0170873
680.379	0.0170336
680.457	0.0170177
680.535	0.0168999
680.613	0.0169866
680.692	0.0168722
680.770	0.0168932
680.848	0.0169970
680.926	0.0170857
681.004	0.0170981
681.082	0.0172730
681.160	0.0172212
681.238	0.0172298
681.317	0.0172643
681.395	0.0172690
681.473	0.0172379
681.551	0.0171126
681.629	0.0171177
681.707	0.0170133
681.785	0.0169208
681.863	0.0169357
681.942	0.0167312
682.020	0.0168707
682.098	0.0168665
682.176	0.0172246
682.254	0.0174683
682.332	0.0176701
682.410	0.0180484
682.488	0.0184908
682.567	0.0189534
682.645	0.0194476
682.723	0.0196652
682.801	0.0199519
682.879	0.0203085
682.957	0.0203196
683.035	0.0204065
683.113	0.0204205
683.192	0.0202593
683.270	0.0197569
683.348	0.0193347
683.426	0.0188628
683.504	0.0181161
683.582	0.0172321
683.660	0.0162996
683.738	0.0153611
683.817	0.0144608
683.895	0.0134800
683.973	0.0126114
684.051	0.0121278
684.129	0.0115499
684.207	0.0114114
684.285	0.0113889
684.363	0.0116205
684.442	0.0118279
684.520	0.0123457
684.598	0.0129920
684.676	0.0135786
684.754	0.0143974
684.832	0.0152181
684.910	0.0159713
684.988	0.0171218
685.067	0.0180492
685.145	0.0191746
685.223	0.0206822
685.301	0.0219771
685.379	0.0233680
685.457	0.0247333
685.535	0.0259422
685.613	0.0270462
685.692	0.0276667
685.770	0.0279365
685.848	0.0276581
685.926	0.0271457
686.004	0.0261627
686.082	0.0248409
686.160	0.0229666
686.238	0.0212034
686.317	0.0192461
686.395	0.0169090
686.473	0.0149367
686.551	0.0128576
686.629	0.0111427
686.707	0.00954498
686.785	0.00811096
686.863	0.00719330
686.942	0.00619255
687.020	0.00545158
687.098	0.00533623
687.176	0.00544456
687.254	0.00585197
687.332	0.00672974
687.410	0.00790627
687.488	0.00934822
687.567	0.0110770
687.645	0.0130629
687.723	0.0152383
687.801	0.0174987
687.879	0.0197157
687.957	0.0220666
688.035	0.0241148
688.113	0.0261126
688.192	0.0277717
688.270	0.0291521
688.348	0.0303060
688.426	0.0312486
688.504	0.0316529
688.582	0.0315684
688.660	0.0314262
688.738	0.0305460
688.817	0.0294979
688.895	0.0282897
688.973	0.0263758
689.051	0.0243027
689.129	0.0219342
689.207	0.0192648
689.285	0.0163685
689.363	0.0137415
689.442	0.0108247
689.520	0.00822571
689.598	0.00564629
689.676	0.00342957
689.754	0.00185707
689.832	0.000660095
689.910	-0.000188599
689.988	-0.000498962
690.067	-0.000328293
690.145	0.000249176
690.223	0.00129791
690.301	0.00287079
690.379	0.00453903
690.457	0.00675964
690.535	0.00936226
690.613	0.0121101
690.692	0.0151373
690.770	0.0182170
690.848	0.0213836
690.926	0.0243036
691.004	0.0272059
691.082	0.0299976
691.160	0.0323715
691.238	0.0343000
691.317	0.0358630
691.395	0.0370545
691.473	0.0374725
691.551	0.0373608
691.629	0.0368036
691.707	0.0355515
691.785	0.0338672
691.863	0.0318252
691.942	0.0295836
692.020	0.0271795
692.098	0.0242703
692.176	0.0216666
692.254	0.0188197
692.332	0.0162000
692.410	0.0136317
692.488	0.0111313
692.567	0.00878899
692.645	0.00674042
692.723	0.00482750
692.801	0.00350204
692.879	0.00236305
692.957	0.00170952
693.035	0.00126030
693.113	0.00111015
693.192	0.00143158
693.270	0.00203232
693.348	0.00287491
693.426	0.00395370
693.504	0.00519798
693.582	0.00695862
693.660	0.00854088
693.738	0.0103989
693.817	0.0124122
693.895	0.0143797
693.973	0.0163498
694.051	0.0183501
694.129	0.0202058
694.207	0.0221229
694.285	0.0238297
694.363	0.0254939
694.442	0.0267912
694.520	0.0279295
694.598	0.0288481
694.676	0.0293671
694.754	0.0294064
694.832	0.0292886
694.910	0.0288442
694.988	0.0281021
695.067	0.0270911
695.145	0.0258378
695.223	0.0245554
695.301	0.0232450
695.379	0.0217870
695.457	0.0204961
695.535	0.0191926
695.613	0.0179424
695.692	0.0168087
695.770	0.0160746
695.848	0.0152607
695.926	0.0146741
696.004	0.0143758
696.082	0.0141579
696.160	0.0140443
696.238	0.0141810
696.317	0.0142061
696.395	0.0143532
696.473	0.0144899
696.551	0.0145775
696.629	0.0144672
696.707	0.0145073
696.785	0.0145846
696.863	0.0146100
696.942	0.0146209
697.020	0.0146732
697.098	0.0149064
697.176	0.0151192
697.254	0.0152093
697.332	0.0154254
697.410	0.0155676
697.488	0.0157494
697.567	0.0161192
697.645	0.0162089
697.723	0.0162934
697.801	0.0163122
697.879	0.0163760
697.957	0.0164453
698.035	0.0163176
698.113	0.0162356
698.192	0.0163845
698.270	0.0162975
698.348	0.0163058
698.426	0.0163761
698.504	0.0165270
698.582	0.0167690
698.660	0.0170020
698.738	0.0172418
698.817	0.0174934
698.895	0.0178909
698.973	0.0181892
699.051	0.0183870
699.129	0.0187652
699.207	0.0190055
699.285	0.0191572
699.363	0.0194689
699.442	0.0196607
699.520	0.0197691
699.598	0.0197672
699.676	0.0198197
699.754	0.0197856
699.832	0.0197768
699.910	0.0195888
699.988	0.0196901
700.067	0.0196014
700.145	0.0195132
700.223	0.0195088
700.301	0.0193443
700.379	0.0191506
700.457	0.0190791
700.535	0.0188247
700.613	0.0188173
700.692	0.0186120
700.770	0.0182765
700.848	0.0179149
700.926	0.0174768
701.004	0.0171126
701.082	0.0166185
701.160	0.0162777
701.238	0.0160593
701.317	0.0158995
701.395	0.0156276
701.473	0.0156252
701.551	0.0154583
701.629	0.0154786
701.707	0.0157246
701.785	0.0157382
701.863	0.0157694
701.942	0.0160478
702.020	0.0162319
702.098	0.0161596
702.176	0.0163248
702.254	0.0163937
702.332	0.0164468
702.410	0.0166002
702.488	0.0165371
702.567	0.0164145
702.645	0.0164064
702.723	0.0164407
702.801	0.0162844
702.879	0.0163091
702.957	0.0164075
703.035	0.0165761
703.113	0.0166586
703.192	0.0167083
703.270	0.0167575
703.348	0.0169484
703.426	0.0168616
703.504	0.0169335
703.582	0.0171066
703.660	0.0171128
703.738	0.0172585
703.817	0.0172380
703.895	0.0174026
703.973	0.0171802
704.051	0.0173493
704.129	0.0174624
704.207	0.0178312
704.285	0.0179721
704.363	0.0182049
704.442	0.0183969
704.520	0.0185778
704.598	0.0189360
704.676	0.0191251
704.754	0.0191042
704.832	0.0190417
704.910	0.0191159
704.988	0.0189742
705.067	0.0188534
705.145	0.0184776
705.223	0.0183456
705.301	0.0182514
705.379	0.0179794
705.457	0.0177201
705.535	0.0175198
705.613	0.0174707
705.692	0.0172975
705.770	0.0175412
705.848	0.0176388
705.926	0.0178291
706.004	0.0179512
706.082	0.0179805
706.160	0.0181929
706.238	0.0184605
706.317	0.0184647
706.395	0.0185229
706.473	0.0185768
706.551	0.0184986
706.629	0.0185692
706.707	0.0183958
706.785	0.0180027
706.863	0.0178912
706.942	0.0175025
707.020	0.0172472
707.098	0.0169911
707.176	0.0166367
707.254	0.0162695
707.332	0.0160414
707.410	0.0153996
707.488	0.0153850
707.567	0.0151556
707.645	0.0151941
707.723	0.0148618
707.801	0.0148573
707.879	0.0148759
707.957	0.0146738
708.035	0.0147993
708.113	0.0149006
708.192	0.0149718
708.270	0.0153259
708.348	0.0156171
708.426	0.0158650
708.504	0.0162318
708.582	0.0165773
708.660	0.0168956
708.738	0.0173792
708.817	0.0176380
708.895	0.0178560
708.973	0.0181823
709.051	0.0183601
709.129	0.0185185
709.207	0.0186835
709.285	0.0187624
709.363	0.0189882
709.442	0.0189989
709.520	0.0190674
709.598	0.0189811
709.676	0.0189925
709.754	0.0187738
709.832	0.0187592
709.910	0.0186873
709.988	0.0183508
710.067	0.0181670
710.145	0.0180248
710.223	0.0178591
710.301	0.0176258
710.379	0.0176723
710.457	0.0176132
710.535	0.0177534
710.613	0.0178181
710.692	0.0179885
710.770	0.0181223
710.848	0.0181266
710.926	0.0183820
711.004	0.0183428
711.082	0.0184054
711.160	0.0185847
711.238	0.0185191
711.317	0.0183994
711.395	0.0183753
711.473	0.0182182
711.551	0.0180527
711.629	0.0177554
711.707	0.0174255
711.785	0.0171195
711.863	0.0169249
711.942	0.0166076
712.020	0.0164349
712.098	0.0163139
712.176	0.0160333
712.254	0.0160175
712.332	0.0159560
712.410	0.0158912
712.488	0.0158488
712.567	0.0159282
712.645	0.0160263
712.723	0.0160262
712.801	0.0160467
712.879	0.0161800
712.957	0.0161547
713.035	0.0165297
713.113	0.0164261
713.192	0.0165042
713.270	0.0164429
713.348	0.0165777
713.426	0.0167881
713.504	0.0169698
713.582	0.0170753
713.660	0.0171046
713.738	0.0174137
713.817	0.0175074
713.895	0.0177956
713.973	0.0179890
714.051	0.0179707
714.129	0.0181496
714.207	0.0180527
714.285	0.0181530
714.363	0.0180957
714.442	0.0181292
714.520	0.0180991
714.598	0.0179665
714.676	0.0180341
714.754	0.0179471
714.832	0.0178942
714.910	0.0179051
714.988	0.0177384
715.067	0.0177970
715.145	0.0176753
715.223	0.0175717
715.301	0.0177856
715.379	0.0178722
715.457	0.0178369
715.535	0.0178181
715.613	0.0178050
715.692	0.0178277
715.770	0.0179081
715.848	0.0179007
715.926	0.0177818
716.004	0.0178552
716.082	0.0176588
716.160	0.0176116
716.238	0.0173708
716.317	0.0171556
716.395	0.0171162
716.473	0.0171861
716.551	0.0168770
716.629	0.0169571
716.707	0.0170395
716.785	0.0170998
716.863	0.0170753
716.942	0.0171673
717.020	0.0173120
717.098	0.0175236
717.176	0.0177302
717.254	0.0179029
717.332	0.0178399
717.410	0.0178143
717.488	0.0177615
717.567	0.0176488
717.645	0.0175977
717.723	0.0173338
717.801	0.0172160
717.879	0.0171045
717.957	0.0169115
718.035	0.0169062
718.113	0.0169762
718.192	0.0169971
718.270	0.0170732
718.348	0.0173306
718.426	0.0174388
718.504	0.0178722
718.582	0.0181971
718.660	0.0182623
718.738	0.0183531
718.817	0.0181978
718.895	0.0181924
718.973	0.0181657
719.051	0.0179700
719.129	0.0177632
719.207	0.0174974
719.285	0.0171708
719.363	0.0170189
719.442	0.0167991
719.520	0.0166036
719.598	0.0163039
719.676	0.0162544
719.754	0.0161530
719.832	0.0161160
719.910	0.0161792
719.988	0.0161036
720.067	0.0163817
720.145	0.0163394
720.223	0.0164346
720.301	0.0166849
720.379	0.0168242
720.457	0.0170095
720.535	0.0172119
720.613	0.0173302
720.692	0.0174643
720.770	0.0175510
720.848	0.0176885
720.926	0.0177534
721.004	0.0179960
721.082	0.0181591
721.160	0.0180437
721.238	0.0180816
721.317	0.0181580
721.395	0.0182196
721.473	0.0183466
721.551	0.0182241
721.629	0.0182022
721.707	0.0183623
721.785	0.0182468
721.863	0.0183490
721.942	0.0182791
722.020	0.0182183
722.098	0.0182622
722.176	0.0180236
722.254	0.0180127
722.332	0.0180682
722.410	0.0177433
722.488	0.0176951
722.567	0.0177905
722.645	0.0177516
722.723	0.0175949
722.801	0.0174512
722.879	0.0174619
722.957	0.0173756
723.035	0.0173531
723.113	0.0174528
723.192	0.0173808
723.270	0.0174951
723.348	0.0175260
723.426	0.0173859
723.504	0.0173171
723.582	0.0172355
723.660	0.0173534
723.738	0.0171555
723.817	0.0170518
723.895	0.0170518
723.973	0.0169012
724.051	0.0167358
724.129	0.0166930
724.207	0.0167347
724.285	0.0166751
724.363	0.0166919
724.442	0.0168280
724.520	0.0168381
724.598	0.0168810
724.676	0.0171260
724.754	0.0172751
724.832	0.0173351
724.910	0.0175191
724.988	0.0174972
725.067	0.0174783
725.145	0.0176206
725.223	0.0175662
725.301	0.0173203
725.379	0.0174149
725.457	0.0175246
725.535	0.0174400
725.613	0.0175349
725.692	0.0173119
725.770	0.0172472
725.848	0.0172691
725.926	0.0172153
726.004	0.0171284
726.082	0.0172116
726.160	0.0173530
726.238	0.0173612
726.317	0.0173554
726.395	0.0175745
726.473	0.0175885
726.551	0.0176812
726.629	0.0176778
726.707	0.0178444
726.785	0.0176893
726.863	0.0178185
726.942	0.0177563
727.020	0.0177731
727.098	0.0177728
727.176	0.0178404
727.254	0.0178190
727.332	0.0177379
727.410	0.0176270
727.488	0.0176213
727.567	0.0175277
727.645	0.0176692
727.723	0.0176173
727.801	0.0175062
727.879	0.0174423
727.957	0.0175902
728.035	0.0174174
728.113	0.0175213
728.192	0.0175688
728.270	0.0173789
728.348	0.0173811
728.426	0.0173631
728.504	0.0174425
728.582	0.0173283
728.660	0.0172509
728.738	0.0171809
728.817	0.0171486
728.895	0.0171519
728.973	0.0171693
729.051	0.0170208
729.129	0.0168899
729.207	0.0172413
729.285	0.0171505
729.363	0.0172678
729.442	0.0172467
729.520	0.0174686
729.598	0.0176237
729.676	0.0177295
729.754	0.0177700
729.832	0.0177420
729.910	0.0178391
729.988	0.0175437
730.067	0.0176736
730.145	0.0174529
730.223	0.0174606
730.301	0.0172305
730.379	0.0170288
730.457	0.0169467
730.535	0.0167793
730.613	0.0168279
730.692	0.0167097
730.770	0.0167838
730.848	0.0167917
730.926	0.0168115
731.004	0.0169539
731.082	0.0170783
731.160	0.0171035
731.238	0.0172183
731.317	0.0174043
731.395	0.0174687
731.473	0.0175186
731.551	0.0176247
731.629	0.0175690
731.707	0.0176328
731.785	0.0177168
731.863	0.0176603
731.942	0.0173975
732.020	0.0173909
732.098	0.0174927
732.176	0.0173904
732.254	0.0173286
732.332	0.0174010
732.410	0.0173356
732.488	0.0172138
732.567	0.0171593
732.645	0.0172015
732.723	0.0174128
732.801	0.0174253
732.879	0.0173952
732.957	0.0174146
733.035	0.0175668
733.113	0.0175179
733.192	0.0176441
733.270	0.0176883
733.348	0.0174615
733.426	0.0175053
733.504	0.0176101
733.582	0.0173164
733.660	0.0174296
733.738	0.0173357
733.817	0.0172961
733.895	0.0172350
733.973	0.0171147
734.051	0.0171587
734.129	0.0172610
734.207	0.0172823
734.285	0.0173842
734.363	0.0175144
734.442	0.0175164
734.520	0.0176354
734.598	0.0176692
734.676	0.0177754
734.754	0.0176807
734.832	0.0177332
734.910	0.0177743
734.988	0.0176535
735.067	0.0176803
735.145	0.0175795
735.223	0.0176002
735.301	0.0173929
735.379	0.0173898
735.457	0.0172971
735.535	0.0173271
735.613	0.0172437
735.692	0.0173075
735.770	0.0172490
735.848	0.0173348
735.926	0.0172615
736.004	0.0171674
736.082	0.0173733
736.160	0.0171908
736.238	0.0173293
736.317	0.0173772
736.395	0.0172085
736.473	0.0171976
736.551	0.0173002
736.629	0.0173048
736.707	0.0171478
736.785	0.0171995
736.863	0.0169817
736.942	0.0170991
737.020	0.0169534
737.098	0.0169311
737.176	0.0170371
737.254	0.0170451
737.332	0.0171297
737.410	0.0170314
737.488	0.0173220
737.567	0.0173074
737.645	0.0172621
737.723	0.0174892
737.801	0.0174209
737.879	0.0175500
737.957	0.0177010
738.035	0.0177779
738.113	0.0178284
738.192	0.0177955
738.270	0.0178542
738.348	0.0177948
738.426	0.0178412
738.504	0.0177650
738.582	0.0176844
738.660	0.0176566
738.738	0.0174483
738.817	0.0176128
738.895	0.0174590
738.973	0.0174781
739.051	0.0172879
739.129	0.0174372
739.207	0.0172392
739.285	0.0174870
739.363	0.0172646
739.442	0.0171519
739.520	0.0173560
739.598	0.0172884
739.676	0.0172511
739.754	0.0174065
739.832	0.0175269
739.910	0.0174683
739.988	0.0176398
740.067	0.0175523
740.145	0.0176376
740.223	0.0175494
740.301	0.0176836
740.379	0.0176945
740.457	0.0177486
740.535	0.0178217
740.613	0.0178481
740.692	0.0179378
740.770	0.0178223
740.848	0.0176617
740.926	0.0177336
741.004	0.0176259
741.082	0.0176097
741.160	0.0176038
741.238	0.0174477
741.317	0.0173643
741.395	0.0173763
741.473	0.0173295
741.551	0.0171826
741.629	0.0172553
741.707	0.0173220
741.785	0.0172386
741.863	0.0171470
741.942	0.0171171
742.020	0.0170580
742.098	0.0171593
742.176	0.0171901
742.254	0.0171417
742.332	0.0171479
742.410	0.0172342
742.488	0.0171261
742.567	0.0172753
742.645	0.0171831
742.723	0.0172343
742.801	0.0174626
742.879	0.0173450
742.957	0.0171969
743.035	0.0172625
743.113	0.0173261
743.192	0.0173003
743.270	0.0173557
743.348	0.0172926
743.426	0.0171877
743.504	0.0173112
743.582	0.0173784
743.660	0.0174788
743.738	0.0174590
743.817	0.0175039
743.895	0.0174748
743.973	0.0176012
744.051	0.0176072
744.129	0.0176509
744.207	0.0177058
744.285	0.0177298
744.363	0.0177171
744.442	0.0177284
744.520	0.0176457
744.598	0.0177686
744.676	0.0177268
744.754	0.0176411
744.832	0.0177544
744.910	0.0177850
744.988	0.0177428
745.067	0.0178938
745.145	0.0178137
745.223	0.0177609
745.301	0.0176177
745.379	0.0176841
745.457	0.0176585
745.535	0.0176574
745.613	0.0177085
745.692	0.0175700
745.770	0.0177372
745.848	0.0175481
745.926	0.0177165
746.004	0.0175022
746.082	0.0173811
746.160	0.0175532
746.238	0.0173911
746.317	0.0172984
746.395	0.0173892
746.473	0.0174010
746.551	0.0172765
746.629	0.0172005
746.707	0.0172166
746.785	0.0171918
746.863	0.0171295
746.942	0.0171690
747.020	0.0170588
747.098	0.0171518
747.176	0.0172607
747.254	0.0169846
747.332	0.0168424
747.410	0.0170173
747.488	0.0168720
747.567	0.0170582
747.645	0.0168761
747.723	0.0169028
747.801	0.0168752
747.879	0.0168687
747.957	0.0168335
748.035	0.0168836
748.113	0.0169809
748.192	0.0171629
748.270	0.0171051
748.348	0.0172681
748.426	0.0174387
748.504	0.0176235
748.582	0.0176307
748.660	0.0177098
748.738	0.0178811
748.817	0.0180753
748.895	0.0179189
748.973	0.0179494
749.051	0.0178128
749.129	0.0178956
749.207	0.0179065
749.285	0.0179431
749.363	0.0179234
749.442	0.0177115
749.520	0.0176007
749.598	0.0174902
749.676	0.0175229
749.754	0.0174751
749.832	0.0173764
749.910	0.0174516
749.988	0.0173977
750.067	0.0172079
750.145	0.0173913
750.223	0.0174945
750.301	0.0175578
750.379	0.0176740
750.457	0.0175841
750.535	0.0176997
750.613	0.0177060
750.692	0.0176900
750.770	0.0177588
750.848	0.0177631
750.926	0.0176801
751.004	0.0177897
751.082	0.0176430
751.160	0.0175224
751.238	0.0174895
751.317	0.0176709
751.395	0.0175300
751.473	0.0175479
751.551	0.0175595
751.629	0.0175778
751.707	0.0175990
751.785	0.0175489
751.863	0.0173844
751.942	0.0174389
752.020	0.0173608
752.098	0.0174329
752.176	0.0173024
752.254	0.0172677
752.332	0.0174108
752.410	0.0173512
752.488	0.0170675
752.567	0.0170518
752.645	0.0170554
752.723	0.0168613
752.801	0.0168269
752.879	0.0169337
752.957	0.0167858
753.035	0.0167138
753.113	0.0168163
753.192	0.0168082
753.270	0.0168803
753.348	0.0169520
753.426	0.0170952
753.504	0.0172252
753.582	0.0172382
753.660	0.0172827
753.738	0.0172799
753.817	0.0174189
753.895	0.0175250
753.973	0.0176581
754.051	0.0176319
754.129	0.0177744
754.207	0.0177365
754.285	0.0175917
754.363	0.0178013
754.442	0.0175276
754.520	0.0174780
754.598	0.0174784
754.676	0.0174754
754.754	0.0175756
754.832	0.0174799
754.910	0.0174018
754.988	0.0174736
755.067	0.0174661
755.145	0.0173981
755.223	0.0174278
755.301	0.0175439
755.379	0.0176738
755.457	0.0177582
755.535	0.0177144
755.613	0.0177245
755.692	0.0176988
755.770	0.0176323
755.848	0.0176749
755.926	0.0177112
756.004	0.0175312
756.082	0.0175582
756.160	0.0177380
756.238	0.0177094
756.317	0.0178003
756.395	0.0175367
756.473	0.0175712
756.551	0.0175464
756.629	0.0176124
756.707	0.0175091
756.785	0.0176588
756.863	0.0176580
756.942	0.0175756
757.020	0.0176469
757.098	0.0174699
757.176	0.0174390
757.254	0.0173746
757.332	0.0172623
757.410	0.0171126
757.488	0.0170518
757.567	0.0169276
757.645	0.0168645
757.723	0.0168156
757.801	0.0165641
757.879	0.0166079
757.957	0.0166261
758.035	0.0166864
758.113	0.0166970
758.192	0.0166855
758.270	0.0168653
758.348	0.0169073
758.426	0.0170097
758.504	0.0172470
758.582	0.0174372
758.660	0.0174942
758.738	0.0177454
758.817	0.0178538
758.895	0.0178890
758.973	0.0179562
759.051	0.0178770
759.129	0.0178484
759.207	0.0178674
759.285	0.0179194
759.363	0.0177916
759.442	0.0179203
759.520	0.0177446
759.598	0.0175729
759.676	0.0176036
759.754	0.0174668
759.832	0.0174184
759.910	0.0173788
759.988	0.0172731
760.067	0.0172234
760.145	0.0174401
760.223	0.0173824
760.301	0.0172332
760.379	0.0173315
760.457	0.0173026
760.535	0.0173100
760.613	0.0173555
760.692	0.0174920
760.770	0.0174473
760.848	0.0175266
760.926	0.0173675
761.004	0.0175618
761.082	0.0176469
761.160	0.0175741
761.238	0.0175232
761.317	0.0174615
761.395	0.0175434
761.473	0.0175191
761.551	0.0175784
761.629	0.0176170
761.707	0.0175146
761.785	0.0176460
761.863	0.0176801
761.942	0.0176163
762.020	0.0174075
762.098	0.0175528
762.176	0.0174293
762.254	0.0174260
762.332	0.0174113
762.410	0.0172639
762.488	0.0171001
762.567	0.0171816
762.645	0.0171992
762.723	0.0172701
762.801	0.0170767
762.879	0.0170231
762.957	0.0169747
763.035	0.0171275
763.113	0.0169756
763.192	0.0171780
763.270	0.0171835
763.348	0.0173222
763.426	0.0173125
763.504	0.0173891
763.582	0.0173938
763.660	0.0174553
763.738	0.0174581
763.817	0.0174874
763.895	0.0176226
763.973	0.0174903
764.051	0.0176546
764.129	0.0176007
764.207	0.0173828
764.285	0.0177061
764.363	0.0177655
764.442	0.0178224
764.520	0.0176913
764.598	0.0175705
764.676	0.0175378
764.754	0.0176597
764.832	0.0175864
764.910	0.0175604
764.988	0.0174889
765.067	0.0174709
765.145	0.0172504
765.223	0.0171457
765.301	0.0171400
765.379	0.0171928
765.457	0.0171753
765.535	0.0170570
765.613	0.0169745
765.692	0.0170390
765.770	0.0169216
765.848	0.0169225
765.926	0.0169225
766.004	0.0171156
766.082	0.0170898
766.160	0.0170539
766.238	0.0172883
766.317	0.0174447
766.395	0.0174100
766.473	0.0173890
766.551	0.0175169
766.629	0.0176141
766.707	0.0176749
766.785	0.0176778
766.863	0.0177473
766.942	0.0177541
767.020	0.0178690
767.098	0.0178365
767.176	0.0176404
767.254	0.0176336
767.332	0.0175421
767.410	0.0175499
767.488	0.0175164
767.567	0.0174917
767.645	0.0175240
767.723	0.0175008
767.801	0.0173251
767.879	0.0172575
767.957	0.0173849
768.035	0.0172364
768.113	0.0173056
768.192	0.0173782
768.270	0.0174117
768.348	0.0172796
768.426	0.0173180
768.504	0.0173981
768.582	0.0174377
768.660	0.0172681
768.738	0.0171908
768.817	0.0172677
768.895	0.0174267
768.973	0.0172558
769.051	0.0174005
769.129	0.0173479
769.207	0.0173335
769.285	0.0172952
769.363	0.0173006
769.442	0.0172963
769.520	0.0172797
769.598	0.0173243
769.676	0.0174312
769.754	0.0173843
769.832	0.0174335
769.910	0.0173877
769.988	0.0174607
770.067	0.0173560
770.145	0.0174203
770.223	0.0174198
770.301	0.0173938
770.379	0.0175082
770.457	0.0174386
770.535	0.0174331
770.613	0.0174586
770.692	0.0175874
770.770	0.0174701
770.848	0.0175063
770.926	0.0175681
771.004	0.0174860
771.082	0.0175735
771.160	0.0175552
771.238	0.0174354
771.317	0.0176742
771.395	0.0175961
771.473	0.0175098
771.551	0.0176730
771.629	0.0174892
771.707	0.0174387
771.785	0.0175774
771.863	0.0174960
771.942	0.0174069
772.020	0.0173265
772.098	0.0172559
772.176	0.0171761
772.254	0.0170593
772.332	0.0172121
772.410	0.0172293
772.488	0.0171488
772.567	0.0170553
772.645	0.0172855
772.723	0.0171840
772.801	0.0172224
772.879	0.0172984
772.957	0.0173502
773.035	0.0173419
773.113	0.0173978
773.192	0.0175637
773.270	0.0174927
773.348	0.0176152
773.426	0.0176722
773.504	0.0176343
773.582	0.0176085
773.660	0.0174972
773.738	0.0174551
773.817	0.0175809
773.895	0.0176283
773.973	0.0175744
774.051	0.0175290
774.129	0.0174382
774.207	0.0175220
774.285	0.0174310
774.363	0.0173836
774.442	0.0173662
774.520	0.0171896
774.598	0.0172372
774.676	0.0173004
774.754	0.0172327
774.832	0.0171966
774.910	0.0172251
774.988	0.0172556
775.067	0.0172781
775.145	0.0171678
775.223	0.0170036
775.301	0.0172950
775.379	0.0173309
775.457	0.0172355
775.535	0.0172339
775.613	0.0172294
775.692	0.0171843
775.770	0.0172738
775.848	0.0172539
775.926	0.0173622
776.004	0.0175447
776.082	0.0174522
776.160	0.0173759
776.238	0.0173396
776.317	0.0174595
776.395	0.0176385
776.473	0.0174966
776.551	0.0173882
776.629	0.0174165
776.707	0.0174203
776.785	0.0174497
776.863	0.0174885
776.942	0.0172581
777.020	0.0174915
777.098	0.0173265
777.176	0.0174113
777.254	0.0172208
777.332	0.0172921
777.410	0.0172469
777.488	0.0171938
777.567	0.0173034
777.645	0.0173080
777.723	0.0172377
777.801	0.0172926
777.879	0.0172749
777.957	0.0172954
778.035	0.0173693
778.113	0.0172962
778.192	0.0173306
778.270	0.0173142
778.348	0.0174832
778.426	0.0174731
778.504	0.0174239
778.582	0.0175849
778.660	0.0174525
778.738	0.0173338
778.817	0.0176469
778.895	0.0177425
778.973	0.0176582
779.051	0.0175544
779.129	0.0176479
779.207	0.0177847
779.285	0.0177717
779.363	0.0176945
779.442	0.0177457
779.520	0.0176150
779.598	0.0176634
779.676	0.0176910
779.754	0.0176832
779.832	0.0176402
779.910	0.0174251
779.988	0.0172847
780.067	0.0172234
780.145	0.0173641
780.223	0.0171109
780.301	0.0170769
780.379	0.0170439
780.457	0.0168689
780.535	0.0169558
780.613	0.0168420
780.692	0.0168428
780.770	0.0169112
780.848	0.0170101
780.926	0.0169647
781.004	0.0170281
781.082	0.0170595
781.160	0.0171796
781.238	0.0174133
781.317	0.0174290
781.395	0.0174315
781.473	0.0177572
781.551	0.0177398
781.629	0.0177835
781.707	0.0179543
781.785	0.0180531
781.863	0.0181434
781.942	0.0180107
782.020	0.0181180
782.098	0.0180264
782.176	0.0181059
782.254	0.0181075
782.332	0.0178413
782.410	0.0179230
782.488	0.0177409
782.567	0.0177110
782.645	0.0175549
782.723	0.0173029
782.801	0.0172529
782.879	0.0171733
782.957	0.0170058
783.035	0.0167252
783.113	0.0166662
783.192	0.0165022
783.270	0.0163167
783.348	0.0163968
783.426	0.0163306
783.504	0.0163773
783.582	0.0163450
783.660	0.0162421
783.738	0.0164780
783.817	0.0164597
783.895	0.0166338
783.973	0.0167826
784.051	0.0170232
784.129	0.0173602
784.207	0.0173323
784.285	0.0175923
784.363	0.0177805
784.442	0.0180936
784.520	0.0181027
784.598	0.0182034
784.676	0.0184196
784.754	0.0184999
784.832	0.0184298
784.910	0.0184791
784.988	0.0185222
785.067	0.0184534
785.145	0.0183858
785.223	0.0182911
785.301	0.0182274
785.379	0.0181503
785.457	0.0179285
785.535	0.0177444
785.613	0.0175871
785.692	0.0176002
785.770	0.0173951
785.848	0.0172501
785.926	0.0170452
786.004	0.0169703
786.082	0.0167791
786.160	0.0167236
786.238	0.0165192
786.317	0.0164705
786.395	0.0164858
786.473	0.0164272
786.551	0.0163049
786.629	0.0163296
786.707	0.0164103
786.785	0.0163509
786.863	0.0164669
786.942	0.0165845
787.020	0.0169488
787.098	0.0169952
787.176	0.0170968
787.254	0.0173473
787.332	0.0174248
787.410	0.0177425
787.488	0.0178790
787.567	0.0180058
787.645	0.0180522
787.723	0.0183238
787.801	0.0182955
787.879	0.0184517
787.957	0.0184276
788.035	0.0183990
788.113	0.0184444
788.192	0.0183738
788.270	0.0182795
788.348	0.0182118
788.426	0.0180196
788.504	0.0178948
788.582	0.0178372
788.660	0.0177285
788.738	0.0175742
788.817	0.0175376
788.895	0.0174148
788.973	0.0172926
789.051	0.0171741
789.129	0.0170479
789.207	0.0168394
789.285	0.0165381
789.363	0.0166635
789.442	0.0165974
789.520	0.0165127
789.598	0.0162771
789.676	0.0163058
789.754	0.0163320
789.832	0.0161449
789.910	0.0161954
789.988	0.0162002
790.067	0.0163618
790.145	0.0161845
790.223	0.0165205
790.301	0.0165894
790.379	0.0167613
790.457	0.0168291
790.535	0.0170753
790.613	0.0171500
790.692	0.0170536
790.770	0.0175138
790.848	0.0175249
790.926	0.0175274
791.004	0.0178111
791.082	0.0178121
791.160	0.0179552
791.238	0.0179763
791.317	0.0180625
791.395	0.0181726
791.473	0.0182357
791.551	0.0181911
791.629	0.0183372
791.707	0.0182617
791.785	0.0183404
791.863	0.0183252
791.942	0.0183637
792.020	0.0182608
792.098	0.0182445
792.176	0.0183899
792.254	0.0182866
792.332	0.0182030
792.410	0.0181190
792.488	0.0179964
792.567	0.0179951
792.645	0.0179460
792.723	0.0177789
792.801	0.0177605
792.879	0.0176850
792.957	0.0173975
793.035	0.0173266
793.113	0.0171566
793.192	0.0171661
793.270	0.0169986
793.348	0.0169530
793.426	0.0168728
793.504	0.0167812
793.582	0.0169255
793.660	0.0169120
793.738	0.0169873
793.817	0.0168752
793.895	0.0168018
793.973	0.0168223
794.051	0.0168787
794.129	0.0168405
794.207	0.0169104
794.285	0.0169811
794.363	0.0169115
794.442	0.0168414
794.520	0.0168304
794.598	0.0168816
794.676	0.0169646
794.754	0.0167796
794.832	0.0169052
794.910	0.0170423
794.988	0.0170985
795.067	0.0171078
795.145	0.0172286
795.223	0.0173332
795.301	0.0174312
795.379	0.0174355
795.457	0.0174447
795.535	0.0174890
795.613	0.0176117
795.692	0.0176389
795.770	0.0175768
795.848	0.0176824
795.926	0.0177341
796.004	0.0177451
796.082	0.0178565
796.160	0.0177007
796.238	0.0177148
796.317	0.0176578
796.395	0.0176542
796.473	0.0176157
796.551	0.0175781
796.629	0.0176472
796.707	0.0177343
796.785	0.0176080
796.863	0.0176342
796.942	0.0175385
797.020	0.0175737
797.098	0.0175885
797.176	0.0175686
797.254	0.0174668
797.332	0.0174080
797.410	0.0174030
797.488	0.0173102
797.567	0.0172215
797.645	0.0172679
797.723	0.0172549
797.801	0.0173638
797.879	0.0174007
797.957	0.0173280
798.035	0.0172435
798.113	0.0172263
798.192	0.0172920
798.270	0.0172730
798.348	0.0173187
798.426	0.0171965
798.504	0.0172459
798.582	0.0172420
798.660	0.0171069
798.738	0.0171104
798.817	0.0170609
798.895	0.0169694
798.973	0.0170277
799.051	0.0170977
799.129	0.0170261
799.207	0.0171187
799.285	0.0171590
799.363	0.0171733
799.442	0.0171414
799.520	0.0171069
799.598	0.0172502
799.676	0.0173074
799.754	0.0173857
799.832	0.0176326
799.910	0.0174673
799.988	0.0174030
800.067	0.0176032
800.145	0.0176251
800.223	0.0177512
800.301	0.0177674
800.379	0.0176902
800.457	0.0179033
800.535	0.0179648
800.613	0.0178909
800.692	0.0177566
800.770	0.0178083
800.848	0.0178986
800.926	0.0178642
801.004	0.0178057
801.082	0.0177345
801.160	0.0176743
801.238	0.0175409
801.317	0.0172925
801.395	0.0174375
801.473	0.0173605
801.551	0.0172636
801.629	0.0172047
801.707	0.0171218
801.785	0.0172150
801.863	0.0171699
801.942	0.0171989
802.020	0.0172115
802.098	0.0170620
802.176	0.0169748
802.254	0.0171379
802.332	0.0171626
802.410	0.0172237
802.488	0.0172373
802.567	0.0172117
802.645	0.0171672
802.723	0.0173207
802.801	0.0173165
802.879	0.0173994
802.957	0.0174509
803.035	0.0173005
803.113	0.0173658
803.192	0.0172382
803.270	0.0172943
803.348	0.0174726
803.426	0.0173724
803.504	0.0173946
803.582	0.0174100
803.660	0.0174614
803.738	0.0173212
803.817	0.0175186
803.895	0.0174381
803.973	0.0173302
804.051	0.0172231
804.129	0.0174352
804.207	0.0174312
804.285	0.0175247
804.363	0.0173319
804.442	0.0173618
804.520	0.0174307
804.598	0.0173112
804.676	0.0174262
804.754	0.0173809
804.832	0.0173011
804.910	0.0173266
804.988	0.0175211
805.067	0.0173972
805.145	0.0172921
805.223	0.0174065
805.301	0.0172222
805.379	0.0173240
805.457	0.0174837
805.535	0.0173164
805.613	0.0174541
805.692	0.0172195
805.770	0.0173517
805.848	0.0172594
805.926	0.0173698
806.004	0.0174039
806.082	0.0174838
806.160	0.0175460
806.238	0.0174054
806.317	0.0176001
806.395	0.0175438
806.473	0.0176208
806.551	0.0176010
806.629	0.0177230
806.707	0.0177210
806.785	0.0177819
806.863	0.0177005
806.942	0.0177579
807.020	0.0176372
807.098	0.0177441
807.176	0.0175990
807.254	0.0176623
807.332	0.0177011
807.410	0.0176402
807.488	0.0175950
807.567	0.0176479
807.645	0.0175335
807.723	0.0173768
807.801	0.0174168
807.879	0.0173723
807.957	0.0173490
808.035	0.0171719
808.113	0.0170979
808.192	0.0171873
808.270	0.0170753
808.348	0.0170316
808.426	0.0170309
808.504	0.0169765
808.582	0.0170190
808.660	0.0170274
808.738	0.0170061
808.817	0.0169727
808.895	0.0172688
808.973	0.0172083
809.051	0.0171449
809.129	0.0172735
809.207	0.0172324
809.285	0.0173268
809.363	0.0173898
809.442	0.0173933
809.520	0.0174548
809.598	0.0174347
809.676	0.0175723
809.754	0.0174767
809.832	0.0174873
809.910	0.0175143
809.988	0.0176356
810.067	0.0176109
810.145	0.0176628
810.223	0.0176553
810.301	0.0174511
810.379	0.0175205
810.457	0.0175363
810.535	0.0174474
810.613	0.0175220
810.692	0.0174450
810.770	0.0174637
810.848	0.0175114
810.926	0.0173835
811.004	0.0172251
811.082	0.0173727
811.160	0.0175047
811.238	0.0173626
811.317	0.0172120
811.395	0.0172681
811.473	0.0172831
811.551	0.0173417
811.629	0.0174408
811.707	0.0173339
811.785	0.0173656
811.863	0.0174260
811.942	0.0174142
812.020	0.0174759
812.098	0.0175113
812.176	0.0176983
812.254	0.0175019
812.332	0.0175834
812.410	0.0178454
812.488	0.0175995
812.567	0.0175215
812.645	0.0176810
812.723	0.0174996
812.801	0.0177316
812.879	0.0175722
812.957	0.0175492
813.035	0.0175822
813.113	0.0172805
813.192	0.0174325
813.270	0.0173293
813.348	0.0172564
813.426	0.0172404
813.504	0.0170846
813.582	0.0170190
813.660	0.0170954
813.738	0.0170950
813.817	0.0168546
813.895	0.0169670
813.973	0.0169730
814.051	0.0170290
814.129	0.0169267
814.207	0.0169898
814.285	0.0171563
814.363	0.0171248
814.442	0.0171664
814.520	0.0172182
814.598	0.0173241
814.676	0.0175320
814.754	0.0175835
814.832	0.0178307
814.910	0.0176436
814.988	0.0177772
815.067	0.0178331
815.145	0.0179311
815.223	0.0178975
815.301	0.0178767
815.379	0.0178933
815.457	0.0179527
815.535	0.0180350
815.613	0.0179308
815.692	0.0178177
815.770	0.0178380
815.848	0.0178104
815.926	0.0177053
816.004	0.0177106
816.082	0.0176412
816.160	0.0174976
816.238	0.0175253
816.317	0.0173550
816.395	0.0171649
816.473	0.0170576
816.551	0.0171092
816.629	0.0171983
816.707	0.0171377
816.785	0.0171156
816.863	0.0172131
816.942	0.0171122
817.020	0.0170813
817.098	0.0171823
817.176	0.0172134
817.254	0.0171164
817.332	0.0172650
817.410	0.0172993
817.488	0.0173037
817.567	0.0173676
817.645	0.0173547
817.723	0.0174880
817.801	0.0174763
817.879	0.0176774
817.957	0.0177148
818.035	0.0175956
818.113	0.0177425
818.192	0.0177785
818.270	0.0177554
818.348	0.0176438
818.426	0.0176234
818.504	0.0176823
818.582	0.0176028
818.660	0.0175047
818.738	0.0174841
818.817	0.0173370
818.895	0.0173322
818.973	0.0171432
819.051	0.0172337
819.129	0.0170073
819.207	0.0170212
819.285	0.0170490
819.363	0.0169326
819.442	0.0168545
819.520	0.0169793
819.598	0.0168771
819.676	0.0169611
819.754	0.0169498
819.832	0.0170293
819.910	0.0171020
819.988	0.0170556
820.067	0.0171788
820.145	0.0173402
820.223	0.0174715
820.301	0.0173792
820.379	0.0174403
820.457	0.0176347
820.535	0.0175016
820.613	0.0176924
820.692	0.0177896
820.770	0.0178632
820.848	0.0179599
820.926	0.0178935
821.004	0.0178696
821.082	0.0179263
821.160	0.0179234
821.238	0.0178347
821.317	0.0179472
821.395	0.0179929
821.473	0.0179650
821.551	0.0178794
821.629	0.0177963
821.707	0.0178915
821.785	0.0177451
821.863	0.0175768
821.942	0.0177378
822.020	0.0175519
822.098	0.0173255
822.176	0.0172466
822.254	0.0172456
822.332	0.0171692
822.410	0.0172453
822.488	0.0172569
822.567	0.0171715
822.645	0.0171590
822.723	0.0170319
822.801	0.0170990
822.879	0.0171519
822.957	0.0171764
823.035	0.0172164
823.113	0.0172416
823.192	0.0173536
823.270	0.0171954
823.348	0.0174197
823.426	0.0175228
823.504	0.0174789
823.582	0.0175438
823.660	0.0175003
823.738	0.0175188
823.817	0.0174120
823.895	0.0174604
823.973	0.0176737
824.051	0.0176003
824.129	0.0174473
824.207	0.0174327
824.285	0.0175497
824.363	0.0174683
824.442	0.0173922
824.520	0.0173254
824.598	0.0175563
824.676	0.0172404
824.754	0.0173570
824.832	0.0174603
824.910	0.0173756
824.988	0.0173367
825.067	0.0171406
825.145	0.0173955
825.223	0.0172827
825.301	0.0172825
825.379	0.0171202
825.457	0.0171487
825.535	0.0172149
825.613	0.0172576
825.692	0.0171906
825.770	0.0172629
825.848	0.0173870
825.926	0.0172340
826.004	0.0172103
826.082	0.0174012
826.160	0.0172890
826.238	0.0172737
826.317	0.0172837
826.395	0.0174770
826.473	0.0171994
826.551	0.0172593
826.629	0.0172693
826.707	0.0172857
826.785	0.0173031
826.863	0.0173710
826.942	0.0173756
827.020	0.0172793
827.098	0.0175005
827.176	0.0174306
827.254	0.0173691
827.332	0.0175449
827.410	0.0176164
827.488	0.0177274
827.567	0.0177761
827.645	0.0176723
827.723	0.0176595
827.801	0.0177216
827.879	0.0177630
827.957	0.0178204
828.035	0.0177785
828.113	0.0176392
828.192	0.0178244
828.270	0.0177518
828.348	0.0176025
828.426	0.0174848
828.504	0.0174672
828.582	0.0172755
828.660	0.0172011
828.738	0.0172112
828.817	0.0172762
828.895	0.0172189
828.973	0.0171233
829.051	0.0172265
829.129	0.0170777
829.207	0.0170854
829.285	0.0171034
829.363	0.0173273
829.442	0.0171043
829.520	0.0172713
829.598	0.0174292
829.676	0.0172053
829.754	0.0173521
829.832	0.0173754
829.910	0.0175034
829.988	0.0175040
830.067	0.0175298
830.145	0.0177168
830.223	0.0176231
830.301	0.0175650
830.379	0.0175861
830.457	0.0175484
830.535	0.0175829
830.613	0.0174844
830.692	0.0175310
830.770	0.0173938
830.848	0.0174805
830.926	0.0173183
831.004	0.0172689
831.082	0.0173163
831.160	0.0172275
831.238	0.0171481
831.317	0.0171686
831.395	0.0170867
831.473	0.0169887
831.551	0.0170581
831.629	0.0170216
831.707	0.0168822
831.785	0.0171407
831.863	0.0170652
831.942	0.0169794
832.020	0.0172609
832.098	0.0172691
832.176	0.0171934
832.254	0.0171913
832.332	0.0172567
832.410	0.0173754
832.488	0.0174229
832.567	0.0174427
832.645	0.0173636
832.723	0.0175656
832.801	0.0174079
832.879	0.0175232
832.957	0.0175362
833.035	0.0176183
833.113	0.0177416
833.192	0.0176333
833.270	0.0175729
833.348	0.0176807
833.426	0.0177716
833.504	0.0178745
833.582	0.0178414
833.660	0.0178049
833.738	0.0177940
833.817	0.0176952
833.895	0.0178393
833.973	0.0177436
834.051	0.0176643
834.129	0.0177340
834.207	0.0177094
834.285	0.0177029
834.363	0.0175744
834.442	0.0176949
834.520	0.0176451
834.598	0.0175944
834.676	0.0175741
834.754	0.0175452
834.832	0.0175767
834.910	0.0175873
834.988	0.0177029
835.067	0.0175462
835.145	0.0174983
835.223	0.0174574
835.301	0.0174538
835.379	0.0173791
835.457	0.0174236
835.535	0.0174477
835.613	0.0172517
835.692	0.0171902
835.770	0.0172408
835.848	0.0172708
835.926	0.0171580
836.004	0.0171355
836.082	0.0172248
836.160	0.0171877
836.238	0.0171819
836.317	0.0171152
836.395	0.0171134
836.473	0.0170116
836.551	0.0170361
836.629	0.0170986
836.707	0.0170986
836.785	0.0170695
836.863	0.0169695
836.942	0.0171808
837.020	0.0170977
837.098	0.0172034
837.176	0.0171508
837.254	0.0172768
837.332	0.0172340
837.410	0.0172395
837.488	0.0173244
837.567	0.0175231
837.645	0.0175294
837.723	0.0174675
837.801	0.0175914
837.879	0.0176464
837.957	0.0174613
838.035	0.0173450
838.113	0.0174998
838.192	0.0177604
838.270	0.0176281
838.348	0.0175285
838.426	0.0175649
838.504	0.0176685
838.582	0.0175616
838.660	0.0175638
838.738	0.0175436
838.817	0.0175031
838.895	0.0175722
838.973	0.0176154
839.051	0.0177281
839.129	0.0175906
839.207	0.0176852
839.285	0.0175701
839.363	0.0175831
839.442	0.0175917
839.520	0.0176883
839.598	0.0176625
839.676	0.0176792
839.754	0.0175924
839.832	0.0177298
839.910	0.0175039
839.988	0.0174883
840.067	0.0174293
840.145	0.0173678
840.223	0.0174117
840.301	0.0172382
840.379	0.0172824
840.457	0.0174805
840.535	0.0173898
840.613	0.0173128
840.692	0.0174394
840.770	0.0174697
840.848	0.0174768
840.926	0.0175156
841.004	0.0174837
841.082	0.0175443
841.160	0.0174167
841.238	0.0175690
841.317	0.0174310
841.395	0.0175165
841.473	0.0174511
841.551	0.0174037
841.629	0.0176275
841.707	0.0174901
841.785	0.0174549
841.863	0.0175421
841.942	0.0176555
842.020	0.0175610
842.098	0.0174062
842.176	0.0175372
842.254	0.0174976
842.332	0.0175735
842.410	0.0174986
842.488	0.0173678
842.567	0.0173970
842.645	0.0175264
842.723	0.0174739
842.801	0.0173974
842.879	0.0174957
842.957	0.0174877
843.035	0.0173122
843.113	0.0173235
843.192	0.0173345
843.270	0.0173096
843.348	0.0171845
843.426	0.0172971
843.504	0.0172104
843.582	0.0171726
843.660	0.0172434
843.738	0.0172844
843.817	0.0170699
843.895	0.0171906
843.973	0.0171868
844.051	0.0172372
844.129	0.0172245
844.207	0.0172346
844.285	0.0174059
844.363	0.0171928
844.442	0.0173384
844.520	0.0173470
844.598	0.0173934
844.676	0.0173131
844.754	0.0174359
844.832	0.0175006
844.910	0.0173629
844.988	0.0174440
845.067	0.0176833
845.145	0.0175639
845.223	0.0175153
845.301	0.0176134
845.379	0.0176487
845.457	0.0177611
845.535	0.0176463
845.613	0.0175822
845.692	0.0176858
845.770	0.0177692
845.848	0.0177207
845.926	0.0176775
846.004	0.0176865
846.082	0.0177499
846.160	0.0176971
846.238	0.0175827
846.317	0.0177988
846.395	0.0175813
846.473	0.0175702
846.551	0.0176427
846.629	0.0176823
846.707	0.0175768
846.785	0.0174733
846.863	0.0176781
846.942	0.0175941
847.020	0.0175735
847.098	0.0176100
847.176	0.0175801
847.254	0.0175948
847.332	0.0173522
847.410	0.0175329
847.488	0.0175144
847.567	0.0175589
847.645	0.0174989
847.723	0.0174728
847.801	0.0173437
847.879	0.0173035
847.957	0.0173752
848.035	0.0173968
848.113	0.0174619
848.192	0.0174195
848.270	0.0173088
848.348	0.0173577
848.426	0.0173154
848.504	0.0173809
848.582	0.0172586
848.660	0.0173178
848.738	0.0171375
848.817	0.0173771
848.895	0.0174183
848.973	0.0171935
849.051	0.0171331
849.129	0.0172023
849.207	0.0170581
849.285	0.0170682
849.363	0.0171153
849.442	0.0171266
849.520	0.0171821
849.598	0.0171025
849.676	0.0171410
849.754	0.0171901
849.832	0.0171834
849.910	0.0171832
849.988	0.0171853
850.067	0.0173768
850.145	0.0173308
850.223	0.0171702
850.301	0.0173193
850.379	0.0173817
850.457	0.0174847
850.535	0.0175303
850.613	0.0173276
850.692	0.0175064
850.770	0.0175684
850.848	0.0176117
850.926	0.0175760
851.004	0.0173421
851.082	0.0174673
851.160	0.0174812
851.238	0.0175192
851.317	0.0175549
851.395	0.0174342
851.473	0.0175190
851.551	0.0174914
851.629	0.0175985
851.707	0.0174772
851.785	0.0176456
851.863	0.0175397
851.942	0.0175788
852.020	0.0175653
852.098	0.0176041
852.176	0.0175763
852.254	0.0176073
852.332	0.0175209
852.410	0.0174526
852.488	0.0173941
852.567	0.0176813
852.645	0.0175285
852.723	0.0175820
852.801	0.0175587
852.879	0.0175727
852.957	0.0176147
853.035	0.0175490
853.113	0.0173975
853.192	0.0175574
853.270	0.0174361
853.348	0.0174365
853.426	0.0174189
853.504	0.0174142
853.582	0.0174991
853.660	0.0173367
853.738	0.0174399
853.817	0.0174034
853.895	0.0174620
853.973	0.0174681
854.051	0.0173817
854.129	0.0173997
854.207	0.0173228
854.285	0.0173281
854.363	0.0173470
854.442	0.0174551
854.520	0.0173748
854.598	0.0174750
854.676	0.0173288
854.754	0.0172227
854.832	0.0173224
854.910	0.0173888
854.988	0.0172272
855.067	0.0172028
855.145	0.0173278
855.223	0.0171770
855.301	0.0171089
855.379	0.0171040
855.457	0.0171771
855.535	0.0171208
855.613	0.0170827
855.692	0.0170261
855.770	0.0171272
855.848	0.0172706
855.926	0.0172781
856.004	0.0173296
856.082	0.0172218
856.160	0.0173461
856.238	0.0173885
856.317	0.0172333
856.395	0.0173991
856.473	0.0174570
856.551	0.0174993
856.629	0.0174572
856.707	0.0173659
856.785	0.0175385
856.863	0.0175677
856.942	0.0174383
857.020	0.0175031
857.098	0.0174495
857.176	0.0174365
857.254	0.0173969
857.332	0.0173286
857.410	0.0174002
857.488	0.0172525
857.567	0.0173966
857.645	0.0173671
857.723	0.0174284
857.801	0.0174136
857.879	0.0175053
857.957	0.0173502
858.035	0.0173843
858.113	0.0173672
858.192	0.0174020
858.270	0.0173109
858.348	0.0175114
858.426	0.0174603
858.504	0.0175060
858.582	0.0174963
858.660	0.0174278
858.738	0.0174239
858.817	0.0173965
858.895	0.0174984
858.973	0.0174450
859.051	0.0173621
859.129	0.0174192
859.207	0.0173991
859.285	0.0173637
859.363	0.0173725
859.442	0.0172913
859.520	0.0172768
859.598	0.0173183
859.676	0.0173096
859.754	0.0173264
859.832	0.0172958
859.910	0.0172420
859.988	0.0172679
860.067	0.0173607
860.145	0.0173665
860.223	0.0173537
860.301	0.0174748
860.379	0.0173917
860.457	0.0172725
860.535	0.0173517
860.613	0.0174313
860.692	0.0175910
860.770	0.0173660
860.848	0.0173437
860.926	0.0173930
861.004	0.0174871
861.082	0.0174061
861.160	0.0174440
861.238	0.0174153
861.317	0.0174929
861.395	0.0175473
861.473	0.0174952
861.551	0.0174667
861.629	0.0174541
861.707	0.0174867
861.785	0.0174509
861.863	0.0174902
861.942	0.0174796
862.020	0.0174603
862.098	0.0175498
862.176	0.0173246
862.254	0.0172852
862.332	0.0173220
862.410	0.0174192
862.488	0.0173245
862.567	0.0172308
862.645	0.0170381
862.723	0.0173165
862.801	0.0172656
862.879	0.0172440
862.957	0.0171985
863.035	0.0171850
863.113	0.0172408
863.192	0.0172981
863.270	0.0173089
863.348	0.0172800
863.426	0.0172973
863.504	0.0174488
863.582	0.0174753
863.660	0.0173494
863.738	0.0174182
863.817	0.0173732
863.895	0.0174079
863.973	0.0174873
864.051	0.0174590
864.129	0.0174400
864.207	0.0174062
864.285	0.0174837
864.363	0.0173048
864.442	0.0174760
864.520	0.0173228
864.598	0.0173473
864.676	0.0174901
864.754	0.0174797
864.832	0.0173057
864.910	0.0173541
864.988	0.0174541
865.067	0.0173412
865.145	0.0174564
865.223	0.0174284
865.301	0.0173541
865.379	0.0172662
865.457	0.0172674
865.535	0.0172676
865.613	0.0173032
865.692	0.0171979
865.770	0.0171871
865.848	0.0171319
865.926	0.0173134
866.004	0.0171539
866.082	0.0171413
866.160	0.0171487
866.238	0.0171394
866.317	0.0171735
866.395	0.0172501
866.473	0.0171819
866.551	0.0171099
866.629	0.0172708
866.707	0.0172090
866.785	0.0173794
866.863	0.0173093
866.942	0.0174059
867.020	0.0174867
867.098	0.0175704
867.176	0.0176223
867.254	0.0177149
867.332	0.0177266
867.410	0.0175751
867.488	0.0176736
867.567	0.0175681
867.645	0.0174615
867.723	0.0177065
867.801	0.0176314
867.879	0.0176266
867.957	0.0175926
868.035	0.0175537
868.113	0.0174830
868.192	0.0174864
868.270	0.0176480
868.348	0.0174719
868.426	0.0175500
868.504	0.0175389
868.582	0.0174204
868.660	0.0172019
868.738	0.0173852
868.817	0.0173133
868.895	0.0172324
868.973	0.0170924
869.051	0.0171249
869.129	0.0169874
869.207	0.0170650
869.285	0.0170717
869.363	0.0170661
869.442	0.0168958
869.520	0.0170522
869.598	0.0170158
869.676	0.0170024
869.754	0.0171497
869.832	0.0170741
869.910	0.0172455
869.988	0.0172364
870.067	0.0172808
870.145	0.0172166
870.223	0.0172326
870.301	0.0173736
870.379	0.0173530
870.457	0.0173059
870.535	0.0173483
870.613	0.0174683
870.692	0.0173068
870.770	0.0172671
870.848	0.0174457
870.926	0.0173176
871.004	0.0174333
871.082	0.0174802
871.160	0.0174266
871.238	0.0175367
871.317	0.0173552
871.395	0.0173944
871.473	0.0174841
871.551	0.0175709
871.629	0.0176328
871.707	0.0174264
871.785	0.0175313
871.863	0.0175353
871.942	0.0174904
872.020	0.0175055
872.098	0.0173394
872.176	0.0173213
872.254	0.0173537
872.332	0.0174524
872.410	0.0174359
872.488	0.0175008
872.567	0.0174618
872.645	0.0173810
872.723	0.0173245
872.801	0.0173744
872.879	0.0172519
872.957	0.0172858
873.035	0.0172462
873.113	0.0172881
873.192	0.0173045
873.270	0.0170681
873.348	0.0171174
873.426	0.0172976
873.504	0.0171906
873.582	0.0171320
873.660	0.0171380
873.738	0.0168670
873.817	0.0170055
873.895	0.0171063
873.973	0.0170905
874.051	0.0173130
874.129	0.0171130
874.207	0.0171828
874.285	0.0174374
874.363	0.0174482
874.442	0.0175172
874.520	0.0175250
874.598	0.0176064
874.676	0.0175800
874.754	0.0177247
874.832	0.0176836
874.910	0.0177831
874.988	0.0178407
875.067	0.0176498
875.145	0.0175575
875.223	0.0175888
875.301	0.0173425
875.379	0.0173414
875.457	0.0172797
875.535	0.0172706
875.613	0.0170836
875.692	0.0169990
875.770	0.0170925
875.848	0.0170022
875.926	0.0171105
876.004	0.0169491
876.082	0.0170367
876.160	0.0170750
876.238	0.0171309
876.317	0.0172127
876.395	0.0172859
876.473	0.0173299
876.551	0.0173710
876.629	0.0174796
876.707	0.0175821
876.785	0.0173877
876.863	0.0175523
876.942	0.0177264
877.020	0.0177261
877.098	0.0177166
877.176	0.0178802
877.254	0.0178554
877.332	0.0180349
877.410	0.0180794
877.488	0.0181574
877.567	0.0180781
877.645	0.0178739
877.723	0.0178442
877.801	0.0177085
877.879	0.0174868
877.957	0.0172990
878.035	0.0171056
878.113	0.0169411
878.192	0.0167719
878.270	0.0165817
878.348	0.0164809
878.426	0.0163686
878.504	0.0164235
878.582	0.0164394
878.660	0.0164011
878.738	0.0165555
878.817	0.0166036
878.895	0.0168436
878.973	0.0168896
879.051	0.0172295
879.129	0.0174073
879.207	0.0175742
879.285	0.0177454
879.363	0.0179362
879.442	0.0181434
879.520	0.0184209
879.598	0.0183949
879.676	0.0182545
879.754	0.0184197
879.832	0.0184606
879.910	0.0183934
879.988	0.0182469
880.067	0.0180636
880.145	0.0181411
880.223	0.0179817
880.301	0.0178526
880.379	0.0176752
880.457	0.0176443
880.535	0.0174559
880.613	0.0172960
880.692	0.0171849
880.770	0.0167652
880.848	0.0167807
880.926	0.0166397
881.004	0.0165038
881.082	0.0163279
881.160	0.0161803
881.238	0.0160932
881.317	0.0158851
881.395	0.0159608
881.473	0.0158874
881.551	0.0160914
881.629	0.0162561
881.707	0.0162658
881.785	0.0162824
881.863	0.0166535
881.942	0.0167868
882.020	0.0172044
882.098	0.0173267
882.176	0.0176147
882.254	0.0178228
882.332	0.0179361
882.410	0.0180824
882.488	0.0183578
882.567	0.0185041
882.645	0.0187103
882.723	0.0187267
882.801	0.0188518
882.879	0.0188935
882.957	0.0187780
883.035	0.0186944
883.113	0.0187148
883.192	0.0185519
883.270	0.0182030
883.348	0.0182148
883.426	0.0179601
883.504	0.0177316
883.582	0.0175489
883.660	0.0172358
883.738	0.0171036
883.817	0.0168236
883.895	0.0166977
883.973	0.0165819
884.051	0.0165680
884.129	0.0165621
884.207	0.0164735
884.285	0.0164310
884.363	0.0162409
884.442	0.0164003
884.520	0.0163331
884.598	0.0164233
884.676	0.0166808
884.754	0.0165224
884.832	0.0167871
884.910	0.0168011
884.988	0.0169247
885.067	0.0170711
885.145	0.0171832
885.223	0.0171781
885.301	0.0172633
885.379	0.0174216
885.457	0.0174243
885.535	0.0175205
885.613	0.0173839
885.692	0.0174364
885.770	0.0175932
885.848	0.0175898
885.926	0.0176161
886.004	0.0176154
886.082	0.0177707
886.160	0.0179124
886.238	0.0179315
886.317	0.0179348
886.395	0.0178497
886.473	0.0178362
886.551	0.0179456
886.629	0.0178352
886.707	0.0179213
886.785	0.0177026
886.863	0.0176748
886.942	0.0176250
887.020	0.0176241
887.098	0.0175893
887.176	0.0174763
887.254	0.0176077
887.332	0.0174365
887.410	0.0173064
887.488	0.0173575
887.567	0.0173104
887.645	0.0173300
887.723	0.0174368
887.801	0.0174615
887.879	0.0173490
887.957	0.0173676
888.035	0.0171802
888.113	0.0173847
888.192	0.0173094
888.270	0.0174613
888.348	0.0172981
888.426	0.0172508
888.504	0.0170129
888.582	0.0171405
888.660	0.0169372
888.738	0.0170074
888.817	0.0170831
888.895	0.0168980
888.973	0.0168925
889.051	0.0169852
889.129	0.0168997
889.207	0.0169095
889.285	0.0169495
889.363	0.0169236
889.442	0.0171151
889.520	0.0171239
889.598	0.0172008
889.676	0.0172571
889.754	0.0172823
889.832	0.0174145
889.910	0.0174026
889.988	0.0174221
890.067	0.0175688
890.145	0.0176653
890.223	0.0178368
890.301	0.0178550
890.379	0.0176134
890.457	0.0176884
890.535	0.0180038
890.613	0.0178736
890.692	0.0178873
890.770	0.0179675
890.848	0.0179160
890.926	0.0177415
891.004	0.0177763
891.082	0.0178074
891.160	0.0177894
891.238	0.0175254
891.317	0.0175159
891.395	0.0174170
891.473	0.0173938
891.551	0.0172309
891.629	0.0174033
891.707	0.0171725
891.785	0.0171769
891.863	0.0170661
891.942	0.0171492
892.020	0.0170367
892.098	0.0170627
892.176	0.0171418
892.254	0.0171721
892.332	0.0172589
892.410	0.0170988
892.488	0.0171775
892.567	0.0172406
892.645	0.0172826
892.723	0.0171546
892.801	0.0173187
892.879	0.0173524
892.957	0.0172908
893.035	0.0174287
893.113	0.0173744
893.192	0.0172775
893.270	0.0173560
893.348	0.0175898
893.426	0.0173512
893.504	0.0173237
893.582	0.0174284
893.660	0.0173188
893.738	0.0173177
893.817	0.0173494
893.895	0.0174740
893.973	0.0173698
894.051	0.0172984
894.129	0.0173289
894.207	0.0173742
894.285	0.0173772
894.363	0.0174032
894.442	0.0174127
894.520	0.0174503
894.598	0.0174528
894.676	0.0174372
894.754	0.0175195
894.832	0.0175304
894.910	0.0174564
894.988	0.0173834
895.067	0.0174596
895.145	0.0174744
895.223	0.0174920
895.301	0.0173689
895.379	0.0174886
895.457	0.0176141
895.535	0.0175862
895.613	0.0175750
895.692	0.0175735
895.770	0.0175431
895.848	0.0174754
895.926	0.0176924
896.004	0.0176335
896.082	0.0175652
896.160	0.0176028
896.238	0.0175466
896.317	0.0174956
896.395	0.0174841
896.473	0.0175382
896.551	0.0174763
896.629	0.0172630
896.707	0.0173502
896.785	0.0171399
896.863	0.0170959
896.942	0.0171040
897.020	0.0170799
897.098	0.0170092
897.176	0.0168654
897.254	0.0169454
897.332	0.0169550
897.410	0.0170076
897.488	0.0171014
897.567	0.0170911
897.645	0.0172147
897.723	0.0172419
897.801	0.0172213
897.879	0.0172426
897.957	0.0175070
898.035	0.0176218
898.113	0.0176130
898.192	0.0175868
898.270	0.0176373
898.348	0.0176543
898.426	0.0177324
898.504	0.0177269
898.582	0.0176471
898.660	0.0175197
898.738	0.0174479
898.817	0.0175049
898.895	0.0175861
898.973	0.0174260
899.051	0.0171441
899.129	0.0172843
899.207	0.0173467
899.285	0.0171381
899.363	0.0172768
899.442	0.0172297
899.520	0.0173148
899.598	0.0170640
899.676	0.0170724
899.754	0.0172867
899.832	0.0172244
899.910	0.0173182
899.988	0.0173545
900.067	0.0173405
900.145	0.0174271
900.223	0.0173011
900.301	0.0174602
900.379	0.0173121
900.457	0.0174925
900.535	0.0176519
900.613	0.0176915
900.692	0.0176706
900.770	0.0177046
900.848	0.0177062
900.926	0.0177808
901.004	0.0176472
901.082	0.0175378
901.160	0.0175945
901.238	0.0175732
901.317	0.0176528
901.395	0.0174817
901.473	0.0174707
901.551	0.0175356
901.629	0.0174720
901.707	0.0173746
901.785	0.0171954
901.863	0.0171436
901.942	0.0170881
902.020	0.0171020
902.098	0.0169819
902.176	0.0171851
902.254	0.0169640
902.332	0.0168658
902.410	0.0170364
902.488	0.0171119
902.567	0.0171774
902.645	0.0171933
902.723	0.0172620
902.801	0.0173795
902.879	0.0173210
902.957	0.0173977
903.035	0.0174976
903.113	0.0175231
903.192	0.0175694
903.270	0.0175386
903.348	0.0175579
903.426	0.0175048
903.504	0.0176804
903.582	0.0177072
903.660	0.0177313
903.738	0.0178425
903.817	0.0177965
903.895	0.0176758
903.973	0.0176435
904.051	0.0176567
904.129	0.0176389
904.207	0.0177731
904.285	0.0178116
904.363	0.0175205
904.442	0.0176446
904.520	0.0175256
904.598	0.0174553
904.676	0.0173965
904.754	0.0172050
904.832	0.0171744
904.910	0.0172676
904.988	0.0173147
905.067	0.0171363
905.145	0.0171249
905.223	0.0170827
905.301	0.0170881
905.379	0.0171240
905.457	0.0170869
905.535	0.0171039
905.613	0.0171220
905.692	0.0172781
905.770	0.0173292
905.848	0.0173256
905.926	0.0173186
906.004	0.0173461
906.082	0.0173370
906.160	0.0174345
906.238	0.0172832
906.317	0.0175075
906.395	0.0173643
906.473	0.0172957
906.551	0.0174090
906.629	0.0174757
906.707	0.0173232
906.785	0.0172395
906.863	0.0174522
906.942	0.0173904
907.020	0.0174746
907.098	0.0172630
907.176	0.0172930
907.254	0.0173047
907.332	0.0172658
907.410	0.0174581
907.488	0.0175298
907.567	0.0174714
907.645	0.0172684
907.723	0.0173933
907.801	0.0172600
907.879	0.0173520
907.957	0.0173051
908.035	0.0174036
908.113	0.0174468
908.192	0.0173376
908.270	0.0174300
908.348	0.0173692
908.426	0.0176270
908.504	0.0176852
908.582	0.0177164
908.660	0.0176852
908.738	0.0176955
908.817	0.0177060
908.895	0.0177907
908.973	0.0178869
909.051	0.0178127
909.129	0.0177711
909.207	0.0176287
909.285	0.0178001
909.363	0.0176628
909.442	0.0176396
909.520	0.0175741
909.598	0.0175323
909.676	0.0174336
909.754	0.0173428
909.832	0.0174328
909.910	0.0172656
909.988	0.0173830
910.067	0.0171488
910.145	0.0173315
910.223	0.0173376
910.301	0.0172189
910.379	0.0171024
910.457	0.0172465
910.535	0.0172456
910.613	0.0171503
910.692	0.0172337
910.770	0.0172188
910.848	0.0170398
910.926	0.0169956
911.004	0.0170010
911.082	0.0169878
911.160	0.0168072
911.238	0.0168559
911.317	0.0169727
911.395	0.0169746
911.473	0.0170903
911.551	0.0170692
911.629	0.0171960
911.707	0.0171786
911.785	0.0172881
911.863	0.0173293
911.942	0.0172878
912.020	0.0173814
912.098	0.0175912
912.176	0.0177280
912.254	0.0177443
912.332	0.0176284
912.410	0.0178674
912.488	0.0178828
912.567	0.0178970
912.645	0.0179920
912.723	0.0179649
912.801	0.0178547
912.879	0.0178497
912.957	0.0178986
913.035	0.0177537
913.113	0.0179311
913.192	0.0177251
913.270	0.0175641
913.348	0.0176131
913.426	0.0174668
913.504	0.0173791
913.582	0.0174635
913.660	0.0172653
913.738	0.0175576
913.817	0.0174083
913.895	0.0173606
913.973	0.0170968
914.051	0.0172266
914.129	0.0172164
914.207	0.0172202
914.285	0.0170147
914.363	0.0171531
914.442	0.0169690
914.520	0.0170869
914.598	0.0170438
914.676	0.0171149
914.754	0.0170242
914.832	0.0170721
914.910	0.0172845
914.988	0.0172082
915.067	0.0172689
915.145	0.0175012
915.223	0.0173931
915.301	0.0173866
915.379	0.0173523
915.457	0.0173817
915.535	0.0176064
915.613	0.0175567
915.692	0.0175339
915.770	0.0176189
915.848	0.0173508
915.926	0.0174636
916.004	0.0173837
916.082	0.0172723
916.160	0.0174676
916.238	0.0174702
916.317	0.0174692
916.395	0.0176298
916.473	0.0174780
916.551	0.0175652
916.629	0.0176319
916.707	0.0174926
916.785	0.0175778
916.863	0.0176447
916.942	0.0177105
917.020	0.0176248
917.098	0.0176779
917.176	0.0176316
917.254	0.0175447
917.332	0.0175583
917.410	0.0176984
917.488	0.0176576
917.567	0.0176579
917.645	0.0175478
917.723	0.0176039
917.801	0.0176432
917.879	0.0178017
917.957	0.0176407
918.035	0.0178380
918.113	0.0176179
918.192	0.0177590
918.270	0.0176612
918.348	0.0176528
918.426	0.0176983
918.504	0.0177298
918.582	0.0176190
918.660	0.0174230
918.738	0.0173866
918.817	0.0173614
918.895	0.0173309
918.973	0.0171606
919.051	0.0171478
919.129	0.0171816
919.207	0.0171593
919.285	0.0171339
919.363	0.0169637
919.442	0.0169796
919.520	0.0170838
919.598	0.0170251
919.676	0.0169764
919.754	0.0170289
919.832	0.0170864
919.910	0.0171684
