05/24/2022	20:00:32	Ver.	4.1	UNKNOWN
Optical Delay	580.001249	Delta X		0.078125	Sweeps	1	Scan Rate	0/0
Coordinates	Axis 1	NaN	Axis 2	NaN	Axis 3	NaN	Axis 4	NaN	Axis 5	NaN	Axis 6	0.000000
TX Power	0.000000	RX Power	0.000000

580.001	0.0165877
580.079	0.0165709
580.157	0.0165984
580.236	0.0167085
580.314	0.0166155
580.392	0.0165588
580.470	0.0164719
580.548	0.0167365
580.626	0.0166074
580.704	0.0165467
580.782	0.0167430
580.861	0.0165597
580.939	0.0166036
581.017	0.0166029
581.095	0.0165070
581.173	0.0165125
581.251	0.0165977
581.329	0.0166415
581.407	0.0165820
581.486	0.0165833
581.564	0.0165329
581.642	0.0166493
581.720	0.0165335
581.798	0.0165606
581.876	0.0165114
581.954	0.0166300
582.032	0.0166877
582.111	0.0166170
582.189	0.0166138
582.267	0.0165704
582.345	0.0164641
582.423	0.0167024
582.501	0.0165397
582.579	0.0164535
582.657	0.0165828
582.736	0.0167496
582.814	0.0167706
582.892	0.0166200
582.970	0.0165060
583.048	0.0166228
583.126	0.0166149
583.204	0.0165237
583.282	0.0166818
583.361	0.0165633
583.439	0.0167027
583.517	0.0164825
583.595	0.0166660
583.673	0.0165313
583.751	0.0167016
583.829	0.0164771
583.907	0.0165372
583.986	0.0166413
584.064	0.0165096
584.142	0.0165787
584.220	0.0166711
584.298	0.0166219
584.376	0.0165379
584.454	0.0165223
584.532	0.0164993
584.611	0.0166238
584.689	0.0166805
584.767	0.0167921
584.845	0.0166096
584.923	0.0166856
585.001	0.0164974
585.079	0.0165816
585.157	0.0166077
585.236	0.0166133
585.314	0.0165318
585.392	0.0165229
585.470	0.0165298
585.548	0.0166136
585.626	0.0165860
585.704	0.0166896
585.782	0.0166247
585.861	0.0165639
585.939	0.0165849
586.017	0.0165587
586.095	0.0166492
586.173	0.0166564
586.251	0.0166451
586.329	0.0165972
586.407	0.0166370
586.486	0.0165618
586.564	0.0167345
586.642	0.0166859
586.720	0.0165309
586.798	0.0164875
586.876	0.0165394
586.954	0.0165391
587.032	0.0166923
587.111	0.0167519
587.189	0.0165795
587.267	0.0166014
587.345	0.0165221
587.423	0.0165984
587.501	0.0165611
587.579	0.0166272
587.657	0.0165646
587.736	0.0164818
587.814	0.0167358
587.892	0.0166606
587.970	0.0166385
588.048	0.0163918
588.126	0.0165787
588.204	0.0166169
588.282	0.0164897
588.361	0.0165004
588.439	0.0165246
588.517	0.0166272
588.595	0.0166809
588.673	0.0165685
588.751	0.0164749
588.829	0.0166254
588.907	0.0165784
588.986	0.0167245
589.064	0.0166112
589.142	0.0165303
589.220	0.0165874
589.298	0.0166887
589.376	0.0166927
589.454	0.0165340
589.532	0.0164851
589.611	0.0166376
589.689	0.0167038
589.767	0.0165895
589.845	0.0165598
589.923	0.0167189
590.001	0.0166728
590.079	0.0166481
590.157	0.0164775
590.236	0.0163956
590.314	0.0167597
590.392	0.0168005
590.470	0.0166818
590.548	0.0165870
590.626	0.0166192
590.704	0.0166260
590.782	0.0166704
590.861	0.0166485
590.939	0.0165648
591.017	0.0165692
591.095	0.0166400
591.173	0.0165693
591.251	0.0166315
591.329	0.0166317
591.407	0.0166866
591.486	0.0166233
591.564	0.0167817
591.642	0.0165483
591.720	0.0166536
591.798	0.0165869
591.876	0.0166344
591.954	0.0165690
592.032	0.0167490
592.111	0.0166350
592.189	0.0165829
592.267	0.0164491
592.345	0.0165393
592.423	0.0166543
592.501	0.0165901
592.579	0.0166639
592.657	0.0166174
592.736	0.0166306
592.814	0.0165472
592.892	0.0166413
592.970	0.0166365
593.048	0.0166705
593.126	0.0165707
593.204	0.0166032
593.282	0.0167020
593.361	0.0165691
593.439	0.0164015
593.517	0.0166996
593.595	0.0166826
593.673	0.0166053
593.751	0.0165294
593.829	0.0166558
593.907	0.0166248
593.986	0.0165195
594.064	0.0166417
594.142	0.0166858
594.220	0.0165976
594.298	0.0166879
594.376	0.0166008
594.454	0.0166696
594.532	0.0166621
594.611	0.0165315
594.689	0.0165301
594.767	0.0166283
594.845	0.0166653
594.923	0.0166123
595.001	0.0164597
595.079	0.0167166
595.157	0.0166370
595.236	0.0166868
595.314	0.0165638
595.392	0.0165901
595.470	0.0165470
595.548	0.0166653
595.626	0.0166524
595.704	0.0165726
595.782	0.0166695
595.861	0.0166261
595.939	0.0166306
596.017	0.0165859
596.095	0.0164464
596.173	0.0165867
596.251	0.0166753
596.329	0.0166422
596.407	0.0166149
596.486	0.0164655
596.564	0.0165117
596.642	0.0166160
596.720	0.0164795
596.798	0.0165971
596.876	0.0166537
596.954	0.0166769
597.032	0.0165921
597.111	0.0166369
597.189	0.0165943
597.267	0.0165471
597.345	0.0165668
597.423	0.0167760
597.501	0.0166570
597.579	0.0166506
597.657	0.0166727
597.736	0.0167042
597.814	0.0166415
597.892	0.0164029
597.970	0.0165991
598.048	0.0167178
598.126	0.0166119
598.204	0.0165888
598.282	0.0166892
598.361	0.0165842
598.439	0.0165096
598.517	0.0168054
598.595	0.0167442
598.673	0.0166165
598.751	0.0166731
598.829	0.0166338
598.907	0.0166878
598.986	0.0166988
599.064	0.0167027
599.142	0.0165682
599.220	0.0166341
599.298	0.0165085
599.376	0.0166533
599.454	0.0165413
599.532	0.0166621
599.611	0.0166706
599.689	0.0166944
599.767	0.0165988
599.845	0.0166296
599.923	0.0166154
600.001	0.0166344
600.079	0.0166940
600.157	0.0165944
600.236	0.0167126
600.314	0.0165879
600.392	0.0166506
600.470	0.0166666
600.548	0.0165228
600.626	0.0166494
600.704	0.0166816
600.782	0.0167873
600.861	0.0166703
600.939	0.0166670
601.017	0.0165622
601.095	0.0165509
601.173	0.0167378
601.251	0.0167398
601.329	0.0166584
601.407	0.0165880
601.486	0.0166760
601.564	0.0166669
601.642	0.0165745
601.720	0.0167210
601.798	0.0167125
601.876	0.0165070
601.954	0.0165749
602.032	0.0166408
602.111	0.0166539
602.189	0.0165573
602.267	0.0167542
602.345	0.0166157
602.423	0.0166332
602.501	0.0166583
602.579	0.0166262
602.657	0.0166437
602.736	0.0166583
602.814	0.0166996
602.892	0.0165237
602.970	0.0166395
603.048	0.0166953
603.126	0.0166743
603.204	0.0167683
603.282	0.0166068
603.361	0.0166018
603.439	0.0166636
603.517	0.0166955
603.595	0.0165478
603.673	0.0166286
603.751	0.0167757
603.829	0.0166372
603.907	0.0166931
603.986	0.0166367
604.064	0.0166195
604.142	0.0165391
604.220	0.0165968
604.298	0.0165324
604.376	0.0166586
604.454	0.0165936
604.532	0.0166117
604.611	0.0167562
604.689	0.0164918
604.767	0.0166492
604.845	0.0166885
604.923	0.0166354
605.001	0.0166754
605.079	0.0165517
605.157	0.0165305
605.236	0.0165530
605.314	0.0166737
605.392	0.0165079
605.470	0.0166680
605.548	0.0166484
605.626	0.0166158
605.704	0.0166421
605.782	0.0165421
605.861	0.0165916
605.939	0.0165381
606.017	0.0168111
606.095	0.0166766
606.173	0.0165453
606.251	0.0165282
606.329	0.0166577
606.407	0.0165559
606.486	0.0167700
606.564	0.0166508
606.642	0.0166955
606.720	0.0165624
606.798	0.0166158
606.876	0.0166560
606.954	0.0167479
607.032	0.0166457
607.111	0.0164033
607.189	0.0167210
607.267	0.0166212
607.345	0.0164896
607.423	0.0166638
607.501	0.0166007
607.579	0.0165827
607.657	0.0165868
607.736	0.0165794
607.814	0.0166343
607.892	0.0167081
607.970	0.0166095
608.048	0.0166295
608.126	0.0166029
608.204	0.0165955
608.282	0.0166713
608.361	0.0166078
608.439	0.0166621
608.517	0.0165366
608.595	0.0166153
608.673	0.0165102
608.751	0.0166718
608.829	0.0166580
608.907	0.0166631
608.986	0.0164680
609.064	0.0165302
609.142	0.0165473
609.220	0.0165472
609.298	0.0166761
609.376	0.0167350
609.454	0.0166324
609.532	0.0165260
609.611	0.0165333
609.689	0.0165968
609.767	0.0165291
609.845	0.0165052
609.923	0.0165672
610.001	0.0166638
610.079	0.0166334
610.157	0.0167205
610.236	0.0166633
610.314	0.0166275
610.392	0.0166634
610.470	0.0165541
610.548	0.0166769
610.626	0.0166686
610.704	0.0165469
610.782	0.0164964
610.861	0.0166040
610.939	0.0166779
611.017	0.0166014
611.095	0.0165826
611.173	0.0166671
611.251	0.0166849
611.329	0.0165939
611.407	0.0166303
611.486	0.0166158
611.564	0.0166294
611.642	0.0165096
611.720	0.0167677
611.798	0.0166635
611.876	0.0165681
611.954	0.0165171
612.032	0.0166573
612.111	0.0166470
612.189	0.0167245
612.267	0.0167028
612.345	0.0167058
612.423	0.0166786
612.501	0.0166876
612.579	0.0166634
612.657	0.0165380
612.736	0.0166520
612.814	0.0166814
612.892	0.0165265
612.970	0.0166573
613.048	0.0166417
613.126	0.0165881
613.204	0.0166700
613.282	0.0165311
613.361	0.0166550
613.439	0.0167124
613.517	0.0164903
613.595	0.0166177
613.673	0.0167161
613.751	0.0167052
613.829	0.0165771
613.907	0.0165488
613.986	0.0166994
614.064	0.0165797
614.142	0.0167123
614.220	0.0166582
614.298	0.0167110
614.376	0.0166514
614.454	0.0166273
614.532	0.0166008
614.611	0.0167138
614.689	0.0166944
614.767	0.0165571
614.845	0.0165714
614.923	0.0167520
615.001	0.0166517
615.079	0.0166084
615.157	0.0166985
615.236	0.0164938
615.314	0.0166065
615.392	0.0167167
615.470	0.0165611
615.548	0.0165408
615.626	0.0167375
615.704	0.0165110
615.782	0.0166329
615.861	0.0166868
615.939	0.0166286
616.017	0.0165987
616.095	0.0164623
616.173	0.0166840
616.251	0.0166689
616.329	0.0164508
616.407	0.0166511
616.486	0.0165519
616.564	0.0166809
616.642	0.0165806
616.720	0.0166595
616.798	0.0166088
616.876	0.0166678
616.954	0.0167173
617.032	0.0165741
617.111	0.0165734
617.189	0.0165938
617.267	0.0165359
617.345	0.0166784
617.423	0.0166553
617.501	0.0165940
617.579	0.0164383
617.657	0.0165841
617.736	0.0168092
617.814	0.0166227
617.892	0.0165073
617.970	0.0166579
618.048	0.0166605
618.126	0.0165532
618.204	0.0165340
618.282	0.0166597
618.361	0.0166889
618.439	0.0166641
618.517	0.0166552
618.595	0.0166371
618.673	0.0165903
618.751	0.0166264
618.829	0.0167192
618.907	0.0165736
618.986	0.0165705
619.064	0.0167153
619.142	0.0166959
619.220	0.0165810
619.298	0.0165352
619.376	0.0167368
619.454	0.0165311
619.532	0.0166264
619.611	0.0165580
619.689	0.0166281
619.767	0.0166331
619.845	0.0167413
619.923	0.0165163
620.001	0.0165403
620.079	0.0166071
620.157	0.0164973
620.236	0.0166004
620.314	0.0166689
620.392	0.0166151
620.470	0.0165007
620.548	0.0166564
620.626	0.0166199
620.704	0.0165667
620.782	0.0166583
620.861	0.0166513
620.939	0.0166587
621.017	0.0164891
621.095	0.0164697
621.173	0.0165815
621.251	0.0165817
621.329	0.0166109
621.407	0.0166476
621.486	0.0166534
621.564	0.0164513
621.642	0.0166750
621.720	0.0166884
621.798	0.0164755
621.876	0.0167155
621.954	0.0166951
622.032	0.0166167
622.111	0.0165705
622.189	0.0165192
622.267	0.0166937
622.345	0.0165977
622.423	0.0166260
622.501	0.0166730
622.579	0.0165791
622.657	0.0165635
622.736	0.0166299
622.814	0.0166951
622.892	0.0167014
622.970	0.0165073
623.048	0.0165257
623.126	0.0165905
623.204	0.0167139
623.282	0.0166441
623.361	0.0165975
623.439	0.0166442
623.517	0.0165371
623.595	0.0166359
623.673	0.0165676
623.751	0.0164111
623.829	0.0166420
623.907	0.0164725
623.986	0.0166365
624.064	0.0166107
624.142	0.0165588
624.220	0.0166689
624.298	0.0166241
624.376	0.0164579
624.454	0.0165913
624.532	0.0165665
624.611	0.0165588
624.689	0.0165135
624.767	0.0165357
624.845	0.0166586
624.923	0.0165221
625.001	0.0165958
625.079	0.0167316
625.157	0.0165956
625.236	0.0165188
625.314	0.0164582
625.392	0.0165768
625.470	0.0166127
625.548	0.0165813
625.626	0.0165003
625.704	0.0165787
625.782	0.0165313
625.861	0.0166275
625.939	0.0164777
626.017	0.0165971
626.095	0.0166357
626.173	0.0166002
626.251	0.0166235
626.329	0.0165271
626.407	0.0166345
626.486	0.0165751
626.564	0.0165811
626.642	0.0166840
626.720	0.0166636
626.798	0.0167596
626.876	0.0166566
626.954	0.0166106
627.032	0.0165682
627.111	0.0165110
627.189	0.0164037
627.267	0.0165389
627.345	0.0165852
627.423	0.0166197
627.501	0.0166177
627.579	0.0165162
627.657	0.0164879
627.736	0.0165484
627.814	0.0164574
627.892	0.0165157
627.970	0.0166029
628.048	0.0165450
628.126	0.0166060
628.204	0.0165133
628.282	0.0164549
628.361	0.0165461
628.439	0.0165953
628.517	0.0165366
628.595	0.0165186
628.673	0.0165275
628.751	0.0166890
628.829	0.0165438
628.907	0.0165752
628.986	0.0164523
629.064	0.0164592
629.142	0.0165916
629.220	0.0165567
629.298	0.0167484
629.376	0.0166294
629.454	0.0165112
629.532	0.0166259
629.611	0.0166960
629.689	0.0166621
629.767	0.0165871
629.845	0.0165719
629.923	0.0166291
630.001	0.0166357
630.079	0.0166509
630.157	0.0165188
630.236	0.0165066
630.314	0.0165648
630.392	0.0165517
630.470	0.0166003
630.548	0.0167983
630.626	0.0164738
630.704	0.0165041
630.782	0.0164666
630.861	0.0166383
630.939	0.0166821
631.017	0.0165049
631.095	0.0164967
631.173	0.0164771
631.251	0.0165872
631.329	0.0166750
631.407	0.0166697
631.486	0.0164809
631.564	0.0166088
631.642	0.0165622
631.720	0.0166708
631.798	0.0166703
631.876	0.0165438
631.954	0.0167044
632.032	0.0166068
632.111	0.0164954
632.189	0.0165483
632.267	0.0166493
632.345	0.0165744
632.423	0.0165025
632.501	0.0165775
632.579	0.0166648
632.657	0.0165435
632.736	0.0165445
632.814	0.0165926
632.892	0.0165321
632.970	0.0166869
633.048	0.0165245
633.126	0.0164326
633.204	0.0167322
633.282	0.0165778
633.361	0.0166354
633.439	0.0166547
633.517	0.0165389
633.595	0.0166179
633.673	0.0166292
633.751	0.0165306
633.829	0.0166197
633.907	0.0166045
633.986	0.0164678
634.064	0.0164863
634.142	0.0166451
634.220	0.0166901
634.298	0.0166933
634.376	0.0166138
634.454	0.0166132
634.532	0.0166508
634.611	0.0165629
634.689	0.0166042
634.767	0.0165205
634.845	0.0166636
634.923	0.0165997
635.001	0.0166485
635.079	0.0166908
635.157	0.0165895
635.236	0.0166252
635.314	0.0165102
635.392	0.0165688
635.470	0.0165424
635.548	0.0165813
635.626	0.0166163
635.704	0.0165098
635.782	0.0165659
635.861	0.0165951
635.939	0.0168271
636.017	0.0166216
636.095	0.0165612
636.173	0.0165462
636.251	0.0165891
636.329	0.0165836
636.407	0.0166611
636.486	0.0167010
636.564	0.0165950
636.642	0.0166486
636.720	0.0166415
636.798	0.0165610
636.876	0.0165685
636.954	0.0166657
637.032	0.0166503
637.111	0.0167112
637.189	0.0166394
637.267	0.0166087
637.345	0.0166383
637.423	0.0166389
637.501	0.0166562
637.579	0.0166132
637.657	0.0165054
637.736	0.0165337
637.814	0.0166148
637.892	0.0164999
637.970	0.0166772
638.048	0.0168091
638.126	0.0166092
638.204	0.0166384
638.282	0.0166985
638.361	0.0166393
638.439	0.0164520
638.517	0.0164530
638.595	0.0166194
638.673	0.0166798
638.751	0.0165408
638.829	0.0165623
638.907	0.0165705
638.986	0.0165538
639.064	0.0165746
639.142	0.0165250
639.220	0.0165126
639.298	0.0165992
639.376	0.0166306
639.454	0.0165374
639.532	0.0166143
639.611	0.0165131
639.689	0.0166309
639.767	0.0165504
639.845	0.0166296
639.923	0.0165568
640.001	0.0166464
640.079	0.0164877
640.157	0.0165405
640.236	0.0167160
640.314	0.0165626
640.392	0.0165793
640.470	0.0166386
640.548	0.0165979
640.626	0.0165471
640.704	0.0166109
640.782	0.0167026
640.861	0.0166120
640.939	0.0167021
641.017	0.0165742
641.095	0.0166369
641.173	0.0166032
641.251	0.0164567
641.329	0.0166334
641.407	0.0166525
641.486	0.0166423
641.564	0.0164502
641.642	0.0165959
641.720	0.0166376
641.798	0.0164572
641.876	0.0166010
641.954	0.0165116
642.032	0.0165099
642.111	0.0165160
642.189	0.0166290
642.267	0.0166172
642.345	0.0165514
642.423	0.0165604
642.501	0.0166281
642.579	0.0165508
642.657	0.0166196
642.736	0.0166655
642.814	0.0165899
642.892	0.0165668
642.970	0.0167647
643.048	0.0166356
643.126	0.0164717
643.204	0.0165800
643.282	0.0167390
643.361	0.0167239
643.439	0.0166394
643.517	0.0166783
643.595	0.0163809
643.673	0.0166481
643.751	0.0167255
643.829	0.0167132
643.907	0.0165095
643.986	0.0165555
644.064	0.0165005
644.142	0.0165001
644.220	0.0165685
644.298	0.0165903
644.376	0.0166641
644.454	0.0165290
644.532	0.0165910
644.611	0.0166547
644.689	0.0165635
644.767	0.0166611
644.845	0.0165356
644.923	0.0166486
645.001	0.0166487
645.079	0.0166825
645.157	0.0164625
645.236	0.0165761
645.314	0.0165093
645.392	0.0164865
645.470	0.0165132
645.548	0.0165433
645.626	0.0165436
645.704	0.0166015
645.782	0.0164986
645.861	0.0165632
645.939	0.0165730
646.017	0.0166444
646.095	0.0164297
646.173	0.0164927
646.251	0.0167784
646.329	0.0167829
646.407	0.0166467
646.486	0.0165594
646.564	0.0164495
646.642	0.0165021
646.720	0.0164943
646.798	0.0167392
646.876	0.0165530
646.954	0.0166190
647.032	0.0164487
647.111	0.0166483
647.189	0.0166512
647.267	0.0167164
647.345	0.0166750
647.423	0.0166705
647.501	0.0166156
647.579	0.0165318
647.657	0.0166732
647.736	0.0166808
647.814	0.0166354
647.892	0.0166571
647.970	0.0165496
648.048	0.0165791
648.126	0.0165163
648.204	0.0165977
648.282	0.0166515
648.361	0.0166923
648.439	0.0166174
648.517	0.0165863
648.595	0.0165767
648.673	0.0166229
648.751	0.0166354
648.829	0.0166614
648.907	0.0166270
648.986	0.0165230
649.064	0.0166280
649.142	0.0166061
649.220	0.0165376
649.298	0.0168446
649.376	0.0166228
649.454	0.0165774
649.532	0.0166470
649.611	0.0166507
649.689	0.0166219
649.767	0.0164552
649.845	0.0165606
649.923	0.0166702
650.001	0.0166675
650.079	0.0165832
650.157	0.0166210
650.236	0.0166566
650.314	0.0166086
650.392	0.0165879
650.470	0.0165572
650.548	0.0166496
650.626	0.0167056
650.704	0.0165969
650.782	0.0166174
650.861	0.0165457
650.939	0.0166406
651.017	0.0166161
651.095	0.0165583
651.173	0.0165351
651.251	0.0166763
651.329	0.0165276
651.407	0.0165251
651.486	0.0165674
651.564	0.0165968
651.642	0.0165300
651.720	0.0165572
651.798	0.0165385
651.876	0.0164410
651.954	0.0166426
652.032	0.0165497
652.111	0.0164510
652.189	0.0165261
652.267	0.0166055
652.345	0.0166746
652.423	0.0164907
652.501	0.0165400
652.579	0.0164949
652.657	0.0164999
652.736	0.0164936
652.814	0.0166448
652.892	0.0166736
652.970	0.0165800
653.048	0.0166280
653.126	0.0165502
653.204	0.0166556
653.282	0.0166248
653.361	0.0166448
653.439	0.0166114
653.517	0.0165929
653.595	0.0166567
653.673	0.0165739
653.751	0.0166242
653.829	0.0165770
653.907	0.0166010
653.986	0.0165432
654.064	0.0165240
654.142	0.0165562
654.220	0.0167308
654.298	0.0166230
654.376	0.0166661
654.454	0.0165257
654.532	0.0165945
654.611	0.0165488
654.689	0.0165052
654.767	0.0166236
654.845	0.0166586
654.923	0.0166282
655.001	0.0164840
655.079	0.0167097
655.157	0.0166016
655.236	0.0167146
655.314	0.0165932
655.392	0.0165102
655.470	0.0166759
655.548	0.0164909
655.626	0.0165440
655.704	0.0166154
655.782	0.0164600
655.861	0.0165742
655.939	0.0165572
656.017	0.0166041
656.095	0.0166855
656.173	0.0166383
656.251	0.0165909
656.329	0.0166576
656.407	0.0165611
656.486	0.0165126
656.564	0.0166457
656.642	0.0165130
656.720	0.0165112
656.798	0.0166084
656.876	0.0166767
656.954	0.0166031
657.032	0.0164536
657.111	0.0167239
657.189	0.0166613
657.267	0.0166106
657.345	0.0164729
657.423	0.0167276
657.501	0.0165807
657.579	0.0166199
657.657	0.0166367
657.736	0.0165604
657.814	0.0166868
657.892	0.0166194
657.970	0.0164871
658.048	0.0164954
658.126	0.0165752
658.204	0.0165925
658.282	0.0165990
658.361	0.0166669
658.439	0.0165470
658.517	0.0166190
658.595	0.0167286
658.673	0.0166248
658.751	0.0165627
658.829	0.0166811
658.907	0.0165623
658.986	0.0164932
659.064	0.0165860
659.142	0.0167998
659.220	0.0166621
659.298	0.0165366
659.376	0.0165374
659.454	0.0166748
659.532	0.0166121
659.611	0.0165310
659.689	0.0166928
659.767	0.0166029
659.845	0.0165546
659.923	0.0166491
660.001	0.0165794
660.079	0.0165582
660.157	0.0166583
660.236	0.0166907
660.314	0.0166984
660.392	0.0166380
660.470	0.0166079
660.548	0.0165514
660.626	0.0165315
660.704	0.0166998
660.782	0.0165858
660.861	0.0166202
660.939	0.0166936
661.017	0.0167013
661.095	0.0164818
661.173	0.0165723
661.251	0.0166038
661.329	0.0167387
661.407	0.0166170
661.486	0.0166118
661.564	0.0166624
661.642	0.0165937
661.720	0.0164797
661.798	0.0165289
661.876	0.0167252
661.954	0.0166315
662.032	0.0165957
662.111	0.0165749
662.189	0.0165505
662.267	0.0166655
662.345	0.0166741
662.423	0.0166166
662.501	0.0165556
662.579	0.0166817
662.657	0.0166548
662.736	0.0166700
662.814	0.0165725
662.892	0.0165398
662.970	0.0167152
663.048	0.0165376
663.126	0.0167342
663.204	0.0166805
663.282	0.0165723
663.361	0.0165493
663.439	0.0165676
663.517	0.0167311
663.595	0.0164723
663.673	0.0165144
663.751	0.0165781
663.829	0.0165156
663.907	0.0165480
663.986	0.0165105
664.064	0.0165876
664.142	0.0163966
664.220	0.0166759
664.298	0.0166425
664.376	0.0164228
664.454	0.0165588
664.532	0.0166916
664.611	0.0165382
664.689	0.0166527
664.767	0.0166902
664.845	0.0167556
664.923	0.0165701
665.001	0.0165310
665.079	0.0166039
665.157	0.0165506
665.236	0.0166335
665.314	0.0164690
665.392	0.0165149
665.470	0.0167170
665.548	0.0166487
665.626	0.0164565
665.704	0.0165968
665.782	0.0166669
665.861	0.0166627
665.939	0.0166128
666.017	0.0165766
666.095	0.0166145
666.173	0.0167404
666.251	0.0165901
666.329	0.0165561
666.407	0.0167030
666.486	0.0165637
666.564	0.0166247
666.642	0.0164898
666.720	0.0166743
666.798	0.0167223
666.876	0.0165961
666.954	0.0166434
667.032	0.0166972
667.111	0.0165590
667.189	0.0165463
667.267	0.0165655
667.345	0.0165855
667.423	0.0165577
667.501	0.0166833
667.579	0.0165833
667.657	0.0166618
667.736	0.0166672
667.814	0.0167041
667.892	0.0166480
667.970	0.0166939
668.048	0.0167474
668.126	0.0166688
668.204	0.0166649
668.282	0.0166682
668.361	0.0166972
668.439	0.0166353
668.517	0.0166584
668.595	0.0166184
668.673	0.0166201
668.751	0.0166788
668.829	0.0165606
668.907	0.0164622
668.986	0.0167063
669.064	0.0166644
669.142	0.0166956
669.220	0.0166968
669.298	0.0166177
669.376	0.0165553
669.454	0.0165858
669.532	0.0166776
669.611	0.0167039
669.689	0.0166737
669.767	0.0165472
669.845	0.0167176
669.923	0.0165603
670.001	0.0165186
670.079	0.0167027
670.157	0.0166672
670.236	0.0167106
670.314	0.0165749
670.392	0.0165868
670.470	0.0165982
670.548	0.0166013
670.626	0.0167186
670.704	0.0166168
670.782	0.0165973
670.861	0.0165861
670.939	0.0165579
671.017	0.0166600
671.095	0.0166636
671.173	0.0164596
671.251	0.0165151
671.329	0.0165133
671.407	0.0165857
671.486	0.0164906
671.564	0.0165201
671.642	0.0166361
671.720	0.0166585
671.798	0.0165586
671.876	0.0165598
671.954	0.0165434
672.032	0.0166411
672.111	0.0165977
672.189	0.0165226
672.267	0.0165569
672.345	0.0167237
672.423	0.0165189
672.501	0.0166315
672.579	0.0166895
672.657	0.0165939
672.736	0.0165527
672.814	0.0167064
672.892	0.0165771
672.970	0.0166473
673.048	0.0166358
673.126	0.0164962
673.204	0.0165773
673.282	0.0165604
673.361	0.0164886
673.439	0.0164554
673.517	0.0165397
673.595	0.0165845
673.673	0.0165025
673.751	0.0165612
673.829	0.0164815
673.907	0.0164774
673.986	0.0167485
674.064	0.0164856
674.142	0.0165430
674.220	0.0166359
674.298	0.0164931
674.376	0.0165733
674.454	0.0165746
674.532	0.0165628
674.611	0.0166064
674.689	0.0165376
674.767	0.0165611
674.845	0.0165961
674.923	0.0165734
675.001	0.0165623
675.079	0.0164998
675.157	0.0166166
675.236	0.0164721
675.314	0.0165977
675.392	0.0165763
675.470	0.0166071
675.548	0.0165746
675.626	0.0165238
675.704	0.0165499
675.782	0.0164975
675.861	0.0165417
675.939	0.0165858
676.017	0.0166692
676.095	0.0166337
676.173	0.0165424
676.251	0.0166077
676.329	0.0166999
676.407	0.0166431
676.486	0.0167305
676.564	0.0167059
676.642	0.0167007
676.720	0.0166133
676.798	0.0166533
676.876	0.0167410
676.954	0.0166991
677.032	0.0167466
677.111	0.0166990
677.189	0.0165430
677.267	0.0166351
677.345	0.0167146
677.423	0.0166584
677.501	0.0167263
677.579	0.0167244
677.657	0.0166516
677.736	0.0167652
677.814	0.0167575
677.892	0.0168214
677.970	0.0167625
678.048	0.0165572
678.126	0.0168242
678.204	0.0168045
678.282	0.0166322
678.361	0.0167478
678.439	0.0167023
678.517	0.0167570
678.595	0.0166582
678.673	0.0165335
678.751	0.0165797
678.829	0.0165572
678.907	0.0165952
678.986	0.0167401
679.064	0.0166463
679.142	0.0165982
679.220	0.0166773
679.298	0.0167348
679.376	0.0167477
679.454	0.0166394
679.532	0.0165926
679.611	0.0167948
679.689	0.0165849
679.767	0.0165542
679.845	0.0167561
679.923	0.0167511
680.001	0.0166973
680.079	0.0167545
680.157	0.0166320
680.236	0.0166525
680.314	0.0166766
680.392	0.0166234
680.470	0.0166456
680.548	0.0166344
680.626	0.0165671
680.704	0.0166547
680.782	0.0166227
680.861	0.0165302
680.939	0.0166966
681.017	0.0166341
681.095	0.0166288
681.173	0.0166153
681.251	0.0165739
681.329	0.0167462
681.407	0.0166865
681.486	0.0165657
681.564	0.0166109
681.642	0.0165825
681.720	0.0166872
681.798	0.0165615
681.876	0.0166644
681.954	0.0165824
682.032	0.0166467
682.111	0.0166453
682.189	0.0166562
682.267	0.0166253
682.345	0.0166485
682.423	0.0166516
682.501	0.0166083
682.579	0.0164537
682.657	0.0166261
682.736	0.0165576
682.814	0.0166544
682.892	0.0165430
682.970	0.0165339
683.048	0.0167716
683.126	0.0165405
683.204	0.0165951
683.282	0.0167208
683.361	0.0165369
683.439	0.0165596
683.517	0.0165846
683.595	0.0167261
683.673	0.0166355
683.751	0.0166402
683.829	0.0165869
683.907	0.0166958
683.986	0.0166010
684.064	0.0164857
684.142	0.0167080
684.220	0.0166959
684.298	0.0167110
684.376	0.0167081
684.454	0.0165973
684.532	0.0165108
684.611	0.0166360
684.689	0.0165936
684.767	0.0166089
684.845	0.0166592
684.923	0.0164283
685.001	0.0165855
685.079	0.0167030
685.157	0.0167389
685.236	0.0164623
685.314	0.0165350
685.392	0.0165456
685.470	0.0166244
685.548	0.0165741
685.626	0.0165564
685.704	0.0165644
685.782	0.0167014
685.861	0.0166793
685.939	0.0166658
686.017	0.0165723
686.095	0.0166323
686.173	0.0166814
686.251	0.0164169
686.329	0.0166502
686.407	0.0166096
686.486	0.0166814
686.564	0.0166067
686.642	0.0165286
686.720	0.0165249
686.798	0.0165579
686.876	0.0167555
686.954	0.0165689
687.032	0.0166418
687.111	0.0165825
687.189	0.0164509
687.267	0.0167062
687.345	0.0166514
687.423	0.0165862
687.501	0.0166188
687.579	0.0165739
687.657	0.0166459
687.736	0.0165747
687.814	0.0164632
687.892	0.0164877
687.970	0.0164824
688.048	0.0165485
688.126	0.0166286
688.204	0.0164445
688.282	0.0165205
688.361	0.0165389
688.439	0.0166237
688.517	0.0165842
688.595	0.0167035
688.673	0.0166367
688.751	0.0168339
688.829	0.0167712
688.907	0.0167731
688.986	0.0167432
689.064	0.0167950
689.142	0.0167899
689.220	0.0167152
689.298	0.0168143
689.376	0.0166775
689.454	0.0166777
689.532	0.0167106
689.611	0.0165862
689.689	0.0165863
689.767	0.0165555
689.845	0.0167168
689.923	0.0165959
690.001	0.0166017
690.079	0.0166513
690.157	0.0165678
690.236	0.0167452
690.314	0.0167107
690.392	0.0165735
690.470	0.0166077
690.548	0.0165936
690.626	0.0165878
690.704	0.0165211
690.782	0.0165939
690.861	0.0166674
690.939	0.0165726
691.017	0.0165704
691.095	0.0167001
691.173	0.0166917
691.251	0.0167572
691.329	0.0167818
691.407	0.0168461
691.486	0.0167874
691.564	0.0167196
691.642	0.0166859
691.720	0.0167020
691.798	0.0168420
691.876	0.0167970
691.954	0.0168650
692.032	0.0168047
692.111	0.0166321
692.189	0.0165524
692.267	0.0166241
692.345	0.0165044
692.423	0.0164987
692.501	0.0165500
692.579	0.0165238
692.657	0.0164860
692.736	0.0165154
692.814	0.0165230
692.892	0.0163858
692.970	0.0165160
693.048	0.0165717
693.126	0.0164152
693.204	0.0165884
693.282	0.0165953
693.361	0.0165759
693.439	0.0163945
693.517	0.0166604
693.595	0.0165602
693.673	0.0166939
693.751	0.0166695
693.829	0.0166779
693.907	0.0166786
693.986	0.0166917
694.064	0.0168924
694.142	0.0167524
694.220	0.0166590
694.298	0.0167932
694.376	0.0167461
694.454	0.0166570
694.532	0.0166994
694.611	0.0167889
694.689	0.0166522
694.767	0.0166890
694.845	0.0167106
694.923	0.0166183
695.001	0.0166089
695.079	0.0167072
695.157	0.0167333
695.236	0.0165899
695.314	0.0165479
695.392	0.0166567
695.470	0.0166778
695.548	0.0165024
695.626	0.0165307
695.704	0.0165054
695.782	0.0164925
695.861	0.0165628
695.939	0.0165076
696.017	0.0165733
696.095	0.0165677
696.173	0.0165663
696.251	0.0167054
696.329	0.0167603
696.407	0.0166895
696.486	0.0167048
696.564	0.0167582
696.642	0.0166645
696.720	0.0166354
696.798	0.0166920
696.876	0.0165150
696.954	0.0165463
697.032	0.0164812
697.111	0.0165536
697.189	0.0165878
697.267	0.0165596
697.345	0.0163667
697.423	0.0163628
697.501	0.0164692
697.579	0.0166495
697.657	0.0166331
697.736	0.0165823
697.814	0.0166291
697.892	0.0167726
697.970	0.0167036
698.048	0.0167020
698.126	0.0169233
698.204	0.0169285
698.282	0.0168507
698.361	0.0169189
698.439	0.0169146
698.517	0.0168800
698.595	0.0166379
698.673	0.0166487
698.751	0.0165492
698.829	0.0164156
698.907	0.0165678
698.986	0.0164686
699.064	0.0163623
699.142	0.0163918
699.220	0.0163004
699.298	0.0162845
699.376	0.0162592
699.454	0.0161929
699.532	0.0164057
699.611	0.0163901
699.689	0.0164665
699.767	0.0163297
699.845	0.0164404
699.923	0.0164827
700.001	0.0166003
700.079	0.0165308
700.157	0.0164980
700.236	0.0167239
700.314	0.0166959
700.392	0.0168025
700.470	0.0168772
700.548	0.0168029
700.626	0.0168064
700.704	0.0168604
700.782	0.0167884
700.861	0.0166628
700.939	0.0167592
701.017	0.0168590
701.095	0.0168241
701.173	0.0167225
701.251	0.0167831
701.329	0.0167323
701.407	0.0168168
701.486	0.0168333
701.564	0.0168354
701.642	0.0167954
701.720	0.0164671
701.798	0.0166652
701.876	0.0166940
701.954	0.0165398
702.032	0.0165879
702.111	0.0165054
702.189	0.0166083
702.267	0.0165575
702.345	0.0163585
702.423	0.0165018
702.501	0.0164854
702.579	0.0164084
702.657	0.0163992
702.736	0.0163556
702.814	0.0164450
702.892	0.0165434
702.970	0.0164548
703.048	0.0163235
703.126	0.0163714
703.204	0.0164410
703.282	0.0164378
703.361	0.0164647
703.439	0.0165345
703.517	0.0164661
703.595	0.0164183
703.673	0.0165453
703.751	0.0164462
703.829	0.0166255
703.907	0.0166658
703.986	0.0165878
704.064	0.0166471
704.142	0.0166175
704.220	0.0167072
704.298	0.0167478
704.376	0.0168655
704.454	0.0169203
704.532	0.0169586
704.611	0.0169746
704.689	0.0169191
704.767	0.0168243
704.845	0.0169155
704.923	0.0170428
705.001	0.0168929
705.079	0.0169428
705.157	0.0169706
705.236	0.0169979
705.314	0.0169210
705.392	0.0168265
705.470	0.0168291
705.548	0.0167336
705.626	0.0169055
705.704	0.0168301
705.782	0.0166515
705.861	0.0167641
705.939	0.0166884
706.017	0.0166650
706.095	0.0165797
706.173	0.0165888
706.251	0.0166315
706.329	0.0166683
706.407	0.0165715
706.486	0.0165215
706.564	0.0164887
706.642	0.0165581
706.720	0.0164481
706.798	0.0164745
706.876	0.0165564
706.954	0.0164464
707.032	0.0164242
707.111	0.0165520
707.189	0.0164732
707.267	0.0164919
707.345	0.0164454
707.423	0.0166075
707.501	0.0163560
707.579	0.0165500
707.657	0.0165531
707.736	0.0166867
707.814	0.0166022
707.892	0.0166232
707.970	0.0164275
708.048	0.0164487
708.126	0.0165607
708.204	0.0166492
708.282	0.0165694
708.361	0.0165489
708.439	0.0165179
708.517	0.0165823
708.595	0.0166368
708.673	0.0165485
708.751	0.0165331
708.829	0.0166763
708.907	0.0167023
708.986	0.0166382
709.064	0.0166565
709.142	0.0166705
709.220	0.0168415
709.298	0.0167657
709.376	0.0168074
709.454	0.0167925
709.532	0.0168700
709.611	0.0168085
709.689	0.0168498
709.767	0.0167970
709.845	0.0167719
709.923	0.0166041
710.001	0.0167070
710.079	0.0166248
710.157	0.0166878
710.236	0.0166714
710.314	0.0166817
710.392	0.0166152
710.470	0.0166684
710.548	0.0166445
710.626	0.0166652
710.704	0.0166848
710.782	0.0166294
710.861	0.0167915
710.939	0.0167589
711.017	0.0167478
711.095	0.0167455
711.173	0.0167699
711.251	0.0166413
711.329	0.0166702
711.407	0.0166740
711.486	0.0166183
711.564	0.0164883
711.642	0.0165941
711.720	0.0166202
711.798	0.0164964
711.876	0.0163943
711.954	0.0165378
712.032	0.0166562
712.111	0.0165755
712.189	0.0164163
712.267	0.0165216
712.345	0.0166800
712.423	0.0164151
712.501	0.0163928
712.579	0.0165564
712.657	0.0165067
712.736	0.0165569
712.814	0.0166101
712.892	0.0166217
712.970	0.0164913
713.048	0.0165133
713.126	0.0165212
713.204	0.0165193
713.282	0.0164442
713.361	0.0164686
713.439	0.0165711
713.517	0.0163290
713.595	0.0164169
713.673	0.0164835
713.751	0.0164803
713.829	0.0165302
713.907	0.0164538
713.986	0.0166310
714.064	0.0166003
714.142	0.0165457
714.220	0.0165321
714.298	0.0167078
714.376	0.0167036
714.454	0.0166204
714.532	0.0167590
714.611	0.0167063
714.689	0.0166921
714.767	0.0169322
714.845	0.0168038
714.923	0.0167880
715.001	0.0168954
715.079	0.0167690
715.157	0.0166874
715.236	0.0166492
715.314	0.0168034
715.392	0.0166745
715.470	0.0167695
715.548	0.0167020
715.626	0.0166483
715.704	0.0165208
715.782	0.0165569
715.861	0.0164624
715.939	0.0165730
716.017	0.0166002
716.095	0.0164326
716.173	0.0164716
716.251	0.0164986
716.329	0.0165337
716.407	0.0164947
716.486	0.0164560
716.564	0.0165416
716.642	0.0164507
716.720	0.0164497
716.798	0.0164532
716.876	0.0165590
716.954	0.0163904
717.032	0.0165736
717.111	0.0164916
717.189	0.0164657
717.267	0.0165395
717.345	0.0166257
717.423	0.0164954
717.501	0.0164088
717.579	0.0166788
717.657	0.0166019
717.736	0.0165671
717.814	0.0165996
717.892	0.0165385
717.970	0.0164972
718.048	0.0165408
718.126	0.0166730
718.204	0.0166238
718.282	0.0166737
718.361	0.0166718
718.439	0.0166536
718.517	0.0167036
718.595	0.0167870
718.673	0.0167650
718.751	0.0168651
718.829	0.0169061
718.907	0.0168461
718.986	0.0167850
719.064	0.0168717
719.142	0.0169059
719.220	0.0167393
719.298	0.0166892
719.376	0.0167264
719.454	0.0167938
719.532	0.0167200
719.611	0.0166134
719.689	0.0166700
719.767	0.0167761
719.845	0.0165961
719.923	0.0165503
720.001	0.0164872
720.079	0.0165668
720.157	0.0165446
720.236	0.0166213
720.314	0.0165501
720.392	0.0165021
720.470	0.0167041
720.548	0.0166375
720.626	0.0166657
720.704	0.0167020
720.782	0.0166393
720.861	0.0165517
720.939	0.0165852
721.017	0.0164827
721.095	0.0165821
721.173	0.0164732
721.251	0.0165260
721.329	0.0165603
721.407	0.0164568
721.486	0.0165363
721.564	0.0165503
721.642	0.0165978
721.720	0.0165417
721.798	0.0165845
721.876	0.0166364
721.954	0.0164771
722.032	0.0165411
722.111	0.0165916
722.189	0.0165567
722.267	0.0164886
722.345	0.0165282
722.423	0.0167410
722.501	0.0166776
722.579	0.0164742
722.657	0.0166437
722.736	0.0164791
722.814	0.0165488
722.892	0.0166386
722.970	0.0165146
723.048	0.0165756
723.126	0.0166566
723.204	0.0166548
723.282	0.0165102
723.361	0.0167314
723.439	0.0165331
723.517	0.0166577
723.595	0.0164904
723.673	0.0165879
723.751	0.0166745
723.829	0.0165357
723.907	0.0167947
723.986	0.0165714
724.064	0.0165986
724.142	0.0165868
724.220	0.0167494
724.298	0.0168004
724.376	0.0167419
724.454	0.0166846
724.532	0.0167411
724.611	0.0165839
724.689	0.0164812
724.767	0.0168570
724.845	0.0167190
724.923	0.0167165
725.001	0.0166188
725.079	0.0167078
725.157	0.0166080
725.236	0.0167239
725.314	0.0166782
725.392	0.0167588
725.470	0.0166872
725.548	0.0167084
725.626	0.0166364
725.704	0.0166113
725.782	0.0166726
725.861	0.0166998
725.939	0.0166466
726.017	0.0166827
726.095	0.0166927
726.173	0.0164982
726.251	0.0165977
726.329	0.0165649
726.407	0.0165823
726.486	0.0166583
726.564	0.0167343
726.642	0.0166191
726.720	0.0165425
726.798	0.0165804
726.876	0.0166180
726.954	0.0167490
727.032	0.0165199
727.111	0.0166161
727.189	0.0165881
727.267	0.0165441
727.345	0.0166581
727.423	0.0164884
727.501	0.0164459
727.579	0.0165266
727.657	0.0166651
727.736	0.0165059
727.814	0.0165093
727.892	0.0164207
727.970	0.0166177
728.048	0.0164959
728.126	0.0164538
728.204	0.0166190
728.282	0.0166204
728.361	0.0166678
728.439	0.0166711
728.517	0.0166855
728.595	0.0168179
728.673	0.0167151
728.751	0.0167231
728.829	0.0167313
728.907	0.0167715
728.986	0.0167252
729.064	0.0166839
729.142	0.0167050
729.220	0.0166689
729.298	0.0166434
729.376	0.0166422
729.454	0.0167276
729.532	0.0166714
729.611	0.0167782
729.689	0.0167264
729.767	0.0166572
729.845	0.0168131
729.923	0.0166050
730.001	0.0167783
730.079	0.0168276
730.157	0.0166889
730.236	0.0167834
730.314	0.0166601
730.392	0.0166405
730.470	0.0166008
730.548	0.0166942
730.626	0.0167474
730.704	0.0167272
730.782	0.0166720
730.861	0.0166827
730.939	0.0166499
731.017	0.0165623
731.095	0.0165586
731.173	0.0165723
731.251	0.0166843
731.329	0.0166602
731.407	0.0166357
731.486	0.0166236
731.564	0.0165195
731.642	0.0166663
731.720	0.0165386
731.798	0.0166390
731.876	0.0166332
731.954	0.0165687
732.032	0.0167081
732.111	0.0166123
732.189	0.0166592
732.267	0.0165838
732.345	0.0165620
732.423	0.0167113
732.501	0.0166750
732.579	0.0166608
732.657	0.0168069
732.736	0.0166637
732.814	0.0165194
732.892	0.0166968
732.970	0.0166429
733.048	0.0166056
733.126	0.0166320
733.204	0.0165999
733.282	0.0167188
733.361	0.0166801
733.439	0.0165717
733.517	0.0168111
733.595	0.0166099
733.673	0.0166302
733.751	0.0166345
733.829	0.0165855
733.907	0.0166686
733.986	0.0167387
734.064	0.0166755
734.142	0.0166116
734.220	0.0165691
734.298	0.0166103
734.376	0.0166425
734.454	0.0165243
734.532	0.0164431
734.611	0.0165129
734.689	0.0165899
734.767	0.0166226
734.845	0.0164491
734.923	0.0164055
735.001	0.0164987
735.079	0.0165272
735.157	0.0165216
735.236	0.0164949
735.314	0.0164289
735.392	0.0165514
735.470	0.0164046
735.548	0.0165559
735.626	0.0165543
735.704	0.0165929
735.782	0.0166343
735.861	0.0165572
735.939	0.0165144
736.017	0.0166022
736.095	0.0166379
736.173	0.0165520
736.251	0.0165604
736.329	0.0165974
736.407	0.0166512
736.486	0.0166058
736.564	0.0164505
736.642	0.0166201
736.720	0.0166279
736.798	0.0165832
736.876	0.0165177
736.954	0.0165696
737.032	0.0165015
737.111	0.0166856
737.189	0.0167720
737.267	0.0166914
737.345	0.0166757
737.423	0.0166582
737.501	0.0166093
737.579	0.0165487
737.657	0.0166158
737.736	0.0165623
737.814	0.0165507
737.892	0.0165361
737.970	0.0165533
738.048	0.0165073
738.126	0.0165823
738.204	0.0166000
738.282	0.0163776
738.361	0.0165043
738.439	0.0164671
738.517	0.0166060
738.595	0.0164957
738.673	0.0166685
738.751	0.0167335
738.829	0.0166280
738.907	0.0165889
738.986	0.0165751
739.064	0.0166936
739.142	0.0166056
739.220	0.0166100
739.298	0.0166486
739.376	0.0166869
739.454	0.0166490
739.532	0.0167114
739.611	0.0164957
739.689	0.0165028
739.767	0.0165741
739.845	0.0164888
739.923	0.0166168
740.001	0.0165165
740.079	0.0164617
740.157	0.0166121
740.236	0.0165029
740.314	0.0165414
740.392	0.0165979
740.470	0.0167189
740.548	0.0165891
740.626	0.0165623
740.704	0.0166032
740.782	0.0165874
740.861	0.0166076
740.939	0.0166974
741.017	0.0165145
741.095	0.0165852
741.173	0.0166629
741.251	0.0165682
741.329	0.0165930
741.407	0.0165504
741.486	0.0165759
741.564	0.0165172
741.642	0.0165455
741.720	0.0166390
741.798	0.0165852
741.876	0.0164718
741.954	0.0165374
742.032	0.0165387
742.111	0.0164375
742.189	0.0164189
742.267	0.0165810
742.345	0.0165953
742.423	0.0165371
742.501	0.0166669
742.579	0.0164955
742.657	0.0165576
742.736	0.0166551
742.814	0.0165838
742.892	0.0164700
742.970	0.0165961
743.048	0.0165501
743.126	0.0165326
743.204	0.0165191
743.282	0.0166569
743.361	0.0165052
743.439	0.0166422
743.517	0.0165305
743.595	0.0165820
743.673	0.0166807
743.751	0.0165874
743.829	0.0165041
743.907	0.0165698
743.986	0.0164947
744.064	0.0166561
744.142	0.0166649
744.220	0.0165834
744.298	0.0167368
744.376	0.0167776
744.454	0.0165679
744.532	0.0166485
744.611	0.0166543
744.689	0.0166608
744.767	0.0167223
744.845	0.0166959
744.923	0.0166013
745.001	0.0166331
745.079	0.0166208
745.157	0.0167577
745.236	0.0166727
745.314	0.0166473
745.392	0.0166753
745.470	0.0167027
745.548	0.0165239
745.626	0.0165901
745.704	0.0164849
745.782	0.0165431
745.861	0.0165285
745.939	0.0164191
746.017	0.0165754
746.095	0.0166149
746.173	0.0164406
746.251	0.0163304
746.329	0.0162939
746.407	0.0164370
746.486	0.0165268
746.564	0.0165336
746.642	0.0163065
746.720	0.0164125
746.798	0.0164579
746.876	0.0164535
746.954	0.0164111
747.032	0.0164351
747.111	0.0164478
747.189	0.0165289
747.267	0.0165784
747.345	0.0165155
747.423	0.0165279
747.501	0.0166534
747.579	0.0166486
747.657	0.0167352
747.736	0.0166033
747.814	0.0165487
747.892	0.0165820
747.970	0.0168015
748.048	0.0166844
748.126	0.0167175
748.204	0.0166684
748.282	0.0166177
748.361	0.0166987
748.439	0.0166785
748.517	0.0165955
748.595	0.0164838
748.673	0.0166614
748.751	0.0167201
748.829	0.0166420
748.907	0.0166853
748.986	0.0166010
749.064	0.0167922
749.142	0.0166470
749.220	0.0167265
749.298	0.0167487
749.376	0.0167402
749.454	0.0166392
749.532	0.0166306
749.611	0.0167204
749.689	0.0167714
749.767	0.0164832
749.845	0.0165874
749.923	0.0165703
750.001	0.0165756
750.079	0.0166384
750.157	0.0166351
750.236	0.0166434
750.314	0.0164413
750.392	0.0164996
750.470	0.0167533
750.548	0.0165736
750.626	0.0166091
750.704	0.0165904
750.782	0.0165143
750.861	0.0165646
750.939	0.0166367
751.017	0.0164200
751.095	0.0165280
751.173	0.0165439
751.251	0.0164844
751.329	0.0165433
751.407	0.0163879
751.486	0.0165999
751.564	0.0166764
751.642	0.0165411
751.720	0.0164528
751.798	0.0165414
751.876	0.0166547
751.954	0.0165084
752.032	0.0165014
752.111	0.0165795
752.189	0.0166984
752.267	0.0164349
752.345	0.0165021
752.423	0.0164834
752.501	0.0166112
752.579	0.0165694
752.657	0.0166187
752.736	0.0165313
752.814	0.0166243
752.892	0.0166012
752.970	0.0166075
753.048	0.0166067
753.126	0.0166068
753.204	0.0165546
753.282	0.0167088
753.361	0.0166438
753.439	0.0165417
753.517	0.0165405
753.595	0.0166728
753.673	0.0167863
753.751	0.0167773
753.829	0.0165511
753.907	0.0166159
753.986	0.0167107
754.064	0.0167049
754.142	0.0166875
754.220	0.0166866
754.298	0.0166781
754.376	0.0167101
754.454	0.0166761
754.532	0.0165700
754.611	0.0166724
754.689	0.0168869
754.767	0.0167741
754.845	0.0168103
754.923	0.0167793
755.001	0.0168112
755.079	0.0167060
755.157	0.0166361
755.236	0.0166200
755.314	0.0166468
755.392	0.0166890
755.470	0.0167371
755.548	0.0166726
755.626	0.0165134
755.704	0.0166063
755.782	0.0167320
755.861	0.0165665
755.939	0.0166330
756.017	0.0166596
756.095	0.0166940
756.173	0.0166085
756.251	0.0166023
756.329	0.0166723
756.407	0.0166175
756.486	0.0166052
756.564	0.0165623
756.642	0.0166520
756.720	0.0166148
756.798	0.0166855
756.876	0.0167551
756.954	0.0166431
757.032	0.0165195
757.111	0.0165421
757.189	0.0166367
757.267	0.0165923
757.345	0.0163755
757.423	0.0164812
757.501	0.0165856
757.579	0.0166962
757.657	0.0165531
757.736	0.0164826
757.814	0.0165463
757.892	0.0164071
757.970	0.0165611
758.048	0.0165321
758.126	0.0164999
758.204	0.0165289
758.282	0.0167284
758.361	0.0166418
758.439	0.0166996
758.517	0.0166669
758.595	0.0166322
758.673	0.0167073
758.751	0.0166845
758.829	0.0166077
758.907	0.0166172
758.986	0.0166202
759.064	0.0165604
759.142	0.0166084
759.220	0.0165514
759.298	0.0165647
759.376	0.0166364
759.454	0.0166718
759.532	0.0164616
759.611	0.0164584
759.689	0.0165758
759.767	0.0166148
759.845	0.0165881
759.923	0.0166088
760.001	0.0165383
760.079	0.0166786
760.157	0.0165823
760.236	0.0164779
760.314	0.0167026
760.392	0.0166529
760.470	0.0165955
760.548	0.0166016
760.626	0.0166762
760.704	0.0166235
760.782	0.0165202
760.861	0.0165591
760.939	0.0167358
761.017	0.0166191
761.095	0.0165495
761.173	0.0166148
761.251	0.0165708
761.329	0.0164478
761.407	0.0166595
761.486	0.0167234
761.564	0.0165311
761.642	0.0165598
761.720	0.0166565
761.798	0.0165121
761.876	0.0164475
761.954	0.0165824
762.032	0.0166035
762.111	0.0165546
762.189	0.0165031
762.267	0.0166167
762.345	0.0165829
762.423	0.0165146
762.501	0.0165375
762.579	0.0165568
762.657	0.0165281
762.736	0.0164301
762.814	0.0165765
762.892	0.0164523
762.970	0.0165086
763.048	0.0164854
763.126	0.0166230
763.204	0.0166237
763.282	0.0165434
763.361	0.0165552
763.439	0.0165148
763.517	0.0165679
763.595	0.0166945
763.673	0.0166359
763.751	0.0163799
763.829	0.0166705
763.907	0.0166064
763.986	0.0165745
764.064	0.0166248
764.142	0.0166371
764.220	0.0167139
764.298	0.0165571
764.376	0.0166325
764.454	0.0167513
764.532	0.0166521
764.611	0.0167138
764.689	0.0165530
764.767	0.0166321
764.845	0.0166869
764.923	0.0166806
765.001	0.0166105
765.079	0.0166250
765.157	0.0166153
765.236	0.0165617
765.314	0.0165903
765.392	0.0165163
765.470	0.0167659
765.548	0.0167614
765.626	0.0165850
765.704	0.0166634
765.782	0.0166819
765.861	0.0166248
765.939	0.0166957
766.017	0.0166582
766.095	0.0165627
766.173	0.0165745
766.251	0.0165708
766.329	0.0166626
766.407	0.0165810
766.486	0.0166048
766.564	0.0165665
766.642	0.0164349
766.720	0.0163979
766.798	0.0166329
766.876	0.0165282
766.954	0.0164138
767.032	0.0163664
767.111	0.0164632
767.189	0.0164217
767.267	0.0164574
767.345	0.0163605
767.423	0.0163879
767.501	0.0165224
767.579	0.0164373
767.657	0.0164985
767.736	0.0164201
767.814	0.0165139
767.892	0.0165447
767.970	0.0165037
768.048	0.0166849
768.126	0.0165664
768.204	0.0165154
768.282	0.0166091
768.361	0.0166221
768.439	0.0167119
768.517	0.0167255
768.595	0.0165706
768.673	0.0167193
768.751	0.0166710
768.829	0.0166501
768.907	0.0166160
768.986	0.0166925
769.064	0.0166498
769.142	0.0168433
769.220	0.0166673
769.298	0.0164087
769.376	0.0165884
769.454	0.0165579
769.532	0.0166897
769.611	0.0166922
769.689	0.0165237
769.767	0.0166396
769.845	0.0165759
769.923	0.0165799
770.001	0.0166084
770.079	0.0167391
770.157	0.0166421
770.236	0.0166725
770.314	0.0165774
770.392	0.0165896
770.470	0.0166233
770.548	0.0167250
770.626	0.0165875
770.704	0.0166617
770.782	0.0166985
770.861	0.0167338
770.939	0.0166482
771.017	0.0165536
771.095	0.0166167
771.173	0.0165892
771.251	0.0165955
771.329	0.0166490
771.407	0.0167894
771.486	0.0166979
771.564	0.0165360
771.642	0.0165096
771.720	0.0166207
771.798	0.0165387
771.876	0.0166616
771.954	0.0165453
772.032	0.0164709
772.111	0.0165488
772.189	0.0166327
772.267	0.0166302
772.345	0.0165286
772.423	0.0166453
772.501	0.0164954
772.579	0.0165985
772.657	0.0168423
772.736	0.0168314
772.814	0.0166089
772.892	0.0165012
772.970	0.0164611
773.048	0.0166461
773.126	0.0166628
773.204	0.0165915
773.282	0.0167429
773.361	0.0166447
773.439	0.0164450
773.517	0.0166579
773.595	0.0166273
773.673	0.0166673
773.751	0.0166054
773.829	0.0165728
773.907	0.0165718
773.986	0.0167355
774.064	0.0166347
774.142	0.0166690
774.220	0.0166912
774.298	0.0166190
774.376	0.0167719
774.454	0.0165624
774.532	0.0167113
774.611	0.0165666
774.689	0.0164627
774.767	0.0166956
774.845	0.0166250
774.923	0.0165701
775.001	0.0166602
775.079	0.0165686
775.157	0.0166161
775.236	0.0167178
775.314	0.0165473
775.392	0.0166457
775.470	0.0165623
775.548	0.0165762
775.626	0.0167833
775.704	0.0165855
775.782	0.0165402
775.861	0.0165144
775.939	0.0165722
776.017	0.0165884
776.095	0.0165939
776.173	0.0166756
776.251	0.0165853
776.329	0.0166816
776.407	0.0166679
776.486	0.0164273
776.564	0.0165591
776.642	0.0165915
776.720	0.0166533
776.798	0.0167010
776.876	0.0166786
776.954	0.0166315
777.032	0.0165995
777.111	0.0166481
777.189	0.0165594
777.267	0.0166825
777.345	0.0164703
777.423	0.0167178
777.501	0.0165508
777.579	0.0164394
777.657	0.0166180
777.736	0.0166258
777.814	0.0165465
777.892	0.0165073
777.970	0.0165992
778.048	0.0166942
778.126	0.0165907
778.204	0.0166026
778.282	0.0166428
778.361	0.0165269
778.439	0.0168197
778.517	0.0165463
778.595	0.0165044
778.673	0.0166430
778.751	0.0167134
778.829	0.0166730
778.907	0.0164866
778.986	0.0165784
779.064	0.0167538
779.142	0.0166492
779.220	0.0166893
779.298	0.0165561
779.376	0.0166129
779.454	0.0166243
779.532	0.0166077
779.611	0.0165972
779.689	0.0165627
779.767	0.0165485
779.845	0.0166601
779.923	0.0166940
780.001	0.0164734
780.079	0.0165487
780.157	0.0166324
780.236	0.0167581
780.314	0.0166054
780.392	0.0165600
780.470	0.0166003
780.548	0.0166633
780.626	0.0167053
780.704	0.0167083
780.782	0.0166084
780.861	0.0166941
780.939	0.0167403
781.017	0.0166888
781.095	0.0165842
781.173	0.0165467
781.251	0.0165733
781.329	0.0165485
781.407	0.0164709
781.486	0.0165533
781.564	0.0167152
781.642	0.0166500
781.720	0.0165765
781.798	0.0165175
781.876	0.0164893
781.954	0.0165790
782.032	0.0164732
782.111	0.0167253
782.189	0.0166123
782.267	0.0166000
782.345	0.0165504
782.423	0.0167110
782.501	0.0164931
782.579	0.0165515
782.657	0.0166618
782.736	0.0166026
782.814	0.0165125
782.892	0.0166096
782.970	0.0165290
783.048	0.0166853
783.126	0.0164600
783.204	0.0165290
783.282	0.0166438
783.361	0.0165653
783.439	0.0166066
783.517	0.0166068
783.595	0.0166189
783.673	0.0165930
783.751	0.0167276
783.829	0.0166087
783.907	0.0166142
783.986	0.0166014
784.064	0.0167090
784.142	0.0165270
784.220	0.0165092
784.298	0.0165349
784.376	0.0165210
784.454	0.0164278
784.532	0.0165533
784.611	0.0165324
784.689	0.0167522
784.767	0.0165720
784.845	0.0166476
784.923	0.0167579
785.001	0.0166648
785.079	0.0165300
785.157	0.0167161
785.236	0.0166576
785.314	0.0165656
785.392	0.0166196
785.470	0.0166909
785.548	0.0165737
785.626	0.0166512
785.704	0.0166643
785.782	0.0166550
785.861	0.0165388
785.939	0.0165200
786.017	0.0165660
786.095	0.0165947
786.173	0.0165448
786.251	0.0165824
786.329	0.0164851
786.407	0.0165310
786.486	0.0166441
786.564	0.0166071
786.642	0.0166393
786.720	0.0165849
786.798	0.0165340
786.876	0.0166295
786.954	0.0165789
787.032	0.0165802
787.111	0.0164770
787.189	0.0164405
787.267	0.0164973
787.345	0.0165647
787.423	0.0165784
787.501	0.0165228
787.579	0.0165717
787.657	0.0165578
787.736	0.0164477
787.814	0.0164906
787.892	0.0166782
787.970	0.0164814
788.048	0.0164597
788.126	0.0164832
788.204	0.0165227
788.282	0.0164677
788.361	0.0166522
788.439	0.0166605
788.517	0.0165773
788.595	0.0167271
788.673	0.0166201
788.751	0.0166379
788.829	0.0165834
788.907	0.0166389
788.986	0.0166743
789.064	0.0166621
789.142	0.0166916
789.220	0.0167471
789.298	0.0165456
789.376	0.0165359
789.454	0.0167732
789.532	0.0165495
789.611	0.0167104
789.689	0.0166339
789.767	0.0166516
789.845	0.0166530
789.923	0.0166327
790.001	0.0165650
790.079	0.0165473
790.157	0.0167315
790.236	0.0166052
790.314	0.0167509
790.392	0.0165876
790.470	0.0166206
790.548	0.0167094
790.626	0.0165251
790.704	0.0165347
790.782	0.0166437
790.861	0.0166584
790.939	0.0166068
791.017	0.0165725
791.095	0.0165787
791.173	0.0165987
791.251	0.0166166
791.329	0.0164774
791.407	0.0166215
791.486	0.0165476
791.564	0.0164893
791.642	0.0166351
791.720	0.0166214
791.798	0.0167254
791.876	0.0166286
791.954	0.0166483
792.032	0.0166986
792.111	0.0165506
792.189	0.0166072
792.267	0.0167428
792.345	0.0166249
792.423	0.0166470
792.501	0.0166068
792.579	0.0167205
792.657	0.0166689
792.736	0.0165797
792.814	0.0166410
792.892	0.0167270
792.970	0.0165351
793.048	0.0166069
793.126	0.0164291
793.204	0.0165845
793.282	0.0165611
793.361	0.0165464
793.439	0.0165069
793.517	0.0165005
793.595	0.0164814
793.673	0.0164157
793.751	0.0165535
793.829	0.0166282
793.907	0.0166711
793.986	0.0166148
794.064	0.0166150
794.142	0.0165582
794.220	0.0166124
794.298	0.0164579
794.376	0.0165787
794.454	0.0166698
794.532	0.0167632
794.611	0.0166074
794.689	0.0165986
794.767	0.0167177
794.845	0.0167052
794.923	0.0166241
795.001	0.0166690
795.079	0.0165406
795.157	0.0166145
795.236	0.0165768
795.314	0.0165357
795.392	0.0165858
795.470	0.0166772
795.548	0.0165184
795.626	0.0165489
795.704	0.0166688
795.782	0.0166701
795.861	0.0167027
795.939	0.0167347
796.017	0.0166175
796.095	0.0166624
796.173	0.0167190
796.251	0.0164915
796.329	0.0167336
796.407	0.0166484
796.486	0.0165449
796.564	0.0165800
796.642	0.0165531
796.720	0.0166060
796.798	0.0164512
796.876	0.0165460
796.954	0.0167161
797.032	0.0166685
797.111	0.0165229
797.189	0.0166540
797.267	0.0166061
797.345	0.0166580
797.423	0.0165494
797.501	0.0165953
797.579	0.0165862
797.657	0.0165910
797.736	0.0166215
797.814	0.0165554
797.892	0.0168339
797.970	0.0166994
798.048	0.0166955
798.126	0.0167416
798.204	0.0166171
798.282	0.0166624
798.361	0.0165457
798.439	0.0166058
798.517	0.0166698
798.595	0.0166856
798.673	0.0166110
798.751	0.0166405
798.829	0.0167464
798.907	0.0165711
798.986	0.0166090
799.064	0.0166123
799.142	0.0165866
799.220	0.0167609
799.298	0.0166042
799.376	0.0166654
799.454	0.0165559
799.532	0.0166506
799.611	0.0166866
799.689	0.0164938
799.767	0.0164978
799.845	0.0166804
799.923	0.0167446
800.001	0.0165260
800.079	0.0166577
800.157	0.0165447
800.236	0.0164918
800.314	0.0165346
800.392	0.0164767
800.470	0.0166137
800.548	0.0167292
800.626	0.0167503
800.704	0.0167352
800.782	0.0166309
800.861	0.0165983
800.939	0.0168360
801.017	0.0166350
801.095	0.0166938
801.173	0.0167078
801.251	0.0166158
801.329	0.0166477
801.407	0.0167101
801.486	0.0167202
801.564	0.0167275
801.642	0.0167486
801.720	0.0166934
801.798	0.0166672
801.876	0.0167577
801.954	0.0167524
802.032	0.0166496
802.111	0.0166095
802.189	0.0167126
802.267	0.0166143
802.345	0.0165512
802.423	0.0167483
802.501	0.0166815
802.579	0.0166106
802.657	0.0166869
802.736	0.0167445
802.814	0.0167262
802.892	0.0166049
802.970	0.0166756
803.048	0.0166560
803.126	0.0164916
803.204	0.0165018
803.282	0.0167017
803.361	0.0165257
803.439	0.0166186
803.517	0.0163952
803.595	0.0165911
803.673	0.0164621
803.751	0.0166798
803.829	0.0165775
803.907	0.0164073
803.986	0.0165449
804.064	0.0165859
804.142	0.0164624
804.220	0.0168076
804.298	0.0166184
804.376	0.0163927
804.454	0.0167389
804.532	0.0166892
804.611	0.0165759
804.689	0.0165939
804.767	0.0166175
804.845	0.0166238
804.923	0.0166001
805.001	0.0165965
805.079	0.0165476
805.157	0.0164357
805.236	0.0166014
805.314	0.0166483
805.392	0.0166647
805.470	0.0166089
805.548	0.0165887
805.626	0.0165022
805.704	0.0166157
805.782	0.0165418
805.861	0.0166500
805.939	0.0166892
806.017	0.0165633
806.095	0.0165541
806.173	0.0166468
806.251	0.0166721
806.329	0.0167959
806.407	0.0165710
806.486	0.0166383
806.564	0.0165669
806.642	0.0166241
806.720	0.0166287
806.798	0.0165556
806.876	0.0166509
806.954	0.0167141
807.032	0.0165885
807.111	0.0165215
807.189	0.0165923
807.267	0.0165417
807.345	0.0165701
807.423	0.0166562
807.501	0.0164844
807.579	0.0165022
807.657	0.0165620
807.736	0.0164481
807.814	0.0163818
807.892	0.0165352
807.970	0.0166164
808.048	0.0166103
808.126	0.0164475
808.204	0.0165887
808.282	0.0165887
808.361	0.0166294
808.439	0.0165506
808.517	0.0165815
808.595	0.0166351
808.673	0.0166865
808.751	0.0167039
808.829	0.0165157
808.907	0.0166368
808.986	0.0166071
809.064	0.0166598
809.142	0.0165239
809.220	0.0164248
809.298	0.0165876
809.376	0.0165768
809.454	0.0165653
809.532	0.0164204
809.611	0.0165049
809.689	0.0165340
809.767	0.0165561
809.845	0.0164461
809.923	0.0166046
810.001	0.0164581
810.079	0.0165638
810.157	0.0165216
810.236	0.0163914
810.314	0.0165363
810.392	0.0165673
810.470	0.0166409
810.548	0.0167426
810.626	0.0167663
810.704	0.0166613
810.782	0.0166774
810.861	0.0167852
810.939	0.0165788
811.017	0.0167645
811.095	0.0165757
811.173	0.0165150
811.251	0.0166961
811.329	0.0165157
811.407	0.0166342
811.486	0.0165440
811.564	0.0165572
811.642	0.0163795
811.720	0.0165939
811.798	0.0164783
811.876	0.0163755
811.954	0.0165074
812.032	0.0165145
812.111	0.0164677
812.189	0.0164582
812.267	0.0163438
812.345	0.0163323
812.423	0.0164124
812.501	0.0165804
812.579	0.0164781
812.657	0.0166571
812.736	0.0166793
812.814	0.0165953
812.892	0.0165981
812.970	0.0165894
813.048	0.0165907
813.126	0.0167098
813.204	0.0167323
813.282	0.0166719
813.361	0.0166051
813.439	0.0165763
813.517	0.0167673
813.595	0.0166856
813.673	0.0167419
813.751	0.0166589
813.829	0.0165068
813.907	0.0166714
813.986	0.0166869
814.064	0.0167054
814.142	0.0165445
814.220	0.0166316
814.298	0.0165976
814.376	0.0167149
814.454	0.0165918
814.532	0.0165568
814.611	0.0166010
814.689	0.0164148
814.767	0.0165643
814.845	0.0165438
814.923	0.0164466
815.001	0.0164653
815.079	0.0163367
815.157	0.0163605
815.236	0.0163975
815.314	0.0163071
815.392	0.0164170
815.470	0.0162790
815.548	0.0163125
815.626	0.0164040
815.704	0.0162901
815.782	0.0163424
815.861	0.0163943
815.939	0.0165421
816.017	0.0165763
816.095	0.0166008
816.173	0.0165680
816.251	0.0165359
816.329	0.0166494
816.407	0.0167662
816.486	0.0168185
816.564	0.0168840
816.642	0.0168628
816.720	0.0168709
816.798	0.0169417
816.876	0.0169257
816.954	0.0170158
817.032	0.0169210
817.111	0.0169372
817.189	0.0167535
817.267	0.0168303
817.345	0.0167536
817.423	0.0167271
817.501	0.0167137
817.579	0.0165281
817.657	0.0165212
817.736	0.0164002
817.814	0.0163410
817.892	0.0162949
817.970	0.0162304
818.048	0.0161175
818.126	0.0161018
818.204	0.0161453
818.282	0.0161958
818.361	0.0161122
818.439	0.0160136
818.517	0.0161313
818.595	0.0163555
818.673	0.0162187
818.751	0.0163260
818.829	0.0163966
818.907	0.0165248
818.986	0.0164176
819.064	0.0165863
819.142	0.0167410
819.220	0.0167773
819.298	0.0167213
819.376	0.0168816
819.454	0.0168274
819.532	0.0168783
819.611	0.0168612
819.689	0.0168796
819.767	0.0168449
819.845	0.0169777
819.923	0.0168195
820.001	0.0168487
820.079	0.0168378
820.157	0.0166277
820.236	0.0166439
820.314	0.0165450
820.392	0.0164503
820.470	0.0166381
820.548	0.0165865
820.626	0.0164779
820.704	0.0163389
820.782	0.0164034
820.861	0.0164163
820.939	0.0165031
821.017	0.0165408
821.095	0.0163591
821.173	0.0163991
821.251	0.0163605
821.329	0.0164485
821.407	0.0164658
821.486	0.0163927
821.564	0.0165207
821.642	0.0164294
821.720	0.0163218
821.798	0.0164600
821.876	0.0165926
821.954	0.0165012
822.032	0.0166673
822.111	0.0164296
822.189	0.0165931
822.267	0.0166679
822.345	0.0166228
822.423	0.0165821
822.501	0.0167625
822.579	0.0167662
822.657	0.0167038
822.736	0.0167446
822.814	0.0168041
822.892	0.0167906
822.970	0.0166534
823.048	0.0166669
823.126	0.0167719
823.204	0.0164945
823.282	0.0165579
823.361	0.0165650
823.439	0.0166460
823.517	0.0165355
823.595	0.0165930
823.673	0.0165368
823.751	0.0166718
823.829	0.0165724
823.907	0.0166201
823.986	0.0165164
824.064	0.0165894
824.142	0.0165353
824.220	0.0164590
824.298	0.0166775
824.376	0.0165936
824.454	0.0164951
824.532	0.0166610
824.611	0.0167161
824.689	0.0166743
824.767	0.0167090
824.845	0.0166217
824.923	0.0166582
825.001	0.0166642
825.079	0.0166336
825.157	0.0165884
825.236	0.0164610
825.314	0.0164863
825.392	0.0164844
825.470	0.0165845
825.548	0.0164461
825.626	0.0166637
825.704	0.0167055
825.782	0.0165202
825.861	0.0166389
825.939	0.0166410
826.017	0.0165782
826.095	0.0165590
826.173	0.0166864
826.251	0.0166660
826.329	0.0164371
826.407	0.0166965
826.486	0.0167435
826.564	0.0166707
826.642	0.0166324
826.720	0.0166561
826.798	0.0167124
826.876	0.0167863
826.954	0.0167516
827.032	0.0167305
827.111	0.0164941
827.189	0.0164798
827.267	0.0166246
827.345	0.0166409
827.423	0.0164809
827.501	0.0164906
827.579	0.0164756
827.657	0.0164050
827.736	0.0164344
827.814	0.0164116
827.892	0.0164346
827.970	0.0162862
828.048	0.0164693
828.126	0.0165806
828.204	0.0165486
828.282	0.0164618
828.361	0.0166270
828.439	0.0166368
828.517	0.0166454
828.595	0.0167233
828.673	0.0166383
828.751	0.0167169
828.829	0.0166923
828.907	0.0166891
828.986	0.0167883
829.064	0.0169247
829.142	0.0167752
829.220	0.0168745
829.298	0.0169306
829.376	0.0167275
829.454	0.0168407
829.532	0.0168162
829.611	0.0167574
829.689	0.0168226
829.767	0.0167673
829.845	0.0164924
829.923	0.0164964
830.001	0.0164589
830.079	0.0164639
830.157	0.0164145
830.236	0.0162763
830.314	0.0163817
830.392	0.0163043
830.470	0.0162340
830.548	0.0161362
830.626	0.0162988
830.704	0.0162844
830.782	0.0162472
830.861	0.0162129
830.939	0.0163302
831.017	0.0163015
831.095	0.0163284
831.173	0.0163615
831.251	0.0164169
831.329	0.0164793
831.407	0.0165695
831.486	0.0165771
831.564	0.0166533
831.642	0.0165674
831.720	0.0166566
831.798	0.0167882
831.876	0.0168090
831.954	0.0169123
832.032	0.0168504
832.111	0.0167564
832.189	0.0168195
832.267	0.0169656
832.345	0.0168805
832.423	0.0169225
832.501	0.0167234
832.579	0.0168328
832.657	0.0167579
832.736	0.0168201
832.814	0.0165831
832.892	0.0166793
832.970	0.0166455
833.048	0.0166625
833.126	0.0165593
833.204	0.0165612
833.282	0.0165595
833.361	0.0164352
833.439	0.0165054
833.517	0.0165372
833.595	0.0164394
833.673	0.0166529
833.751	0.0164835
833.829	0.0163947
833.907	0.0165512
833.986	0.0165699
834.064	0.0165257
834.142	0.0165054
834.220	0.0165559
834.298	0.0165814
834.376	0.0166264
834.454	0.0166785
834.532	0.0167026
834.611	0.0166584
834.689	0.0165372
834.767	0.0166541
834.845	0.0166222
834.923	0.0165746
835.001	0.0166542
835.079	0.0166011
835.157	0.0164172
835.236	0.0165721
835.314	0.0167279
835.392	0.0166644
835.470	0.0166133
835.548	0.0164140
835.626	0.0165548
835.704	0.0165437
835.782	0.0164843
835.861	0.0163984
835.939	0.0164844
836.017	0.0163271
836.095	0.0164365
836.173	0.0163962
836.251	0.0162841
836.329	0.0162173
836.407	0.0164092
836.486	0.0165315
836.564	0.0165855
836.642	0.0164543
836.720	0.0164498
836.798	0.0165359
836.876	0.0167199
836.954	0.0166665
837.032	0.0165448
837.111	0.0166750
837.189	0.0167719
837.267	0.0167093
837.345	0.0166662
837.423	0.0165701
837.501	0.0167634
837.579	0.0167559
837.657	0.0167445
837.736	0.0167567
837.814	0.0168106
837.892	0.0167285
837.970	0.0167362
838.048	0.0167876
838.126	0.0166890
838.204	0.0167532
838.282	0.0166808
838.361	0.0166012
838.439	0.0167448
838.517	0.0166697
838.595	0.0166325
838.673	0.0167033
838.751	0.0166026
838.829	0.0166777
838.907	0.0166410
838.986	0.0167133
839.064	0.0165948
839.142	0.0164522
839.220	0.0165217
839.298	0.0165369
839.376	0.0165581
839.454	0.0165926
839.532	0.0165437
839.611	0.0165341
839.689	0.0165884
839.767	0.0164896
839.845	0.0165231
839.923	0.0165814
840.001	0.0166283
840.079	0.0165586
840.157	0.0165328
840.236	0.0166116
840.314	0.0166277
840.392	0.0165615
840.470	0.0166490
840.548	0.0165573
840.626	0.0164746
840.704	0.0165714
840.782	0.0166460
840.861	0.0165623
840.939	0.0166272
841.017	0.0164189
841.095	0.0166061
841.173	0.0164322
841.251	0.0164283
841.329	0.0165421
841.407	0.0164915
841.486	0.0165178
841.564	0.0164298
841.642	0.0163763
841.720	0.0163957
841.798	0.0163423
841.876	0.0163345
841.954	0.0164294
842.032	0.0164275
842.111	0.0165527
842.189	0.0164290
842.267	0.0165235
842.345	0.0165087
842.423	0.0165196
842.501	0.0165781
842.579	0.0166693
842.657	0.0167043
842.736	0.0167006
842.814	0.0166587
842.892	0.0167290
842.970	0.0167146
843.048	0.0167860
843.126	0.0166987
843.204	0.0166673
843.282	0.0166195
843.361	0.0165678
843.439	0.0167378
843.517	0.0167039
843.595	0.0166721
843.673	0.0167007
843.751	0.0164981
843.829	0.0165077
843.907	0.0166382
843.986	0.0165890
844.064	0.0166587
844.142	0.0165671
844.220	0.0165349
844.298	0.0164885
844.376	0.0166666
844.454	0.0166570
844.532	0.0165985
844.611	0.0167418
844.689	0.0167023
844.767	0.0165691
844.845	0.0167471
844.923	0.0167127
845.001	0.0166566
845.079	0.0167066
845.157	0.0166798
845.236	0.0167233
845.314	0.0166587
845.392	0.0168151
845.470	0.0167216
845.548	0.0167664
845.626	0.0167304
845.704	0.0167185
845.782	0.0165681
845.861	0.0166992
845.939	0.0165534
846.017	0.0165125
846.095	0.0165592
846.173	0.0164796
846.251	0.0163462
846.329	0.0164579
846.407	0.0164348
846.486	0.0164326
846.564	0.0164795
846.642	0.0164066
846.720	0.0165218
846.798	0.0165578
846.876	0.0164226
846.954	0.0164522
847.032	0.0165178
847.111	0.0166139
847.189	0.0165293
847.267	0.0165043
847.345	0.0164881
847.423	0.0166872
847.501	0.0165878
847.579	0.0163773
847.657	0.0165604
847.736	0.0166386
847.814	0.0167447
847.892	0.0166315
847.970	0.0166879
848.048	0.0166468
848.126	0.0166672
848.204	0.0167356
848.282	0.0164806
848.361	0.0165675
848.439	0.0166605
848.517	0.0165350
848.595	0.0164384
848.673	0.0165387
848.751	0.0165047
848.829	0.0165254
848.907	0.0163749
848.986	0.0164622
849.064	0.0164645
849.142	0.0165005
849.220	0.0165374
849.298	0.0166217
849.376	0.0165607
849.454	0.0165640
849.532	0.0167308
849.611	0.0168803
849.689	0.0168431
849.767	0.0166652
849.845	0.0166967
849.923	0.0169320
850.001	0.0169637
850.079	0.0167949
850.157	0.0169131
850.236	0.0167860
850.314	0.0168413
850.392	0.0169072
850.470	0.0168885
850.548	0.0168402
850.626	0.0168175
850.704	0.0168314
850.782	0.0168597
850.861	0.0166975
850.939	0.0167573
851.017	0.0168061
851.095	0.0166978
851.173	0.0166608
851.251	0.0164265
851.329	0.0166240
851.407	0.0164497
851.486	0.0164656
851.564	0.0164501
851.642	0.0164488
851.720	0.0165012
851.798	0.0164638
851.876	0.0164011
851.954	0.0165073
852.032	0.0164146
852.111	0.0162751
852.189	0.0163632
852.267	0.0165904
852.345	0.0165821
852.423	0.0164945
852.501	0.0164949
852.579	0.0163999
852.657	0.0165910
852.736	0.0165666
852.814	0.0165750
852.892	0.0166218
852.970	0.0166836
853.048	0.0167131
853.126	0.0167025
853.204	0.0167106
853.282	0.0166026
853.361	0.0167400
853.439	0.0167344
853.517	0.0167176
853.595	0.0167464
853.673	0.0166447
853.751	0.0166356
853.829	0.0165387
853.907	0.0165529
853.986	0.0166202
854.064	0.0165540
854.142	0.0166531
854.220	0.0166216
854.298	0.0165913
854.376	0.0165766
854.454	0.0165559
854.532	0.0166373
854.611	0.0166405
854.689	0.0166171
854.767	0.0166488
854.845	0.0166122
854.923	0.0165651
855.001	0.0166512
855.079	0.0166986
855.157	0.0165883
855.236	0.0167809
855.314	0.0166307
855.392	0.0164850
855.470	0.0165154
855.548	0.0165560
855.626	0.0165226
855.704	0.0164499
855.782	0.0165424
855.861	0.0163976
855.939	0.0165023
856.017	0.0162968
856.095	0.0164387
856.173	0.0165986
856.251	0.0164184
856.329	0.0166198
856.407	0.0165437
856.486	0.0166378
856.564	0.0165593
856.642	0.0166656
856.720	0.0168362
856.798	0.0166345
856.876	0.0166225
856.954	0.0168072
857.032	0.0168311
857.111	0.0166903
857.189	0.0167786
857.267	0.0168967
857.345	0.0167619
857.423	0.0167945
857.501	0.0169421
857.579	0.0169491
857.657	0.0169007
857.736	0.0169364
857.814	0.0169527
857.892	0.0166761
857.970	0.0166665
858.048	0.0166646
858.126	0.0166270
858.204	0.0166466
858.282	0.0165488
858.361	0.0166189
858.439	0.0167401
858.517	0.0166656
858.595	0.0165227
858.673	0.0165665
858.751	0.0166669
858.829	0.0167273
858.907	0.0166689
858.986	0.0165649
859.064	0.0165868
859.142	0.0166124
859.220	0.0166658
859.298	0.0165004
859.376	0.0165720
859.454	0.0164717
859.532	0.0165869
859.611	0.0165878
859.689	0.0163566
859.767	0.0164061
859.845	0.0162749
859.923	0.0162408
860.001	0.0161597
860.079	0.0161770
860.157	0.0162228
860.236	0.0162012
860.314	0.0162009
860.392	0.0163069
860.470	0.0163058
860.548	0.0163065
860.626	0.0162267
860.704	0.0162989
860.782	0.0163508
860.861	0.0164270
860.939	0.0163950
861.017	0.0164534
861.095	0.0166982
861.173	0.0165278
861.251	0.0167219
861.329	0.0167195
861.407	0.0165912
861.486	0.0164772
861.564	0.0166132
861.642	0.0165918
861.720	0.0165423
861.798	0.0166888
861.876	0.0167788
861.954	0.0166481
862.032	0.0166978
862.111	0.0166752
862.189	0.0167495
862.267	0.0166830
862.345	0.0167411
862.423	0.0167019
862.501	0.0168581
862.579	0.0167382
862.657	0.0169208
862.736	0.0168653
862.814	0.0167499
862.892	0.0168501
862.970	0.0169662
863.048	0.0168268
863.126	0.0168755
863.204	0.0169447
863.282	0.0169339
863.361	0.0169386
863.439	0.0169089
863.517	0.0168973
863.595	0.0168355
863.673	0.0166779
863.751	0.0168001
863.829	0.0167408
863.907	0.0167518
863.986	0.0167842
864.064	0.0168055
864.142	0.0165311
864.220	0.0164780
864.298	0.0166190
864.376	0.0164517
864.454	0.0164685
864.532	0.0163751
864.611	0.0165364
864.689	0.0163287
864.767	0.0164153
864.845	0.0164252
864.923	0.0162926
865.001	0.0163366
865.079	0.0162378
865.157	0.0162701
865.236	0.0163919
865.314	0.0162377
865.392	0.0162638
865.470	0.0162022
865.548	0.0161763
865.626	0.0161938
865.704	0.0162560
865.782	0.0163741
865.861	0.0164264
865.939	0.0163214
866.017	0.0163509
866.095	0.0164324
866.173	0.0162804
866.251	0.0164223
866.329	0.0164992
866.407	0.0164622
866.486	0.0164612
866.564	0.0165804
866.642	0.0166728
866.720	0.0166707
866.798	0.0166357
866.876	0.0166226
866.954	0.0165784
867.032	0.0166233
867.111	0.0166766
867.189	0.0166238
867.267	0.0166097
867.345	0.0165874
867.423	0.0166376
867.501	0.0165900
867.579	0.0164713
867.657	0.0166894
867.736	0.0165360
867.814	0.0166418
867.892	0.0165546
867.970	0.0165502
868.048	0.0166341
868.126	0.0167012
868.204	0.0168298
868.282	0.0167118
868.361	0.0168880
868.439	0.0166946
868.517	0.0168604
868.595	0.0167525
868.673	0.0167593
868.751	0.0167233
868.829	0.0168372
868.907	0.0167672
868.986	0.0167714
869.064	0.0168188
869.142	0.0167728
869.220	0.0167889
869.298	0.0167054
869.376	0.0167820
869.454	0.0167182
869.532	0.0167006
869.611	0.0167107
869.689	0.0167332
869.767	0.0166621
869.845	0.0166753
869.923	0.0167781
870.001	0.0166006
870.079	0.0166977
870.157	0.0165629
870.236	0.0165745
870.314	0.0165945
870.392	0.0165108
870.470	0.0165408
870.548	0.0165353
870.626	0.0164932
870.704	0.0165343
870.782	0.0165813
870.861	0.0164091
870.939	0.0164902
871.017	0.0164534
871.095	0.0164624
871.173	0.0163690
871.251	0.0163236
871.329	0.0164837
871.407	0.0164324
871.486	0.0164487
871.564	0.0164618
871.642	0.0164748
871.720	0.0163541
871.798	0.0164730
871.876	0.0164148
871.954	0.0164499
872.032	0.0164436
872.111	0.0163181
872.189	0.0164996
872.267	0.0164491
872.345	0.0164642
872.423	0.0164177
872.501	0.0165350
872.579	0.0164603
872.657	0.0163271
872.736	0.0164788
872.814	0.0165672
872.892	0.0164582
872.970	0.0165437
873.048	0.0166639
873.126	0.0165796
873.204	0.0166386
873.282	0.0166925
873.361	0.0166442
873.439	0.0166970
873.517	0.0167042
873.595	0.0168304
873.673	0.0168465
873.751	0.0168058
873.829	0.0168554
873.907	0.0167219
873.986	0.0168275
874.064	0.0168474
874.142	0.0168984
874.220	0.0167980
874.298	0.0167631
874.376	0.0167740
874.454	0.0167439
874.532	0.0167168
874.611	0.0167189
874.689	0.0166909
874.767	0.0167802
874.845	0.0166432
874.923	0.0166843
875.001	0.0166505
875.079	0.0166689
875.157	0.0166132
875.236	0.0166972
875.314	0.0165824
875.392	0.0165278
875.470	0.0165972
875.548	0.0167239
875.626	0.0167207
875.704	0.0166718
875.782	0.0165376
875.861	0.0166544
875.939	0.0166321
876.017	0.0167033
876.095	0.0168291
876.173	0.0167633
876.251	0.0166078
876.329	0.0167510
876.407	0.0167019
876.486	0.0166994
876.564	0.0166831
876.642	0.0167082
876.720	0.0166166
876.798	0.0167493
876.876	0.0164851
876.954	0.0166051
877.032	0.0167052
877.111	0.0167142
877.189	0.0165347
877.267	0.0164049
877.345	0.0166455
877.423	0.0165999
877.501	0.0165267
877.579	0.0165853
877.657	0.0165796
877.736	0.0166117
877.814	0.0165414
877.892	0.0164999
877.970	0.0164211
878.048	0.0164747
878.126	0.0164067
878.204	0.0164424
878.282	0.0164082
878.361	0.0164233
878.439	0.0165089
878.517	0.0164616
878.595	0.0163449
878.673	0.0163166
878.751	0.0164331
878.829	0.0163969
878.907	0.0163721
878.986	0.0163950
879.064	0.0163989
879.142	0.0164472
879.220	0.0162147
879.298	0.0162640
879.376	0.0164521
879.454	0.0163793
879.532	0.0163457
879.611	0.0164618
879.689	0.0163451
879.767	0.0164973
879.845	0.0164531
879.923	0.0164323
880.001	0.0165155
880.079	0.0165417
880.157	0.0166292
880.236	0.0167001
880.314	0.0166474
880.392	0.0166222
880.470	0.0167715
880.548	0.0167094
880.626	0.0167170
880.704	0.0167069
880.782	0.0167289
880.861	0.0167163
880.939	0.0167799
881.017	0.0168307
881.095	0.0167550
881.173	0.0168761
881.251	0.0167903
881.329	0.0168316
881.407	0.0168087
881.486	0.0169336
881.564	0.0169546
881.642	0.0168239
881.720	0.0167617
881.798	0.0168571
881.876	0.0168153
881.954	0.0168391
882.032	0.0168261
882.111	0.0167468
882.189	0.0168823
882.267	0.0169858
882.345	0.0167199
882.423	0.0165756
882.501	0.0166794
882.579	0.0166972
882.657	0.0167139
882.736	0.0165575
882.814	0.0167093
882.892	0.0165869
882.970	0.0166415
883.048	0.0165447
883.126	0.0164983
883.204	0.0164677
883.282	0.0165682
883.361	0.0163365
883.439	0.0162876
883.517	0.0162840
883.595	0.0163505
883.673	0.0163942
883.751	0.0163209
883.829	0.0163206
883.907	0.0162472
883.986	0.0162746
884.064	0.0161453
884.142	0.0162600
884.220	0.0162486
884.298	0.0162287
884.376	0.0163596
884.454	0.0163391
884.532	0.0163009
884.611	0.0163295
884.689	0.0164560
884.767	0.0164501
884.845	0.0164491
884.923	0.0165971
885.001	0.0165545
885.079	0.0165490
885.157	0.0166861
885.236	0.0166237
885.314	0.0165440
885.392	0.0166165
885.470	0.0167209
885.548	0.0165578
885.626	0.0166343
885.704	0.0168871
885.782	0.0167416
885.861	0.0166746
885.939	0.0165864
886.017	0.0165292
886.095	0.0167212
886.173	0.0166206
886.251	0.0167496
886.329	0.0167910
886.407	0.0168237
886.486	0.0167449
886.564	0.0168380
886.642	0.0168324
886.720	0.0166066
886.798	0.0167171
886.876	0.0168036
886.954	0.0167363
887.032	0.0166687
887.111	0.0168364
887.189	0.0166283
887.267	0.0166123
887.345	0.0168754
887.423	0.0166127
887.501	0.0166707
887.579	0.0167017
887.657	0.0166902
887.736	0.0168101
887.814	0.0167239
887.892	0.0168058
887.970	0.0166690
888.048	0.0166171
888.126	0.0167354
888.204	0.0165288
888.282	0.0166789
888.361	0.0165569
888.439	0.0166734
888.517	0.0166418
888.595	0.0167194
888.673	0.0164633
888.751	0.0164810
888.829	0.0165246
888.907	0.0164378
888.986	0.0164230
889.064	0.0165939
889.142	0.0165063
889.220	0.0164754
889.298	0.0164609
889.376	0.0164134
889.454	0.0164197
889.532	0.0164552
889.611	0.0164444
889.689	0.0165158
889.767	0.0165979
889.845	0.0166195
889.923	0.0164599
890.001	0.0165426
890.079	0.0165898
890.157	0.0166510
890.236	0.0166123
890.314	0.0164841
890.392	0.0164833
890.470	0.0164966
890.548	0.0165302
890.626	0.0165813
890.704	0.0165056
890.782	0.0164735
890.861	0.0163631
890.939	0.0164926
891.017	0.0165136
891.095	0.0164996
891.173	0.0164604
891.251	0.0164574
891.329	0.0164624
891.407	0.0166766
891.486	0.0165177
891.564	0.0163960
891.642	0.0167123
891.720	0.0166093
891.798	0.0166052
891.876	0.0165707
891.954	0.0166643
892.032	0.0166156
892.111	0.0166970
892.189	0.0167061
892.267	0.0165927
892.345	0.0166268
892.423	0.0167043
892.501	0.0167042
892.579	0.0166122
892.657	0.0168620
892.736	0.0167197
892.814	0.0166650
892.892	0.0167542
892.970	0.0167791
893.048	0.0166820
893.126	0.0167606
893.204	0.0165405
893.282	0.0166427
893.361	0.0166781
893.439	0.0167645
893.517	0.0167045
893.595	0.0167788
893.673	0.0166956
893.751	0.0166456
893.829	0.0165948
893.907	0.0164511
893.986	0.0166344
894.064	0.0166046
894.142	0.0165796
894.220	0.0165031
894.298	0.0166331
894.376	0.0166137
894.454	0.0165881
894.532	0.0164735
894.611	0.0166579
894.689	0.0165359
894.767	0.0165539
894.845	0.0165204
894.923	0.0166218
895.001	0.0165102
895.079	0.0166844
895.157	0.0165459
895.236	0.0165906
895.314	0.0165290
895.392	0.0165664
895.470	0.0165732
895.548	0.0165456
895.626	0.0165535
895.704	0.0164835
895.782	0.0164127
895.861	0.0164944
895.939	0.0165545
896.017	0.0164404
896.095	0.0164738
896.173	0.0164637
896.251	0.0164359
896.329	0.0164185
896.407	0.0165813
896.486	0.0164531
896.564	0.0164014
896.642	0.0163876
896.720	0.0164191
896.798	0.0165985
896.876	0.0166227
896.954	0.0165474
897.032	0.0165038
897.111	0.0166198
897.189	0.0166022
897.267	0.0166006
897.345	0.0165816
897.423	0.0165874
897.501	0.0167208
897.579	0.0167872
897.657	0.0167323
897.736	0.0167258
897.814	0.0166053
897.892	0.0167857
897.970	0.0168063
898.048	0.0167519
898.126	0.0167467
898.204	0.0166674
898.282	0.0167016
898.361	0.0168074
898.439	0.0167516
898.517	0.0167017
898.595	0.0165247
898.673	0.0166364
898.751	0.0167184
898.829	0.0165519
898.907	0.0165087
898.986	0.0164875
899.064	0.0166682
899.142	0.0166543
899.220	0.0165807
899.298	0.0165585
899.376	0.0163992
899.454	0.0165975
899.532	0.0166666
899.611	0.0164710
899.689	0.0163487
899.767	0.0164587
899.845	0.0165862
899.923	0.0166219
