05/24/2022	20:11:13	Ver.	4.1	UNKNOWN
Optical Delay	599.981738	Delta X		0.078125	Sweeps	1	Scan Rate	0/0
Coordinates	Axis 1	NaN	Axis 2	NaN	Axis 3	NaN	Axis 4	NaN	Axis 5	NaN	Axis 6	0.000000
TX Power	0.000000	RX Power	0.000000

599.982	0.0175292
600.060	0.0176099
600.138	0.0175518
600.216	0.0175666
600.294	0.0175653
600.372	0.0175854
600.450	0.0175900
600.529	0.0176874
600.607	0.0175150
600.685	0.0175620
600.763	0.0175314
600.841	0.0174686
600.919	0.0174963
600.997	0.0174397
601.075	0.0175800
601.154	0.0175682
601.232	0.0176276
601.310	0.0176507
601.388	0.0175571
601.466	0.0175286
601.544	0.0174433
601.622	0.0176691
601.700	0.0174873
601.779	0.0175420
601.857	0.0175787
601.935	0.0175182
602.013	0.0176630
602.091	0.0174357
602.169	0.0174210
602.247	0.0174422
602.325	0.0176651
602.404	0.0174088
602.482	0.0174619
602.560	0.0174617
602.638	0.0174344
602.716	0.0176152
602.794	0.0173862
602.872	0.0175063
602.950	0.0174538
603.029	0.0175851
603.107	0.0175695
603.185	0.0174820
603.263	0.0175141
603.341	0.0176842
603.419	0.0175822
603.497	0.0174278
603.575	0.0175099
603.654	0.0176943
603.732	0.0175495
603.810	0.0175034
603.888	0.0175810
603.966	0.0175780
604.044	0.0175041
604.122	0.0173852
604.200	0.0174924
604.279	0.0173973
604.357	0.0175094
604.435	0.0175438
604.513	0.0174459
604.591	0.0175352
604.669	0.0175791
604.747	0.0174430
604.825	0.0173910
604.904	0.0175042
604.982	0.0175183
605.060	0.0175621
605.138	0.0175806
605.216	0.0177164
605.294	0.0175108
605.372	0.0176574
605.450	0.0175938
605.529	0.0176024
605.607	0.0175836
605.685	0.0176901
605.763	0.0176751
605.841	0.0176446
605.919	0.0175217
605.997	0.0176060
606.075	0.0175919
606.154	0.0174511
606.232	0.0173112
606.310	0.0174963
606.388	0.0175982
606.466	0.0176594
606.544	0.0173401
606.622	0.0174249
606.700	0.0175159
606.779	0.0173817
606.857	0.0174967
606.935	0.0174561
607.013	0.0175225
607.091	0.0174006
607.169	0.0174816
607.247	0.0175340
607.325	0.0175021
607.404	0.0173433
607.482	0.0173058
607.560	0.0174844
607.638	0.0176690
607.716	0.0174676
607.794	0.0174432
607.872	0.0175050
607.950	0.0174644
608.029	0.0174961
608.107	0.0175407
608.185	0.0176199
608.263	0.0174725
608.341	0.0174538
608.419	0.0175710
608.497	0.0177014
608.575	0.0176817
608.654	0.0176553
608.732	0.0175732
608.810	0.0176345
608.888	0.0174350
608.966	0.0175217
609.044	0.0175692
609.122	0.0175511
609.200	0.0175470
609.279	0.0176965
609.357	0.0175739
609.435	0.0175544
609.513	0.0175632
609.591	0.0175199
609.669	0.0176263
609.747	0.0174196
609.825	0.0173798
609.904	0.0175672
609.982	0.0175211
610.060	0.0175067
610.138	0.0174330
610.216	0.0175034
610.294	0.0174145
610.372	0.0174793
610.450	0.0172516
610.529	0.0174057
610.607	0.0176119
610.685	0.0174229
610.763	0.0175126
610.841	0.0174041
610.919	0.0173534
610.997	0.0175096
611.075	0.0174378
611.154	0.0174988
611.232	0.0175467
611.310	0.0175220
611.388	0.0175069
611.466	0.0175580
611.544	0.0174940
611.622	0.0176224
611.700	0.0176180
611.779	0.0175969
611.857	0.0176336
611.935	0.0175351
612.013	0.0175241
612.091	0.0175792
612.169	0.0176123
612.247	0.0175278
612.325	0.0175894
612.404	0.0175590
612.482	0.0175709
612.560	0.0174908
612.638	0.0175840
612.716	0.0176732
612.794	0.0175016
612.872	0.0173717
612.950	0.0174462
613.029	0.0174529
613.107	0.0174536
613.185	0.0175861
613.263	0.0174780
613.341	0.0174314
613.419	0.0174045
613.497	0.0173026
613.575	0.0173992
613.654	0.0173013
613.732	0.0174852
613.810	0.0175400
613.888	0.0175086
613.966	0.0173860
614.044	0.0172791
614.122	0.0174819
614.200	0.0175178
614.279	0.0176064
614.357	0.0175299
614.435	0.0174291
614.513	0.0174473
614.591	0.0175377
614.669	0.0176054
614.747	0.0175423
614.825	0.0175169
614.904	0.0174863
614.982	0.0175029
615.060	0.0175352
615.138	0.0175851
615.216	0.0175845
615.294	0.0174364
615.372	0.0176450
615.450	0.0175685
615.529	0.0175454
615.607	0.0176707
615.685	0.0175049
615.763	0.0176025
615.841	0.0176122
615.919	0.0174887
615.997	0.0174780
616.075	0.0174256
616.154	0.0174967
616.232	0.0174608
616.310	0.0174000
616.388	0.0174379
616.466	0.0175326
616.544	0.0175253
616.622	0.0174332
616.700	0.0176015
616.779	0.0174760
616.857	0.0173877
616.935	0.0174467
617.013	0.0175523
617.091	0.0175957
617.169	0.0175120
617.247	0.0174279
617.325	0.0175458
617.404	0.0175687
617.482	0.0175111
617.560	0.0176079
617.638	0.0175313
617.716	0.0173761
617.794	0.0176330
617.872	0.0175461
617.950	0.0174152
618.029	0.0174707
618.107	0.0175794
618.185	0.0175073
618.263	0.0174705
618.341	0.0174901
618.419	0.0176065
618.497	0.0174968
618.575	0.0175780
618.654	0.0176057
618.732	0.0174773
618.810	0.0174464
618.888	0.0174615
618.966	0.0175210
619.044	0.0175951
619.122	0.0175668
619.200	0.0174592
619.279	0.0173323
619.357	0.0174710
619.435	0.0175754
619.513	0.0174850
619.591	0.0175630
619.669	0.0176166
619.747	0.0176084
619.825	0.0175188
619.904	0.0175426
619.982	0.0174998
620.060	0.0175282
620.138	0.0175157
620.216	0.0175172
620.294	0.0175998
620.372	0.0175687
620.450	0.0176295
620.529	0.0176174
620.607	0.0175671
620.685	0.0175204
620.763	0.0175369
620.841	0.0173389
620.919	0.0175083
620.997	0.0175745
621.075	0.0175921
621.154	0.0174425
621.232	0.0173185
621.310	0.0175256
621.388	0.0175454
621.466	0.0175508
621.544	0.0175230
621.622	0.0174118
621.700	0.0174900
621.779	0.0175375
621.857	0.0175568
621.935	0.0174873
622.013	0.0174972
622.091	0.0175591
622.169	0.0175396
622.247	0.0176297
622.325	0.0174465
622.404	0.0175331
622.482	0.0175193
622.560	0.0175020
622.638	0.0175018
622.716	0.0176379
622.794	0.0174477
622.872	0.0173938
622.950	0.0176534
623.029	0.0174770
623.107	0.0174242
623.185	0.0174816
623.263	0.0176214
623.341	0.0174611
623.419	0.0175100
623.497	0.0175011
623.575	0.0176076
623.654	0.0173742
623.732	0.0174298
623.810	0.0174866
623.888	0.0175179
623.966	0.0177238
624.044	0.0175431
624.122	0.0174535
624.200	0.0175832
624.279	0.0175392
624.357	0.0174052
624.435	0.0175238
624.513	0.0175809
624.591	0.0176202
624.669	0.0175633
624.747	0.0174628
624.825	0.0175762
624.904	0.0174380
624.982	0.0174753
625.060	0.0174460
625.138	0.0175132
625.216	0.0175706
625.294	0.0176389
625.372	0.0175494
625.450	0.0175758
625.529	0.0173885
625.607	0.0175394
625.685	0.0175964
625.763	0.0176270
625.841	0.0176265
625.919	0.0175591
625.997	0.0176068
626.075	0.0174880
626.154	0.0174664
626.232	0.0175129
626.310	0.0175403
626.388	0.0175255
626.466	0.0175184
626.544	0.0176340
626.622	0.0175763
626.700	0.0174767
626.779	0.0174782
626.857	0.0177090
626.935	0.0175875
627.013	0.0175296
627.091	0.0174235
627.169	0.0175403
627.247	0.0174138
627.325	0.0174854
627.404	0.0175780
627.482	0.0174728
627.560	0.0174837
627.638	0.0174638
627.716	0.0175481
627.794	0.0174249
627.872	0.0175081
627.950	0.0175495
628.029	0.0175471
628.107	0.0174799
628.185	0.0174763
628.263	0.0174760
628.341	0.0175490
628.419	0.0175614
628.497	0.0173751
628.575	0.0175063
628.654	0.0174263
628.732	0.0175626
628.810	0.0176183
628.888	0.0176363
628.966	0.0175294
629.044	0.0174510
629.122	0.0176170
629.200	0.0174971
629.279	0.0174579
629.357	0.0175779
629.435	0.0175163
629.513	0.0175895
629.591	0.0175264
629.669	0.0173942
629.747	0.0176073
629.825	0.0176472
629.904	0.0174268
629.982	0.0174363
630.060	0.0175494
630.138	0.0175121
630.216	0.0174709
630.294	0.0176063
630.372	0.0174812
630.450	0.0174426
630.529	0.0175058
630.607	0.0174348
630.685	0.0175777
630.763	0.0175192
630.841	0.0174235
630.919	0.0175126
630.997	0.0173678
631.075	0.0175376
631.154	0.0174548
631.232	0.0175375
631.310	0.0174896
631.388	0.0173837
631.466	0.0175948
631.544	0.0175782
631.622	0.0175381
631.700	0.0175216
631.779	0.0173854
631.857	0.0175812
631.935	0.0176244
632.013	0.0174864
632.091	0.0175105
632.169	0.0174413
632.247	0.0175158
632.325	0.0176225
632.404	0.0175252
632.482	0.0174078
632.560	0.0175793
632.638	0.0174799
632.716	0.0175402
632.794	0.0174990
632.872	0.0175530
632.950	0.0174566
633.029	0.0175327
633.107	0.0174984
633.185	0.0175489
633.263	0.0175685
633.341	0.0174266
633.419	0.0176153
633.497	0.0175574
633.575	0.0176384
633.654	0.0176723
633.732	0.0174659
633.810	0.0175963
633.888	0.0175598
633.966	0.0176228
634.044	0.0174222
634.122	0.0175411
634.200	0.0176170
634.279	0.0175251
634.357	0.0176402
634.435	0.0175499
634.513	0.0174761
634.591	0.0174115
634.669	0.0175902
634.747	0.0175026
634.825	0.0174445
634.904	0.0176488
634.982	0.0175806
635.060	0.0175449
635.138	0.0174140
635.216	0.0174744
635.294	0.0175413
635.372	0.0175121
635.450	0.0175465
635.529	0.0174768
635.607	0.0175368
635.685	0.0174595
635.763	0.0175156
635.841	0.0176254
635.919	0.0174409
635.997	0.0175632
636.075	0.0175377
636.154	0.0175336
636.232	0.0175089
636.310	0.0174895
636.388	0.0173505
636.466	0.0173896
636.544	0.0175029
636.622	0.0175191
636.700	0.0174384
636.779	0.0175386
636.857	0.0175718
636.935	0.0175652
637.013	0.0175600
637.091	0.0176733
637.169	0.0174593
637.247	0.0175387
637.325	0.0175441
637.404	0.0174595
637.482	0.0175627
637.560	0.0175592
637.638	0.0174886
637.716	0.0176128
637.794	0.0173931
637.872	0.0175359
637.950	0.0175858
638.029	0.0174792
638.107	0.0175257
638.185	0.0176176
638.263	0.0175790
638.341	0.0176044
638.419	0.0176603
638.497	0.0175201
638.575	0.0176992
638.654	0.0174674
638.732	0.0174895
638.810	0.0175647
638.888	0.0174487
638.966	0.0173849
639.044	0.0174708
639.122	0.0174841
639.200	0.0175121
639.279	0.0174551
639.357	0.0175609
639.435	0.0174940
639.513	0.0175488
639.591	0.0175747
639.669	0.0176027
639.747	0.0175828
639.825	0.0174337
639.904	0.0173710
639.982	0.0175484
640.060	0.0174959
640.138	0.0175091
640.216	0.0175302
640.294	0.0174142
640.372	0.0174156
640.450	0.0174603
640.529	0.0174786
640.607	0.0174960
640.685	0.0174517
640.763	0.0175079
640.841	0.0174569
640.919	0.0175257
640.997	0.0174632
641.075	0.0175530
641.154	0.0176226
641.232	0.0175509
641.310	0.0174770
641.388	0.0175457
641.466	0.0176804
641.544	0.0175660
641.622	0.0174904
641.700	0.0174277
641.779	0.0175342
641.857	0.0176092
641.935	0.0174935
642.013	0.0175989
642.091	0.0174273
642.169	0.0174347
642.247	0.0176819
642.325	0.0176385
642.404	0.0175770
642.482	0.0174695
642.560	0.0174982
642.638	0.0175907
642.716	0.0175063
642.794	0.0174839
642.872	0.0174085
642.950	0.0174902
643.029	0.0175859
643.107	0.0175566
643.185	0.0173992
643.263	0.0174904
643.341	0.0175864
643.419	0.0175141
643.497	0.0174038
643.575	0.0176473
643.654	0.0175387
643.732	0.0176093
643.810	0.0175597
643.888	0.0174921
643.966	0.0175546
644.044	0.0175322
644.122	0.0174242
644.200	0.0173866
644.279	0.0175518
644.357	0.0176015
644.435	0.0174873
644.513	0.0175237
644.591	0.0175404
644.669	0.0174583
644.747	0.0173840
644.825	0.0175048
644.904	0.0174641
644.982	0.0174847
645.060	0.0175210
645.138	0.0175287
645.216	0.0175282
645.294	0.0175219
645.372	0.0175410
645.450	0.0175298
645.529	0.0175484
645.607	0.0176113
645.685	0.0174921
645.763	0.0175272
645.841	0.0175366
645.919	0.0175075
645.997	0.0173675
646.075	0.0175414
646.154	0.0174529
646.232	0.0175909
646.310	0.0175411
646.388	0.0175980
646.466	0.0173512
646.544	0.0175720
646.622	0.0174901
646.700	0.0175330
646.779	0.0176138
646.857	0.0175245
646.935	0.0173711
647.013	0.0175022
647.091	0.0175132
647.169	0.0175385
647.247	0.0175514
647.325	0.0174892
647.404	0.0176112
647.482	0.0175367
647.560	0.0175739
647.638	0.0175062
647.716	0.0176283
647.794	0.0174577
647.872	0.0174797
647.950	0.0176156
648.029	0.0174418
648.107	0.0174532
648.185	0.0175172
648.263	0.0174791
648.341	0.0175416
648.419	0.0174288
648.497	0.0177407
648.575	0.0174554
648.654	0.0174010
648.732	0.0175787
648.810	0.0176157
648.888	0.0174969
648.966	0.0176015
649.044	0.0175227
649.122	0.0176443
649.200	0.0174796
649.279	0.0175073
649.357	0.0175455
649.435	0.0174105
649.513	0.0175627
649.591	0.0174940
649.669	0.0175443
649.747	0.0175355
649.825	0.0175079
649.904	0.0175288
649.982	0.0175228
650.060	0.0174595
650.138	0.0175822
650.216	0.0175787
650.294	0.0175317
650.372	0.0175352
650.450	0.0175173
650.529	0.0175015
650.607	0.0175771
650.685	0.0175690
650.763	0.0174474
650.841	0.0173713
650.919	0.0174737
650.997	0.0174954
651.075	0.0175902
651.154	0.0176010
651.232	0.0174716
651.310	0.0175847
651.388	0.0174146
651.466	0.0173747
651.544	0.0175590
651.622	0.0174167
651.700	0.0175819
651.779	0.0175795
651.857	0.0175362
651.935	0.0175266
652.013	0.0175378
652.091	0.0175109
652.169	0.0175513
652.247	0.0174845
652.325	0.0173441
652.404	0.0174580
652.482	0.0176804
652.560	0.0176105
652.638	0.0174998
652.716	0.0175896
652.794	0.0174729
652.872	0.0173713
652.950	0.0174739
653.029	0.0174155
653.107	0.0175845
653.185	0.0174977
653.263	0.0175285
653.341	0.0175599
653.419	0.0175202
653.497	0.0174173
653.575	0.0175906
653.654	0.0174917
653.732	0.0174241
653.810	0.0175462
653.888	0.0175667
653.966	0.0174121
654.044	0.0175357
654.122	0.0175048
654.200	0.0174778
654.279	0.0175877
654.357	0.0174726
654.435	0.0173537
654.513	0.0176059
654.591	0.0174397
654.669	0.0175243
654.747	0.0174063
654.825	0.0175694
654.904	0.0176365
654.982	0.0174670
655.060	0.0175009
655.138	0.0175512
655.216	0.0175223
655.294	0.0175837
655.372	0.0175584
655.450	0.0174632
655.529	0.0174664
655.607	0.0174352
655.685	0.0174686
655.763	0.0176072
655.841	0.0174353
655.919	0.0175401
655.997	0.0175572
656.075	0.0174976
656.154	0.0176302
656.232	0.0174469
656.310	0.0175050
656.388	0.0174743
656.466	0.0175305
656.544	0.0177087
656.622	0.0175330
656.700	0.0176568
656.779	0.0175159
656.857	0.0173917
656.935	0.0175089
657.013	0.0174010
657.091	0.0174173
657.169	0.0176401
657.247	0.0174606
657.325	0.0174855
657.404	0.0175645
657.482	0.0174500
657.560	0.0174800
657.638	0.0175661
657.716	0.0175592
657.794	0.0175089
657.872	0.0175001
657.950	0.0174878
658.029	0.0174908
658.107	0.0175632
658.185	0.0175881
658.263	0.0175150
658.341	0.0175162
658.419	0.0175298
658.497	0.0175630
658.575	0.0174980
658.654	0.0175731
658.732	0.0175352
658.810	0.0175492
658.888	0.0174767
658.966	0.0175198
659.044	0.0173560
659.122	0.0174857
659.200	0.0175151
659.279	0.0174959
659.357	0.0173721
659.435	0.0173485
659.513	0.0176149
659.591	0.0175054
659.669	0.0174780
659.747	0.0175236
659.825	0.0177579
659.904	0.0175340
659.982	0.0175166
660.060	0.0175263
660.138	0.0174709
660.216	0.0175797
660.294	0.0175611
660.372	0.0174511
660.450	0.0176978
660.529	0.0175995
660.607	0.0175365
660.685	0.0176004
660.763	0.0175139
660.841	0.0175083
660.919	0.0174919
660.997	0.0175584
661.075	0.0175259
661.154	0.0174511
661.232	0.0175209
661.310	0.0174715
661.388	0.0175924
661.466	0.0176358
661.544	0.0175698
661.622	0.0174272
661.700	0.0175189
661.779	0.0176991
661.857	0.0175994
661.935	0.0175533
662.013	0.0175356
662.091	0.0174787
662.169	0.0174173
662.247	0.0175561
662.325	0.0174852
662.404	0.0176922
662.482	0.0175964
662.560	0.0174603
662.638	0.0175500
662.716	0.0176626
662.794	0.0174769
662.872	0.0175446
662.950	0.0176588
663.029	0.0176418
663.107	0.0175436
663.185	0.0173647
663.263	0.0174666
663.341	0.0175618
663.419	0.0175309
663.497	0.0174525
663.575	0.0175802
663.654	0.0174408
663.732	0.0174411
663.810	0.0174915
663.888	0.0176344
663.966	0.0174960
664.044	0.0174310
664.122	0.0175806
664.200	0.0175447
664.279	0.0175716
664.357	0.0175274
664.435	0.0175276
664.513	0.0176873
664.591	0.0175378
664.669	0.0174685
664.747	0.0174343
664.825	0.0174510
664.904	0.0175971
664.982	0.0175449
665.060	0.0175922
665.138	0.0176363
665.216	0.0175206
665.294	0.0175530
665.372	0.0174564
665.450	0.0175999
665.529	0.0176951
665.607	0.0175114
665.685	0.0175308
665.763	0.0175954
665.841	0.0175072
665.919	0.0175443
665.997	0.0175384
666.075	0.0174667
666.154	0.0175103
666.232	0.0174381
666.310	0.0173839
666.388	0.0175488
666.466	0.0174205
666.544	0.0175405
666.622	0.0175600
666.700	0.0176258
666.779	0.0174986
666.857	0.0174261
666.935	0.0175174
667.013	0.0175132
667.091	0.0174203
667.169	0.0174154
667.247	0.0173302
667.325	0.0176431
667.404	0.0174867
667.482	0.0174683
667.560	0.0175040
667.638	0.0175725
667.716	0.0175148
667.794	0.0173856
667.872	0.0175277
667.950	0.0174176
668.029	0.0175164
668.107	0.0174835
668.185	0.0174685
668.263	0.0176103
668.341	0.0175150
668.419	0.0175631
668.497	0.0174209
668.575	0.0175008
668.654	0.0173735
668.732	0.0175169
668.810	0.0175368
668.888	0.0173753
668.966	0.0174293
669.044	0.0176105
669.122	0.0174843
669.200	0.0174797
669.279	0.0175058
669.357	0.0176075
669.435	0.0175146
669.513	0.0173719
669.591	0.0175702
669.669	0.0174528
669.747	0.0176493
669.825	0.0174984
669.904	0.0175077
669.982	0.0173891
670.060	0.0174751
670.138	0.0175230
670.216	0.0176209
670.294	0.0176233
670.372	0.0175817
670.450	0.0173898
670.529	0.0174508
670.607	0.0175130
670.685	0.0175035
670.763	0.0173515
670.841	0.0174374
670.919	0.0174905
670.997	0.0174740
671.075	0.0175149
671.154	0.0174609
671.232	0.0175523
671.310	0.0174576
671.388	0.0174938
671.466	0.0175350
671.544	0.0174615
671.622	0.0175388
671.700	0.0174348
671.779	0.0175135
671.857	0.0174992
671.935	0.0174109
672.013	0.0175220
672.091	0.0175372
672.169	0.0173575
672.247	0.0175211
672.325	0.0173140
672.404	0.0174798
672.482	0.0174464
672.560	0.0173597
672.638	0.0173569
672.716	0.0175037
672.794	0.0175742
672.872	0.0175123
672.950	0.0174052
673.029	0.0174463
673.107	0.0175768
673.185	0.0176493
673.263	0.0174625
673.341	0.0174422
673.419	0.0175514
673.497	0.0174311
673.575	0.0174774
673.654	0.0175373
673.732	0.0174167
673.810	0.0175027
673.888	0.0173520
673.966	0.0174807
674.044	0.0174660
674.122	0.0174841
674.200	0.0174735
674.279	0.0174367
674.357	0.0173660
674.435	0.0175047
674.513	0.0173996
674.591	0.0174551
674.669	0.0174082
674.747	0.0173432
674.825	0.0175791
674.904	0.0175877
674.982	0.0174849
675.060	0.0174894
675.138	0.0174253
675.216	0.0173675
675.294	0.0174087
675.372	0.0174036
675.450	0.0176263
675.529	0.0174026
675.607	0.0176404
675.685	0.0175294
675.763	0.0175701
675.841	0.0174685
675.919	0.0174216
675.997	0.0174715
676.075	0.0175546
676.154	0.0174806
676.232	0.0175034
676.310	0.0174818
676.388	0.0175558
676.466	0.0175123
676.544	0.0175296
676.622	0.0176040
676.700	0.0175724
676.779	0.0175789
676.857	0.0176124
676.935	0.0175824
677.013	0.0176520
677.091	0.0176199
677.169	0.0175548
677.247	0.0175832
677.325	0.0176514
677.404	0.0175652
677.482	0.0175588
677.560	0.0176952
677.638	0.0177265
677.716	0.0176840
677.794	0.0176063
677.872	0.0175537
677.950	0.0175800
678.029	0.0175714
678.107	0.0173461
678.185	0.0173292
678.263	0.0173947
678.341	0.0173783
678.419	0.0173705
678.497	0.0173207
678.575	0.0172023
678.654	0.0170864
678.732	0.0170934
678.810	0.0171811
678.888	0.0171116
678.966	0.0168810
679.044	0.0169801
679.122	0.0169574
679.200	0.0169820
679.279	0.0170765
679.357	0.0171309
679.435	0.0173232
679.513	0.0173878
679.591	0.0174406
679.669	0.0176823
679.747	0.0177577
679.825	0.0176920
679.904	0.0179023
679.982	0.0180856
680.060	0.0182807
680.138	0.0183255
680.216	0.0183445
680.294	0.0183972
680.372	0.0186357
680.450	0.0185499
680.529	0.0185227
680.607	0.0184009
680.685	0.0184085
680.763	0.0183659
680.841	0.0180412
680.919	0.0177844
680.997	0.0174184
681.075	0.0173692
681.154	0.0171093
681.232	0.0168951
681.310	0.0165616
681.388	0.0166234
681.466	0.0167288
681.544	0.0169103
681.622	0.0171821
681.700	0.0175429
681.779	0.0177562
681.857	0.0179029
681.935	0.0181081
682.013	0.0183855
682.091	0.0183952
682.169	0.0183918
682.247	0.0183038
682.325	0.0182109
682.404	0.0182056
682.482	0.0178592
682.560	0.0176180
682.638	0.0173489
682.716	0.0169841
682.794	0.0168076
682.872	0.0162555
682.950	0.0161097
683.029	0.0155816
683.107	0.0152180
683.185	0.0148729
683.263	0.0145073
683.341	0.0141455
683.419	0.0139706
683.497	0.0138286
683.575	0.0138612
683.654	0.0141401
683.732	0.0143352
683.810	0.0147566
683.888	0.0151715
683.966	0.0157627
684.044	0.0164681
684.122	0.0172871
684.200	0.0180988
684.279	0.0192599
684.357	0.0204794
684.435	0.0217265
684.513	0.0230025
684.591	0.0240749
684.669	0.0250841
684.747	0.0260490
684.825	0.0266602
684.904	0.0271902
684.982	0.0271488
685.060	0.0268007
685.138	0.0262333
685.216	0.0252011
685.294	0.0239181
685.372	0.0223561
685.450	0.0206448
685.529	0.0187273
685.607	0.0167431
685.685	0.0149083
685.763	0.0130341
685.841	0.0113451
685.919	0.00988579
685.997	0.00857254
686.075	0.00782646
686.154	0.00703102
686.232	0.00646484
686.310	0.00632332
686.388	0.00628601
686.466	0.00651894
686.544	0.00703545
686.622	0.00748909
686.700	0.00836578
686.779	0.00927849
686.857	0.0103490
686.935	0.0116882
687.013	0.0131095
687.091	0.0149052
687.169	0.0165839
687.247	0.0183848
687.325	0.0203472
687.404	0.0223689
687.482	0.0243037
687.560	0.0260297
687.638	0.0275822
687.716	0.0289708
687.794	0.0300133
687.872	0.0305737
687.950	0.0310033
688.029	0.0311608
688.107	0.0310251
688.185	0.0307684
688.263	0.0300819
688.341	0.0291611
688.419	0.0281712
688.497	0.0269974
688.575	0.0253083
688.654	0.0235020
688.732	0.0214482
688.810	0.0192215
688.888	0.0167445
688.966	0.0140598
689.044	0.0113284
689.122	0.00886444
689.200	0.00634811
689.279	0.00412697
689.357	0.00210915
689.435	0.000527191
689.513	-0.000453033
689.591	-0.000920181
689.669	-0.00107994
689.747	-0.000493393
689.825	0.000792313
689.904	0.00227600
689.982	0.00411430
690.060	0.00671875
690.138	0.00937164
690.216	0.0123290
690.294	0.0150914
690.372	0.0181991
690.450	0.0213522
690.529	0.0239489
690.607	0.0264313
690.685	0.0286931
690.763	0.0305093
690.841	0.0320293
690.919	0.0329562
690.997	0.0334467
691.075	0.0336517
691.154	0.0335558
691.232	0.0329683
691.310	0.0322038
691.388	0.0312059
691.466	0.0301626
691.544	0.0288013
691.622	0.0273466
691.700	0.0258225
691.779	0.0243347
691.857	0.0226867
691.935	0.0208475
692.013	0.0190995
692.091	0.0170995
692.169	0.0151399
692.247	0.0130177
692.325	0.0109335
692.404	0.00891075
692.482	0.00693787
692.560	0.00514664
692.638	0.00354645
692.716	0.00224983
692.794	0.00123718
692.872	0.000699997
692.950	0.000594940
693.029	0.00101135
693.107	0.00164276
693.185	0.00257317
693.263	0.00429527
693.341	0.00611473
693.419	0.00813347
693.497	0.0104102
693.575	0.0128210
693.654	0.0151517
693.732	0.0176720
693.810	0.0199995
693.888	0.0223561
693.966	0.0245206
694.044	0.0264592
694.122	0.0279630
694.200	0.0293469
694.279	0.0304133
694.357	0.0310734
694.435	0.0314115
694.513	0.0315942
694.591	0.0310913
694.669	0.0305657
694.747	0.0296881
694.825	0.0284906
694.904	0.0271086
694.982	0.0256461
695.060	0.0241898
695.138	0.0226031
695.216	0.0211447
695.294	0.0198029
695.372	0.0184779
695.450	0.0171065
695.529	0.0160496
695.607	0.0149399
695.685	0.0142323
695.763	0.0133855
695.841	0.0129427
695.919	0.0123958
695.997	0.0119151
696.075	0.0115530
696.154	0.0112667
696.232	0.0110902
696.310	0.0108076
696.388	0.0108165
696.466	0.0106029
696.544	0.0106781
696.622	0.0110022
696.700	0.0113424
696.779	0.0118604
696.857	0.0123736
696.935	0.0130283
697.013	0.0137286
697.091	0.0144517
697.169	0.0151381
697.247	0.0157058
697.325	0.0163438
697.404	0.0169767
697.482	0.0172859
697.560	0.0176590
697.638	0.0181313
697.716	0.0182795
697.794	0.0185403
697.872	0.0185680
697.950	0.0187193
698.029	0.0189350
698.107	0.0190755
698.185	0.0193125
698.263	0.0194526
698.341	0.0195802
698.419	0.0198176
698.497	0.0202071
698.575	0.0203850
698.654	0.0205527
698.732	0.0207568
698.810	0.0209466
698.888	0.0211115
698.966	0.0210531
699.044	0.0210581
699.122	0.0209660
699.200	0.0210796
699.279	0.0208657
699.357	0.0208633
699.435	0.0207550
699.513	0.0205863
699.591	0.0204372
699.669	0.0200962
699.747	0.0196794
699.825	0.0194807
699.904	0.0188354
699.982	0.0185247
700.060	0.0180614
700.138	0.0176102
700.216	0.0168999
700.294	0.0162282
700.372	0.0156634
700.450	0.0150424
700.529	0.0144398
700.607	0.0141119
700.685	0.0138451
700.763	0.0133527
700.841	0.0134017
700.919	0.0133147
700.997	0.0135501
701.075	0.0139213
701.154	0.0141189
701.232	0.0144362
701.310	0.0148325
701.388	0.0152405
701.466	0.0155041
701.544	0.0160250
701.622	0.0163037
701.700	0.0164464
701.779	0.0167040
701.857	0.0168358
701.935	0.0170862
702.013	0.0172532
702.091	0.0174017
702.169	0.0174400
702.247	0.0175741
702.325	0.0177482
702.404	0.0177865
702.482	0.0180600
702.560	0.0181588
702.638	0.0182691
702.716	0.0184659
702.794	0.0185722
702.872	0.0186032
702.950	0.0187268
703.029	0.0188111
703.107	0.0186444
703.185	0.0187223
703.263	0.0187077
703.341	0.0186092
703.419	0.0185744
703.497	0.0185484
703.575	0.0186597
703.654	0.0187202
703.732	0.0187736
703.810	0.0187794
703.888	0.0188573
703.966	0.0190682
704.044	0.0191232
704.122	0.0191679
704.200	0.0192847
704.279	0.0190079
704.357	0.0188708
704.435	0.0186559
704.513	0.0183397
704.591	0.0182057
704.669	0.0177676
704.747	0.0172987
704.825	0.0170328
704.904	0.0166418
704.982	0.0164920
705.060	0.0164122
705.138	0.0162080
705.216	0.0159130
705.294	0.0159450
705.372	0.0159944
705.450	0.0162453
705.529	0.0164274
705.607	0.0165821
705.685	0.0168211
705.763	0.0170386
705.841	0.0173941
705.919	0.0176855
705.997	0.0178582
706.075	0.0177390
706.154	0.0179534
706.232	0.0180692
706.310	0.0178421
706.388	0.0179524
706.466	0.0178093
706.544	0.0178524
706.622	0.0176217
706.700	0.0175511
706.779	0.0174274
706.857	0.0172189
706.935	0.0171540
707.013	0.0169984
707.091	0.0166238
707.169	0.0165413
707.247	0.0163229
707.325	0.0160600
707.404	0.0159557
707.482	0.0157966
707.560	0.0157307
707.638	0.0158233
707.716	0.0158787
707.794	0.0159808
707.872	0.0162362
707.950	0.0166528
708.029	0.0169288
708.107	0.0172123
708.185	0.0173539
708.263	0.0176788
708.341	0.0179926
708.419	0.0181089
708.497	0.0184718
708.575	0.0185020
708.654	0.0186476
708.732	0.0189783
708.810	0.0189386
708.888	0.0190101
708.966	0.0190033
709.044	0.0190569
709.122	0.0190673
709.200	0.0189838
709.279	0.0190853
709.357	0.0189891
709.435	0.0188904
709.513	0.0187057
709.591	0.0184136
709.669	0.0182045
709.747	0.0178654
709.825	0.0176398
709.904	0.0174919
709.982	0.0169149
710.060	0.0168136
710.138	0.0167600
710.216	0.0165195
710.294	0.0166476
710.372	0.0165678
710.450	0.0167036
710.529	0.0168566
710.607	0.0170045
710.685	0.0173506
710.763	0.0174997
710.841	0.0176793
710.919	0.0180060
710.997	0.0178736
711.075	0.0181241
711.154	0.0182111
711.232	0.0181646
711.310	0.0179829
711.388	0.0179024
711.466	0.0177583
711.544	0.0175572
711.622	0.0173607
711.700	0.0172773
711.779	0.0169754
711.857	0.0168166
711.935	0.0167905
712.013	0.0165717
712.091	0.0166012
712.169	0.0165525
712.247	0.0166555
712.325	0.0166960
712.404	0.0168517
712.482	0.0169386
712.560	0.0170348
712.638	0.0170297
712.716	0.0170721
712.794	0.0172707
712.872	0.0173891
712.950	0.0173241
713.029	0.0175016
713.107	0.0175568
713.185	0.0175909
713.263	0.0175697
713.341	0.0176530
713.419	0.0175846
713.497	0.0177578
713.575	0.0176356
713.654	0.0176685
713.732	0.0177908
713.810	0.0179237
713.888	0.0180605
713.966	0.0180309
714.044	0.0180750
714.122	0.0181687
714.200	0.0181708
714.279	0.0181632
714.357	0.0180807
714.435	0.0181644
714.513	0.0181297
714.591	0.0179095
714.669	0.0177603
714.747	0.0176727
714.825	0.0174074
714.904	0.0171925
714.982	0.0172041
715.060	0.0171606
715.138	0.0170026
715.216	0.0171138
715.294	0.0171895
715.372	0.0170404
715.450	0.0171230
715.529	0.0172672
715.607	0.0174767
715.685	0.0173340
715.763	0.0172489
715.841	0.0174329
715.919	0.0174908
715.997	0.0175828
716.075	0.0176917
716.154	0.0176283
716.232	0.0178040
716.310	0.0178881
716.388	0.0179153
716.466	0.0181873
716.544	0.0180334
716.622	0.0182000
716.700	0.0181738
716.779	0.0182912
716.857	0.0182906
716.935	0.0181564
717.013	0.0181061
717.091	0.0179556
717.169	0.0178569
717.247	0.0176379
717.325	0.0174226
717.404	0.0174506
717.482	0.0173859
717.560	0.0174757
717.638	0.0175190
717.716	0.0177286
717.794	0.0178045
717.872	0.0178545
717.950	0.0180054
718.029	0.0179560
718.107	0.0182143
718.185	0.0182254
718.263	0.0181837
718.341	0.0182162
718.419	0.0181261
718.497	0.0181512
718.575	0.0178716
718.654	0.0176407
718.732	0.0174172
718.810	0.0172816
718.888	0.0169621
718.966	0.0165874
719.044	0.0165537
719.122	0.0162997
719.200	0.0161663
719.279	0.0161353
719.357	0.0159563
719.435	0.0159600
719.513	0.0159560
719.591	0.0160244
719.669	0.0161626
719.747	0.0162771
719.825	0.0163891
719.904	0.0166654
719.982	0.0169012
720.060	0.0170984
720.138	0.0172160
720.216	0.0174930
720.294	0.0177301
720.372	0.0178408
720.450	0.0179168
720.529	0.0181335
720.607	0.0182246
720.685	0.0182903
720.763	0.0183205
720.841	0.0183083
720.919	0.0181213
720.997	0.0183470
721.075	0.0182578
721.154	0.0182264
721.232	0.0181985
721.310	0.0181175
721.388	0.0181556
721.466	0.0180747
721.544	0.0180843
721.622	0.0182394
721.700	0.0182076
721.779	0.0181621
721.857	0.0181045
721.935	0.0182790
722.013	0.0182540
722.091	0.0182302
722.169	0.0181259
722.247	0.0180390
722.325	0.0180256
722.404	0.0180089
722.482	0.0179018
722.560	0.0179209
722.638	0.0178336
722.716	0.0178067
722.794	0.0177554
722.872	0.0176506
722.950	0.0175797
723.029	0.0174725
723.107	0.0174164
723.185	0.0174657
723.263	0.0173744
723.341	0.0172023
723.419	0.0171571
723.497	0.0172829
723.575	0.0171387
723.654	0.0171421
723.732	0.0171544
723.810	0.0170417
723.888	0.0170058
723.966	0.0171920
724.044	0.0171632
724.122	0.0170211
724.200	0.0169749
724.279	0.0170027
724.357	0.0169739
724.435	0.0170504
724.513	0.0169944
724.591	0.0169255
724.669	0.0168314
724.747	0.0169714
724.825	0.0170976
724.904	0.0171387
724.982	0.0172746
725.060	0.0171832
725.138	0.0172388
725.216	0.0171555
725.294	0.0173821
725.372	0.0173671
725.450	0.0172659
725.529	0.0172949
725.607	0.0172813
725.685	0.0172817
725.763	0.0172871
725.841	0.0172794
725.919	0.0173019
725.997	0.0173119
726.075	0.0173013
726.154	0.0172979
726.232	0.0172701
726.310	0.0174422
726.388	0.0177154
726.466	0.0177100
726.544	0.0178432
726.622	0.0179314
726.700	0.0181328
726.779	0.0181815
726.857	0.0181438
726.935	0.0181866
727.013	0.0182362
727.091	0.0181989
727.169	0.0183385
727.247	0.0183350
727.325	0.0181941
727.404	0.0181632
727.482	0.0181460
727.560	0.0180389
727.638	0.0178484
727.716	0.0178090
727.794	0.0177039
727.872	0.0176663
727.950	0.0176060
728.029	0.0174328
728.107	0.0173494
728.185	0.0172329
728.263	0.0173103
728.341	0.0172644
728.419	0.0172988
728.497	0.0171530
728.575	0.0170786
728.654	0.0173565
728.732	0.0173904
728.810	0.0174237
728.888	0.0176948
728.966	0.0176165
729.044	0.0178302
729.122	0.0178236
729.200	0.0180057
729.279	0.0180308
729.357	0.0180315
729.435	0.0177527
729.513	0.0176189
729.591	0.0174968
729.669	0.0173980
729.747	0.0173122
729.825	0.0171665
729.904	0.0169635
729.982	0.0168162
730.060	0.0168288
730.138	0.0168736
730.216	0.0167265
730.294	0.0167729
730.372	0.0168035
730.450	0.0168615
730.529	0.0169035
730.607	0.0170252
730.685	0.0171343
730.763	0.0172648
730.841	0.0174080
730.919	0.0175327
730.997	0.0175304
731.075	0.0175741
731.154	0.0176270
731.232	0.0176923
731.310	0.0176383
731.388	0.0173760
731.466	0.0175161
731.544	0.0174441
731.622	0.0174828
731.700	0.0173641
731.779	0.0173789
731.857	0.0172902
731.935	0.0170412
732.013	0.0172045
732.091	0.0173137
732.169	0.0172950
732.247	0.0172993
732.325	0.0175064
732.404	0.0175883
732.482	0.0175421
732.560	0.0177159
732.638	0.0178164
732.716	0.0177358
732.794	0.0177514
732.872	0.0178221
732.950	0.0179990
733.029	0.0180406
733.107	0.0179736
733.185	0.0179099
733.263	0.0178400
733.341	0.0178066
733.419	0.0176852
733.497	0.0177296
733.575	0.0177694
733.654	0.0178428
733.732	0.0178223
733.810	0.0178587
733.888	0.0180209
733.966	0.0179755
734.044	0.0180215
734.122	0.0180161
734.200	0.0181922
734.279	0.0181068
734.357	0.0182034
734.435	0.0181114
734.513	0.0180270
734.591	0.0178316
734.669	0.0177746
734.747	0.0175097
734.825	0.0176204
734.904	0.0175776
734.982	0.0172583
735.060	0.0171149
735.138	0.0170405
735.216	0.0170719
735.294	0.0169728
735.372	0.0169936
735.450	0.0169830
735.529	0.0170073
735.607	0.0171046
735.685	0.0170051
735.763	0.0169973
735.841	0.0170566
735.919	0.0170466
735.997	0.0171526
736.075	0.0171674
736.154	0.0170058
736.232	0.0172894
736.310	0.0171933
736.388	0.0171088
736.466	0.0172190
736.544	0.0173553
736.622	0.0173134
736.700	0.0172007
736.779	0.0172121
736.857	0.0172845
736.935	0.0174392
737.013	0.0175291
737.091	0.0175881
737.169	0.0176280
737.247	0.0177065
737.325	0.0180805
737.404	0.0179669
737.482	0.0181234
737.560	0.0181984
737.638	0.0183284
737.716	0.0182803
737.794	0.0181818
737.872	0.0183235
737.950	0.0182883
738.029	0.0179115
738.107	0.0178999
738.185	0.0177423
738.263	0.0176871
738.341	0.0174671
738.419	0.0174133
738.497	0.0173041
738.575	0.0171589
738.654	0.0171687
738.732	0.0171411
738.810	0.0172825
738.888	0.0173048
738.966	0.0174220
739.044	0.0175600
739.122	0.0175473
739.200	0.0175936
739.279	0.0177495
739.357	0.0178213
739.435	0.0181093
739.513	0.0180403
739.591	0.0181145
739.669	0.0182352
739.747	0.0182310
739.825	0.0181958
739.904	0.0180968
739.982	0.0180169
740.060	0.0178298
740.138	0.0178201
740.216	0.0176691
740.294	0.0175020
740.372	0.0174594
740.450	0.0173431
740.529	0.0171288
740.607	0.0171356
740.685	0.0171596
740.763	0.0169813
740.841	0.0170187
740.919	0.0169525
740.997	0.0171223
741.075	0.0170525
741.154	0.0170297
741.232	0.0172800
741.310	0.0170910
741.388	0.0170213
741.466	0.0171786
741.544	0.0171824
741.622	0.0173228
741.700	0.0170924
741.779	0.0171841
741.857	0.0171907
741.935	0.0173105
742.013	0.0174061
742.091	0.0174580
742.169	0.0173593
742.247	0.0175413
742.325	0.0174457
742.404	0.0176173
742.482	0.0175418
742.560	0.0176671
742.638	0.0176587
742.716	0.0176057
742.794	0.0175654
742.872	0.0176746
742.950	0.0175323
743.029	0.0175911
743.107	0.0176982
743.185	0.0175759
743.263	0.0176795
743.341	0.0177352
743.419	0.0175844
743.497	0.0177752
743.575	0.0176371
743.654	0.0177139
743.732	0.0178498
743.810	0.0178712
743.888	0.0178187
743.966	0.0178597
744.044	0.0179060
744.122	0.0180875
744.200	0.0179877
744.279	0.0180843
744.357	0.0181320
744.435	0.0182634
744.513	0.0180876
744.591	0.0181295
744.669	0.0180951
744.747	0.0179842
744.825	0.0179243
744.904	0.0179742
744.982	0.0176369
745.060	0.0178033
745.138	0.0176669
745.216	0.0176036
745.294	0.0174818
745.372	0.0174038
745.450	0.0172584
745.529	0.0172591
745.607	0.0171987
745.685	0.0172313
745.763	0.0171126
745.841	0.0170290
745.919	0.0170980
745.997	0.0168822
746.075	0.0169113
746.154	0.0169135
746.232	0.0169128
746.310	0.0168763
746.388	0.0169082
746.466	0.0169534
746.544	0.0170264
746.622	0.0170908
746.700	0.0172322
746.779	0.0171262
746.857	0.0172758
746.935	0.0173328
747.013	0.0175475
747.091	0.0174193
747.169	0.0174285
747.247	0.0174630
747.325	0.0174767
747.404	0.0176848
747.482	0.0175715
747.560	0.0177172
747.638	0.0176548
747.716	0.0175983
747.794	0.0177532
747.872	0.0178215
747.950	0.0176997
748.029	0.0178935
748.107	0.0178941
748.185	0.0179665
748.263	0.0179169
748.341	0.0180655
748.419	0.0179850
748.497	0.0179867
748.575	0.0179917
748.654	0.0180647
748.732	0.0180209
748.810	0.0179601
748.888	0.0179202
748.966	0.0178822
749.044	0.0178603
749.122	0.0178706
749.200	0.0178177
749.279	0.0177271
749.357	0.0176658
749.435	0.0175737
749.513	0.0174187
749.591	0.0176148
749.669	0.0175186
749.747	0.0174635
749.825	0.0175604
749.904	0.0175862
749.982	0.0175664
750.060	0.0174844
750.138	0.0175187
750.216	0.0176145
750.294	0.0176207
750.372	0.0174387
750.450	0.0175808
750.529	0.0175980
750.607	0.0174608
750.685	0.0175159
750.763	0.0173078
750.841	0.0171512
750.919	0.0172754
750.997	0.0171908
751.075	0.0171194
751.154	0.0172139
751.232	0.0171742
751.310	0.0171117
751.388	0.0170406
751.466	0.0171675
751.544	0.0171725
751.622	0.0172059
751.700	0.0171762
751.779	0.0172910
751.857	0.0173766
751.935	0.0174071
752.013	0.0176173
752.091	0.0176122
752.169	0.0177493
752.247	0.0178004
752.325	0.0176342
752.404	0.0175743
752.482	0.0177621
752.560	0.0176781
752.638	0.0175655
752.716	0.0177001
752.794	0.0177560
752.872	0.0176651
752.950	0.0176443
753.029	0.0177455
753.107	0.0176167
753.185	0.0177601
753.263	0.0177342
753.341	0.0177711
753.419	0.0177804
753.497	0.0177618
753.575	0.0177509
753.654	0.0179399
753.732	0.0178981
753.810	0.0179350
753.888	0.0177163
753.966	0.0176665
754.044	0.0176579
754.122	0.0175920
754.200	0.0177816
754.279	0.0175324
754.357	0.0175201
754.435	0.0176254
754.513	0.0175533
754.591	0.0176539
754.669	0.0176679
754.747	0.0176342
754.825	0.0178454
754.904	0.0177161
754.982	0.0177811
755.060	0.0178550
755.138	0.0177189
755.216	0.0176999
755.294	0.0176422
755.372	0.0177111
755.450	0.0176211
755.529	0.0174586
755.607	0.0174213
755.685	0.0174509
755.763	0.0174480
755.841	0.0173456
755.919	0.0171806
755.997	0.0171822
756.075	0.0172162
756.154	0.0172311
756.232	0.0171833
756.310	0.0171636
756.388	0.0170593
756.466	0.0173103
756.544	0.0171942
756.622	0.0173814
756.700	0.0173175
756.779	0.0173318
756.857	0.0174818
756.935	0.0174685
757.013	0.0174493
757.091	0.0175313
757.169	0.0175821
757.247	0.0174553
757.325	0.0175383
757.404	0.0175434
757.482	0.0173757
757.560	0.0175690
757.638	0.0174797
757.716	0.0174904
757.794	0.0177061
757.872	0.0175603
757.950	0.0175097
758.029	0.0176020
758.107	0.0176949
758.185	0.0179262
758.263	0.0178784
758.341	0.0178819
758.419	0.0178879
758.497	0.0178549
758.575	0.0180499
758.654	0.0180723
758.732	0.0178722
758.810	0.0179355
758.888	0.0177940
758.966	0.0178220
759.044	0.0176917
759.122	0.0176822
759.200	0.0176337
759.279	0.0176414
759.357	0.0175420
759.435	0.0173639
759.513	0.0175701
759.591	0.0175336
759.669	0.0175301
759.747	0.0175623
759.825	0.0174374
759.904	0.0175362
759.982	0.0175279
760.060	0.0175657
760.138	0.0177583
760.216	0.0176691
760.294	0.0174997
760.372	0.0176098
760.450	0.0175194
760.529	0.0173770
760.607	0.0173669
760.685	0.0172926
760.763	0.0171933
760.841	0.0172816
760.919	0.0171539
760.997	0.0171314
761.075	0.0170475
761.154	0.0171510
761.232	0.0170995
761.310	0.0170759
761.388	0.0171780
761.466	0.0172413
761.544	0.0171266
761.622	0.0171996
761.700	0.0173066
761.779	0.0172162
761.857	0.0173103
761.935	0.0174048
762.013	0.0174002
762.091	0.0173856
762.169	0.0175150
762.247	0.0175165
762.325	0.0174264
762.404	0.0175023
762.482	0.0175386
762.560	0.0174804
762.638	0.0176169
762.716	0.0175830
762.794	0.0175191
762.872	0.0176311
762.950	0.0178053
763.029	0.0177249
763.107	0.0176849
763.185	0.0178246
763.263	0.0178907
763.341	0.0178773
763.419	0.0179621
763.497	0.0179408
763.575	0.0178444
763.654	0.0177007
763.732	0.0176450
763.810	0.0179848
763.888	0.0177216
763.966	0.0175927
764.044	0.0175967
764.122	0.0176487
764.200	0.0175967
764.279	0.0174280
764.357	0.0175162
764.435	0.0175444
764.513	0.0175031
764.591	0.0175079
764.669	0.0173883
764.747	0.0174184
764.825	0.0173319
764.904	0.0173086
764.982	0.0172131
765.060	0.0173707
765.138	0.0173203
765.216	0.0174679
765.294	0.0175111
765.372	0.0173554
765.450	0.0173566
765.529	0.0173569
765.607	0.0174255
765.685	0.0173437
765.763	0.0170859
765.841	0.0173350
765.919	0.0174330
765.997	0.0172029
766.075	0.0173273
766.154	0.0172974
766.232	0.0171281
766.310	0.0173066
766.388	0.0173215
766.466	0.0173331
766.544	0.0173774
766.622	0.0174795
766.700	0.0175792
766.779	0.0176382
766.857	0.0176241
766.935	0.0174836
767.013	0.0177435
767.091	0.0177242
767.169	0.0177530
767.247	0.0179105
767.325	0.0178888
767.404	0.0178451
767.482	0.0177975
767.560	0.0178255
767.638	0.0178448
767.716	0.0179251
767.794	0.0178163
767.872	0.0176592
767.950	0.0177961
768.029	0.0176434
768.107	0.0176512
768.185	0.0175648
768.263	0.0176230
768.341	0.0176189
768.419	0.0173375
768.497	0.0173839
768.575	0.0172318
768.654	0.0172168
768.732	0.0171839
768.810	0.0172630
768.888	0.0171713
768.966	0.0172041
769.044	0.0171804
769.122	0.0171552
769.200	0.0172853
769.279	0.0172041
769.357	0.0172827
769.435	0.0173428
769.513	0.0173739
769.591	0.0175177
769.669	0.0176205
769.747	0.0176371
769.825	0.0174110
769.904	0.0177395
769.982	0.0178920
770.060	0.0176635
770.138	0.0176332
770.216	0.0178462
770.294	0.0178403
770.372	0.0177919
770.450	0.0178730
770.529	0.0176414
770.607	0.0176325
770.685	0.0175951
770.763	0.0174438
770.841	0.0176420
770.919	0.0176384
770.997	0.0175404
771.075	0.0175808
771.154	0.0174845
771.232	0.0174170
771.310	0.0176080
771.388	0.0175643
771.466	0.0173817
771.544	0.0174487
771.622	0.0174660
771.700	0.0173186
771.779	0.0173744
771.857	0.0173693
771.935	0.0174825
772.013	0.0175954
772.091	0.0174944
772.169	0.0175852
772.247	0.0176594
772.325	0.0176881
772.404	0.0176123
772.482	0.0176894
772.560	0.0177658
772.638	0.0177990
772.716	0.0178658
772.794	0.0178285
772.872	0.0177747
772.950	0.0177727
773.029	0.0177643
773.107	0.0178220
773.185	0.0177209
773.263	0.0177770
773.341	0.0176509
773.419	0.0176122
773.497	0.0176501
773.575	0.0175896
773.654	0.0175220
773.732	0.0175412
773.810	0.0173991
773.888	0.0172654
773.966	0.0173462
774.044	0.0172442
774.122	0.0174039
774.200	0.0171562
774.279	0.0170329
774.357	0.0172018
774.435	0.0174203
774.513	0.0171866
774.591	0.0172356
774.669	0.0172399
774.747	0.0173952
774.825	0.0173598
774.904	0.0173774
774.982	0.0172987
775.060	0.0175318
775.138	0.0176095
775.216	0.0175311
775.294	0.0174767
775.372	0.0175101
775.450	0.0175359
775.529	0.0174680
775.607	0.0176083
775.685	0.0175932
775.763	0.0176328
775.841	0.0176083
775.919	0.0175892
775.997	0.0174883
776.075	0.0175842
776.154	0.0176313
776.232	0.0174035
776.310	0.0175420
776.388	0.0174647
776.466	0.0174039
776.544	0.0174038
776.622	0.0174500
776.700	0.0174502
776.779	0.0174641
776.857	0.0175118
776.935	0.0175104
777.013	0.0175515
777.091	0.0175313
777.169	0.0176801
777.247	0.0176382
777.325	0.0176065
777.404	0.0177851
777.482	0.0177021
777.560	0.0178307
777.638	0.0178606
777.716	0.0178255
777.794	0.0178342
777.872	0.0178246
777.950	0.0177104
778.029	0.0178589
778.107	0.0178764
778.185	0.0177306
778.263	0.0177591
778.341	0.0176591
778.419	0.0176681
778.497	0.0177718
778.575	0.0177130
778.654	0.0176233
778.732	0.0176238
778.810	0.0176539
778.888	0.0177164
778.966	0.0175608
779.044	0.0174942
779.122	0.0174107
779.200	0.0174719
779.279	0.0173771
779.357	0.0173876
779.435	0.0172625
779.513	0.0172639
779.591	0.0172253
779.669	0.0172733
779.747	0.0172851
779.825	0.0170746
779.904	0.0169888
779.982	0.0171047
780.060	0.0172623
780.138	0.0172240
780.216	0.0172865
780.294	0.0173033
780.372	0.0174097
780.450	0.0175993
780.529	0.0176289
780.607	0.0175723
780.685	0.0177168
780.763	0.0177810
780.841	0.0178889
780.919	0.0180128
780.997	0.0180294
781.075	0.0179851
781.154	0.0180717
781.232	0.0180509
781.310	0.0181404
781.388	0.0179169
781.466	0.0180627
781.544	0.0177934
781.622	0.0179319
781.700	0.0177251
781.779	0.0176221
781.857	0.0175948
781.935	0.0174755
782.013	0.0173779
782.091	0.0171360
782.169	0.0171253
782.247	0.0171483
782.325	0.0169807
782.404	0.0170138
782.482	0.0168180
782.560	0.0167401
782.638	0.0166062
782.716	0.0166903
782.794	0.0166103
782.872	0.0164594
782.950	0.0165106
783.029	0.0165966
783.107	0.0165943
783.185	0.0167248
783.263	0.0167625
783.341	0.0168034
783.419	0.0170901
783.497	0.0170582
783.575	0.0173219
783.654	0.0175972
783.732	0.0178137
783.810	0.0180467
783.888	0.0182314
783.966	0.0182610
784.044	0.0185285
784.122	0.0185016
784.200	0.0187487
784.279	0.0187193
784.357	0.0188245
784.435	0.0189976
784.513	0.0190318
784.591	0.0189741
784.669	0.0190012
784.747	0.0187958
784.825	0.0187774
784.904	0.0185802
784.982	0.0184783
785.060	0.0184658
785.138	0.0181426
785.216	0.0179846
785.294	0.0178834
785.372	0.0175983
785.450	0.0172855
785.529	0.0171220
785.607	0.0168519
785.685	0.0169599
785.763	0.0166417
785.841	0.0164912
785.919	0.0161729
785.997	0.0162728
786.075	0.0162502
786.154	0.0160072
786.232	0.0159914
786.310	0.0160771
786.388	0.0160491
786.466	0.0163323
786.544	0.0164394
786.622	0.0166795
786.700	0.0167149
786.779	0.0168487
786.857	0.0172040
786.935	0.0173257
787.013	0.0175106
787.091	0.0177818
787.169	0.0181469
787.247	0.0181266
787.325	0.0183353
787.404	0.0184187
787.482	0.0184762
787.560	0.0185862
787.638	0.0186776
787.716	0.0186774
787.794	0.0187569
787.872	0.0186481
787.950	0.0187410
788.029	0.0186306
788.107	0.0183482
788.185	0.0183836
788.263	0.0180320
788.341	0.0179401
788.419	0.0180071
788.497	0.0176183
788.575	0.0173780
788.654	0.0172664
788.732	0.0170150
788.810	0.0168480
788.888	0.0167518
788.966	0.0166212
789.044	0.0164341
789.122	0.0163458
789.200	0.0161944
789.279	0.0161980
789.357	0.0162492
789.435	0.0162689
789.513	0.0163381
789.591	0.0162457
789.669	0.0164626
789.747	0.0164381
789.825	0.0166847
789.904	0.0167422
789.982	0.0169876
790.060	0.0172185
790.138	0.0172626
790.216	0.0174907
790.294	0.0177654
790.372	0.0177671
790.450	0.0180032
790.529	0.0180312
790.607	0.0183035
790.685	0.0183141
790.763	0.0184133
790.841	0.0184766
790.919	0.0184382
790.997	0.0183968
791.075	0.0184160
791.154	0.0183225
791.232	0.0183494
791.310	0.0183720
791.388	0.0181847
791.466	0.0181225
791.544	0.0180290
791.622	0.0180679
791.700	0.0181390
791.779	0.0179903
791.857	0.0179593
791.935	0.0179372
792.013	0.0179408
792.091	0.0178667
792.169	0.0178202
792.247	0.0178261
792.325	0.0176686
792.404	0.0175996
792.482	0.0174638
792.560	0.0174957
792.638	0.0171235
792.716	0.0171326
792.794	0.0171753
792.872	0.0170195
792.950	0.0168950
793.029	0.0169814
793.107	0.0169738
793.185	0.0170665
793.263	0.0167966
793.341	0.0168594
793.419	0.0171130
793.497	0.0170792
793.575	0.0170441
793.654	0.0170739
793.732	0.0169697
793.810	0.0170774
793.888	0.0171033
793.966	0.0171472
794.044	0.0170760
794.122	0.0171593
794.200	0.0171316
794.279	0.0170728
794.357	0.0170498
794.435	0.0171359
794.513	0.0172096
794.591	0.0172810
794.669	0.0172507
794.747	0.0173656
794.825	0.0173924
794.904	0.0176408
794.982	0.0175598
795.060	0.0175547
795.138	0.0176393
795.216	0.0174852
795.294	0.0177904
795.372	0.0179031
795.450	0.0177317
795.529	0.0179668
795.607	0.0179263
795.685	0.0178477
795.763	0.0178854
795.841	0.0179797
795.919	0.0180083
795.997	0.0179173
796.075	0.0178812
796.154	0.0178623
796.232	0.0178181
796.310	0.0178433
796.388	0.0176431
796.466	0.0177732
796.544	0.0176281
796.622	0.0175227
796.700	0.0175681
796.779	0.0175908
796.857	0.0175832
796.935	0.0176126
797.013	0.0176128
797.091	0.0175166
797.169	0.0176803
797.247	0.0176553
797.325	0.0175513
797.404	0.0176009
797.482	0.0176766
797.560	0.0177639
797.638	0.0176018
797.716	0.0175529
797.794	0.0175107
797.872	0.0174368
797.950	0.0173942
798.029	0.0172576
798.107	0.0172770
798.185	0.0173361
798.263	0.0172830
798.341	0.0171761
798.419	0.0171288
798.497	0.0173556
798.575	0.0171744
798.654	0.0172972
798.732	0.0171912
798.810	0.0172842
798.888	0.0173190
798.966	0.0172181
799.044	0.0172214
799.122	0.0174189
799.200	0.0175273
799.279	0.0174844
799.357	0.0174364
799.435	0.0175953
799.513	0.0175660
799.591	0.0177075
799.669	0.0177452
799.747	0.0177039
799.825	0.0176904
799.904	0.0177724
799.982	0.0178965
800.060	0.0176939
800.138	0.0178788
800.216	0.0180441
800.294	0.0180364
800.372	0.0178365
800.450	0.0179819
800.529	0.0178635
800.607	0.0177853
800.685	0.0179264
800.763	0.0178495
800.841	0.0176995
800.919	0.0176460
800.997	0.0177204
801.075	0.0176191
801.154	0.0173679
801.232	0.0173299
801.310	0.0172535
801.388	0.0174358
801.466	0.0172268
801.544	0.0172484
801.622	0.0169542
801.700	0.0171759
801.779	0.0171450
801.857	0.0169904
801.935	0.0170438
802.013	0.0171304
802.091	0.0171298
802.169	0.0172375
802.247	0.0172332
802.325	0.0172280
802.404	0.0173728
802.482	0.0175000
802.560	0.0174628
802.638	0.0174741
802.716	0.0175245
802.794	0.0176977
802.872	0.0176810
802.950	0.0177326
803.029	0.0177526
803.107	0.0177471
803.185	0.0176805
803.263	0.0177280
803.341	0.0178625
803.419	0.0177612
803.497	0.0176357
803.575	0.0175996
803.654	0.0176015
803.732	0.0176215
803.810	0.0175719
803.888	0.0175522
803.966	0.0177023
804.044	0.0174889
804.122	0.0173991
804.200	0.0176146
804.279	0.0175803
804.357	0.0173966
804.435	0.0175214
804.513	0.0175742
804.591	0.0175035
804.669	0.0174998
804.747	0.0174868
804.825	0.0173540
804.904	0.0174529
804.982	0.0174856
805.060	0.0173448
805.138	0.0173238
805.216	0.0173320
805.294	0.0174747
805.372	0.0174767
805.450	0.0173662
805.529	0.0175970
805.607	0.0175550
805.685	0.0175901
805.763	0.0175993
805.841	0.0174852
805.919	0.0174726
805.997	0.0174808
806.075	0.0175175
806.154	0.0175011
806.232	0.0175228
806.310	0.0174075
806.388	0.0175084
806.466	0.0175555
806.544	0.0175603
806.622	0.0175442
806.700	0.0176529
806.779	0.0177136
806.857	0.0177017
806.935	0.0175911
807.013	0.0177454
807.091	0.0177204
807.169	0.0177992
807.247	0.0178336
807.325	0.0176102
807.404	0.0176949
807.482	0.0176892
807.560	0.0176772
807.638	0.0176261
807.716	0.0175465
807.794	0.0175434
807.872	0.0174726
807.950	0.0174429
808.029	0.0173829
808.107	0.0173221
808.185	0.0174107
808.263	0.0174477
808.341	0.0173499
808.419	0.0175091
808.497	0.0174866
808.575	0.0174583
808.654	0.0174380
808.732	0.0174139
808.810	0.0174996
808.888	0.0175560
808.966	0.0175396
809.044	0.0175747
809.122	0.0176434
809.200	0.0175914
809.279	0.0174667
809.357	0.0176273
809.435	0.0176740
809.513	0.0176215
809.591	0.0176145
809.669	0.0175603
809.747	0.0175293
809.825	0.0174901
809.904	0.0175131
809.982	0.0176014
810.060	0.0173886
810.138	0.0172752
810.216	0.0172638
810.294	0.0172287
810.372	0.0173470
810.450	0.0171148
810.529	0.0171094
810.607	0.0172839
810.685	0.0171446
810.763	0.0170074
810.841	0.0171154
810.919	0.0172947
810.997	0.0171712
811.075	0.0171635
811.154	0.0171458
811.232	0.0172656
811.310	0.0172804
811.388	0.0174491
811.466	0.0172633
811.544	0.0174876
811.622	0.0175906
811.700	0.0174210
811.779	0.0174763
811.857	0.0174731
811.935	0.0176089
812.013	0.0175803
812.091	0.0176124
812.169	0.0178120
812.247	0.0178725
812.325	0.0177976
812.404	0.0177760
812.482	0.0179501
812.560	0.0179268
812.638	0.0178674
812.716	0.0179105
812.794	0.0178892
812.872	0.0178979
812.950	0.0179459
813.029	0.0178903
813.107	0.0179200
813.185	0.0178056
813.263	0.0177395
813.341	0.0176069
813.419	0.0177077
813.497	0.0174840
813.575	0.0174889
813.654	0.0174722
813.732	0.0175612
813.810	0.0174918
813.888	0.0174244
813.966	0.0173988
814.044	0.0174281
814.122	0.0175231
814.200	0.0175216
814.279	0.0175659
814.357	0.0175172
814.435	0.0176703
814.513	0.0175828
814.591	0.0174961
814.669	0.0176344
814.747	0.0175599
814.825	0.0176224
814.904	0.0177206
814.982	0.0176762
815.060	0.0174783
815.138	0.0176861
815.216	0.0175185
815.294	0.0174645
815.372	0.0174603
815.450	0.0175238
815.529	0.0175000
815.607	0.0173196
815.685	0.0172615
815.763	0.0172961
815.841	0.0171431
815.919	0.0171226
815.997	0.0171635
816.075	0.0170850
816.154	0.0169193
816.232	0.0169381
816.310	0.0169900
816.388	0.0170469
816.466	0.0169839
816.544	0.0169901
816.622	0.0170946
816.700	0.0171844
816.779	0.0171718
816.857	0.0171515
816.935	0.0172054
817.013	0.0175636
817.091	0.0174500
817.169	0.0177568
817.247	0.0176501
817.325	0.0176979
817.404	0.0178500
817.482	0.0179350
817.560	0.0178946
817.638	0.0181479
817.716	0.0181918
817.794	0.0181258
817.872	0.0181836
817.950	0.0182288
818.029	0.0181137
818.107	0.0180832
818.185	0.0181597
818.263	0.0180901
818.341	0.0178571
818.419	0.0177938
818.497	0.0176876
818.575	0.0178156
818.654	0.0175521
818.732	0.0173780
818.810	0.0174653
818.888	0.0173405
818.966	0.0172523
819.044	0.0172463
819.122	0.0172691
819.200	0.0171753
819.279	0.0173347
819.357	0.0173045
819.435	0.0173409
819.513	0.0173483
819.591	0.0173808
819.669	0.0175032
819.747	0.0174799
819.825	0.0174773
819.904	0.0174066
819.982	0.0177264
820.060	0.0177921
820.138	0.0177281
820.216	0.0178676
820.294	0.0178509
820.372	0.0179463
820.450	0.0179044
820.529	0.0178957
820.607	0.0179641
820.685	0.0178828
820.763	0.0180614
820.841	0.0178558
820.919	0.0178289
820.997	0.0179086
821.075	0.0177853
821.154	0.0177178
821.232	0.0175924
821.310	0.0176326
821.388	0.0175341
821.466	0.0175065
821.544	0.0172538
821.622	0.0173575
821.700	0.0172477
821.779	0.0173034
821.857	0.0171474
821.935	0.0171587
822.013	0.0170421
822.091	0.0170272
822.169	0.0171636
822.247	0.0170473
822.325	0.0170099
822.404	0.0170185
822.482	0.0172023
822.560	0.0170695
822.638	0.0173479
822.716	0.0172466
822.794	0.0174493
822.872	0.0173804
822.950	0.0174244
823.029	0.0175015
823.107	0.0176423
823.185	0.0176841
823.263	0.0177644
823.341	0.0176815
823.419	0.0176672
823.497	0.0178817
823.575	0.0177580
823.654	0.0178535
823.732	0.0177346
823.810	0.0178123
823.888	0.0179472
823.966	0.0178340
824.044	0.0179361
824.122	0.0179512
824.200	0.0179520
824.279	0.0177870
824.357	0.0178669
824.435	0.0178342
824.513	0.0178974
824.591	0.0178950
824.669	0.0179103
824.747	0.0178272
824.825	0.0178159
824.904	0.0177467
824.982	0.0178156
825.060	0.0177257
825.138	0.0177991
825.216	0.0176955
825.294	0.0178069
825.372	0.0177577
825.450	0.0176746
825.529	0.0176505
825.607	0.0175428
825.685	0.0176278
825.763	0.0175962
825.841	0.0176322
825.919	0.0175283
825.997	0.0175323
826.075	0.0175079
826.154	0.0174673
826.232	0.0173688
826.310	0.0172704
826.388	0.0175598
826.466	0.0173930
826.544	0.0172926
826.622	0.0173534
826.700	0.0173288
826.779	0.0173970
826.857	0.0173852
826.935	0.0173643
827.013	0.0175012
827.091	0.0172854
827.169	0.0174422
827.247	0.0174797
827.325	0.0174126
827.404	0.0174306
827.482	0.0173465
827.560	0.0174157
827.638	0.0174396
827.716	0.0173967
827.794	0.0172908
827.872	0.0173101
827.950	0.0173943
828.029	0.0172535
828.107	0.0172932
828.185	0.0173827
828.263	0.0173016
828.341	0.0172586
828.419	0.0173169
828.497	0.0173741
828.575	0.0172752
828.654	0.0174068
828.732	0.0174886
828.810	0.0173785
828.888	0.0174495
828.966	0.0174619
829.044	0.0175880
829.122	0.0175511
829.200	0.0177035
829.279	0.0176882
829.357	0.0176501
829.435	0.0177141
829.513	0.0176905
829.591	0.0178323
829.669	0.0179281
829.747	0.0178831
829.825	0.0178867
829.904	0.0178685
829.982	0.0178236
830.060	0.0179884
830.138	0.0180737
830.216	0.0178917
830.294	0.0179606
830.372	0.0177856
830.450	0.0177277
830.529	0.0178411
830.607	0.0177190
830.685	0.0177027
830.763	0.0176691
830.841	0.0175916
830.919	0.0176081
830.997	0.0175549
831.075	0.0175134
831.154	0.0173370
831.232	0.0174387
831.310	0.0173090
831.388	0.0173268
831.466	0.0171885
831.544	0.0172906
831.622	0.0171107
831.700	0.0170927
831.779	0.0173075
831.857	0.0172803
831.935	0.0172401
832.013	0.0172524
832.091	0.0171318
832.169	0.0174283
832.247	0.0174687
832.325	0.0176293
832.404	0.0175626
832.482	0.0177736
832.560	0.0177647
832.638	0.0178986
832.716	0.0178126
832.794	0.0178654
832.872	0.0178754
832.950	0.0178125
833.029	0.0178143
833.107	0.0180010
833.185	0.0179526
833.263	0.0178972
833.341	0.0177132
833.419	0.0177921
833.497	0.0177917
833.575	0.0176775
833.654	0.0176460
833.732	0.0176373
833.810	0.0176270
833.888	0.0175395
833.966	0.0175213
834.044	0.0176252
834.122	0.0175418
834.200	0.0175231
834.279	0.0175073
834.357	0.0173487
834.435	0.0176700
834.513	0.0175793
834.591	0.0173235
834.669	0.0173630
834.747	0.0174620
834.825	0.0173431
834.904	0.0174110
834.982	0.0175049
835.060	0.0173992
835.138	0.0172758
835.216	0.0172511
835.294	0.0173129
835.372	0.0174110
835.450	0.0171661
835.529	0.0172837
835.607	0.0173140
835.685	0.0173453
835.763	0.0171915
835.841	0.0174202
835.919	0.0174815
835.997	0.0173016
836.075	0.0175023
836.154	0.0174073
836.232	0.0174790
836.310	0.0174738
836.388	0.0173992
836.466	0.0172569
836.544	0.0174528
836.622	0.0175098
836.700	0.0175169
836.779	0.0176053
836.857	0.0175528
836.935	0.0176249
837.013	0.0176403
837.091	0.0175914
837.169	0.0176635
837.247	0.0178667
837.325	0.0177888
837.404	0.0179008
837.482	0.0178996
837.560	0.0179516
837.638	0.0179366
837.716	0.0179971
837.794	0.0180691
837.872	0.0180309
837.950	0.0181078
838.029	0.0179625
838.107	0.0179873
838.185	0.0179830
838.263	0.0180585
838.341	0.0179863
838.419	0.0178781
838.497	0.0179108
838.575	0.0179055
838.654	0.0178448
838.732	0.0178019
838.810	0.0176952
838.888	0.0176574
838.966	0.0176057
839.044	0.0175962
839.122	0.0174745
839.200	0.0174464
839.279	0.0174340
839.357	0.0173632
839.435	0.0173424
839.513	0.0171954
839.591	0.0172558
839.669	0.0173373
839.747	0.0172648
839.825	0.0172302
839.904	0.0172295
839.982	0.0172235
840.060	0.0172984
840.138	0.0172422
840.216	0.0173133
840.294	0.0174252
840.372	0.0173653
840.450	0.0172505
840.529	0.0173757
840.607	0.0175250
840.685	0.0174505
840.763	0.0174991
840.841	0.0174977
840.919	0.0175567
840.997	0.0175615
841.075	0.0174342
841.154	0.0175000
841.232	0.0175626
841.310	0.0174964
841.388	0.0176254
841.466	0.0175840
841.544	0.0175809
841.622	0.0176304
841.700	0.0176311
841.779	0.0176336
841.857	0.0174365
841.935	0.0175996
842.013	0.0175470
842.091	0.0175829
842.169	0.0175631
842.247	0.0175342
842.325	0.0175087
842.404	0.0176917
842.482	0.0176165
842.560	0.0175066
842.638	0.0175489
842.716	0.0174915
842.794	0.0175288
842.872	0.0176394
842.950	0.0175687
843.029	0.0175618
843.107	0.0175939
843.185	0.0175665
843.263	0.0175356
843.341	0.0175897
843.419	0.0176465
843.497	0.0175803
843.575	0.0175723
843.654	0.0175775
843.732	0.0175759
843.810	0.0175004
843.888	0.0177917
843.966	0.0176286
844.044	0.0175470
844.122	0.0176306
844.200	0.0175620
844.279	0.0177380
844.357	0.0177274
844.435	0.0178938
844.513	0.0177382
844.591	0.0177551
844.669	0.0177649
844.747	0.0178953
844.825	0.0177621
844.904	0.0178250
844.982	0.0177533
845.060	0.0178201
845.138	0.0177912
845.216	0.0178247
845.294	0.0177047
845.372	0.0178355
845.450	0.0177366
845.529	0.0177795
845.607	0.0177956
845.685	0.0177987
845.763	0.0175925
845.841	0.0175744
845.919	0.0175034
845.997	0.0174690
846.075	0.0175186
846.154	0.0174697
846.232	0.0173715
846.310	0.0174019
846.388	0.0173373
846.466	0.0172852
846.544	0.0173885
846.622	0.0172971
846.700	0.0172279
846.779	0.0172922
846.857	0.0173428
846.935	0.0172715
847.013	0.0171960
847.091	0.0172749
847.169	0.0173199
847.247	0.0171651
847.325	0.0173547
847.404	0.0173511
847.482	0.0172415
847.560	0.0173048
847.638	0.0173542
847.716	0.0174133
847.794	0.0175058
847.872	0.0175349
847.950	0.0175751
848.029	0.0176262
848.107	0.0175971
848.185	0.0175095
848.263	0.0174442
848.341	0.0174960
848.419	0.0176053
848.497	0.0176627
848.575	0.0177570
848.654	0.0176617
848.732	0.0177269
848.810	0.0177622
848.888	0.0175985
848.966	0.0178457
849.044	0.0176727
849.122	0.0176074
849.200	0.0175605
849.279	0.0175378
849.357	0.0176740
849.435	0.0177847
849.513	0.0175947
849.591	0.0176678
849.669	0.0176921
849.747	0.0175992
849.825	0.0176153
849.904	0.0175477
849.982	0.0176097
850.060	0.0175360
850.138	0.0176356
850.216	0.0176617
850.294	0.0176308
850.372	0.0178279
850.450	0.0176001
850.529	0.0176643
850.607	0.0177126
850.685	0.0176226
850.763	0.0176093
850.841	0.0176884
850.919	0.0176869
850.997	0.0176772
851.075	0.0177178
851.154	0.0176232
851.232	0.0176367
851.310	0.0174662
851.388	0.0176664
851.466	0.0175071
851.544	0.0175719
851.622	0.0175189
851.700	0.0173186
851.779	0.0172881
851.857	0.0174744
851.935	0.0175079
852.013	0.0172803
852.091	0.0174004
852.169	0.0172801
852.247	0.0174150
852.325	0.0173228
852.404	0.0174046
852.482	0.0175499
852.560	0.0174667
852.638	0.0174390
852.716	0.0175826
852.794	0.0176380
852.872	0.0176039
852.950	0.0174034
853.029	0.0174850
853.107	0.0175953
853.185	0.0175488
853.263	0.0174778
853.341	0.0174812
853.419	0.0175156
853.497	0.0175791
853.575	0.0175662
853.654	0.0175810
853.732	0.0175896
853.810	0.0175045
853.888	0.0176600
853.966	0.0174133
854.044	0.0174943
854.122	0.0176098
854.200	0.0175911
854.279	0.0175598
854.357	0.0174573
854.435	0.0174363
854.513	0.0174727
854.591	0.0176133
854.669	0.0174928
854.747	0.0174179
854.825	0.0174293
854.904	0.0175669
854.982	0.0174428
855.060	0.0176487
855.138	0.0175648
855.216	0.0174709
855.294	0.0176267
855.372	0.0174651
855.450	0.0173951
855.529	0.0174146
855.607	0.0174886
855.685	0.0175925
855.763	0.0174986
855.841	0.0174761
855.919	0.0175524
855.997	0.0175816
856.075	0.0176379
856.154	0.0176124
856.232	0.0175336
856.310	0.0175878
856.388	0.0177248
856.466	0.0176643
856.544	0.0174458
856.622	0.0175510
856.700	0.0175014
856.779	0.0174908
856.857	0.0174407
856.935	0.0174623
857.013	0.0174686
857.091	0.0174043
857.169	0.0174877
857.247	0.0174506
857.325	0.0174877
857.404	0.0173952
857.482	0.0174294
857.560	0.0174420
857.638	0.0173976
857.716	0.0174747
857.794	0.0175728
857.872	0.0176519
857.950	0.0175011
858.029	0.0174859
858.107	0.0176583
858.185	0.0175738
858.263	0.0176102
858.341	0.0176067
858.419	0.0175544
858.497	0.0175785
858.575	0.0174077
858.654	0.0172704
858.732	0.0173370
858.810	0.0173271
858.888	0.0174673
858.966	0.0175332
859.044	0.0174472
859.122	0.0173467
859.200	0.0173808
859.279	0.0175166
859.357	0.0174987
859.435	0.0174861
859.513	0.0174982
859.591	0.0176434
859.669	0.0174696
859.747	0.0175373
859.825	0.0175056
859.904	0.0174567
859.982	0.0175370
860.060	0.0175075
860.138	0.0176785
860.216	0.0176585
860.294	0.0175304
860.372	0.0175244
860.450	0.0175559
860.529	0.0174931
860.607	0.0175273
860.685	0.0175196
860.763	0.0174636
860.841	0.0175945
860.919	0.0175509
860.997	0.0175143
861.075	0.0175636
861.154	0.0176462
861.232	0.0175685
861.310	0.0174569
861.388	0.0175858
861.466	0.0174366
861.544	0.0175277
861.622	0.0176525
861.700	0.0174898
861.779	0.0175536
861.857	0.0174409
861.935	0.0174884
862.013	0.0173254
862.091	0.0172375
862.169	0.0174094
862.247	0.0173580
862.325	0.0173138
862.404	0.0172577
862.482	0.0173428
862.560	0.0173835
862.638	0.0174512
862.716	0.0173082
862.794	0.0174502
862.872	0.0173872
862.950	0.0174220
863.029	0.0174776
863.107	0.0174922
863.185	0.0175023
863.263	0.0175053
863.341	0.0175215
863.419	0.0176549
863.497	0.0175832
863.575	0.0176035
863.654	0.0176637
863.732	0.0176345
863.810	0.0176348
863.888	0.0176149
863.966	0.0174797
864.044	0.0176897
864.122	0.0176533
864.200	0.0176273
864.279	0.0175172
864.357	0.0174783
864.435	0.0175601
864.513	0.0176099
864.591	0.0176176
864.669	0.0175502
864.747	0.0176022
864.825	0.0173936
864.904	0.0174805
864.982	0.0174207
865.060	0.0174025
865.138	0.0175638
865.216	0.0173444
865.294	0.0172942
865.372	0.0174479
865.450	0.0173093
865.529	0.0173307
865.607	0.0171574
865.685	0.0172567
865.763	0.0173796
865.841	0.0172211
865.919	0.0173158
865.997	0.0173757
866.075	0.0173172
866.154	0.0173917
866.232	0.0173655
866.310	0.0174255
866.388	0.0176329
866.466	0.0175610
866.544	0.0175639
866.622	0.0177099
866.700	0.0176208
866.779	0.0177530
866.857	0.0177090
866.935	0.0176273
867.013	0.0176076
867.091	0.0176849
867.169	0.0175863
867.247	0.0176688
867.325	0.0176383
867.404	0.0177393
867.482	0.0176373
867.560	0.0177112
867.638	0.0176080
867.716	0.0176178
867.794	0.0176313
867.872	0.0176914
867.950	0.0175372
868.029	0.0175648
868.107	0.0175004
868.185	0.0174215
868.263	0.0173415
868.341	0.0173450
868.419	0.0173877
868.497	0.0174008
868.575	0.0173779
868.654	0.0172772
868.732	0.0174004
868.810	0.0172922
868.888	0.0173315
868.966	0.0172224
869.044	0.0172356
869.122	0.0172435
869.200	0.0171418
869.279	0.0173146
869.357	0.0172958
869.435	0.0172829
869.513	0.0173085
869.591	0.0173472
869.669	0.0173699
869.747	0.0172829
869.825	0.0173480
869.904	0.0173872
869.982	0.0175204
870.060	0.0175393
870.138	0.0175381
870.216	0.0175603
870.294	0.0175021
870.372	0.0176174
870.450	0.0176936
870.529	0.0176492
870.607	0.0175737
870.685	0.0177219
870.763	0.0176222
870.841	0.0175911
870.919	0.0174901
870.997	0.0175369
871.075	0.0174725
871.154	0.0176215
871.232	0.0176720
871.310	0.0175838
871.388	0.0176002
871.466	0.0175198
871.544	0.0176038
871.622	0.0176582
871.700	0.0175216
871.779	0.0175735
871.857	0.0174911
871.935	0.0174683
872.013	0.0174251
872.091	0.0174721
872.169	0.0174628
872.247	0.0173743
872.325	0.0172791
872.404	0.0173985
872.482	0.0172786
872.560	0.0173074
872.638	0.0172456
872.716	0.0172304
872.794	0.0172482
872.872	0.0173904
872.950	0.0173441
873.029	0.0172395
873.107	0.0172688
873.185	0.0173263
873.263	0.0172614
873.341	0.0174266
873.419	0.0174632
873.497	0.0173963
873.575	0.0174623
873.654	0.0175957
873.732	0.0176323
873.810	0.0177358
873.888	0.0177313
873.966	0.0176354
874.044	0.0176371
874.122	0.0176239
874.200	0.0175438
874.279	0.0176508
874.357	0.0176567
874.435	0.0175189
874.513	0.0175985
874.591	0.0175724
874.669	0.0173974
874.747	0.0173542
874.825	0.0173367
874.904	0.0173013
874.982	0.0171661
875.060	0.0171394
875.138	0.0171889
875.216	0.0172657
875.294	0.0171914
875.372	0.0170542
875.450	0.0172646
875.529	0.0173340
875.607	0.0173694
875.685	0.0175812
875.763	0.0175417
875.841	0.0176211
875.919	0.0177199
875.997	0.0177171
876.075	0.0178909
876.154	0.0178057
876.232	0.0178310
876.310	0.0180499
876.388	0.0178925
876.466	0.0180212
876.544	0.0181544
876.622	0.0182265
876.700	0.0180239
876.779	0.0180301
876.857	0.0179496
876.935	0.0178217
877.013	0.0178439
877.091	0.0176313
877.169	0.0175863
877.247	0.0173539
877.325	0.0171987
877.404	0.0171588
877.482	0.0170659
877.560	0.0168716
877.638	0.0167419
877.716	0.0168512
877.794	0.0167348
877.872	0.0165765
877.950	0.0166153
878.029	0.0165376
878.107	0.0167665
878.185	0.0168903
878.263	0.0167970
878.341	0.0170560
878.419	0.0172796
878.497	0.0173849
878.575	0.0175927
878.654	0.0175769
878.732	0.0178525
878.810	0.0179985
878.888	0.0181055
878.966	0.0182655
879.044	0.0184473
879.122	0.0182528
879.200	0.0185249
879.279	0.0183646
879.357	0.0183144
879.435	0.0184776
879.513	0.0183035
879.591	0.0181895
879.669	0.0180574
879.747	0.0178905
879.825	0.0178643
879.904	0.0178690
879.982	0.0177160
880.060	0.0175064
880.138	0.0173540
880.216	0.0172344
880.294	0.0171420
880.372	0.0170886
880.450	0.0169724
880.529	0.0167780
880.607	0.0168589
880.685	0.0167597
880.763	0.0166046
880.841	0.0166006
880.919	0.0166186
880.997	0.0165226
881.075	0.0164766
881.154	0.0165886
881.232	0.0164701
881.310	0.0165817
881.388	0.0167126
881.466	0.0168513
881.544	0.0171790
881.622	0.0173249
881.700	0.0176185
881.779	0.0178147
881.857	0.0181351
881.935	0.0182650
882.013	0.0185115
882.091	0.0185687
882.169	0.0187711
882.247	0.0189134
882.325	0.0188682
882.404	0.0187498
882.482	0.0188432
882.560	0.0186803
882.638	0.0185294
882.716	0.0182844
882.794	0.0180790
882.872	0.0180444
882.950	0.0177121
883.029	0.0174744
883.107	0.0173106
883.185	0.0172697
883.263	0.0170728
883.341	0.0169131
883.419	0.0170725
883.497	0.0167693
883.575	0.0168046
883.654	0.0168694
883.732	0.0168436
883.810	0.0168718
883.888	0.0168032
883.966	0.0168156
884.044	0.0170095
884.122	0.0168174
884.200	0.0168649
884.279	0.0170232
884.357	0.0170428
884.435	0.0169179
884.513	0.0170042
884.591	0.0171761
884.669	0.0169831
884.747	0.0171465
884.825	0.0170089
884.904	0.0174582
884.982	0.0172956
885.060	0.0174050
885.138	0.0174498
885.216	0.0174662
885.294	0.0175317
885.372	0.0176937
885.450	0.0179412
885.529	0.0178812
885.607	0.0179650
885.685	0.0181446
885.763	0.0183568
885.841	0.0183848
885.919	0.0183340
885.997	0.0182920
886.075	0.0183816
886.154	0.0183807
886.232	0.0183565
886.310	0.0182429
886.388	0.0179220
886.466	0.0179897
886.544	0.0177940
886.622	0.0177084
886.700	0.0176153
886.779	0.0175856
886.857	0.0174215
886.935	0.0174404
887.013	0.0174622
887.091	0.0173064
887.169	0.0173728
887.247	0.0174197
887.325	0.0173940
887.404	0.0175177
887.482	0.0173441
887.560	0.0175045
887.638	0.0174123
887.716	0.0174238
887.794	0.0174642
887.872	0.0172574
887.950	0.0173415
888.029	0.0172987
888.107	0.0171133
888.185	0.0172581
888.263	0.0171367
888.341	0.0171001
888.419	0.0171196
888.497	0.0169706
888.575	0.0170232
888.654	0.0171394
888.732	0.0170801
888.810	0.0171204
888.888	0.0170406
888.966	0.0172147
889.044	0.0171567
889.122	0.0172715
889.200	0.0173019
889.279	0.0173856
889.357	0.0173608
889.435	0.0173577
889.513	0.0175056
889.591	0.0175971
889.669	0.0176370
889.747	0.0177866
889.825	0.0177759
889.904	0.0178509
889.982	0.0178374
890.060	0.0180661
890.138	0.0180988
890.216	0.0180343
890.294	0.0180241
890.372	0.0181628
890.450	0.0180509
890.529	0.0180825
890.607	0.0180924
890.685	0.0179640
890.763	0.0178420
890.841	0.0177890
890.919	0.0178208
890.997	0.0177016
891.075	0.0175180
891.154	0.0175745
891.232	0.0175890
891.310	0.0173800
891.388	0.0175269
891.466	0.0174764
891.544	0.0174027
891.622	0.0173057
891.700	0.0173611
891.779	0.0172983
891.857	0.0172819
891.935	0.0173383
892.013	0.0171732
892.091	0.0171737
892.169	0.0171458
892.247	0.0173165
892.325	0.0173232
892.404	0.0172697
892.482	0.0172861
892.560	0.0173372
892.638	0.0173568
892.716	0.0174409
892.794	0.0174820
892.872	0.0175594
892.950	0.0177036
893.029	0.0177450
893.107	0.0178281
893.185	0.0176013
893.263	0.0177203
893.341	0.0175967
893.419	0.0176003
893.497	0.0175935
893.575	0.0174735
893.654	0.0175096
893.732	0.0175951
893.810	0.0175276
893.888	0.0175169
893.966	0.0176040
894.044	0.0176233
894.122	0.0175359
894.200	0.0177606
894.279	0.0176426
894.357	0.0175873
894.435	0.0177274
894.513	0.0178415
894.591	0.0176974
894.669	0.0177238
894.747	0.0177495
894.825	0.0178591
894.904	0.0178267
894.982	0.0177774
895.060	0.0177267
895.138	0.0177631
895.216	0.0177284
895.294	0.0178544
895.372	0.0177691
895.450	0.0177379
895.529	0.0176691
895.607	0.0175739
895.685	0.0177404
895.763	0.0177370
895.841	0.0176334
895.919	0.0177485
895.997	0.0174128
896.075	0.0174918
896.154	0.0174476
896.232	0.0173247
896.310	0.0173630
896.388	0.0172573
896.466	0.0172578
896.544	0.0170445
896.622	0.0171162
896.700	0.0171867
896.779	0.0171110
896.857	0.0170690
896.935	0.0169279
897.013	0.0169826
897.091	0.0169700
897.169	0.0170788
897.247	0.0172114
897.325	0.0172961
897.404	0.0173773
897.482	0.0174855
897.560	0.0175223
897.638	0.0176418
897.716	0.0177523
897.794	0.0178660
897.872	0.0178284
897.950	0.0178607
898.029	0.0179929
898.107	0.0178075
898.185	0.0178061
898.263	0.0179198
898.341	0.0178150
898.419	0.0178004
898.497	0.0177579
898.575	0.0176911
898.654	0.0175874
898.732	0.0175427
898.810	0.0176252
898.888	0.0177297
898.966	0.0174495
899.044	0.0172862
899.122	0.0173329
899.200	0.0173436
899.279	0.0172066
899.357	0.0173473
899.435	0.0174849
899.513	0.0173367
899.591	0.0173433
899.669	0.0174679
899.747	0.0175432
899.825	0.0175263
899.904	0.0177433
899.982	0.0175574
900.060	0.0175819
900.138	0.0176166
900.216	0.0177379
900.294	0.0178172
900.372	0.0177986
900.450	0.0177251
900.529	0.0177026
900.607	0.0178148
900.685	0.0178583
900.763	0.0177007
900.841	0.0177214
900.919	0.0176828
900.997	0.0176657
901.075	0.0176421
901.154	0.0175777
901.232	0.0177245
901.310	0.0174200
901.388	0.0173294
901.466	0.0173938
901.544	0.0173206
901.622	0.0172838
901.700	0.0172131
901.779	0.0170918
901.857	0.0170873
901.935	0.0171812
902.013	0.0172285
902.091	0.0171814
902.169	0.0172233
902.247	0.0173432
902.325	0.0175243
902.404	0.0173898
902.482	0.0177415
902.560	0.0178028
902.638	0.0177251
902.716	0.0177465
902.794	0.0178025
902.872	0.0179033
902.950	0.0177882
903.029	0.0177528
903.107	0.0179068
903.185	0.0179192
903.263	0.0176484
903.341	0.0177053
903.419	0.0177435
903.497	0.0176340
903.575	0.0177009
903.654	0.0176132
903.732	0.0175626
903.810	0.0176841
903.888	0.0176044
903.966	0.0174458
904.044	0.0174284
904.122	0.0174822
904.200	0.0172527
904.279	0.0174538
904.357	0.0173931
904.435	0.0173399
904.513	0.0172675
904.591	0.0172934
904.669	0.0172357
904.747	0.0173212
904.825	0.0172517
904.904	0.0174545
904.982	0.0171957
905.060	0.0172979
905.138	0.0174103
905.216	0.0173498
905.294	0.0174884
905.372	0.0175417
905.450	0.0177055
905.529	0.0177074
905.607	0.0175072
905.685	0.0175533
905.763	0.0176009
905.841	0.0175539
905.919	0.0176699
905.997	0.0175634
906.075	0.0175217
906.154	0.0176353
906.232	0.0177792
906.310	0.0175478
906.388	0.0176682
906.466	0.0174586
906.544	0.0174696
906.622	0.0174616
906.700	0.0174776
906.779	0.0174642
906.857	0.0174579
906.935	0.0176088
907.013	0.0176127
907.091	0.0175678
907.169	0.0175614
907.247	0.0177743
907.325	0.0176840
907.404	0.0176692
907.482	0.0176479
907.560	0.0175709
907.638	0.0175449
907.716	0.0175861
907.794	0.0175714
907.872	0.0175952
907.950	0.0175485
908.029	0.0174735
908.107	0.0176198
908.185	0.0175394
908.263	0.0175773
908.341	0.0175100
908.419	0.0176031
908.497	0.0176501
908.575	0.0176638
908.654	0.0175202
908.732	0.0177599
908.810	0.0177200
908.888	0.0178201
908.966	0.0176599
909.044	0.0176742
909.122	0.0176959
909.200	0.0176757
909.279	0.0175919
909.357	0.0177087
909.435	0.0176109
909.513	0.0174887
909.591	0.0176380
909.669	0.0175540
909.747	0.0176116
909.825	0.0175588
909.904	0.0174306
909.982	0.0173898
910.060	0.0173240
910.138	0.0172159
910.216	0.0174937
910.294	0.0172405
910.372	0.0172780
910.450	0.0172576
910.529	0.0171748
910.607	0.0171609
910.685	0.0170118
910.763	0.0170447
910.841	0.0172089
910.919	0.0171301
910.997	0.0171776
911.075	0.0171278
911.154	0.0173438
911.232	0.0174734
911.310	0.0174503
911.388	0.0175114
911.466	0.0174492
911.544	0.0175682
911.622	0.0176591
911.700	0.0177618
911.779	0.0178779
911.857	0.0179897
911.935	0.0179984
912.013	0.0181195
912.091	0.0181268
912.169	0.0180952
912.247	0.0181149
912.325	0.0180864
912.404	0.0181354
912.482	0.0180451
912.560	0.0179317
912.638	0.0177635
912.716	0.0176823
912.794	0.0176345
912.872	0.0176121
912.950	0.0173877
913.029	0.0172619
913.107	0.0173299
913.185	0.0171940
913.263	0.0171719
913.341	0.0171923
913.419	0.0171640
913.497	0.0170241
913.575	0.0170609
913.654	0.0171175
913.732	0.0171996
913.810	0.0172397
913.888	0.0171712
913.966	0.0171317
914.044	0.0172679
914.122	0.0172314
914.200	0.0171776
914.279	0.0172534
914.357	0.0173365
914.435	0.0172504
914.513	0.0174288
914.591	0.0173837
914.669	0.0175945
914.747	0.0175031
914.825	0.0176017
914.904	0.0176710
914.982	0.0177274
915.060	0.0176630
915.138	0.0176086
915.216	0.0177602
915.294	0.0178216
915.372	0.0177807
915.450	0.0177788
915.529	0.0177692
915.607	0.0178226
915.685	0.0176925
915.763	0.0178157
915.841	0.0178418
915.919	0.0178355
915.997	0.0178919
916.075	0.0178608
916.154	0.0177517
916.232	0.0177194
916.310	0.0177716
916.388	0.0179238
916.466	0.0177866
916.544	0.0177218
916.622	0.0176395
916.700	0.0177613
916.779	0.0177368
916.857	0.0176609
916.935	0.0177033
917.013	0.0175769
917.091	0.0178590
917.169	0.0177514
917.247	0.0176935
917.325	0.0177014
917.404	0.0178133
917.482	0.0176936
917.560	0.0176714
917.638	0.0178118
917.716	0.0176850
917.794	0.0177442
917.872	0.0176929
917.950	0.0177592
918.029	0.0176968
918.107	0.0176316
918.185	0.0175370
918.263	0.0174856
918.341	0.0173681
918.419	0.0173544
918.497	0.0173596
918.575	0.0173639
918.654	0.0171229
918.732	0.0170593
918.810	0.0170742
918.888	0.0170914
918.966	0.0171265
919.044	0.0170531
919.122	0.0169655
919.200	0.0170779
919.279	0.0171056
919.357	0.0171852
919.435	0.0172677
919.513	0.0173329
919.591	0.0173845
919.669	0.0175096
919.747	0.0175173
919.825	0.0175053
919.904	0.0176151
