05/24/2022	20:12:13	Ver.	4.1	UNKNOWN
Optical Delay	599.988409	Delta X		0.078125	Sweeps	1	Scan Rate	0/0
Coordinates	Axis 1	NaN	Axis 2	NaN	Axis 3	NaN	Axis 4	NaN	Axis 5	NaN	Axis 6	0.000000
TX Power	0.000000	RX Power	0.000000

599.988	0.0173158
600.067	0.0173044
600.145	0.0173159
600.223	0.0172049
600.301	0.0171605
600.379	0.0174162
600.457	0.0172688
600.535	0.0172235
600.613	0.0173598
600.692	0.0174022
600.770	0.0173040
600.848	0.0173224
600.926	0.0171895
601.004	0.0172536
601.082	0.0173150
601.160	0.0173666
601.238	0.0172705
601.317	0.0172543
601.395	0.0171780
601.473	0.0172061
601.551	0.0173109
601.629	0.0172623
601.707	0.0172788
601.785	0.0173161
601.863	0.0173438
601.942	0.0173585
602.020	0.0172570
602.098	0.0172498
602.176	0.0172330
602.254	0.0173587
602.332	0.0173639
602.410	0.0173209
602.488	0.0172612
602.567	0.0172662
602.645	0.0171851
602.723	0.0174188
602.801	0.0172865
602.879	0.0171858
602.957	0.0172307
603.035	0.0171849
603.113	0.0173082
603.192	0.0172947
603.270	0.0173277
603.348	0.0173207
603.426	0.0171807
603.504	0.0173317
603.582	0.0173417
603.660	0.0171738
603.738	0.0172451
603.817	0.0171485
603.895	0.0173087
603.973	0.0173882
604.051	0.0172635
604.129	0.0172867
604.207	0.0172092
604.285	0.0171346
604.363	0.0172667
604.442	0.0175152
604.520	0.0172086
604.598	0.0172744
604.676	0.0173370
604.754	0.0173338
604.832	0.0173784
604.910	0.0172800
604.988	0.0172541
605.067	0.0172845
605.145	0.0172571
605.223	0.0172707
605.301	0.0173014
605.379	0.0173061
605.457	0.0171961
605.535	0.0173534
605.613	0.0170872
605.692	0.0172482
605.770	0.0171097
605.848	0.0170735
605.926	0.0174149
606.004	0.0173518
606.082	0.0172301
606.160	0.0171830
606.238	0.0171062
606.317	0.0172964
606.395	0.0172078
606.473	0.0171790
606.551	0.0172407
606.629	0.0172869
606.707	0.0172250
606.785	0.0171661
606.863	0.0171013
606.942	0.0172153
607.020	0.0173180
607.098	0.0172383
607.176	0.0172755
607.254	0.0173338
607.332	0.0173325
607.410	0.0172315
607.488	0.0172436
607.567	0.0172518
607.645	0.0173477
607.723	0.0172861
607.801	0.0171936
607.879	0.0172330
607.957	0.0171894
608.035	0.0173637
608.113	0.0173809
608.192	0.0172613
608.270	0.0173597
608.348	0.0172870
608.426	0.0172554
608.504	0.0170754
608.582	0.0172450
608.660	0.0172462
608.738	0.0172295
608.817	0.0173050
608.895	0.0173095
608.973	0.0172129
609.051	0.0172291
609.129	0.0170889
609.207	0.0172360
609.285	0.0171005
609.363	0.0172545
609.442	0.0171892
609.520	0.0171352
609.598	0.0172630
609.676	0.0173080
609.754	0.0172492
609.832	0.0172207
609.910	0.0171875
609.988	0.0173257
610.067	0.0172879
610.145	0.0172935
610.223	0.0172657
610.301	0.0173270
610.379	0.0173033
610.457	0.0172176
610.535	0.0171107
610.613	0.0173053
610.692	0.0173456
610.770	0.0174475
610.848	0.0174001
610.926	0.0174530
611.004	0.0172882
611.082	0.0173277
611.160	0.0173121
611.238	0.0173262
611.317	0.0174220
611.395	0.0172993
611.473	0.0171861
611.551	0.0172028
611.629	0.0173859
611.707	0.0173763
611.785	0.0173972
611.863	0.0172277
611.942	0.0172135
612.020	0.0173551
612.098	0.0173374
612.176	0.0173484
612.254	0.0172948
612.332	0.0171738
612.410	0.0172195
612.488	0.0172874
612.567	0.0171394
612.645	0.0171706
612.723	0.0171971
612.801	0.0172176
612.879	0.0172157
612.957	0.0172102
613.035	0.0170536
613.113	0.0172102
613.192	0.0172510
613.270	0.0171687
613.348	0.0171782
613.426	0.0171952
613.504	0.0172158
613.582	0.0171759
613.660	0.0171321
613.738	0.0172534
613.817	0.0171284
613.895	0.0171432
613.973	0.0172326
614.051	0.0172502
614.129	0.0173123
614.207	0.0172159
614.285	0.0173170
614.363	0.0174054
614.442	0.0173430
614.520	0.0173022
614.598	0.0173485
614.676	0.0172748
614.754	0.0172961
614.832	0.0173129
614.910	0.0174374
614.988	0.0173490
615.067	0.0172883
615.145	0.0173595
615.223	0.0172478
615.301	0.0172621
615.379	0.0171709
615.457	0.0172697
615.535	0.0173279
615.613	0.0172293
615.692	0.0172377
615.770	0.0172697
615.848	0.0173428
615.926	0.0173843
616.004	0.0172424
616.082	0.0172018
616.160	0.0171529
616.238	0.0172762
616.317	0.0173720
616.395	0.0172257
616.473	0.0173763
616.551	0.0172111
616.629	0.0171338
616.707	0.0172485
616.785	0.0173146
616.863	0.0172181
616.942	0.0172012
617.020	0.0172045
617.098	0.0172359
617.176	0.0172132
617.254	0.0173057
617.332	0.0172984
617.410	0.0170626
617.488	0.0172318
617.567	0.0174054
617.645	0.0172636
617.723	0.0172837
617.801	0.0172269
617.879	0.0172319
617.957	0.0172915
618.035	0.0172579
618.113	0.0173347
618.192	0.0172083
618.270	0.0172727
618.348	0.0173194
618.426	0.0172093
618.504	0.0172329
618.582	0.0174456
618.660	0.0172836
618.738	0.0173782
618.817	0.0172690
618.895	0.0173983
618.973	0.0173355
619.051	0.0173543
619.129	0.0171767
619.207	0.0172543
619.285	0.0172256
619.363	0.0172074
619.442	0.0173643
619.520	0.0173505
619.598	0.0173900
619.676	0.0172544
619.754	0.0173116
619.832	0.0172555
619.910	0.0173711
619.988	0.0171803
620.067	0.0172433
620.145	0.0172414
620.223	0.0172494
620.301	0.0172359
620.379	0.0171178
620.457	0.0172322
620.535	0.0172352
620.613	0.0170597
620.692	0.0171147
620.770	0.0172073
620.848	0.0170865
620.926	0.0171090
621.004	0.0171510
621.082	0.0171956
621.160	0.0173255
621.238	0.0171150
621.317	0.0171970
621.395	0.0172073
621.473	0.0173015
621.551	0.0171263
621.629	0.0172018
621.707	0.0172308
621.785	0.0171881
621.863	0.0173531
621.942	0.0172635
622.020	0.0172762
622.098	0.0172018
622.176	0.0172425
622.254	0.0173469
622.332	0.0172511
622.410	0.0173225
622.488	0.0172162
622.567	0.0173367
622.645	0.0172881
622.723	0.0172131
622.801	0.0172919
622.879	0.0173256
622.957	0.0173980
623.035	0.0172346
623.113	0.0171937
623.192	0.0172176
623.270	0.0172986
623.348	0.0171861
623.426	0.0171805
623.504	0.0173135
623.582	0.0172684
623.660	0.0171135
623.738	0.0171796
623.817	0.0172108
623.895	0.0172022
623.973	0.0172690
624.051	0.0173267
624.129	0.0171952
624.207	0.0171532
624.285	0.0172369
624.363	0.0173531
624.442	0.0171696
624.520	0.0171692
624.598	0.0171203
624.676	0.0171780
624.754	0.0171956
624.832	0.0171793
624.910	0.0172191
624.988	0.0173103
625.067	0.0171987
625.145	0.0171587
625.223	0.0171502
625.301	0.0173141
625.379	0.0171775
625.457	0.0172452
625.535	0.0171755
625.613	0.0171943
625.692	0.0172812
625.770	0.0171789
625.848	0.0171540
625.926	0.0174004
626.004	0.0171611
626.082	0.0171288
626.160	0.0171055
626.238	0.0171858
626.317	0.0172986
626.395	0.0172557
626.473	0.0170963
626.551	0.0174014
626.629	0.0173042
626.707	0.0172357
626.785	0.0173088
626.863	0.0172619
626.942	0.0172005
627.020	0.0171991
627.098	0.0172623
627.176	0.0172494
627.254	0.0172562
627.332	0.0171925
627.410	0.0170960
627.488	0.0171089
627.567	0.0173908
627.645	0.0172737
627.723	0.0171576
627.801	0.0171305
627.879	0.0171382
627.957	0.0171488
628.035	0.0171944
628.113	0.0173112
628.192	0.0172710
628.270	0.0172263
628.348	0.0173497
628.426	0.0172644
628.504	0.0172084
628.582	0.0171726
628.660	0.0171716
628.738	0.0172848
628.817	0.0173975
628.895	0.0171973
628.973	0.0171898
629.051	0.0172065
629.129	0.0172196
629.207	0.0172155
629.285	0.0171667
629.363	0.0172678
629.442	0.0174278
629.520	0.0173494
629.598	0.0172737
629.676	0.0171338
629.754	0.0171909
629.832	0.0172513
629.910	0.0172177
629.988	0.0172179
630.067	0.0172417
630.145	0.0172581
630.223	0.0172043
630.301	0.0172769
630.379	0.0173238
630.457	0.0172234
630.535	0.0172321
630.613	0.0173125
630.692	0.0171967
630.770	0.0172292
630.848	0.0172408
630.926	0.0173231
631.004	0.0173318
631.082	0.0172477
631.160	0.0173240
631.238	0.0172984
631.317	0.0171774
631.395	0.0172254
631.473	0.0172573
631.551	0.0173049
631.629	0.0170874
631.707	0.0172394
631.785	0.0172742
631.863	0.0171698
631.942	0.0172453
632.020	0.0172047
632.098	0.0173615
632.176	0.0172447
632.254	0.0172121
632.332	0.0171813
632.410	0.0174103
632.488	0.0172228
632.567	0.0171863
632.645	0.0173362
632.723	0.0172812
632.801	0.0172199
632.879	0.0171204
632.957	0.0172881
633.035	0.0172357
633.113	0.0173026
633.192	0.0172836
633.270	0.0171977
633.348	0.0171916
633.426	0.0172403
633.504	0.0171255
633.582	0.0172591
633.660	0.0172792
633.738	0.0171767
633.817	0.0172038
633.895	0.0173000
633.973	0.0174476
634.051	0.0173753
634.129	0.0173328
634.207	0.0172709
634.285	0.0172527
634.363	0.0173595
634.442	0.0173824
634.520	0.0172935
634.598	0.0173642
634.676	0.0172992
634.754	0.0172120
634.832	0.0172131
634.910	0.0173170
634.988	0.0172950
635.067	0.0172445
635.145	0.0173367
635.223	0.0173077
635.301	0.0172593
635.379	0.0173618
635.457	0.0172649
635.535	0.0173708
635.613	0.0172678
635.692	0.0171825
635.770	0.0172785
635.848	0.0173328
635.926	0.0172825
636.004	0.0172702
636.082	0.0172704
636.160	0.0171813
636.238	0.0171661
636.317	0.0172364
636.395	0.0171542
636.473	0.0172690
636.551	0.0173614
636.629	0.0172639
636.707	0.0172520
636.785	0.0173111
636.863	0.0172913
636.942	0.0172162
637.020	0.0173179
637.098	0.0173796
637.176	0.0171790
637.254	0.0173381
637.332	0.0171924
637.410	0.0171971
637.488	0.0173090
637.567	0.0171828
637.645	0.0172206
637.723	0.0172310
637.801	0.0173946
637.879	0.0173837
637.957	0.0173077
638.035	0.0173250
638.113	0.0173038
638.192	0.0172762
638.270	0.0172409
638.348	0.0172480
638.426	0.0172197
638.504	0.0172141
638.582	0.0173791
638.660	0.0173830
638.738	0.0172382
638.817	0.0173553
638.895	0.0174013
638.973	0.0172707
639.051	0.0172247
639.129	0.0172612
639.207	0.0172256
639.285	0.0173055
639.363	0.0171777
639.442	0.0172728
639.520	0.0171628
639.598	0.0172959
639.676	0.0172046
639.754	0.0171204
639.832	0.0172460
639.910	0.0171979
639.988	0.0173788
640.067	0.0171905
640.145	0.0172560
640.223	0.0172719
640.301	0.0173186
640.379	0.0171946
640.457	0.0172057
640.535	0.0173005
640.613	0.0173269
640.692	0.0173556
640.770	0.0172843
640.848	0.0173439
640.926	0.0171693
641.004	0.0172594
641.082	0.0173470
641.160	0.0172559
641.238	0.0172511
641.317	0.0171941
641.395	0.0173006
641.473	0.0172931
641.551	0.0171928
641.629	0.0172506
641.707	0.0172759
641.785	0.0173530
641.863	0.0173713
641.942	0.0173067
642.020	0.0172747
642.098	0.0172668
642.176	0.0173135
642.254	0.0172938
642.332	0.0171561
642.410	0.0174023
642.488	0.0173242
642.567	0.0171004
642.645	0.0171999
642.723	0.0172990
642.801	0.0173103
642.879	0.0171285
642.957	0.0171769
643.035	0.0173141
643.113	0.0172533
643.192	0.0172311
643.270	0.0172056
643.348	0.0173076
643.426	0.0172604
643.504	0.0172460
643.582	0.0172646
643.660	0.0173547
643.738	0.0171091
643.817	0.0170242
643.895	0.0171288
643.973	0.0172892
644.051	0.0172270
644.129	0.0172945
644.207	0.0174133
644.285	0.0172076
644.363	0.0172219
644.442	0.0172137
644.520	0.0172353
644.598	0.0172378
644.676	0.0171503
644.754	0.0172338
644.832	0.0173785
644.910	0.0172536
644.988	0.0171374
645.067	0.0172774
645.145	0.0172496
645.223	0.0172389
645.301	0.0172385
645.379	0.0172740
645.457	0.0171815
645.535	0.0173219
645.613	0.0172695
645.692	0.0173416
645.770	0.0172975
645.848	0.0172822
645.926	0.0171333
646.004	0.0173549
646.082	0.0173122
646.160	0.0173035
646.238	0.0172647
646.317	0.0172906
646.395	0.0173518
646.473	0.0172651
646.551	0.0172060
646.629	0.0171662
646.707	0.0173160
646.785	0.0171961
646.863	0.0172443
646.942	0.0172896
647.020	0.0172283
647.098	0.0170736
647.176	0.0172565
647.254	0.0172691
647.332	0.0172025
647.410	0.0172072
647.488	0.0173005
647.567	0.0173160
647.645	0.0173013
647.723	0.0171661
647.801	0.0170673
647.879	0.0172210
647.957	0.0174574
648.035	0.0171959
648.113	0.0172330
648.192	0.0171421
648.270	0.0171424
648.348	0.0173043
648.426	0.0172873
648.504	0.0172855
648.582	0.0171954
648.660	0.0173514
648.738	0.0172396
648.817	0.0171625
648.895	0.0171268
648.973	0.0172550
649.051	0.0171906
649.129	0.0172188
649.207	0.0171506
649.285	0.0171196
649.363	0.0171222
649.442	0.0172118
649.520	0.0174223
649.598	0.0171636
649.676	0.0172303
649.754	0.0173002
649.832	0.0172092
649.910	0.0171499
649.988	0.0172236
650.067	0.0172942
650.145	0.0173414
650.223	0.0171316
650.301	0.0171282
650.379	0.0172458
650.457	0.0171867
650.535	0.0172514
650.613	0.0172936
650.692	0.0172646
650.770	0.0173606
650.848	0.0172736
650.926	0.0172794
651.004	0.0170780
651.082	0.0171192
651.160	0.0172723
651.238	0.0172605
651.317	0.0173162
651.395	0.0171542
651.473	0.0171352
651.551	0.0172331
651.629	0.0172835
651.707	0.0173378
651.785	0.0172448
651.863	0.0171336
651.942	0.0172455
652.020	0.0173505
652.098	0.0171650
652.176	0.0171432
652.254	0.0172172
652.332	0.0173079
652.410	0.0172896
652.488	0.0173346
652.567	0.0172936
652.645	0.0172128
652.723	0.0172724
652.801	0.0173183
652.879	0.0172774
652.957	0.0173069
653.035	0.0173595
653.113	0.0171710
653.192	0.0172588
653.270	0.0173180
653.348	0.0172690
653.426	0.0171498
653.504	0.0172044
653.582	0.0172849
653.660	0.0172744
653.738	0.0173078
653.817	0.0173278
653.895	0.0172009
653.973	0.0171648
654.051	0.0172252
654.129	0.0173954
654.207	0.0173098
654.285	0.0171939
654.363	0.0172909
654.442	0.0172722
654.520	0.0172642
654.598	0.0172305
654.676	0.0173091
654.754	0.0171428
654.832	0.0172735
654.910	0.0173262
654.988	0.0174265
655.067	0.0172867
655.145	0.0171876
655.223	0.0172226
655.301	0.0173647
655.379	0.0173203
655.457	0.0172652
655.535	0.0172589
655.613	0.0173889
655.692	0.0173188
655.770	0.0172845
655.848	0.0172342
655.926	0.0173447
656.004	0.0173564
656.082	0.0171630
656.160	0.0171855
656.238	0.0171791
656.317	0.0171861
656.395	0.0173895
656.473	0.0171751
656.551	0.0172498
656.629	0.0172867
656.707	0.0172845
656.785	0.0172244
656.863	0.0173125
656.942	0.0172795
657.020	0.0173787
657.098	0.0172933
657.176	0.0172866
657.254	0.0173910
657.332	0.0172753
657.410	0.0173409
657.488	0.0173707
657.567	0.0173425
657.645	0.0174284
657.723	0.0173340
657.801	0.0173499
657.879	0.0173149
657.957	0.0172929
658.035	0.0173593
658.113	0.0171762
658.192	0.0172572
658.270	0.0173286
658.348	0.0173521
658.426	0.0173016
658.504	0.0172842
658.582	0.0172368
658.660	0.0172441
658.738	0.0172814
658.817	0.0172830
658.895	0.0173870
658.973	0.0172006
659.051	0.0171658
659.129	0.0174094
659.207	0.0173479
659.285	0.0172108
659.363	0.0171969
659.442	0.0172243
659.520	0.0172022
659.598	0.0172803
659.676	0.0172366
659.754	0.0172448
659.832	0.0172701
659.910	0.0172501
659.988	0.0173713
660.067	0.0172926
660.145	0.0171745
660.223	0.0172158
660.301	0.0172109
660.379	0.0173354
660.457	0.0173043
660.535	0.0172220
660.613	0.0173413
660.692	0.0172590
660.770	0.0173071
660.848	0.0173144
660.926	0.0173317
661.004	0.0172223
661.082	0.0170845
661.160	0.0171181
661.238	0.0173360
661.317	0.0173240
661.395	0.0173506
661.473	0.0171767
661.551	0.0173936
661.629	0.0173447
661.707	0.0172966
661.785	0.0174345
661.863	0.0173405
661.942	0.0173141
662.020	0.0171944
662.098	0.0172621
662.176	0.0172504
662.254	0.0171735
662.332	0.0173304
662.410	0.0172469
662.488	0.0173196
662.567	0.0171952
662.645	0.0170436
662.723	0.0171491
662.801	0.0172384
662.879	0.0172889
662.957	0.0172845
663.035	0.0173671
663.113	0.0171755
663.192	0.0171049
663.270	0.0171523
663.348	0.0172781
663.426	0.0173105
663.504	0.0172452
663.582	0.0173289
663.660	0.0171525
663.738	0.0173107
663.817	0.0171265
663.895	0.0172536
663.973	0.0174042
664.051	0.0172789
664.129	0.0173077
664.207	0.0173761
664.285	0.0171379
664.363	0.0172672
664.442	0.0173044
664.520	0.0172956
664.598	0.0172881
664.676	0.0172572
664.754	0.0171159
664.832	0.0173357
664.910	0.0171915
664.988	0.0171969
665.067	0.0171848
665.145	0.0172015
665.223	0.0171831
665.301	0.0172414
665.379	0.0173517
665.457	0.0172205
665.535	0.0171432
665.613	0.0173956
665.692	0.0173932
665.770	0.0172438
665.848	0.0172103
665.926	0.0173217
666.004	0.0172855
666.082	0.0172312
666.160	0.0172705
666.238	0.0171056
666.317	0.0171623
666.395	0.0174181
666.473	0.0173589
666.551	0.0172952
666.629	0.0173336
666.707	0.0172766
666.785	0.0172424
666.863	0.0173734
666.942	0.0171863
667.020	0.0172060
667.098	0.0172385
667.176	0.0173459
667.254	0.0172502
667.332	0.0171378
667.410	0.0171526
667.488	0.0172228
667.567	0.0172227
667.645	0.0172383
667.723	0.0172501
667.801	0.0172538
667.879	0.0173625
667.957	0.0172707
668.035	0.0172098
668.113	0.0173707
668.192	0.0173682
668.270	0.0172971
668.348	0.0172929
668.426	0.0173069
668.504	0.0172717
668.582	0.0171666
668.660	0.0172058
668.738	0.0172838
668.817	0.0171431
668.895	0.0172131
668.973	0.0172816
669.051	0.0173476
669.129	0.0172372
669.207	0.0171564
669.285	0.0173713
669.363	0.0173145
669.442	0.0171620
669.520	0.0173019
669.598	0.0171241
669.676	0.0172999
669.754	0.0172591
669.832	0.0172755
669.910	0.0173487
669.988	0.0172990
670.067	0.0173367
670.145	0.0173389
670.223	0.0172948
670.301	0.0172697
670.379	0.0172028
670.457	0.0171097
670.535	0.0172113
670.613	0.0171912
670.692	0.0173949
670.770	0.0172852
670.848	0.0171531
670.926	0.0172463
671.004	0.0173495
671.082	0.0174085
671.160	0.0171264
671.238	0.0170887
671.317	0.0172285
671.395	0.0172217
671.473	0.0172153
671.551	0.0171614
671.629	0.0172504
671.707	0.0174806
671.785	0.0171787
671.863	0.0172721
671.942	0.0171823
672.020	0.0171815
672.098	0.0171886
672.176	0.0171015
672.254	0.0171367
672.332	0.0173254
672.410	0.0173158
672.488	0.0171959
672.567	0.0171774
672.645	0.0172580
672.723	0.0172070
672.801	0.0171617
672.879	0.0171053
672.957	0.0171815
673.035	0.0171931
673.113	0.0171437
673.192	0.0173092
673.270	0.0173988
673.348	0.0172358
673.426	0.0171150
673.504	0.0174133
673.582	0.0172109
673.660	0.0172498
673.738	0.0172525
673.817	0.0173920
673.895	0.0173630
673.973	0.0171837
674.051	0.0172922
674.129	0.0174180
674.207	0.0174255
674.285	0.0173360
674.363	0.0173827
674.442	0.0173708
674.520	0.0175078
674.598	0.0176320
674.676	0.0174168
674.754	0.0174118
674.832	0.0174490
674.910	0.0175419
674.988	0.0175004
675.067	0.0172646
675.145	0.0172391
675.223	0.0172514
675.301	0.0170072
675.379	0.0171095
675.457	0.0171555
675.535	0.0169086
675.613	0.0169878
675.692	0.0168631
675.770	0.0167528
675.848	0.0167303
675.926	0.0166588
676.004	0.0167373
676.082	0.0166976
676.160	0.0165421
676.238	0.0165947
676.317	0.0166679
676.395	0.0167680
676.473	0.0167897
676.551	0.0168777
676.629	0.0171767
676.707	0.0171843
676.785	0.0172874
676.863	0.0176248
676.942	0.0175577
677.020	0.0174645
677.098	0.0176749
677.176	0.0178937
677.254	0.0178693
677.332	0.0177950
677.410	0.0180936
677.488	0.0180828
677.567	0.0180761
677.645	0.0182492
677.723	0.0182480
677.801	0.0182509
677.879	0.0181355
677.957	0.0180974
678.035	0.0181235
678.113	0.0180049
678.192	0.0177721
678.270	0.0174786
678.348	0.0174238
678.426	0.0174560
678.504	0.0173760
678.582	0.0172257
678.660	0.0171531
678.738	0.0171824
678.817	0.0170967
678.895	0.0169328
678.973	0.0170400
679.051	0.0169137
679.129	0.0166473
679.207	0.0165060
679.285	0.0162778
679.363	0.0161105
679.442	0.0161137
679.520	0.0161041
679.598	0.0160397
679.676	0.0159453
679.754	0.0160467
679.832	0.0161416
679.910	0.0160454
679.988	0.0159975
680.067	0.0159823
680.145	0.0160324
680.223	0.0159483
680.301	0.0159755
680.379	0.0160155
680.457	0.0161674
680.535	0.0165980
680.613	0.0168674
680.692	0.0172709
680.770	0.0177855
680.848	0.0183999
680.926	0.0188031
681.004	0.0190079
681.082	0.0194160
681.160	0.0196848
681.238	0.0196416
681.317	0.0195757
681.395	0.0194356
681.473	0.0192959
681.551	0.0191457
681.629	0.0190266
681.707	0.0187534
681.785	0.0184946
681.863	0.0184452
681.942	0.0181560
682.020	0.0178742
682.098	0.0175108
682.176	0.0172805
682.254	0.0171307
682.332	0.0168109
682.410	0.0164220
682.488	0.0163114
682.567	0.0162329
682.645	0.0160026
682.723	0.0159348
682.801	0.0159396
682.879	0.0158842
682.957	0.0159743
683.035	0.0162356
683.113	0.0163783
683.192	0.0167635
683.270	0.0168073
683.348	0.0173463
683.426	0.0176463
683.504	0.0179163
683.582	0.0182937
683.660	0.0187207
683.738	0.0192422
683.817	0.0195817
683.895	0.0199724
683.973	0.0202783
684.051	0.0203767
684.129	0.0203439
684.207	0.0200798
684.285	0.0195135
684.363	0.0187775
684.442	0.0180222
684.520	0.0168722
684.598	0.0154894
684.676	0.0141694
684.754	0.0127709
684.832	0.0116855
684.910	0.0104617
684.988	0.00992699
685.067	0.00960434
685.145	0.00937744
685.223	0.00971657
685.301	0.0103335
685.379	0.0112713
685.457	0.0124277
685.535	0.0136507
685.613	0.0150839
685.692	0.0163685
685.770	0.0178336
685.848	0.0190429
685.926	0.0202107
686.004	0.0214101
686.082	0.0223958
686.160	0.0231167
686.238	0.0235392
686.317	0.0238955
686.395	0.0242817
686.473	0.0244693
686.551	0.0246197
686.629	0.0245954
686.707	0.0244984
686.785	0.0243611
686.863	0.0243848
686.942	0.0241619
687.020	0.0239734
687.098	0.0237815
687.176	0.0234962
687.254	0.0230600
687.332	0.0226259
687.410	0.0219412
687.488	0.0209667
687.567	0.0199318
687.645	0.0187182
687.723	0.0172696
687.801	0.0157446
687.879	0.0142499
687.957	0.0126410
688.035	0.0110071
688.113	0.00938713
688.192	0.00781319
688.270	0.00636719
688.348	0.00501015
688.426	0.00393616
688.504	0.00317780
688.582	0.00242653
688.660	0.00217514
688.738	0.00199768
688.817	0.00261452
688.895	0.00327721
688.973	0.00451149
689.051	0.00626190
689.129	0.00819855
689.207	0.0105353
689.285	0.0132572
689.363	0.0161492
689.442	0.0191785
689.520	0.0220686
689.598	0.0249696
689.676	0.0275558
689.754	0.0297035
689.832	0.0314465
689.910	0.0326447
689.988	0.0334152
690.067	0.0336257
690.145	0.0333500
690.223	0.0325350
690.301	0.0316755
690.379	0.0305254
690.457	0.0292986
690.535	0.0279817
690.613	0.0267386
690.692	0.0254156
690.770	0.0243337
690.848	0.0233208
690.926	0.0223776
691.004	0.0216378
691.082	0.0208239
691.160	0.0198060
691.238	0.0188661
691.317	0.0179451
691.395	0.0167241
691.473	0.0153407
691.551	0.0137356
691.629	0.0119822
691.707	0.0102462
691.785	0.00832321
691.863	0.00650955
691.942	0.00472710
692.020	0.00334152
692.098	0.00202454
692.176	0.00105667
692.254	0.000500946
692.332	0.000171356
692.410	0.000175705
692.488	0.000495682
692.567	0.00134308
692.645	0.00240250
692.723	0.00404343
692.801	0.00580231
692.879	0.00789879
692.957	0.0101974
693.035	0.0129047
693.113	0.0154368
693.192	0.0181606
693.270	0.0210397
693.348	0.0236021
693.426	0.0262839
693.504	0.0287734
693.582	0.0307064
693.660	0.0322922
693.738	0.0335562
693.817	0.0341191
693.895	0.0342667
693.973	0.0338605
694.051	0.0330440
694.129	0.0320800
694.207	0.0307615
694.285	0.0292645
694.363	0.0279926
694.442	0.0265552
694.520	0.0252461
694.598	0.0239124
694.676	0.0229402
694.754	0.0217912
694.832	0.0209678
694.910	0.0200850
694.988	0.0193516
695.067	0.0184436
695.145	0.0174046
695.223	0.0161376
695.301	0.0147163
695.379	0.0133014
695.457	0.0116236
695.535	0.00989655
695.613	0.00837593
695.692	0.00688683
695.770	0.00564674
695.848	0.00453880
695.926	0.00386116
696.004	0.00332703
696.082	0.00329567
696.160	0.00345573
696.238	0.00395348
696.317	0.00488815
696.395	0.00588676
696.473	0.00724220
696.551	0.00878624
696.629	0.0105408
696.707	0.0121487
696.785	0.0140566
696.863	0.0156830
696.942	0.0174954
697.020	0.0190202
697.098	0.0203868
697.176	0.0214590
697.254	0.0222840
697.332	0.0231971
697.410	0.0237690
697.488	0.0240589
697.567	0.0240575
697.645	0.0239516
697.723	0.0238399
697.801	0.0234276
697.879	0.0232409
697.957	0.0228642
698.035	0.0228304
698.113	0.0226737
698.192	0.0228061
698.270	0.0228572
698.348	0.0231795
698.426	0.0235000
698.504	0.0238940
698.582	0.0240269
698.660	0.0240089
698.738	0.0239683
698.817	0.0236916
698.895	0.0232661
698.973	0.0226157
699.051	0.0215289
699.129	0.0204971
699.207	0.0190524
699.285	0.0176492
699.363	0.0160956
699.442	0.0144086
699.520	0.0130683
699.598	0.0117103
699.676	0.0107092
699.754	0.0100957
699.832	0.00949242
699.910	0.00901855
699.988	0.00879936
700.067	0.00903336
700.145	0.00916870
700.223	0.00967484
700.301	0.0103094
700.379	0.0110594
700.457	0.0116984
700.535	0.0127187
700.613	0.0135445
700.692	0.0144211
700.770	0.0154131
700.848	0.0160961
700.926	0.0166174
701.004	0.0173220
701.082	0.0178786
701.160	0.0182846
701.238	0.0185880
701.317	0.0188448
701.395	0.0189053
701.473	0.0189561
701.551	0.0190814
701.629	0.0189522
701.707	0.0188897
701.785	0.0188663
701.863	0.0188055
701.942	0.0188277
702.020	0.0188634
702.098	0.0189056
702.176	0.0191055
702.254	0.0194532
702.332	0.0196212
702.410	0.0198019
702.488	0.0199335
702.567	0.0201706
702.645	0.0204346
702.723	0.0203240
702.801	0.0205304
702.879	0.0203542
702.957	0.0202895
703.035	0.0200934
703.113	0.0198259
703.192	0.0194781
703.270	0.0190280
703.348	0.0186126
703.426	0.0182674
703.504	0.0176818
703.582	0.0171178
703.660	0.0166989
703.738	0.0163206
703.817	0.0158651
703.895	0.0154417
703.973	0.0152023
704.051	0.0148014
704.129	0.0145741
704.207	0.0146590
704.285	0.0146108
704.363	0.0147394
704.442	0.0148860
704.520	0.0150324
704.598	0.0152555
704.676	0.0156439
704.754	0.0159424
704.832	0.0162080
704.910	0.0165060
704.988	0.0167713
705.067	0.0168396
705.145	0.0167350
705.223	0.0169334
705.301	0.0170643
705.379	0.0169772
705.457	0.0170962
705.535	0.0171598
705.613	0.0172404
705.692	0.0174971
705.770	0.0177656
705.848	0.0180309
705.926	0.0181123
706.004	0.0183865
706.082	0.0185659
706.160	0.0185691
706.238	0.0185802
706.317	0.0186734
706.395	0.0184924
706.473	0.0183915
706.551	0.0181944
706.629	0.0179193
706.707	0.0177242
706.785	0.0174677
706.863	0.0172880
706.942	0.0169757
707.020	0.0169178
707.098	0.0166718
707.176	0.0164596
707.254	0.0164251
707.332	0.0161202
707.410	0.0160205
707.488	0.0159156
707.567	0.0160063
707.645	0.0159438
707.723	0.0160965
707.801	0.0162957
707.879	0.0163654
707.957	0.0164997
708.035	0.0166689
708.113	0.0169858
708.192	0.0172595
708.270	0.0174615
708.348	0.0177036
708.426	0.0179292
708.504	0.0179366
708.582	0.0179408
708.660	0.0181229
708.738	0.0180241
708.817	0.0177735
708.895	0.0176044
708.973	0.0175578
709.051	0.0174119
709.129	0.0171555
709.207	0.0171589
709.285	0.0171120
709.363	0.0169947
709.442	0.0170236
709.520	0.0171284
709.598	0.0172034
709.676	0.0173646
709.754	0.0175130
709.832	0.0176624
709.910	0.0178925
709.988	0.0180955
710.067	0.0184283
710.145	0.0186464
710.223	0.0187962
710.301	0.0187021
710.379	0.0189420
710.457	0.0190438
710.535	0.0189979
710.613	0.0186721
710.692	0.0184142
710.770	0.0180573
710.848	0.0178942
710.926	0.0176027
711.004	0.0169294
711.082	0.0167953
711.160	0.0165445
711.238	0.0163014
711.317	0.0159708
711.395	0.0159206
711.473	0.0157906
711.551	0.0157697
711.629	0.0158275
711.707	0.0158661
711.785	0.0159322
711.863	0.0160077
711.942	0.0159267
712.020	0.0162153
712.098	0.0161764
712.176	0.0163065
712.254	0.0164568
712.332	0.0164342
712.410	0.0163705
712.488	0.0165421
712.567	0.0166247
712.645	0.0167302
712.723	0.0167506
712.801	0.0167757
712.879	0.0168887
712.957	0.0171394
713.035	0.0170522
713.113	0.0171333
713.192	0.0173726
713.270	0.0173539
713.348	0.0173946
713.426	0.0173631
713.504	0.0175182
713.582	0.0175240
713.660	0.0176952
713.738	0.0177983
713.817	0.0177776
713.895	0.0180990
713.973	0.0180286
714.051	0.0181168
714.129	0.0180054
714.207	0.0180515
714.285	0.0180395
714.363	0.0179568
714.442	0.0177409
714.520	0.0178130
714.598	0.0177975
714.676	0.0175119
714.754	0.0174312
714.832	0.0172768
714.910	0.0171863
714.988	0.0171696
715.067	0.0172515
715.145	0.0173265
715.223	0.0172617
715.301	0.0174300
715.379	0.0175549
715.457	0.0176390
715.535	0.0178727
715.613	0.0181023
715.692	0.0180275
715.770	0.0180203
715.848	0.0181384
715.926	0.0182105
716.004	0.0179383
716.082	0.0177402
716.160	0.0174384
716.238	0.0171883
716.317	0.0169305
716.395	0.0167992
716.473	0.0165765
716.551	0.0165708
716.629	0.0163810
716.707	0.0164074
716.785	0.0166759
716.863	0.0168714
716.942	0.0171072
717.020	0.0174867
717.098	0.0178368
717.176	0.0181718
717.254	0.0184589
717.332	0.0185130
717.410	0.0186430
717.488	0.0186685
717.567	0.0186060
717.645	0.0185149
717.723	0.0181222
717.801	0.0178836
717.879	0.0173318
717.957	0.0169437
718.035	0.0166061
718.113	0.0160873
718.192	0.0157240
718.270	0.0153849
718.348	0.0152065
718.426	0.0148496
718.504	0.0146686
718.582	0.0147694
718.660	0.0147731
718.738	0.0147475
718.817	0.0149954
718.895	0.0152507
718.973	0.0154636
719.051	0.0158781
719.129	0.0160799
719.207	0.0165607
719.285	0.0169070
719.363	0.0173370
719.442	0.0175146
719.520	0.0178866
719.598	0.0181814
719.676	0.0182813
719.754	0.0183147
719.832	0.0183692
719.910	0.0183533
719.988	0.0183308
720.067	0.0184176
720.145	0.0183590
720.223	0.0181568
720.301	0.0180531
720.379	0.0177529
720.457	0.0178618
720.535	0.0179640
720.613	0.0178867
720.692	0.0179564
720.770	0.0179739
720.848	0.0181053
720.926	0.0182333
721.004	0.0182752
721.082	0.0182311
721.160	0.0184574
721.238	0.0186344
721.317	0.0185892
721.395	0.0185302
721.473	0.0185477
721.551	0.0185441
721.629	0.0185192
721.707	0.0183833
721.785	0.0183448
721.863	0.0180931
721.942	0.0178719
722.020	0.0177132
722.098	0.0176934
722.176	0.0173792
722.254	0.0171864
722.332	0.0170033
722.410	0.0168779
722.488	0.0168074
722.567	0.0167609
722.645	0.0165844
722.723	0.0165926
722.801	0.0164810
722.879	0.0164252
722.957	0.0164895
723.035	0.0164876
723.113	0.0162680
723.192	0.0162565
723.270	0.0162685
723.348	0.0161752
723.426	0.0160850
723.504	0.0160261
723.582	0.0160824
723.660	0.0159773
723.738	0.0158274
723.817	0.0160364
723.895	0.0160571
723.973	0.0160361
724.051	0.0161080
724.129	0.0162110
724.207	0.0164144
724.285	0.0166494
724.363	0.0167255
724.442	0.0169138
724.520	0.0173142
724.598	0.0173865
724.676	0.0176978
724.754	0.0178912
724.832	0.0180573
724.910	0.0182103
724.988	0.0182275
725.067	0.0182568
725.145	0.0181898
725.223	0.0181429
725.301	0.0180238
725.379	0.0179502
725.457	0.0179121
725.535	0.0177072
725.613	0.0176585
725.692	0.0175576
725.770	0.0176411
725.848	0.0175707
725.926	0.0175962
726.004	0.0174953
726.082	0.0177029
726.160	0.0176968
726.238	0.0179517
726.317	0.0179158
726.395	0.0179896
726.473	0.0180504
726.551	0.0180705
726.629	0.0181680
726.707	0.0181206
726.785	0.0180873
726.863	0.0179518
726.942	0.0178148
727.020	0.0178822
727.098	0.0177052
727.176	0.0176067
727.254	0.0173431
727.332	0.0171725
727.410	0.0171295
727.488	0.0168777
727.567	0.0170000
727.645	0.0168804
727.723	0.0168880
727.801	0.0168468
727.879	0.0167983
727.957	0.0167642
728.035	0.0167736
728.113	0.0170036
728.192	0.0169943
728.270	0.0169601
728.348	0.0171444
728.426	0.0170221
728.504	0.0171111
728.582	0.0170689
728.660	0.0169155
728.738	0.0170280
728.817	0.0167688
728.895	0.0168700
728.973	0.0168156
729.051	0.0166039
729.129	0.0165035
729.207	0.0164521
729.285	0.0164893
729.363	0.0166093
729.442	0.0164822
729.520	0.0164942
729.598	0.0166197
729.676	0.0167719
729.754	0.0168899
729.832	0.0171459
729.910	0.0172079
729.988	0.0172878
730.067	0.0175119
730.145	0.0174251
730.223	0.0174719
730.301	0.0176876
730.379	0.0175964
730.457	0.0175682
730.535	0.0172962
730.613	0.0172358
730.692	0.0170900
730.770	0.0170467
730.848	0.0170097
730.926	0.0168780
731.004	0.0166840
731.082	0.0168224
731.160	0.0168199
731.238	0.0171343
731.317	0.0170446
731.395	0.0173063
731.473	0.0174524
731.551	0.0176339
731.629	0.0178465
731.707	0.0179622
731.785	0.0181025
731.863	0.0181216
731.942	0.0180990
732.020	0.0180614
732.098	0.0180739
732.176	0.0179467
732.254	0.0179322
732.332	0.0178127
732.410	0.0178941
732.488	0.0176559
732.567	0.0174859
732.645	0.0174014
732.723	0.0173853
732.801	0.0172095
732.879	0.0172723
732.957	0.0170924
733.035	0.0171711
733.113	0.0170171
733.192	0.0169941
733.270	0.0168295
733.348	0.0168720
733.426	0.0168880
733.504	0.0168153
733.582	0.0166803
733.660	0.0166920
733.738	0.0167368
733.817	0.0168410
733.895	0.0167760
733.973	0.0169029
734.051	0.0170271
734.129	0.0170992
734.207	0.0170815
734.285	0.0173504
734.363	0.0173460
734.442	0.0172700
734.520	0.0174081
734.598	0.0174716
734.676	0.0173759
734.754	0.0173513
734.832	0.0172801
734.910	0.0171062
734.988	0.0171262
735.067	0.0171683
735.145	0.0171690
735.223	0.0170338
735.301	0.0169839
735.379	0.0169714
735.457	0.0168721
735.535	0.0169394
735.613	0.0169941
735.692	0.0170600
735.770	0.0169469
735.848	0.0170889
735.926	0.0172454
736.004	0.0173276
736.082	0.0174693
736.160	0.0173217
736.238	0.0175034
736.317	0.0176026
736.395	0.0175746
736.473	0.0176121
736.551	0.0177094
736.629	0.0178320
736.707	0.0178374
736.785	0.0179304
736.863	0.0179408
736.942	0.0178079
737.020	0.0177464
737.098	0.0178322
737.176	0.0178332
737.254	0.0175985
737.332	0.0177081
737.410	0.0173900
737.488	0.0172337
737.567	0.0173212
737.645	0.0170177
737.723	0.0169621
737.801	0.0169536
737.879	0.0168063
737.957	0.0168198
738.035	0.0166790
738.113	0.0166673
738.192	0.0164262
738.270	0.0166087
738.348	0.0166048
738.426	0.0165366
738.504	0.0167410
738.582	0.0167273
738.660	0.0167687
738.738	0.0167946
738.817	0.0169278
738.895	0.0172170
738.973	0.0172108
739.051	0.0173377
739.129	0.0173959
739.207	0.0174576
739.285	0.0174986
739.363	0.0177039
739.442	0.0176762
739.520	0.0175471
739.598	0.0175957
739.676	0.0176720
739.754	0.0174203
739.832	0.0174289
739.910	0.0174329
739.988	0.0173869
740.067	0.0172397
740.145	0.0172824
740.223	0.0174184
740.301	0.0173265
740.379	0.0173238
740.457	0.0174703
740.535	0.0174671
740.613	0.0175969
740.692	0.0177668
740.770	0.0179253
740.848	0.0180034
740.926	0.0180698
741.004	0.0181318
741.082	0.0179672
741.160	0.0179291
741.238	0.0180296
741.317	0.0178596
741.395	0.0177522
741.473	0.0178275
741.551	0.0176447
741.629	0.0172923
741.707	0.0173038
741.785	0.0170555
741.863	0.0170508
741.942	0.0170008
742.020	0.0169550
742.098	0.0168109
742.176	0.0168690
742.254	0.0168056
742.332	0.0169080
742.410	0.0171271
742.488	0.0170476
742.567	0.0171037
742.645	0.0170672
742.723	0.0172552
742.801	0.0172996
742.879	0.0172721
742.957	0.0173495
743.035	0.0174374
743.113	0.0174214
743.192	0.0173827
743.270	0.0175434
743.348	0.0172521
743.426	0.0171680
743.504	0.0173224
743.582	0.0172236
743.660	0.0170985
743.738	0.0171156
743.817	0.0170677
743.895	0.0172394
743.973	0.0171668
744.051	0.0170888
744.129	0.0171880
744.207	0.0170897
744.285	0.0171639
744.363	0.0173743
744.442	0.0172263
744.520	0.0172990
744.598	0.0174315
744.676	0.0174859
744.754	0.0174444
744.832	0.0175709
744.910	0.0174319
744.988	0.0175496
745.067	0.0176151
745.145	0.0175492
745.223	0.0173621
745.301	0.0173676
745.379	0.0173763
745.457	0.0173158
745.535	0.0172945
745.613	0.0171957
745.692	0.0174100
745.770	0.0174173
745.848	0.0173315
745.926	0.0174402
746.004	0.0174771
746.082	0.0174658
746.160	0.0175755
746.238	0.0174247
746.317	0.0176465
746.395	0.0176168
746.473	0.0176365
746.551	0.0175541
746.629	0.0176704
746.707	0.0176202
746.785	0.0176864
746.863	0.0175945
746.942	0.0176632
747.020	0.0175968
747.098	0.0177032
747.176	0.0176389
747.254	0.0174905
747.332	0.0175787
747.410	0.0173811
747.488	0.0175276
747.567	0.0175883
747.645	0.0173870
747.723	0.0174886
747.801	0.0173894
747.879	0.0172964
747.957	0.0172754
748.035	0.0174118
748.113	0.0172171
748.192	0.0171834
748.270	0.0171368
748.348	0.0171941
748.426	0.0171453
748.504	0.0168732
748.582	0.0168757
748.660	0.0169865
748.738	0.0168710
748.817	0.0167590
748.895	0.0166565
748.973	0.0166353
749.051	0.0165335
749.129	0.0166698
749.207	0.0167049
749.285	0.0164879
749.363	0.0166148
749.442	0.0166389
749.520	0.0167839
749.598	0.0167098
749.676	0.0169349
749.754	0.0170037
749.832	0.0169461
749.910	0.0171031
749.988	0.0171864
750.067	0.0171726
750.145	0.0174104
750.223	0.0175600
750.301	0.0172217
750.379	0.0174364
750.457	0.0176323
750.535	0.0175287
750.613	0.0174184
750.692	0.0173808
750.770	0.0173026
750.848	0.0172887
750.926	0.0172567
751.004	0.0171828
751.082	0.0173069
751.160	0.0173045
751.238	0.0173401
751.317	0.0174731
751.395	0.0177330
751.473	0.0178593
751.551	0.0178822
751.629	0.0180199
751.707	0.0180394
751.785	0.0180534
751.863	0.0182299
751.942	0.0184264
752.020	0.0181413
752.098	0.0181596
752.176	0.0181098
752.254	0.0180112
752.332	0.0179761
752.410	0.0176871
752.488	0.0174314
752.567	0.0173602
752.645	0.0172934
752.723	0.0170884
752.801	0.0168631
752.879	0.0167696
752.957	0.0168551
753.035	0.0167728
753.113	0.0166220
753.192	0.0167429
753.270	0.0166784
753.348	0.0166203
753.426	0.0166984
753.504	0.0166937
753.582	0.0169023
753.660	0.0168336
753.738	0.0168883
753.817	0.0168107
753.895	0.0168254
753.973	0.0169267
754.051	0.0168359
754.129	0.0169987
754.207	0.0168655
754.285	0.0166840
754.363	0.0168343
754.442	0.0167239
754.520	0.0168222
754.598	0.0167593
754.676	0.0168989
754.754	0.0170210
754.832	0.0170263
754.910	0.0170516
754.988	0.0172404
755.067	0.0172826
755.145	0.0172913
755.223	0.0175419
755.301	0.0175758
755.379	0.0175513
755.457	0.0175059
755.535	0.0176396
755.613	0.0177742
755.692	0.0176163
755.770	0.0176158
755.848	0.0175272
755.926	0.0174857
756.004	0.0174237
756.082	0.0173547
756.160	0.0172129
756.238	0.0172260
756.317	0.0174587
756.395	0.0175113
756.473	0.0172100
756.551	0.0175114
756.629	0.0173679
756.707	0.0174323
756.785	0.0176154
756.863	0.0177738
756.942	0.0176495
757.020	0.0178647
757.098	0.0177705
757.176	0.0177952
757.254	0.0177734
757.332	0.0176868
757.410	0.0176613
757.488	0.0176950
757.567	0.0174734
757.645	0.0172543
757.723	0.0172673
757.801	0.0171544
757.879	0.0169645
757.957	0.0170148
758.035	0.0170018
758.113	0.0167126
758.192	0.0167461
758.270	0.0166566
758.348	0.0167455
758.426	0.0170140
758.504	0.0169585
758.582	0.0169129
758.660	0.0169839
758.738	0.0170397
758.817	0.0172041
758.895	0.0170509
758.973	0.0172397
759.051	0.0171975
759.129	0.0172097
759.207	0.0172736
759.285	0.0172744
759.363	0.0171868
759.442	0.0172225
759.520	0.0171832
759.598	0.0171339
759.676	0.0170932
759.754	0.0170179
759.832	0.0169632
759.910	0.0170906
759.988	0.0170898
760.067	0.0170306
760.145	0.0169549
760.223	0.0170505
760.301	0.0171882
760.379	0.0172575
760.457	0.0172171
760.535	0.0172350
760.613	0.0172315
760.692	0.0171215
760.770	0.0173531
760.848	0.0173152
760.926	0.0173161
761.004	0.0173847
761.082	0.0172256
761.160	0.0172595
761.238	0.0171056
761.317	0.0172289
761.395	0.0172395
761.473	0.0172167
761.551	0.0170217
761.629	0.0172168
761.707	0.0172642
761.785	0.0173799
761.863	0.0174677
761.942	0.0174613
762.020	0.0174376
762.098	0.0173414
762.176	0.0176741
762.254	0.0176371
762.332	0.0176456
762.410	0.0175767
762.488	0.0176031
762.567	0.0175455
762.645	0.0175987
762.723	0.0173291
762.801	0.0172814
762.879	0.0173120
762.957	0.0172876
763.035	0.0172601
763.113	0.0171154
763.192	0.0171385
763.270	0.0170148
763.348	0.0169464
763.426	0.0170354
763.504	0.0169937
763.582	0.0168984
763.660	0.0169461
763.738	0.0170022
763.817	0.0170361
763.895	0.0170010
763.973	0.0170653
764.051	0.0170847
764.129	0.0172013
764.207	0.0173160
764.285	0.0172771
764.363	0.0172490
764.442	0.0171760
764.520	0.0172529
764.598	0.0174215
764.676	0.0173154
764.754	0.0173112
764.832	0.0174660
764.910	0.0175388
764.988	0.0174033
765.067	0.0174147
765.145	0.0173663
765.223	0.0172807
765.301	0.0174786
765.379	0.0173653
765.457	0.0173962
765.535	0.0175132
765.613	0.0175316
765.692	0.0173640
765.770	0.0175484
765.848	0.0176172
765.926	0.0173882
766.004	0.0175175
766.082	0.0175011
766.160	0.0175152
766.238	0.0176666
766.317	0.0175185
766.395	0.0175566
766.473	0.0174566
766.551	0.0176312
766.629	0.0174988
766.707	0.0173324
766.785	0.0173376
766.863	0.0172793
766.942	0.0172980
767.020	0.0171246
767.098	0.0170973
767.176	0.0170254
767.254	0.0169423
767.332	0.0169512
767.410	0.0169238
767.488	0.0167916
767.567	0.0169516
767.645	0.0166671
767.723	0.0168343
767.801	0.0169040
767.879	0.0168232
767.957	0.0167545
768.035	0.0167298
768.113	0.0168658
768.192	0.0167487
768.270	0.0167659
768.348	0.0167898
768.426	0.0168695
768.504	0.0167200
768.582	0.0166617
768.660	0.0169989
768.738	0.0170242
768.817	0.0169845
768.895	0.0172426
768.973	0.0172896
769.051	0.0173711
769.129	0.0172609
769.207	0.0174232
769.285	0.0174606
769.363	0.0175356
769.442	0.0178278
769.520	0.0177272
769.598	0.0176449
769.676	0.0176429
769.754	0.0178085
769.832	0.0178085
769.910	0.0178457
769.988	0.0176959
770.067	0.0176501
770.145	0.0176817
770.223	0.0174811
770.301	0.0174423
770.379	0.0175353
770.457	0.0172843
770.535	0.0173957
770.613	0.0173873
770.692	0.0172768
770.770	0.0172008
770.848	0.0172025
770.926	0.0171654
771.004	0.0172366
771.082	0.0173705
771.160	0.0173631
771.238	0.0173576
771.317	0.0174390
771.395	0.0174070
771.473	0.0174596
771.551	0.0173106
771.629	0.0173782
771.707	0.0174363
771.785	0.0173260
771.863	0.0174418
771.942	0.0175294
772.020	0.0175717
772.098	0.0173664
772.176	0.0172905
772.254	0.0173133
772.332	0.0172083
772.410	0.0172890
772.488	0.0172204
772.567	0.0171626
772.645	0.0172084
772.723	0.0171105
772.801	0.0171414
772.879	0.0170933
772.957	0.0171402
773.035	0.0170738
773.113	0.0169158
773.192	0.0170571
773.270	0.0170866
773.348	0.0170417
773.426	0.0171851
773.504	0.0170319
773.582	0.0168740
773.660	0.0168483
773.738	0.0167651
773.817	0.0168835
773.895	0.0169656
773.973	0.0169831
774.051	0.0170571
774.129	0.0169707
774.207	0.0168343
774.285	0.0169270
774.363	0.0170300
774.442	0.0170212
774.520	0.0169622
774.598	0.0169505
774.676	0.0171677
774.754	0.0172239
774.832	0.0171255
774.910	0.0171475
774.988	0.0172063
775.067	0.0173161
775.145	0.0173055
775.223	0.0172512
775.301	0.0172817
775.379	0.0172525
775.457	0.0173644
775.535	0.0173142
775.613	0.0172678
775.692	0.0174158
775.770	0.0173700
775.848	0.0173322
775.926	0.0173473
776.004	0.0173662
776.082	0.0173979
776.160	0.0172958
776.238	0.0175851
776.317	0.0176089
776.395	0.0175736
776.473	0.0175641
776.551	0.0174883
776.629	0.0174158
776.707	0.0175183
776.785	0.0177081
776.863	0.0176624
776.942	0.0173512
777.020	0.0177063
777.098	0.0176630
777.176	0.0174874
777.254	0.0174856
777.332	0.0175253
777.410	0.0173831
777.488	0.0174344
777.567	0.0174614
777.645	0.0174712
777.723	0.0173928
777.801	0.0173711
777.879	0.0173032
777.957	0.0171952
778.035	0.0171664
778.113	0.0172137
778.192	0.0170526
778.270	0.0171187
778.348	0.0170991
778.426	0.0170119
778.504	0.0169196
778.582	0.0171189
778.660	0.0169643
778.738	0.0169071
778.817	0.0169883
778.895	0.0169527
778.973	0.0168040
779.051	0.0167804
779.129	0.0169392
779.207	0.0169968
779.285	0.0169717
779.363	0.0168829
779.442	0.0169820
779.520	0.0170322
779.598	0.0170277
779.676	0.0170503
779.754	0.0170172
779.832	0.0171882
779.910	0.0171259
779.988	0.0172154
780.067	0.0172539
780.145	0.0172618
780.223	0.0172849
780.301	0.0174636
780.379	0.0172935
780.457	0.0171751
780.535	0.0172722
780.613	0.0173067
780.692	0.0171395
780.770	0.0170614
780.848	0.0170152
780.926	0.0170582
781.004	0.0168746
781.082	0.0167765
781.160	0.0168851
781.238	0.0166106
781.317	0.0167394
781.395	0.0165131
781.473	0.0165213
781.551	0.0167332
781.629	0.0165283
781.707	0.0165799
781.785	0.0165881
781.863	0.0167064
781.942	0.0168927
782.020	0.0168526
782.098	0.0171104
782.176	0.0171148
782.254	0.0174274
782.332	0.0175648
782.410	0.0175193
782.488	0.0178588
782.567	0.0177946
782.645	0.0180007
782.723	0.0180617
782.801	0.0181949
782.879	0.0182639
782.957	0.0182349
783.035	0.0183203
783.113	0.0182400
783.192	0.0182021
783.270	0.0183826
783.348	0.0182537
783.426	0.0181744
783.504	0.0181831
783.582	0.0180618
783.660	0.0179609
783.738	0.0179280
783.817	0.0178679
783.895	0.0178046
783.973	0.0178179
784.051	0.0176357
784.129	0.0175214
784.207	0.0173315
784.285	0.0171282
784.363	0.0170366
784.442	0.0170086
784.520	0.0167767
784.598	0.0167705
784.676	0.0164234
784.754	0.0163529
784.832	0.0161376
784.910	0.0158714
784.988	0.0157666
785.067	0.0158130
785.145	0.0155610
785.223	0.0156856
785.301	0.0157773
785.379	0.0156612
785.457	0.0157677
785.535	0.0159621
785.613	0.0160859
785.692	0.0163116
785.770	0.0165788
785.848	0.0169068
785.926	0.0172050
786.004	0.0173707
786.082	0.0174654
786.160	0.0177345
786.238	0.0179560
786.317	0.0180964
786.395	0.0182808
786.473	0.0183031
786.551	0.0184188
786.629	0.0185487
786.707	0.0184290
786.785	0.0184664
786.863	0.0185709
786.942	0.0186106
787.020	0.0184119
787.098	0.0183692
787.176	0.0184152
787.254	0.0183834
787.332	0.0179618
787.410	0.0179565
787.488	0.0179261
787.567	0.0176069
787.645	0.0173707
787.723	0.0170713
787.801	0.0167999
787.879	0.0168040
787.957	0.0164954
788.035	0.0162135
788.113	0.0163264
788.192	0.0160250
788.270	0.0160256
788.348	0.0159626
788.426	0.0158094
788.504	0.0158542
788.582	0.0157028
788.660	0.0157547
788.738	0.0156702
788.817	0.0157679
788.895	0.0159949
788.973	0.0159637
789.051	0.0161919
789.129	0.0162510
789.207	0.0164287
789.285	0.0166102
789.363	0.0167456
789.442	0.0170168
789.520	0.0171664
789.598	0.0172346
789.676	0.0175484
789.754	0.0178105
789.832	0.0181129
789.910	0.0180970
789.988	0.0182567
790.067	0.0183238
790.145	0.0183957
790.223	0.0184923
790.301	0.0186781
790.379	0.0185847
790.457	0.0186732
790.535	0.0186705
790.613	0.0185679
790.692	0.0186143
790.770	0.0184555
790.848	0.0184372
790.926	0.0184155
791.004	0.0184272
791.082	0.0183498
791.160	0.0182722
791.238	0.0180457
791.317	0.0177589
791.395	0.0176775
791.473	0.0175145
791.551	0.0173212
791.629	0.0171804
791.707	0.0169043
791.785	0.0169118
791.863	0.0167085
791.942	0.0166434
792.020	0.0165887
792.098	0.0164757
792.176	0.0163052
792.254	0.0162778
792.332	0.0163620
792.410	0.0165507
792.488	0.0163182
792.567	0.0161999
792.645	0.0162952
792.723	0.0162907
792.801	0.0162956
792.879	0.0164020
792.957	0.0164386
793.035	0.0163165
793.113	0.0163379
793.192	0.0163984
793.270	0.0164490
793.348	0.0165754
793.426	0.0165563
793.504	0.0166384
793.582	0.0167542
793.660	0.0168520
793.738	0.0170126
793.817	0.0169373
793.895	0.0170903
793.973	0.0172204
794.051	0.0174045
794.129	0.0175327
794.207	0.0175182
794.285	0.0174620
794.363	0.0176527
794.442	0.0176649
794.520	0.0176173
794.598	0.0176488
794.676	0.0177956
794.754	0.0178701
794.832	0.0177930
794.910	0.0178700
794.988	0.0179591
795.067	0.0180490
795.145	0.0179615
795.223	0.0178854
795.301	0.0177453
795.379	0.0178368
795.457	0.0178370
795.535	0.0178835
795.613	0.0176021
795.692	0.0174854
795.770	0.0175510
795.848	0.0174809
795.926	0.0175007
796.004	0.0173531
796.082	0.0174899
796.160	0.0174182
796.238	0.0172725
796.317	0.0173393
796.395	0.0172862
796.473	0.0173947
796.551	0.0172960
796.629	0.0171561
796.707	0.0171611
796.785	0.0170858
796.863	0.0169373
796.942	0.0170531
797.020	0.0169108
797.098	0.0169254
797.176	0.0168970
797.254	0.0166834
797.332	0.0166275
797.410	0.0164928
797.488	0.0166235
797.567	0.0167930
797.645	0.0167825
797.723	0.0167110
797.801	0.0166151
797.879	0.0167683
797.957	0.0168179
798.035	0.0168233
798.113	0.0168062
798.192	0.0168563
798.270	0.0171681
798.348	0.0170586
798.426	0.0170398
798.504	0.0172597
798.582	0.0173392
798.660	0.0173923
798.738	0.0174899
798.817	0.0175517
798.895	0.0176552
798.973	0.0176359
799.051	0.0176730
799.129	0.0178336
799.207	0.0177198
799.285	0.0177196
799.363	0.0177372
799.442	0.0176942
799.520	0.0178921
799.598	0.0177012
799.676	0.0177142
799.754	0.0176308
799.832	0.0175132
799.910	0.0174966
799.988	0.0174133
800.067	0.0174355
800.145	0.0174504
800.223	0.0172943
800.301	0.0172248
800.379	0.0171571
800.457	0.0171466
800.535	0.0171225
800.613	0.0170693
800.692	0.0171301
800.770	0.0169601
800.848	0.0168536
800.926	0.0168269
801.004	0.0167230
801.082	0.0168191
801.160	0.0168418
801.238	0.0168124
801.317	0.0166373
801.395	0.0169157
801.473	0.0170360
801.551	0.0168564
801.629	0.0169723
801.707	0.0169929
801.785	0.0170905
801.863	0.0172309
801.942	0.0172344
802.020	0.0173116
802.098	0.0172530
802.176	0.0173569
802.254	0.0174440
802.332	0.0174585
802.410	0.0174744
802.488	0.0174720
802.567	0.0174357
802.645	0.0173864
802.723	0.0174463
802.801	0.0173215
802.879	0.0172559
802.957	0.0171888
803.035	0.0172459
803.113	0.0172421
803.192	0.0172121
803.270	0.0171068
803.348	0.0170441
803.426	0.0171580
803.504	0.0171115
803.582	0.0170918
803.660	0.0172265
803.738	0.0173095
803.817	0.0172537
803.895	0.0171423
803.973	0.0173724
804.051	0.0173273
804.129	0.0172768
804.207	0.0173336
804.285	0.0173690
804.363	0.0174566
804.442	0.0174495
804.520	0.0173338
804.598	0.0173839
804.676	0.0174487
804.754	0.0172514
804.832	0.0173857
804.910	0.0175077
804.988	0.0174390
805.067	0.0173287
805.145	0.0171747
805.223	0.0171851
805.301	0.0171977
805.379	0.0171499
805.457	0.0170348
805.535	0.0169000
805.613	0.0170545
805.692	0.0169839
805.770	0.0170900
805.848	0.0171938
805.926	0.0170589
806.004	0.0171584
806.082	0.0172182
806.160	0.0171858
806.238	0.0171786
806.317	0.0174164
806.395	0.0174250
806.473	0.0174478
806.551	0.0173273
806.629	0.0175790
806.707	0.0175873
806.785	0.0175695
806.863	0.0176321
806.942	0.0175195
807.020	0.0173175
807.098	0.0174576
807.176	0.0174200
807.254	0.0174850
807.332	0.0173655
807.410	0.0172800
807.488	0.0173975
807.567	0.0171857
807.645	0.0172910
807.723	0.0171821
807.801	0.0172758
807.879	0.0171993
807.957	0.0171507
808.035	0.0171730
808.113	0.0172240
808.192	0.0172000
808.270	0.0172386
808.348	0.0171319
808.426	0.0171001
808.504	0.0171192
808.582	0.0171609
808.660	0.0172136
808.738	0.0171423
808.817	0.0171158
808.895	0.0169787
808.973	0.0171410
809.051	0.0170936
809.129	0.0169682
809.207	0.0168926
809.285	0.0169918
809.363	0.0168211
809.442	0.0170189
809.520	0.0168717
809.598	0.0168207
809.676	0.0169629
809.754	0.0168429
809.832	0.0168240
809.910	0.0169336
809.988	0.0170007
810.067	0.0172173
810.145	0.0171261
810.223	0.0171910
810.301	0.0173116
810.379	0.0173937
810.457	0.0172707
810.535	0.0174870
810.613	0.0176168
810.692	0.0176591
810.770	0.0175413
810.848	0.0174787
810.926	0.0176470
811.004	0.0175510
811.082	0.0175356
811.160	0.0176026
811.238	0.0175635
811.317	0.0174632
811.395	0.0175138
811.473	0.0176032
811.551	0.0174029
811.629	0.0173975
811.707	0.0174909
811.785	0.0175444
811.863	0.0175053
811.942	0.0176408
812.020	0.0177370
812.098	0.0175873
812.176	0.0176503
812.254	0.0176901
812.332	0.0176991
812.410	0.0174590
812.488	0.0175510
812.567	0.0174220
812.645	0.0174229
812.723	0.0173246
812.801	0.0172784
812.879	0.0172554
812.957	0.0170239
813.035	0.0170594
813.113	0.0170756
813.192	0.0171233
813.270	0.0169070
813.348	0.0170576
813.426	0.0171847
813.504	0.0171292
813.582	0.0170411
813.660	0.0170424
813.738	0.0170428
813.817	0.0172305
813.895	0.0171183
813.973	0.0173314
814.051	0.0172149
814.129	0.0170982
814.207	0.0172601
814.285	0.0171933
814.363	0.0172676
814.442	0.0171331
814.520	0.0169913
814.598	0.0172336
814.676	0.0169583
814.754	0.0169576
814.832	0.0168465
814.910	0.0167555
814.988	0.0167604
815.067	0.0168726
815.145	0.0168299
815.223	0.0168081
815.301	0.0167175
815.379	0.0168713
815.457	0.0170446
815.535	0.0169479
815.613	0.0170747
815.692	0.0173396
815.770	0.0174391
815.848	0.0175475
815.926	0.0176875
816.004	0.0177187
816.082	0.0176983
816.160	0.0178706
816.238	0.0179389
816.317	0.0178271
816.395	0.0177468
816.473	0.0178813
816.551	0.0178113
816.629	0.0178107
816.707	0.0177419
816.785	0.0176659
816.863	0.0176079
816.942	0.0175234
817.020	0.0174811
817.098	0.0174002
817.176	0.0173756
817.254	0.0173164
817.332	0.0174454
817.410	0.0174061
817.488	0.0174026
817.567	0.0174403
817.645	0.0173637
817.723	0.0172579
817.801	0.0171752
817.879	0.0172504
817.957	0.0172810
818.035	0.0171595
818.113	0.0171303
818.192	0.0171244
818.270	0.0170005
818.348	0.0170286
818.426	0.0169846
818.504	0.0168618
818.582	0.0168816
818.660	0.0167860
818.738	0.0168784
818.817	0.0169662
818.895	0.0169666
818.973	0.0171082
819.051	0.0170559
819.129	0.0171489
819.207	0.0172394
819.285	0.0171862
819.363	0.0175243
819.442	0.0176598
819.520	0.0175587
819.598	0.0176870
819.676	0.0176683
819.754	0.0176671
819.832	0.0176000
819.910	0.0175564
819.988	0.0175395
820.067	0.0175984
820.145	0.0175015
820.223	0.0173266
820.301	0.0173781
820.379	0.0172503
820.457	0.0172360
820.535	0.0170812
820.613	0.0171774
820.692	0.0171796
820.770	0.0171159
820.848	0.0170078
820.926	0.0170692
821.004	0.0171471
821.082	0.0170526
821.160	0.0170313
821.238	0.0171930
821.317	0.0171374
821.395	0.0170975
821.473	0.0171899
821.551	0.0171590
821.629	0.0171371
821.707	0.0172858
821.785	0.0173698
821.863	0.0172063
821.942	0.0172577
822.020	0.0173308
822.098	0.0172851
822.176	0.0173652
822.254	0.0173617
822.332	0.0172642
822.410	0.0174049
822.488	0.0174174
822.567	0.0173636
822.645	0.0173729
822.723	0.0175227
822.801	0.0176504
822.879	0.0174736
822.957	0.0175066
823.035	0.0175455
823.113	0.0175406
823.192	0.0175047
823.270	0.0175996
823.348	0.0176031
823.426	0.0175435
823.504	0.0175982
823.582	0.0174870
823.660	0.0174741
823.738	0.0175922
823.817	0.0173745
823.895	0.0173155
823.973	0.0172566
824.051	0.0173912
824.129	0.0170453
824.207	0.0170233
824.285	0.0171288
824.363	0.0169695
824.442	0.0169746
824.520	0.0168636
824.598	0.0168634
824.676	0.0168472
824.754	0.0169019
824.832	0.0168883
824.910	0.0168033
824.988	0.0168449
825.067	0.0169633
825.145	0.0169093
825.223	0.0169550
825.301	0.0169596
825.379	0.0169481
825.457	0.0170401
825.535	0.0169309
825.613	0.0169967
825.692	0.0171538
825.770	0.0171411
825.848	0.0173359
825.926	0.0172065
826.004	0.0172417
826.082	0.0173489
826.160	0.0172932
826.238	0.0172536
826.317	0.0172618
826.395	0.0171804
826.473	0.0172447
826.551	0.0174597
826.629	0.0172903
826.707	0.0173410
826.785	0.0172924
826.863	0.0173859
826.942	0.0174170
827.020	0.0174429
827.098	0.0174763
827.176	0.0174722
827.254	0.0175008
827.332	0.0174416
827.410	0.0174236
827.488	0.0174901
827.567	0.0175051
827.645	0.0173404
827.723	0.0174428
827.801	0.0173367
827.879	0.0174703
827.957	0.0176163
828.035	0.0174554
828.113	0.0174133
828.192	0.0173903
828.270	0.0172958
828.348	0.0172950
828.426	0.0173467
828.504	0.0173828
828.582	0.0174542
828.660	0.0172547
828.738	0.0172769
828.817	0.0174585
828.895	0.0174200
828.973	0.0173935
829.051	0.0173718
829.129	0.0174106
829.207	0.0174622
829.285	0.0172129
829.363	0.0174104
829.442	0.0172284
829.520	0.0171866
829.598	0.0171444
829.676	0.0171100
829.754	0.0170928
829.832	0.0170085
829.910	0.0168073
829.988	0.0169929
830.067	0.0168541
830.145	0.0168401
830.223	0.0168130
830.301	0.0168622
830.379	0.0167873
830.457	0.0168392
830.535	0.0167021
830.613	0.0169118
830.692	0.0167781
830.770	0.0167516
830.848	0.0168475
830.926	0.0170504
831.004	0.0168975
831.082	0.0170033
831.160	0.0169850
831.238	0.0169849
831.317	0.0170404
831.395	0.0172292
831.473	0.0172745
831.551	0.0173003
831.629	0.0175227
831.707	0.0174769
831.785	0.0177261
831.863	0.0177062
831.942	0.0176456
832.020	0.0175487
832.098	0.0177277
832.176	0.0177407
832.254	0.0176723
832.332	0.0178551
832.410	0.0177588
832.488	0.0176226
832.567	0.0177837
832.645	0.0178312
832.723	0.0178162
832.801	0.0176740
832.879	0.0177943
832.957	0.0177396
833.035	0.0176877
833.113	0.0176599
833.192	0.0176611
833.270	0.0174806
833.348	0.0174880
833.426	0.0176124
833.504	0.0174684
833.582	0.0173539
833.660	0.0172495
833.738	0.0172622
833.817	0.0171465
833.895	0.0170483
833.973	0.0169408
834.051	0.0168300
834.129	0.0168819
834.207	0.0168711
834.285	0.0166756
834.363	0.0168007
834.442	0.0167839
834.520	0.0168505
834.598	0.0167305
834.676	0.0168872
834.754	0.0168296
834.832	0.0168762
834.910	0.0170175
834.988	0.0168629
835.067	0.0171090
835.145	0.0172058
835.223	0.0170014
835.301	0.0171250
835.379	0.0170735
835.457	0.0171486
835.535	0.0171328
835.613	0.0172124
835.692	0.0171984
835.770	0.0172124
835.848	0.0173793
835.926	0.0173116
836.004	0.0174171
836.082	0.0173603
836.160	0.0174237
836.238	0.0173463
836.317	0.0174819
836.395	0.0175780
836.473	0.0175297
836.551	0.0175465
836.629	0.0175723
836.707	0.0174896
836.785	0.0175011
836.863	0.0174704
836.942	0.0175545
837.020	0.0175459
837.098	0.0175688
837.176	0.0175892
837.254	0.0175838
837.332	0.0175706
837.410	0.0176351
837.488	0.0175356
837.567	0.0176122
837.645	0.0174544
837.723	0.0174538
837.801	0.0175302
837.879	0.0174432
837.957	0.0173592
838.035	0.0172406
838.113	0.0173031
838.192	0.0171378
838.270	0.0171738
838.348	0.0171030
838.426	0.0169354
838.504	0.0168172
838.582	0.0168474
838.660	0.0169552
838.738	0.0169397
838.817	0.0167316
838.895	0.0168336
838.973	0.0168920
839.051	0.0168401
839.129	0.0166981
839.207	0.0167715
839.285	0.0169464
839.363	0.0168394
839.442	0.0168324
839.520	0.0170385
839.598	0.0170456
839.676	0.0170521
839.754	0.0170821
839.832	0.0171209
839.910	0.0172025
839.988	0.0172680
840.067	0.0174190
840.145	0.0172248
840.223	0.0173149
840.301	0.0175977
840.379	0.0173420
840.457	0.0174970
840.535	0.0174133
840.613	0.0174053
840.692	0.0174796
840.770	0.0175215
840.848	0.0175811
840.926	0.0175959
841.004	0.0174488
841.082	0.0175565
841.160	0.0176325
841.238	0.0175980
841.317	0.0176693
841.395	0.0175066
841.473	0.0176235
841.551	0.0176138
841.629	0.0174335
841.707	0.0175759
841.785	0.0174200
841.863	0.0173785
841.942	0.0173412
842.020	0.0173846
842.098	0.0175246
842.176	0.0174242
842.254	0.0173077
842.332	0.0173283
842.410	0.0173407
842.488	0.0173335
842.567	0.0171296
842.645	0.0172295
842.723	0.0171670
842.801	0.0170917
842.879	0.0171587
842.957	0.0172586
843.035	0.0171252
843.113	0.0172076
843.192	0.0171534
843.270	0.0173098
843.348	0.0172303
843.426	0.0172667
843.504	0.0173174
843.582	0.0172829
843.660	0.0172118
843.738	0.0173612
843.817	0.0173324
843.895	0.0173643
843.973	0.0171991
844.051	0.0172855
844.129	0.0173095
844.207	0.0173131
844.285	0.0172102
844.363	0.0172466
844.442	0.0171791
844.520	0.0172297
844.598	0.0172813
844.676	0.0172453
844.754	0.0171410
844.832	0.0171297
844.910	0.0171219
844.988	0.0170700
845.067	0.0171378
845.145	0.0170866
845.223	0.0172266
845.301	0.0172106
845.379	0.0171337
845.457	0.0170721
845.535	0.0171969
845.613	0.0172890
845.692	0.0171358
845.770	0.0170887
845.848	0.0172227
845.926	0.0172674
846.004	0.0171481
846.082	0.0171554
846.160	0.0172053
846.238	0.0173157
846.317	0.0173418
846.395	0.0172238
846.473	0.0173126
846.551	0.0173165
846.629	0.0172703
846.707	0.0172444
846.785	0.0172895
846.863	0.0174958
846.942	0.0172746
847.020	0.0174509
847.098	0.0174783
847.176	0.0174169
847.254	0.0173745
847.332	0.0174442
847.410	0.0173797
847.488	0.0174051
847.567	0.0174740
847.645	0.0173809
847.723	0.0174581
847.801	0.0174386
847.879	0.0173211
847.957	0.0173625
848.035	0.0173804
848.113	0.0173883
848.192	0.0174216
848.270	0.0173174
848.348	0.0172920
848.426	0.0172286
848.504	0.0173682
848.582	0.0172765
848.660	0.0173436
848.738	0.0174062
848.817	0.0172397
848.895	0.0171289
848.973	0.0171298
849.051	0.0171738
849.129	0.0171130
849.207	0.0172884
849.285	0.0171481
849.363	0.0171986
849.442	0.0171404
849.520	0.0171021
849.598	0.0171363
849.676	0.0171613
849.754	0.0170797
849.832	0.0172049
849.910	0.0171793
849.988	0.0171988
850.067	0.0171823
850.145	0.0172631
850.223	0.0170910
850.301	0.0172372
850.379	0.0171944
850.457	0.0172481
850.535	0.0171947
850.613	0.0170407
850.692	0.0172485
850.770	0.0172578
850.848	0.0172621
850.926	0.0172225
851.004	0.0171362
851.082	0.0171878
851.160	0.0170957
851.238	0.0172337
851.317	0.0173335
851.395	0.0171243
851.473	0.0170738
851.551	0.0171128
851.629	0.0171353
851.707	0.0171934
851.785	0.0171774
851.863	0.0172141
851.942	0.0172285
852.020	0.0171838
852.098	0.0172259
852.176	0.0171773
852.254	0.0171986
852.332	0.0171932
852.410	0.0172613
852.488	0.0174022
852.567	0.0172372
852.645	0.0173441
852.723	0.0171951
852.801	0.0173837
852.879	0.0173642
852.957	0.0173242
853.035	0.0172620
853.113	0.0171873
853.192	0.0171524
853.270	0.0173152
853.348	0.0173683
853.426	0.0172486
853.504	0.0173482
853.582	0.0172615
853.660	0.0173527
853.738	0.0173470
853.817	0.0172860
853.895	0.0172147
853.973	0.0173110
854.051	0.0173782
854.129	0.0173592
854.207	0.0173525
854.285	0.0172052
854.363	0.0174504
854.442	0.0173861
854.520	0.0172679
854.598	0.0172365
854.676	0.0173138
854.754	0.0173991
854.832	0.0173241
854.910	0.0172483
854.988	0.0172540
855.067	0.0174169
855.145	0.0173605
855.223	0.0173197
855.301	0.0173167
855.379	0.0173624
855.457	0.0172252
855.535	0.0174265
855.613	0.0172741
855.692	0.0171373
855.770	0.0172237
855.848	0.0171259
855.926	0.0171696
856.004	0.0171042
856.082	0.0172952
856.160	0.0173862
856.238	0.0171135
856.317	0.0170399
856.395	0.0170845
856.473	0.0171417
856.551	0.0169173
856.629	0.0169997
856.707	0.0170895
856.785	0.0171436
856.863	0.0170478
856.942	0.0171594
857.020	0.0171060
857.098	0.0171439
857.176	0.0171631
857.254	0.0173339
857.332	0.0171626
857.410	0.0171539
857.488	0.0172754
857.567	0.0172783
857.645	0.0172021
857.723	0.0170554
857.801	0.0170335
857.879	0.0170979
857.957	0.0170245
858.035	0.0170970
858.113	0.0169427
858.192	0.0171024
858.270	0.0170007
858.348	0.0170063
858.426	0.0170670
858.504	0.0170267
858.582	0.0172050
858.660	0.0170644
858.738	0.0170242
858.817	0.0170528
858.895	0.0171181
858.973	0.0171559
859.051	0.0172636
859.129	0.0170702
859.207	0.0172162
859.285	0.0171938
859.363	0.0174257
859.442	0.0173389
859.520	0.0173930
859.598	0.0174184
859.676	0.0174586
859.754	0.0173080
859.832	0.0174603
859.910	0.0173885
859.988	0.0174088
860.067	0.0175294
860.145	0.0174894
860.223	0.0174138
860.301	0.0172803
860.379	0.0173808
860.457	0.0172800
860.535	0.0173382
860.613	0.0172163
860.692	0.0171848
860.770	0.0173478
860.848	0.0171963
860.926	0.0172124
861.004	0.0171480
861.082	0.0171723
861.160	0.0171015
861.238	0.0173267
861.317	0.0171770
861.395	0.0172786
861.473	0.0171405
861.551	0.0171623
861.629	0.0172269
861.707	0.0171432
861.785	0.0171994
861.863	0.0170521
861.942	0.0171289
862.020	0.0171243
862.098	0.0172441
862.176	0.0170451
862.254	0.0171276
862.332	0.0170495
862.410	0.0170868
862.488	0.0170155
862.567	0.0171645
862.645	0.0172037
862.723	0.0171692
862.801	0.0171985
862.879	0.0171804
862.957	0.0173781
863.035	0.0171857
863.113	0.0173638
863.192	0.0173247
863.270	0.0172557
863.348	0.0171266
863.426	0.0172328
863.504	0.0173321
863.582	0.0173328
863.660	0.0173112
863.738	0.0172993
863.817	0.0172295
863.895	0.0170265
863.973	0.0171329
864.051	0.0170729
864.129	0.0171718
864.207	0.0170718
864.285	0.0171078
864.363	0.0172108
864.442	0.0172215
864.520	0.0171388
864.598	0.0170824
864.676	0.0169419
864.754	0.0171738
864.832	0.0171354
864.910	0.0169823
864.988	0.0170019
865.067	0.0169889
865.145	0.0170817
865.223	0.0170609
865.301	0.0171021
865.379	0.0172511
865.457	0.0173949
865.535	0.0172205
865.613	0.0172702
865.692	0.0174770
865.770	0.0174359
865.848	0.0173939
865.926	0.0174998
866.004	0.0172479
866.082	0.0173936
866.160	0.0174985
866.238	0.0173702
866.317	0.0175536
866.395	0.0175245
866.473	0.0174818
866.551	0.0174131
866.629	0.0173322
866.707	0.0173608
866.785	0.0172898
866.863	0.0173777
866.942	0.0175439
867.020	0.0174311
867.098	0.0173182
867.176	0.0174057
867.254	0.0173006
867.332	0.0173552
867.410	0.0172561
867.488	0.0172568
867.567	0.0173177
867.645	0.0172157
867.723	0.0171597
867.801	0.0170695
867.879	0.0171517
867.957	0.0170660
868.035	0.0170602
868.113	0.0170393
868.192	0.0169754
868.270	0.0169325
868.348	0.0169524
868.426	0.0170831
868.504	0.0171481
868.582	0.0170726
868.660	0.0171305
868.738	0.0170693
868.817	0.0171986
868.895	0.0171846
868.973	0.0172023
869.051	0.0170940
869.129	0.0172089
869.207	0.0172864
869.285	0.0172958
869.363	0.0173691
869.442	0.0174638
869.520	0.0174904
869.598	0.0174952
869.676	0.0174866
869.754	0.0174453
869.832	0.0174194
869.910	0.0174381
869.988	0.0174250
870.067	0.0173080
870.145	0.0173337
870.223	0.0173457
870.301	0.0174477
870.379	0.0174052
870.457	0.0174053
870.535	0.0174503
870.613	0.0173475
870.692	0.0174293
870.770	0.0172955
870.848	0.0172475
870.926	0.0173684
871.004	0.0173730
871.082	0.0171032
871.160	0.0172745
871.238	0.0171752
871.317	0.0171240
871.395	0.0172383
871.473	0.0170933
871.551	0.0169193
871.629	0.0169584
871.707	0.0168763
871.785	0.0169618
871.863	0.0168870
871.942	0.0168384
872.020	0.0167530
872.098	0.0167703
872.176	0.0168108
872.254	0.0170085
872.332	0.0169820
872.410	0.0171618
872.488	0.0170159
872.567	0.0170862
872.645	0.0172814
872.723	0.0173074
872.801	0.0174464
872.879	0.0174584
872.957	0.0176140
873.035	0.0175525
873.113	0.0176211
873.192	0.0174525
873.270	0.0175195
873.348	0.0176500
873.426	0.0176163
873.504	0.0175867
873.582	0.0176625
873.660	0.0175684
873.738	0.0174976
873.817	0.0175936
873.895	0.0174898
873.973	0.0175272
874.051	0.0174807
874.129	0.0174081
874.207	0.0174394
874.285	0.0174759
874.363	0.0174709
874.442	0.0174160
874.520	0.0174023
874.598	0.0173863
874.676	0.0173594
874.754	0.0173701
874.832	0.0172921
874.910	0.0173399
874.988	0.0172334
875.067	0.0171542
875.145	0.0172186
875.223	0.0173419
875.301	0.0173014
875.379	0.0172327
875.457	0.0172061
875.535	0.0171064
875.613	0.0172052
875.692	0.0172878
875.770	0.0173080
875.848	0.0171677
875.926	0.0170748
876.004	0.0171687
876.082	0.0171136
876.160	0.0170114
876.238	0.0168824
876.317	0.0167311
876.395	0.0166956
876.473	0.0166431
876.551	0.0165114
876.629	0.0165535
876.707	0.0165076
876.785	0.0164429
876.863	0.0166238
876.942	0.0167625
877.020	0.0167905
877.098	0.0169543
877.176	0.0170556
877.254	0.0172046
877.332	0.0175260
877.410	0.0176206
877.488	0.0175414
877.567	0.0177901
877.645	0.0179798
877.723	0.0181205
877.801	0.0180933
877.879	0.0180743
877.957	0.0179921
878.035	0.0181271
878.113	0.0182045
878.192	0.0181374
878.270	0.0179264
878.348	0.0179036
878.426	0.0178112
878.504	0.0176691
878.582	0.0176568
878.660	0.0175611
878.738	0.0175018
878.817	0.0174696
878.895	0.0175008
878.973	0.0173933
879.051	0.0171431
879.129	0.0170627
879.207	0.0170544
879.285	0.0169462
879.363	0.0169216
879.442	0.0167668
879.520	0.0166213
879.598	0.0166566
879.676	0.0164668
879.754	0.0162426
879.832	0.0164148
879.910	0.0162748
879.988	0.0161990
880.067	0.0161466
880.145	0.0162050
880.223	0.0161621
880.301	0.0159894
880.379	0.0162994
880.457	0.0164539
880.535	0.0164067
880.613	0.0165919
880.692	0.0168630
880.770	0.0171226
880.848	0.0173186
880.926	0.0177053
881.004	0.0177910
881.082	0.0181779
881.160	0.0184206
881.238	0.0186494
881.317	0.0186746
881.395	0.0189059
881.473	0.0188999
881.551	0.0189368
881.629	0.0187818
881.707	0.0186303
881.785	0.0183447
881.863	0.0180425
881.942	0.0178201
882.020	0.0175820
882.098	0.0172469
882.176	0.0170108
882.254	0.0168569
882.332	0.0168720
882.410	0.0166579
882.488	0.0164983
882.567	0.0165569
882.645	0.0165658
882.723	0.0167792
882.801	0.0168685
882.879	0.0168607
882.957	0.0169650
883.035	0.0169297
883.113	0.0169701
883.192	0.0169585
883.270	0.0169913
883.348	0.0169005
883.426	0.0167822
883.504	0.0166320
883.582	0.0167293
883.660	0.0165972
883.738	0.0164199
883.817	0.0164645
883.895	0.0162374
883.973	0.0163096
884.051	0.0163766
884.129	0.0162364
884.207	0.0163408
884.285	0.0164270
884.363	0.0166026
884.442	0.0167212
884.520	0.0168816
884.598	0.0171574
884.676	0.0174559
884.754	0.0177946
884.832	0.0177144
884.910	0.0180889
884.988	0.0182603
885.067	0.0184299
885.145	0.0186672
885.223	0.0187782
885.301	0.0186720
885.379	0.0186902
885.457	0.0186227
885.535	0.0184491
885.613	0.0183621
885.692	0.0181870
885.770	0.0179539
885.848	0.0176747
885.926	0.0172462
886.004	0.0173421
886.082	0.0171421
886.160	0.0169371
886.238	0.0170342
886.317	0.0168630
886.395	0.0170671
886.473	0.0169714
886.551	0.0169693
886.629	0.0170493
886.707	0.0171040
886.785	0.0170851
886.863	0.0173452
886.942	0.0171453
887.020	0.0170697
887.098	0.0171412
887.176	0.0171030
887.254	0.0170777
887.332	0.0168671
887.410	0.0167723
887.488	0.0167100
887.567	0.0165846
887.645	0.0166385
887.723	0.0163873
887.801	0.0162820
887.879	0.0164032
887.957	0.0164012
888.035	0.0164790
888.113	0.0163625
888.192	0.0165331
888.270	0.0166746
888.348	0.0168077
888.426	0.0169967
888.504	0.0171150
888.582	0.0174884
888.660	0.0175609
888.738	0.0177695
888.817	0.0177968
888.895	0.0178304
888.973	0.0179667
889.051	0.0178393
889.129	0.0178239
889.207	0.0179182
889.285	0.0178493
889.363	0.0177773
889.442	0.0179302
889.520	0.0175919
889.598	0.0175984
889.676	0.0176906
889.754	0.0175134
889.832	0.0176030
889.910	0.0175114
889.988	0.0175110
890.067	0.0176077
890.145	0.0177139
890.223	0.0177366
890.301	0.0178501
890.379	0.0177201
890.457	0.0177245
890.535	0.0177045
890.613	0.0173975
890.692	0.0173030
890.770	0.0173009
890.848	0.0170741
890.926	0.0170130
891.004	0.0169709
891.082	0.0168214
891.160	0.0164795
891.238	0.0164959
891.317	0.0164965
891.395	0.0164546
891.473	0.0163499
891.551	0.0163008
891.629	0.0164262
891.707	0.0166164
891.785	0.0166588
891.863	0.0168964
891.942	0.0168322
892.020	0.0168924
892.098	0.0170251
892.176	0.0171857
892.254	0.0172407
892.332	0.0175295
892.410	0.0175122
892.488	0.0176189
892.567	0.0177779
892.645	0.0177171
892.723	0.0177100
892.801	0.0177361
892.879	0.0176603
892.957	0.0178773
893.035	0.0179234
893.113	0.0176928
893.192	0.0177300
893.270	0.0177138
893.348	0.0175672
893.426	0.0174953
893.504	0.0173923
893.582	0.0174488
893.660	0.0174415
893.738	0.0174142
893.817	0.0172969
893.895	0.0172894
893.973	0.0173236
894.051	0.0173537
894.129	0.0173963
894.207	0.0174655
894.285	0.0174905
894.363	0.0174140
894.442	0.0173555
894.520	0.0173626
894.598	0.0174178
894.676	0.0173082
894.754	0.0173283
894.832	0.0173740
894.910	0.0171471
894.988	0.0173684
895.067	0.0171111
895.145	0.0172265
895.223	0.0171635
895.301	0.0170065
895.379	0.0169897
895.457	0.0169404
895.535	0.0168745
895.613	0.0168851
895.692	0.0170341
895.770	0.0169228
895.848	0.0169814
895.926	0.0170404
896.004	0.0169991
896.082	0.0169675
896.160	0.0169077
896.238	0.0172078
896.317	0.0170168
896.395	0.0172341
896.473	0.0170911
896.551	0.0172134
896.629	0.0172157
896.707	0.0173349
896.785	0.0172715
896.863	0.0172721
896.942	0.0173787
897.020	0.0173946
897.098	0.0174129
897.176	0.0174902
897.254	0.0174529
897.332	0.0174301
897.410	0.0174087
897.488	0.0174689
897.567	0.0174866
897.645	0.0175391
897.723	0.0175900
897.801	0.0175603
897.879	0.0174040
897.957	0.0174445
898.035	0.0175420
898.113	0.0174452
898.192	0.0175099
898.270	0.0172353
898.348	0.0173136
898.426	0.0171118
898.504	0.0171012
898.582	0.0172419
898.660	0.0174031
898.738	0.0171191
898.817	0.0172351
898.895	0.0173186
898.973	0.0172528
899.051	0.0173495
899.129	0.0173849
899.207	0.0173013
899.285	0.0173234
899.363	0.0173515
899.442	0.0173194
899.520	0.0173475
899.598	0.0174036
899.676	0.0174122
899.754	0.0173301
899.832	0.0172964
899.910	0.0172546
899.988	0.0172014
900.067	0.0171252
900.145	0.0170592
900.223	0.0169955
900.301	0.0170605
900.379	0.0169839
900.457	0.0168443
900.535	0.0167737
900.613	0.0168189
900.692	0.0168012
900.770	0.0165549
900.848	0.0167291
900.926	0.0167103
901.004	0.0167384
901.082	0.0169326
901.160	0.0167333
901.238	0.0169049
901.317	0.0170850
901.395	0.0171159
901.473	0.0172091
901.551	0.0171971
901.629	0.0174472
901.707	0.0175354
901.785	0.0176341
901.863	0.0175738
901.942	0.0175326
902.020	0.0176015
902.098	0.0177441
902.176	0.0179028
902.254	0.0178181
902.332	0.0177441
902.410	0.0177232
902.488	0.0177838
902.567	0.0177491
902.645	0.0176424
902.723	0.0177040
902.801	0.0175008
902.879	0.0174844
902.957	0.0175291
903.035	0.0174725
903.113	0.0173286
903.192	0.0172862
903.270	0.0172755
903.348	0.0173439
903.426	0.0173232
903.504	0.0172327
903.582	0.0173277
903.660	0.0172480
903.738	0.0171324
903.817	0.0171633
903.895	0.0170733
903.973	0.0168488
904.051	0.0169301
904.129	0.0169763
904.207	0.0169846
904.285	0.0169925
904.363	0.0169421
904.442	0.0169528
904.520	0.0168565
904.598	0.0169779
904.676	0.0169260
904.754	0.0169350
904.832	0.0170455
904.910	0.0171644
904.988	0.0171111
905.067	0.0171566
905.145	0.0171430
905.223	0.0171909
905.301	0.0172172
905.379	0.0171777
905.457	0.0171739
905.535	0.0172147
905.613	0.0172153
905.692	0.0172208
905.770	0.0173205
905.848	0.0173433
905.926	0.0172776
906.004	0.0172810
906.082	0.0172453
906.160	0.0173676
906.238	0.0173154
906.317	0.0172047
906.395	0.0173692
906.473	0.0173916
906.551	0.0173982
906.629	0.0175774
906.707	0.0172846
906.785	0.0173741
906.863	0.0175255
906.942	0.0174570
907.020	0.0174030
907.098	0.0175454
907.176	0.0175201
907.254	0.0175343
907.332	0.0175130
907.410	0.0175052
907.488	0.0174525
907.567	0.0174836
907.645	0.0173973
907.723	0.0173380
907.801	0.0173813
907.879	0.0172707
907.957	0.0171787
908.035	0.0172305
908.113	0.0172318
908.192	0.0172861
908.270	0.0173322
908.348	0.0172731
908.426	0.0174471
908.504	0.0172739
908.582	0.0172636
908.660	0.0175908
908.738	0.0175235
908.817	0.0176218
908.895	0.0174506
908.973	0.0173419
909.051	0.0174386
909.129	0.0175642
909.207	0.0173495
909.285	0.0173454
909.363	0.0172840
909.442	0.0170103
909.520	0.0170548
909.598	0.0168831
909.676	0.0167990
909.754	0.0168284
909.832	0.0167703
909.910	0.0168317
909.988	0.0166518
910.067	0.0165855
910.145	0.0167295
910.223	0.0167647
910.301	0.0168485
910.379	0.0169646
910.457	0.0170641
910.535	0.0171177
910.613	0.0171847
910.692	0.0172031
910.770	0.0172984
910.848	0.0175595
910.926	0.0175701
911.004	0.0175517
911.082	0.0177044
911.160	0.0177648
911.238	0.0177415
911.317	0.0177132
911.395	0.0175874
911.473	0.0177467
911.551	0.0174827
911.629	0.0175853
911.707	0.0174740
911.785	0.0174073
911.863	0.0172787
911.942	0.0172027
912.020	0.0172916
912.098	0.0172733
912.176	0.0172338
912.254	0.0171953
912.332	0.0172280
912.410	0.0172714
912.488	0.0172826
912.567	0.0172206
912.645	0.0173430
912.723	0.0173419
912.801	0.0174721
912.879	0.0173621
912.957	0.0172841
913.035	0.0173399
913.113	0.0174033
913.192	0.0172257
913.270	0.0172461
913.348	0.0172076
913.426	0.0171808
913.504	0.0171198
913.582	0.0170623
913.660	0.0170339
913.738	0.0169536
913.817	0.0170448
913.895	0.0171565
913.973	0.0171419
914.051	0.0170793
914.129	0.0172186
914.207	0.0170658
914.285	0.0171159
914.363	0.0171700
914.442	0.0173347
914.520	0.0174337
914.598	0.0171754
914.676	0.0173077
914.754	0.0173050
914.832	0.0174430
914.910	0.0174091
914.988	0.0174099
915.067	0.0173447
915.145	0.0173363
915.223	0.0174620
915.301	0.0175352
915.379	0.0173760
915.457	0.0174481
915.535	0.0173169
915.613	0.0173815
915.692	0.0172390
915.770	0.0173775
915.848	0.0174405
915.926	0.0173567
916.004	0.0173418
916.082	0.0174477
916.160	0.0173952
916.238	0.0176018
916.317	0.0175404
916.395	0.0174979
916.473	0.0174842
916.551	0.0174127
916.629	0.0175385
916.707	0.0175233
916.785	0.0176418
916.863	0.0174696
916.942	0.0175288
917.020	0.0174808
917.098	0.0173975
917.176	0.0173064
917.254	0.0171808
917.332	0.0171001
917.410	0.0172882
917.488	0.0172363
917.567	0.0170008
917.645	0.0172042
917.723	0.0171941
917.801	0.0171304
917.879	0.0171994
917.957	0.0171704
918.035	0.0171343
918.113	0.0170998
918.192	0.0171165
918.270	0.0172318
918.348	0.0172733
918.426	0.0171840
918.504	0.0172849
918.582	0.0172112
918.660	0.0170995
918.738	0.0171870
918.817	0.0170798
918.895	0.0170437
918.973	0.0172628
919.051	0.0173592
919.129	0.0170936
919.207	0.0170743
919.285	0.0170422
919.363	0.0171421
919.442	0.0171453
919.520	0.0171794
919.598	0.0173086
919.676	0.0172633
919.754	0.0173679
919.832	0.0174787
919.910	0.0173448
