05/24/2022	20:13:18	Ver.	4.1	UNKNOWN
Optical Delay	599.988409	Delta X		0.078125	Sweeps	1	Scan Rate	0/0
Coordinates	Axis 1	NaN	Axis 2	NaN	Axis 3	NaN	Axis 4	NaN	Axis 5	NaN	Axis 6	0.000000
TX Power	0.000000	RX Power	0.000000

599.988	0.0171548
600.067	0.0171355
600.145	0.0171129
600.223	0.0171400
600.301	0.0170958
600.379	0.0171889
600.457	0.0171675
600.535	0.0170706
600.613	0.0171748
600.692	0.0171384
600.770	0.0172323
600.848	0.0170690
600.926	0.0170957
601.004	0.0171838
601.082	0.0171268
601.160	0.0171176
601.238	0.0171216
601.317	0.0171591
601.395	0.0170443
601.473	0.0171586
601.551	0.0171136
601.629	0.0172694
601.707	0.0172778
601.785	0.0172111
601.863	0.0170435
601.942	0.0171055
602.020	0.0171574
602.098	0.0168445
602.176	0.0170280
602.254	0.0170411
602.332	0.0171036
602.410	0.0171624
602.488	0.0171154
602.567	0.0170766
602.645	0.0171177
602.723	0.0171516
602.801	0.0170831
602.879	0.0171335
602.957	0.0169496
603.035	0.0170642
603.113	0.0171445
603.192	0.0172139
603.270	0.0171871
603.348	0.0170921
603.426	0.0171460
603.504	0.0169447
603.582	0.0171573
603.660	0.0170934
603.738	0.0169480
603.817	0.0170564
603.895	0.0169770
603.973	0.0171308
604.051	0.0171697
604.129	0.0171737
604.207	0.0170844
604.285	0.0171709
604.363	0.0172360
604.442	0.0171503
604.520	0.0170316
604.598	0.0171133
604.676	0.0171788
604.754	0.0171491
604.832	0.0170112
604.910	0.0172499
604.988	0.0169692
605.067	0.0170301
605.145	0.0171377
605.223	0.0171049
605.301	0.0172029
605.379	0.0171548
605.457	0.0171219
605.535	0.0170219
605.613	0.0170929
605.692	0.0171393
605.770	0.0170637
605.848	0.0171215
605.926	0.0171444
606.004	0.0171339
606.082	0.0170087
606.160	0.0171387
606.238	0.0171075
606.317	0.0171712
606.395	0.0171386
606.473	0.0169891
606.551	0.0172971
606.629	0.0172332
606.707	0.0171155
606.785	0.0171908
606.863	0.0170742
606.942	0.0171932
607.020	0.0171449
607.098	0.0171337
607.176	0.0170535
607.254	0.0170989
607.332	0.0171217
607.410	0.0170662
607.488	0.0170094
607.567	0.0171793
607.645	0.0170052
607.723	0.0170736
607.801	0.0170641
607.879	0.0170399
607.957	0.0171850
608.035	0.0171050
608.113	0.0170523
608.192	0.0171027
608.270	0.0170566
608.348	0.0171960
608.426	0.0170767
608.504	0.0171204
608.582	0.0171748
608.660	0.0171528
608.738	0.0171733
608.817	0.0171060
608.895	0.0171630
608.973	0.0170857
609.051	0.0172501
609.129	0.0170142
609.207	0.0171114
609.285	0.0171344
609.363	0.0172533
609.442	0.0172195
609.520	0.0170899
609.598	0.0171961
609.676	0.0172462
609.754	0.0171078
609.832	0.0170527
609.910	0.0171840
609.988	0.0171291
610.067	0.0172460
610.145	0.0171338
610.223	0.0171646
610.301	0.0171449
610.379	0.0171613
610.457	0.0171311
610.535	0.0171842
610.613	0.0171141
610.692	0.0172785
610.770	0.0171754
610.848	0.0171815
610.926	0.0172189
611.004	0.0172550
611.082	0.0170297
611.160	0.0171811
611.238	0.0171123
611.317	0.0170266
611.395	0.0171870
611.473	0.0171338
611.551	0.0171932
611.629	0.0171036
611.707	0.0170835
611.785	0.0171629
611.863	0.0169674
611.942	0.0172504
612.020	0.0171472
612.098	0.0171270
612.176	0.0170821
612.254	0.0171577
612.332	0.0170111
612.410	0.0170912
612.488	0.0170517
612.567	0.0170628
612.645	0.0171082
612.723	0.0171626
612.801	0.0171068
612.879	0.0171024
612.957	0.0171667
613.035	0.0172283
613.113	0.0171234
613.192	0.0171878
613.270	0.0171120
613.348	0.0172267
613.426	0.0172274
613.504	0.0172009
613.582	0.0171782
613.660	0.0172418
613.738	0.0171806
613.817	0.0171178
613.895	0.0171671
613.973	0.0171973
614.051	0.0170847
614.129	0.0171376
614.207	0.0172050
614.285	0.0172210
614.363	0.0171143
614.442	0.0169995
614.520	0.0171135
614.598	0.0171633
614.676	0.0171741
614.754	0.0172101
614.832	0.0171622
614.910	0.0171083
614.988	0.0170752
615.067	0.0173101
615.145	0.0170065
615.223	0.0170108
615.301	0.0170052
615.379	0.0170788
615.457	0.0170607
615.535	0.0170708
615.613	0.0170811
615.692	0.0170402
615.770	0.0170683
615.848	0.0170782
615.926	0.0171326
616.004	0.0171720
616.082	0.0170858
616.160	0.0170568
616.238	0.0171534
616.317	0.0170522
616.395	0.0170033
616.473	0.0169718
616.551	0.0170951
616.629	0.0171354
616.707	0.0170229
616.785	0.0171438
616.863	0.0169361
616.942	0.0171222
617.020	0.0172044
617.098	0.0171764
617.176	0.0170956
617.254	0.0171568
617.332	0.0172025
617.410	0.0171230
617.488	0.0172051
617.567	0.0173013
617.645	0.0171722
617.723	0.0171154
617.801	0.0172477
617.879	0.0172684
617.957	0.0170798
618.035	0.0172368
618.113	0.0172968
618.192	0.0171684
618.270	0.0171236
618.348	0.0171590
618.426	0.0173293
618.504	0.0171360
618.582	0.0171184
618.660	0.0170212
618.738	0.0171246
618.817	0.0171191
618.895	0.0171155
618.973	0.0171529
619.051	0.0170268
619.129	0.0171351
619.207	0.0170807
619.285	0.0171004
619.363	0.0171444
619.442	0.0171112
619.520	0.0170065
619.598	0.0170685
619.676	0.0170763
619.754	0.0171239
619.832	0.0171126
619.910	0.0170808
619.988	0.0171635
620.067	0.0170658
620.145	0.0170773
620.223	0.0171571
620.301	0.0170881
620.379	0.0171227
620.457	0.0172636
620.535	0.0169093
620.613	0.0170861
620.692	0.0170435
620.770	0.0171130
620.848	0.0171326
620.926	0.0172220
621.004	0.0171960
621.082	0.0172765
621.160	0.0171673
621.238	0.0171345
621.317	0.0171828
621.395	0.0170210
621.473	0.0169869
621.551	0.0172422
621.629	0.0172349
621.707	0.0171033
621.785	0.0170435
621.863	0.0171760
621.942	0.0171978
622.020	0.0170995
622.098	0.0172427
622.176	0.0171752
622.254	0.0171428
622.332	0.0170840
622.410	0.0171703
622.488	0.0172392
622.567	0.0172607
622.645	0.0172446
622.723	0.0171327
622.801	0.0172079
622.879	0.0171323
622.957	0.0172684
623.035	0.0173045
623.113	0.0171759
623.192	0.0172318
623.270	0.0170435
623.348	0.0172198
623.426	0.0171840
623.504	0.0171769
623.582	0.0171693
623.660	0.0169197
623.738	0.0171433
623.817	0.0171592
623.895	0.0171049
623.973	0.0171589
624.051	0.0170626
624.129	0.0170826
624.207	0.0172462
624.285	0.0170906
624.363	0.0170700
624.442	0.0171767
624.520	0.0172526
624.598	0.0171071
624.676	0.0170904
624.754	0.0171416
624.832	0.0171452
624.910	0.0170519
624.988	0.0170634
625.067	0.0171787
625.145	0.0170020
625.223	0.0170326
625.301	0.0170790
625.379	0.0171899
625.457	0.0171782
625.535	0.0172082
625.613	0.0170696
625.692	0.0171333
625.770	0.0171642
625.848	0.0170763
625.926	0.0170549
626.004	0.0171518
626.082	0.0171191
626.160	0.0170667
626.238	0.0172537
626.317	0.0171403
626.395	0.0170438
626.473	0.0171054
626.551	0.0171149
626.629	0.0171536
626.707	0.0172570
626.785	0.0171657
626.863	0.0171160
626.942	0.0171191
627.020	0.0170081
627.098	0.0171098
627.176	0.0172256
627.254	0.0171507
627.332	0.0170903
627.410	0.0170683
627.488	0.0171387
627.567	0.0172125
627.645	0.0172230
627.723	0.0172305
627.801	0.0172559
627.879	0.0171658
627.957	0.0171738
628.035	0.0171558
628.113	0.0171684
628.192	0.0170724
628.270	0.0170842
628.348	0.0170399
628.426	0.0171662
628.504	0.0170780
628.582	0.0171156
628.660	0.0170969
628.738	0.0171429
628.817	0.0171279
628.895	0.0171366
628.973	0.0172939
629.051	0.0171128
629.129	0.0171036
629.207	0.0170947
629.285	0.0171025
629.363	0.0171514
629.442	0.0170650
629.520	0.0171801
629.598	0.0171210
629.676	0.0171659
629.754	0.0170435
629.832	0.0171802
629.910	0.0171509
629.988	0.0172074
630.067	0.0171835
630.145	0.0171902
630.223	0.0170995
630.301	0.0170709
630.379	0.0170402
630.457	0.0171932
630.535	0.0171692
630.613	0.0171516
630.692	0.0171938
630.770	0.0172138
630.848	0.0170693
630.926	0.0171490
631.004	0.0170403
631.082	0.0170708
631.160	0.0171748
631.238	0.0171871
631.317	0.0170850
631.395	0.0171830
631.473	0.0171624
631.551	0.0171428
631.629	0.0171534
631.707	0.0171802
631.785	0.0171972
631.863	0.0171119
631.942	0.0171676
632.020	0.0171236
632.098	0.0172640
632.176	0.0171684
632.254	0.0172963
632.332	0.0172498
632.410	0.0171935
632.488	0.0171394
632.567	0.0170947
632.645	0.0170879
632.723	0.0172008
632.801	0.0172203
632.879	0.0171346
632.957	0.0172330
633.035	0.0172507
633.113	0.0172387
633.192	0.0172066
633.270	0.0171353
633.348	0.0171107
633.426	0.0172446
633.504	0.0169990
633.582	0.0171048
633.660	0.0171520
633.738	0.0171852
633.817	0.0172115
633.895	0.0171827
633.973	0.0171521
634.051	0.0170444
634.129	0.0171941
634.207	0.0171236
634.285	0.0171688
634.363	0.0172036
634.442	0.0171753
634.520	0.0171876
634.598	0.0170971
634.676	0.0170709
634.754	0.0171839
634.832	0.0170863
634.910	0.0171256
634.988	0.0171710
635.067	0.0171298
635.145	0.0172660
635.223	0.0170255
635.301	0.0172773
635.379	0.0171454
635.457	0.0170962
635.535	0.0171353
635.613	0.0170486
635.692	0.0171811
635.770	0.0172488
635.848	0.0172210
635.926	0.0171194
636.004	0.0171819
636.082	0.0172365
636.160	0.0170801
636.238	0.0171206
636.317	0.0171471
636.395	0.0169334
636.473	0.0171632
636.551	0.0172034
636.629	0.0169896
636.707	0.0171375
636.785	0.0171456
636.863	0.0170135
636.942	0.0172223
637.020	0.0171152
637.098	0.0171185
637.176	0.0171928
637.254	0.0171149
637.332	0.0170953
637.410	0.0170377
637.488	0.0171284
637.567	0.0172575
637.645	0.0170824
637.723	0.0171319
637.801	0.0171743
637.879	0.0171104
637.957	0.0171292
638.035	0.0171996
638.113	0.0171102
638.192	0.0170847
638.270	0.0170932
638.348	0.0170745
638.426	0.0172046
638.504	0.0172215
638.582	0.0170870
638.660	0.0171654
638.738	0.0171844
638.817	0.0171706
638.895	0.0170486
638.973	0.0171359
639.051	0.0171767
639.129	0.0171301
639.207	0.0172720
639.285	0.0171378
639.363	0.0171485
639.442	0.0172453
639.520	0.0173284
639.598	0.0170336
639.676	0.0171066
639.754	0.0172270
639.832	0.0172083
639.910	0.0171917
639.988	0.0171026
640.067	0.0172272
640.145	0.0171882
640.223	0.0171439
640.301	0.0171198
640.379	0.0172610
640.457	0.0173441
640.535	0.0169817
640.613	0.0171558
640.692	0.0169730
640.770	0.0170983
640.848	0.0170824
640.926	0.0171714
641.004	0.0170605
641.082	0.0171757
641.160	0.0171105
641.238	0.0171862
641.317	0.0171004
641.395	0.0171552
641.473	0.0171910
641.551	0.0171542
641.629	0.0170393
641.707	0.0169539
641.785	0.0171010
641.863	0.0171314
641.942	0.0171577
642.020	0.0170302
642.098	0.0170776
642.176	0.0170679
642.254	0.0171111
642.332	0.0169757
642.410	0.0170645
642.488	0.0171402
642.567	0.0171520
642.645	0.0171647
642.723	0.0171938
642.801	0.0170940
642.879	0.0169451
642.957	0.0170832
643.035	0.0170345
643.113	0.0171745
643.192	0.0171748
643.270	0.0170078
643.348	0.0170909
643.426	0.0171068
643.504	0.0171338
643.582	0.0171559
643.660	0.0171146
643.738	0.0171484
643.817	0.0171309
643.895	0.0171026
643.973	0.0171259
644.051	0.0170901
644.129	0.0170720
644.207	0.0172362
644.285	0.0170413
644.363	0.0169798
644.442	0.0172150
644.520	0.0171873
644.598	0.0170829
644.676	0.0171537
644.754	0.0170890
644.832	0.0172081
644.910	0.0171149
644.988	0.0171589
645.067	0.0171241
645.145	0.0169961
645.223	0.0170110
645.301	0.0171307
645.379	0.0171963
645.457	0.0171336
645.535	0.0170898
645.613	0.0170524
645.692	0.0172227
645.770	0.0171976
645.848	0.0171561
645.926	0.0169894
646.004	0.0170488
646.082	0.0171121
646.160	0.0172147
646.238	0.0171114
646.317	0.0170923
646.395	0.0171195
646.473	0.0170936
646.551	0.0171291
646.629	0.0170982
646.707	0.0170370
646.785	0.0169391
646.863	0.0171526
646.942	0.0171096
647.020	0.0170966
647.098	0.0170135
647.176	0.0170705
647.254	0.0170719
647.332	0.0171679
647.410	0.0172708
647.488	0.0171167
647.567	0.0169041
647.645	0.0170381
647.723	0.0170393
647.801	0.0170170
647.879	0.0171091
647.957	0.0171795
648.035	0.0170596
648.113	0.0170858
648.192	0.0171086
648.270	0.0170118
648.348	0.0172248
648.426	0.0170384
648.504	0.0170255
648.582	0.0170155
648.660	0.0170489
648.738	0.0171136
648.817	0.0170279
648.895	0.0170729
648.973	0.0171941
649.051	0.0170806
649.129	0.0169701
649.207	0.0171188
649.285	0.0170979
649.363	0.0171204
649.442	0.0170193
649.520	0.0170686
649.598	0.0171964
649.676	0.0171015
649.754	0.0171157
649.832	0.0170431
649.910	0.0171217
649.988	0.0171221
650.067	0.0171743
650.145	0.0170709
650.223	0.0171536
650.301	0.0170576
650.379	0.0170203
650.457	0.0171260
650.535	0.0171031
650.613	0.0171129
650.692	0.0171001
650.770	0.0170768
650.848	0.0171645
650.926	0.0171645
651.004	0.0170879
651.082	0.0170428
651.160	0.0170381
651.238	0.0169817
651.317	0.0171780
651.395	0.0171975
651.473	0.0170516
651.551	0.0171111
651.629	0.0172378
651.707	0.0171083
651.785	0.0171637
651.863	0.0170982
651.942	0.0171747
652.020	0.0171922
652.098	0.0170670
652.176	0.0170436
652.254	0.0170918
652.332	0.0169884
652.410	0.0171553
652.488	0.0172144
652.567	0.0169735
652.645	0.0171503
652.723	0.0173196
652.801	0.0172201
652.879	0.0172059
652.957	0.0171330
653.035	0.0171666
653.113	0.0170983
653.192	0.0170307
653.270	0.0171420
653.348	0.0171942
653.426	0.0171025
653.504	0.0170493
653.582	0.0171688
653.660	0.0172657
653.738	0.0170815
653.817	0.0170341
653.895	0.0170398
653.973	0.0171892
654.051	0.0171474
654.129	0.0171763
654.207	0.0171542
654.285	0.0172605
654.363	0.0171709
654.442	0.0171417
654.520	0.0170394
654.598	0.0171894
654.676	0.0171685
654.754	0.0171674
654.832	0.0170389
654.910	0.0170712
654.988	0.0170498
655.067	0.0171191
655.145	0.0171394
655.223	0.0172199
655.301	0.0170045
655.379	0.0171750
655.457	0.0171142
655.535	0.0170775
655.613	0.0171716
655.692	0.0170271
655.770	0.0170540
655.848	0.0170911
655.926	0.0169950
656.004	0.0170675
656.082	0.0170836
656.160	0.0171169
656.238	0.0171687
656.317	0.0170802
656.395	0.0170494
656.473	0.0169843
656.551	0.0171506
656.629	0.0169897
656.707	0.0171681
656.785	0.0170126
656.863	0.0171001
656.942	0.0171703
657.020	0.0171462
657.098	0.0172610
657.176	0.0171188
657.254	0.0171285
657.332	0.0171813
657.410	0.0172259
657.488	0.0171479
657.567	0.0170412
657.645	0.0170731
657.723	0.0171999
657.801	0.0171971
657.879	0.0170216
657.957	0.0172764
658.035	0.0172043
658.113	0.0170631
658.192	0.0171766
658.270	0.0171944
658.348	0.0170329
658.426	0.0171266
658.504	0.0171276
658.582	0.0171855
658.660	0.0171268
658.738	0.0171379
658.817	0.0170994
658.895	0.0170570
658.973	0.0171626
659.051	0.0169844
659.129	0.0170391
659.207	0.0171358
659.285	0.0171105
659.363	0.0171549
659.442	0.0171030
659.520	0.0171730
659.598	0.0172415
659.676	0.0171272
659.754	0.0171431
659.832	0.0171094
659.910	0.0170832
659.988	0.0171042
660.067	0.0170483
660.145	0.0170530
660.223	0.0171997
660.301	0.0170937
660.379	0.0170972
660.457	0.0170846
660.535	0.0168816
660.613	0.0171459
660.692	0.0171030
660.770	0.0170359
660.848	0.0170766
660.926	0.0170880
661.004	0.0170728
661.082	0.0170660
661.160	0.0172478
661.238	0.0172467
661.317	0.0172049
661.395	0.0170254
661.473	0.0169250
661.551	0.0170618
661.629	0.0171254
661.707	0.0170081
661.785	0.0172441
661.863	0.0171717
661.942	0.0171745
662.020	0.0170265
662.098	0.0173217
662.176	0.0172791
662.254	0.0171157
662.332	0.0169810
662.410	0.0171492
662.488	0.0171660
662.567	0.0170652
662.645	0.0171815
662.723	0.0170512
662.801	0.0172023
662.879	0.0171454
662.957	0.0172192
663.035	0.0172266
663.113	0.0171186
663.192	0.0170871
663.270	0.0171602
663.348	0.0172363
663.426	0.0170952
663.504	0.0171479
663.582	0.0171386
663.660	0.0172029
663.738	0.0172386
663.817	0.0171814
663.895	0.0171072
663.973	0.0171516
664.051	0.0173270
664.129	0.0171504
664.207	0.0171204
664.285	0.0172439
664.363	0.0170460
664.442	0.0170699
664.520	0.0171493
664.598	0.0172581
664.676	0.0171899
664.754	0.0169485
664.832	0.0171423
664.910	0.0171016
664.988	0.0170715
665.067	0.0172749
665.145	0.0171162
665.223	0.0170113
665.301	0.0173301
665.379	0.0171596
665.457	0.0169380
665.535	0.0171819
665.613	0.0170736
665.692	0.0170857
665.770	0.0172021
665.848	0.0170708
665.926	0.0170847
666.004	0.0170354
666.082	0.0170575
666.160	0.0170950
666.238	0.0170650
666.317	0.0170332
666.395	0.0170680
666.473	0.0171545
666.551	0.0171465
666.629	0.0170927
666.707	0.0170747
666.785	0.0171513
666.863	0.0169543
666.942	0.0171735
667.020	0.0171694
667.098	0.0171140
667.176	0.0171177
667.254	0.0171148
667.332	0.0171297
667.410	0.0171503
667.488	0.0170756
667.567	0.0171639
667.645	0.0171606
667.723	0.0171719
667.801	0.0171893
667.879	0.0171513
667.957	0.0170391
668.035	0.0171154
668.113	0.0172387
668.192	0.0170997
668.270	0.0170483
668.348	0.0170850
668.426	0.0171061
668.504	0.0171137
668.582	0.0171842
668.660	0.0171573
668.738	0.0171785
668.817	0.0169976
668.895	0.0169426
668.973	0.0170996
669.051	0.0170655
669.129	0.0171973
669.207	0.0169894
669.285	0.0170830
669.363	0.0170080
669.442	0.0170827
669.520	0.0171617
669.598	0.0170579
669.676	0.0171348
669.754	0.0169944
669.832	0.0171809
669.910	0.0169943
669.988	0.0170279
670.067	0.0172349
670.145	0.0171041
670.223	0.0170973
670.301	0.0171796
670.379	0.0170895
670.457	0.0172144
670.535	0.0172116
670.613	0.0170651
670.692	0.0172577
670.770	0.0171552
670.848	0.0172379
670.926	0.0172565
671.004	0.0172891
671.082	0.0171042
671.160	0.0172046
671.238	0.0171711
671.317	0.0171763
671.395	0.0173269
671.473	0.0174233
671.551	0.0173220
671.629	0.0172044
671.707	0.0172049
671.785	0.0171330
671.863	0.0171745
671.942	0.0170843
672.020	0.0170570
672.098	0.0169028
672.176	0.0169188
672.254	0.0169373
672.332	0.0167838
672.410	0.0168181
672.488	0.0167065
672.567	0.0168175
672.645	0.0167155
672.723	0.0166659
672.801	0.0166885
672.879	0.0166060
672.957	0.0166027
673.035	0.0163831
673.113	0.0166547
673.192	0.0167197
673.270	0.0167276
673.348	0.0167030
673.426	0.0169472
673.504	0.0171806
673.582	0.0171633
673.660	0.0173711
673.738	0.0174794
673.817	0.0174982
673.895	0.0174808
673.973	0.0174894
674.051	0.0176325
674.129	0.0178992
674.207	0.0176934
674.285	0.0178776
674.363	0.0179829
674.442	0.0178328
674.520	0.0180918
674.598	0.0180202
674.676	0.0179536
674.754	0.0179058
674.832	0.0177629
674.910	0.0177009
674.988	0.0173211
675.067	0.0174674
675.145	0.0172517
675.223	0.0170345
675.301	0.0171409
675.379	0.0169631
675.457	0.0170586
675.535	0.0168776
675.613	0.0170844
675.692	0.0170473
675.770	0.0169750
675.848	0.0167609
675.926	0.0168080
676.004	0.0165948
676.082	0.0162609
676.160	0.0163477
676.238	0.0162572
676.317	0.0163860
676.395	0.0162801
676.473	0.0163626
676.551	0.0165919
676.629	0.0166775
676.707	0.0165421
676.785	0.0165521
676.863	0.0165770
676.942	0.0164674
677.020	0.0164050
677.098	0.0162263
677.176	0.0160388
677.254	0.0161275
677.332	0.0160963
677.410	0.0162709
677.488	0.0166267
677.567	0.0169073
677.645	0.0171532
677.723	0.0175685
677.801	0.0178317
677.879	0.0180420
677.957	0.0182244
678.035	0.0183830
678.113	0.0184668
678.192	0.0186452
678.270	0.0185820
678.348	0.0187097
678.426	0.0188335
678.504	0.0188943
678.582	0.0190240
678.660	0.0190602
678.738	0.0189052
678.817	0.0187349
678.895	0.0183869
678.973	0.0181801
679.051	0.0177946
679.129	0.0176410
679.207	0.0173676
679.285	0.0172790
679.363	0.0171804
679.442	0.0172738
679.520	0.0172949
679.598	0.0173325
679.676	0.0173586
679.754	0.0172768
679.832	0.0171088
679.910	0.0170292
679.988	0.0167452
680.067	0.0163289
680.145	0.0159723
680.223	0.0156854
680.301	0.0152239
680.379	0.0148918
680.457	0.0146103
680.535	0.0145094
680.613	0.0144543
680.692	0.0145992
680.770	0.0149499
680.848	0.0151678
680.926	0.0155000
681.004	0.0159296
681.082	0.0163071
681.160	0.0164965
681.238	0.0168404
681.317	0.0170996
681.395	0.0169908
681.473	0.0171172
681.551	0.0172697
681.629	0.0174049
681.707	0.0172941
681.785	0.0172853
681.863	0.0176704
681.942	0.0179783
682.020	0.0184044
682.098	0.0189336
682.176	0.0194420
682.254	0.0200367
682.332	0.0204806
682.410	0.0208896
682.488	0.0210219
682.567	0.0211710
682.645	0.0211042
682.723	0.0209521
682.801	0.0203544
682.879	0.0195112
682.957	0.0188949
683.035	0.0179052
683.113	0.0169702
683.192	0.0159837
683.270	0.0150138
683.348	0.0140447
683.426	0.0133617
683.504	0.0127677
683.582	0.0126361
683.660	0.0125781
683.738	0.0126733
683.817	0.0127833
683.895	0.0131809
683.973	0.0136307
684.051	0.0142403
684.129	0.0148251
684.207	0.0154700
684.285	0.0159917
684.363	0.0166846
684.442	0.0170471
684.520	0.0175430
684.598	0.0179056
684.676	0.0181187
684.754	0.0183054
684.832	0.0185081
684.910	0.0185898
684.988	0.0187970
685.067	0.0189420
685.145	0.0192347
685.223	0.0196486
685.301	0.0200889
685.379	0.0204693
685.457	0.0212344
685.535	0.0216785
685.613	0.0223215
685.692	0.0227802
685.770	0.0230715
685.848	0.0230511
685.926	0.0228567
686.004	0.0223706
686.082	0.0217783
686.160	0.0208089
686.238	0.0195830
686.317	0.0181912
686.395	0.0166426
686.473	0.0152092
686.551	0.0136991
686.629	0.0119231
686.707	0.0107218
686.785	0.00951561
686.863	0.00810349
686.942	0.00735794
687.020	0.00665031
687.098	0.00615677
687.176	0.00601364
687.254	0.00617889
687.332	0.00641502
687.410	0.00716133
687.488	0.00812805
687.567	0.00932304
687.645	0.0108727
687.723	0.0123551
687.801	0.0142448
687.879	0.0160100
687.957	0.0179347
688.035	0.0199191
688.113	0.0219141
688.192	0.0236469
688.270	0.0253114
688.348	0.0266994
688.426	0.0278477
688.504	0.0286968
688.582	0.0291542
688.660	0.0292780
688.738	0.0290601
688.817	0.0287344
688.895	0.0282193
688.973	0.0271280
689.051	0.0263889
689.129	0.0252696
689.207	0.0241040
689.285	0.0229115
689.363	0.0217867
689.442	0.0207713
689.520	0.0198385
689.598	0.0189635
689.676	0.0181561
689.754	0.0173152
689.832	0.0165695
689.910	0.0159396
689.988	0.0152193
690.067	0.0144564
690.145	0.0139330
690.223	0.0132664
690.301	0.0125378
690.379	0.0117327
690.457	0.0107576
690.535	0.00987503
690.613	0.00914070
690.692	0.00813820
690.770	0.00726387
690.848	0.00640320
690.926	0.00554871
691.004	0.00493713
691.082	0.00431198
691.160	0.00419319
691.238	0.00407204
691.317	0.00438416
691.395	0.00495789
691.473	0.00569199
691.551	0.00698715
691.629	0.00855278
691.707	0.0102867
691.785	0.0124091
691.863	0.0149077
691.942	0.0172414
692.020	0.0198145
692.098	0.0224744
692.176	0.0247205
692.254	0.0271179
692.332	0.0289716
692.410	0.0305251
692.488	0.0316551
692.567	0.0325742
692.645	0.0329734
692.723	0.0329626
692.801	0.0326780
692.879	0.0319991
692.957	0.0313954
693.035	0.0304977
693.113	0.0295914
693.192	0.0284867
693.270	0.0273933
693.348	0.0263225
693.426	0.0252076
693.504	0.0238485
693.582	0.0225930
693.660	0.0212973
693.738	0.0202658
693.817	0.0187756
693.895	0.0175430
693.973	0.0162769
694.051	0.0150044
694.129	0.0134878
694.207	0.0121329
694.285	0.0108375
694.363	0.00931343
694.442	0.00796555
694.520	0.00688034
694.598	0.00591736
694.676	0.00503922
694.754	0.00422829
694.832	0.00363358
694.910	0.00352539
694.988	0.00337021
695.067	0.00344109
695.145	0.00368607
695.223	0.00395889
695.301	0.00426743
695.379	0.00458824
695.457	0.00539413
695.535	0.00629326
695.613	0.00716148
695.692	0.00819649
695.770	0.00958916
695.848	0.0112499
695.926	0.0130589
696.004	0.0149290
696.082	0.0169309
696.160	0.0191371
696.238	0.0212572
696.317	0.0232025
696.395	0.0252036
696.473	0.0268704
696.551	0.0285088
696.629	0.0296951
696.707	0.0306875
696.785	0.0313725
696.863	0.0316881
696.942	0.0318195
697.020	0.0318040
697.098	0.0317435
697.176	0.0312093
697.254	0.0307159
697.332	0.0301199
697.410	0.0292506
697.488	0.0283217
697.567	0.0271896
697.645	0.0259406
697.723	0.0245905
697.801	0.0232631
697.879	0.0217372
697.957	0.0202316
698.035	0.0186696
698.113	0.0170122
698.192	0.0154736
698.270	0.0138318
698.348	0.0120222
698.426	0.0105853
698.504	0.00929695
698.582	0.00800499
698.660	0.00676933
698.738	0.00586800
698.817	0.00546509
698.895	0.00509392
698.973	0.00494751
699.051	0.00494637
699.129	0.00528503
699.207	0.00577599
699.285	0.00642532
699.363	0.00723671
699.442	0.00805183
699.520	0.00905548
699.598	0.0100722
699.676	0.0111765
699.754	0.0126550
699.832	0.0137202
699.910	0.0147882
699.988	0.0159745
700.067	0.0169247
700.145	0.0178009
700.223	0.0184747
700.301	0.0191428
700.379	0.0197467
700.457	0.0202945
700.535	0.0205235
700.613	0.0207051
700.692	0.0207024
700.770	0.0207822
700.848	0.0206964
700.926	0.0208141
701.004	0.0207619
701.082	0.0207549
701.160	0.0210269
701.238	0.0213668
701.317	0.0217823
701.395	0.0221613
701.473	0.0227062
701.551	0.0231585
701.629	0.0234837
701.707	0.0237066
701.785	0.0241174
701.863	0.0241653
701.942	0.0242033
702.020	0.0238064
702.098	0.0235800
702.176	0.0227914
702.254	0.0221122
702.332	0.0211942
702.410	0.0202847
702.488	0.0193089
702.567	0.0180421
702.645	0.0167699
702.723	0.0158380
702.801	0.0148080
702.879	0.0138232
702.957	0.0128983
703.035	0.0123140
703.113	0.0118414
703.192	0.0113673
703.270	0.0111613
703.348	0.0111176
703.426	0.0111524
703.504	0.0115166
703.582	0.0117833
703.660	0.0122294
703.738	0.0127245
703.817	0.0133282
703.895	0.0138763
703.973	0.0144478
704.051	0.0148179
704.129	0.0151488
704.207	0.0157315
704.285	0.0160107
704.363	0.0163377
704.442	0.0164803
704.520	0.0166739
704.598	0.0167941
704.676	0.0168808
704.754	0.0171403
704.832	0.0171576
704.910	0.0169736
704.988	0.0170377
705.067	0.0170178
705.145	0.0170882
705.223	0.0172427
705.301	0.0172967
705.379	0.0176013
705.457	0.0178861
705.535	0.0181051
705.613	0.0183302
705.692	0.0186679
705.770	0.0190760
705.848	0.0192367
705.926	0.0193509
706.004	0.0193990
706.082	0.0193628
706.160	0.0194252
706.238	0.0192902
706.317	0.0190460
706.395	0.0190354
706.473	0.0186295
706.551	0.0183665
706.629	0.0180925
706.707	0.0179105
706.785	0.0174838
706.863	0.0172360
706.942	0.0170529
707.020	0.0169107
707.098	0.0168757
707.176	0.0167175
707.254	0.0168562
707.332	0.0168564
707.410	0.0166186
707.488	0.0167538
707.567	0.0168514
707.645	0.0167342
707.723	0.0168223
707.801	0.0169321
707.879	0.0169330
707.957	0.0171011
708.035	0.0171961
708.113	0.0173661
708.192	0.0175115
708.270	0.0176498
708.348	0.0177964
708.426	0.0176698
708.504	0.0175726
708.582	0.0174464
708.660	0.0175404
708.738	0.0172179
708.817	0.0170627
708.895	0.0169611
708.973	0.0167097
709.051	0.0165340
709.129	0.0164410
709.207	0.0162513
709.285	0.0162206
709.363	0.0163006
709.442	0.0163273
709.520	0.0165508
709.598	0.0164955
709.676	0.0166551
709.754	0.0167497
709.832	0.0169688
709.910	0.0170406
709.988	0.0172074
710.067	0.0173449
710.145	0.0172844
710.223	0.0173385
710.301	0.0172646
710.379	0.0171376
710.457	0.0171420
710.535	0.0170488
710.613	0.0168993
710.692	0.0165613
710.770	0.0164391
710.848	0.0162476
710.926	0.0160520
711.004	0.0160374
711.082	0.0160380
711.160	0.0160090
711.238	0.0161160
711.317	0.0162355
711.395	0.0165545
711.473	0.0166488
711.551	0.0168221
711.629	0.0169227
711.707	0.0171436
711.785	0.0172077
711.863	0.0174091
711.942	0.0174416
712.020	0.0175383
712.098	0.0175361
712.176	0.0176552
712.254	0.0177866
712.332	0.0179527
712.410	0.0179068
712.488	0.0180845
712.567	0.0180850
712.645	0.0181125
712.723	0.0181629
712.801	0.0181506
712.879	0.0181683
712.957	0.0181083
713.035	0.0180901
713.113	0.0178989
713.192	0.0178075
713.270	0.0177504
713.348	0.0177007
713.426	0.0175530
713.504	0.0174959
713.582	0.0173863
713.660	0.0173109
713.738	0.0174912
713.817	0.0173911
713.895	0.0173526
713.973	0.0173678
714.051	0.0171876
714.129	0.0172039
714.207	0.0172318
714.285	0.0173880
714.363	0.0174306
714.442	0.0173512
714.520	0.0173334
714.598	0.0171631
714.676	0.0173661
714.754	0.0172182
714.832	0.0172605
714.910	0.0171274
714.988	0.0169587
715.067	0.0169765
715.145	0.0169542
715.223	0.0168028
715.301	0.0168849
715.379	0.0169278
715.457	0.0169463
715.535	0.0171526
715.613	0.0173108
715.692	0.0174313
715.770	0.0174861
715.848	0.0177333
715.926	0.0177505
716.004	0.0179458
716.082	0.0177842
716.160	0.0178860
716.238	0.0177431
716.317	0.0175447
716.395	0.0173576
716.473	0.0171994
716.551	0.0168684
716.629	0.0164362
716.707	0.0161818
716.785	0.0160828
716.863	0.0157695
716.942	0.0156595
717.020	0.0156175
717.098	0.0155297
717.176	0.0155550
717.254	0.0156296
717.332	0.0153874
717.410	0.0155158
717.488	0.0158104
717.567	0.0158322
717.645	0.0159193
717.723	0.0160582
717.801	0.0161842
717.879	0.0163275
717.957	0.0165439
718.035	0.0167809
718.113	0.0169475
718.192	0.0172365
718.270	0.0174077
718.348	0.0176842
718.426	0.0178860
718.504	0.0179819
718.582	0.0181982
718.660	0.0182217
718.738	0.0184756
718.817	0.0184348
718.895	0.0185211
718.973	0.0184734
719.051	0.0184498
719.129	0.0182943
719.207	0.0183067
719.285	0.0181331
719.363	0.0181631
719.442	0.0180599
719.520	0.0179768
719.598	0.0179761
719.676	0.0179121
719.754	0.0178269
719.832	0.0177921
719.910	0.0175943
719.988	0.0176638
720.067	0.0177359
720.145	0.0176522
720.223	0.0178354
720.301	0.0175819
720.379	0.0177401
720.457	0.0176796
720.535	0.0176907
720.613	0.0177165
720.692	0.0175497
720.770	0.0176493
720.848	0.0175931
720.926	0.0173216
721.004	0.0171147
721.082	0.0171831
721.160	0.0170111
721.238	0.0168574
721.317	0.0167120
721.395	0.0163482
721.473	0.0163294
721.551	0.0163306
721.629	0.0162152
721.707	0.0160827
721.785	0.0160188
721.863	0.0159271
721.942	0.0159598
722.020	0.0158775
722.098	0.0157946
722.176	0.0158753
722.254	0.0157408
722.332	0.0160101
722.410	0.0158372
722.488	0.0157442
722.567	0.0157700
722.645	0.0158990
722.723	0.0159500
722.801	0.0158481
722.879	0.0160641
722.957	0.0163251
723.035	0.0164326
723.113	0.0165486
723.192	0.0165947
723.270	0.0169984
723.348	0.0172195
723.426	0.0172558
723.504	0.0176588
723.582	0.0178004
723.660	0.0179893
723.738	0.0180087
723.817	0.0179828
723.895	0.0182273
723.973	0.0182848
724.051	0.0180959
724.129	0.0180925
724.207	0.0180993
724.285	0.0181194
724.363	0.0181254
724.442	0.0179551
724.520	0.0179399
724.598	0.0178285
724.676	0.0178008
724.754	0.0176705
724.832	0.0175167
724.910	0.0173186
724.988	0.0174230
725.067	0.0173502
725.145	0.0173670
725.223	0.0173698
725.301	0.0171754
725.379	0.0172652
725.457	0.0172108
725.535	0.0173701
725.613	0.0173923
725.692	0.0173923
725.770	0.0176434
725.848	0.0174934
725.926	0.0174911
726.004	0.0177774
726.082	0.0176771
726.160	0.0176603
726.238	0.0176282
726.317	0.0175941
726.395	0.0174332
726.473	0.0175441
726.551	0.0173611
726.629	0.0173102
726.707	0.0171445
726.785	0.0168371
726.863	0.0167328
726.942	0.0165080
727.020	0.0163963
727.098	0.0162394
727.176	0.0159819
727.254	0.0159865
727.332	0.0159511
727.410	0.0160858
727.488	0.0161181
727.567	0.0159306
727.645	0.0160139
727.723	0.0163740
727.801	0.0165098
727.879	0.0164367
727.957	0.0167249
728.035	0.0170389
728.113	0.0171310
728.192	0.0173114
728.270	0.0174162
728.348	0.0175588
728.426	0.0177523
728.504	0.0176673
728.582	0.0177042
728.660	0.0176020
728.738	0.0177073
728.817	0.0177214
728.895	0.0176491
728.973	0.0176040
729.051	0.0175618
729.129	0.0174809
729.207	0.0173496
729.285	0.0172926
729.363	0.0172079
729.442	0.0169487
729.520	0.0170187
729.598	0.0168513
729.676	0.0167525
729.754	0.0167915
729.832	0.0167401
729.910	0.0167794
729.988	0.0168651
730.067	0.0166670
730.145	0.0168131
730.223	0.0168478
730.301	0.0169076
730.379	0.0169417
730.457	0.0169028
730.535	0.0168312
730.613	0.0168146
730.692	0.0169640
730.770	0.0170811
730.848	0.0171243
730.926	0.0170879
731.004	0.0171426
731.082	0.0172891
731.160	0.0173822
731.238	0.0174610
731.317	0.0175313
731.395	0.0176340
731.473	0.0175606
731.551	0.0176467
731.629	0.0176062
731.707	0.0176934
731.785	0.0177383
731.863	0.0176427
731.942	0.0174341
732.020	0.0173028
732.098	0.0172981
732.176	0.0170765
732.254	0.0169561
732.332	0.0169499
732.410	0.0168300
732.488	0.0169573
732.567	0.0169672
732.645	0.0168467
732.723	0.0169271
732.801	0.0171347
732.879	0.0171235
732.957	0.0171850
733.035	0.0176091
733.113	0.0176227
733.192	0.0176388
733.270	0.0176945
733.348	0.0177735
733.426	0.0178513
733.504	0.0177839
733.582	0.0178182
733.660	0.0178075
733.738	0.0176830
733.817	0.0176824
733.895	0.0175431
733.973	0.0174644
734.051	0.0174769
734.129	0.0172022
734.207	0.0171911
734.285	0.0172744
734.363	0.0171428
734.442	0.0172179
734.520	0.0170324
734.598	0.0169852
734.676	0.0168826
734.754	0.0167763
734.832	0.0167255
734.910	0.0166900
734.988	0.0166347
735.067	0.0165977
735.145	0.0166975
735.223	0.0166747
735.301	0.0168412
735.379	0.0168813
735.457	0.0167179
735.535	0.0169129
735.613	0.0169461
735.692	0.0170634
735.770	0.0170798
735.848	0.0170950
735.926	0.0172897
736.004	0.0171760
736.082	0.0171745
736.160	0.0172601
736.238	0.0171961
736.317	0.0171137
736.395	0.0171320
736.473	0.0170923
736.551	0.0170919
736.629	0.0170054
736.707	0.0168415
736.785	0.0168307
736.863	0.0167436
736.942	0.0167002
737.020	0.0167059
737.098	0.0166393
737.176	0.0167307
737.254	0.0166186
737.332	0.0167208
737.410	0.0168072
737.488	0.0167755
737.567	0.0167921
737.645	0.0170047
737.723	0.0170688
737.801	0.0171783
737.879	0.0173357
737.957	0.0173891
738.035	0.0177515
738.113	0.0175928
738.192	0.0178237
738.270	0.0177271
738.348	0.0177576
738.426	0.0177627
738.504	0.0178090
738.582	0.0178931
738.660	0.0181387
738.738	0.0178632
738.817	0.0179153
738.895	0.0179683
738.973	0.0179108
739.051	0.0178852
739.129	0.0179498
739.207	0.0180743
739.285	0.0179986
739.363	0.0179916
739.442	0.0179739
739.520	0.0178564
739.598	0.0178819
739.676	0.0176277
739.754	0.0175047
739.832	0.0173887
739.910	0.0172414
739.988	0.0170798
740.067	0.0170126
740.145	0.0167295
740.223	0.0167574
740.301	0.0165126
740.379	0.0163529
740.457	0.0162801
740.535	0.0162317
740.613	0.0162077
740.692	0.0162440
740.770	0.0164365
740.848	0.0163982
740.926	0.0164655
741.004	0.0166449
741.082	0.0167303
741.160	0.0167477
741.238	0.0167435
741.317	0.0167635
741.395	0.0168411
741.473	0.0168298
741.551	0.0169189
741.629	0.0167665
741.707	0.0170027
741.785	0.0170161
741.863	0.0169444
741.942	0.0170042
742.020	0.0169824
742.098	0.0170260
742.176	0.0169881
742.254	0.0171976
742.332	0.0170682
742.410	0.0172343
742.488	0.0171635
742.567	0.0169997
742.645	0.0170288
742.723	0.0169178
742.801	0.0168730
742.879	0.0168940
742.957	0.0169127
743.035	0.0168986
743.113	0.0168674
743.192	0.0169569
743.270	0.0171767
743.348	0.0172092
743.426	0.0173186
743.504	0.0172763
743.582	0.0175493
743.660	0.0176588
743.738	0.0176858
743.817	0.0177541
743.895	0.0178990
743.973	0.0177407
744.051	0.0177054
744.129	0.0177123
744.207	0.0177132
744.285	0.0175104
744.363	0.0176157
744.442	0.0174148
744.520	0.0173019
744.598	0.0172755
744.676	0.0172461
744.754	0.0171200
744.832	0.0170738
744.910	0.0169809
744.988	0.0170619
745.067	0.0170600
745.145	0.0170624
745.223	0.0171164
745.301	0.0170789
745.379	0.0172662
745.457	0.0172248
745.535	0.0173107
745.613	0.0173567
745.692	0.0173393
745.770	0.0173680
745.848	0.0175459
745.926	0.0175787
746.004	0.0175826
746.082	0.0176717
746.160	0.0174287
746.238	0.0174528
746.317	0.0174397
746.395	0.0174038
746.473	0.0173556
746.551	0.0172726
746.629	0.0170921
746.707	0.0169554
746.785	0.0169046
746.863	0.0167778
746.942	0.0166409
747.020	0.0166164
747.098	0.0166063
747.176	0.0166731
747.254	0.0165606
747.332	0.0164671
747.410	0.0163333
747.488	0.0163609
747.567	0.0162468
747.645	0.0163367
747.723	0.0161713
747.801	0.0162457
747.879	0.0162087
747.957	0.0161275
748.035	0.0163333
748.113	0.0164095
748.192	0.0164610
748.270	0.0165038
748.348	0.0168259
748.426	0.0169525
748.504	0.0168904
748.582	0.0171356
748.660	0.0173575
748.738	0.0171620
748.817	0.0173065
748.895	0.0174137
748.973	0.0175354
749.051	0.0175350
749.129	0.0175321
749.207	0.0175052
749.285	0.0175648
749.363	0.0176166
749.442	0.0175410
749.520	0.0174821
749.598	0.0175227
749.676	0.0175972
749.754	0.0175957
749.832	0.0175415
749.910	0.0174854
749.988	0.0175735
750.067	0.0175882
750.145	0.0176367
750.223	0.0177158
750.301	0.0177378
750.379	0.0177366
750.457	0.0179121
750.535	0.0178741
750.613	0.0178402
750.692	0.0178226
750.770	0.0175718
750.848	0.0172813
750.926	0.0173585
751.004	0.0172862
751.082	0.0169588
751.160	0.0170099
751.238	0.0168324
751.317	0.0166409
751.395	0.0166797
751.473	0.0166695
751.551	0.0166566
751.629	0.0165167
751.707	0.0164587
751.785	0.0164421
751.863	0.0165626
751.942	0.0165634
752.020	0.0166988
752.098	0.0167224
752.176	0.0166680
752.254	0.0165991
752.332	0.0167155
752.410	0.0167532
752.488	0.0166872
752.567	0.0168509
752.645	0.0169326
752.723	0.0166019
752.801	0.0168063
752.879	0.0168538
752.957	0.0167323
753.035	0.0168054
753.113	0.0168726
753.192	0.0168649
753.270	0.0169531
753.348	0.0172182
753.426	0.0170857
753.504	0.0172256
753.582	0.0172702
753.660	0.0173489
753.738	0.0172843
753.817	0.0174010
753.895	0.0173416
753.973	0.0173987
754.051	0.0173476
754.129	0.0173151
754.207	0.0172639
754.285	0.0173059
754.363	0.0172775
754.442	0.0170668
754.520	0.0171254
754.598	0.0171368
754.676	0.0169647
754.754	0.0168679
754.832	0.0170203
754.910	0.0170018
754.988	0.0170296
755.067	0.0172359
755.145	0.0171201
755.223	0.0171878
755.301	0.0170983
755.379	0.0174110
755.457	0.0174638
755.535	0.0174578
755.613	0.0174515
755.692	0.0175365
755.770	0.0175330
755.848	0.0174297
755.926	0.0174881
756.004	0.0173074
756.082	0.0173286
756.160	0.0172504
756.238	0.0172189
756.317	0.0170985
756.395	0.0170712
756.473	0.0169601
756.551	0.0169522
756.629	0.0169888
756.707	0.0169288
756.785	0.0169795
756.863	0.0169820
756.942	0.0169604
757.020	0.0168069
757.098	0.0169022
757.176	0.0169565
757.254	0.0168974
757.332	0.0169777
757.410	0.0170782
757.488	0.0170061
757.567	0.0171465
757.645	0.0172906
757.723	0.0171513
757.801	0.0173694
757.879	0.0171346
757.957	0.0169875
758.035	0.0171975
758.113	0.0171451
758.192	0.0171870
758.270	0.0172498
758.348	0.0171674
758.426	0.0171217
758.504	0.0171412
758.582	0.0171320
758.660	0.0170229
758.738	0.0169684
758.817	0.0170625
758.895	0.0169736
758.973	0.0169596
759.051	0.0170963
759.129	0.0169299
759.207	0.0170010
759.285	0.0170219
759.363	0.0169294
759.442	0.0170518
759.520	0.0170528
759.598	0.0171183
759.676	0.0170492
759.754	0.0169678
759.832	0.0169823
759.910	0.0170053
759.988	0.0170004
760.067	0.0170557
760.145	0.0171767
760.223	0.0172142
760.301	0.0172318
760.379	0.0172509
760.457	0.0172928
760.535	0.0172509
760.613	0.0173050
760.692	0.0172215
760.770	0.0173879
760.848	0.0173494
760.926	0.0173878
761.004	0.0172318
761.082	0.0173638
761.160	0.0173281
761.238	0.0172686
761.317	0.0173347
761.395	0.0174355
761.473	0.0170804
761.551	0.0171011
761.629	0.0172198
761.707	0.0171641
761.785	0.0169588
761.863	0.0171384
761.942	0.0169656
762.020	0.0169939
762.098	0.0171632
762.176	0.0168938
762.254	0.0168746
762.332	0.0168415
762.410	0.0169014
762.488	0.0169851
762.567	0.0169597
762.645	0.0168246
762.723	0.0169881
762.801	0.0168808
762.879	0.0171188
762.957	0.0170452
763.035	0.0169631
763.113	0.0170537
763.192	0.0171846
763.270	0.0171703
763.348	0.0172423
763.426	0.0172648
763.504	0.0173154
763.582	0.0172887
763.660	0.0172675
763.738	0.0172762
763.817	0.0171169
763.895	0.0171924
763.973	0.0171870
764.051	0.0172386
764.129	0.0172559
764.207	0.0172464
764.285	0.0171356
764.363	0.0172138
764.442	0.0171884
764.520	0.0170834
764.598	0.0172178
764.676	0.0173775
764.754	0.0172114
764.832	0.0172258
764.910	0.0172205
764.988	0.0173329
765.067	0.0173023
765.145	0.0173570
765.223	0.0173755
765.301	0.0172021
765.379	0.0172321
765.457	0.0172878
765.535	0.0171777
765.613	0.0170973
765.692	0.0170936
765.770	0.0169328
765.848	0.0170377
765.926	0.0168586
766.004	0.0170169
766.082	0.0169068
766.160	0.0169254
766.238	0.0169289
766.317	0.0168015
766.395	0.0168967
766.473	0.0168510
766.551	0.0167937
766.629	0.0166816
766.707	0.0166545
766.785	0.0166297
766.863	0.0165894
766.942	0.0165112
767.020	0.0165315
767.098	0.0166825
767.176	0.0165400
767.254	0.0166079
767.332	0.0166267
767.410	0.0169716
767.488	0.0170232
767.567	0.0169913
767.645	0.0170994
767.723	0.0173574
767.801	0.0174289
767.879	0.0173972
767.957	0.0173576
768.035	0.0175264
768.113	0.0176053
768.192	0.0174964
768.270	0.0174918
768.348	0.0175343
768.426	0.0173985
768.504	0.0173943
768.582	0.0174104
768.660	0.0174007
768.738	0.0172240
768.817	0.0172757
768.895	0.0173122
768.973	0.0171952
769.051	0.0172170
769.129	0.0171762
769.207	0.0171847
769.285	0.0170643
769.363	0.0170313
769.442	0.0171089
769.520	0.0171376
769.598	0.0171450
769.676	0.0170518
769.754	0.0171068
769.832	0.0172160
769.910	0.0171923
769.988	0.0171661
770.067	0.0172146
770.145	0.0171954
770.223	0.0171778
770.301	0.0172703
770.379	0.0171767
770.457	0.0171149
770.535	0.0170742
770.613	0.0172332
770.692	0.0171101
770.770	0.0171855
770.848	0.0172143
770.926	0.0171318
771.004	0.0170302
771.082	0.0169019
771.160	0.0170773
771.238	0.0170647
771.317	0.0170111
771.395	0.0169567
771.473	0.0169531
771.551	0.0171233
771.629	0.0169471
771.707	0.0168613
771.785	0.0168027
771.863	0.0169834
771.942	0.0169008
772.020	0.0169874
772.098	0.0169005
772.176	0.0169347
772.254	0.0168406
772.332	0.0168269
772.410	0.0167255
772.488	0.0169213
772.567	0.0169020
772.645	0.0168391
772.723	0.0166766
772.801	0.0167885
772.879	0.0168536
772.957	0.0167056
773.035	0.0166564
773.113	0.0168153
773.192	0.0167443
773.270	0.0169206
773.348	0.0167896
773.426	0.0168541
773.504	0.0169909
773.582	0.0169729
773.660	0.0169347
773.738	0.0170107
773.817	0.0171099
773.895	0.0172098
773.973	0.0172202
774.051	0.0171251
774.129	0.0172320
774.207	0.0172415
774.285	0.0172674
774.363	0.0172960
774.442	0.0172902
774.520	0.0172974
774.598	0.0173141
774.676	0.0173553
774.754	0.0172645
774.832	0.0173306
774.910	0.0173320
774.988	0.0174160
775.067	0.0173580
775.145	0.0173032
775.223	0.0173064
775.301	0.0173430
775.379	0.0173766
775.457	0.0174828
775.535	0.0173839
775.613	0.0174050
775.692	0.0174496
775.770	0.0175614
775.848	0.0176046
775.926	0.0175441
776.004	0.0174014
776.082	0.0175578
776.160	0.0175304
776.238	0.0173247
776.317	0.0173817
776.395	0.0173158
776.473	0.0171829
776.551	0.0173566
776.629	0.0171781
776.707	0.0169669
776.785	0.0169149
776.863	0.0170313
776.942	0.0168707
777.020	0.0167837
777.098	0.0166360
777.176	0.0167226
777.254	0.0168538
777.332	0.0167702
777.410	0.0167801
777.488	0.0168368
777.567	0.0167923
777.645	0.0167623
777.723	0.0168305
777.801	0.0168221
777.879	0.0168173
777.957	0.0168569
778.035	0.0167695
778.113	0.0169115
778.192	0.0170124
778.270	0.0169059
778.348	0.0170226
778.426	0.0172279
778.504	0.0171080
778.582	0.0170691
778.660	0.0171097
778.738	0.0171770
778.817	0.0172010
778.895	0.0172330
778.973	0.0171616
779.051	0.0170827
779.129	0.0170252
779.207	0.0170965
779.285	0.0171471
779.363	0.0171385
779.442	0.0172565
779.520	0.0170887
779.598	0.0170567
779.676	0.0169671
779.754	0.0169778
779.832	0.0169438
779.910	0.0167468
779.988	0.0167075
780.067	0.0169668
780.145	0.0167246
780.223	0.0168987
780.301	0.0167822
780.379	0.0167930
780.457	0.0168741
780.535	0.0168734
780.613	0.0168737
780.692	0.0169672
780.770	0.0169943
780.848	0.0171774
780.926	0.0171507
781.004	0.0173042
781.082	0.0172729
781.160	0.0173624
781.238	0.0176431
781.317	0.0175806
781.395	0.0177365
781.473	0.0177409
781.551	0.0177570
781.629	0.0177100
781.707	0.0177174
781.785	0.0178649
781.863	0.0177477
781.942	0.0178383
782.020	0.0177523
782.098	0.0177068
782.176	0.0178145
782.254	0.0177576
782.332	0.0177121
782.410	0.0175781
782.488	0.0174434
782.567	0.0173655
782.645	0.0172960
782.723	0.0171658
782.801	0.0170149
782.879	0.0169831
782.957	0.0168743
783.035	0.0167786
783.113	0.0166239
783.192	0.0164503
783.270	0.0164087
783.348	0.0163470
783.426	0.0162691
783.504	0.0161016
783.582	0.0159808
783.660	0.0160737
783.738	0.0160128
783.817	0.0160806
783.895	0.0160848
783.973	0.0162616
784.051	0.0164001
784.129	0.0164095
784.207	0.0166514
784.285	0.0167908
784.363	0.0169106
784.442	0.0170849
784.520	0.0173055
784.598	0.0173738
784.676	0.0175882
784.754	0.0178301
784.832	0.0178708
784.910	0.0180760
784.988	0.0181629
785.067	0.0181969
785.145	0.0181377
785.223	0.0181702
785.301	0.0182961
785.379	0.0182292
785.457	0.0180657
785.535	0.0183140
785.613	0.0180352
785.692	0.0179631
785.770	0.0179348
785.848	0.0178727
785.926	0.0176581
786.004	0.0175848
786.082	0.0174868
786.160	0.0172575
786.238	0.0170738
786.317	0.0169211
786.395	0.0168388
786.473	0.0167205
786.551	0.0165163
786.629	0.0164397
786.707	0.0163531
786.785	0.0164075
786.863	0.0162650
786.942	0.0161298
787.020	0.0160193
787.098	0.0159777
787.176	0.0158414
787.254	0.0158369
787.332	0.0157665
787.410	0.0158556
787.488	0.0157231
787.567	0.0158450
787.645	0.0157757
787.723	0.0158131
787.801	0.0159858
787.879	0.0160544
787.957	0.0161157
788.035	0.0163560
788.113	0.0166137
788.192	0.0166972
788.270	0.0169215
788.348	0.0169739
788.426	0.0173715
788.504	0.0178214
788.582	0.0179065
788.660	0.0181822
788.738	0.0184464
788.817	0.0187344
788.895	0.0186916
788.973	0.0188249
789.051	0.0189639
789.129	0.0192123
789.207	0.0190343
789.285	0.0190330
789.363	0.0189689
789.442	0.0188887
789.520	0.0187527
789.598	0.0186922
789.676	0.0184673
789.754	0.0183453
789.832	0.0182333
789.910	0.0179900
789.988	0.0178043
790.067	0.0175178
790.145	0.0173897
790.223	0.0171539
790.301	0.0170688
790.379	0.0168259
790.457	0.0167110
790.535	0.0166578
790.613	0.0164751
790.692	0.0165806
790.770	0.0163429
790.848	0.0162753
790.926	0.0160757
791.004	0.0162325
791.082	0.0161472
791.160	0.0160311
791.238	0.0158556
791.317	0.0158957
791.395	0.0157694
791.473	0.0158891
791.551	0.0157979
791.629	0.0156557
791.707	0.0155003
791.785	0.0156032
791.863	0.0157307
791.942	0.0157888
792.020	0.0157854
792.098	0.0159490
792.176	0.0162189
792.254	0.0162574
792.332	0.0164307
792.410	0.0167372
792.488	0.0169245
792.567	0.0169787
792.645	0.0171815
792.723	0.0174418
792.801	0.0175217
792.879	0.0177715
792.957	0.0179797
793.035	0.0180705
793.113	0.0180118
793.192	0.0182001
793.270	0.0182026
793.348	0.0182023
793.426	0.0183130
793.504	0.0183858
793.582	0.0183647
793.660	0.0184060
793.738	0.0182533
793.817	0.0182073
793.895	0.0180560
793.973	0.0181763
794.051	0.0180949
794.129	0.0181763
794.207	0.0179893
794.285	0.0178493
794.363	0.0179367
794.442	0.0178179
794.520	0.0176131
794.598	0.0175259
794.676	0.0175089
794.754	0.0174831
794.832	0.0172313
794.910	0.0172545
794.988	0.0170132
795.067	0.0169405
795.145	0.0168391
795.223	0.0167583
795.301	0.0166986
795.379	0.0166154
795.457	0.0164864
795.535	0.0162425
795.613	0.0163077
795.692	0.0162797
795.770	0.0160953
795.848	0.0160690
795.926	0.0161336
796.004	0.0160378
796.082	0.0161401
796.160	0.0160633
796.238	0.0160401
796.317	0.0162831
796.395	0.0163220
796.473	0.0164561
796.551	0.0164304
796.629	0.0165013
796.707	0.0165807
796.785	0.0167417
796.863	0.0168046
796.942	0.0168330
797.020	0.0170110
797.098	0.0169314
797.176	0.0168620
797.254	0.0169310
797.332	0.0171053
797.410	0.0171857
797.488	0.0171600
797.567	0.0171983
797.645	0.0173369
797.723	0.0173820
797.801	0.0175654
797.879	0.0176836
797.957	0.0175574
798.035	0.0175417
798.113	0.0177670
798.192	0.0178201
798.270	0.0177825
798.348	0.0178816
798.426	0.0180516
798.504	0.0180014
798.582	0.0179491
798.660	0.0180338
798.738	0.0179164
798.817	0.0177428
798.895	0.0178510
798.973	0.0177773
799.051	0.0176805
799.129	0.0177046
799.207	0.0175484
799.285	0.0175439
799.363	0.0174002
799.442	0.0172959
799.520	0.0171389
799.598	0.0169591
799.676	0.0169322
799.754	0.0169456
799.832	0.0168637
799.910	0.0167739
799.988	0.0166537
800.067	0.0166982
800.145	0.0166255
800.223	0.0166825
800.301	0.0166648
800.379	0.0165962
800.457	0.0167332
800.535	0.0167484
800.613	0.0167532
800.692	0.0167651
800.770	0.0168577
800.848	0.0168068
800.926	0.0168689
801.004	0.0167369
801.082	0.0166924
801.160	0.0167519
801.238	0.0167667
801.317	0.0167570
801.395	0.0167744
801.473	0.0166563
801.551	0.0166422
801.629	0.0168443
801.707	0.0168430
801.785	0.0167552
801.863	0.0168856
801.942	0.0167836
802.020	0.0168424
802.098	0.0167879
802.176	0.0168506
802.254	0.0170106
802.332	0.0170914
802.410	0.0169766
802.488	0.0171114
802.567	0.0171066
802.645	0.0170193
802.723	0.0171730
802.801	0.0172729
802.879	0.0173431
802.957	0.0173080
803.035	0.0174789
803.113	0.0175185
803.192	0.0175512
803.270	0.0177547
803.348	0.0176871
803.426	0.0175913
803.504	0.0177773
803.582	0.0177708
803.660	0.0176669
803.738	0.0177360
803.817	0.0176915
803.895	0.0175201
803.973	0.0175372
804.051	0.0175700
804.129	0.0174655
804.207	0.0175885
804.285	0.0174925
804.363	0.0175528
804.442	0.0174728
804.520	0.0175202
804.598	0.0175282
804.676	0.0174770
804.754	0.0175741
804.832	0.0175295
804.910	0.0173470
804.988	0.0174591
805.067	0.0175075
805.145	0.0174229
805.223	0.0171398
805.301	0.0171829
805.379	0.0171788
805.457	0.0171760
805.535	0.0170406
805.613	0.0169803
805.692	0.0170850
805.770	0.0169230
805.848	0.0169773
805.926	0.0169318
806.004	0.0167854
806.082	0.0167852
806.160	0.0170775
806.238	0.0168800
806.317	0.0168050
806.395	0.0168243
806.473	0.0167911
806.551	0.0168150
806.629	0.0167532
806.707	0.0169714
806.785	0.0167325
806.863	0.0170506
806.942	0.0170178
807.020	0.0170228
807.098	0.0170364
807.176	0.0170177
807.254	0.0170839
807.332	0.0168117
807.410	0.0168867
807.488	0.0168437
807.567	0.0169454
807.645	0.0167984
807.723	0.0169238
807.801	0.0169193
807.879	0.0168924
807.957	0.0167760
808.035	0.0167036
808.113	0.0169409
808.192	0.0168759
808.270	0.0167921
808.348	0.0169967
808.426	0.0169808
808.504	0.0169721
808.582	0.0171001
808.660	0.0171376
808.738	0.0170107
808.817	0.0170819
808.895	0.0172948
808.973	0.0172303
809.051	0.0173399
809.129	0.0174004
809.207	0.0174961
809.285	0.0175431
809.363	0.0176264
809.442	0.0175303
809.520	0.0176379
809.598	0.0176753
809.676	0.0176486
809.754	0.0176135
809.832	0.0175952
809.910	0.0174810
809.988	0.0174290
810.067	0.0176379
810.145	0.0175285
810.223	0.0173587
810.301	0.0174124
810.379	0.0174268
810.457	0.0174824
810.535	0.0175832
810.613	0.0175226
810.692	0.0174842
810.770	0.0174542
810.848	0.0174157
810.926	0.0174306
811.004	0.0174319
811.082	0.0173061
811.160	0.0173158
811.238	0.0173007
811.317	0.0172610
811.395	0.0170923
811.473	0.0170883
811.551	0.0171096
811.629	0.0171168
811.707	0.0169048
811.785	0.0169589
811.863	0.0170056
811.942	0.0169012
812.020	0.0168214
812.098	0.0167670
812.176	0.0169081
812.254	0.0168408
812.332	0.0167630
812.410	0.0167557
812.488	0.0169099
812.567	0.0169403
812.645	0.0168042
812.723	0.0170296
812.801	0.0168806
812.879	0.0168927
812.957	0.0169808
813.035	0.0168005
813.113	0.0167662
813.192	0.0167921
813.270	0.0168332
813.348	0.0168826
813.426	0.0168738
813.504	0.0167566
813.582	0.0167337
813.660	0.0165643
813.738	0.0167431
813.817	0.0167567
813.895	0.0167757
813.973	0.0167533
814.051	0.0168109
814.129	0.0170419
814.207	0.0171095
814.285	0.0171478
814.363	0.0171735
814.442	0.0173482
814.520	0.0175271
814.598	0.0176785
814.676	0.0175827
814.754	0.0178164
814.832	0.0178618
814.910	0.0177772
814.988	0.0179472
815.067	0.0179048
815.145	0.0178243
815.223	0.0178603
815.301	0.0177389
815.379	0.0177569
815.457	0.0175198
815.535	0.0175288
815.613	0.0173162
815.692	0.0173734
815.770	0.0174191
815.848	0.0173486
815.926	0.0171659
816.004	0.0170461
816.082	0.0171644
816.160	0.0170983
816.238	0.0171006
816.317	0.0169711
816.395	0.0169183
816.473	0.0169775
816.551	0.0170079
816.629	0.0169127
816.707	0.0168508
816.785	0.0169580
816.863	0.0168200
816.942	0.0170200
817.020	0.0167640
817.098	0.0169363
817.176	0.0169164
817.254	0.0166979
817.332	0.0169943
817.410	0.0171563
817.488	0.0168693
817.567	0.0169694
817.645	0.0169909
817.723	0.0170131
817.801	0.0171423
817.879	0.0171602
817.957	0.0171020
818.035	0.0172718
818.113	0.0173409
818.192	0.0172353
818.270	0.0173759
818.348	0.0174427
818.426	0.0173325
818.504	0.0173829
818.582	0.0173403
818.660	0.0173814
818.738	0.0174033
818.817	0.0174084
818.895	0.0173758
818.973	0.0173484
819.051	0.0172385
819.129	0.0173154
819.207	0.0171717
819.285	0.0170555
819.363	0.0171056
819.442	0.0170918
819.520	0.0170181
819.598	0.0168429
819.676	0.0170826
819.754	0.0170752
819.832	0.0168996
819.910	0.0169788
819.988	0.0169730
820.067	0.0171031
820.145	0.0171644
820.223	0.0171255
820.301	0.0171623
820.379	0.0170872
820.457	0.0171064
820.535	0.0172133
820.613	0.0171496
820.692	0.0172710
820.770	0.0172181
820.848	0.0172601
820.926	0.0171262
821.004	0.0171054
821.082	0.0170348
821.160	0.0171748
821.238	0.0170937
821.317	0.0170630
821.395	0.0170309
821.473	0.0170530
821.551	0.0170347
821.629	0.0172430
821.707	0.0172459
821.785	0.0170192
821.863	0.0172779
821.942	0.0173418
822.020	0.0172150
822.098	0.0173672
822.176	0.0174912
822.254	0.0173362
822.332	0.0174803
822.410	0.0174731
822.488	0.0173908
822.567	0.0174770
822.645	0.0173997
822.723	0.0172719
822.801	0.0173062
822.879	0.0173031
822.957	0.0171914
823.035	0.0171159
823.113	0.0171539
823.192	0.0170341
823.270	0.0170425
823.348	0.0167850
823.426	0.0168193
823.504	0.0168961
823.582	0.0168391
823.660	0.0167939
823.738	0.0167344
823.817	0.0168632
823.895	0.0168079
823.973	0.0168940
824.051	0.0168222
824.129	0.0168748
824.207	0.0169962
824.285	0.0170007
824.363	0.0170511
824.442	0.0170422
824.520	0.0170938
824.598	0.0172306
824.676	0.0171891
824.754	0.0171947
824.832	0.0172487
824.910	0.0173568
824.988	0.0173260
825.067	0.0173594
825.145	0.0172800
825.223	0.0173418
825.301	0.0172969
825.379	0.0171088
825.457	0.0171834
825.535	0.0172041
825.613	0.0170521
825.692	0.0171713
825.770	0.0171942
825.848	0.0171275
825.926	0.0170119
826.004	0.0170788
826.082	0.0171318
826.160	0.0170783
826.238	0.0173032
826.317	0.0173260
826.395	0.0173495
826.473	0.0173147
826.551	0.0173380
826.629	0.0173203
826.707	0.0172858
826.785	0.0174615
826.863	0.0174812
826.942	0.0172980
827.020	0.0173082
827.098	0.0172167
827.176	0.0173016
827.254	0.0171997
827.332	0.0171684
827.410	0.0171451
827.488	0.0171622
827.567	0.0170556
827.645	0.0171086
827.723	0.0171522
827.801	0.0171237
827.879	0.0170851
827.957	0.0170209
828.035	0.0169289
828.113	0.0170447
828.192	0.0170061
828.270	0.0169453
828.348	0.0168302
828.426	0.0169121
828.504	0.0169178
828.582	0.0169893
828.660	0.0169849
828.738	0.0170837
828.817	0.0170509
828.895	0.0171256
828.973	0.0170905
829.051	0.0168620
829.129	0.0169912
829.207	0.0170267
829.285	0.0170483
829.363	0.0168905
829.442	0.0168950
829.520	0.0170952
829.598	0.0170518
829.676	0.0170049
829.754	0.0170077
829.832	0.0169753
829.910	0.0169318
829.988	0.0170612
830.067	0.0171555
830.145	0.0172532
830.223	0.0172180
830.301	0.0173579
830.379	0.0174359
830.457	0.0174877
830.535	0.0173608
830.613	0.0173915
830.692	0.0176358
830.770	0.0175306
830.848	0.0175437
830.926	0.0176205
831.004	0.0175839
831.082	0.0174104
831.160	0.0174386
831.238	0.0175627
831.317	0.0174045
831.395	0.0173985
831.473	0.0174738
831.551	0.0173710
831.629	0.0173569
831.707	0.0173296
831.785	0.0172643
831.863	0.0172775
831.942	0.0174190
832.020	0.0172988
832.098	0.0171967
832.176	0.0172697
832.254	0.0171255
832.332	0.0171420
832.410	0.0170438
832.488	0.0170866
832.567	0.0168864
832.645	0.0169762
832.723	0.0168906
832.801	0.0168157
832.879	0.0168158
832.957	0.0167451
833.035	0.0166114
833.113	0.0165078
833.192	0.0167551
833.270	0.0167375
833.348	0.0166460
833.426	0.0165758
833.504	0.0165365
833.582	0.0165411
833.660	0.0166468
833.738	0.0166463
833.817	0.0167867
833.895	0.0167886
833.973	0.0167326
834.051	0.0169382
834.129	0.0170774
834.207	0.0169590
834.285	0.0169431
834.363	0.0171745
834.442	0.0173264
834.520	0.0172216
834.598	0.0173749
834.676	0.0174291
834.754	0.0175133
834.832	0.0176644
834.910	0.0176662
834.988	0.0176967
835.067	0.0176529
835.145	0.0176445
835.223	0.0178056
835.301	0.0177386
835.379	0.0177078
835.457	0.0175425
835.535	0.0177176
835.613	0.0176434
835.692	0.0175412
835.770	0.0175008
835.848	0.0175290
835.926	0.0174924
836.004	0.0174718
836.082	0.0174030
836.160	0.0175632
836.238	0.0172866
836.317	0.0172628
836.395	0.0173937
836.473	0.0172012
836.551	0.0171266
836.629	0.0171286
836.707	0.0170770
836.785	0.0169505
836.863	0.0168755
836.942	0.0167822
837.020	0.0167338
837.098	0.0167117
837.176	0.0166792
837.254	0.0166920
837.332	0.0165237
837.410	0.0166027
837.488	0.0167190
837.567	0.0164857
837.645	0.0166110
837.723	0.0165818
837.801	0.0166952
837.879	0.0166402
837.957	0.0165283
838.035	0.0166816
838.113	0.0167567
838.192	0.0168473
838.270	0.0168049
838.348	0.0167889
838.426	0.0169963
838.504	0.0171483
838.582	0.0170761
838.660	0.0170926
838.738	0.0172587
838.817	0.0172327
838.895	0.0172064
838.973	0.0172678
839.051	0.0174342
839.129	0.0174401
839.207	0.0174523
839.285	0.0176096
839.363	0.0175720
839.442	0.0175269
839.520	0.0175215
839.598	0.0175530
839.676	0.0174607
839.754	0.0175594
839.832	0.0175211
839.910	0.0175023
839.988	0.0174877
840.067	0.0175265
840.145	0.0175325
840.223	0.0174701
840.301	0.0173446
840.379	0.0174167
840.457	0.0173685
840.535	0.0172337
840.613	0.0171919
840.692	0.0172320
840.770	0.0172229
840.848	0.0171233
840.926	0.0169484
841.004	0.0171279
841.082	0.0169655
841.160	0.0168859
841.238	0.0169599
841.317	0.0169807
841.395	0.0170354
841.473	0.0169615
841.551	0.0169390
841.629	0.0168484
841.707	0.0169408
841.785	0.0168705
841.863	0.0168804
841.942	0.0169116
842.020	0.0169212
842.098	0.0170272
842.176	0.0169501
842.254	0.0170636
842.332	0.0171354
842.410	0.0171130
842.488	0.0173121
842.567	0.0173380
842.645	0.0173198
842.723	0.0173193
842.801	0.0172208
842.879	0.0173399
842.957	0.0172819
843.035	0.0172563
843.113	0.0173508
843.192	0.0172195
843.270	0.0171548
843.348	0.0172407
843.426	0.0171881
843.504	0.0172482
843.582	0.0172331
843.660	0.0170663
843.738	0.0171501
843.817	0.0170148
843.895	0.0169879
843.973	0.0169264
844.051	0.0169462
844.129	0.0170314
844.207	0.0169282
844.285	0.0171015
844.363	0.0169918
844.442	0.0169802
844.520	0.0171028
844.598	0.0171152
844.676	0.0170145
844.754	0.0170947
844.832	0.0170166
844.910	0.0170462
844.988	0.0170971
845.067	0.0173220
845.145	0.0171107
845.223	0.0170216
845.301	0.0172412
845.379	0.0171799
845.457	0.0170892
845.535	0.0171741
845.613	0.0171603
845.692	0.0172611
845.770	0.0171169
845.848	0.0170055
845.926	0.0171639
846.004	0.0171165
846.082	0.0169943
846.160	0.0171786
846.238	0.0171410
846.317	0.0170962
846.395	0.0171231
846.473	0.0169739
846.551	0.0170665
846.629	0.0170799
846.707	0.0170766
846.785	0.0171453
846.863	0.0172076
846.942	0.0171380
847.020	0.0172673
847.098	0.0172358
847.176	0.0172258
847.254	0.0171749
847.332	0.0173071
847.410	0.0171005
847.488	0.0171778
847.567	0.0171394
847.645	0.0171067
847.723	0.0171644
847.801	0.0172540
847.879	0.0170477
847.957	0.0170570
848.035	0.0171045
848.113	0.0171723
848.192	0.0172463
848.270	0.0172314
848.348	0.0170168
848.426	0.0171589
848.504	0.0171932
848.582	0.0170935
848.660	0.0171763
848.738	0.0170025
848.817	0.0170345
848.895	0.0172922
848.973	0.0172028
849.051	0.0169792
849.129	0.0171500
849.207	0.0171487
849.285	0.0171367
849.363	0.0169667
849.442	0.0170939
849.520	0.0170601
849.598	0.0171352
849.676	0.0170368
849.754	0.0169846
849.832	0.0170727
849.910	0.0169373
849.988	0.0168629
850.067	0.0168589
850.145	0.0169351
850.223	0.0169554
850.301	0.0169466
850.379	0.0168532
850.457	0.0168739
850.535	0.0169259
850.613	0.0170005
850.692	0.0169998
850.770	0.0169878
850.848	0.0169630
850.926	0.0168999
851.004	0.0170756
851.082	0.0171027
851.160	0.0171655
851.238	0.0170065
851.317	0.0170508
851.395	0.0172236
851.473	0.0171966
851.551	0.0170452
851.629	0.0172029
851.707	0.0172096
851.785	0.0170997
851.863	0.0171091
851.942	0.0173731
852.020	0.0172378
852.098	0.0172128
852.176	0.0172804
852.254	0.0171982
852.332	0.0171619
852.410	0.0171141
852.488	0.0172837
852.567	0.0171763
852.645	0.0170917
852.723	0.0171909
852.801	0.0172931
852.879	0.0171156
852.957	0.0171938
853.035	0.0171653
853.113	0.0171437
853.192	0.0170660
853.270	0.0171336
853.348	0.0171171
853.426	0.0170617
853.504	0.0171832
853.582	0.0172248
853.660	0.0171637
853.738	0.0170716
853.817	0.0172069
853.895	0.0171202
853.973	0.0169907
854.051	0.0171577
854.129	0.0171225
854.207	0.0169935
854.285	0.0169846
854.363	0.0169289
854.442	0.0170549
854.520	0.0168085
854.598	0.0168147
854.676	0.0168603
854.754	0.0167613
854.832	0.0169020
854.910	0.0170071
854.988	0.0168970
855.067	0.0169899
855.145	0.0170249
855.223	0.0170086
855.301	0.0170293
855.379	0.0170972
855.457	0.0169542
855.535	0.0170628
855.613	0.0170977
855.692	0.0171858
855.770	0.0170572
855.848	0.0170913
855.926	0.0170792
856.004	0.0171687
856.082	0.0171449
856.160	0.0170930
856.238	0.0171729
856.317	0.0171693
856.395	0.0172411
856.473	0.0172485
856.551	0.0172359
856.629	0.0171446
856.707	0.0172161
856.785	0.0171813
856.863	0.0171511
856.942	0.0171268
857.020	0.0172469
857.098	0.0170649
857.176	0.0171569
857.254	0.0172269
857.332	0.0171609
857.410	0.0171157
857.488	0.0171603
857.567	0.0171488
857.645	0.0171346
857.723	0.0172396
857.801	0.0170457
857.879	0.0171425
857.957	0.0173660
858.035	0.0172452
858.113	0.0171225
858.192	0.0170625
858.270	0.0170872
858.348	0.0171734
858.426	0.0172144
858.504	0.0172734
858.582	0.0171610
858.660	0.0171922
858.738	0.0172936
858.817	0.0172690
858.895	0.0171472
858.973	0.0171822
859.051	0.0171053
859.129	0.0173215
859.207	0.0171041
859.285	0.0171921
859.363	0.0170774
859.442	0.0171307
859.520	0.0171032
859.598	0.0171165
859.676	0.0170254
859.754	0.0170648
859.832	0.0171362
859.910	0.0171456
859.988	0.0171940
860.067	0.0171172
860.145	0.0170762
860.223	0.0171602
860.301	0.0171215
860.379	0.0171194
860.457	0.0169399
860.535	0.0170965
860.613	0.0171228
860.692	0.0170975
860.770	0.0169090
860.848	0.0169511
860.926	0.0169236
861.004	0.0169580
861.082	0.0170129
861.160	0.0168509
861.238	0.0168767
861.317	0.0169733
861.395	0.0168999
861.473	0.0169238
861.551	0.0169042
861.629	0.0171484
861.707	0.0171598
861.785	0.0169159
861.863	0.0169601
861.942	0.0169516
862.020	0.0170733
862.098	0.0169395
862.176	0.0170527
862.254	0.0171066
862.332	0.0170432
862.410	0.0169414
862.488	0.0171182
862.567	0.0171404
862.645	0.0171258
862.723	0.0172205
862.801	0.0172472
862.879	0.0171148
862.957	0.0170159
863.035	0.0170852
863.113	0.0169632
863.192	0.0168828
863.270	0.0169252
863.348	0.0171122
863.426	0.0169952
863.504	0.0169493
863.582	0.0168134
863.660	0.0170245
863.738	0.0171258
863.817	0.0171425
863.895	0.0170615
863.973	0.0172340
864.051	0.0171072
864.129	0.0171693
864.207	0.0171241
864.285	0.0173496
864.363	0.0173074
864.442	0.0172847
864.520	0.0173291
864.598	0.0173685
864.676	0.0173010
864.754	0.0173171
864.832	0.0171986
864.910	0.0172340
864.988	0.0172211
865.067	0.0171443
865.145	0.0171386
865.223	0.0171830
865.301	0.0172691
865.379	0.0170832
865.457	0.0170762
865.535	0.0171844
865.613	0.0172650
865.692	0.0170998
865.770	0.0171516
865.848	0.0169220
865.926	0.0169630
866.004	0.0168757
866.082	0.0168382
866.160	0.0168887
866.238	0.0167958
866.317	0.0167734
866.395	0.0168117
866.473	0.0168302
866.551	0.0169708
866.629	0.0169519
866.707	0.0168610
866.785	0.0169772
866.863	0.0168897
866.942	0.0168804
867.020	0.0171751
867.098	0.0170277
867.176	0.0170617
867.254	0.0170779
867.332	0.0170458
867.410	0.0170594
867.488	0.0171344
867.567	0.0171268
867.645	0.0171426
867.723	0.0171251
867.801	0.0172877
867.879	0.0172099
867.957	0.0172171
868.035	0.0171815
868.113	0.0172783
868.192	0.0173003
868.270	0.0172575
868.348	0.0174161
868.426	0.0172077
868.504	0.0170844
868.582	0.0172195
868.660	0.0172310
868.738	0.0172208
868.817	0.0171062
868.895	0.0171105
868.973	0.0169216
869.051	0.0171426
869.129	0.0171609
869.207	0.0171755
869.285	0.0170020
869.363	0.0170866
869.442	0.0172852
869.520	0.0170876
869.598	0.0171106
869.676	0.0173472
869.754	0.0172275
869.832	0.0171446
869.910	0.0171803
869.988	0.0171243
870.067	0.0171971
870.145	0.0172614
870.223	0.0170883
870.301	0.0171217
870.379	0.0171069
870.457	0.0169897
870.535	0.0171206
870.613	0.0171024
870.692	0.0170418
870.770	0.0169208
870.848	0.0170637
870.926	0.0170822
871.004	0.0171189
871.082	0.0170248
871.160	0.0171084
871.238	0.0171069
871.317	0.0171569
871.395	0.0172412
871.473	0.0172019
871.551	0.0169939
871.629	0.0171491
871.707	0.0173655
871.785	0.0171828
871.863	0.0171817
871.942	0.0173126
872.020	0.0169939
872.098	0.0171142
872.176	0.0172535
872.254	0.0171045
872.332	0.0171873
872.410	0.0172041
872.488	0.0172625
872.567	0.0171820
872.645	0.0172690
872.723	0.0173682
872.801	0.0172544
872.879	0.0171181
872.957	0.0171885
873.035	0.0171397
873.113	0.0169718
873.192	0.0171198
873.270	0.0170049
873.348	0.0169374
873.426	0.0169706
873.504	0.0168739
873.582	0.0170411
873.660	0.0169615
873.738	0.0169754
873.817	0.0170506
873.895	0.0170545
873.973	0.0170279
874.051	0.0170914
874.129	0.0172370
874.207	0.0172257
874.285	0.0171084
874.363	0.0172506
874.442	0.0170878
874.520	0.0170670
874.598	0.0171538
874.676	0.0171091
874.754	0.0172232
874.832	0.0170061
874.910	0.0171979
874.988	0.0170052
875.067	0.0169417
875.145	0.0170149
875.223	0.0168698
875.301	0.0168771
875.379	0.0170079
875.457	0.0168015
875.535	0.0170948
875.613	0.0168719
875.692	0.0170342
875.770	0.0171761
875.848	0.0170779
875.926	0.0170729
876.004	0.0171681
876.082	0.0171944
876.160	0.0172452
876.238	0.0171532
876.317	0.0172136
876.395	0.0172292
876.473	0.0171263
876.551	0.0172228
876.629	0.0172903
876.707	0.0173641
876.785	0.0172166
876.863	0.0172359
876.942	0.0171777
877.020	0.0171127
877.098	0.0171278
877.176	0.0170687
877.254	0.0171019
877.332	0.0169405
877.410	0.0172783
877.488	0.0172449
877.567	0.0171774
877.645	0.0171394
877.723	0.0171892
877.801	0.0171246
877.879	0.0172197
877.957	0.0171032
878.035	0.0170193
878.113	0.0169433
878.192	0.0168604
878.270	0.0168713
878.348	0.0167854
878.426	0.0165429
878.504	0.0165981
878.582	0.0165235
878.660	0.0165126
878.738	0.0165428
878.817	0.0165039
878.895	0.0164362
878.973	0.0165460
879.051	0.0167441
879.129	0.0168611
879.207	0.0169462
879.285	0.0170794
879.363	0.0173863
879.442	0.0175187
879.520	0.0176572
879.598	0.0179086
879.676	0.0181426
879.754	0.0182767
879.832	0.0183441
879.910	0.0185577
879.988	0.0184480
880.067	0.0183849
880.145	0.0184373
880.223	0.0182399
880.301	0.0179970
880.379	0.0177250
880.457	0.0176375
880.535	0.0175092
880.613	0.0172655
880.692	0.0170658
880.770	0.0168509
880.848	0.0167321
880.926	0.0165697
881.004	0.0165278
881.082	0.0164634
881.160	0.0165092
881.238	0.0164481
881.317	0.0163691
881.395	0.0165730
881.473	0.0164396
881.551	0.0165796
881.629	0.0165981
881.707	0.0166996
881.785	0.0167243
881.863	0.0166090
881.942	0.0167831
882.020	0.0167331
882.098	0.0168916
882.176	0.0168400
882.254	0.0167992
882.332	0.0169164
882.410	0.0168729
882.488	0.0169105
882.567	0.0166235
882.645	0.0167070
882.723	0.0166368
882.801	0.0165987
882.879	0.0166641
882.957	0.0166192
883.035	0.0166835
883.113	0.0167007
883.192	0.0167909
883.270	0.0168732
883.348	0.0172063
883.426	0.0173859
883.504	0.0174693
883.582	0.0176224
883.660	0.0180494
883.738	0.0182552
883.817	0.0183013
883.895	0.0185635
883.973	0.0185554
884.051	0.0186008
884.129	0.0186437
884.207	0.0184967
884.285	0.0183125
884.363	0.0181058
884.442	0.0180631
884.520	0.0177768
884.598	0.0176173
884.676	0.0174442
884.754	0.0171667
884.832	0.0168140
884.910	0.0167743
884.988	0.0167081
885.067	0.0167452
885.145	0.0167097
885.223	0.0166665
885.301	0.0168501
885.379	0.0167989
885.457	0.0167156
885.535	0.0168944
885.613	0.0169048
885.692	0.0170726
885.770	0.0169174
885.848	0.0169489
885.926	0.0169806
886.004	0.0170791
886.082	0.0169278
886.160	0.0166706
886.238	0.0167474
886.317	0.0167667
886.395	0.0166564
886.473	0.0164818
886.551	0.0163352
886.629	0.0163956
886.707	0.0163805
886.785	0.0163154
886.863	0.0164754
886.942	0.0164016
887.020	0.0163676
887.098	0.0164684
887.176	0.0166050
887.254	0.0166965
887.332	0.0168364
887.410	0.0170364
887.488	0.0172031
887.567	0.0172495
887.645	0.0174371
887.723	0.0175034
887.801	0.0176804
887.879	0.0178092
887.957	0.0180104
888.035	0.0180869
888.113	0.0180494
888.192	0.0180674
888.270	0.0182439
888.348	0.0179150
888.426	0.0180318
888.504	0.0180769
888.582	0.0177238
888.660	0.0176040
888.738	0.0176469
888.817	0.0176737
888.895	0.0174571
888.973	0.0174239
889.051	0.0174668
889.129	0.0173840
889.207	0.0172850
889.285	0.0172578
889.363	0.0170769
889.442	0.0171777
889.520	0.0170529
889.598	0.0169116
889.676	0.0167636
889.754	0.0167538
889.832	0.0167540
889.910	0.0166826
889.988	0.0165572
890.067	0.0164410
890.145	0.0163335
890.223	0.0162964
890.301	0.0163914
890.379	0.0163625
890.457	0.0163759
890.535	0.0164819
890.613	0.0162962
890.692	0.0164142
890.770	0.0164716
890.848	0.0165780
890.926	0.0167606
891.004	0.0166741
891.082	0.0168851
891.160	0.0171687
891.238	0.0171733
891.317	0.0173424
891.395	0.0173335
891.473	0.0176024
891.551	0.0177562
891.629	0.0178501
891.707	0.0177095
891.785	0.0177431
891.863	0.0178166
891.942	0.0179679
892.020	0.0177944
892.098	0.0177074
892.176	0.0177161
892.254	0.0175038
892.332	0.0175311
892.410	0.0173934
892.488	0.0173765
892.567	0.0173112
892.645	0.0170937
892.723	0.0170981
892.801	0.0171557
892.879	0.0170677
892.957	0.0171811
893.035	0.0172529
893.113	0.0173686
893.192	0.0173293
893.270	0.0174552
893.348	0.0175248
893.426	0.0176279
893.504	0.0176168
893.582	0.0176395
893.660	0.0176278
893.738	0.0173801
893.817	0.0172632
893.895	0.0172694
893.973	0.0172345
894.051	0.0170432
894.129	0.0168913
894.207	0.0168439
894.285	0.0167574
894.363	0.0164684
894.442	0.0164787
894.520	0.0164569
894.598	0.0164959
894.676	0.0163415
894.754	0.0163706
894.832	0.0164464
894.910	0.0163777
894.988	0.0165112
895.067	0.0165808
895.145	0.0165141
895.223	0.0166122
895.301	0.0168103
895.379	0.0168810
895.457	0.0169379
895.535	0.0171864
895.613	0.0171657
895.692	0.0172410
895.770	0.0174679
895.848	0.0174583
895.926	0.0174699
896.004	0.0175585
896.082	0.0175636
896.160	0.0175403
896.238	0.0175761
896.317	0.0174552
896.395	0.0175010
896.473	0.0174287
896.551	0.0171314
896.629	0.0171478
896.707	0.0170200
896.785	0.0171790
896.863	0.0170898
896.942	0.0170050
897.020	0.0169413
897.098	0.0170354
897.176	0.0170286
897.254	0.0171068
897.332	0.0172191
897.410	0.0172577
897.488	0.0173648
897.567	0.0173286
897.645	0.0173615
897.723	0.0174385
897.801	0.0174421
897.879	0.0175176
897.957	0.0174430
898.035	0.0174231
898.113	0.0174920
898.192	0.0174209
898.270	0.0172324
898.348	0.0172959
898.426	0.0172810
898.504	0.0171719
898.582	0.0171536
898.660	0.0169760
898.738	0.0169025
898.817	0.0168576
898.895	0.0166065
898.973	0.0168183
899.051	0.0166957
899.129	0.0166261
899.207	0.0166435
899.285	0.0166819
899.363	0.0165034
899.442	0.0165806
899.520	0.0165682
899.598	0.0167491
899.676	0.0166589
899.754	0.0166006
899.832	0.0167837
899.910	0.0168571
899.988	0.0170022
900.067	0.0170769
900.145	0.0171822
900.223	0.0171958
900.301	0.0171530
900.379	0.0173009
900.457	0.0175102
900.535	0.0175912
900.613	0.0173588
900.692	0.0175393
900.770	0.0175600
900.848	0.0174867
900.926	0.0173562
901.004	0.0173392
901.082	0.0174682
901.160	0.0174239
901.238	0.0173956
901.317	0.0175873
901.395	0.0175439
901.473	0.0173760
901.551	0.0173116
901.629	0.0173413
901.707	0.0173353
901.785	0.0172379
901.863	0.0173272
901.942	0.0172389
902.020	0.0171540
902.098	0.0172337
902.176	0.0170997
902.254	0.0169867
902.332	0.0170250
902.410	0.0171861
902.488	0.0170918
902.567	0.0170712
902.645	0.0169706
902.723	0.0171491
902.801	0.0168835
902.879	0.0169690
902.957	0.0170456
903.035	0.0170360
903.113	0.0170827
903.192	0.0171110
903.270	0.0170011
903.348	0.0170908
903.426	0.0170737
903.504	0.0170466
903.582	0.0169617
903.660	0.0168414
903.738	0.0169432
903.817	0.0169228
903.895	0.0169387
903.973	0.0167672
904.051	0.0168738
904.129	0.0169165
904.207	0.0169386
904.285	0.0170883
904.363	0.0170127
904.442	0.0169797
904.520	0.0171484
904.598	0.0171024
904.676	0.0171495
904.754	0.0172471
904.832	0.0171496
904.910	0.0171844
904.988	0.0172622
905.067	0.0171774
905.145	0.0172134
905.223	0.0173673
905.301	0.0174023
905.379	0.0173388
905.457	0.0174869
905.535	0.0173477
905.613	0.0173547
905.692	0.0174193
905.770	0.0174814
905.848	0.0174758
905.926	0.0173721
906.004	0.0174450
906.082	0.0175036
906.160	0.0175555
906.238	0.0173384
906.317	0.0174211
906.395	0.0173823
906.473	0.0171515
906.551	0.0173315
906.629	0.0171624
906.707	0.0171435
906.785	0.0170680
906.863	0.0171558
906.942	0.0171770
907.020	0.0169622
907.098	0.0169296
907.176	0.0169798
907.254	0.0170524
907.332	0.0169613
907.410	0.0170399
907.488	0.0171582
907.567	0.0171048
907.645	0.0171358
907.723	0.0170697
907.801	0.0170049
907.879	0.0171342
907.957	0.0170862
908.035	0.0171887
908.113	0.0171487
908.192	0.0169544
908.270	0.0170006
908.348	0.0169450
908.426	0.0168818
908.504	0.0168733
908.582	0.0168479
908.660	0.0169802
908.738	0.0169308
908.817	0.0169893
908.895	0.0169739
908.973	0.0169221
909.051	0.0170253
909.129	0.0170652
909.207	0.0170865
909.285	0.0172872
909.363	0.0173290
909.442	0.0173353
909.520	0.0172278
909.598	0.0172826
909.676	0.0173418
909.754	0.0172995
909.832	0.0173337
909.910	0.0174575
909.988	0.0173952
910.067	0.0173589
910.145	0.0174650
910.223	0.0174081
910.301	0.0173164
910.379	0.0173186
910.457	0.0172485
910.535	0.0171270
910.613	0.0173147
910.692	0.0172600
910.770	0.0170707
910.848	0.0169938
910.926	0.0170726
911.004	0.0171027
911.082	0.0171842
911.160	0.0170583
911.238	0.0170380
911.317	0.0171126
911.395	0.0171979
911.473	0.0170636
911.551	0.0170313
911.629	0.0171041
911.707	0.0170537
911.785	0.0169622
911.863	0.0170144
911.942	0.0171325
912.020	0.0169209
912.098	0.0170691
912.176	0.0169329
912.254	0.0170495
912.332	0.0169014
912.410	0.0169765
912.488	0.0169891
912.567	0.0169952
912.645	0.0169823
912.723	0.0169300
912.801	0.0170007
912.879	0.0170297
912.957	0.0169383
913.035	0.0169810
913.113	0.0168727
913.192	0.0171484
913.270	0.0172506
913.348	0.0171977
913.426	0.0171459
913.504	0.0172395
913.582	0.0172824
913.660	0.0172448
913.738	0.0173087
913.817	0.0173428
913.895	0.0173822
913.973	0.0174495
914.051	0.0173814
914.129	0.0173269
914.207	0.0174022
914.285	0.0174566
914.363	0.0174545
914.442	0.0175557
914.520	0.0174053
914.598	0.0174507
914.676	0.0176067
914.754	0.0174543
914.832	0.0175446
914.910	0.0175999
914.988	0.0174461
915.067	0.0174967
915.145	0.0175317
915.223	0.0174519
915.301	0.0174301
915.379	0.0174258
915.457	0.0174193
915.535	0.0173058
915.613	0.0172518
915.692	0.0171230
915.770	0.0171672
915.848	0.0171736
915.926	0.0169450
916.004	0.0169233
916.082	0.0168681
916.160	0.0169186
916.238	0.0168564
916.317	0.0166589
916.395	0.0167899
916.473	0.0166640
916.551	0.0167834
916.629	0.0167244
916.707	0.0166564
916.785	0.0168575
916.863	0.0167743
916.942	0.0168056
917.020	0.0168720
917.098	0.0167677
917.176	0.0167609
917.254	0.0170481
917.332	0.0170121
917.410	0.0170182
917.488	0.0170766
917.567	0.0170397
917.645	0.0171929
917.723	0.0172566
917.801	0.0171438
917.879	0.0169182
917.957	0.0172055
918.035	0.0172282
918.113	0.0170107
918.192	0.0171334
918.270	0.0171503
918.348	0.0170543
918.426	0.0171855
918.504	0.0173225
918.582	0.0172536
918.660	0.0172888
918.738	0.0174324
918.817	0.0174971
918.895	0.0174660
918.973	0.0173885
919.051	0.0174714
919.129	0.0175043
919.207	0.0175167
919.285	0.0174745
919.363	0.0176936
919.442	0.0175933
919.520	0.0174604
919.598	0.0174634
919.676	0.0173594
919.754	0.0172841
919.832	0.0174468
919.910	0.0172916
