05/24/2022	20:13:33	Ver.	4.1	UNKNOWN
Optical Delay	599.981738	Delta X		0.078125	Sweeps	1	Scan Rate	0/0
Coordinates	Axis 1	NaN	Axis 2	NaN	Axis 3	NaN	Axis 4	NaN	Axis 5	NaN	Axis 6	0.000000
TX Power	0.000000	RX Power	0.000000

599.982	0.0168821
600.060	0.0168761
600.138	0.0167397
600.216	0.0168442
600.294	0.0169027
600.372	0.0168398
600.450	0.0167165
600.529	0.0169501
600.607	0.0170149
600.685	0.0168665
600.763	0.0168507
600.841	0.0167220
600.919	0.0167814
600.997	0.0168905
601.075	0.0168914
601.154	0.0169170
601.232	0.0167616
601.310	0.0167146
601.388	0.0168121
601.466	0.0169037
601.544	0.0169364
601.622	0.0168391
601.700	0.0168441
601.779	0.0167584
601.857	0.0167425
601.935	0.0169184
602.013	0.0169096
602.091	0.0168266
602.169	0.0167123
602.247	0.0168958
602.325	0.0168806
602.404	0.0167177
602.482	0.0168089
602.560	0.0169734
602.638	0.0168634
602.716	0.0167978
602.794	0.0167954
602.872	0.0168800
602.950	0.0168815
603.029	0.0168336
603.107	0.0168497
603.185	0.0167086
603.263	0.0169002
603.341	0.0169548
603.419	0.0168032
603.497	0.0168734
603.575	0.0168642
603.654	0.0168827
603.732	0.0168824
603.810	0.0168027
603.888	0.0168201
603.966	0.0167951
604.044	0.0168514
604.122	0.0168602
604.200	0.0168381
604.279	0.0168567
604.357	0.0168062
604.435	0.0168459
604.513	0.0168975
604.591	0.0166826
604.669	0.0169162
604.747	0.0168697
604.825	0.0169900
604.904	0.0167400
604.982	0.0167878
605.060	0.0168391
605.138	0.0168969
605.216	0.0168366
605.294	0.0169034
605.372	0.0168761
605.450	0.0168561
605.529	0.0168876
605.607	0.0168420
605.685	0.0170041
605.763	0.0168898
605.841	0.0168071
605.919	0.0167947
605.997	0.0168213
606.075	0.0168899
606.154	0.0168951
606.232	0.0168261
606.310	0.0168923
606.388	0.0168047
606.466	0.0167876
606.544	0.0168955
606.622	0.0168678
606.700	0.0167811
606.779	0.0168082
606.857	0.0167230
606.935	0.0168108
607.013	0.0168050
607.091	0.0168301
607.169	0.0168437
607.247	0.0166650
607.325	0.0167006
607.404	0.0167827
607.482	0.0168885
607.560	0.0167336
607.638	0.0167941
607.716	0.0167360
607.794	0.0167593
607.872	0.0169988
607.950	0.0168923
608.029	0.0167879
608.107	0.0169009
608.185	0.0169501
608.263	0.0169008
608.341	0.0168085
608.419	0.0169125
608.497	0.0168896
608.575	0.0169248
608.654	0.0169514
608.732	0.0170227
608.810	0.0169715
608.888	0.0168598
608.966	0.0169301
609.044	0.0168901
609.122	0.0167724
609.200	0.0170616
609.279	0.0168419
609.357	0.0170096
609.435	0.0169101
609.513	0.0168777
609.591	0.0168576
609.669	0.0169500
609.747	0.0168579
609.825	0.0168729
609.904	0.0166901
609.982	0.0168067
610.060	0.0169017
610.138	0.0168414
610.216	0.0169027
610.294	0.0167920
610.372	0.0168813
610.450	0.0168027
610.529	0.0168781
610.607	0.0167159
610.685	0.0168793
610.763	0.0168200
610.841	0.0168110
610.919	0.0168684
610.997	0.0169379
611.075	0.0166998
611.154	0.0168871
611.232	0.0169052
611.310	0.0168828
611.388	0.0167473
611.466	0.0169103
611.544	0.0168911
611.622	0.0169062
611.700	0.0168584
611.779	0.0168766
611.857	0.0168133
611.935	0.0167953
612.013	0.0168057
612.091	0.0168780
612.169	0.0167546
612.247	0.0167797
612.325	0.0167599
612.404	0.0169319
612.482	0.0169294
612.560	0.0168242
612.638	0.0168677
612.716	0.0168188
612.794	0.0169939
612.872	0.0170022
612.950	0.0168903
613.029	0.0167932
613.107	0.0168979
613.185	0.0169844
613.263	0.0167843
613.341	0.0169148
613.419	0.0169361
613.497	0.0168443
613.575	0.0169124
613.654	0.0169640
613.732	0.0169303
613.810	0.0168916
613.888	0.0167837
613.966	0.0168192
614.044	0.0167729
614.122	0.0168941
614.200	0.0168144
614.279	0.0168935
614.357	0.0168691
614.435	0.0168295
614.513	0.0167032
614.591	0.0168324
614.669	0.0169651
614.747	0.0168714
614.825	0.0167970
614.904	0.0167704
614.982	0.0167156
615.060	0.0168512
615.138	0.0167747
615.216	0.0167809
615.294	0.0168203
615.372	0.0167560
615.450	0.0168713
615.529	0.0168195
615.607	0.0168050
615.685	0.0168574
615.763	0.0167498
615.841	0.0169532
615.919	0.0167723
615.997	0.0167311
616.075	0.0167406
616.154	0.0168813
616.232	0.0168233
616.310	0.0168587
616.388	0.0169112
616.466	0.0169130
616.544	0.0169431
616.622	0.0168353
616.700	0.0168139
616.779	0.0168338
616.857	0.0168690
616.935	0.0169524
617.013	0.0170229
617.091	0.0168815
617.169	0.0169170
617.247	0.0169666
617.325	0.0168676
617.404	0.0167845
617.482	0.0168878
617.560	0.0168359
617.638	0.0168510
617.716	0.0168953
617.794	0.0169981
617.872	0.0169167
617.950	0.0168883
618.029	0.0168994
618.107	0.0168161
618.185	0.0168941
618.263	0.0168758
618.341	0.0169484
618.419	0.0169225
618.497	0.0167943
618.575	0.0166486
618.654	0.0168202
618.732	0.0168037
618.810	0.0167728
618.888	0.0166777
618.966	0.0167913
619.044	0.0167834
619.122	0.0167274
619.200	0.0167196
619.279	0.0168221
619.357	0.0168925
619.435	0.0167578
619.513	0.0168738
619.591	0.0168640
619.669	0.0168943
619.747	0.0167427
619.825	0.0168678
619.904	0.0166841
619.982	0.0166816
620.060	0.0168133
620.138	0.0169474
620.216	0.0167783
620.294	0.0167603
620.372	0.0167666
620.450	0.0167502
620.529	0.0168445
620.607	0.0169531
620.685	0.0168206
620.763	0.0168913
620.841	0.0168165
620.919	0.0168369
620.997	0.0169550
621.075	0.0169108
621.154	0.0167227
621.232	0.0168179
621.310	0.0169400
621.388	0.0168383
621.466	0.0169850
621.544	0.0167803
621.622	0.0169503
621.700	0.0169110
621.779	0.0169232
621.857	0.0169843
621.935	0.0168658
622.013	0.0168474
622.091	0.0168963
622.169	0.0169821
622.247	0.0169215
622.325	0.0166982
622.404	0.0169297
622.482	0.0170692
622.560	0.0168520
622.638	0.0168684
622.716	0.0168903
622.794	0.0168410
622.872	0.0168732
622.950	0.0168019
623.029	0.0169573
623.107	0.0168466
623.185	0.0167680
623.263	0.0167293
623.341	0.0167503
623.419	0.0167630
623.497	0.0169148
623.575	0.0168220
623.654	0.0167870
623.732	0.0167619
623.810	0.0168869
623.888	0.0168227
623.966	0.0168450
624.044	0.0168337
624.122	0.0168446
624.200	0.0167458
624.279	0.0166982
624.357	0.0166683
624.435	0.0167538
624.513	0.0167748
624.591	0.0167439
624.669	0.0169320
624.747	0.0168677
624.825	0.0167761
624.904	0.0168204
624.982	0.0166537
625.060	0.0168349
625.138	0.0167460
625.216	0.0168436
625.294	0.0168261
625.372	0.0168727
625.450	0.0168619
625.529	0.0167627
625.607	0.0168812
625.685	0.0168201
625.763	0.0170054
625.841	0.0167723
625.919	0.0168076
625.997	0.0168637
626.075	0.0168700
626.154	0.0168634
626.232	0.0168675
626.310	0.0170078
626.388	0.0168555
626.466	0.0168472
626.544	0.0168090
626.622	0.0167524
626.700	0.0169966
626.779	0.0169082
626.857	0.0169197
626.935	0.0168121
627.013	0.0169304
627.091	0.0168834
627.169	0.0168472
627.247	0.0167696
627.325	0.0168189
627.404	0.0167954
627.482	0.0168256
627.560	0.0167520
627.638	0.0168131
627.716	0.0168707
627.794	0.0169333
627.872	0.0168418
627.950	0.0168510
628.029	0.0169456
628.107	0.0168794
628.185	0.0167952
628.263	0.0168162
628.341	0.0168501
628.419	0.0167999
628.497	0.0168981
628.575	0.0168592
628.654	0.0169181
628.732	0.0168444
628.810	0.0168469
628.888	0.0169147
628.966	0.0167741
629.044	0.0167381
629.122	0.0169151
629.200	0.0168024
629.279	0.0167823
629.357	0.0166710
629.435	0.0167176
629.513	0.0168105
629.591	0.0169180
629.669	0.0168774
629.747	0.0169121
629.825	0.0168496
629.904	0.0169190
629.982	0.0167648
630.060	0.0167957
630.138	0.0169563
630.216	0.0168932
630.294	0.0169098
630.372	0.0168837
630.450	0.0167963
630.529	0.0168586
630.607	0.0167128
630.685	0.0168504
630.763	0.0168333
630.841	0.0168013
630.919	0.0167669
630.997	0.0169173
631.075	0.0169891
631.154	0.0168284
631.232	0.0167835
631.310	0.0167880
631.388	0.0169396
631.466	0.0167970
631.544	0.0168276
631.622	0.0168050
631.700	0.0168819
631.779	0.0168070
631.857	0.0168985
631.935	0.0169662
632.013	0.0168449
632.091	0.0168338
632.169	0.0169063
632.247	0.0168130
632.325	0.0168379
632.404	0.0169312
632.482	0.0169491
632.560	0.0168690
632.638	0.0168345
632.716	0.0168813
632.794	0.0167097
632.872	0.0169521
632.950	0.0167775
633.029	0.0168623
633.107	0.0168414
633.185	0.0167522
633.263	0.0168443
633.341	0.0169440
633.419	0.0168038
633.497	0.0168468
633.575	0.0168961
633.654	0.0169185
633.732	0.0167783
633.810	0.0168436
633.888	0.0168350
633.966	0.0169443
634.044	0.0168725
634.122	0.0168303
634.200	0.0168502
634.279	0.0167299
634.357	0.0168526
634.435	0.0169080
634.513	0.0168251
634.591	0.0168163
634.669	0.0169544
634.747	0.0167889
634.825	0.0168787
634.904	0.0168192
634.982	0.0168134
635.060	0.0167966
635.138	0.0168297
635.216	0.0169325
635.294	0.0168347
635.372	0.0167117
635.450	0.0168318
635.529	0.0168319
635.607	0.0166737
635.685	0.0168717
635.763	0.0167897
635.841	0.0168770
635.919	0.0169020
635.997	0.0166913
636.075	0.0168807
636.154	0.0167130
636.232	0.0168874
636.310	0.0169080
636.388	0.0168977
636.466	0.0168091
636.544	0.0167927
636.622	0.0167171
636.700	0.0168788
636.779	0.0169134
636.857	0.0167416
636.935	0.0167290
637.013	0.0167771
637.091	0.0167829
637.169	0.0168598
637.247	0.0168545
637.325	0.0169061
637.404	0.0168179
637.482	0.0168093
637.560	0.0169342
637.638	0.0168031
637.716	0.0168348
637.794	0.0168633
637.872	0.0167778
637.950	0.0168517
638.029	0.0168967
638.107	0.0168307
638.185	0.0167866
638.263	0.0167125
638.341	0.0168413
638.419	0.0169408
638.497	0.0168662
638.575	0.0169469
638.654	0.0168378
638.732	0.0169085
638.810	0.0168449
638.888	0.0169060
638.966	0.0169183
639.044	0.0169327
639.122	0.0166783
639.200	0.0168273
639.279	0.0168337
639.357	0.0169392
639.435	0.0169761
639.513	0.0167986
639.591	0.0169025
639.669	0.0168466
639.747	0.0168983
639.825	0.0168258
639.904	0.0167978
639.982	0.0168995
640.060	0.0168193
640.138	0.0167611
640.216	0.0167659
640.294	0.0167725
640.372	0.0168122
640.450	0.0168897
640.529	0.0168397
640.607	0.0168206
640.685	0.0167633
640.763	0.0167805
640.841	0.0167706
640.919	0.0168903
640.997	0.0168242
641.075	0.0168107
641.154	0.0168871
641.232	0.0167554
641.310	0.0168040
641.388	0.0168039
641.466	0.0167733
641.544	0.0168332
641.622	0.0168221
641.700	0.0167062
641.779	0.0168403
641.857	0.0168869
641.935	0.0168938
642.013	0.0167532
642.091	0.0168176
642.169	0.0168568
642.247	0.0167393
642.325	0.0167733
642.404	0.0168932
642.482	0.0168197
642.560	0.0167058
642.638	0.0167631
642.716	0.0168388
642.794	0.0168488
642.872	0.0167590
642.950	0.0167464
643.029	0.0167779
643.107	0.0168212
643.185	0.0167791
643.263	0.0168311
643.341	0.0168302
643.419	0.0168948
643.497	0.0169447
643.575	0.0169753
643.654	0.0169019
643.732	0.0169126
643.810	0.0168187
643.888	0.0167667
643.966	0.0167422
644.044	0.0168740
644.122	0.0168010
644.200	0.0168479
644.279	0.0168397
644.357	0.0167495
644.435	0.0169032
644.513	0.0168948
644.591	0.0169505
644.669	0.0168445
644.747	0.0167774
644.825	0.0167905
644.904	0.0169534
644.982	0.0169250
645.060	0.0166697
645.138	0.0167099
645.216	0.0169480
645.294	0.0167035
645.372	0.0168487
645.450	0.0169054
645.529	0.0169066
645.607	0.0168710
645.685	0.0168250
645.763	0.0166817
645.841	0.0167905
645.919	0.0168535
645.997	0.0167718
646.075	0.0168300
646.154	0.0168912
646.232	0.0168790
646.310	0.0167993
646.388	0.0169641
646.466	0.0167838
646.544	0.0167085
646.622	0.0167499
646.700	0.0168603
646.779	0.0168895
646.857	0.0167403
646.935	0.0167968
647.013	0.0167795
647.091	0.0168439
647.169	0.0168096
647.247	0.0168737
647.325	0.0167445
647.404	0.0167272
647.482	0.0168769
647.560	0.0169256
647.638	0.0166972
647.716	0.0168911
647.794	0.0167673
647.872	0.0168401
647.950	0.0168587
648.029	0.0168420
648.107	0.0168848
648.185	0.0167531
648.263	0.0168304
648.341	0.0167358
648.419	0.0168079
648.497	0.0168184
648.575	0.0168418
648.654	0.0167970
648.732	0.0169608
648.810	0.0168073
648.888	0.0167965
648.966	0.0169772
649.044	0.0166608
649.122	0.0169419
649.200	0.0167229
649.279	0.0168595
649.357	0.0168684
649.435	0.0168734
649.513	0.0169238
649.591	0.0170017
649.669	0.0170065
649.747	0.0168948
649.825	0.0167909
649.904	0.0168487
649.982	0.0168126
650.060	0.0168439
650.138	0.0167451
650.216	0.0169026
650.294	0.0167921
650.372	0.0169683
650.450	0.0168759
650.529	0.0167737
650.607	0.0168777
650.685	0.0168369
650.763	0.0169190
650.841	0.0168846
650.919	0.0168669
650.997	0.0169723
651.075	0.0168748
651.154	0.0169008
651.232	0.0167181
651.310	0.0169144
651.388	0.0169007
651.466	0.0170110
651.544	0.0168047
651.622	0.0168475
651.700	0.0170715
651.779	0.0168377
651.857	0.0166820
651.935	0.0169132
652.013	0.0169975
652.091	0.0168806
652.169	0.0168605
652.247	0.0169654
652.325	0.0168576
652.404	0.0167479
652.482	0.0168669
652.560	0.0169337
652.638	0.0168093
652.716	0.0169257
652.794	0.0169901
652.872	0.0169111
652.950	0.0168034
653.029	0.0169268
653.107	0.0168768
653.185	0.0168655
653.263	0.0168256
653.341	0.0168470
653.419	0.0167919
653.497	0.0169221
653.575	0.0167667
653.654	0.0169275
653.732	0.0168024
653.810	0.0169336
653.888	0.0168626
653.966	0.0169307
654.044	0.0169070
654.122	0.0169633
654.200	0.0169605
654.279	0.0168402
654.357	0.0169553
654.435	0.0168257
654.513	0.0168218
654.591	0.0168957
654.669	0.0167731
654.747	0.0169587
654.825	0.0168836
654.904	0.0168654
654.982	0.0168221
655.060	0.0167990
655.138	0.0167630
655.216	0.0168739
655.294	0.0167348
655.372	0.0169056
655.450	0.0167274
655.529	0.0168720
655.607	0.0167946
655.685	0.0168199
655.763	0.0168106
655.841	0.0167337
655.919	0.0167654
655.997	0.0168425
656.075	0.0168989
656.154	0.0168510
656.232	0.0167921
656.310	0.0167438
656.388	0.0168884
656.466	0.0167982
656.544	0.0167841
656.622	0.0167591
656.700	0.0168413
656.779	0.0168897
656.857	0.0168712
656.935	0.0167698
657.013	0.0168405
657.091	0.0168584
657.169	0.0168908
657.247	0.0167420
657.325	0.0167162
657.404	0.0168500
657.482	0.0168073
657.560	0.0167902
657.638	0.0169237
657.716	0.0168340
657.794	0.0169262
657.872	0.0168181
657.950	0.0167670
658.029	0.0169213
658.107	0.0169003
658.185	0.0168985
658.263	0.0169049
658.341	0.0168169
658.419	0.0169283
658.497	0.0169135
658.575	0.0168783
658.654	0.0167761
658.732	0.0167008
658.810	0.0167152
658.888	0.0168116
658.966	0.0169207
659.044	0.0168072
659.122	0.0168642
659.200	0.0168314
659.279	0.0169268
659.357	0.0168392
659.435	0.0166782
659.513	0.0168776
659.591	0.0168462
659.669	0.0169621
659.747	0.0167334
659.825	0.0166969
659.904	0.0168628
659.982	0.0168833
660.060	0.0169246
660.138	0.0169331
660.216	0.0169254
660.294	0.0168469
660.372	0.0168310
660.450	0.0168436
660.529	0.0168002
660.607	0.0168800
660.685	0.0167927
660.763	0.0167889
660.841	0.0167934
660.919	0.0170148
660.997	0.0169258
661.075	0.0167392
661.154	0.0169044
661.232	0.0168607
661.310	0.0167510
661.388	0.0168494
661.466	0.0168935
661.544	0.0168243
661.622	0.0168248
661.700	0.0170074
661.779	0.0168268
661.857	0.0168459
661.935	0.0167689
662.013	0.0167375
662.091	0.0169053
662.169	0.0169636
662.247	0.0167064
662.325	0.0169174
662.404	0.0168052
662.482	0.0168433
662.560	0.0167929
662.638	0.0168631
662.716	0.0168328
662.794	0.0169361
662.872	0.0168624
662.950	0.0168858
663.029	0.0168573
663.107	0.0169235
663.185	0.0169440
663.263	0.0168284
663.341	0.0169016
663.419	0.0169019
663.497	0.0167700
663.575	0.0167694
663.654	0.0168615
663.732	0.0168549
663.810	0.0168188
663.888	0.0168667
663.966	0.0169503
664.044	0.0170322
664.122	0.0168043
664.200	0.0166663
664.279	0.0168376
664.357	0.0170016
664.435	0.0167892
664.513	0.0168736
664.591	0.0168713
664.669	0.0168859
664.747	0.0168095
664.825	0.0168655
664.904	0.0169005
664.982	0.0168324
665.060	0.0168522
665.138	0.0167013
665.216	0.0168658
665.294	0.0169093
665.372	0.0169124
665.450	0.0167885
665.529	0.0167883
665.607	0.0167313
665.685	0.0168428
665.763	0.0168562
665.841	0.0168678
665.919	0.0169122
665.997	0.0169405
666.075	0.0167261
666.154	0.0167446
666.232	0.0168201
666.310	0.0167793
666.388	0.0167884
666.466	0.0169261
666.544	0.0169112
666.622	0.0168325
666.700	0.0169365
666.779	0.0168672
666.857	0.0167473
666.935	0.0168487
667.013	0.0168625
667.091	0.0168050
667.169	0.0168451
667.247	0.0168930
667.325	0.0167830
667.404	0.0168009
667.482	0.0167809
667.560	0.0167511
667.638	0.0166957
667.716	0.0167512
667.794	0.0168864
667.872	0.0167776
667.950	0.0166787
668.029	0.0168130
668.107	0.0168073
668.185	0.0167886
668.263	0.0167126
668.341	0.0167371
668.419	0.0167514
668.497	0.0168527
668.575	0.0167348
668.654	0.0169589
668.732	0.0168881
668.810	0.0168304
668.888	0.0168119
668.966	0.0167962
669.044	0.0168759
669.122	0.0169716
669.200	0.0169115
669.279	0.0167982
669.357	0.0167374
669.435	0.0169151
669.513	0.0171140
669.591	0.0169529
669.669	0.0168587
669.747	0.0167735
669.825	0.0170022
669.904	0.0169342
669.982	0.0171275
670.060	0.0170668
670.138	0.0169937
670.216	0.0169855
670.294	0.0169903
670.372	0.0171040
670.450	0.0169320
670.529	0.0168890
670.607	0.0168691
670.685	0.0167605
670.763	0.0167348
670.841	0.0167178
670.919	0.0166203
670.997	0.0165512
671.075	0.0165632
671.154	0.0165423
671.232	0.0166019
671.310	0.0165073
671.388	0.0163343
671.466	0.0164317
671.544	0.0162660
671.622	0.0161587
671.700	0.0161853
671.779	0.0161683
671.857	0.0163596
671.935	0.0163538
672.013	0.0166209
672.091	0.0167082
672.169	0.0168621
672.247	0.0170371
672.325	0.0170832
672.404	0.0169896
672.482	0.0170355
672.560	0.0172749
672.638	0.0172676
672.716	0.0173470
672.794	0.0172668
672.872	0.0174939
672.950	0.0174957
673.029	0.0176081
673.107	0.0176131
673.185	0.0175227
673.263	0.0177538
673.341	0.0177292
673.419	0.0174929
673.497	0.0173727
673.575	0.0175973
673.654	0.0173721
673.732	0.0169733
673.810	0.0170352
673.888	0.0169325
673.966	0.0166710
674.044	0.0166764
674.122	0.0167927
674.200	0.0167590
674.279	0.0167575
674.357	0.0168797
674.435	0.0168078
674.513	0.0167947
674.591	0.0164693
674.669	0.0164433
674.747	0.0161994
674.825	0.0160611
674.904	0.0159367
674.982	0.0160546
675.060	0.0159903
675.138	0.0160176
675.216	0.0159960
675.294	0.0160992
675.372	0.0161983
675.450	0.0161131
675.529	0.0163285
675.607	0.0162806
675.685	0.0161709
675.763	0.0161970
675.841	0.0160363
675.919	0.0159165
675.997	0.0160765
676.075	0.0161294
676.154	0.0161534
676.232	0.0163377
676.310	0.0166526
676.388	0.0170422
676.466	0.0171125
676.544	0.0172607
676.622	0.0176571
676.700	0.0176662
676.779	0.0178542
676.857	0.0181841
676.935	0.0182339
677.013	0.0184168
677.091	0.0183775
677.169	0.0185812
677.247	0.0187415
677.325	0.0187556
677.404	0.0186415
677.482	0.0184521
677.560	0.0182571
677.638	0.0178288
677.716	0.0175108
677.794	0.0171922
677.872	0.0168037
677.950	0.0166097
678.029	0.0164626
678.107	0.0164906
678.185	0.0165635
678.263	0.0165331
678.341	0.0167466
678.419	0.0168163
678.497	0.0169691
678.575	0.0170523
678.654	0.0168298
678.732	0.0167314
678.810	0.0166806
678.888	0.0165105
678.966	0.0162454
679.044	0.0161079
679.122	0.0158656
679.200	0.0156427
679.279	0.0155177
679.357	0.0153175
679.435	0.0152735
679.513	0.0152084
679.591	0.0153326
679.669	0.0152378
679.747	0.0152071
679.825	0.0151958
679.904	0.0151665
679.982	0.0153562
680.060	0.0152154
680.138	0.0154377
680.216	0.0155395
680.294	0.0157626
680.372	0.0158163
680.450	0.0161637
680.529	0.0166118
680.607	0.0168551
680.685	0.0173675
680.763	0.0179748
680.841	0.0181297
680.919	0.0185546
680.997	0.0189826
681.075	0.0191740
681.154	0.0195759
681.232	0.0197591
681.310	0.0197494
681.388	0.0200393
681.466	0.0200020
681.544	0.0200309
681.622	0.0200941
681.700	0.0199740
681.779	0.0195206
681.857	0.0192609
681.935	0.0187698
682.013	0.0183463
682.091	0.0176683
682.169	0.0172782
682.247	0.0165697
682.325	0.0159762
682.404	0.0153074
682.482	0.0150449
682.560	0.0144196
682.638	0.0141221
682.716	0.0138274
682.794	0.0135941
682.872	0.0134958
682.950	0.0135818
683.029	0.0136377
683.107	0.0139016
683.185	0.0141625
683.263	0.0144807
683.341	0.0148037
683.419	0.0149204
683.497	0.0152615
683.575	0.0156561
683.654	0.0158037
683.732	0.0158702
683.810	0.0159534
683.888	0.0162382
683.966	0.0162106
684.044	0.0163970
684.122	0.0167194
684.200	0.0169646
684.279	0.0173016
684.357	0.0175661
684.435	0.0181287
684.513	0.0185829
684.591	0.0190101
684.669	0.0196420
684.747	0.0200847
684.825	0.0205835
684.904	0.0209287
684.982	0.0214312
685.060	0.0218388
685.138	0.0221253
685.216	0.0224074
685.294	0.0223868
685.372	0.0221040
685.450	0.0217445
685.529	0.0213155
685.607	0.0205920
685.685	0.0196992
685.763	0.0186263
685.841	0.0173914
685.919	0.0160246
685.997	0.0146623
686.075	0.0132794
686.154	0.0117702
686.232	0.0104405
686.310	0.00909836
686.388	0.00803467
686.466	0.00687263
686.544	0.00617828
686.622	0.00577202
686.700	0.00566452
686.779	0.00579071
686.857	0.00663887
686.935	0.00758347
687.013	0.00899651
687.091	0.0106813
687.169	0.0126606
687.247	0.0147080
687.325	0.0168401
687.404	0.0189031
687.482	0.0208078
687.560	0.0226233
687.638	0.0240257
687.716	0.0250989
687.794	0.0260464
687.872	0.0265804
687.950	0.0268001
688.029	0.0270739
688.107	0.0269379
688.185	0.0263973
688.263	0.0259735
688.341	0.0251841
688.419	0.0245007
688.497	0.0239661
688.575	0.0231485
688.654	0.0224972
688.732	0.0218559
688.810	0.0211208
688.888	0.0203591
688.966	0.0198258
689.044	0.0189877
689.122	0.0182977
689.200	0.0177032
689.279	0.0168515
689.357	0.0158820
689.435	0.0152151
689.513	0.0144756
689.591	0.0134383
689.669	0.0128301
689.747	0.0120329
689.825	0.0114632
689.904	0.0108497
689.982	0.0101404
690.060	0.00940956
690.138	0.00897087
690.216	0.00850426
690.294	0.00795975
690.372	0.00751122
690.450	0.00697029
690.529	0.00664986
690.607	0.00627235
690.685	0.00598328
690.763	0.00605293
690.841	0.00618523
690.919	0.00667999
690.997	0.00748619
691.075	0.00832367
691.154	0.00956795
691.232	0.0113452
691.310	0.0131864
691.388	0.0154098
691.466	0.0176814
691.544	0.0199400
691.622	0.0225140
691.700	0.0247913
691.779	0.0268427
691.857	0.0287248
691.935	0.0304724
692.013	0.0315941
692.091	0.0322614
692.169	0.0325325
692.247	0.0326398
692.325	0.0321985
692.404	0.0313472
692.482	0.0305359
692.560	0.0294774
692.638	0.0283902
692.716	0.0269335
692.794	0.0257824
692.872	0.0242101
692.950	0.0229036
693.029	0.0215325
693.107	0.0200618
693.185	0.0186761
693.263	0.0173235
693.341	0.0160575
693.419	0.0148235
693.497	0.0137534
693.575	0.0127171
693.654	0.0117432
693.732	0.0111768
693.810	0.0103078
693.888	0.00975624
693.966	0.00897430
694.044	0.00848717
694.122	0.00807144
694.200	0.00747459
694.279	0.00693008
694.357	0.00635193
694.435	0.00593452
694.513	0.00557487
694.591	0.00523094
694.669	0.00484550
694.747	0.00459396
694.825	0.00468582
694.904	0.00479362
694.982	0.00513557
695.060	0.00557640
695.138	0.00617004
695.216	0.00702118
695.294	0.00805267
695.372	0.00944221
695.450	0.0108577
695.529	0.0125785
695.607	0.0146283
695.685	0.0168045
695.763	0.0188557
695.841	0.0211036
695.919	0.0234394
695.997	0.0256187
696.075	0.0275380
696.154	0.0293734
696.232	0.0308755
696.310	0.0321773
696.388	0.0331142
696.466	0.0337448
696.544	0.0339138
696.622	0.0339090
696.700	0.0335410
696.779	0.0329813
696.857	0.0321254
696.935	0.0311230
697.013	0.0298178
697.091	0.0282748
697.169	0.0266348
697.247	0.0249655
697.325	0.0232917
697.404	0.0214432
697.482	0.0196808
697.560	0.0178740
697.638	0.0161603
697.716	0.0143369
697.794	0.0125266
697.872	0.0109911
697.950	0.00943916
698.029	0.00805130
698.107	0.00692467
698.185	0.00575859
698.263	0.00516464
698.341	0.00468033
698.419	0.00448959
698.497	0.00431717
698.575	0.00469116
698.654	0.00505096
698.732	0.00562080
698.810	0.00615112
698.888	0.00694908
698.966	0.00771637
699.044	0.00865318
699.122	0.00939957
699.200	0.0101877
699.279	0.0109957
699.357	0.0117245
699.435	0.0125434
699.513	0.0131385
699.591	0.0137089
699.669	0.0146217
699.747	0.0152814
699.825	0.0161664
699.904	0.0168222
699.982	0.0175337
700.060	0.0184750
700.138	0.0191301
700.216	0.0199986
700.294	0.0208283
700.372	0.0213567
700.450	0.0222491
700.529	0.0227340
700.607	0.0234990
700.685	0.0239900
700.763	0.0243330
700.841	0.0247438
700.919	0.0252960
700.997	0.0255295
701.075	0.0257320
701.154	0.0259312
701.232	0.0260478
701.310	0.0258447
701.388	0.0256170
701.466	0.0255486
701.544	0.0249230
701.622	0.0240573
701.700	0.0235097
701.779	0.0223900
701.857	0.0212984
701.935	0.0202290
702.013	0.0188931
702.091	0.0176067
702.169	0.0162115
702.247	0.0151545
702.325	0.0138616
702.404	0.0126670
702.482	0.0116759
702.560	0.0108601
702.638	0.0101351
702.716	0.00974030
702.794	0.00937531
702.872	0.00926651
702.950	0.00920555
703.029	0.00933777
703.107	0.00981430
703.185	0.0104688
703.263	0.0110995
703.341	0.0117326
703.419	0.0123441
703.497	0.0131215
703.575	0.0138240
703.654	0.0144054
703.732	0.0147487
703.810	0.0151529
703.888	0.0155539
703.966	0.0159048
704.044	0.0158135
704.122	0.0159879
704.200	0.0161713
704.279	0.0161732
704.357	0.0162587
704.435	0.0163453
704.513	0.0163661
704.591	0.0166832
704.669	0.0168369
704.747	0.0169661
704.825	0.0172729
704.904	0.0177193
704.982	0.0179832
705.060	0.0182928
705.138	0.0187599
705.216	0.0190358
705.294	0.0193687
705.372	0.0197727
705.450	0.0199516
705.529	0.0202219
705.607	0.0204859
705.685	0.0204814
705.763	0.0205527
705.841	0.0205061
705.919	0.0203732
705.997	0.0201744
706.075	0.0198782
706.154	0.0195126
706.232	0.0191175
706.310	0.0188612
706.388	0.0183806
706.466	0.0179305
706.544	0.0176093
706.622	0.0170892
706.700	0.0165204
706.779	0.0162991
706.857	0.0158841
706.935	0.0155961
707.013	0.0152704
707.091	0.0151659
707.169	0.0150351
707.247	0.0150209
707.325	0.0151237
707.404	0.0154082
707.482	0.0154834
707.560	0.0157734
707.638	0.0161558
707.716	0.0164701
707.794	0.0165706
707.872	0.0170249
707.950	0.0172965
708.029	0.0175034
708.107	0.0176626
708.185	0.0175176
708.263	0.0174316
708.341	0.0172639
708.419	0.0168862
708.497	0.0168520
708.575	0.0163604
708.654	0.0160268
708.732	0.0158725
708.810	0.0157237
708.888	0.0153376
708.966	0.0152546
709.044	0.0151899
709.122	0.0151246
709.200	0.0155953
709.279	0.0158690
709.357	0.0160172
709.435	0.0164397
709.513	0.0166563
709.591	0.0170441
709.669	0.0173944
709.747	0.0175463
709.825	0.0176185
709.904	0.0176473
709.982	0.0177073
710.060	0.0175758
710.138	0.0173586
710.216	0.0170044
710.294	0.0168986
710.372	0.0166277
710.450	0.0163568
710.529	0.0162068
710.607	0.0160770
710.685	0.0161893
710.763	0.0161133
710.841	0.0162934
710.919	0.0164442
710.997	0.0164364
711.075	0.0166534
711.154	0.0168674
711.232	0.0169074
711.310	0.0169144
711.388	0.0170940
711.466	0.0171907
711.544	0.0171679
711.622	0.0170490
711.700	0.0171495
711.779	0.0172372
711.857	0.0171635
711.935	0.0173385
712.013	0.0172046
712.091	0.0174783
712.169	0.0174931
712.247	0.0175419
712.325	0.0176717
712.404	0.0176300
712.482	0.0175459
712.560	0.0174780
712.638	0.0174792
712.716	0.0175546
712.794	0.0175954
712.872	0.0173367
712.950	0.0176557
713.029	0.0175183
713.107	0.0174618
713.185	0.0172994
713.263	0.0172950
713.341	0.0172203
713.419	0.0171844
713.497	0.0171477
713.575	0.0169762
713.654	0.0167413
713.732	0.0168505
713.810	0.0165853
713.888	0.0166430
713.966	0.0165843
714.044	0.0165705
714.122	0.0164486
714.200	0.0164630
714.279	0.0165261
714.357	0.0164291
714.435	0.0164132
714.513	0.0164246
714.591	0.0164880
714.669	0.0162923
714.747	0.0164758
714.825	0.0164994
714.904	0.0165987
714.982	0.0167185
715.060	0.0168847
715.138	0.0171102
715.216	0.0173055
715.294	0.0173435
715.372	0.0176395
715.450	0.0176742
715.529	0.0175878
715.607	0.0176806
715.685	0.0175766
715.763	0.0174763
715.841	0.0172695
715.919	0.0170672
715.997	0.0168320
716.075	0.0164881
716.154	0.0161346
716.232	0.0159731
716.310	0.0155626
716.388	0.0153958
716.466	0.0151791
716.544	0.0152187
716.622	0.0150605
716.700	0.0151238
716.779	0.0150438
716.857	0.0151188
716.935	0.0152336
717.013	0.0152908
717.091	0.0153592
717.169	0.0156328
717.247	0.0159235
717.325	0.0160351
717.404	0.0162856
717.482	0.0163641
717.560	0.0166375
717.638	0.0169013
717.716	0.0171624
717.794	0.0171661
717.872	0.0174494
717.950	0.0176764
718.029	0.0178505
718.107	0.0176830
718.185	0.0177512
718.263	0.0180447
718.341	0.0180719
718.419	0.0180404
718.497	0.0180235
718.575	0.0179926
718.654	0.0179048
718.732	0.0178179
718.810	0.0179215
718.888	0.0179719
718.966	0.0177548
719.044	0.0175992
719.122	0.0176348
719.200	0.0175728
719.279	0.0175536
719.357	0.0174030
719.435	0.0174091
719.513	0.0173824
719.591	0.0173752
719.669	0.0174121
719.747	0.0174189
719.825	0.0173335
719.904	0.0173090
719.982	0.0172763
720.060	0.0172891
720.138	0.0174274
720.216	0.0175004
720.294	0.0174025
720.372	0.0172583
720.450	0.0172702
720.529	0.0171262
720.607	0.0170145
720.685	0.0169706
720.763	0.0168228
720.841	0.0166663
720.919	0.0163108
720.997	0.0161643
721.075	0.0159679
721.154	0.0157463
721.232	0.0156528
721.310	0.0156038
721.388	0.0156301
721.466	0.0154230
721.544	0.0152350
721.622	0.0153726
721.700	0.0154961
721.779	0.0154945
721.857	0.0155367
721.935	0.0154110
722.013	0.0155198
722.091	0.0154883
722.169	0.0153777
722.247	0.0155500
722.325	0.0156594
722.404	0.0156541
722.482	0.0156282
722.560	0.0158658
722.638	0.0161167
722.716	0.0161964
722.794	0.0164988
722.872	0.0165636
722.950	0.0166592
723.029	0.0169328
723.107	0.0170024
723.185	0.0171435
723.263	0.0173167
723.341	0.0175119
723.419	0.0176374
723.497	0.0177377
723.575	0.0176422
723.654	0.0178734
723.732	0.0179753
723.810	0.0180703
723.888	0.0180454
723.966	0.0181957
724.044	0.0180574
724.122	0.0180034
724.200	0.0178609
724.279	0.0178511
724.357	0.0178494
724.435	0.0176123
724.513	0.0173962
724.591	0.0172800
724.669	0.0172643
724.747	0.0172144
724.825	0.0171268
724.904	0.0170258
724.982	0.0169512
725.060	0.0170259
725.138	0.0172084
725.216	0.0171511
725.294	0.0173717
725.372	0.0174624
725.450	0.0174538
725.529	0.0173579
725.607	0.0175092
725.685	0.0172990
725.763	0.0173465
725.841	0.0172281
725.919	0.0170750
725.997	0.0170512
726.075	0.0167796
726.154	0.0167617
726.232	0.0166817
726.310	0.0163268
726.388	0.0162965
726.466	0.0161015
726.544	0.0160105
726.622	0.0158051
726.700	0.0158706
726.779	0.0157999
726.857	0.0156402
726.935	0.0158672
727.013	0.0159235
727.091	0.0158875
727.169	0.0159142
727.247	0.0160516
727.325	0.0159690
727.404	0.0162602
727.482	0.0164205
727.560	0.0164644
727.638	0.0165693
727.716	0.0167719
727.794	0.0168464
727.872	0.0170850
727.950	0.0171786
728.029	0.0171637
728.107	0.0174177
728.185	0.0174418
728.263	0.0173843
728.341	0.0174690
728.419	0.0175385
728.497	0.0175113
728.575	0.0173899
728.654	0.0175201
728.732	0.0172877
728.810	0.0172026
728.888	0.0169786
728.966	0.0169027
729.044	0.0167863
729.122	0.0167234
729.200	0.0167043
729.279	0.0165085
729.357	0.0164848
729.435	0.0165306
729.513	0.0164829
729.591	0.0164154
729.669	0.0164446
729.747	0.0165052
729.825	0.0164820
729.904	0.0164836
729.982	0.0166557
730.060	0.0165687
730.138	0.0164972
730.216	0.0167135
730.294	0.0166920
730.372	0.0166968
730.450	0.0167602
730.529	0.0168873
730.607	0.0170323
730.685	0.0170437
730.763	0.0171671
730.841	0.0172629
730.919	0.0172544
730.997	0.0173451
731.075	0.0172901
731.154	0.0173322
731.232	0.0173099
731.310	0.0173727
731.388	0.0172900
731.466	0.0173189
731.544	0.0172385
731.622	0.0172714
731.700	0.0170517
731.779	0.0170503
731.857	0.0169282
731.935	0.0169402
732.013	0.0168439
732.091	0.0168438
732.169	0.0168491
732.247	0.0168345
732.325	0.0167118
732.404	0.0168794
732.482	0.0169627
732.560	0.0169431
732.638	0.0170170
732.716	0.0170511
732.794	0.0170129
732.872	0.0172015
732.950	0.0171308
733.029	0.0172482
733.107	0.0171617
733.185	0.0169847
733.263	0.0172272
733.341	0.0169434
733.419	0.0171244
733.497	0.0169559
733.575	0.0168465
733.654	0.0168614
733.732	0.0168780
733.810	0.0168018
733.888	0.0168819
733.966	0.0168274
734.044	0.0166936
734.122	0.0166476
734.200	0.0167966
734.279	0.0167296
734.357	0.0165949
734.435	0.0163164
734.513	0.0165331
734.591	0.0164334
734.669	0.0164588
734.747	0.0163691
734.825	0.0165293
734.904	0.0165565
734.982	0.0164857
735.060	0.0165504
735.138	0.0166148
735.216	0.0166698
735.294	0.0166394
735.372	0.0166786
735.450	0.0167815
735.529	0.0167188
735.607	0.0167612
735.685	0.0167023
735.763	0.0166738
735.841	0.0167979
735.919	0.0166901
735.997	0.0167607
736.075	0.0168010
736.154	0.0166568
736.232	0.0167036
736.310	0.0166051
736.388	0.0167014
736.466	0.0167426
736.544	0.0165508
736.622	0.0165039
736.700	0.0166183
736.779	0.0164909
736.857	0.0164745
736.935	0.0165291
737.013	0.0165800
737.091	0.0166378
737.169	0.0167312
737.247	0.0168610
737.325	0.0168795
737.404	0.0169527
737.482	0.0170905
737.560	0.0172533
737.638	0.0173853
737.716	0.0171989
737.794	0.0174897
737.872	0.0175481
737.950	0.0174111
738.029	0.0176088
738.107	0.0176350
738.185	0.0173810
738.263	0.0174449
738.341	0.0173004
738.419	0.0173573
738.497	0.0174593
738.575	0.0175164
738.654	0.0175282
738.732	0.0172495
738.810	0.0174014
738.888	0.0173551
738.966	0.0174304
739.044	0.0173877
739.122	0.0172890
739.200	0.0172458
739.279	0.0171783
739.357	0.0171695
739.435	0.0169780
739.513	0.0168964
739.591	0.0168612
739.669	0.0167851
739.747	0.0168342
739.825	0.0163844
739.904	0.0164525
739.982	0.0164941
740.060	0.0162302
740.138	0.0162138
740.216	0.0161996
740.294	0.0162357
740.372	0.0160810
740.450	0.0160603
740.529	0.0162093
740.607	0.0161696
740.685	0.0163000
740.763	0.0162821
740.841	0.0164104
740.919	0.0163949
740.997	0.0164392
741.075	0.0164024
741.154	0.0166893
741.232	0.0167315
741.310	0.0166679
741.388	0.0168629
741.466	0.0167197
741.544	0.0167603
741.622	0.0168778
741.700	0.0168791
741.779	0.0167733
741.857	0.0167622
741.935	0.0167899
742.013	0.0166732
742.091	0.0166954
742.169	0.0166344
742.247	0.0166033
742.325	0.0164455
742.404	0.0165006
742.482	0.0166969
742.560	0.0166895
742.638	0.0167059
742.716	0.0165675
742.794	0.0167239
742.872	0.0168620
742.950	0.0169110
743.029	0.0170715
743.107	0.0170969
743.185	0.0173598
743.263	0.0172586
743.341	0.0173784
743.419	0.0173178
743.497	0.0172908
743.575	0.0175287
743.654	0.0173514
743.732	0.0172208
743.810	0.0172930
743.888	0.0172015
743.966	0.0173117
744.044	0.0171526
744.122	0.0172105
744.200	0.0171101
744.279	0.0170633
744.357	0.0171978
744.435	0.0171587
744.513	0.0170796
744.591	0.0169871
744.669	0.0169751
744.747	0.0170885
744.825	0.0172350
744.904	0.0170361
744.982	0.0171413
745.060	0.0170360
745.138	0.0172101
745.216	0.0172059
745.294	0.0171549
745.372	0.0169808
745.450	0.0170947
745.529	0.0170060
745.607	0.0169999
745.685	0.0171189
745.763	0.0169097
745.841	0.0169107
745.919	0.0169340
745.997	0.0169426
746.075	0.0166477
746.154	0.0167318
746.232	0.0166340
746.310	0.0166280
746.388	0.0165217
746.466	0.0164032
746.544	0.0163618
746.622	0.0162993
746.700	0.0162798
746.779	0.0161813
746.857	0.0160773
746.935	0.0159945
747.013	0.0160780
747.091	0.0159749
747.169	0.0159874
747.247	0.0158823
747.325	0.0160182
747.404	0.0161471
747.482	0.0161079
747.560	0.0162335
747.638	0.0162437
747.716	0.0162912
747.794	0.0164646
747.872	0.0166447
747.950	0.0166760
748.029	0.0166471
748.107	0.0167127
748.185	0.0167622
748.263	0.0168068
748.341	0.0168590
748.419	0.0169076
748.497	0.0168858
748.575	0.0170131
748.654	0.0170470
748.732	0.0170432
748.810	0.0170507
748.888	0.0171194
748.966	0.0173331
749.044	0.0172669
749.122	0.0173483
749.200	0.0173573
749.279	0.0176017
749.357	0.0175381
749.435	0.0177127
749.513	0.0177654
749.591	0.0176842
749.669	0.0178690
749.747	0.0176862
749.825	0.0177014
749.904	0.0177367
749.982	0.0174893
750.060	0.0175272
750.138	0.0173352
750.216	0.0172304
750.294	0.0170612
750.372	0.0169104
750.450	0.0167893
750.529	0.0166144
750.607	0.0165865
750.685	0.0162598
750.763	0.0163730
750.841	0.0164578
750.919	0.0161773
750.997	0.0163577
751.075	0.0163347
751.154	0.0163605
751.232	0.0163136
751.310	0.0163937
751.388	0.0165057
751.466	0.0164554
751.544	0.0165264
751.622	0.0166693
751.700	0.0166511
751.779	0.0165990
751.857	0.0167095
751.935	0.0165825
752.013	0.0166752
752.091	0.0168580
752.169	0.0167573
752.247	0.0167667
752.325	0.0169083
752.404	0.0168512
752.482	0.0168015
752.560	0.0167508
752.638	0.0166864
752.716	0.0167490
752.794	0.0167897
752.872	0.0167706
752.950	0.0168118
753.029	0.0166058
753.107	0.0166840
753.185	0.0166180
753.263	0.0165921
753.341	0.0166438
753.419	0.0166896
753.497	0.0166689
753.575	0.0167288
753.654	0.0168770
753.732	0.0168977
753.810	0.0167853
753.888	0.0168577
753.966	0.0168107
754.044	0.0168243
754.122	0.0168540
754.200	0.0169299
754.279	0.0168604
754.357	0.0169527
754.435	0.0169878
754.513	0.0169666
754.591	0.0170037
754.669	0.0170585
754.747	0.0170408
754.825	0.0169907
754.904	0.0169832
754.982	0.0170994
755.060	0.0171936
755.138	0.0171849
755.216	0.0172884
755.294	0.0171851
755.372	0.0170889
755.450	0.0172078
755.529	0.0172227
755.607	0.0171477
755.685	0.0170287
755.763	0.0169183
755.841	0.0169876
755.919	0.0168636
755.997	0.0169382
756.075	0.0167881
756.154	0.0167988
756.232	0.0167199
756.310	0.0166093
756.388	0.0164781
756.466	0.0165944
756.544	0.0165331
756.622	0.0165953
756.700	0.0166666
756.779	0.0167444
756.857	0.0168040
756.935	0.0168172
757.013	0.0169149
757.091	0.0169406
757.169	0.0170502
757.247	0.0169805
757.325	0.0170957
757.404	0.0169164
757.482	0.0169229
757.560	0.0168367
757.638	0.0169381
757.716	0.0168649
757.794	0.0167718
757.872	0.0165751
757.950	0.0166198
758.029	0.0165470
758.107	0.0163412
758.185	0.0163782
758.263	0.0164512
758.341	0.0162999
758.419	0.0163688
758.497	0.0164066
758.575	0.0165125
758.654	0.0163260
758.732	0.0164362
758.810	0.0165385
758.888	0.0165150
758.966	0.0165639
759.044	0.0167405
759.122	0.0167992
759.200	0.0168540
759.279	0.0168661
759.357	0.0169160
759.435	0.0170869
759.513	0.0171460
759.591	0.0172025
759.669	0.0172259
759.747	0.0172342
759.825	0.0171799
759.904	0.0171516
759.982	0.0172797
760.060	0.0171665
760.138	0.0172594
760.216	0.0173201
760.294	0.0172622
760.372	0.0171886
760.450	0.0171988
760.529	0.0171330
760.607	0.0170714
760.685	0.0171211
760.763	0.0170511
760.841	0.0169760
760.919	0.0167365
760.997	0.0167722
761.075	0.0167320
761.154	0.0166658
761.232	0.0165461
761.310	0.0166032
761.388	0.0165656
761.466	0.0164539
761.544	0.0163940
761.622	0.0164869
761.700	0.0164627
761.779	0.0166179
761.857	0.0166129
761.935	0.0165922
762.013	0.0166065
762.091	0.0168195
762.169	0.0168064
762.247	0.0167856
762.325	0.0170531
762.404	0.0168079
762.482	0.0167071
762.560	0.0167983
762.638	0.0169411
762.716	0.0168909
762.794	0.0168237
762.872	0.0168336
762.950	0.0167924
763.029	0.0167766
763.107	0.0166232
763.185	0.0167381
763.263	0.0165503
763.341	0.0167129
763.419	0.0167088
763.497	0.0167831
763.575	0.0166805
763.654	0.0167592
763.732	0.0168860
763.810	0.0168851
763.888	0.0168839
763.966	0.0169675
764.044	0.0169993
764.122	0.0170704
764.200	0.0170847
764.279	0.0170801
764.357	0.0171766
764.435	0.0171662
764.513	0.0170857
764.591	0.0170949
764.669	0.0171693
764.747	0.0170953
764.825	0.0171204
764.904	0.0171472
764.982	0.0169932
765.060	0.0170484
765.138	0.0169721
765.216	0.0169759
765.294	0.0169098
765.372	0.0169005
765.450	0.0168306
765.529	0.0166828
765.607	0.0166327
765.685	0.0165630
765.763	0.0165616
765.841	0.0166164
765.919	0.0165847
765.997	0.0165900
766.075	0.0164408
766.154	0.0164456
766.232	0.0163763
766.310	0.0164458
766.388	0.0164147
766.466	0.0163053
766.544	0.0164005
766.622	0.0164436
766.700	0.0164681
766.779	0.0164832
766.857	0.0165487
766.935	0.0166715
767.013	0.0166499
767.091	0.0166369
767.169	0.0168382
767.247	0.0168437
767.325	0.0169101
767.404	0.0170831
767.482	0.0171322
767.560	0.0169732
767.638	0.0169721
767.716	0.0169810
767.794	0.0172370
767.872	0.0170960
767.950	0.0170947
768.029	0.0169928
768.107	0.0170672
768.185	0.0170512
768.263	0.0168820
768.341	0.0169157
768.419	0.0170124
768.497	0.0168444
768.575	0.0168606
768.654	0.0168150
768.732	0.0169576
768.810	0.0168750
768.888	0.0168392
768.966	0.0168369
769.044	0.0167303
769.122	0.0168692
769.200	0.0168261
769.279	0.0170348
769.357	0.0169545
769.435	0.0169836
769.513	0.0170287
769.591	0.0170959
769.669	0.0170718
769.747	0.0171149
769.825	0.0172070
769.904	0.0171247
769.982	0.0171488
770.060	0.0171264
770.138	0.0171465
770.216	0.0171295
770.294	0.0168844
770.372	0.0170403
770.450	0.0168401
770.529	0.0168763
770.607	0.0169612
770.685	0.0168439
770.763	0.0166673
770.841	0.0166482
770.919	0.0166544
770.997	0.0166304
771.075	0.0165875
771.154	0.0165859
771.232	0.0166767
771.310	0.0166732
771.388	0.0166788
771.466	0.0167672
771.544	0.0166728
771.622	0.0166816
771.700	0.0166763
771.779	0.0165008
771.857	0.0165765
771.935	0.0167099
772.013	0.0165842
772.091	0.0166943
772.169	0.0166360
772.247	0.0165582
772.325	0.0165143
772.404	0.0166262
772.482	0.0167044
772.560	0.0166274
772.638	0.0165156
772.716	0.0166409
772.794	0.0165011
772.872	0.0167650
772.950	0.0167825
773.029	0.0166641
773.107	0.0168054
773.185	0.0168336
773.263	0.0167068
773.341	0.0167194
773.419	0.0167310
773.497	0.0168767
773.575	0.0167480
773.654	0.0169022
773.732	0.0169384
773.810	0.0168621
773.888	0.0169041
773.966	0.0169595
774.044	0.0169493
774.122	0.0170311
774.200	0.0170692
774.279	0.0170358
774.357	0.0169437
774.435	0.0171855
774.513	0.0172133
774.591	0.0171545
774.669	0.0171710
774.747	0.0172749
774.825	0.0172159
774.904	0.0172757
774.982	0.0172421
775.060	0.0172631
775.138	0.0173453
775.216	0.0171777
775.294	0.0171576
775.372	0.0173108
775.450	0.0172736
775.529	0.0170777
775.607	0.0171982
775.685	0.0171533
775.763	0.0169515
775.841	0.0168332
775.919	0.0168085
775.997	0.0168072
776.075	0.0167832
776.154	0.0167815
776.232	0.0167228
776.310	0.0165537
776.388	0.0165065
776.466	0.0164661
776.544	0.0165437
776.622	0.0164889
776.700	0.0164478
776.779	0.0164935
776.857	0.0165710
776.935	0.0165147
777.013	0.0166324
777.091	0.0166090
777.169	0.0166980
777.247	0.0166083
777.325	0.0166706
777.404	0.0167435
777.482	0.0167466
777.560	0.0167507
777.638	0.0167834
777.716	0.0167450
777.794	0.0167890
777.872	0.0168887
777.950	0.0167265
778.029	0.0168246
778.107	0.0169824
778.185	0.0167979
778.263	0.0167854
778.341	0.0166480
778.419	0.0166425
778.497	0.0168925
778.575	0.0166758
778.654	0.0166452
778.732	0.0166474
778.810	0.0166116
778.888	0.0167394
778.966	0.0166652
779.044	0.0166418
779.122	0.0165934
779.200	0.0165626
779.279	0.0167197
779.357	0.0166492
779.435	0.0165706
779.513	0.0166096
779.591	0.0166502
779.669	0.0167343
779.747	0.0169062
779.825	0.0168337
779.904	0.0168951
779.982	0.0169229
780.060	0.0169688
780.138	0.0169152
780.216	0.0170749
780.294	0.0172277
780.372	0.0169893
780.450	0.0170450
780.529	0.0171983
780.607	0.0172330
780.685	0.0171173
780.763	0.0171915
780.841	0.0170484
780.919	0.0171242
780.997	0.0173757
781.075	0.0172433
781.154	0.0173211
781.232	0.0172890
781.310	0.0173299
781.388	0.0172916
781.466	0.0173368
781.544	0.0173140
781.622	0.0173396
781.700	0.0173521
781.779	0.0172536
781.857	0.0171238
781.935	0.0170956
782.013	0.0170543
782.091	0.0170533
782.169	0.0169003
782.247	0.0167786
782.325	0.0167071
782.404	0.0165552
782.482	0.0166084
782.560	0.0163963
782.638	0.0162816
782.716	0.0163468
782.794	0.0160425
782.872	0.0161042
782.950	0.0158836
783.029	0.0158686
783.107	0.0158404
783.185	0.0158002
783.263	0.0158559
783.341	0.0158356
783.419	0.0160175
783.497	0.0160514
783.575	0.0162285
783.654	0.0162679
783.732	0.0164167
783.810	0.0165614
783.888	0.0167294
783.966	0.0167896
784.044	0.0172196
784.122	0.0172307
784.200	0.0175585
784.279	0.0176530
784.357	0.0177855
784.435	0.0178329
784.513	0.0179333
784.591	0.0180087
784.669	0.0181033
784.747	0.0181822
784.825	0.0180071
784.904	0.0179600
784.982	0.0178159
785.060	0.0178019
785.138	0.0177171
785.216	0.0175072
785.294	0.0175102
785.372	0.0173182
785.450	0.0171550
785.529	0.0169183
785.607	0.0167660
785.685	0.0167285
785.763	0.0166539
785.841	0.0165272
785.919	0.0163577
785.997	0.0164526
786.075	0.0162592
786.154	0.0163938
786.232	0.0162408
786.310	0.0162202
786.388	0.0160790
786.466	0.0159998
786.544	0.0160299
786.622	0.0159797
786.700	0.0158249
786.779	0.0157299
786.857	0.0157201
786.935	0.0156311
787.013	0.0155896
787.091	0.0155184
787.169	0.0154050
787.247	0.0155935
787.325	0.0157437
787.404	0.0158289
787.482	0.0159299
787.560	0.0160871
787.638	0.0163348
787.716	0.0165485
787.794	0.0167974
787.872	0.0169481
787.950	0.0172395
788.029	0.0174649
788.107	0.0177147
788.185	0.0179361
788.263	0.0181388
788.341	0.0183376
788.419	0.0186150
788.497	0.0186048
788.575	0.0187604
788.654	0.0186977
788.732	0.0185191
788.810	0.0185692
788.888	0.0184293
788.966	0.0182797
789.044	0.0183218
789.122	0.0182150
789.200	0.0179452
789.279	0.0177277
789.357	0.0176482
789.435	0.0174915
789.513	0.0173344
789.591	0.0171378
789.669	0.0169812
789.747	0.0170444
789.825	0.0166299
789.904	0.0164617
789.982	0.0164651
790.060	0.0164758
790.138	0.0162992
790.216	0.0161029
790.294	0.0161254
790.372	0.0161574
790.450	0.0161225
790.529	0.0159760
790.607	0.0158968
790.685	0.0158469
790.763	0.0158426
790.841	0.0155116
790.919	0.0157747
790.997	0.0156688
791.075	0.0153797
791.154	0.0153017
791.232	0.0154179
791.310	0.0153871
791.388	0.0155142
791.466	0.0153981
791.544	0.0156164
791.622	0.0156297
791.700	0.0156812
791.779	0.0158732
791.857	0.0160754
791.935	0.0163123
792.013	0.0165240
792.091	0.0166561
792.169	0.0169041
792.247	0.0172592
792.325	0.0173379
792.404	0.0177153
792.482	0.0178915
792.560	0.0180689
792.638	0.0180853
792.716	0.0181111
792.794	0.0183215
792.872	0.0183025
792.950	0.0183520
793.029	0.0183398
793.107	0.0183752
793.185	0.0183527
793.263	0.0182028
793.341	0.0182806
793.419	0.0180558
793.497	0.0180246
793.575	0.0178371
793.654	0.0177467
793.732	0.0175858
793.810	0.0175006
793.888	0.0174892
793.966	0.0173413
794.044	0.0172050
794.122	0.0170794
794.200	0.0169476
794.279	0.0169936
794.357	0.0167072
794.435	0.0165739
794.513	0.0165337
794.591	0.0165353
794.669	0.0163125
794.747	0.0163681
794.825	0.0162336
794.904	0.0161758
794.982	0.0162231
795.060	0.0160628
795.138	0.0159873
795.216	0.0159475
795.294	0.0160276
795.372	0.0157833
795.450	0.0158607
795.529	0.0157578
795.607	0.0157488
795.685	0.0158183
795.763	0.0158870
795.841	0.0159475
795.919	0.0158652
795.997	0.0159807
796.075	0.0160658
796.154	0.0160363
796.232	0.0162865
796.310	0.0162530
796.388	0.0164814
796.466	0.0165267
796.544	0.0166470
796.622	0.0166568
796.700	0.0168892
796.779	0.0169212
796.857	0.0169127
796.935	0.0171033
797.013	0.0172165
797.091	0.0174387
797.169	0.0174990
797.247	0.0175467
797.325	0.0175935
797.404	0.0177871
797.482	0.0177715
797.560	0.0178014
797.638	0.0179652
797.716	0.0179320
797.794	0.0179181
797.872	0.0179923
797.950	0.0180231
798.029	0.0177911
798.107	0.0178194
798.185	0.0179099
798.263	0.0177179
798.341	0.0176144
798.419	0.0174703
798.497	0.0173826
798.575	0.0172661
798.654	0.0173389
798.732	0.0170239
798.810	0.0168689
798.888	0.0167504
798.966	0.0167391
799.044	0.0166621
799.122	0.0166117
799.200	0.0165253
799.279	0.0164009
799.357	0.0165134
799.435	0.0164314
799.513	0.0163892
799.591	0.0162500
799.669	0.0163328
799.747	0.0163634
799.825	0.0162843
799.904	0.0162919
799.982	0.0162957
800.060	0.0163352
800.138	0.0163730
800.216	0.0161682
800.294	0.0163111
800.372	0.0164227
800.450	0.0162798
800.529	0.0163492
800.607	0.0165369
800.685	0.0164117
800.763	0.0163423
800.841	0.0163363
800.919	0.0164510
800.997	0.0164507
801.075	0.0165244
801.154	0.0164998
801.232	0.0164864
801.310	0.0164887
801.388	0.0164854
801.466	0.0165971
801.544	0.0165260
801.622	0.0165714
801.700	0.0166808
801.779	0.0167445
801.857	0.0168183
801.935	0.0170370
802.013	0.0170320
802.091	0.0171558
802.169	0.0171754
802.247	0.0171894
802.325	0.0172627
802.404	0.0174184
802.482	0.0174446
802.560	0.0175142
802.638	0.0175530
802.716	0.0174943
802.794	0.0174696
802.872	0.0176157
802.950	0.0175887
803.029	0.0175182
803.107	0.0174657
803.185	0.0174220
803.263	0.0173358
803.341	0.0173145
803.419	0.0171841
803.497	0.0171966
803.575	0.0171904
803.654	0.0171160
803.732	0.0170156
803.810	0.0170457
803.888	0.0170659
803.966	0.0170052
804.044	0.0171202
804.122	0.0171357
804.200	0.0171307
804.279	0.0170557
804.357	0.0169183
804.435	0.0169962
804.513	0.0169881
804.591	0.0168903
804.669	0.0169041
804.747	0.0168110
804.825	0.0168951
804.904	0.0167819
804.982	0.0168823
805.060	0.0167092
805.138	0.0167190
805.216	0.0166171
805.294	0.0167511
805.372	0.0167437
805.450	0.0165067
805.529	0.0165344
805.607	0.0166630
805.685	0.0166438
805.763	0.0166308
805.841	0.0164989
805.919	0.0165825
805.997	0.0166246
806.075	0.0167016
806.154	0.0164700
806.232	0.0165486
806.310	0.0166133
806.388	0.0165001
806.466	0.0166198
806.544	0.0165594
806.622	0.0165597
806.700	0.0165765
806.779	0.0166103
806.857	0.0165668
806.935	0.0164605
807.013	0.0165884
807.091	0.0166085
807.169	0.0165871
807.247	0.0165733
807.325	0.0165397
807.404	0.0165623
807.482	0.0166985
807.560	0.0165263
807.638	0.0168443
807.716	0.0167612
807.794	0.0167778
807.872	0.0170447
807.950	0.0169116
808.029	0.0169079
808.107	0.0169492
808.185	0.0170189
808.263	0.0170467
808.341	0.0171094
808.419	0.0170806
808.497	0.0171952
808.575	0.0173441
808.654	0.0173306
808.732	0.0172689
808.810	0.0171566
808.888	0.0172469
808.966	0.0171622
809.044	0.0171494
809.122	0.0171472
809.200	0.0171942
809.279	0.0170747
809.357	0.0170639
809.435	0.0171202
809.513	0.0171545
809.591	0.0172675
809.669	0.0171493
809.747	0.0170689
809.825	0.0171259
809.904	0.0172194
809.982	0.0170908
810.060	0.0173481
810.138	0.0173623
810.216	0.0173012
810.294	0.0173019
810.372	0.0171725
810.450	0.0171297
810.529	0.0170527
810.607	0.0171533
810.685	0.0170610
810.763	0.0168883
810.841	0.0169220
810.919	0.0168125
810.997	0.0167552
811.075	0.0167376
811.154	0.0166795
811.232	0.0165654
811.310	0.0166353
811.388	0.0165634
811.466	0.0164602
811.544	0.0165822
811.622	0.0164583
811.700	0.0164314
811.779	0.0166036
811.857	0.0165318
811.935	0.0166222
812.013	0.0165971
812.091	0.0165905
812.169	0.0165862
812.247	0.0166541
812.325	0.0166656
812.404	0.0166126
812.482	0.0166136
812.560	0.0166374
812.638	0.0165777
812.716	0.0165997
812.794	0.0165386
812.872	0.0165421
812.950	0.0165362
813.029	0.0165113
813.107	0.0164893
813.185	0.0164834
813.263	0.0165247
813.341	0.0165160
813.419	0.0167112
813.497	0.0166380
813.575	0.0166190
813.654	0.0167654
813.732	0.0167847
813.810	0.0169848
813.888	0.0170438
813.966	0.0169711
814.044	0.0170599
814.122	0.0171981
814.200	0.0173707
814.279	0.0174254
814.357	0.0175402
814.435	0.0174359
814.513	0.0174393
814.591	0.0173729
814.669	0.0174588
814.747	0.0175546
814.825	0.0175694
814.904	0.0174272
814.982	0.0172318
815.060	0.0173704
815.138	0.0172529
815.216	0.0171511
815.294	0.0170877
815.372	0.0170150
815.450	0.0170818
815.529	0.0169615
815.607	0.0170195
815.685	0.0168585
815.763	0.0168586
815.841	0.0169512
815.919	0.0168497
815.997	0.0167676
816.075	0.0166057
816.154	0.0167519
816.232	0.0168195
816.310	0.0167383
816.388	0.0166125
816.466	0.0165551
816.544	0.0166969
816.622	0.0165290
816.700	0.0166020
816.779	0.0163937
816.857	0.0164708
816.935	0.0164722
817.013	0.0165130
817.091	0.0166444
817.169	0.0164414
817.247	0.0165453
817.325	0.0166631
817.404	0.0166116
817.482	0.0166283
817.560	0.0166212
817.638	0.0168121
817.716	0.0167476
817.794	0.0168647
817.872	0.0169669
817.950	0.0169083
818.029	0.0168983
818.107	0.0169589
818.185	0.0169531
818.263	0.0170127
818.341	0.0171427
818.419	0.0171703
818.497	0.0171880
818.575	0.0171588
818.654	0.0171294
818.732	0.0169926
818.810	0.0169888
818.888	0.0169798
818.966	0.0171214
819.044	0.0169971
819.122	0.0169157
819.200	0.0169146
819.279	0.0169805
819.357	0.0168941
819.435	0.0168114
819.513	0.0168272
819.591	0.0169815
819.669	0.0167809
819.747	0.0168296
819.825	0.0168173
819.904	0.0169945
819.982	0.0168024
820.060	0.0167817
820.138	0.0168853
820.216	0.0168943
820.294	0.0168624
820.372	0.0169145
820.450	0.0168433
820.529	0.0169007
820.607	0.0169357
820.685	0.0168664
820.763	0.0167539
820.841	0.0169036
820.919	0.0168649
820.997	0.0168826
821.075	0.0168380
821.154	0.0168160
821.232	0.0168050
821.310	0.0169305
821.388	0.0168825
821.466	0.0168520
821.544	0.0170237
821.622	0.0169157
821.700	0.0168557
821.779	0.0169968
821.857	0.0169370
821.935	0.0171235
822.013	0.0170245
822.091	0.0170559
822.169	0.0169886
822.247	0.0168134
822.325	0.0168117
822.404	0.0168466
822.482	0.0168954
822.560	0.0168908
822.638	0.0168464
822.716	0.0167551
822.794	0.0167458
822.872	0.0166560
822.950	0.0166610
823.029	0.0167876
823.107	0.0168247
823.185	0.0167333
823.263	0.0166112
823.341	0.0166737
823.419	0.0167007
823.497	0.0166465
823.575	0.0166816
823.654	0.0166891
823.732	0.0165874
823.810	0.0166308
823.888	0.0167172
823.966	0.0166567
824.044	0.0167860
824.122	0.0168376
824.200	0.0168092
824.279	0.0169699
824.357	0.0168858
824.435	0.0168114
824.513	0.0168063
824.591	0.0168557
824.669	0.0168048
824.747	0.0167654
824.825	0.0168267
824.904	0.0170326
824.982	0.0168716
825.060	0.0168189
825.138	0.0168736
825.216	0.0167090
825.294	0.0169352
825.372	0.0168504
825.450	0.0167963
825.529	0.0169463
825.607	0.0170022
825.685	0.0169248
825.763	0.0169376
825.841	0.0169916
825.919	0.0169924
825.997	0.0170377
826.075	0.0170862
826.154	0.0170206
826.232	0.0172202
826.310	0.0171671
826.388	0.0172466
826.466	0.0169793
826.544	0.0170220
826.622	0.0171407
826.700	0.0171098
826.779	0.0170438
826.857	0.0171210
826.935	0.0172171
827.013	0.0169442
827.091	0.0169525
827.169	0.0169128
827.247	0.0168091
827.325	0.0168798
827.404	0.0168606
827.482	0.0167968
827.560	0.0168123
827.638	0.0167329
827.716	0.0166173
827.794	0.0167310
827.872	0.0166392
827.950	0.0166312
828.029	0.0165645
828.107	0.0167249
828.185	0.0168624
828.263	0.0168236
828.341	0.0166088
828.419	0.0167657
828.497	0.0167587
828.575	0.0166743
828.654	0.0166586
828.732	0.0167022
828.810	0.0166895
828.888	0.0167242
828.966	0.0165971
829.044	0.0167989
829.122	0.0167272
829.200	0.0166781
829.279	0.0168030
829.357	0.0167538
829.435	0.0168544
829.513	0.0168243
829.591	0.0169402
829.669	0.0169131
829.747	0.0167853
829.825	0.0168748
829.904	0.0170374
829.982	0.0171091
830.060	0.0171233
830.138	0.0172032
830.216	0.0170783
830.294	0.0170900
830.372	0.0173531
830.450	0.0173789
830.529	0.0171894
830.607	0.0171688
830.685	0.0171626
830.763	0.0172388
830.841	0.0172629
830.919	0.0172175
830.997	0.0171947
831.075	0.0171482
831.154	0.0171435
831.232	0.0170612
831.310	0.0171152
831.388	0.0169871
831.466	0.0170974
831.544	0.0169800
831.622	0.0169474
831.700	0.0169623
831.779	0.0169169
831.857	0.0167760
831.935	0.0167895
832.013	0.0165929
832.091	0.0165000
832.169	0.0165739
832.247	0.0164828
832.325	0.0165701
832.404	0.0164407
832.482	0.0163877
832.560	0.0163357
832.638	0.0162834
832.716	0.0162605
832.794	0.0163392
832.872	0.0163881
832.950	0.0163146
833.029	0.0164114
833.107	0.0163871
833.185	0.0164040
833.263	0.0163606
833.341	0.0165160
833.419	0.0166718
833.497	0.0165993
833.575	0.0166820
833.654	0.0167310
833.732	0.0166682
833.810	0.0168037
833.888	0.0170666
833.966	0.0170274
834.044	0.0170691
834.122	0.0171173
834.200	0.0172249
834.279	0.0171548
834.357	0.0172758
834.435	0.0173952
834.513	0.0173309
834.591	0.0173904
834.669	0.0173499
834.747	0.0174297
834.825	0.0173838
834.904	0.0173700
834.982	0.0174208
835.060	0.0174120
835.138	0.0173264
835.216	0.0174229
835.294	0.0172645
835.372	0.0172266
835.450	0.0171744
835.529	0.0170945
835.607	0.0170812
835.685	0.0170073
835.763	0.0170454
835.841	0.0170207
835.919	0.0168875
835.997	0.0168092
836.075	0.0168616
836.154	0.0167329
836.232	0.0164949
836.310	0.0164278
836.388	0.0166086
836.466	0.0165775
836.544	0.0165546
836.622	0.0163823
836.700	0.0164217
836.779	0.0165736
836.857	0.0163562
836.935	0.0162082
837.013	0.0163409
837.091	0.0163367
837.169	0.0163760
837.247	0.0161459
837.325	0.0164607
837.404	0.0164556
837.482	0.0164689
837.560	0.0164806
837.638	0.0165205
837.716	0.0165374
837.794	0.0165871
837.872	0.0167664
837.950	0.0167590
838.029	0.0167670
838.107	0.0167999
838.185	0.0169479
838.263	0.0169909
838.341	0.0169330
838.419	0.0169505
838.497	0.0172288
838.575	0.0170594
838.654	0.0170012
838.732	0.0171845
838.810	0.0170943
838.888	0.0171304
838.966	0.0172106
839.044	0.0172749
839.122	0.0172324
839.200	0.0172076
839.279	0.0170943
839.357	0.0171918
839.435	0.0171202
839.513	0.0170325
839.591	0.0172385
839.669	0.0171141
839.747	0.0169991
839.825	0.0171198
839.904	0.0169699
839.982	0.0169428
840.060	0.0170306
840.138	0.0171005
840.216	0.0168298
840.294	0.0168904
840.372	0.0169012
840.450	0.0166827
840.529	0.0166409
840.607	0.0166563
840.685	0.0167357
840.763	0.0167731
840.841	0.0166571
840.919	0.0167379
840.997	0.0166537
841.075	0.0167453
841.154	0.0167784
841.232	0.0167888
841.310	0.0168615
841.388	0.0166618
841.466	0.0166839
841.544	0.0168570
841.622	0.0168396
841.700	0.0168609
841.779	0.0168832
841.857	0.0168501
841.935	0.0167396
842.013	0.0168447
842.091	0.0168446
842.169	0.0168372
842.247	0.0168650
842.325	0.0168697
842.404	0.0167660
842.482	0.0167383
842.560	0.0168867
842.638	0.0167520
842.716	0.0168255
842.794	0.0167601
842.872	0.0168950
842.950	0.0167622
843.029	0.0168451
843.107	0.0168742
843.185	0.0167740
843.263	0.0166854
843.341	0.0167728
843.419	0.0167939
843.497	0.0166168
843.575	0.0165682
843.654	0.0166767
843.732	0.0166244
843.810	0.0166565
843.888	0.0167293
843.966	0.0167367
844.044	0.0168561
844.122	0.0167426
844.200	0.0166348
844.279	0.0166381
844.357	0.0166802
844.435	0.0167868
844.513	0.0167001
844.591	0.0166383
844.669	0.0168583
844.747	0.0167282
844.825	0.0167725
844.904	0.0167018
844.982	0.0168820
845.060	0.0168285
845.138	0.0167128
845.216	0.0167758
845.294	0.0168303
845.372	0.0168463
845.450	0.0168431
845.529	0.0167454
845.607	0.0168746
845.685	0.0169436
845.763	0.0168738
845.841	0.0169235
845.919	0.0169325
845.997	0.0169706
846.075	0.0168870
846.154	0.0169004
846.232	0.0169669
846.310	0.0168459
846.388	0.0169424
846.466	0.0169015
846.544	0.0169060
846.622	0.0168248
846.700	0.0169499
846.779	0.0168953
846.857	0.0167927
846.935	0.0168449
847.013	0.0168500
847.091	0.0169496
847.169	0.0168800
847.247	0.0169422
847.325	0.0168963
847.404	0.0167603
847.482	0.0169080
847.560	0.0168041
847.638	0.0167731
847.716	0.0167503
847.794	0.0167368
847.872	0.0167239
847.950	0.0166811
848.029	0.0168192
848.107	0.0167212
848.185	0.0167236
848.263	0.0167446
848.341	0.0168406
848.419	0.0168081
848.497	0.0168285
848.575	0.0168951
848.654	0.0167334
848.732	0.0168306
848.810	0.0168808
848.888	0.0167380
848.966	0.0166846
849.044	0.0167400
849.122	0.0167388
849.200	0.0167479
849.279	0.0168101
849.357	0.0166811
849.435	0.0167499
849.513	0.0168183
849.591	0.0167555
849.669	0.0166322
849.747	0.0165672
849.825	0.0166167
849.904	0.0165618
849.982	0.0167241
850.060	0.0166374
850.138	0.0166881
850.216	0.0166706
850.294	0.0167172
850.372	0.0168755
850.450	0.0167539
850.529	0.0170064
850.607	0.0168988
850.685	0.0169289
850.763	0.0168806
850.841	0.0168353
850.919	0.0169436
850.997	0.0169845
851.075	0.0169377
851.154	0.0169637
851.232	0.0170719
851.310	0.0170537
851.388	0.0170840
851.466	0.0170871
851.544	0.0170204
851.622	0.0168853
851.700	0.0169254
851.779	0.0169595
851.857	0.0169638
851.935	0.0167522
852.013	0.0168027
852.091	0.0169778
852.169	0.0170473
852.247	0.0169792
852.325	0.0168166
852.404	0.0169305
852.482	0.0168916
852.560	0.0168137
852.638	0.0170035
852.716	0.0168782
852.794	0.0167854
852.872	0.0167716
852.950	0.0168911
853.029	0.0167065
853.107	0.0168033
853.185	0.0167790
853.263	0.0166510
853.341	0.0166496
853.419	0.0165616
853.497	0.0165257
853.575	0.0166047
853.654	0.0165804
853.732	0.0166203
853.810	0.0166716
853.888	0.0166901
853.966	0.0166148
854.044	0.0166977
854.122	0.0165598
854.200	0.0165044
854.279	0.0166493
854.357	0.0165034
854.435	0.0166238
854.513	0.0166098
854.591	0.0167612
854.669	0.0167481
854.747	0.0167290
854.825	0.0168890
854.904	0.0169042
854.982	0.0168997
855.060	0.0168031
855.138	0.0168617
855.216	0.0169913
855.294	0.0168822
855.372	0.0168223
855.450	0.0169631
855.529	0.0169182
855.607	0.0170354
855.685	0.0170403
855.763	0.0170351
855.841	0.0169136
855.919	0.0170374
855.997	0.0170412
856.075	0.0169075
856.154	0.0168624
856.232	0.0168357
856.310	0.0169881
856.388	0.0167914
856.466	0.0169225
856.544	0.0170072
856.622	0.0168929
856.700	0.0169057
856.779	0.0168282
856.857	0.0169128
856.935	0.0168583
857.013	0.0168497
857.091	0.0169924
857.169	0.0168845
857.247	0.0169440
857.325	0.0170119
857.404	0.0168755
857.482	0.0169456
857.560	0.0169398
857.638	0.0167852
857.716	0.0168057
857.794	0.0168102
857.872	0.0168439
857.950	0.0169110
858.029	0.0168360
858.107	0.0167844
858.185	0.0167965
858.263	0.0169598
858.341	0.0167825
858.419	0.0167075
858.497	0.0168331
858.575	0.0169014
858.654	0.0169189
858.732	0.0168240
858.810	0.0169067
858.888	0.0169093
858.966	0.0168130
859.044	0.0168399
859.122	0.0169061
859.200	0.0168803
859.279	0.0169740
859.357	0.0169018
859.435	0.0169185
859.513	0.0168883
859.591	0.0168513
859.669	0.0168345
859.747	0.0168114
859.825	0.0169077
859.904	0.0167596
859.982	0.0167942
860.060	0.0167822
860.138	0.0167683
860.216	0.0168143
860.294	0.0168417
860.372	0.0166885
860.450	0.0168166
860.529	0.0167755
860.607	0.0167870
860.685	0.0167701
860.763	0.0166850
860.841	0.0167672
860.919	0.0167848
860.997	0.0167258
861.075	0.0166514
861.154	0.0167374
861.232	0.0168024
861.310	0.0166677
861.388	0.0166661
861.466	0.0169028
861.544	0.0168289
861.622	0.0167703
861.700	0.0168349
861.779	0.0168181
861.857	0.0167983
861.935	0.0167570
862.013	0.0167653
862.091	0.0169034
862.169	0.0169384
862.247	0.0167664
862.325	0.0167441
862.404	0.0168170
862.482	0.0167352
862.560	0.0167525
862.638	0.0169798
862.716	0.0167403
862.794	0.0167548
862.872	0.0168842
862.950	0.0168808
863.029	0.0168900
863.107	0.0168446
863.185	0.0168664
863.263	0.0167889
863.341	0.0169093
863.419	0.0168480
863.497	0.0169479
863.575	0.0169218
863.654	0.0169998
863.732	0.0170357
863.810	0.0168947
863.888	0.0169234
863.966	0.0170944
864.044	0.0169067
864.122	0.0171889
864.200	0.0169958
864.279	0.0169389
864.357	0.0169699
864.435	0.0170898
864.513	0.0170317
864.591	0.0170550
864.669	0.0169697
864.747	0.0168594
864.825	0.0168717
864.904	0.0169383
864.982	0.0169086
865.060	0.0169605
865.138	0.0168015
865.216	0.0166953
865.294	0.0168375
865.372	0.0167845
865.450	0.0167766
865.529	0.0168216
865.607	0.0167116
865.685	0.0166681
865.763	0.0166666
865.841	0.0168344
865.919	0.0168482
865.997	0.0166839
866.075	0.0167125
866.154	0.0168734
866.232	0.0169892
866.310	0.0167879
866.388	0.0168451
866.466	0.0168423
866.544	0.0167412
866.622	0.0168440
866.700	0.0167342
866.779	0.0168877
866.857	0.0167378
866.935	0.0167865
867.013	0.0168642
867.091	0.0168452
867.169	0.0167225
867.247	0.0167031
867.325	0.0168481
867.404	0.0169154
867.482	0.0168590
867.560	0.0167318
867.638	0.0168050
867.716	0.0169524
867.794	0.0169746
867.872	0.0169675
867.950	0.0170022
868.029	0.0170015
868.107	0.0170245
868.185	0.0169529
868.263	0.0169920
868.341	0.0170993
868.419	0.0169528
868.497	0.0169452
868.575	0.0170772
868.654	0.0169875
868.732	0.0171073
868.810	0.0170944
868.888	0.0171298
868.966	0.0171030
869.044	0.0170496
869.122	0.0170586
869.200	0.0171054
869.279	0.0168711
869.357	0.0170341
869.435	0.0170458
869.513	0.0171825
869.591	0.0167989
869.669	0.0169054
869.747	0.0168811
869.825	0.0169870
869.904	0.0167874
869.982	0.0168046
870.060	0.0167976
870.138	0.0169981
870.216	0.0169103
870.294	0.0168861
870.372	0.0169952
870.450	0.0168820
870.529	0.0167139
870.607	0.0168082
870.685	0.0167963
870.763	0.0167227
870.841	0.0165685
870.919	0.0166110
870.997	0.0165665
871.075	0.0166853
871.154	0.0165685
871.232	0.0165782
871.310	0.0166173
871.388	0.0165048
871.466	0.0165191
871.544	0.0167269
871.622	0.0167577
871.700	0.0166721
871.779	0.0168085
871.857	0.0168072
871.935	0.0168407
872.013	0.0169812
872.091	0.0168569
872.169	0.0168480
872.247	0.0171458
872.325	0.0170995
872.404	0.0171741
872.482	0.0170829
872.560	0.0172119
872.638	0.0171793
872.716	0.0171597
872.794	0.0171009
872.872	0.0171095
872.950	0.0171310
873.029	0.0170382
873.107	0.0169478
873.185	0.0169006
873.263	0.0170143
873.341	0.0169832
873.419	0.0168990
873.497	0.0169904
873.575	0.0168941
873.654	0.0170512
873.732	0.0169320
873.810	0.0170059
873.888	0.0169180
873.966	0.0168116
874.044	0.0167738
874.122	0.0168320
874.200	0.0167815
874.279	0.0168204
874.357	0.0167503
874.435	0.0167928
874.513	0.0167813
874.591	0.0167416
874.669	0.0167411
874.747	0.0165433
874.825	0.0165875
874.904	0.0166101
874.982	0.0166747
875.060	0.0165699
875.138	0.0166640
875.216	0.0165817
875.294	0.0164578
875.372	0.0166605
875.450	0.0166850
875.529	0.0165545
875.607	0.0166107
875.685	0.0166598
875.763	0.0166578
875.841	0.0165572
875.919	0.0168604
875.997	0.0167431
876.075	0.0168028
876.154	0.0166789
876.232	0.0168153
876.310	0.0168153
876.388	0.0169561
876.466	0.0170186
876.544	0.0170427
876.622	0.0170444
876.700	0.0171058
876.779	0.0171915
876.857	0.0172762
876.935	0.0173582
877.013	0.0172302
877.091	0.0171854
877.169	0.0174539
877.247	0.0174026
877.325	0.0171589
877.404	0.0170200
877.482	0.0169656
877.560	0.0168898
877.638	0.0166765
877.716	0.0165318
877.794	0.0165385
877.872	0.0163952
877.950	0.0162968
878.029	0.0161549
878.107	0.0162349
878.185	0.0162484
878.263	0.0159464
878.341	0.0161706
878.419	0.0161755
878.497	0.0162814
878.575	0.0164024
878.654	0.0165379
878.732	0.0166663
878.810	0.0169572
878.888	0.0172111
878.966	0.0173772
879.044	0.0175156
879.122	0.0175400
879.200	0.0178165
879.279	0.0180721
879.357	0.0180887
879.435	0.0181279
879.513	0.0180090
879.591	0.0178774
879.669	0.0177368
879.747	0.0176933
879.825	0.0174978
879.904	0.0172813
879.982	0.0171342
880.060	0.0168214
880.138	0.0168750
880.216	0.0166949
880.294	0.0167346
880.372	0.0164787
880.450	0.0162300
880.529	0.0164471
880.607	0.0161893
880.685	0.0161153
880.763	0.0163329
880.841	0.0164011
880.919	0.0164122
880.997	0.0164590
881.075	0.0164630
881.154	0.0165671
881.232	0.0166272
881.310	0.0165897
881.388	0.0166689
881.466	0.0166890
881.544	0.0165585
881.622	0.0166991
881.700	0.0165781
881.779	0.0165086
881.857	0.0165841
881.935	0.0164626
882.013	0.0164130
882.091	0.0164191
882.169	0.0164030
882.247	0.0164143
882.325	0.0162278
882.404	0.0161935
882.482	0.0163748
882.560	0.0164086
882.638	0.0164581
882.716	0.0167460
882.794	0.0167126
882.872	0.0169482
882.950	0.0172020
883.029	0.0173679
883.107	0.0175280
883.185	0.0177884
883.263	0.0179464
883.341	0.0181190
883.419	0.0181570
883.497	0.0181856
883.575	0.0181465
883.654	0.0181223
883.732	0.0182735
883.810	0.0179062
883.888	0.0178851
883.966	0.0175921
884.044	0.0174473
884.122	0.0172149
884.200	0.0169740
884.279	0.0166946
884.357	0.0166456
884.435	0.0164540
884.513	0.0164417
884.591	0.0163860
884.669	0.0162501
884.747	0.0163725
884.825	0.0163681
884.904	0.0163419
884.982	0.0164162
885.060	0.0164904
885.138	0.0164484
885.216	0.0165751
885.294	0.0165545
885.372	0.0165989
885.450	0.0167390
885.529	0.0167574
885.607	0.0167457
885.685	0.0166837
885.763	0.0167779
885.841	0.0165449
885.919	0.0165067
885.997	0.0163065
886.075	0.0163690
886.154	0.0161312
886.232	0.0162538
886.310	0.0160906
886.388	0.0161309
886.466	0.0159664
886.544	0.0161585
886.622	0.0160909
886.700	0.0162999
886.779	0.0165208
886.857	0.0165730
886.935	0.0166986
887.013	0.0169164
887.091	0.0169056
887.169	0.0171277
887.247	0.0171916
887.325	0.0174440
887.404	0.0177524
887.482	0.0177455
887.560	0.0177535
887.638	0.0178194
887.716	0.0179552
887.794	0.0181534
887.872	0.0179781
887.950	0.0179546
888.029	0.0179455
888.107	0.0180280
888.185	0.0177119
888.263	0.0177306
888.341	0.0174343
888.419	0.0175050
888.497	0.0174825
888.575	0.0170183
888.654	0.0170005
888.732	0.0168385
888.810	0.0168169
888.888	0.0166699
888.966	0.0166171
889.044	0.0163396
889.122	0.0165985
889.200	0.0166209
889.279	0.0163379
889.357	0.0162271
889.435	0.0162532
889.513	0.0162086
889.591	0.0160546
889.669	0.0159863
889.747	0.0160421
889.825	0.0159416
889.904	0.0159600
889.982	0.0160044
890.060	0.0160219
890.138	0.0161487
890.216	0.0162088
890.294	0.0163622
890.372	0.0164040
890.450	0.0164737
890.529	0.0165514
890.607	0.0167831
890.685	0.0169619
890.763	0.0170149
890.841	0.0171346
890.919	0.0171825
890.997	0.0171463
891.075	0.0174712
891.154	0.0175122
891.232	0.0174220
891.310	0.0175905
891.388	0.0176575
891.466	0.0175128
891.544	0.0175685
891.622	0.0173675
891.700	0.0172780
891.779	0.0171932
891.857	0.0173485
891.935	0.0171860
892.013	0.0170525
892.091	0.0169150
892.169	0.0170166
892.247	0.0169948
892.325	0.0170036
892.404	0.0169733
892.482	0.0169878
892.560	0.0170030
892.638	0.0173039
892.716	0.0173212
892.794	0.0172573
892.872	0.0173229
892.950	0.0174254
893.029	0.0173701
893.107	0.0172504
893.185	0.0172160
893.263	0.0173707
893.341	0.0171496
893.419	0.0170805
893.497	0.0169703
893.575	0.0167544
893.654	0.0167225
893.732	0.0165006
893.810	0.0164258
893.888	0.0163104
893.966	0.0162092
894.044	0.0161760
894.122	0.0162968
894.200	0.0161603
894.279	0.0160505
894.357	0.0159856
894.435	0.0162096
894.513	0.0162988
894.591	0.0162123
894.669	0.0163628
894.747	0.0164240
894.825	0.0164064
894.904	0.0166928
894.982	0.0166768
895.060	0.0168060
895.138	0.0168774
895.216	0.0169122
895.294	0.0170442
895.372	0.0172248
895.450	0.0171777
895.529	0.0171930
895.607	0.0172893
895.685	0.0172546
895.763	0.0172193
895.841	0.0172179
895.919	0.0171162
895.997	0.0171246
896.075	0.0171304
896.154	0.0169608
896.232	0.0169581
896.310	0.0166738
896.388	0.0166327
896.466	0.0167801
896.544	0.0168724
896.622	0.0166901
896.700	0.0168749
896.779	0.0167856
896.857	0.0169370
896.935	0.0170618
897.013	0.0171842
897.091	0.0173009
897.169	0.0173108
897.247	0.0174224
897.325	0.0174931
897.404	0.0174905
897.482	0.0175646
897.560	0.0175402
897.638	0.0176800
897.716	0.0175079
897.794	0.0172916
897.872	0.0174561
897.950	0.0171631
898.029	0.0169651
898.107	0.0169859
898.185	0.0168611
898.263	0.0167547
898.341	0.0166035
898.419	0.0164094
898.497	0.0163612
898.575	0.0162767
898.654	0.0161515
898.732	0.0162842
898.810	0.0161211
898.888	0.0159382
898.966	0.0160229
899.044	0.0162290
899.122	0.0164302
899.200	0.0163754
899.279	0.0163401
899.357	0.0165654
899.435	0.0165353
899.513	0.0168201
899.591	0.0169974
899.669	0.0171099
899.747	0.0170539
899.825	0.0172004
899.904	0.0171854
899.982	0.0171514
900.060	0.0173351
900.138	0.0172594
900.216	0.0172862
900.294	0.0171864
900.372	0.0172062
900.450	0.0172266
900.529	0.0170987
900.607	0.0169604
900.685	0.0169843
900.763	0.0170126
900.841	0.0170795
900.919	0.0170055
900.997	0.0168345
901.075	0.0170491
901.154	0.0171021
901.232	0.0170743
901.310	0.0172760
901.388	0.0172000
901.466	0.0171468
901.544	0.0170650
901.622	0.0171944
901.700	0.0170971
901.779	0.0171009
901.857	0.0171951
901.935	0.0170194
902.013	0.0169975
902.091	0.0170526
902.169	0.0170190
902.247	0.0169423
902.325	0.0168551
902.404	0.0167811
902.482	0.0168847
902.560	0.0166053
902.638	0.0167049
902.716	0.0167281
902.794	0.0167503
902.872	0.0167982
902.950	0.0166776
903.029	0.0165199
903.107	0.0165614
903.185	0.0164866
903.263	0.0165662
903.341	0.0166389
903.419	0.0165130
903.497	0.0166750
903.575	0.0165604
903.654	0.0165718
903.732	0.0166454
903.810	0.0166254
903.888	0.0167925
903.966	0.0166994
904.044	0.0168990
904.122	0.0169557
904.200	0.0169022
904.279	0.0168711
904.357	0.0170477
904.435	0.0169401
904.513	0.0170578
904.591	0.0171552
904.669	0.0171122
904.747	0.0169597
904.825	0.0170081
904.904	0.0170104
904.982	0.0172097
905.060	0.0170837
905.138	0.0170924
905.216	0.0169748
905.294	0.0170853
905.372	0.0169673
905.450	0.0169928
905.529	0.0169170
905.607	0.0170135
905.685	0.0170956
905.763	0.0169736
905.841	0.0169607
905.919	0.0169509
905.997	0.0169999
906.075	0.0170160
906.154	0.0170074
906.232	0.0170168
906.310	0.0169531
906.388	0.0170179
906.466	0.0169551
906.544	0.0167381
906.622	0.0168632
906.700	0.0169337
906.779	0.0169411
906.857	0.0168582
906.935	0.0167123
907.013	0.0168732
907.091	0.0168559
907.169	0.0167458
907.247	0.0169214
907.325	0.0168858
907.404	0.0169797
907.482	0.0169078
907.560	0.0168352
907.638	0.0167850
907.716	0.0166896
907.794	0.0167032
907.872	0.0168651
907.950	0.0167687
908.029	0.0166586
908.107	0.0168892
908.185	0.0169044
908.263	0.0166804
908.341	0.0166433
908.419	0.0167760
908.497	0.0168288
908.575	0.0168946
908.654	0.0168733
908.732	0.0168027
908.810	0.0167944
908.888	0.0168763
908.966	0.0169472
909.044	0.0168198
909.122	0.0169883
909.200	0.0171423
909.279	0.0169932
909.357	0.0170580
909.435	0.0171793
909.513	0.0171296
909.591	0.0171388
909.669	0.0171169
909.747	0.0169754
909.825	0.0170644
909.904	0.0170105
909.982	0.0170596
910.060	0.0169172
910.138	0.0168721
910.216	0.0168994
910.294	0.0168858
910.372	0.0168468
910.450	0.0167951
910.529	0.0167903
910.607	0.0167339
910.685	0.0168233
910.763	0.0167453
910.841	0.0166958
910.919	0.0167735
910.997	0.0168980
911.075	0.0168353
911.154	0.0166931
911.232	0.0168053
911.310	0.0166365
911.388	0.0168121
911.466	0.0168897
911.544	0.0168669
911.622	0.0169248
911.700	0.0167054
911.779	0.0168725
911.857	0.0169733
911.935	0.0170295
912.013	0.0169996
912.091	0.0169537
912.169	0.0169991
912.247	0.0171317
912.325	0.0170140
912.404	0.0169096
912.482	0.0170336
912.560	0.0169872
912.638	0.0171067
912.716	0.0168253
912.794	0.0168436
912.872	0.0169377
912.950	0.0169215
913.029	0.0168335
913.107	0.0168796
913.185	0.0167566
913.263	0.0168536
913.341	0.0169878
913.419	0.0168736
913.497	0.0170004
913.575	0.0170822
913.654	0.0171450
913.732	0.0171651
913.810	0.0170310
913.888	0.0170715
913.966	0.0172906
914.044	0.0171652
914.122	0.0171765
914.200	0.0173577
914.279	0.0173627
914.357	0.0173162
914.435	0.0173104
914.513	0.0172645
914.591	0.0172465
914.669	0.0170838
914.747	0.0171024
914.825	0.0170485
914.904	0.0169415
914.982	0.0169759
915.060	0.0169308
915.138	0.0168808
915.216	0.0168575
915.294	0.0167921
915.372	0.0168761
915.450	0.0167175
915.529	0.0166683
915.607	0.0166306
915.685	0.0166261
915.763	0.0166382
915.841	0.0165659
915.919	0.0166247
915.997	0.0164914
916.075	0.0166036
916.154	0.0166860
916.232	0.0166257
916.310	0.0165704
916.388	0.0166281
916.466	0.0166833
916.544	0.0165508
916.622	0.0166605
916.700	0.0166161
916.779	0.0167199
916.857	0.0167513
916.935	0.0168040
917.013	0.0169451
917.091	0.0168774
917.169	0.0168492
917.247	0.0169331
917.325	0.0169036
917.404	0.0169495
917.482	0.0169881
917.560	0.0169305
917.638	0.0170379
917.716	0.0170678
917.794	0.0169827
917.872	0.0171006
917.950	0.0170016
918.029	0.0171381
918.107	0.0171899
918.185	0.0169831
918.263	0.0170519
918.341	0.0171187
918.419	0.0170744
918.497	0.0171749
918.575	0.0171154
918.654	0.0171699
918.732	0.0171149
918.810	0.0170277
918.888	0.0171013
918.966	0.0169862
919.044	0.0170645
919.122	0.0170250
919.200	0.0169373
919.279	0.0167850
919.357	0.0167913
919.435	0.0168176
919.513	0.0166768
919.591	0.0167361
919.669	0.0167001
919.747	0.0167657
919.825	0.0167284
919.904	0.0166869
