05/24/2022	20:14:23	Ver.	4.1	UNKNOWN
Optical Delay	599.988409	Delta X		0.078125	Sweeps	1	Scan Rate	0/0
Coordinates	Axis 1	NaN	Axis 2	NaN	Axis 3	NaN	Axis 4	NaN	Axis 5	NaN	Axis 6	0.000000
TX Power	0.000000	RX Power	0.000000

599.988	0.0173277
600.067	0.0174200
600.145	0.0173363
600.223	0.0172694
600.301	0.0172806
600.379	0.0174839
600.457	0.0174651
600.535	0.0174837
600.613	0.0173383
600.692	0.0173053
600.770	0.0174239
600.848	0.0174076
600.926	0.0173257
601.004	0.0172696
601.082	0.0172800
601.160	0.0173458
601.238	0.0173315
601.317	0.0172241
601.395	0.0173811
601.473	0.0174978
601.551	0.0173718
601.629	0.0173264
601.707	0.0173634
601.785	0.0173411
601.863	0.0173360
601.942	0.0173265
602.020	0.0172385
602.098	0.0174536
602.176	0.0173139
602.254	0.0173817
602.332	0.0173637
602.410	0.0173685
602.488	0.0171584
602.567	0.0172167
602.645	0.0173357
602.723	0.0173432
602.801	0.0173217
602.879	0.0172845
602.957	0.0172507
603.035	0.0172311
603.113	0.0174098
603.192	0.0173762
603.270	0.0173364
603.348	0.0172442
603.426	0.0173621
603.504	0.0173054
603.582	0.0173410
603.660	0.0173720
603.738	0.0172366
603.817	0.0174120
603.895	0.0173621
603.973	0.0175015
604.051	0.0173631
604.129	0.0174203
604.207	0.0174281
604.285	0.0172546
604.363	0.0172315
604.442	0.0173014
604.520	0.0173804
604.598	0.0174180
604.676	0.0174265
604.754	0.0172529
604.832	0.0174048
604.910	0.0173781
604.988	0.0173087
605.067	0.0174782
605.145	0.0173161
605.223	0.0171647
605.301	0.0173502
605.379	0.0173740
605.457	0.0173401
605.535	0.0173584
605.613	0.0174268
605.692	0.0173911
605.770	0.0173009
605.848	0.0173042
605.926	0.0172990
606.004	0.0172960
606.082	0.0174619
606.160	0.0173502
606.238	0.0173080
606.317	0.0172556
606.395	0.0173168
606.473	0.0172422
606.551	0.0173523
606.629	0.0172361
606.707	0.0173085
606.785	0.0172330
606.863	0.0172696
606.942	0.0173815
607.020	0.0174275
607.098	0.0174041
607.176	0.0173173
607.254	0.0172439
607.332	0.0174687
607.410	0.0173730
607.488	0.0173248
607.567	0.0173769
607.645	0.0174226
607.723	0.0174312
607.801	0.0174099
607.879	0.0172985
607.957	0.0172359
608.035	0.0173580
608.113	0.0175210
608.192	0.0173379
608.270	0.0173048
608.348	0.0173242
608.426	0.0174335
608.504	0.0174554
608.582	0.0173422
608.660	0.0173009
608.738	0.0173788
608.817	0.0173656
608.895	0.0172760
608.973	0.0172656
609.051	0.0173261
609.129	0.0173712
609.207	0.0172049
609.285	0.0172647
609.363	0.0173122
609.442	0.0172215
609.520	0.0173121
609.598	0.0173891
609.676	0.0173730
609.754	0.0172160
609.832	0.0172194
609.910	0.0173238
609.988	0.0172839
610.067	0.0172768
610.145	0.0172925
610.223	0.0172734
610.301	0.0174059
610.379	0.0174056
610.457	0.0173083
610.535	0.0172684
610.613	0.0173852
610.692	0.0173877
610.770	0.0172446
610.848	0.0173582
610.926	0.0173149
611.004	0.0173168
611.082	0.0173042
611.160	0.0173839
611.238	0.0173850
611.317	0.0174237
611.395	0.0173122
611.473	0.0173167
611.551	0.0174364
611.629	0.0174574
611.707	0.0173753
611.785	0.0175301
611.863	0.0173895
611.942	0.0174969
612.020	0.0173695
612.098	0.0174680
612.176	0.0174008
612.254	0.0173856
612.332	0.0175317
612.410	0.0173865
612.488	0.0173762
612.567	0.0173507
612.645	0.0174196
612.723	0.0174517
612.801	0.0174029
612.879	0.0175378
612.957	0.0173370
613.035	0.0173547
613.113	0.0174397
613.192	0.0172365
613.270	0.0173151
613.348	0.0173026
613.426	0.0173363
613.504	0.0173936
613.582	0.0174329
613.660	0.0173205
613.738	0.0173860
613.817	0.0174654
613.895	0.0173783
613.973	0.0173282
614.051	0.0173415
614.129	0.0173309
614.207	0.0173280
614.285	0.0173904
614.363	0.0172504
614.442	0.0172511
614.520	0.0173691
614.598	0.0172675
614.676	0.0173493
614.754	0.0172467
614.832	0.0174084
614.910	0.0172462
614.988	0.0173221
615.067	0.0172932
615.145	0.0172707
615.223	0.0173128
615.301	0.0173540
615.379	0.0173759
615.457	0.0171740
615.535	0.0173870
615.613	0.0172494
615.692	0.0173147
615.770	0.0172945
615.848	0.0172569
615.926	0.0174110
616.004	0.0174384
616.082	0.0173468
616.160	0.0173469
616.238	0.0173422
616.317	0.0173936
616.395	0.0173826
616.473	0.0173535
616.551	0.0175607
616.629	0.0173193
616.707	0.0173882
616.785	0.0174682
616.863	0.0174367
616.942	0.0173312
617.020	0.0173090
617.098	0.0173102
617.176	0.0173427
617.254	0.0173164
617.332	0.0174136
617.410	0.0173524
617.488	0.0174190
617.567	0.0174355
617.645	0.0173079
617.723	0.0172174
617.801	0.0172795
617.879	0.0174053
617.957	0.0173089
618.035	0.0171603
618.113	0.0172765
618.192	0.0174248
618.270	0.0173841
618.348	0.0174387
618.426	0.0174155
618.504	0.0173831
618.582	0.0172556
618.660	0.0172424
618.738	0.0172468
618.817	0.0172969
618.895	0.0172717
618.973	0.0173290
619.051	0.0173420
619.129	0.0173324
619.207	0.0173228
619.285	0.0172769
619.363	0.0172338
619.442	0.0172421
619.520	0.0174417
619.598	0.0173431
619.676	0.0174853
619.754	0.0173827
619.832	0.0172714
619.910	0.0171670
619.988	0.0173209
620.067	0.0173695
620.145	0.0172006
620.223	0.0172865
620.301	0.0175027
620.379	0.0173470
620.457	0.0173051
620.535	0.0173528
620.613	0.0174514
620.692	0.0173143
620.770	0.0174880
620.848	0.0174371
620.926	0.0173058
621.004	0.0173772
621.082	0.0174468
621.160	0.0174257
621.238	0.0174487
621.317	0.0173729
621.395	0.0173652
621.473	0.0173797
621.551	0.0173698
621.629	0.0173924
621.707	0.0175127
621.785	0.0174352
621.863	0.0172713
621.942	0.0173685
622.020	0.0174332
622.098	0.0174068
622.176	0.0173170
622.254	0.0173399
622.332	0.0173412
622.410	0.0173318
622.488	0.0174062
622.567	0.0173355
622.645	0.0172337
622.723	0.0174281
622.801	0.0173159
622.879	0.0172654
622.957	0.0173512
623.035	0.0172971
623.113	0.0171934
623.192	0.0173048
623.270	0.0172638
623.348	0.0173154
623.426	0.0174838
623.504	0.0172687
623.582	0.0173013
623.660	0.0173792
623.738	0.0174480
623.817	0.0173038
623.895	0.0173441
623.973	0.0173402
624.051	0.0172345
624.129	0.0173046
624.207	0.0174437
624.285	0.0174537
624.363	0.0171626
624.442	0.0170412
624.520	0.0173710
624.598	0.0173412
624.676	0.0174300
624.754	0.0174410
624.832	0.0173337
624.910	0.0173264
624.988	0.0173492
625.067	0.0173315
625.145	0.0172997
625.223	0.0172926
625.301	0.0173618
625.379	0.0172752
625.457	0.0173705
625.535	0.0174073
625.613	0.0173242
625.692	0.0173369
625.770	0.0174217
625.848	0.0174503
625.926	0.0173858
626.004	0.0172874
626.082	0.0172868
626.160	0.0173183
626.238	0.0175515
626.317	0.0173431
626.395	0.0173579
626.473	0.0174026
626.551	0.0172865
626.629	0.0172749
626.707	0.0172832
626.785	0.0172231
626.863	0.0173471
626.942	0.0172078
627.020	0.0173324
627.098	0.0171040
627.176	0.0173582
627.254	0.0173445
627.332	0.0172961
627.410	0.0173125
627.488	0.0172441
627.567	0.0171984
627.645	0.0172112
627.723	0.0172502
627.801	0.0173341
627.879	0.0174061
627.957	0.0173100
628.035	0.0173051
628.113	0.0172925
628.192	0.0174689
628.270	0.0172647
628.348	0.0174268
628.426	0.0172934
628.504	0.0172311
628.582	0.0173433
628.660	0.0173392
628.738	0.0172594
628.817	0.0172877
628.895	0.0173590
628.973	0.0172414
629.051	0.0174015
629.129	0.0172457
629.207	0.0174266
629.285	0.0173389
629.363	0.0173120
629.442	0.0172598
629.520	0.0172440
629.598	0.0173944
629.676	0.0173823
629.754	0.0173998
629.832	0.0173821
629.910	0.0174118
629.988	0.0173697
630.067	0.0172897
630.145	0.0173450
630.223	0.0172926
630.301	0.0174346
630.379	0.0174252
630.457	0.0173971
630.535	0.0173760
630.613	0.0172580
630.692	0.0174059
630.770	0.0172323
630.848	0.0172803
630.926	0.0175102
631.004	0.0172881
631.082	0.0173237
631.160	0.0173887
631.238	0.0174308
631.317	0.0173131
631.395	0.0173128
631.473	0.0174255
631.551	0.0172959
631.629	0.0173416
631.707	0.0171989
631.785	0.0173023
631.863	0.0173370
631.942	0.0174348
632.020	0.0172454
632.098	0.0173567
632.176	0.0173384
632.254	0.0174210
632.332	0.0172849
632.410	0.0174876
632.488	0.0173950
632.567	0.0172156
632.645	0.0173533
632.723	0.0174471
632.801	0.0172787
632.879	0.0172991
632.957	0.0175590
633.035	0.0171825
633.113	0.0173322
633.192	0.0172751
633.270	0.0173668
633.348	0.0173329
633.426	0.0173791
633.504	0.0172255
633.582	0.0173485
633.660	0.0173428
633.738	0.0174816
633.817	0.0174359
633.895	0.0173466
633.973	0.0173393
634.051	0.0172279
634.129	0.0173901
634.207	0.0172890
634.285	0.0174252
634.363	0.0173053
634.442	0.0173845
634.520	0.0174590
634.598	0.0173330
634.676	0.0173618
634.754	0.0173816
634.832	0.0173061
634.910	0.0174085
634.988	0.0172659
635.067	0.0173981
635.145	0.0174026
635.223	0.0174821
635.301	0.0173721
635.379	0.0172734
635.457	0.0174214
635.535	0.0173136
635.613	0.0173412
635.692	0.0174322
635.770	0.0173132
635.848	0.0175634
635.926	0.0173405
636.004	0.0173559
636.082	0.0172871
636.160	0.0174491
636.238	0.0172686
636.317	0.0172121
636.395	0.0172344
636.473	0.0172958
636.551	0.0172730
636.629	0.0173570
636.707	0.0173470
636.785	0.0174976
636.863	0.0172441
636.942	0.0173569
637.020	0.0173299
637.098	0.0171371
637.176	0.0172330
637.254	0.0174162
637.332	0.0173080
637.410	0.0172934
637.488	0.0173019
637.567	0.0173352
637.645	0.0173964
637.723	0.0172585
637.801	0.0174816
637.879	0.0173819
637.957	0.0172890
638.035	0.0174538
638.113	0.0174329
638.192	0.0174403
638.270	0.0173795
638.348	0.0172267
638.426	0.0174139
638.504	0.0174850
638.582	0.0172939
638.660	0.0172547
638.738	0.0173186
638.817	0.0171463
638.895	0.0173566
638.973	0.0174574
639.051	0.0174065
639.129	0.0172604
639.207	0.0171797
639.285	0.0172503
639.363	0.0173162
639.442	0.0173198
639.520	0.0173508
639.598	0.0172806
639.676	0.0173492
639.754	0.0173825
639.832	0.0173044
639.910	0.0174401
639.988	0.0172900
640.067	0.0172957
640.145	0.0172112
640.223	0.0172327
640.301	0.0172958
640.379	0.0174003
640.457	0.0174382
640.535	0.0174296
640.613	0.0174232
640.692	0.0172757
640.770	0.0172694
640.848	0.0173360
640.926	0.0175447
641.004	0.0173473
641.082	0.0174026
641.160	0.0173019
641.238	0.0173399
641.317	0.0173904
641.395	0.0173064
641.473	0.0173167
641.551	0.0174338
641.629	0.0172549
641.707	0.0172074
641.785	0.0173372
641.863	0.0173290
641.942	0.0173456
642.020	0.0173960
642.098	0.0173965
642.176	0.0173756
642.254	0.0173932
642.332	0.0172977
642.410	0.0173035
642.488	0.0173262
642.567	0.0172958
642.645	0.0172890
642.723	0.0173409
642.801	0.0173940
642.879	0.0173282
642.957	0.0172012
643.035	0.0173028
643.113	0.0174017
643.192	0.0173280
643.270	0.0173113
643.348	0.0174551
643.426	0.0172603
643.504	0.0173119
643.582	0.0173717
643.660	0.0173477
643.738	0.0173305
643.817	0.0173334
643.895	0.0172620
643.973	0.0172679
644.051	0.0173900
644.129	0.0173796
644.207	0.0174825
644.285	0.0173236
644.363	0.0172411
644.442	0.0172395
644.520	0.0173375
644.598	0.0173195
644.676	0.0174325
644.754	0.0175561
644.832	0.0173814
644.910	0.0173486
644.988	0.0171946
645.067	0.0172738
645.145	0.0172852
645.223	0.0172538
645.301	0.0173773
645.379	0.0174013
645.457	0.0173129
645.535	0.0171531
645.613	0.0173745
645.692	0.0173597
645.770	0.0174310
645.848	0.0173037
645.926	0.0174133
646.004	0.0174837
646.082	0.0172305
646.160	0.0172443
646.238	0.0173158
646.317	0.0172939
646.395	0.0174382
646.473	0.0173363
646.551	0.0174176
646.629	0.0174110
646.707	0.0174087
646.785	0.0173306
646.863	0.0173727
646.942	0.0174261
647.020	0.0171854
647.098	0.0173109
647.176	0.0172504
647.254	0.0172214
647.332	0.0173363
647.410	0.0173371
647.488	0.0172924
647.567	0.0172627
647.645	0.0172961
647.723	0.0173417
647.801	0.0174358
647.879	0.0174486
647.957	0.0172993
648.035	0.0173100
648.113	0.0174032
648.192	0.0173455
648.270	0.0174039
648.348	0.0175043
648.426	0.0172836
648.504	0.0172949
648.582	0.0172417
648.660	0.0173479
648.738	0.0174574
648.817	0.0173090
648.895	0.0172948
648.973	0.0172897
649.051	0.0173109
649.129	0.0173884
649.207	0.0172658
649.285	0.0173063
649.363	0.0172488
649.442	0.0174248
649.520	0.0175484
649.598	0.0173743
649.676	0.0173045
649.754	0.0173088
649.832	0.0173171
649.910	0.0174742
649.988	0.0174007
650.067	0.0174648
650.145	0.0173171
650.223	0.0173154
650.301	0.0173399
650.379	0.0173558
650.457	0.0174038
650.535	0.0173531
650.613	0.0173892
650.692	0.0174917
650.770	0.0174078
650.848	0.0173699
650.926	0.0173993
651.004	0.0174374
651.082	0.0172723
651.160	0.0173051
651.238	0.0174241
651.317	0.0174032
651.395	0.0174263
651.473	0.0173043
651.551	0.0173997
651.629	0.0173925
651.707	0.0173541
651.785	0.0174991
651.863	0.0174235
651.942	0.0174014
652.020	0.0174823
652.098	0.0173678
652.176	0.0173240
652.254	0.0173519
652.332	0.0174123
652.410	0.0173421
652.488	0.0173540
652.567	0.0174291
652.645	0.0173361
652.723	0.0173921
652.801	0.0173827
652.879	0.0173718
652.957	0.0174855
653.035	0.0173856
653.113	0.0172947
653.192	0.0173125
653.270	0.0173665
653.348	0.0174444
653.426	0.0173371
653.504	0.0173716
653.582	0.0174284
653.660	0.0173784
653.738	0.0171941
653.817	0.0173186
653.895	0.0174122
653.973	0.0171997
654.051	0.0173621
654.129	0.0174110
654.207	0.0173171
654.285	0.0173217
654.363	0.0174207
654.442	0.0174129
654.520	0.0174087
654.598	0.0173940
654.676	0.0173228
654.754	0.0174664
654.832	0.0173500
654.910	0.0173628
654.988	0.0173196
655.067	0.0174273
655.145	0.0174034
655.223	0.0172561
655.301	0.0173461
655.379	0.0174018
655.457	0.0173405
655.535	0.0173042
655.613	0.0172716
655.692	0.0173293
655.770	0.0172757
655.848	0.0173157
655.926	0.0173444
656.004	0.0173775
656.082	0.0173681
656.160	0.0173007
656.238	0.0171951
656.317	0.0173775
656.395	0.0173262
656.473	0.0172437
656.551	0.0173696
656.629	0.0173211
656.707	0.0174091
656.785	0.0173718
656.863	0.0172798
656.942	0.0172649
657.020	0.0173167
657.098	0.0173663
657.176	0.0174229
657.254	0.0174499
657.332	0.0173906
657.410	0.0173595
657.488	0.0174102
657.567	0.0173486
657.645	0.0173256
657.723	0.0174068
657.801	0.0174028
657.879	0.0173405
657.957	0.0173999
658.035	0.0173867
658.113	0.0173510
658.192	0.0173772
658.270	0.0173580
658.348	0.0172902
658.426	0.0173771
658.504	0.0172878
658.582	0.0174225
658.660	0.0173366
658.738	0.0173969
658.817	0.0175051
658.895	0.0174180
658.973	0.0174529
659.051	0.0172689
659.129	0.0174149
659.207	0.0173569
659.285	0.0173080
659.363	0.0173339
659.442	0.0175071
659.520	0.0173640
659.598	0.0172946
659.676	0.0173124
659.754	0.0173815
659.832	0.0172952
659.910	0.0172941
659.988	0.0174644
660.067	0.0173882
660.145	0.0174507
660.223	0.0173585
660.301	0.0174856
660.379	0.0174328
660.457	0.0173490
660.535	0.0171931
660.613	0.0172154
660.692	0.0173855
660.770	0.0174998
660.848	0.0173055
660.926	0.0173132
661.004	0.0173226
661.082	0.0173625
661.160	0.0174271
661.238	0.0173609
661.317	0.0172891
661.395	0.0171877
661.473	0.0174157
661.551	0.0174800
661.629	0.0174841
661.707	0.0172678
661.785	0.0172902
661.863	0.0172858
661.942	0.0171932
662.020	0.0173525
662.098	0.0173788
662.176	0.0173005
662.254	0.0172914
662.332	0.0172460
662.410	0.0173208
662.488	0.0173306
662.567	0.0173360
662.645	0.0172797
662.723	0.0172628
662.801	0.0172725
662.879	0.0173473
662.957	0.0173646
663.035	0.0173357
663.113	0.0173028
663.192	0.0173969
663.270	0.0174490
663.348	0.0172752
663.426	0.0173576
663.504	0.0172600
663.582	0.0172587
663.660	0.0171888
663.738	0.0173440
663.817	0.0174461
663.895	0.0171826
663.973	0.0172002
664.051	0.0173404
664.129	0.0172813
664.207	0.0172433
664.285	0.0172127
664.363	0.0172828
664.442	0.0173033
664.520	0.0172667
664.598	0.0173698
664.676	0.0172963
664.754	0.0172346
664.832	0.0173261
664.910	0.0174181
664.988	0.0172491
665.067	0.0172631
665.145	0.0173135
665.223	0.0172991
665.301	0.0173540
665.379	0.0172658
665.457	0.0171850
665.535	0.0173563
665.613	0.0173013
665.692	0.0173541
665.770	0.0172752
665.848	0.0172378
665.926	0.0172713
666.004	0.0172054
666.082	0.0172694
666.160	0.0173468
666.238	0.0171018
666.317	0.0172141
666.395	0.0172183
666.473	0.0171930
666.551	0.0172380
666.629	0.0173904
666.707	0.0173368
666.785	0.0174123
666.863	0.0172623
666.942	0.0172659
667.020	0.0173439
667.098	0.0173347
667.176	0.0173238
667.254	0.0173537
667.332	0.0173734
667.410	0.0173330
667.488	0.0173352
667.567	0.0174235
667.645	0.0174433
667.723	0.0175182
667.801	0.0175126
667.879	0.0174801
667.957	0.0175447
668.035	0.0176355
668.113	0.0174624
668.192	0.0173469
668.270	0.0173972
668.348	0.0173902
668.426	0.0174556
668.504	0.0172746
668.582	0.0171847
668.660	0.0171903
668.738	0.0171864
668.817	0.0170721
668.895	0.0169139
668.973	0.0170387
669.051	0.0170162
669.129	0.0168774
669.207	0.0169048
669.285	0.0166693
669.363	0.0166971
669.442	0.0168072
669.520	0.0166875
669.598	0.0168308
669.676	0.0169974
669.754	0.0170249
669.832	0.0170607
669.910	0.0171651
669.988	0.0172868
670.067	0.0173055
670.145	0.0174072
670.223	0.0174510
670.301	0.0177071
670.379	0.0176293
670.457	0.0176289
670.535	0.0179142
670.613	0.0179786
670.692	0.0178255
670.770	0.0179699
670.848	0.0179331
670.926	0.0178722
671.004	0.0180859
671.082	0.0180775
671.160	0.0179669
671.238	0.0179266
671.317	0.0176864
671.395	0.0177267
671.473	0.0175641
671.551	0.0173551
671.629	0.0171704
671.707	0.0171603
671.785	0.0170318
671.863	0.0170817
671.942	0.0171909
672.020	0.0172568
672.098	0.0171088
672.176	0.0171437
672.254	0.0173453
672.332	0.0171464
672.410	0.0168965
672.488	0.0168185
672.567	0.0167976
672.645	0.0168438
672.723	0.0166051
672.801	0.0165884
672.879	0.0167313
672.957	0.0167680
673.035	0.0168762
673.113	0.0168896
673.192	0.0169452
673.270	0.0169306
673.348	0.0169469
673.426	0.0167850
673.504	0.0167953
673.582	0.0167104
673.660	0.0165479
673.738	0.0164825
673.817	0.0164269
673.895	0.0166657
673.973	0.0167744
674.051	0.0168772
674.129	0.0171095
674.207	0.0174766
674.285	0.0176865
674.363	0.0179240
674.442	0.0182172
674.520	0.0182639
674.598	0.0183958
674.676	0.0184454
674.754	0.0185059
674.832	0.0185300
674.910	0.0187177
674.988	0.0186853
675.067	0.0187314
675.145	0.0187565
675.223	0.0184634
675.301	0.0184257
675.379	0.0181622
675.457	0.0177696
675.535	0.0175922
675.613	0.0174393
675.692	0.0172754
675.770	0.0171043
675.848	0.0170689
675.926	0.0171185
676.004	0.0172057
676.082	0.0174132
676.160	0.0175288
676.238	0.0175966
676.317	0.0177296
676.395	0.0178014
676.473	0.0178386
676.551	0.0175777
676.629	0.0174239
676.707	0.0171156
676.785	0.0168375
676.863	0.0166115
676.942	0.0162401
677.020	0.0159510
677.098	0.0158611
677.176	0.0158865
677.254	0.0161208
677.332	0.0162080
677.410	0.0164112
677.488	0.0166421
677.567	0.0166729
677.645	0.0169734
677.723	0.0169101
677.801	0.0170044
677.879	0.0170165
677.957	0.0168533
678.035	0.0167445
678.113	0.0166859
678.192	0.0165903
678.270	0.0168477
678.348	0.0168137
678.426	0.0169721
678.504	0.0170506
678.582	0.0169537
678.660	0.0173234
678.738	0.0175173
678.817	0.0176819
678.895	0.0178677
678.973	0.0181744
679.051	0.0183734
679.129	0.0183107
679.207	0.0185096
679.285	0.0186180
679.363	0.0187385
679.442	0.0186983
679.520	0.0186525
679.598	0.0185665
679.676	0.0183428
679.754	0.0183250
679.832	0.0182942
679.910	0.0181871
679.988	0.0183593
680.067	0.0183278
680.145	0.0182633
680.223	0.0183601
680.301	0.0183546
680.379	0.0182252
680.457	0.0182545
680.535	0.0184212
680.613	0.0181857
680.692	0.0180109
680.770	0.0179783
680.848	0.0178143
680.926	0.0175719
681.004	0.0171421
681.082	0.0169042
681.160	0.0164658
681.238	0.0161079
681.317	0.0158077
681.395	0.0155266
681.473	0.0150748
681.551	0.0147260
681.629	0.0146214
681.707	0.0146025
681.785	0.0144057
681.863	0.0144198
681.942	0.0145116
682.020	0.0148202
682.098	0.0149261
682.176	0.0154163
682.254	0.0158739
682.332	0.0162914
682.410	0.0167130
682.488	0.0171438
682.567	0.0172578
682.645	0.0175820
682.723	0.0177214
682.801	0.0179046
682.879	0.0179585
682.957	0.0180525
683.035	0.0181432
683.113	0.0182294
683.192	0.0183116
683.270	0.0183798
683.348	0.0183908
683.426	0.0184858
683.504	0.0188097
683.582	0.0187862
683.660	0.0187275
683.738	0.0190209
683.817	0.0191157
683.895	0.0192410
683.973	0.0194302
684.051	0.0196983
684.129	0.0197854
684.207	0.0200079
684.285	0.0203059
684.363	0.0204474
684.442	0.0205309
684.520	0.0207227
684.598	0.0206734
684.676	0.0206253
684.754	0.0203442
684.832	0.0201876
684.910	0.0195737
684.988	0.0190068
685.067	0.0180850
685.145	0.0170203
685.223	0.0156642
685.301	0.0144253
685.379	0.0130742
685.457	0.0117573
685.535	0.0106837
685.613	0.00955940
685.692	0.00870903
685.770	0.00815140
685.848	0.00790215
685.926	0.00803917
686.004	0.00844406
686.082	0.00899231
686.160	0.00977592
686.238	0.0109807
686.317	0.0124431
686.395	0.0138529
686.473	0.0154507
686.551	0.0171466
686.629	0.0186882
686.707	0.0204040
686.785	0.0218924
686.863	0.0230760
686.942	0.0242541
687.020	0.0251296
687.098	0.0259669
687.176	0.0262881
687.254	0.0265305
687.332	0.0264676
687.410	0.0262898
687.488	0.0258339
687.567	0.0252842
687.645	0.0244782
687.723	0.0239830
687.801	0.0231898
687.879	0.0225488
687.957	0.0220321
688.035	0.0211510
688.113	0.0204465
688.192	0.0198224
688.270	0.0191472
688.348	0.0185517
688.426	0.0175550
688.504	0.0166502
688.582	0.0157537
688.660	0.0149744
688.738	0.0139825
688.817	0.0131212
688.895	0.0123955
688.973	0.0115766
689.051	0.0109839
689.129	0.0105641
689.207	0.0100577
689.285	0.00985405
689.363	0.00961601
689.442	0.00930130
689.520	0.00924957
689.598	0.00920288
689.676	0.00900177
689.754	0.00906296
689.832	0.00927246
689.910	0.00927277
689.988	0.00938148
690.067	0.00979134
690.145	0.0103779
690.223	0.0112065
690.301	0.0119458
690.379	0.0129765
690.457	0.0142765
690.535	0.0158492
690.613	0.0174842
690.692	0.0191366
690.770	0.0211372
690.848	0.0229359
690.926	0.0246323
691.004	0.0262437
691.082	0.0275943
691.160	0.0287401
691.238	0.0294752
691.317	0.0300574
691.395	0.0303609
691.473	0.0300835
691.551	0.0298961
691.629	0.0292250
691.707	0.0283961
691.785	0.0274159
691.863	0.0261002
691.942	0.0250381
692.020	0.0238341
692.098	0.0224501
692.176	0.0212782
692.254	0.0200615
692.332	0.0188126
692.410	0.0176789
692.488	0.0165884
692.567	0.0157480
692.645	0.0146576
692.723	0.0138395
692.801	0.0130230
692.879	0.0124820
692.957	0.0118402
693.035	0.0114091
693.113	0.0109749
693.192	0.0106314
693.270	0.0105061
693.348	0.0101827
693.426	0.0101827
693.504	0.0101611
693.582	0.0100873
693.660	0.0101426
693.738	0.0101697
693.817	0.00987228
693.895	0.00969818
693.973	0.00953621
694.051	0.00918320
694.129	0.00879845
694.207	0.00848640
694.285	0.00816048
694.363	0.00797379
694.442	0.00784645
694.520	0.00794884
694.598	0.00844154
694.676	0.00915016
694.754	0.0101162
694.832	0.0112554
694.910	0.0127308
694.988	0.0146033
695.067	0.0167783
695.145	0.0190653
695.223	0.0217142
695.301	0.0241068
695.379	0.0264895
695.457	0.0288641
695.535	0.0309470
695.613	0.0325510
695.692	0.0339299
695.770	0.0349316
695.848	0.0354517
695.926	0.0354333
696.004	0.0349389
696.082	0.0342358
696.160	0.0331181
696.238	0.0318147
696.317	0.0301245
696.395	0.0283445
696.473	0.0266034
696.551	0.0244947
696.629	0.0226354
696.707	0.0208167
696.785	0.0188143
696.863	0.0169764
696.942	0.0154203
697.020	0.0137963
697.098	0.0123116
697.176	0.0110247
697.254	0.00990532
697.332	0.00897064
697.410	0.00813698
697.488	0.00752777
697.567	0.00719345
697.645	0.00693329
697.723	0.00690041
697.801	0.00698441
697.879	0.00738625
697.957	0.00760765
698.035	0.00809578
698.113	0.00838478
698.192	0.00885818
698.270	0.00925697
698.348	0.00969620
698.426	0.0101408
698.504	0.0104017
698.582	0.0107330
698.660	0.0110963
698.738	0.0112057
698.817	0.0114819
698.895	0.0119048
698.973	0.0122054
699.051	0.0125558
699.129	0.0130428
699.207	0.0136549
699.285	0.0142200
699.363	0.0151338
699.442	0.0162074
699.520	0.0173917
699.598	0.0186718
699.676	0.0200624
699.754	0.0214761
699.832	0.0232015
699.910	0.0247874
699.988	0.0263045
700.067	0.0275903
700.145	0.0289661
700.223	0.0298782
700.301	0.0305952
700.379	0.0309793
700.457	0.0312348
700.535	0.0311805
700.613	0.0305669
700.692	0.0299270
700.770	0.0289953
700.848	0.0279359
700.926	0.0266064
701.004	0.0249510
701.082	0.0234719
701.160	0.0220409
701.238	0.0202933
701.317	0.0186774
701.395	0.0173306
701.473	0.0159015
701.551	0.0143904
701.629	0.0132267
701.707	0.0120716
701.785	0.0111613
701.863	0.0102872
701.942	0.00975540
702.020	0.00925346
702.098	0.00919373
702.176	0.00909622
702.254	0.00939873
702.332	0.00957748
702.410	0.0101621
702.488	0.0106911
702.567	0.0113365
702.645	0.0119206
702.723	0.0125056
702.801	0.0129533
702.879	0.0133021
702.957	0.0136770
703.035	0.0138829
703.113	0.0141696
703.192	0.0141995
703.270	0.0143297
703.348	0.0143188
703.426	0.0143779
703.504	0.0145103
703.582	0.0145995
703.660	0.0148914
703.738	0.0151501
703.817	0.0154578
703.895	0.0157816
703.973	0.0163508
704.051	0.0171426
704.129	0.0178232
704.207	0.0185289
704.285	0.0192354
704.363	0.0199069
704.442	0.0206797
704.520	0.0212415
704.598	0.0217967
704.676	0.0221440
704.754	0.0225053
704.832	0.0227071
704.910	0.0229086
704.988	0.0229758
705.067	0.0229154
705.145	0.0225322
705.223	0.0222314
705.301	0.0221053
705.379	0.0217455
705.457	0.0213216
705.535	0.0206757
705.613	0.0201603
705.692	0.0196490
705.770	0.0191206
705.848	0.0183996
705.926	0.0178838
706.004	0.0173787
706.082	0.0167674
706.160	0.0162350
706.238	0.0157903
706.317	0.0154183
706.395	0.0151623
706.473	0.0149623
706.551	0.0148720
706.629	0.0149746
706.707	0.0152113
706.785	0.0153688
706.863	0.0158920
706.942	0.0163785
707.020	0.0167603
707.098	0.0171704
707.176	0.0176611
707.254	0.0178223
707.332	0.0180848
707.410	0.0181721
707.488	0.0181377
707.567	0.0180262
707.645	0.0174806
707.723	0.0171456
707.801	0.0166584
707.879	0.0162170
707.957	0.0157867
708.035	0.0153009
708.113	0.0148301
708.192	0.0144034
708.270	0.0144054
708.348	0.0140238
708.426	0.0140333
708.504	0.0142183
708.582	0.0144646
708.660	0.0147370
708.738	0.0153020
708.817	0.0157698
708.895	0.0164139
708.973	0.0171322
709.051	0.0176358
709.129	0.0182136
709.207	0.0187316
709.285	0.0190616
709.363	0.0192033
709.442	0.0194635
709.520	0.0194495
709.598	0.0194111
709.676	0.0192845
709.754	0.0190501
709.832	0.0188744
709.910	0.0187696
709.988	0.0184490
710.067	0.0181525
710.145	0.0176379
710.223	0.0175509
710.301	0.0171490
710.379	0.0169008
710.457	0.0164941
710.535	0.0161928
710.613	0.0161160
710.692	0.0157628
710.770	0.0158251
710.848	0.0159615
710.926	0.0159185
711.004	0.0162071
711.082	0.0163145
711.160	0.0166793
711.238	0.0171964
711.317	0.0175924
711.395	0.0180972
711.473	0.0183476
711.551	0.0186631
711.629	0.0191249
711.707	0.0194225
711.785	0.0196033
711.863	0.0198128
711.942	0.0199651
712.020	0.0197519
712.098	0.0197420
712.176	0.0192941
712.254	0.0193069
712.332	0.0189547
712.410	0.0185257
712.488	0.0180872
712.567	0.0176093
712.645	0.0172216
712.723	0.0168620
712.801	0.0165974
712.879	0.0162997
712.957	0.0158978
713.035	0.0159160
713.113	0.0158502
713.192	0.0158006
713.270	0.0159442
713.348	0.0159658
713.426	0.0161087
713.504	0.0162167
713.582	0.0165361
713.660	0.0166580
713.738	0.0167966
713.817	0.0171201
713.895	0.0173888
713.973	0.0175287
714.051	0.0176772
714.129	0.0178068
714.207	0.0178480
714.285	0.0181608
714.363	0.0182190
714.442	0.0182534
714.520	0.0181501
714.598	0.0183167
714.676	0.0181223
714.754	0.0180610
714.832	0.0177808
714.910	0.0176604
714.988	0.0174075
715.067	0.0169548
715.145	0.0166328
715.223	0.0163359
715.301	0.0160568
715.379	0.0159215
715.457	0.0157214
715.535	0.0156516
715.613	0.0156090
715.692	0.0155813
715.770	0.0157603
715.848	0.0157544
715.926	0.0158739
716.004	0.0160906
716.082	0.0163300
716.160	0.0164362
716.238	0.0165644
716.317	0.0168685
716.395	0.0168660
716.473	0.0171265
716.551	0.0172255
716.629	0.0174500
716.707	0.0176162
716.785	0.0177293
716.863	0.0178843
716.942	0.0179552
717.020	0.0180492
717.098	0.0182122
717.176	0.0184249
717.254	0.0183817
717.332	0.0184068
717.410	0.0185998
717.488	0.0186103
717.567	0.0185548
717.645	0.0186172
717.723	0.0186051
717.801	0.0185867
717.879	0.0184093
717.957	0.0183928
718.035	0.0181902
718.113	0.0182133
718.192	0.0180832
718.270	0.0179796
718.348	0.0178683
718.426	0.0178465
718.504	0.0177379
718.582	0.0177060
718.660	0.0176369
718.738	0.0176594
718.817	0.0177068
718.895	0.0176919
718.973	0.0176511
719.051	0.0178226
719.129	0.0178493
719.207	0.0179926
719.285	0.0180684
719.363	0.0182778
719.442	0.0184062
719.520	0.0184869
719.598	0.0185935
719.676	0.0185834
719.754	0.0184016
719.832	0.0181379
719.910	0.0180032
719.988	0.0175886
720.067	0.0175336
720.145	0.0172920
720.223	0.0170014
720.301	0.0167650
720.379	0.0163792
720.457	0.0162346
720.535	0.0160540
720.613	0.0158131
720.692	0.0155508
720.770	0.0155062
720.848	0.0154433
720.926	0.0153150
721.004	0.0152503
721.082	0.0153122
721.160	0.0152898
721.238	0.0153913
721.317	0.0154829
721.395	0.0156116
721.473	0.0156813
721.551	0.0156674
721.629	0.0158462
721.707	0.0162885
721.785	0.0164806
721.863	0.0167223
721.942	0.0169762
722.020	0.0171534
722.098	0.0172884
722.176	0.0174947
722.254	0.0176515
722.332	0.0177531
722.410	0.0178842
722.488	0.0178930
722.567	0.0180603
722.645	0.0179839
722.723	0.0181200
722.801	0.0182563
722.879	0.0183491
722.957	0.0184402
723.035	0.0185018
723.113	0.0185110
723.192	0.0185101
723.270	0.0186473
723.348	0.0188197
723.426	0.0186877
723.504	0.0185539
723.582	0.0185017
723.660	0.0184554
723.738	0.0184018
723.817	0.0184557
723.895	0.0183222
723.973	0.0181866
724.051	0.0181835
724.129	0.0183270
724.207	0.0182967
724.285	0.0181285
724.363	0.0182473
724.442	0.0182937
724.520	0.0182822
724.598	0.0184560
724.676	0.0183454
724.754	0.0182824
724.832	0.0181979
724.910	0.0181318
724.988	0.0179519
725.067	0.0176136
725.145	0.0174278
725.223	0.0172969
725.301	0.0170399
725.379	0.0166595
725.457	0.0164344
725.535	0.0161718
725.613	0.0159538
725.692	0.0157651
725.770	0.0157347
725.848	0.0155625
725.926	0.0154876
726.004	0.0155718
726.082	0.0155635
726.160	0.0156215
726.238	0.0156499
726.317	0.0158733
726.395	0.0160114
726.473	0.0160676
726.551	0.0163077
726.629	0.0163426
726.707	0.0165879
726.785	0.0168273
726.863	0.0169843
726.942	0.0171468
727.020	0.0172076
727.098	0.0174374
727.176	0.0176560
727.254	0.0177546
727.332	0.0179818
727.410	0.0180227
727.488	0.0181464
727.567	0.0182750
727.645	0.0183524
727.723	0.0182803
727.801	0.0181350
727.879	0.0182888
727.957	0.0179921
728.035	0.0179134
728.113	0.0176438
728.192	0.0175878
728.270	0.0174170
728.348	0.0173074
728.426	0.0172342
728.504	0.0171841
728.582	0.0171146
728.660	0.0169342
728.738	0.0168776
728.817	0.0168213
728.895	0.0168993
728.973	0.0167911
729.051	0.0169424
729.129	0.0169863
729.207	0.0170781
729.285	0.0173055
729.363	0.0173285
729.442	0.0175353
729.520	0.0175769
729.598	0.0177186
729.676	0.0178273
729.754	0.0178741
729.832	0.0179691
729.910	0.0180875
729.988	0.0179508
730.067	0.0179432
730.145	0.0178488
730.223	0.0179363
730.301	0.0178265
730.379	0.0176545
730.457	0.0175102
730.535	0.0175100
730.613	0.0173285
730.692	0.0172890
730.770	0.0171168
730.848	0.0170517
730.926	0.0169119
731.004	0.0169485
731.082	0.0167837
731.160	0.0167133
731.238	0.0169088
731.317	0.0168022
731.395	0.0167704
731.473	0.0168328
731.551	0.0169111
731.629	0.0168762
731.707	0.0170509
731.785	0.0169849
731.863	0.0170732
731.942	0.0172237
732.020	0.0173241
732.098	0.0173779
732.176	0.0173922
732.254	0.0172282
732.332	0.0173428
732.410	0.0175172
732.488	0.0174381
732.567	0.0177349
732.645	0.0177656
732.723	0.0176763
732.801	0.0177979
732.879	0.0177530
732.957	0.0177277
733.035	0.0175268
733.113	0.0175708
733.192	0.0177566
733.270	0.0175549
733.348	0.0173422
733.426	0.0171320
733.504	0.0172841
733.582	0.0172616
733.660	0.0171735
733.738	0.0170186
733.817	0.0171152
733.895	0.0169958
733.973	0.0169759
734.051	0.0170332
734.129	0.0171078
734.207	0.0171097
734.285	0.0172593
734.363	0.0171927
734.442	0.0173024
734.520	0.0174198
734.598	0.0175269
734.676	0.0176103
734.754	0.0174558
734.832	0.0171329
734.910	0.0173731
734.988	0.0173933
735.067	0.0173822
735.145	0.0173519
735.223	0.0172964
735.301	0.0173546
735.379	0.0172767
735.457	0.0171284
735.535	0.0173128
735.613	0.0172591
735.692	0.0171325
735.770	0.0171681
735.848	0.0171391
735.926	0.0169495
736.004	0.0169785
736.082	0.0169003
736.160	0.0168132
736.238	0.0169407
736.317	0.0169904
736.395	0.0169294
736.473	0.0168267
736.551	0.0169687
736.629	0.0170531
736.707	0.0171022
736.785	0.0171644
736.863	0.0171720
736.942	0.0173563
737.020	0.0175447
737.098	0.0174976
737.176	0.0177245
737.254	0.0177538
737.332	0.0179369
737.410	0.0181590
737.488	0.0180711
737.567	0.0180734
737.645	0.0182605
737.723	0.0182214
737.801	0.0183093
737.879	0.0182892
737.957	0.0182199
738.035	0.0183475
738.113	0.0183406
738.192	0.0181464
738.270	0.0182622
738.348	0.0181121
738.426	0.0179861
738.504	0.0177517
738.582	0.0176530
738.660	0.0176487
738.738	0.0174559
738.817	0.0172585
738.895	0.0172213
738.973	0.0172183
739.051	0.0170956
739.129	0.0171357
739.207	0.0170518
739.285	0.0170362
739.363	0.0170042
739.442	0.0169948
739.520	0.0170550
739.598	0.0171134
739.676	0.0171693
739.754	0.0170834
739.832	0.0171434
739.910	0.0172879
739.988	0.0172505
740.067	0.0171765
740.145	0.0171664
740.223	0.0171898
740.301	0.0172945
740.379	0.0171992
740.457	0.0171646
740.535	0.0172829
740.613	0.0172258
740.692	0.0170931
740.770	0.0169963
740.848	0.0170526
740.926	0.0170815
741.004	0.0168773
741.082	0.0167229
741.160	0.0167857
741.238	0.0166832
741.317	0.0165905
741.395	0.0164740
741.473	0.0165550
741.551	0.0165673
741.629	0.0164258
741.707	0.0164250
741.785	0.0167639
741.863	0.0168050
741.942	0.0169720
742.020	0.0170081
742.098	0.0171505
742.176	0.0172684
742.254	0.0174009
742.332	0.0175246
742.410	0.0177613
742.488	0.0178951
742.567	0.0178737
742.645	0.0180925
742.723	0.0179517
742.801	0.0179124
742.879	0.0181344
742.957	0.0181319
743.035	0.0181714
743.113	0.0182890
743.192	0.0181084
743.270	0.0181082
743.348	0.0180835
743.426	0.0179786
743.504	0.0180528
743.582	0.0180021
743.660	0.0180205
743.738	0.0179417
743.817	0.0180927
743.895	0.0178651
743.973	0.0180290
744.051	0.0178136
744.129	0.0177062
744.207	0.0177122
744.285	0.0176662
744.363	0.0175521
744.442	0.0176300
744.520	0.0176181
744.598	0.0176086
744.676	0.0175106
744.754	0.0176218
744.832	0.0176004
744.910	0.0174119
744.988	0.0174297
745.067	0.0174124
745.145	0.0175585
745.223	0.0172988
745.301	0.0174788
745.379	0.0173270
745.457	0.0172153
745.535	0.0173373
745.613	0.0172523
745.692	0.0170724
745.770	0.0167526
745.848	0.0167310
745.926	0.0168282
746.004	0.0167584
746.082	0.0165633
746.160	0.0163325
746.238	0.0164307
746.317	0.0161527
746.395	0.0161096
746.473	0.0163094
746.551	0.0160957
746.629	0.0162894
746.707	0.0162757
746.785	0.0165399
746.863	0.0165709
746.942	0.0166676
747.020	0.0166241
747.098	0.0167714
747.176	0.0170754
747.254	0.0172274
747.332	0.0171967
747.410	0.0173178
747.488	0.0174245
747.567	0.0176559
747.645	0.0176640
747.723	0.0176417
747.801	0.0176189
747.879	0.0176930
747.957	0.0177952
748.035	0.0177510
748.113	0.0177189
748.192	0.0178522
748.270	0.0178306
748.348	0.0179989
748.426	0.0180402
748.504	0.0179557
748.582	0.0180342
748.660	0.0182088
748.738	0.0182376
748.817	0.0182104
748.895	0.0182856
748.973	0.0182037
749.051	0.0182064
749.129	0.0181248
749.207	0.0180532
749.285	0.0177698
749.363	0.0179118
749.442	0.0178476
749.520	0.0174828
749.598	0.0174138
749.676	0.0173576
749.754	0.0172081
749.832	0.0173137
749.910	0.0172948
749.988	0.0170800
750.067	0.0171304
750.145	0.0171196
750.223	0.0169068
750.301	0.0171760
750.379	0.0170895
750.457	0.0171669
750.535	0.0171587
750.613	0.0171564
750.692	0.0172288
750.770	0.0170694
750.848	0.0169480
750.926	0.0168359
751.004	0.0170564
751.082	0.0168900
751.160	0.0169015
751.238	0.0167424
751.317	0.0167761
751.395	0.0168841
751.473	0.0169421
751.551	0.0168311
751.629	0.0168346
751.707	0.0169696
751.785	0.0170396
751.863	0.0168864
751.942	0.0171617
752.020	0.0171873
752.098	0.0171560
752.176	0.0170994
752.254	0.0172699
752.332	0.0174265
752.410	0.0172663
752.488	0.0172626
752.567	0.0172269
752.645	0.0171394
752.723	0.0171828
752.801	0.0171761
752.879	0.0172192
752.957	0.0170828
753.035	0.0173457
753.113	0.0173659
753.192	0.0173439
753.270	0.0173393
753.348	0.0174277
753.426	0.0176472
753.504	0.0175958
753.582	0.0175356
753.660	0.0175566
753.738	0.0176799
753.817	0.0175841
753.895	0.0175265
753.973	0.0177306
754.051	0.0176518
754.129	0.0177119
754.207	0.0176402
754.285	0.0177435
754.363	0.0177501
754.442	0.0176967
754.520	0.0176315
754.598	0.0176140
754.676	0.0174535
754.754	0.0175613
754.832	0.0175309
754.910	0.0176598
754.988	0.0175073
755.067	0.0174593
755.145	0.0174223
755.223	0.0174181
755.301	0.0173021
755.379	0.0174390
755.457	0.0173845
755.535	0.0173067
755.613	0.0172334
755.692	0.0172904
755.770	0.0172121
755.848	0.0170438
755.926	0.0170303
756.004	0.0170871
756.082	0.0169593
756.160	0.0169577
756.238	0.0169875
756.317	0.0169579
756.395	0.0169253
756.473	0.0170008
756.551	0.0170459
756.629	0.0168849
756.707	0.0170541
756.785	0.0168048
756.863	0.0169462
756.942	0.0169207
757.020	0.0169540
757.098	0.0168307
757.176	0.0168919
757.254	0.0168932
757.332	0.0169949
757.410	0.0169985
757.488	0.0169917
757.567	0.0169962
757.645	0.0170464
757.723	0.0172343
757.801	0.0171624
757.879	0.0172832
757.957	0.0172593
758.035	0.0173839
758.113	0.0173756
758.192	0.0174728
758.270	0.0176626
758.348	0.0175582
758.426	0.0177227
758.504	0.0176715
758.582	0.0177379
758.660	0.0176829
758.738	0.0178341
758.817	0.0178646
758.895	0.0178743
758.973	0.0178911
759.051	0.0179340
759.129	0.0179219
759.207	0.0178704
759.285	0.0177863
759.363	0.0180445
759.442	0.0178221
759.520	0.0177880
759.598	0.0176795
759.676	0.0178805
759.754	0.0177003
759.832	0.0176565
759.910	0.0175792
759.988	0.0176190
760.067	0.0172533
760.145	0.0172318
760.223	0.0172028
760.301	0.0171307
760.379	0.0169395
760.457	0.0168064
760.535	0.0168033
760.613	0.0167428
760.692	0.0167609
760.770	0.0167063
760.848	0.0166829
760.926	0.0166547
761.004	0.0168285
761.082	0.0167318
761.160	0.0167104
761.238	0.0167979
761.317	0.0169106
761.395	0.0168942
761.473	0.0170371
761.551	0.0172169
761.629	0.0171069
761.707	0.0171261
761.785	0.0171764
761.863	0.0171322
761.942	0.0172629
762.020	0.0171490
762.098	0.0171784
762.176	0.0171498
762.254	0.0172056
762.332	0.0173739
762.410	0.0172013
762.488	0.0173902
762.567	0.0173280
762.645	0.0172736
762.723	0.0172909
762.801	0.0174310
762.879	0.0173643
762.957	0.0173598
763.035	0.0174268
763.113	0.0175363
763.192	0.0175426
763.270	0.0177012
763.348	0.0177057
763.426	0.0176284
763.504	0.0178140
763.582	0.0177563
763.660	0.0177654
763.738	0.0176739
763.817	0.0178452
763.895	0.0178616
763.973	0.0177508
764.051	0.0178057
764.129	0.0177699
764.207	0.0175934
764.285	0.0176228
764.363	0.0176578
764.442	0.0176464
764.520	0.0176060
764.598	0.0175227
764.676	0.0173871
764.754	0.0174268
764.832	0.0173965
764.910	0.0172991
764.988	0.0174429
765.067	0.0172848
765.145	0.0170266
765.223	0.0171239
765.301	0.0171411
765.379	0.0169003
765.457	0.0171018
765.535	0.0169896
765.613	0.0169460
765.692	0.0169282
765.770	0.0169583
765.848	0.0169660
765.926	0.0169478
766.004	0.0170880
766.082	0.0171337
766.160	0.0169997
766.238	0.0171449
766.317	0.0170827
766.395	0.0172206
766.473	0.0172032
766.551	0.0173168
766.629	0.0172356
766.707	0.0171648
766.785	0.0172646
766.863	0.0172484
766.942	0.0174033
767.020	0.0174139
767.098	0.0173676
767.176	0.0172504
767.254	0.0173226
767.332	0.0173397
767.410	0.0174039
767.488	0.0172608
767.567	0.0174390
767.645	0.0173952
767.723	0.0174028
767.801	0.0172631
767.879	0.0174401
767.957	0.0175439
768.035	0.0174323
768.113	0.0176394
768.192	0.0175156
768.270	0.0175481
768.348	0.0175208
768.426	0.0175878
768.504	0.0176244
768.582	0.0175573
768.660	0.0175757
768.738	0.0175586
768.817	0.0175240
768.895	0.0176643
768.973	0.0176899
769.051	0.0175639
769.129	0.0176142
769.207	0.0176540
769.285	0.0174655
769.363	0.0177293
769.442	0.0176062
769.520	0.0175620
769.598	0.0175631
769.676	0.0174296
769.754	0.0175460
769.832	0.0174390
769.910	0.0173620
769.988	0.0173222
770.067	0.0174313
770.145	0.0172431
770.223	0.0171713
770.301	0.0172409
770.379	0.0173014
770.457	0.0172027
770.535	0.0172896
770.613	0.0173129
770.692	0.0171977
770.770	0.0172581
770.848	0.0171475
770.926	0.0172161
771.004	0.0170181
771.082	0.0169407
771.160	0.0168515
771.238	0.0170232
771.317	0.0170061
771.395	0.0169307
771.473	0.0168886
771.551	0.0169701
771.629	0.0169566
771.707	0.0169910
771.785	0.0169338
771.863	0.0168484
771.942	0.0168684
772.020	0.0169387
772.098	0.0169659
772.176	0.0171779
772.254	0.0172387
772.332	0.0172715
772.410	0.0172047
772.488	0.0170504
772.567	0.0172846
772.645	0.0172897
772.723	0.0173121
772.801	0.0173605
772.879	0.0173930
772.957	0.0175175
773.035	0.0175129
773.113	0.0175874
773.192	0.0176066
773.270	0.0175449
773.348	0.0175932
773.426	0.0177188
773.504	0.0175378
773.582	0.0176066
773.660	0.0176580
773.738	0.0177039
773.817	0.0176651
773.895	0.0176043
773.973	0.0176408
774.051	0.0176820
774.129	0.0177091
774.207	0.0176042
774.285	0.0176571
774.363	0.0176201
774.442	0.0175322
774.520	0.0176947
774.598	0.0175976
774.676	0.0175547
774.754	0.0174821
774.832	0.0176584
774.910	0.0175656
774.988	0.0175474
775.067	0.0175113
775.145	0.0174449
775.223	0.0174651
775.301	0.0172617
775.379	0.0172269
775.457	0.0171712
775.535	0.0171695
775.613	0.0170922
775.692	0.0171123
775.770	0.0170290
775.848	0.0169034
775.926	0.0170477
776.004	0.0169160
776.082	0.0168592
776.160	0.0167506
776.238	0.0169864
776.317	0.0169245
776.395	0.0168152
776.473	0.0169958
776.551	0.0169044
776.629	0.0169951
776.707	0.0169203
776.785	0.0170187
776.863	0.0169984
776.942	0.0170911
777.020	0.0170447
777.098	0.0172110
777.176	0.0170181
777.254	0.0172463
777.332	0.0173352
777.410	0.0172078
777.488	0.0174239
777.567	0.0174266
777.645	0.0173545
777.723	0.0172810
777.801	0.0174427
777.879	0.0174273
777.957	0.0176171
778.035	0.0175414
778.113	0.0174805
778.192	0.0174909
778.270	0.0175710
778.348	0.0174274
778.426	0.0174808
778.504	0.0174455
778.582	0.0175774
778.660	0.0173148
778.738	0.0173223
778.817	0.0174470
778.895	0.0173380
778.973	0.0172845
779.051	0.0175238
779.129	0.0174393
779.207	0.0172561
779.285	0.0174477
779.363	0.0174670
779.442	0.0175468
779.520	0.0173426
779.598	0.0174326
779.676	0.0175263
779.754	0.0175666
779.832	0.0174539
779.910	0.0177206
779.988	0.0174972
780.067	0.0175603
780.145	0.0176823
780.223	0.0177190
780.301	0.0174474
780.379	0.0176703
780.457	0.0177359
780.535	0.0175859
780.613	0.0175733
780.692	0.0177548
780.770	0.0178348
780.848	0.0175999
780.926	0.0177155
781.004	0.0176722
781.082	0.0176049
781.160	0.0175558
781.238	0.0173376
781.317	0.0171852
781.395	0.0171775
781.473	0.0170747
781.551	0.0168161
781.629	0.0168178
781.707	0.0167447
781.785	0.0165479
781.863	0.0165712
781.942	0.0164385
782.020	0.0163554
782.098	0.0163550
782.176	0.0163950
782.254	0.0162890
782.332	0.0161990
782.410	0.0164260
782.488	0.0164070
782.567	0.0165496
782.645	0.0167298
782.723	0.0169267
782.801	0.0169320
782.879	0.0172040
782.957	0.0173412
783.035	0.0174506
783.113	0.0177028
783.192	0.0177998
783.270	0.0178519
783.348	0.0181461
783.426	0.0181256
783.504	0.0181898
783.582	0.0183154
783.660	0.0182124
783.738	0.0182163
783.817	0.0183241
783.895	0.0185110
783.973	0.0184296
784.051	0.0184154
784.129	0.0183510
784.207	0.0183022
784.285	0.0182088
784.363	0.0181590
784.442	0.0181012
784.520	0.0178036
784.598	0.0174799
784.676	0.0175914
784.754	0.0175271
784.832	0.0173704
784.910	0.0172782
784.988	0.0171011
785.067	0.0169833
785.145	0.0169730
785.223	0.0170467
785.301	0.0170554
785.379	0.0168667
785.457	0.0169525
785.535	0.0167350
785.613	0.0167379
785.692	0.0167397
785.770	0.0166279
785.848	0.0166199
785.926	0.0164618
786.004	0.0163503
786.082	0.0163052
786.160	0.0163768
786.238	0.0160699
786.317	0.0160809
786.395	0.0159645
786.473	0.0160768
786.551	0.0161147
786.629	0.0162232
786.707	0.0160817
786.785	0.0163184
786.863	0.0164766
786.942	0.0166956
787.020	0.0169561
787.098	0.0170696
787.176	0.0173685
787.254	0.0176200
787.332	0.0181338
787.410	0.0180722
787.488	0.0183050
787.567	0.0186562
787.645	0.0188112
787.723	0.0189021
787.801	0.0189879
787.879	0.0189456
787.957	0.0189635
788.035	0.0188400
788.113	0.0189049
788.192	0.0187304
788.270	0.0186275
788.348	0.0184284
788.426	0.0184644
788.504	0.0181847
788.582	0.0179826
788.660	0.0178606
788.738	0.0178517
788.817	0.0176517
788.895	0.0175888
788.973	0.0174139
789.051	0.0172281
789.129	0.0171502
789.207	0.0170226
789.285	0.0170788
789.363	0.0168269
789.442	0.0167992
789.520	0.0167931
789.598	0.0165250
789.676	0.0167216
789.754	0.0166434
789.832	0.0165594
789.910	0.0165027
789.988	0.0164400
790.067	0.0163255
790.145	0.0162805
790.223	0.0162701
790.301	0.0162342
790.379	0.0163915
790.457	0.0161659
790.535	0.0161973
790.613	0.0161844
790.692	0.0161771
790.770	0.0163622
790.848	0.0163392
790.926	0.0164856
791.004	0.0164471
791.082	0.0167121
791.160	0.0167008
791.238	0.0169683
791.317	0.0172034
791.395	0.0172259
791.473	0.0173872
791.551	0.0175908
791.629	0.0178476
791.707	0.0179150
791.785	0.0181042
791.863	0.0182716
791.942	0.0184112
792.020	0.0186196
792.098	0.0188196
792.176	0.0188531
792.254	0.0188740
792.332	0.0188455
792.410	0.0187860
792.488	0.0188801
792.567	0.0186929
792.645	0.0186594
792.723	0.0185616
792.801	0.0184939
792.879	0.0184058
792.957	0.0183345
793.035	0.0180652
793.113	0.0179563
793.192	0.0179745
793.270	0.0177541
793.348	0.0175801
793.426	0.0173999
793.504	0.0174565
793.582	0.0171577
793.660	0.0172314
793.738	0.0171678
793.817	0.0169479
793.895	0.0169728
793.973	0.0168081
794.051	0.0167079
794.129	0.0166287
794.207	0.0165591
794.285	0.0164639
794.363	0.0164806
794.442	0.0162740
794.520	0.0161585
794.598	0.0162662
794.676	0.0162152
794.754	0.0162116
794.832	0.0160157
794.910	0.0161971
794.988	0.0162672
795.067	0.0162941
795.145	0.0161745
795.223	0.0162580
795.301	0.0164931
795.379	0.0165733
795.457	0.0165621
795.535	0.0166753
795.613	0.0169962
795.692	0.0171181
795.770	0.0171156
795.848	0.0173530
795.926	0.0174952
796.004	0.0175168
796.082	0.0178247
796.160	0.0178957
796.238	0.0178194
796.317	0.0180646
796.395	0.0182109
796.473	0.0182441
796.551	0.0183152
796.629	0.0183125
796.707	0.0184859
796.785	0.0186026
796.863	0.0185576
796.942	0.0185940
797.020	0.0185378
797.098	0.0183944
797.176	0.0184013
797.254	0.0184743
797.332	0.0182342
797.410	0.0179974
797.488	0.0179128
797.567	0.0178242
797.645	0.0178436
797.723	0.0177026
797.801	0.0174912
797.879	0.0173822
797.957	0.0174289
798.035	0.0172754
798.113	0.0173473
798.192	0.0171866
798.270	0.0170861
798.348	0.0170547
798.426	0.0171153
798.504	0.0169340
798.582	0.0171298
798.660	0.0170227
798.738	0.0170042
798.817	0.0169894
798.895	0.0170138
798.973	0.0169646
799.051	0.0169907
799.129	0.0169955
799.207	0.0168794
799.285	0.0169111
799.363	0.0168716
799.442	0.0168835
799.520	0.0169069
799.598	0.0169237
799.676	0.0168784
799.754	0.0167635
799.832	0.0168509
799.910	0.0169018
799.988	0.0168404
800.067	0.0168678
800.145	0.0169762
800.223	0.0167932
800.301	0.0170235
800.379	0.0170401
800.457	0.0168938
800.535	0.0170374
800.613	0.0170507
800.692	0.0170355
800.770	0.0171142
800.848	0.0170989
800.926	0.0170632
801.004	0.0171785
801.082	0.0174234
801.160	0.0174785
801.238	0.0174643
801.317	0.0174343
801.395	0.0174029
801.473	0.0174917
801.551	0.0175787
801.629	0.0176446
801.707	0.0175459
801.785	0.0176102
801.863	0.0174767
801.942	0.0174882
802.020	0.0177437
802.098	0.0177130
802.176	0.0175306
802.254	0.0174162
802.332	0.0173502
802.410	0.0174002
802.488	0.0174644
802.567	0.0175140
802.645	0.0176411
802.723	0.0174564
802.801	0.0174555
802.879	0.0176325
802.957	0.0177050
803.035	0.0177303
803.113	0.0178413
803.192	0.0176862
803.270	0.0179651
803.348	0.0179708
803.426	0.0180564
803.504	0.0180064
803.582	0.0179641
803.660	0.0179665
803.738	0.0180032
803.817	0.0178128
803.895	0.0178338
803.973	0.0177656
804.051	0.0175539
804.129	0.0176326
804.207	0.0176272
804.285	0.0174863
804.363	0.0174680
804.442	0.0172965
804.520	0.0172916
804.598	0.0171682
804.676	0.0170589
804.754	0.0171030
804.832	0.0170491
804.910	0.0170090
804.988	0.0168304
805.067	0.0167728
805.145	0.0167891
805.223	0.0168472
805.301	0.0169025
805.379	0.0168189
805.457	0.0168764
805.535	0.0167567
805.613	0.0167680
805.692	0.0168074
805.770	0.0167855
805.848	0.0169336
805.926	0.0169821
806.004	0.0168925
806.082	0.0168855
806.160	0.0169902
806.238	0.0169585
806.317	0.0169296
806.395	0.0170213
806.473	0.0170370
806.551	0.0168403
806.629	0.0169768
806.707	0.0169622
806.785	0.0169717
806.863	0.0170792
806.942	0.0171352
807.020	0.0170922
807.098	0.0170728
807.176	0.0172458
807.254	0.0172785
807.332	0.0172561
807.410	0.0174030
807.488	0.0175000
807.567	0.0175753
807.645	0.0177464
807.723	0.0177560
807.801	0.0178053
807.879	0.0177166
807.957	0.0179746
808.035	0.0179692
808.113	0.0178531
808.192	0.0179644
808.270	0.0179298
808.348	0.0180223
808.426	0.0179747
808.504	0.0179543
808.582	0.0179133
808.660	0.0177422
808.738	0.0178472
808.817	0.0179033
808.895	0.0178168
808.973	0.0178118
809.051	0.0177464
809.129	0.0177267
809.207	0.0178669
809.285	0.0177483
809.363	0.0177600
809.442	0.0177016
809.520	0.0175645
809.598	0.0176059
809.676	0.0174585
809.754	0.0174240
809.832	0.0173024
809.910	0.0172752
809.988	0.0172996
810.067	0.0170808
810.145	0.0169761
810.223	0.0169592
810.301	0.0168485
810.379	0.0169316
810.457	0.0169232
810.535	0.0168148
810.613	0.0167995
810.692	0.0168872
810.770	0.0168316
810.848	0.0169496
810.926	0.0169105
811.004	0.0170821
811.082	0.0170853
811.160	0.0171062
811.238	0.0171463
811.317	0.0172108
811.395	0.0171944
811.473	0.0171426
811.551	0.0171269
811.629	0.0170367
811.707	0.0170628
811.785	0.0170272
811.863	0.0171138
811.942	0.0170580
812.020	0.0169955
812.098	0.0168297
812.176	0.0169820
812.254	0.0169051
812.332	0.0170245
812.410	0.0170170
812.488	0.0170290
812.567	0.0172452
812.645	0.0172834
812.723	0.0172325
812.801	0.0172874
812.879	0.0172895
812.957	0.0174456
813.035	0.0175204
813.113	0.0177777
813.192	0.0177632
813.270	0.0177529
813.348	0.0178088
813.426	0.0179063
813.504	0.0179462
813.582	0.0179598
813.660	0.0179850
813.738	0.0181639
813.817	0.0181461
813.895	0.0181196
813.973	0.0179936
814.051	0.0179897
814.129	0.0179942
814.207	0.0178315
814.285	0.0178892
814.363	0.0179180
814.442	0.0177565
814.520	0.0177354
814.598	0.0176277
814.676	0.0176636
814.754	0.0176921
814.832	0.0175180
814.910	0.0174262
814.988	0.0173727
815.067	0.0173214
815.145	0.0172295
815.223	0.0172149
815.301	0.0170095
815.379	0.0170650
815.457	0.0170995
815.535	0.0171378
815.613	0.0169928
815.692	0.0169337
815.770	0.0169007
815.848	0.0169166
815.926	0.0168855
816.004	0.0170150
816.082	0.0169640
816.160	0.0169823
816.238	0.0170203
816.317	0.0170794
816.395	0.0171253
816.473	0.0170134
816.551	0.0169408
816.629	0.0170923
816.707	0.0171790
816.785	0.0171345
816.863	0.0170852
816.942	0.0172043
817.020	0.0171604
817.098	0.0171551
817.176	0.0172956
817.254	0.0173360
817.332	0.0173049
817.410	0.0173220
817.488	0.0172221
817.567	0.0173667
817.645	0.0174797
817.723	0.0175211
817.801	0.0174753
817.879	0.0175171
817.957	0.0177128
818.035	0.0176216
818.113	0.0175346
818.192	0.0176800
818.270	0.0175878
818.348	0.0176746
818.426	0.0176971
818.504	0.0176770
818.582	0.0178011
818.660	0.0176270
818.738	0.0176872
818.817	0.0177113
818.895	0.0176244
818.973	0.0176664
819.051	0.0174289
819.129	0.0175449
819.207	0.0175202
819.285	0.0175893
819.363	0.0175552
819.442	0.0175180
819.520	0.0173813
819.598	0.0174422
819.676	0.0174630
819.754	0.0172987
819.832	0.0174028
819.910	0.0173347
819.988	0.0172602
820.067	0.0172643
820.145	0.0171885
820.223	0.0171665
820.301	0.0172421
820.379	0.0173537
820.457	0.0174138
820.535	0.0172916
820.613	0.0174126
820.692	0.0175329
820.770	0.0174635
820.848	0.0174171
820.926	0.0175410
821.004	0.0174316
821.082	0.0175227
821.160	0.0175033
821.238	0.0175650
821.317	0.0174097
821.395	0.0173380
821.473	0.0172570
821.551	0.0173427
821.629	0.0172660
821.707	0.0173517
821.785	0.0174406
821.863	0.0171670
821.942	0.0171335
822.020	0.0170407
822.098	0.0171466
822.176	0.0171310
822.254	0.0170678
822.332	0.0170230
822.410	0.0171462
822.488	0.0170718
822.567	0.0170732
822.645	0.0170997
822.723	0.0169973
822.801	0.0170971
822.879	0.0170689
822.957	0.0169585
823.035	0.0170959
823.113	0.0171178
823.192	0.0170472
823.270	0.0171266
823.348	0.0172768
823.426	0.0172453
823.504	0.0173380
823.582	0.0172458
823.660	0.0172820
823.738	0.0173837
823.817	0.0174128
823.895	0.0174036
823.973	0.0173367
824.051	0.0173693
824.129	0.0174818
824.207	0.0174158
824.285	0.0174554
824.363	0.0173512
824.442	0.0175177
824.520	0.0175893
824.598	0.0173885
824.676	0.0174433
824.754	0.0176177
824.832	0.0176043
824.910	0.0175176
824.988	0.0176751
825.067	0.0175272
825.145	0.0174682
825.223	0.0176053
825.301	0.0175323
825.379	0.0176473
825.457	0.0175285
825.535	0.0175299
825.613	0.0176092
825.692	0.0176729
825.770	0.0175777
825.848	0.0176103
825.926	0.0175854
826.004	0.0175453
826.082	0.0175949
826.160	0.0173636
826.238	0.0174120
826.317	0.0175846
826.395	0.0175608
826.473	0.0174615
826.551	0.0174026
826.629	0.0173132
826.707	0.0173016
826.785	0.0173092
826.863	0.0171593
826.942	0.0171385
827.020	0.0168851
827.098	0.0169640
827.176	0.0170714
827.254	0.0169425
827.332	0.0168918
827.410	0.0168974
827.488	0.0168664
827.567	0.0169307
827.645	0.0168910
827.723	0.0168874
827.801	0.0168854
827.879	0.0169337
827.957	0.0168021
828.035	0.0168966
828.113	0.0170854
828.192	0.0171572
828.270	0.0170760
828.348	0.0172646
828.426	0.0171616
828.504	0.0171339
828.582	0.0173969
828.660	0.0174394
828.738	0.0174405
828.817	0.0174001
828.895	0.0174950
828.973	0.0174510
829.051	0.0175451
829.129	0.0175139
829.207	0.0177022
829.285	0.0176096
829.363	0.0176897
829.442	0.0176726
829.520	0.0176851
829.598	0.0177454
829.676	0.0177587
829.754	0.0177223
829.832	0.0176551
829.910	0.0175233
829.988	0.0176505
830.067	0.0175726
830.145	0.0175072
830.223	0.0176024
830.301	0.0175769
830.379	0.0174947
830.457	0.0175116
830.535	0.0176453
830.613	0.0175804
830.692	0.0174159
830.770	0.0176078
830.848	0.0175550
830.926	0.0173625
831.004	0.0174060
831.082	0.0173754
831.160	0.0174188
831.238	0.0172680
831.317	0.0171847
831.395	0.0170871
831.473	0.0170876
831.551	0.0169592
831.629	0.0170573
831.707	0.0168530
831.785	0.0168851
831.863	0.0169256
831.942	0.0168563
832.020	0.0167580
832.098	0.0167882
832.176	0.0167972
832.254	0.0168482
832.332	0.0170244
832.410	0.0169306
832.488	0.0169398
832.567	0.0169099
832.645	0.0170264
832.723	0.0170789
832.801	0.0171474
832.879	0.0172708
832.957	0.0173026
833.035	0.0171950
833.113	0.0173568
833.192	0.0173846
833.270	0.0175342
833.348	0.0175856
833.426	0.0176290
833.504	0.0175437
833.582	0.0177676
833.660	0.0176980
833.738	0.0176890
833.817	0.0177787
833.895	0.0178291
833.973	0.0178102
834.051	0.0177956
834.129	0.0179363
834.207	0.0178333
834.285	0.0177692
834.363	0.0176614
834.442	0.0177307
834.520	0.0178040
834.598	0.0178123
834.676	0.0175740
834.754	0.0176935
834.832	0.0176299
834.910	0.0175602
834.988	0.0176395
835.067	0.0174833
835.145	0.0174950
835.223	0.0173910
835.301	0.0172512
835.379	0.0172955
835.457	0.0173370
835.535	0.0172539
835.613	0.0171397
835.692	0.0172005
835.770	0.0171259
835.848	0.0172027
835.926	0.0172193
836.004	0.0171124
836.082	0.0169463
836.160	0.0170670
836.238	0.0169219
836.317	0.0171543
836.395	0.0170107
836.473	0.0169690
836.551	0.0169348
836.629	0.0168468
836.707	0.0169286
836.785	0.0167905
836.863	0.0168592
836.942	0.0168604
837.020	0.0170795
837.098	0.0170528
837.176	0.0168257
837.254	0.0169634
837.332	0.0168920
837.410	0.0170622
837.488	0.0172063
837.567	0.0171027
837.645	0.0172591
837.723	0.0173669
837.801	0.0174078
837.879	0.0175091
837.957	0.0174582
838.035	0.0174818
838.113	0.0176169
838.192	0.0176872
838.270	0.0175615
838.348	0.0177724
838.426	0.0176721
838.504	0.0176980
838.582	0.0178387
838.660	0.0178831
838.738	0.0177151
838.817	0.0177773
838.895	0.0177676
838.973	0.0178887
839.051	0.0179822
839.129	0.0176506
839.207	0.0177005
839.285	0.0177840
839.363	0.0177276
839.442	0.0176395
839.520	0.0176473
839.598	0.0175402
839.676	0.0174969
839.754	0.0175997
839.832	0.0174835
839.910	0.0174140
839.988	0.0172333
840.067	0.0173878
840.145	0.0173676
840.223	0.0173518
840.301	0.0172662
840.379	0.0173319
840.457	0.0172810
840.535	0.0172033
840.613	0.0171333
840.692	0.0171944
840.770	0.0172414
840.848	0.0171902
840.926	0.0172592
841.004	0.0171430
841.082	0.0171680
841.160	0.0172150
841.238	0.0171869
841.317	0.0172057
841.395	0.0170674
841.473	0.0171228
841.551	0.0171255
841.629	0.0172061
841.707	0.0172292
841.785	0.0172670
841.863	0.0172125
841.942	0.0171822
842.020	0.0172944
842.098	0.0172807
842.176	0.0172723
842.254	0.0171484
842.332	0.0171331
842.410	0.0170782
842.488	0.0170191
842.567	0.0171346
842.645	0.0172908
842.723	0.0172669
842.801	0.0169923
842.879	0.0172199
842.957	0.0170861
843.035	0.0171169
843.113	0.0171493
843.192	0.0171898
843.270	0.0172585
843.348	0.0171462
843.426	0.0171095
843.504	0.0172875
843.582	0.0173958
843.660	0.0174549
843.738	0.0173374
843.817	0.0173653
843.895	0.0174233
843.973	0.0175150
844.051	0.0174937
844.129	0.0172912
844.207	0.0175064
844.285	0.0175457
844.363	0.0174329
844.442	0.0175216
844.520	0.0174741
844.598	0.0176334
844.676	0.0176045
844.754	0.0174969
844.832	0.0175658
844.910	0.0175393
844.988	0.0174963
845.067	0.0175758
845.145	0.0174975
845.223	0.0176192
845.301	0.0174594
845.379	0.0172753
845.457	0.0175295
845.535	0.0174638
845.613	0.0174213
845.692	0.0175905
845.770	0.0174999
845.848	0.0174003
845.926	0.0173072
846.004	0.0173199
846.082	0.0174039
846.160	0.0173562
846.238	0.0172868
846.317	0.0172260
846.395	0.0173005
846.473	0.0172984
846.551	0.0172726
846.629	0.0172959
846.707	0.0172729
846.785	0.0171809
846.863	0.0172072
846.942	0.0172365
847.020	0.0172871
847.098	0.0172571
847.176	0.0171886
847.254	0.0170959
847.332	0.0172683
847.410	0.0172868
847.488	0.0172334
847.567	0.0172177
847.645	0.0172199
847.723	0.0172267
847.801	0.0173351
847.879	0.0173983
847.957	0.0172485
848.035	0.0172078
848.113	0.0173531
848.192	0.0172326
848.270	0.0174364
848.348	0.0172891
848.426	0.0170827
848.504	0.0171953
848.582	0.0172814
848.660	0.0172328
848.738	0.0172069
848.817	0.0172652
848.895	0.0171339
848.973	0.0173891
849.051	0.0173904
849.129	0.0172257
849.207	0.0172240
849.285	0.0173756
849.363	0.0171661
849.442	0.0173026
849.520	0.0172466
849.598	0.0173209
849.676	0.0172455
849.754	0.0172341
849.832	0.0174447
849.910	0.0174422
849.988	0.0173241
850.067	0.0174520
850.145	0.0174824
850.223	0.0175593
850.301	0.0175688
850.379	0.0173937
850.457	0.0176246
850.535	0.0175340
850.613	0.0174130
850.692	0.0173788
850.770	0.0173799
850.848	0.0173683
850.926	0.0173731
851.004	0.0172479
851.082	0.0172643
851.160	0.0173652
851.238	0.0172430
851.317	0.0172975
851.395	0.0172472
851.473	0.0172949
851.551	0.0173383
851.629	0.0171883
851.707	0.0173129
851.785	0.0172809
851.863	0.0172844
851.942	0.0172670
852.020	0.0172562
852.098	0.0173447
852.176	0.0173898
852.254	0.0173422
852.332	0.0173573
852.410	0.0172500
852.488	0.0171748
852.567	0.0173325
852.645	0.0172707
852.723	0.0172796
852.801	0.0170801
852.879	0.0171194
852.957	0.0172396
853.035	0.0172420
853.113	0.0170044
853.192	0.0172697
853.270	0.0171442
853.348	0.0172565
853.426	0.0172105
853.504	0.0170393
853.582	0.0172673
853.660	0.0172359
853.738	0.0172202
853.817	0.0173022
853.895	0.0173431
853.973	0.0174062
854.051	0.0174051
854.129	0.0173110
854.207	0.0173667
854.285	0.0174294
854.363	0.0173917
854.442	0.0174078
854.520	0.0175519
854.598	0.0175169
854.676	0.0174817
854.754	0.0175644
854.832	0.0175735
854.910	0.0175187
854.988	0.0175656
855.067	0.0174121
855.145	0.0174186
855.223	0.0175429
855.301	0.0172913
855.379	0.0173840
855.457	0.0174084
855.535	0.0174010
855.613	0.0173743
855.692	0.0172706
855.770	0.0172520
855.848	0.0173064
855.926	0.0174145
856.004	0.0173296
856.082	0.0175094
856.160	0.0173879
856.238	0.0173490
856.317	0.0173881
856.395	0.0175240
856.473	0.0173786
856.551	0.0174748
856.629	0.0174519
856.707	0.0175403
856.785	0.0174001
856.863	0.0173660
856.942	0.0173983
857.020	0.0173520
857.098	0.0174989
857.176	0.0173872
857.254	0.0174018
857.332	0.0173817
857.410	0.0171299
857.488	0.0172885
857.567	0.0172493
857.645	0.0172315
857.723	0.0172311
857.801	0.0172736
857.879	0.0173651
857.957	0.0172537
858.035	0.0173687
858.113	0.0173251
858.192	0.0172441
858.270	0.0173702
858.348	0.0173427
858.426	0.0172848
858.504	0.0173533
858.582	0.0173356
858.660	0.0174605
858.738	0.0173595
858.817	0.0174297
858.895	0.0172950
858.973	0.0173931
859.051	0.0174670
859.129	0.0172973
859.207	0.0172579
859.285	0.0174065
859.363	0.0173848
859.442	0.0172315
859.520	0.0172075
859.598	0.0172256
859.676	0.0172923
859.754	0.0173834
859.832	0.0172635
859.910	0.0171770
859.988	0.0172147
860.067	0.0170622
860.145	0.0171436
860.223	0.0172731
860.301	0.0172549
860.379	0.0171323
860.457	0.0172060
860.535	0.0171842
860.613	0.0172404
860.692	0.0172334
860.770	0.0173301
860.848	0.0172442
860.926	0.0172411
861.004	0.0173171
861.082	0.0173342
861.160	0.0172881
861.238	0.0172520
861.317	0.0173331
861.395	0.0173027
861.473	0.0173137
861.551	0.0171866
861.629	0.0171451
861.707	0.0173135
861.785	0.0173455
861.863	0.0173519
861.942	0.0172997
862.020	0.0172948
862.098	0.0174011
862.176	0.0174469
862.254	0.0174416
862.332	0.0173182
862.410	0.0174744
862.488	0.0174911
862.567	0.0174313
862.645	0.0175135
862.723	0.0174264
862.801	0.0174200
862.879	0.0175451
862.957	0.0175626
863.035	0.0174783
863.113	0.0173602
863.192	0.0173897
863.270	0.0174053
863.348	0.0175246
863.426	0.0175491
863.504	0.0175537
863.582	0.0175451
863.660	0.0175639
863.738	0.0176395
863.817	0.0175965
863.895	0.0174263
863.973	0.0176622
864.051	0.0176311
864.129	0.0175700
864.207	0.0175653
864.285	0.0175160
864.363	0.0174899
864.442	0.0173148
864.520	0.0172926
864.598	0.0172988
864.676	0.0173083
864.754	0.0172471
864.832	0.0170654
864.910	0.0168889
864.988	0.0170076
865.067	0.0170049
865.145	0.0170240
865.223	0.0169358
865.301	0.0168697
865.379	0.0168664
865.457	0.0167834
865.535	0.0169580
865.613	0.0169094
865.692	0.0169285
865.770	0.0170086
865.848	0.0169302
865.926	0.0171503
866.004	0.0171819
866.082	0.0171478
866.160	0.0172272
866.238	0.0172414
866.317	0.0173049
866.395	0.0173023
866.473	0.0174702
866.551	0.0173719
866.629	0.0175587
866.707	0.0176028
866.785	0.0176011
866.863	0.0176105
866.942	0.0177255
867.020	0.0177895
867.098	0.0177908
867.176	0.0175825
867.254	0.0177872
867.332	0.0177571
867.410	0.0178088
867.488	0.0176244
867.567	0.0177174
867.645	0.0175951
867.723	0.0176311
867.801	0.0177237
867.879	0.0177576
867.957	0.0177368
868.035	0.0175848
868.113	0.0176760
868.192	0.0177219
868.270	0.0176527
868.348	0.0175484
868.426	0.0175616
868.504	0.0175138
868.582	0.0174038
868.660	0.0171790
868.738	0.0172298
868.817	0.0172651
868.895	0.0172144
868.973	0.0171320
869.051	0.0171828
869.129	0.0172206
869.207	0.0169276
869.285	0.0171849
869.363	0.0170059
869.442	0.0170439
869.520	0.0169606
869.598	0.0170319
869.676	0.0168629
869.754	0.0168815
869.832	0.0168177
869.910	0.0168370
869.988	0.0169488
870.067	0.0168859
870.145	0.0168491
870.223	0.0169669
870.301	0.0168887
870.379	0.0170818
870.457	0.0172192
870.535	0.0171420
870.613	0.0172289
870.692	0.0172086
870.770	0.0173593
870.848	0.0174821
870.926	0.0174551
871.004	0.0175771
871.082	0.0176453
871.160	0.0177150
871.238	0.0178729
871.317	0.0178694
871.395	0.0180314
871.473	0.0179917
871.551	0.0180570
871.629	0.0179666
871.707	0.0179799
871.785	0.0178580
871.863	0.0178280
871.942	0.0178384
872.020	0.0177312
872.098	0.0178495
872.176	0.0177325
872.254	0.0175923
872.332	0.0175273
872.410	0.0173911
872.488	0.0174088
872.567	0.0172387
872.645	0.0170503
872.723	0.0171145
872.801	0.0169844
872.879	0.0169577
872.957	0.0169472
873.035	0.0166978
873.113	0.0168092
873.192	0.0169112
873.270	0.0169779
873.348	0.0169396
873.426	0.0168809
873.504	0.0169523
873.582	0.0169434
873.660	0.0169572
873.738	0.0168663
873.817	0.0169642
873.895	0.0169849
873.973	0.0171866
874.051	0.0171957
874.129	0.0171581
874.207	0.0171932
874.285	0.0173158
874.363	0.0173202
874.442	0.0173203
874.520	0.0175595
874.598	0.0175011
874.676	0.0173702
874.754	0.0174911
874.832	0.0173119
874.910	0.0175354
874.988	0.0174598
875.067	0.0175263
875.145	0.0176875
875.223	0.0175894
875.301	0.0175040
875.379	0.0176362
875.457	0.0174202
875.535	0.0175461
875.613	0.0176126
875.692	0.0176651
875.770	0.0175571
875.848	0.0176168
875.926	0.0176629
876.004	0.0176560
876.082	0.0176949
876.160	0.0176633
876.238	0.0177018
876.317	0.0176508
876.395	0.0175680
876.473	0.0176162
876.551	0.0174814
876.629	0.0174416
876.707	0.0174010
876.785	0.0172424
876.863	0.0170815
876.942	0.0169314
877.020	0.0168329
877.098	0.0166676
877.176	0.0165416
877.254	0.0166335
877.332	0.0165920
877.410	0.0166024
877.488	0.0164911
877.567	0.0166939
877.645	0.0166618
877.723	0.0167486
877.801	0.0169578
877.879	0.0171282
877.957	0.0171342
878.035	0.0173250
878.113	0.0175747
878.192	0.0177692
878.270	0.0177882
878.348	0.0179240
878.426	0.0182104
878.504	0.0182738
878.582	0.0182945
878.660	0.0183405
878.738	0.0183022
878.817	0.0183408
878.895	0.0181144
878.973	0.0180515
879.051	0.0179075
879.129	0.0179270
879.207	0.0177207
879.285	0.0176485
879.363	0.0175147
879.442	0.0175302
879.520	0.0172884
879.598	0.0171758
879.676	0.0171172
879.754	0.0168816
879.832	0.0170650
879.910	0.0170567
879.988	0.0169924
880.067	0.0170778
880.145	0.0170733
880.223	0.0168524
880.301	0.0172265
880.379	0.0170899
880.457	0.0170808
880.535	0.0171038
880.613	0.0170847
880.692	0.0169784
880.770	0.0171744
880.848	0.0170673
880.926	0.0171716
881.004	0.0170308
881.082	0.0170079
881.160	0.0172060
881.238	0.0170822
881.317	0.0170786
881.395	0.0169843
881.473	0.0170798
881.551	0.0171574
881.629	0.0170160
881.707	0.0171955
881.785	0.0173457
881.863	0.0172238
881.942	0.0173404
882.020	0.0173855
882.098	0.0175251
882.176	0.0175072
882.254	0.0177573
882.332	0.0179585
882.410	0.0180569
882.488	0.0182048
882.567	0.0183321
882.645	0.0185237
882.723	0.0185940
882.801	0.0185323
882.879	0.0183961
882.957	0.0184517
883.035	0.0183474
883.113	0.0182251
883.192	0.0179797
883.270	0.0179218
883.348	0.0177106
883.426	0.0174793
883.504	0.0172195
883.582	0.0170831
883.660	0.0169501
883.738	0.0168432
883.817	0.0167863
883.895	0.0167340
883.973	0.0166364
884.051	0.0165347
884.129	0.0165819
884.207	0.0165750
884.285	0.0166744
884.363	0.0167541
884.442	0.0166509
884.520	0.0169307
884.598	0.0170009
884.676	0.0169541
884.754	0.0172097
884.832	0.0171107
884.910	0.0172031
884.988	0.0174100
885.067	0.0173244
885.145	0.0172532
885.223	0.0172656
885.301	0.0173687
885.379	0.0172380
885.457	0.0173067
885.535	0.0172113
885.613	0.0172315
885.692	0.0172021
885.770	0.0172353
885.848	0.0172516
885.926	0.0173783
886.004	0.0170758
886.082	0.0170841
886.160	0.0172173
886.238	0.0173190
886.317	0.0172913
886.395	0.0173880
886.473	0.0174893
886.551	0.0174873
886.629	0.0176253
886.707	0.0177654
886.785	0.0179362
886.863	0.0179411
886.942	0.0181976
887.020	0.0182410
887.098	0.0184808
887.176	0.0185323
887.254	0.0185262
887.332	0.0185662
887.410	0.0184785
887.488	0.0184705
887.567	0.0185062
887.645	0.0182300
887.723	0.0180279
887.801	0.0179691
887.879	0.0175983
887.957	0.0174419
888.035	0.0171879
888.113	0.0170344
888.192	0.0168803
888.270	0.0166619
888.348	0.0165907
888.426	0.0163760
888.504	0.0164143
888.582	0.0163766
888.660	0.0163480
888.738	0.0163593
888.817	0.0165065
888.895	0.0164615
888.973	0.0165745
889.051	0.0166010
889.129	0.0164909
889.207	0.0165862
889.285	0.0166415
889.363	0.0167373
889.442	0.0167333
889.520	0.0170276
889.598	0.0170544
889.676	0.0171115
889.754	0.0171284
889.832	0.0172509
889.910	0.0172137
889.988	0.0174154
890.067	0.0173717
890.145	0.0175185
890.223	0.0175904
890.301	0.0176343
890.379	0.0176932
890.457	0.0176833
890.535	0.0177621
890.613	0.0177765
890.692	0.0177847
890.770	0.0178156
890.848	0.0178989
890.926	0.0177702
891.004	0.0175735
891.082	0.0176711
891.160	0.0177328
891.238	0.0175931
891.317	0.0177441
891.395	0.0176405
891.473	0.0177419
891.551	0.0179096
891.629	0.0177874
891.707	0.0178835
891.785	0.0179882
891.863	0.0180238
891.942	0.0179919
892.020	0.0180588
892.098	0.0180087
892.176	0.0180199
892.254	0.0179959
892.332	0.0178337
892.410	0.0176899
892.488	0.0176530
892.567	0.0175614
892.645	0.0172203
892.723	0.0170490
892.801	0.0171686
892.879	0.0168115
892.957	0.0167181
893.035	0.0166093
893.113	0.0166334
893.192	0.0165608
893.270	0.0165420
893.348	0.0166042
893.426	0.0164873
893.504	0.0164893
893.582	0.0165501
893.660	0.0164476
893.738	0.0165788
893.817	0.0167753
893.895	0.0169795
893.973	0.0169275
894.051	0.0169323
894.129	0.0171420
894.207	0.0171602
894.285	0.0173318
894.363	0.0171908
894.442	0.0174113
894.520	0.0174847
894.598	0.0176335
894.676	0.0176794
894.754	0.0175240
894.832	0.0176601
894.910	0.0177815
894.988	0.0177538
895.067	0.0175285
895.145	0.0176889
895.223	0.0175140
895.301	0.0175307
895.379	0.0172613
895.457	0.0173931
895.535	0.0175322
895.613	0.0174072
895.692	0.0173413
895.770	0.0173190
895.848	0.0174324
895.926	0.0174394
896.004	0.0173694
896.082	0.0175705
896.160	0.0176589
896.238	0.0175508
896.317	0.0177008
896.395	0.0176701
896.473	0.0177392
896.551	0.0177551
896.629	0.0179097
896.707	0.0178475
896.785	0.0177966
896.863	0.0178783
896.942	0.0177408
897.020	0.0176013
897.098	0.0175577
897.176	0.0175932
897.254	0.0174407
897.332	0.0174103
897.410	0.0173222
897.488	0.0170846
897.567	0.0170310
897.645	0.0169947
897.723	0.0169746
897.801	0.0167825
897.879	0.0166489
897.957	0.0167123
898.035	0.0164064
898.113	0.0165997
898.192	0.0165887
898.270	0.0165776
898.348	0.0165293
898.426	0.0166656
898.504	0.0166260
898.582	0.0167291
898.660	0.0167913
898.738	0.0169041
898.817	0.0172238
898.895	0.0171874
898.973	0.0173762
899.051	0.0174479
899.129	0.0174258
899.207	0.0175644
899.285	0.0175153
899.363	0.0175213
899.442	0.0176466
899.520	0.0177240
899.598	0.0176192
899.676	0.0177309
899.754	0.0177689
899.832	0.0177654
899.910	0.0175960
899.988	0.0175356
900.067	0.0173645
900.145	0.0175574
900.223	0.0174454
900.301	0.0175665
900.379	0.0177534
900.457	0.0175245
900.535	0.0174632
900.613	0.0174795
900.692	0.0174681
900.770	0.0176814
900.848	0.0177797
900.926	0.0177717
901.004	0.0178725
901.082	0.0177720
901.160	0.0177160
901.238	0.0176757
901.317	0.0177020
901.395	0.0176888
901.473	0.0177008
901.551	0.0175314
901.629	0.0173551
901.707	0.0175272
901.785	0.0174466
901.863	0.0173904
901.942	0.0172871
902.020	0.0174332
902.098	0.0172343
902.176	0.0170567
902.254	0.0170994
902.332	0.0170592
902.410	0.0169063
902.488	0.0170716
902.567	0.0167500
902.645	0.0168095
902.723	0.0167042
902.801	0.0167418
902.879	0.0167194
902.957	0.0167487
903.035	0.0167696
903.113	0.0168697
903.192	0.0169693
903.270	0.0170146
903.348	0.0170944
903.426	0.0171957
903.504	0.0170842
903.582	0.0173596
903.660	0.0173881
903.738	0.0174089
903.817	0.0174875
903.895	0.0175171
903.973	0.0174921
904.051	0.0175368
904.129	0.0176262
904.207	0.0177021
904.285	0.0176387
904.363	0.0175529
904.442	0.0176650
904.520	0.0175591
904.598	0.0174426
904.676	0.0175012
904.754	0.0173904
904.832	0.0174028
904.910	0.0173918
904.988	0.0173793
905.067	0.0173143
905.145	0.0175414
905.223	0.0174988
905.301	0.0175889
905.379	0.0176196
905.457	0.0175224
905.535	0.0175988
905.613	0.0176857
905.692	0.0176244
905.770	0.0176544
905.848	0.0177686
905.926	0.0177113
906.004	0.0177816
906.082	0.0177274
906.160	0.0177304
906.238	0.0176173
906.317	0.0174895
906.395	0.0174838
906.473	0.0174560
906.551	0.0175646
906.629	0.0174482
906.707	0.0172713
906.785	0.0172363
906.863	0.0172623
906.942	0.0171880
907.020	0.0172628
907.098	0.0171783
907.176	0.0171143
907.254	0.0170863
907.332	0.0169690
907.410	0.0171353
907.488	0.0171668
907.567	0.0171676
907.645	0.0172060
907.723	0.0171595
907.801	0.0172919
907.879	0.0171301
907.957	0.0172637
908.035	0.0174199
908.113	0.0174444
908.192	0.0175122
908.270	0.0173700
908.348	0.0176533
908.426	0.0176089
908.504	0.0174868
908.582	0.0174937
908.660	0.0174583
908.738	0.0176541
908.817	0.0175141
908.895	0.0174306
908.973	0.0174350
909.051	0.0174614
909.129	0.0173193
909.207	0.0172104
909.285	0.0173047
909.363	0.0172869
909.442	0.0172517
909.520	0.0170937
909.598	0.0171150
909.676	0.0172115
909.754	0.0171165
909.832	0.0170503
909.910	0.0171894
909.988	0.0172244
910.067	0.0172675
910.145	0.0173856
910.223	0.0173099
910.301	0.0174559
910.379	0.0173866
910.457	0.0174490
910.535	0.0175253
910.613	0.0175747
910.692	0.0174726
910.770	0.0175068
910.848	0.0175180
910.926	0.0173405
911.004	0.0174730
911.082	0.0176260
911.160	0.0175136
911.238	0.0175137
911.317	0.0175805
911.395	0.0175223
911.473	0.0173489
911.551	0.0174200
911.629	0.0173176
911.707	0.0172997
911.785	0.0172919
911.863	0.0173443
911.942	0.0172436
912.020	0.0171852
912.098	0.0172220
912.176	0.0172678
912.254	0.0170897
912.332	0.0170634
912.410	0.0171918
912.488	0.0171669
912.567	0.0172079
912.645	0.0170483
912.723	0.0170584
912.801	0.0171770
912.879	0.0172877
912.957	0.0173693
913.035	0.0173427
913.113	0.0172977
913.192	0.0174721
913.270	0.0174580
913.348	0.0174595
913.426	0.0175830
913.504	0.0175497
913.582	0.0175244
913.660	0.0175105
913.738	0.0175971
913.817	0.0175393
913.895	0.0176167
913.973	0.0175605
914.051	0.0175482
914.129	0.0174891
914.207	0.0173641
914.285	0.0173603
914.363	0.0174361
914.442	0.0173311
914.520	0.0173679
914.598	0.0172701
914.676	0.0173849
914.754	0.0172668
914.832	0.0173350
914.910	0.0173181
914.988	0.0171983
915.067	0.0173512
915.145	0.0175652
915.223	0.0173946
915.301	0.0173764
915.379	0.0173036
915.457	0.0172537
915.535	0.0174173
915.613	0.0175382
915.692	0.0173834
915.770	0.0174197
915.848	0.0173701
915.926	0.0173589
916.004	0.0173379
916.082	0.0174536
916.160	0.0173656
916.238	0.0174376
916.317	0.0172612
916.395	0.0173117
916.473	0.0172739
916.551	0.0173882
916.629	0.0171500
916.707	0.0172020
916.785	0.0171150
916.863	0.0171497
916.942	0.0171400
917.020	0.0172607
917.098	0.0169753
917.176	0.0169674
917.254	0.0170432
917.332	0.0169497
917.410	0.0170697
917.488	0.0171413
917.567	0.0171954
917.645	0.0174450
917.723	0.0173433
917.801	0.0174426
917.879	0.0174754
917.957	0.0175979
918.035	0.0174203
918.113	0.0176047
918.192	0.0176456
918.270	0.0175286
918.348	0.0174685
918.426	0.0174371
918.504	0.0176498
918.582	0.0175362
918.660	0.0173896
918.738	0.0174036
918.817	0.0173856
918.895	0.0173389
918.973	0.0173518
919.051	0.0172839
919.129	0.0171848
919.207	0.0171862
919.285	0.0173425
919.363	0.0173399
919.442	0.0172305
919.520	0.0172229
919.598	0.0172009
919.676	0.0173186
919.754	0.0171187
919.832	0.0173455
919.910	0.0173178
