05/24/2022	20:15:04	Ver.	4.1	UNKNOWN
Optical Delay	599.981738	Delta X		0.078125	Sweeps	1	Scan Rate	0/0
Coordinates	Axis 1	NaN	Axis 2	NaN	Axis 3	NaN	Axis 4	NaN	Axis 5	NaN	Axis 6	0.000000
TX Power	0.000000	RX Power	0.000000

599.982	0.0170821
600.060	0.0171662
600.138	0.0170908
600.216	0.0171364
600.294	0.0170501
600.372	0.0169432
600.450	0.0171930
600.529	0.0170704
600.607	0.0171863
600.685	0.0170570
600.763	0.0169834
600.841	0.0170096
600.919	0.0170345
600.997	0.0171352
601.075	0.0170174
601.154	0.0170572
601.232	0.0171360
601.310	0.0170544
601.388	0.0171241
601.466	0.0170823
601.544	0.0172443
601.622	0.0170258
601.700	0.0170751
601.779	0.0170442
601.857	0.0170000
601.935	0.0171368
602.013	0.0171758
602.091	0.0170843
602.169	0.0170200
602.247	0.0171644
602.325	0.0171319
602.404	0.0170135
602.482	0.0171110
602.560	0.0170128
602.638	0.0169247
602.716	0.0170676
602.794	0.0171420
602.872	0.0169638
602.950	0.0169387
603.029	0.0170771
603.107	0.0172408
603.185	0.0173048
603.263	0.0170673
603.341	0.0171071
603.419	0.0171518
603.497	0.0171214
603.575	0.0170724
603.654	0.0171827
603.732	0.0170055
603.810	0.0170501
603.888	0.0171085
603.966	0.0169992
604.044	0.0170464
604.122	0.0171978
604.200	0.0171143
604.279	0.0170595
604.357	0.0170854
604.435	0.0170898
604.513	0.0171257
604.591	0.0170473
604.669	0.0169656
604.747	0.0171630
604.825	0.0170726
604.904	0.0170493
604.982	0.0170385
605.060	0.0170540
605.138	0.0169700
605.216	0.0169772
605.294	0.0170654
605.372	0.0171803
605.450	0.0171616
605.529	0.0169714
605.607	0.0171840
605.685	0.0170328
605.763	0.0170528
605.841	0.0170880
605.919	0.0169522
605.997	0.0171889
606.075	0.0171487
606.154	0.0170506
606.232	0.0170773
606.310	0.0172500
606.388	0.0171218
606.466	0.0170441
606.544	0.0172500
606.622	0.0169896
606.700	0.0171010
606.779	0.0171749
606.857	0.0170355
606.935	0.0171075
607.013	0.0169894
607.091	0.0170656
607.169	0.0170483
607.247	0.0171651
607.325	0.0171114
607.404	0.0172011
607.482	0.0171668
607.560	0.0171147
607.638	0.0172316
607.716	0.0170901
607.794	0.0171989
607.872	0.0172387
607.950	0.0170173
608.029	0.0170985
608.107	0.0171904
608.185	0.0169505
608.263	0.0170938
608.341	0.0170551
608.419	0.0170463
608.497	0.0171423
608.575	0.0171368
608.654	0.0171175
608.732	0.0170559
608.810	0.0169897
608.888	0.0171131
608.966	0.0170649
609.044	0.0169803
609.122	0.0169515
609.200	0.0170892
609.279	0.0170959
609.357	0.0168815
609.435	0.0171001
609.513	0.0170161
609.591	0.0170282
609.669	0.0169282
609.747	0.0170258
609.825	0.0170384
609.904	0.0170020
609.982	0.0169164
610.060	0.0171081
610.138	0.0171621
610.216	0.0171497
610.294	0.0170601
610.372	0.0171179
610.450	0.0171444
610.529	0.0170821
610.607	0.0171033
610.685	0.0171848
610.763	0.0171389
610.841	0.0171957
610.919	0.0170786
610.997	0.0171658
611.075	0.0171636
611.154	0.0172255
611.232	0.0172151
611.310	0.0171384
611.388	0.0170040
611.466	0.0172918
611.544	0.0170402
611.622	0.0169322
611.700	0.0170842
611.779	0.0170589
611.857	0.0170860
611.935	0.0170198
612.013	0.0171044
612.091	0.0171451
612.169	0.0171631
612.247	0.0170061
612.325	0.0169894
612.404	0.0170883
612.482	0.0171347
612.560	0.0170447
612.638	0.0168923
612.716	0.0171592
612.794	0.0170470
612.872	0.0171793
612.950	0.0170394
613.029	0.0170467
613.107	0.0170533
613.185	0.0171143
613.263	0.0169591
613.341	0.0169699
613.419	0.0170535
613.497	0.0170180
613.575	0.0170308
613.654	0.0170021
613.732	0.0170802
613.810	0.0170970
613.888	0.0170720
613.966	0.0169501
614.044	0.0170722
614.122	0.0171410
614.200	0.0170982
614.279	0.0169505
614.357	0.0170644
614.435	0.0171759
614.513	0.0169949
614.591	0.0170223
614.669	0.0169670
614.747	0.0171120
614.825	0.0170084
614.904	0.0170251
614.982	0.0170443
615.060	0.0171672
615.138	0.0171570
615.216	0.0171007
615.294	0.0171718
615.372	0.0169824
615.450	0.0171130
615.529	0.0171038
615.607	0.0172382
615.685	0.0171653
615.763	0.0169156
615.841	0.0171510
615.919	0.0171540
615.997	0.0170489
616.075	0.0171386
616.154	0.0170928
616.232	0.0171738
616.310	0.0170605
616.388	0.0170516
616.466	0.0171585
616.544	0.0171066
616.622	0.0170014
616.700	0.0170198
616.779	0.0170866
616.857	0.0170079
616.935	0.0170533
617.013	0.0170695
617.091	0.0171203
617.169	0.0170538
617.247	0.0170788
617.325	0.0170808
617.404	0.0170650
617.482	0.0170937
617.560	0.0171203
617.638	0.0170699
617.716	0.0170500
617.794	0.0170412
617.872	0.0171234
617.950	0.0172475
618.029	0.0170600
618.107	0.0169275
618.185	0.0170195
618.263	0.0170095
618.341	0.0171616
618.419	0.0170579
618.497	0.0169016
618.575	0.0171577
618.654	0.0170545
618.732	0.0170779
618.810	0.0170221
618.888	0.0170277
618.966	0.0170249
619.044	0.0170119
619.122	0.0170111
619.200	0.0170395
619.279	0.0171561
619.357	0.0169662
619.435	0.0170358
619.513	0.0171387
619.591	0.0170219
619.669	0.0171587
619.747	0.0171241
619.825	0.0170913
619.904	0.0170152
619.982	0.0171870
620.060	0.0170886
620.138	0.0171572
620.216	0.0170889
620.294	0.0171448
620.372	0.0171449
620.450	0.0170637
620.529	0.0170184
620.607	0.0169622
620.685	0.0170296
620.763	0.0170190
620.841	0.0170356
620.919	0.0170342
620.997	0.0171742
621.075	0.0171992
621.154	0.0171149
621.232	0.0169658
621.310	0.0170034
621.388	0.0169985
621.466	0.0170944
621.544	0.0170233
621.622	0.0170824
621.700	0.0170009
621.779	0.0170642
621.857	0.0170939
621.935	0.0171249
622.013	0.0169148
622.091	0.0169985
622.169	0.0169942
622.247	0.0171472
622.325	0.0170086
622.404	0.0168796
622.482	0.0169337
622.560	0.0169364
622.638	0.0169378
622.716	0.0170091
622.794	0.0169749
622.872	0.0170013
622.950	0.0170758
623.029	0.0170930
623.107	0.0170220
623.185	0.0169652
623.263	0.0171265
623.341	0.0168909
623.419	0.0169888
623.497	0.0168853
623.575	0.0170506
623.654	0.0169582
623.732	0.0169594
623.810	0.0170428
623.888	0.0170983
623.966	0.0169029
624.044	0.0170718
624.122	0.0170090
624.200	0.0170308
624.279	0.0170793
624.357	0.0170589
624.435	0.0171651
624.513	0.0171262
624.591	0.0170898
624.669	0.0171221
624.747	0.0170404
624.825	0.0169566
624.904	0.0170831
624.982	0.0170969
625.060	0.0169537
625.138	0.0170317
625.216	0.0170931
625.294	0.0170813
625.372	0.0170992
625.450	0.0170885
625.529	0.0169744
625.607	0.0171308
625.685	0.0170328
625.763	0.0170611
625.841	0.0171269
625.919	0.0170158
625.997	0.0170581
626.075	0.0169751
626.154	0.0170446
626.232	0.0170438
626.310	0.0169559
626.388	0.0171016
626.466	0.0171362
626.544	0.0169839
626.622	0.0169650
626.700	0.0171096
626.779	0.0171881
626.857	0.0171127
626.935	0.0170200
627.013	0.0170103
627.091	0.0171269
627.169	0.0170399
627.247	0.0170294
627.325	0.0170358
627.404	0.0171383
627.482	0.0171361
627.560	0.0171490
627.638	0.0171085
627.716	0.0171040
627.794	0.0169179
627.872	0.0170184
627.950	0.0170289
628.029	0.0170374
628.107	0.0170145
628.185	0.0169781
628.263	0.0170177
628.341	0.0169402
628.419	0.0171068
628.497	0.0170858
628.575	0.0169890
628.654	0.0170867
628.732	0.0170058
628.810	0.0171070
628.888	0.0170617
628.966	0.0170638
629.044	0.0170869
629.122	0.0170928
629.200	0.0171593
629.279	0.0171323
629.357	0.0170741
629.435	0.0170837
629.513	0.0171396
629.591	0.0170612
629.669	0.0170808
629.747	0.0170966
629.825	0.0170802
629.904	0.0170823
629.982	0.0170691
630.060	0.0171125
630.138	0.0170381
630.216	0.0170683
630.294	0.0172083
630.372	0.0170612
630.450	0.0169833
630.529	0.0171492
630.607	0.0170419
630.685	0.0170683
630.763	0.0171846
630.841	0.0170218
630.919	0.0171780
630.997	0.0170502
631.075	0.0170946
631.154	0.0169531
631.232	0.0171647
631.310	0.0171444
631.388	0.0171439
631.466	0.0170950
631.544	0.0171295
631.622	0.0172088
631.700	0.0172173
631.779	0.0170692
631.857	0.0171100
631.935	0.0171992
632.013	0.0171616
632.091	0.0170197
632.169	0.0171864
632.247	0.0171517
632.325	0.0170867
632.404	0.0170428
632.482	0.0170572
632.560	0.0171219
632.638	0.0169867
632.716	0.0169498
632.794	0.0171403
632.872	0.0170895
632.950	0.0171670
633.029	0.0170524
633.107	0.0170157
633.185	0.0170610
633.263	0.0169913
633.341	0.0169604
633.419	0.0170556
633.497	0.0171111
633.575	0.0170742
633.654	0.0169648
633.732	0.0170917
633.810	0.0170962
633.888	0.0170966
633.966	0.0170795
634.044	0.0171957
634.122	0.0170551
634.200	0.0171479
634.279	0.0171094
634.357	0.0170278
634.435	0.0171222
634.513	0.0170821
634.591	0.0170885
634.669	0.0171935
634.747	0.0169538
634.825	0.0170190
634.904	0.0170382
634.982	0.0170567
635.060	0.0170020
635.138	0.0170193
635.216	0.0171217
635.294	0.0169736
635.372	0.0169904
635.450	0.0170906
635.529	0.0172040
635.607	0.0171591
635.685	0.0170708
635.763	0.0170496
635.841	0.0170102
635.919	0.0170779
635.997	0.0170483
636.075	0.0170338
636.154	0.0170250
636.232	0.0170164
636.310	0.0171275
636.388	0.0171539
636.466	0.0170469
636.544	0.0169521
636.622	0.0169672
636.700	0.0169824
636.779	0.0172249
636.857	0.0169829
636.935	0.0170422
637.013	0.0171646
637.091	0.0170608
637.169	0.0169312
637.247	0.0169865
637.325	0.0170764
637.404	0.0171720
637.482	0.0170303
637.560	0.0170995
637.638	0.0169710
637.716	0.0170030
637.794	0.0170749
637.872	0.0169771
637.950	0.0171637
638.029	0.0172444
638.107	0.0170571
638.185	0.0171688
638.263	0.0170052
638.341	0.0170104
638.419	0.0170361
638.497	0.0170249
638.575	0.0170967
638.654	0.0170813
638.732	0.0171632
638.810	0.0171135
638.888	0.0169367
638.966	0.0170931
639.044	0.0172574
639.122	0.0170622
639.200	0.0169794
639.279	0.0170108
639.357	0.0170987
639.435	0.0171238
639.513	0.0169902
639.591	0.0171383
639.669	0.0171011
639.747	0.0169585
639.825	0.0170340
639.904	0.0170877
639.982	0.0170894
640.060	0.0170895
640.138	0.0170820
640.216	0.0170126
640.294	0.0169743
640.372	0.0169950
640.450	0.0169470
640.529	0.0169492
640.607	0.0171373
640.685	0.0169759
640.763	0.0170794
640.841	0.0168695
640.919	0.0170504
640.997	0.0170037
641.075	0.0171075
641.154	0.0171128
641.232	0.0170275
641.310	0.0170795
641.388	0.0169792
641.466	0.0170862
641.544	0.0171366
641.622	0.0170986
641.700	0.0169550
641.779	0.0170818
641.857	0.0170671
641.935	0.0171365
642.013	0.0170287
642.091	0.0169292
642.169	0.0169339
642.247	0.0172321
642.325	0.0170174
642.404	0.0170043
642.482	0.0170686
642.560	0.0170805
642.638	0.0169875
642.716	0.0168816
642.794	0.0170348
642.872	0.0171387
642.950	0.0171648
643.029	0.0170922
643.107	0.0169222
643.185	0.0171140
643.263	0.0171734
643.341	0.0171373
643.419	0.0170090
643.497	0.0170345
643.575	0.0170104
643.654	0.0170684
643.732	0.0171516
643.810	0.0170123
643.888	0.0170693
643.966	0.0169740
644.044	0.0170224
644.122	0.0170526
644.200	0.0170905
644.279	0.0170322
644.357	0.0170563
644.435	0.0170380
644.513	0.0170953
644.591	0.0170132
644.669	0.0169678
644.747	0.0170524
644.825	0.0170389
644.904	0.0169997
644.982	0.0169639
645.060	0.0170621
645.138	0.0170520
645.216	0.0170972
645.294	0.0170050
645.372	0.0169723
645.450	0.0169485
645.529	0.0170984
645.607	0.0170354
645.685	0.0171091
645.763	0.0170779
645.841	0.0171307
645.919	0.0170947
645.997	0.0170082
646.075	0.0170103
646.154	0.0170311
646.232	0.0170409
646.310	0.0170502
646.388	0.0172269
646.466	0.0171352
646.544	0.0170130
646.622	0.0170802
646.700	0.0170055
646.779	0.0172208
646.857	0.0170583
646.935	0.0170486
647.013	0.0169915
647.091	0.0170812
647.169	0.0171326
647.247	0.0170577
647.325	0.0171006
647.404	0.0171858
647.482	0.0171556
647.560	0.0170577
647.638	0.0171141
647.716	0.0170786
647.794	0.0170979
647.872	0.0171484
647.950	0.0171055
648.029	0.0171605
648.107	0.0171217
648.185	0.0170463
648.263	0.0168077
648.341	0.0170326
648.419	0.0171567
648.497	0.0171106
648.575	0.0170765
648.654	0.0170065
648.732	0.0170769
648.810	0.0170663
648.888	0.0171481
648.966	0.0170863
649.044	0.0170455
649.122	0.0171207
649.200	0.0171310
649.279	0.0170540
649.357	0.0170567
649.435	0.0169926
649.513	0.0170066
649.591	0.0170544
649.669	0.0169490
649.747	0.0171282
649.825	0.0171706
649.904	0.0170913
649.982	0.0169945
650.060	0.0170551
650.138	0.0171414
650.216	0.0170498
650.294	0.0169804
650.372	0.0171259
650.450	0.0171611
650.529	0.0170457
650.607	0.0170199
650.685	0.0171354
650.763	0.0172068
650.841	0.0170653
650.919	0.0170685
650.997	0.0171021
651.075	0.0170229
651.154	0.0170206
651.232	0.0170502
651.310	0.0171896
651.388	0.0171495
651.466	0.0170836
651.544	0.0170191
651.622	0.0170087
651.700	0.0169624
651.779	0.0171600
651.857	0.0170961
651.935	0.0171012
652.013	0.0170753
652.091	0.0171096
652.169	0.0171248
652.247	0.0170181
652.325	0.0170201
652.404	0.0170406
652.482	0.0170756
652.560	0.0170803
652.638	0.0171341
652.716	0.0170771
652.794	0.0171161
652.872	0.0171220
652.950	0.0171239
653.029	0.0170239
653.107	0.0170410
653.185	0.0170760
653.263	0.0172425
653.341	0.0171999
653.419	0.0170321
653.497	0.0171537
653.575	0.0171775
653.654	0.0169578
653.732	0.0170326
653.810	0.0171481
653.888	0.0172150
653.966	0.0171657
654.044	0.0171101
654.122	0.0169948
654.200	0.0170554
654.279	0.0171455
654.357	0.0170962
654.435	0.0170049
654.513	0.0170821
654.591	0.0170519
654.669	0.0170673
654.747	0.0170721
654.825	0.0170140
654.904	0.0171888
654.982	0.0172393
655.060	0.0170921
655.138	0.0169213
655.216	0.0170693
655.294	0.0171941
655.372	0.0172060
655.450	0.0170490
655.529	0.0171503
655.607	0.0171733
655.685	0.0170745
655.763	0.0170911
655.841	0.0171365
655.919	0.0170721
655.997	0.0170729
656.075	0.0171033
656.154	0.0171202
656.232	0.0173153
656.310	0.0170414
656.388	0.0171154
656.466	0.0172025
656.544	0.0171367
656.622	0.0170437
656.700	0.0170860
656.779	0.0170643
656.857	0.0169504
656.935	0.0172581
657.013	0.0171186
657.091	0.0170425
657.169	0.0170993
657.247	0.0172066
657.325	0.0171486
657.404	0.0170693
657.482	0.0170955
657.560	0.0170363
657.638	0.0171675
657.716	0.0171516
657.794	0.0171439
657.872	0.0170310
657.950	0.0170805
658.029	0.0172024
658.107	0.0170478
658.185	0.0170621
658.263	0.0171429
658.341	0.0171468
658.419	0.0170436
658.497	0.0172252
658.575	0.0170755
658.654	0.0170750
658.732	0.0171809
658.810	0.0171238
658.888	0.0171214
658.966	0.0172076
659.044	0.0171368
659.122	0.0170457
659.200	0.0171310
659.279	0.0171191
659.357	0.0169818
659.435	0.0170057
659.513	0.0170866
659.591	0.0170996
659.669	0.0171890
659.747	0.0171587
659.825	0.0169649
659.904	0.0171595
659.982	0.0170091
660.060	0.0171271
660.138	0.0171139
660.216	0.0170482
660.294	0.0169757
660.372	0.0169619
660.450	0.0171626
660.529	0.0170473
660.607	0.0171204
660.685	0.0172068
660.763	0.0169727
660.841	0.0170318
660.919	0.0170481
660.997	0.0171208
661.075	0.0169749
661.154	0.0169784
661.232	0.0171353
661.310	0.0169555
661.388	0.0169787
661.466	0.0170326
661.544	0.0170332
661.622	0.0168742
661.700	0.0170048
661.779	0.0170222
661.857	0.0171081
661.935	0.0171594
662.013	0.0171198
662.091	0.0170119
662.169	0.0169517
662.247	0.0169722
662.325	0.0171507
662.404	0.0170512
662.482	0.0170795
662.560	0.0170770
662.638	0.0170794
662.716	0.0169466
662.794	0.0170748
662.872	0.0170702
662.950	0.0168922
663.029	0.0169451
663.107	0.0169460
663.185	0.0169438
663.263	0.0169900
663.341	0.0169102
663.419	0.0169740
663.497	0.0171121
663.575	0.0170225
663.654	0.0170583
663.732	0.0170669
663.810	0.0170008
663.888	0.0170586
663.966	0.0170324
664.044	0.0171427
664.122	0.0172172
664.200	0.0171734
664.279	0.0170082
664.357	0.0171332
664.435	0.0172057
664.513	0.0170344
664.591	0.0170975
664.669	0.0171055
664.747	0.0171450
664.825	0.0170218
664.904	0.0170273
664.982	0.0171335
665.060	0.0170947
665.138	0.0170837
665.216	0.0172166
665.294	0.0171711
665.372	0.0172106
665.450	0.0171906
665.529	0.0171026
665.607	0.0172225
665.685	0.0170594
665.763	0.0170949
665.841	0.0171502
665.919	0.0170040
665.997	0.0169121
666.075	0.0170077
666.154	0.0166534
666.232	0.0168534
666.310	0.0167996
666.388	0.0167950
666.466	0.0166181
666.544	0.0167792
666.622	0.0166267
666.700	0.0166056
666.779	0.0166890
666.857	0.0165746
666.935	0.0165260
667.013	0.0166283
667.091	0.0166155
667.169	0.0166909
667.247	0.0167038
667.325	0.0169398
667.404	0.0170569
667.482	0.0170694
667.560	0.0172564
667.638	0.0173712
667.716	0.0173803
667.794	0.0175101
667.872	0.0175359
667.950	0.0175195
668.029	0.0176207
668.107	0.0176125
668.185	0.0175068
668.263	0.0177852
668.341	0.0176665
668.419	0.0178276
668.497	0.0177998
668.575	0.0176584
668.654	0.0176122
668.732	0.0175668
668.810	0.0174173
668.888	0.0170644
668.966	0.0171078
669.044	0.0169631
669.122	0.0168560
669.200	0.0167395
669.279	0.0167357
669.357	0.0168309
669.435	0.0168720
669.513	0.0169383
669.591	0.0169298
669.669	0.0167982
669.747	0.0167378
669.825	0.0167462
669.904	0.0165400
669.982	0.0164375
670.060	0.0163259
670.138	0.0163570
670.216	0.0164159
670.294	0.0166586
670.372	0.0166714
670.450	0.0166164
670.529	0.0166350
670.607	0.0167986
670.685	0.0168079
670.763	0.0167675
670.841	0.0167771
670.919	0.0166405
670.997	0.0165666
671.075	0.0164455
671.154	0.0165101
671.232	0.0166561
671.310	0.0165099
671.388	0.0167202
671.466	0.0168365
671.544	0.0171116
671.622	0.0172569
671.700	0.0173566
671.779	0.0174258
671.857	0.0176882
671.935	0.0176413
672.013	0.0178404
672.091	0.0178927
672.169	0.0179874
672.247	0.0181099
672.325	0.0180153
672.404	0.0182241
672.482	0.0182170
672.560	0.0182213
672.638	0.0182426
672.716	0.0179523
672.794	0.0177972
672.872	0.0176294
672.950	0.0173766
673.029	0.0172142
673.107	0.0170844
673.185	0.0170272
673.263	0.0169193
673.341	0.0171301
673.419	0.0170600
673.497	0.0172278
673.575	0.0172712
673.654	0.0173880
673.732	0.0174885
673.810	0.0174428
673.888	0.0171904
673.966	0.0170294
674.044	0.0169906
674.122	0.0166522
674.200	0.0164510
674.279	0.0163046
674.357	0.0162571
674.435	0.0161662
674.513	0.0160774
674.591	0.0163381
674.669	0.0163614
674.747	0.0165756
674.825	0.0166437
674.904	0.0168018
674.982	0.0168965
675.060	0.0168063
675.138	0.0169340
675.216	0.0167561
675.294	0.0169307
675.372	0.0166737
675.450	0.0164794
675.529	0.0164497
675.607	0.0163892
675.685	0.0162794
675.763	0.0161671
675.841	0.0162934
675.919	0.0163728
675.997	0.0164024
676.075	0.0166196
676.154	0.0170824
676.232	0.0174754
676.310	0.0176004
676.388	0.0181113
676.466	0.0185204
676.544	0.0187116
676.622	0.0188495
676.700	0.0190288
676.779	0.0190801
676.857	0.0189719
676.935	0.0184874
677.013	0.0182838
677.091	0.0179213
677.169	0.0175426
677.247	0.0172955
677.325	0.0169674
677.404	0.0169067
677.482	0.0166872
677.560	0.0167458
677.638	0.0167073
677.716	0.0167900
677.794	0.0169151
677.872	0.0170212
677.950	0.0172078
678.029	0.0173038
678.107	0.0173671
678.185	0.0173568
678.263	0.0172992
678.341	0.0172726
678.419	0.0172549
678.497	0.0171406
678.575	0.0172135
678.654	0.0173059
678.732	0.0172287
678.810	0.0170390
678.888	0.0173059
678.966	0.0172038
679.044	0.0170228
679.122	0.0169300
679.200	0.0168367
679.279	0.0168857
679.357	0.0166327
679.435	0.0165503
679.513	0.0164938
679.591	0.0163939
679.669	0.0162186
679.747	0.0162507
679.825	0.0162849
679.904	0.0160639
679.982	0.0160322
680.060	0.0160164
680.138	0.0161086
680.216	0.0157918
680.294	0.0157178
680.372	0.0158447
680.450	0.0156779
680.529	0.0156950
680.607	0.0157910
680.685	0.0159267
680.763	0.0159734
680.841	0.0161742
680.919	0.0163954
680.997	0.0168289
681.075	0.0173195
681.154	0.0175974
681.232	0.0178416
681.310	0.0182407
681.388	0.0184086
681.466	0.0186613
681.544	0.0186448
681.622	0.0186821
681.700	0.0187567
681.779	0.0183849
681.857	0.0181540
681.935	0.0181370
682.013	0.0179963
682.091	0.0178567
682.169	0.0179840
682.247	0.0179293
682.325	0.0181173
682.404	0.0184007
682.482	0.0184702
682.560	0.0187826
682.638	0.0190111
682.716	0.0191345
682.794	0.0191625
682.872	0.0190700
682.950	0.0189909
683.029	0.0187193
683.107	0.0183995
683.185	0.0179311
683.263	0.0173344
683.341	0.0168233
683.419	0.0164363
683.497	0.0158565
683.575	0.0155810
683.654	0.0152920
683.732	0.0152757
683.810	0.0150541
683.888	0.0150377
683.966	0.0150797
684.044	0.0149007
684.122	0.0148967
684.200	0.0146205
684.279	0.0145449
684.357	0.0143366
684.435	0.0140536
684.513	0.0138766
684.591	0.0136053
684.669	0.0135561
684.747	0.0133092
684.825	0.0132661
684.904	0.0134887
684.982	0.0136061
685.060	0.0140041
685.138	0.0145247
685.216	0.0152612
685.294	0.0161572
685.372	0.0169542
685.450	0.0177849
685.529	0.0188174
685.607	0.0194809
685.685	0.0200603
685.763	0.0206432
685.841	0.0210748
685.919	0.0211586
685.997	0.0211890
686.075	0.0212673
686.154	0.0211083
686.232	0.0210982
686.310	0.0209805
686.388	0.0208898
686.466	0.0212141
686.544	0.0212610
686.622	0.0214284
686.700	0.0216972
686.779	0.0219611
686.857	0.0219993
686.935	0.0221648
687.013	0.0220494
687.091	0.0220314
687.169	0.0216871
687.247	0.0211076
687.325	0.0205524
687.404	0.0197099
687.482	0.0188373
687.560	0.0178666
687.638	0.0167702
687.716	0.0154909
687.794	0.0144007
687.872	0.0135081
687.950	0.0121475
688.029	0.0110194
688.107	0.00990280
688.185	0.00882240
688.263	0.00783234
688.341	0.00703316
688.419	0.00621376
688.497	0.00582542
688.575	0.00529610
688.654	0.00528542
688.732	0.00548759
688.810	0.00589088
688.888	0.00636688
688.966	0.00740250
689.044	0.00848747
689.122	0.00992439
689.200	0.0115662
689.279	0.0129854
689.357	0.0150440
689.435	0.0172323
689.513	0.0191730
689.591	0.0214805
689.669	0.0236275
689.747	0.0257946
689.825	0.0276917
689.904	0.0292680
689.982	0.0306146
690.060	0.0314996
690.138	0.0319370
690.216	0.0319536
690.294	0.0317858
690.372	0.0310396
690.450	0.0299640
690.529	0.0285166
690.607	0.0269329
690.685	0.0253403
690.763	0.0235688
690.841	0.0217928
690.919	0.0203538
690.997	0.0187634
691.075	0.0173517
691.154	0.0163166
691.232	0.0151577
691.310	0.0143918
691.388	0.0136436
691.466	0.0129747
691.544	0.0124501
691.622	0.0119484
691.700	0.0118687
691.779	0.0115938
691.857	0.0116761
691.935	0.0115508
692.013	0.0118998
692.091	0.0120901
692.169	0.0123171
692.247	0.0124104
692.325	0.0127177
692.404	0.0130678
692.482	0.0132209
692.560	0.0133035
692.638	0.0134466
692.716	0.0133942
692.794	0.0131717
692.872	0.0128386
692.950	0.0124152
693.029	0.0119196
693.107	0.0112961
693.185	0.0106991
693.263	0.0100379
693.341	0.00933601
693.419	0.00881714
693.497	0.00840820
693.575	0.00819344
693.654	0.00839226
693.732	0.00885147
693.810	0.00982216
693.888	0.0109573
693.966	0.0124723
694.044	0.0144221
694.122	0.0164835
694.200	0.0190301
694.279	0.0214635
694.357	0.0237644
694.435	0.0263281
694.513	0.0285182
694.591	0.0304697
694.669	0.0320043
694.747	0.0333128
694.825	0.0341307
694.904	0.0343804
694.982	0.0342136
695.060	0.0336739
695.138	0.0327571
695.216	0.0317042
695.294	0.0303631
695.372	0.0285285
695.450	0.0268052
695.529	0.0249822
695.607	0.0228439
695.685	0.0207790
695.763	0.0188057
695.841	0.0168029
695.919	0.0149248
695.997	0.0132228
696.075	0.0118154
696.154	0.0104393
696.232	0.00944817
696.310	0.00863472
696.388	0.00832466
696.466	0.00826027
696.544	0.00832436
696.622	0.00845322
696.700	0.00888107
696.779	0.00937500
696.857	0.00982239
696.935	0.0104759
697.013	0.0109493
697.091	0.0114764
697.169	0.0115440
697.247	0.0118352
697.325	0.0117340
697.404	0.0116483
697.482	0.0114865
697.560	0.0110880
697.638	0.0108047
697.716	0.0104934
697.794	0.0102366
697.872	0.0100531
697.950	0.00993767
698.029	0.00980728
698.107	0.00992073
698.185	0.0104359
698.263	0.0107092
698.341	0.0112755
698.419	0.0120210
698.497	0.0129662
698.575	0.0140419
698.654	0.0153135
698.732	0.0168143
698.810	0.0183806
698.888	0.0203689
698.966	0.0221659
699.044	0.0242385
699.122	0.0260966
699.200	0.0280446
699.279	0.0297378
699.357	0.0311147
699.435	0.0322175
699.513	0.0329768
699.591	0.0330892
699.669	0.0330319
699.747	0.0323228
699.825	0.0313231
699.904	0.0299670
699.982	0.0282883
700.060	0.0265505
700.138	0.0248663
700.216	0.0228713
700.294	0.0212875
700.372	0.0195425
700.450	0.0177622
700.529	0.0162755
700.607	0.0150714
700.685	0.0137316
700.763	0.0126732
700.841	0.0119410
700.919	0.0109976
700.997	0.0104150
701.075	0.0100357
701.154	0.00981071
701.232	0.00990295
701.310	0.00975967
701.388	0.00995102
701.466	0.0102039
701.544	0.0105502
701.622	0.0109702
701.700	0.0112713
701.779	0.0116502
701.857	0.0117285
701.935	0.0119285
702.013	0.0121181
702.091	0.0122385
702.169	0.0122047
702.247	0.0121850
702.325	0.0119561
702.404	0.0120200
702.482	0.0120742
702.560	0.0121059
702.638	0.0122913
702.716	0.0125007
702.794	0.0128870
702.872	0.0131447
702.950	0.0138300
703.029	0.0141196
703.107	0.0147616
703.185	0.0153168
703.263	0.0158964
703.341	0.0165275
703.419	0.0172890
703.497	0.0182200
703.575	0.0192152
703.654	0.0199408
703.732	0.0209479
703.810	0.0218172
703.888	0.0225491
703.966	0.0233228
704.044	0.0240348
704.122	0.0245651
704.200	0.0248447
704.279	0.0251015
704.357	0.0250555
704.435	0.0248183
704.513	0.0245606
704.591	0.0239630
704.669	0.0232920
704.747	0.0222400
704.825	0.0215511
704.904	0.0204242
704.982	0.0193622
705.060	0.0183469
705.138	0.0175426
705.216	0.0167904
705.294	0.0160288
705.372	0.0156081
705.450	0.0152792
705.529	0.0150208
705.607	0.0149879
705.685	0.0151084
705.763	0.0154420
705.841	0.0157462
705.919	0.0162051
705.997	0.0166236
706.075	0.0170270
706.154	0.0173717
706.232	0.0178636
706.310	0.0178278
706.388	0.0178356
706.466	0.0176830
706.544	0.0174405
706.622	0.0169643
706.700	0.0163233
706.779	0.0157729
706.857	0.0152568
706.935	0.0145303
707.013	0.0136568
707.091	0.0132285
707.169	0.0127365
707.247	0.0122728
707.325	0.0119820
707.404	0.0118084
707.482	0.0119585
707.560	0.0120120
707.638	0.0122212
707.716	0.0126561
707.794	0.0131509
707.872	0.0137688
707.950	0.0142826
708.029	0.0151608
708.107	0.0158445
708.185	0.0167013
708.263	0.0174613
708.341	0.0182983
708.419	0.0189714
708.497	0.0195957
708.575	0.0202028
708.654	0.0205399
708.732	0.0206263
708.810	0.0207249
708.888	0.0206487
708.966	0.0204889
709.044	0.0201460
709.122	0.0197308
709.200	0.0191819
709.279	0.0185340
709.357	0.0179261
709.435	0.0174027
709.513	0.0167754
709.591	0.0162224
709.669	0.0159433
709.747	0.0155146
709.825	0.0154308
709.904	0.0153236
709.982	0.0153593
710.060	0.0157616
710.138	0.0159679
710.216	0.0163584
710.294	0.0170187
710.372	0.0173658
710.450	0.0179665
710.529	0.0185526
710.607	0.0189631
710.685	0.0196585
710.763	0.0201118
710.841	0.0206177
710.919	0.0209241
710.997	0.0210101
711.075	0.0214108
711.154	0.0211251
711.232	0.0209737
711.310	0.0206224
711.388	0.0202779
711.466	0.0196822
711.544	0.0191530
711.622	0.0185281
711.700	0.0177030
711.779	0.0169746
711.857	0.0164577
711.935	0.0158718
712.013	0.0150871
712.091	0.0144941
712.169	0.0142863
712.247	0.0141006
712.325	0.0139281
712.404	0.0138948
712.482	0.0139323
712.560	0.0141161
712.638	0.0142049
712.716	0.0145573
712.794	0.0149239
712.872	0.0152475
712.950	0.0157166
713.029	0.0162393
713.107	0.0165430
713.185	0.0169915
713.263	0.0176061
713.341	0.0179070
713.419	0.0181481
713.497	0.0184556
713.575	0.0185054
713.654	0.0184433
713.732	0.0183727
713.810	0.0180370
713.888	0.0176830
713.966	0.0173998
714.044	0.0169064
714.122	0.0164216
714.200	0.0160932
714.279	0.0156530
714.357	0.0150570
714.435	0.0149102
714.513	0.0146595
714.591	0.0145338
714.669	0.0144695
714.747	0.0143655
714.825	0.0144936
714.904	0.0147285
714.982	0.0151189
715.060	0.0155814
715.138	0.0160193
715.216	0.0163951
715.294	0.0169777
715.372	0.0175905
715.450	0.0178372
715.529	0.0183535
715.607	0.0188512
715.685	0.0191512
715.763	0.0194687
715.841	0.0196838
715.919	0.0198308
715.997	0.0197953
716.075	0.0199524
716.154	0.0200393
716.232	0.0197198
716.310	0.0194337
716.388	0.0190974
716.466	0.0189280
716.544	0.0184920
716.622	0.0181969
716.700	0.0180824
716.779	0.0178242
716.857	0.0175237
716.935	0.0173753
717.013	0.0172565
717.091	0.0169917
717.169	0.0169903
717.247	0.0169118
717.325	0.0168940
717.404	0.0168743
717.482	0.0167714
717.560	0.0169580
717.638	0.0169949
717.716	0.0172161
717.794	0.0174338
717.872	0.0173615
717.950	0.0174667
718.029	0.0178133
718.107	0.0178213
718.185	0.0180569
718.263	0.0179987
718.341	0.0179551
718.419	0.0179497
718.497	0.0180766
718.575	0.0179070
718.654	0.0177220
718.732	0.0176834
718.810	0.0173795
718.888	0.0172047
718.966	0.0167443
719.044	0.0162572
719.122	0.0160594
719.200	0.0157122
719.279	0.0153680
719.357	0.0151348
719.435	0.0149538
719.513	0.0148605
719.591	0.0145290
719.669	0.0145434
719.747	0.0145316
719.825	0.0145167
719.904	0.0145566
719.982	0.0146524
720.060	0.0148427
720.138	0.0149136
720.216	0.0150035
720.294	0.0153011
720.372	0.0155783
720.450	0.0158266
720.529	0.0160789
720.607	0.0164027
720.685	0.0165926
720.763	0.0169003
720.841	0.0171822
720.919	0.0174523
720.997	0.0175770
721.075	0.0177695
721.154	0.0177555
721.232	0.0179196
721.310	0.0180473
721.388	0.0180306
721.466	0.0179952
721.544	0.0178879
721.622	0.0180661
721.700	0.0179824
721.779	0.0180366
721.857	0.0181921
721.935	0.0181179
722.013	0.0183694
722.091	0.0182021
722.169	0.0183694
722.247	0.0185390
722.325	0.0187226
722.404	0.0186398
722.482	0.0186485
722.560	0.0185815
722.638	0.0186590
722.716	0.0185227
722.794	0.0183742
722.872	0.0182975
722.950	0.0181291
723.029	0.0181712
723.107	0.0180655
723.185	0.0179533
723.263	0.0178423
723.341	0.0179740
723.419	0.0178218
723.497	0.0177692
723.575	0.0176620
723.654	0.0174088
723.732	0.0174239
723.810	0.0173065
723.888	0.0171780
723.966	0.0169458
724.044	0.0166087
724.122	0.0165033
724.200	0.0161816
724.279	0.0160804
724.357	0.0158826
724.435	0.0156836
724.513	0.0156213
724.591	0.0154205
724.669	0.0154388
724.747	0.0153629
724.825	0.0154667
724.904	0.0152950
724.982	0.0153409
725.060	0.0154004
725.138	0.0154542
725.216	0.0156012
725.294	0.0155854
725.372	0.0155144
725.450	0.0157441
725.529	0.0158423
725.607	0.0159265
725.685	0.0160034
725.763	0.0163166
725.841	0.0164189
725.919	0.0167825
725.997	0.0166863
726.075	0.0169623
726.154	0.0172116
726.232	0.0171962
726.310	0.0172330
726.388	0.0175796
726.466	0.0177016
726.544	0.0178580
726.622	0.0180460
726.700	0.0180186
726.779	0.0180540
726.857	0.0182815
726.935	0.0182961
727.013	0.0183151
727.091	0.0182184
727.169	0.0181966
727.247	0.0182136
727.325	0.0180418
727.404	0.0179025
727.482	0.0176661
727.560	0.0175679
727.638	0.0173827
727.716	0.0172409
727.794	0.0170512
727.872	0.0170747
727.950	0.0169032
728.029	0.0169489
728.107	0.0168314
728.185	0.0169894
728.263	0.0172351
728.341	0.0171982
728.419	0.0171036
728.497	0.0171971
728.575	0.0174023
728.654	0.0174104
728.732	0.0172746
728.810	0.0174651
728.888	0.0173515
728.966	0.0173745
729.044	0.0173464
729.122	0.0171687
729.200	0.0171980
729.279	0.0169851
729.357	0.0169804
729.435	0.0168040
729.513	0.0167389
729.591	0.0164511
729.669	0.0164526
729.747	0.0165859
729.825	0.0164410
729.904	0.0164824
729.982	0.0165208
730.060	0.0164819
730.138	0.0164845
730.216	0.0166061
730.294	0.0167474
730.372	0.0167834
730.450	0.0166476
730.529	0.0167436
730.607	0.0167552
730.685	0.0167055
730.763	0.0167925
730.841	0.0168046
730.919	0.0168883
730.997	0.0168769
731.075	0.0169277
731.154	0.0169964
731.232	0.0171246
731.310	0.0171635
731.388	0.0172688
731.466	0.0172846
731.544	0.0173934
731.622	0.0176283
731.700	0.0176976
731.779	0.0178743
731.857	0.0179332
731.935	0.0177909
732.013	0.0178074
732.091	0.0178431
732.169	0.0178411
732.247	0.0177299
732.325	0.0178400
732.404	0.0176006
732.482	0.0173666
732.560	0.0172971
732.638	0.0172218
732.716	0.0169584
732.794	0.0170509
732.872	0.0170928
732.950	0.0168150
733.029	0.0168510
733.107	0.0169239
733.185	0.0168403
733.263	0.0167498
733.341	0.0167879
733.419	0.0167746
733.497	0.0167964
733.575	0.0169079
733.654	0.0168597
733.732	0.0168298
733.810	0.0167019
733.888	0.0169245
733.966	0.0167763
734.044	0.0167638
734.122	0.0168161
734.200	0.0168721
734.279	0.0167206
734.357	0.0165344
734.435	0.0168903
734.513	0.0168195
734.591	0.0168670
734.669	0.0168308
734.747	0.0167669
734.825	0.0169638
734.904	0.0168597
734.982	0.0168274
735.060	0.0168838
735.138	0.0168442
735.216	0.0166557
735.294	0.0166080
735.372	0.0166626
735.450	0.0167435
735.529	0.0165767
735.607	0.0168000
735.685	0.0167957
735.763	0.0170009
735.841	0.0168308
735.919	0.0170753
735.997	0.0172675
736.075	0.0172810
736.154	0.0172137
736.232	0.0173006
736.310	0.0176135
736.388	0.0177313
736.466	0.0177261
736.544	0.0179023
736.622	0.0179707
736.700	0.0179890
736.779	0.0179826
736.857	0.0181437
736.935	0.0182323
737.013	0.0180634
737.091	0.0180137
737.169	0.0180740
737.247	0.0180850
737.325	0.0179977
737.404	0.0178044
737.482	0.0178396
737.560	0.0175754
737.638	0.0174088
737.716	0.0172263
737.794	0.0171855
737.872	0.0172088
737.950	0.0170667
738.029	0.0169566
738.107	0.0169125
738.185	0.0169481
738.263	0.0168870
738.341	0.0167719
738.419	0.0167705
738.497	0.0168159
738.575	0.0168936
738.654	0.0167415
738.732	0.0167214
738.810	0.0168264
738.888	0.0168071
738.966	0.0167975
739.044	0.0167772
739.122	0.0167521
739.200	0.0168463
739.279	0.0169389
739.357	0.0169906
739.435	0.0169167
739.513	0.0169901
739.591	0.0169937
739.669	0.0169357
739.747	0.0169835
739.825	0.0167669
739.904	0.0166417
739.982	0.0167843
740.060	0.0165512
740.138	0.0165096
740.216	0.0162679
740.294	0.0161637
740.372	0.0163545
740.450	0.0163795
740.529	0.0161711
740.607	0.0160838
740.685	0.0162407
740.763	0.0163611
740.841	0.0165002
740.919	0.0165333
740.997	0.0164577
741.075	0.0166512
741.154	0.0169048
741.232	0.0170471
741.310	0.0170643
741.388	0.0172946
741.466	0.0174158
741.544	0.0174796
741.622	0.0176314
741.700	0.0177016
741.779	0.0177854
741.857	0.0177985
741.935	0.0179288
742.013	0.0181059
742.091	0.0180253
742.169	0.0181558
742.247	0.0182703
742.325	0.0182002
742.404	0.0181937
742.482	0.0182529
742.560	0.0181065
742.638	0.0181753
742.716	0.0180861
742.794	0.0179654
742.872	0.0177744
742.950	0.0177686
743.029	0.0179136
743.107	0.0175227
743.185	0.0174406
743.263	0.0174611
743.341	0.0173341
743.419	0.0172297
743.497	0.0171588
743.575	0.0169312
743.654	0.0171368
743.732	0.0169819
743.810	0.0169662
743.888	0.0169271
743.966	0.0169147
744.044	0.0167038
744.122	0.0166985
744.200	0.0167372
744.279	0.0169009
744.357	0.0168565
744.435	0.0168075
744.513	0.0169482
744.591	0.0167735
744.669	0.0166685
744.747	0.0164964
744.825	0.0166181
744.904	0.0166057
744.982	0.0165946
745.060	0.0165858
745.138	0.0165222
745.216	0.0163553
745.294	0.0164615
745.372	0.0164298
745.450	0.0162946
745.529	0.0163176
745.607	0.0164307
745.685	0.0163020
745.763	0.0162481
745.841	0.0163708
745.919	0.0164897
745.997	0.0164811
746.075	0.0166199
746.154	0.0166202
746.232	0.0168021
746.310	0.0167834
746.388	0.0168924
746.466	0.0170473
746.544	0.0170197
746.622	0.0172000
746.700	0.0170625
746.779	0.0171662
746.857	0.0173363
746.935	0.0172517
747.013	0.0173248
747.091	0.0175101
747.169	0.0175571
747.247	0.0177682
747.325	0.0179723
747.404	0.0178202
747.482	0.0179854
747.560	0.0180448
747.638	0.0179564
747.716	0.0180286
747.794	0.0180364
747.872	0.0179611
747.950	0.0180720
748.029	0.0178263
748.107	0.0177459
748.185	0.0176885
748.263	0.0174904
748.341	0.0173097
748.419	0.0171600
748.497	0.0170734
748.575	0.0168993
748.654	0.0168301
748.732	0.0166367
748.810	0.0165670
748.888	0.0166254
748.966	0.0165421
749.044	0.0165023
749.122	0.0164825
749.200	0.0166208
749.279	0.0166506
749.357	0.0166405
749.435	0.0167509
749.513	0.0168677
749.591	0.0167677
749.669	0.0169823
749.747	0.0171198
749.825	0.0170394
749.904	0.0169427
749.982	0.0170312
750.060	0.0170297
750.138	0.0170100
750.216	0.0169495
750.294	0.0170820
750.372	0.0169773
750.450	0.0169643
750.529	0.0170074
750.607	0.0170268
750.685	0.0168874
750.763	0.0169445
750.841	0.0167619
750.919	0.0169013
750.997	0.0167698
751.075	0.0168201
751.154	0.0167014
751.232	0.0166809
751.310	0.0165897
751.388	0.0165899
751.466	0.0167490
751.544	0.0168818
751.622	0.0167790
751.700	0.0167280
751.779	0.0167834
751.857	0.0170011
751.935	0.0171694
752.013	0.0171597
752.091	0.0172317
752.169	0.0173100
752.247	0.0173314
752.325	0.0173744
752.404	0.0174904
752.482	0.0176668
752.560	0.0177620
752.638	0.0177449
752.716	0.0176687
752.794	0.0177708
752.872	0.0177761
752.950	0.0176765
753.029	0.0177296
753.107	0.0176250
753.185	0.0174565
753.263	0.0174699
753.341	0.0174237
753.419	0.0173537
753.497	0.0173273
753.575	0.0172370
753.654	0.0170705
753.732	0.0170770
753.810	0.0169406
753.888	0.0168646
753.966	0.0167741
754.044	0.0166249
754.122	0.0167326
754.200	0.0168188
754.279	0.0167676
754.357	0.0167061
754.435	0.0166119
754.513	0.0166525
754.591	0.0166222
754.669	0.0167222
754.747	0.0167487
754.825	0.0168492
754.904	0.0169711
754.982	0.0170074
755.060	0.0169447
755.138	0.0169166
755.216	0.0170647
755.294	0.0171458
755.372	0.0169627
755.450	0.0170567
755.529	0.0171244
755.607	0.0170603
755.685	0.0170493
755.763	0.0169985
755.841	0.0168935
755.919	0.0169854
755.997	0.0167892
756.075	0.0166879
756.154	0.0167584
756.232	0.0167315
756.310	0.0169216
756.388	0.0167503
756.466	0.0168606
756.544	0.0166962
756.622	0.0168709
756.700	0.0168890
756.779	0.0168122
756.857	0.0170762
756.935	0.0172465
757.013	0.0172753
757.091	0.0173721
757.169	0.0176189
757.247	0.0176479
757.325	0.0177222
757.404	0.0178362
757.482	0.0179531
757.560	0.0179126
757.638	0.0179173
757.716	0.0178848
757.794	0.0179644
757.872	0.0179465
757.950	0.0179069
758.029	0.0178908
758.107	0.0179418
758.185	0.0178615
758.263	0.0177613
758.341	0.0177431
758.419	0.0175804
758.497	0.0174966
758.575	0.0173077
758.654	0.0173822
758.732	0.0172204
758.810	0.0170837
758.888	0.0171066
758.966	0.0170164
759.044	0.0167623
759.122	0.0165194
759.200	0.0166256
759.279	0.0165099
759.357	0.0163667
759.435	0.0163823
759.513	0.0163736
759.591	0.0162175
759.669	0.0161549
759.747	0.0162955
759.825	0.0163242
759.904	0.0163459
759.982	0.0163169
760.060	0.0163511
760.138	0.0164636
760.216	0.0166050
760.294	0.0166445
760.372	0.0167598
760.450	0.0167677
760.529	0.0169524
760.607	0.0170522
760.685	0.0171290
760.763	0.0169545
760.841	0.0170551
760.919	0.0171918
760.997	0.0170609
761.075	0.0171509
761.154	0.0169493
761.232	0.0170843
761.310	0.0171934
761.388	0.0170426
761.466	0.0171201
761.544	0.0170731
761.622	0.0172304
761.700	0.0172166
761.779	0.0172337
761.857	0.0172903
761.935	0.0173522
762.013	0.0174516
762.091	0.0174410
762.169	0.0174571
762.247	0.0175394
762.325	0.0176061
762.404	0.0176116
762.482	0.0177737
762.560	0.0176547
762.638	0.0177157
762.716	0.0176388
762.794	0.0175926
762.872	0.0177519
762.950	0.0176126
763.029	0.0175592
763.107	0.0175259
763.185	0.0176443
763.263	0.0174348
763.341	0.0176217
763.419	0.0174315
763.497	0.0172421
763.575	0.0172823
763.654	0.0172662
763.732	0.0171757
763.810	0.0170293
763.888	0.0170939
763.966	0.0170142
764.044	0.0169627
764.122	0.0168752
764.200	0.0167857
764.279	0.0167815
764.357	0.0167977
764.435	0.0166691
764.513	0.0165251
764.591	0.0165997
764.669	0.0166006
764.747	0.0165752
764.825	0.0166007
764.904	0.0166153
764.982	0.0166519
765.060	0.0167027
765.138	0.0166258
765.216	0.0166907
765.294	0.0168125
765.372	0.0168587
765.450	0.0168858
765.529	0.0167645
765.607	0.0168382
765.685	0.0169781
765.763	0.0169333
765.841	0.0169553
765.919	0.0168644
765.997	0.0169983
766.075	0.0171393
766.154	0.0170233
766.232	0.0171057
766.310	0.0170087
766.388	0.0170871
766.466	0.0170425
766.544	0.0170963
766.622	0.0170559
766.700	0.0170055
766.779	0.0170190
766.857	0.0171343
766.935	0.0171784
767.013	0.0170374
767.091	0.0173309
767.169	0.0171211
767.247	0.0171838
767.325	0.0174001
767.404	0.0173506
767.482	0.0174622
767.560	0.0173598
767.638	0.0175430
767.716	0.0176165
767.794	0.0174504
767.872	0.0175777
767.950	0.0175201
768.029	0.0175642
768.107	0.0175978
768.185	0.0175450
768.263	0.0175986
768.341	0.0174519
768.419	0.0175424
768.497	0.0174290
768.575	0.0175261
768.654	0.0172903
768.732	0.0172601
768.810	0.0170988
768.888	0.0172522
768.966	0.0172027
769.044	0.0171362
769.122	0.0170225
769.200	0.0170467
769.279	0.0170977
769.357	0.0169674
769.435	0.0168130
769.513	0.0167991
769.591	0.0168456
769.669	0.0168504
769.747	0.0168066
769.825	0.0166487
769.904	0.0166266
769.982	0.0165984
770.060	0.0166931
770.138	0.0166049
770.216	0.0163772
770.294	0.0165417
770.372	0.0164455
770.450	0.0164797
770.529	0.0164960
770.607	0.0165744
770.685	0.0166260
770.763	0.0167306
770.841	0.0166477
770.919	0.0166465
770.997	0.0169087
771.075	0.0167794
771.154	0.0168909
771.232	0.0170200
771.310	0.0170800
771.388	0.0171914
771.466	0.0171411
771.544	0.0171539
771.622	0.0172781
771.700	0.0173364
771.779	0.0173971
771.857	0.0174405
771.935	0.0173998
772.013	0.0174979
772.091	0.0175545
772.169	0.0175220
772.247	0.0174287
772.325	0.0175208
772.404	0.0176355
772.482	0.0175906
772.560	0.0173985
772.638	0.0174692
772.716	0.0174837
772.794	0.0174793
772.872	0.0175053
772.950	0.0174287
773.029	0.0173759
773.107	0.0173001
773.185	0.0173693
773.263	0.0174489
773.341	0.0173170
773.419	0.0173028
773.497	0.0173260
773.575	0.0171691
773.654	0.0171928
773.732	0.0172433
773.810	0.0170985
773.888	0.0171363
773.966	0.0171678
774.044	0.0169956
774.122	0.0170193
774.200	0.0169105
774.279	0.0169650
774.357	0.0169409
774.435	0.0168229
774.513	0.0168594
774.591	0.0168599
774.669	0.0167208
774.747	0.0167728
774.825	0.0167804
774.904	0.0168218
774.982	0.0168854
775.060	0.0167385
775.138	0.0168071
775.216	0.0169083
775.294	0.0170074
775.372	0.0169819
775.450	0.0170574
775.529	0.0170045
775.607	0.0168893
775.685	0.0168787
775.763	0.0167861
775.841	0.0167633
775.919	0.0168892
775.997	0.0167884
776.075	0.0168051
776.154	0.0169633
776.232	0.0168979
776.310	0.0168149
776.388	0.0168767
776.466	0.0169584
776.544	0.0169142
776.622	0.0170409
776.700	0.0169802
776.779	0.0170343
776.857	0.0170261
776.935	0.0169903
777.013	0.0171462
777.091	0.0169648
777.169	0.0172150
777.247	0.0172184
777.325	0.0171479
777.404	0.0171274
777.482	0.0171947
777.560	0.0174815
777.638	0.0173691
777.716	0.0172727
777.794	0.0173313
777.872	0.0174228
777.950	0.0173646
778.029	0.0174317
778.107	0.0174716
778.185	0.0173933
778.263	0.0173981
778.341	0.0173374
778.419	0.0175172
778.497	0.0174442
778.575	0.0173749
778.654	0.0173602
778.732	0.0174094
778.810	0.0172668
778.888	0.0173474
778.966	0.0173257
779.044	0.0172240
779.122	0.0172438
779.200	0.0171993
779.279	0.0173610
779.357	0.0172092
779.435	0.0171384
779.513	0.0172174
779.591	0.0171858
779.669	0.0170823
779.747	0.0170611
779.825	0.0173016
779.904	0.0171207
779.982	0.0171370
780.060	0.0169540
780.138	0.0169668
780.216	0.0170308
780.294	0.0167773
780.372	0.0167113
780.450	0.0165992
780.529	0.0165266
780.607	0.0164175
780.685	0.0164069
780.763	0.0161768
780.841	0.0161591
780.919	0.0161829
780.997	0.0160556
781.075	0.0161132
781.154	0.0160152
781.232	0.0161983
781.310	0.0162562
781.388	0.0163491
781.466	0.0164903
781.544	0.0165904
781.622	0.0166804
781.700	0.0168327
781.779	0.0168315
781.857	0.0169759
781.935	0.0171626
782.013	0.0173987
782.091	0.0175678
782.169	0.0175240
782.247	0.0176304
782.325	0.0178085
782.404	0.0178141
782.482	0.0178844
782.560	0.0179625
782.638	0.0180331
782.716	0.0180566
782.794	0.0180038
782.872	0.0180930
782.950	0.0181017
783.029	0.0180223
783.107	0.0181097
783.185	0.0179070
783.263	0.0179450
783.341	0.0179710
783.419	0.0178950
783.497	0.0177486
783.575	0.0175693
783.654	0.0174956
783.732	0.0174728
783.810	0.0174626
783.888	0.0173751
783.966	0.0171279
784.044	0.0169930
784.122	0.0168853
784.200	0.0169057
784.279	0.0166960
784.357	0.0164051
784.435	0.0164240
784.513	0.0163113
784.591	0.0162720
784.669	0.0162324
784.747	0.0161106
784.825	0.0160545
784.904	0.0158871
784.982	0.0159566
785.060	0.0157870
785.138	0.0156503
785.216	0.0156749
785.294	0.0158330
785.372	0.0157751
785.450	0.0158816
785.529	0.0159235
785.607	0.0161554
785.685	0.0161930
785.763	0.0162603
785.841	0.0165411
785.919	0.0167908
785.997	0.0169322
786.075	0.0172126
786.154	0.0176170
786.232	0.0177566
786.310	0.0179192
786.388	0.0181646
786.466	0.0184852
786.544	0.0184563
786.622	0.0186882
786.700	0.0186985
786.779	0.0188161
786.857	0.0187925
786.935	0.0186890
787.013	0.0186505
787.091	0.0185866
787.169	0.0183427
787.247	0.0182044
787.325	0.0180766
787.404	0.0177242
787.482	0.0176719
787.560	0.0176346
787.638	0.0176586
787.716	0.0172925
787.794	0.0172919
787.872	0.0171659
787.950	0.0168742
788.029	0.0169258
788.107	0.0169111
788.185	0.0167981
788.263	0.0166738
788.341	0.0167003
788.419	0.0164639
788.497	0.0164144
788.575	0.0164861
788.654	0.0164281
788.732	0.0163429
788.810	0.0161993
788.888	0.0162135
788.966	0.0161478
789.044	0.0159999
789.122	0.0159329
789.200	0.0160673
789.279	0.0160007
789.357	0.0160511
789.435	0.0159672
789.513	0.0160260
789.591	0.0160705
789.669	0.0160546
789.747	0.0160258
789.825	0.0161318
789.904	0.0163329
789.982	0.0164205
790.060	0.0164428
790.138	0.0167499
790.216	0.0167199
790.294	0.0167790
790.372	0.0170590
790.450	0.0172272
790.529	0.0173943
790.607	0.0175430
790.685	0.0175213
790.763	0.0179886
790.841	0.0182616
790.919	0.0183718
790.997	0.0184243
791.075	0.0186139
791.154	0.0186611
791.232	0.0188322
791.310	0.0187615
791.388	0.0186826
791.466	0.0187054
791.544	0.0186644
791.622	0.0184825
791.700	0.0184847
791.779	0.0182227
791.857	0.0179653
791.935	0.0179471
792.013	0.0176870
792.091	0.0175705
792.169	0.0173943
792.247	0.0172675
792.325	0.0169582
792.404	0.0168827
792.482	0.0168599
792.560	0.0166858
792.638	0.0166180
792.716	0.0167461
792.794	0.0165483
792.872	0.0165137
792.950	0.0165018
793.029	0.0166345
793.107	0.0165382
793.185	0.0165489
793.263	0.0165119
793.341	0.0165142
793.419	0.0165127
793.497	0.0162436
793.575	0.0161957
793.654	0.0161265
793.732	0.0159959
793.810	0.0158538
793.888	0.0160135
793.966	0.0158473
794.044	0.0157822
794.122	0.0157563
794.200	0.0157401
794.279	0.0158620
794.357	0.0160466
794.435	0.0159805
794.513	0.0160777
794.591	0.0162546
794.669	0.0162270
794.747	0.0162157
794.825	0.0164156
794.904	0.0166038
794.982	0.0164892
795.060	0.0167017
795.138	0.0170550
795.216	0.0172379
795.294	0.0174276
795.372	0.0175014
795.450	0.0178022
795.529	0.0180671
795.607	0.0181447
795.685	0.0183900
795.763	0.0185333
795.841	0.0184758
795.919	0.0186304
795.997	0.0186623
796.075	0.0187283
796.154	0.0186400
796.232	0.0185479
796.310	0.0184077
796.388	0.0183659
796.466	0.0182269
796.544	0.0182210
796.622	0.0179164
796.700	0.0178036
796.779	0.0176394
796.857	0.0174606
796.935	0.0175233
797.013	0.0173245
797.091	0.0172107
797.169	0.0171733
797.247	0.0172248
797.325	0.0171720
797.404	0.0171555
797.482	0.0169563
797.560	0.0169714
797.638	0.0170287
797.716	0.0170782
797.794	0.0169006
797.872	0.0168225
797.950	0.0169258
798.029	0.0169108
798.107	0.0168059
798.185	0.0166138
798.263	0.0166228
798.341	0.0165873
798.419	0.0163866
798.497	0.0163798
798.575	0.0163232
798.654	0.0161478
798.732	0.0161855
798.810	0.0161931
798.888	0.0161237
798.966	0.0160690
799.044	0.0160771
799.122	0.0162582
799.200	0.0161814
799.279	0.0160775
799.357	0.0162010
799.435	0.0163061
799.513	0.0163431
799.591	0.0163003
799.669	0.0164223
799.747	0.0164833
799.825	0.0164283
799.904	0.0166376
799.982	0.0167666
800.060	0.0169257
800.138	0.0170016
800.216	0.0171523
800.294	0.0172211
800.372	0.0172243
800.450	0.0174920
800.529	0.0174603
800.607	0.0176340
800.685	0.0176545
800.763	0.0176268
800.841	0.0176142
800.919	0.0176468
800.997	0.0176550
801.075	0.0176743
801.154	0.0176922
801.232	0.0174724
801.310	0.0175332
801.388	0.0175791
801.466	0.0175433
801.544	0.0174494
801.622	0.0174370
801.700	0.0173057
801.779	0.0174538
801.857	0.0175548
801.935	0.0174915
802.013	0.0176798
802.091	0.0176503
802.169	0.0176559
802.247	0.0177031
802.325	0.0176241
802.404	0.0177088
802.482	0.0178000
802.560	0.0178173
802.638	0.0176846
802.716	0.0175355
802.794	0.0175191
802.872	0.0175237
802.950	0.0174590
803.029	0.0174205
803.107	0.0173489
803.185	0.0174004
803.263	0.0173263
803.341	0.0171817
803.419	0.0170822
803.497	0.0169245
803.575	0.0168153
803.654	0.0167876
803.732	0.0168476
803.810	0.0166159
803.888	0.0166277
803.966	0.0165750
804.044	0.0164970
804.122	0.0162079
804.200	0.0163437
804.279	0.0165223
804.357	0.0164122
804.435	0.0163298
804.513	0.0163280
804.591	0.0164667
804.669	0.0164704
804.747	0.0165161
804.825	0.0164784
804.904	0.0165970
804.982	0.0166392
805.060	0.0167471
805.138	0.0167282
805.216	0.0166847
805.294	0.0167623
805.372	0.0166481
805.450	0.0166917
805.529	0.0168316
805.607	0.0168191
805.685	0.0167093
805.763	0.0167065
805.841	0.0167647
805.919	0.0166545
805.997	0.0168857
806.075	0.0168008
806.154	0.0168610
806.232	0.0169231
806.310	0.0168896
806.388	0.0170168
806.466	0.0171316
806.544	0.0172092
806.622	0.0173023
806.700	0.0174290
806.779	0.0175276
806.857	0.0175669
806.935	0.0175166
807.013	0.0175740
807.091	0.0177709
807.169	0.0178141
807.247	0.0178680
807.325	0.0177964
807.404	0.0177960
807.482	0.0178014
807.560	0.0177643
807.638	0.0177039
807.716	0.0178441
807.794	0.0179166
807.872	0.0178181
807.950	0.0178156
808.029	0.0178185
808.107	0.0177280
808.185	0.0176861
808.263	0.0177239
808.341	0.0177014
808.419	0.0176476
808.497	0.0175177
808.575	0.0174882
808.654	0.0173801
808.732	0.0173952
808.810	0.0171112
808.888	0.0171350
808.966	0.0170470
809.044	0.0169326
809.122	0.0169241
809.200	0.0168703
809.279	0.0166110
809.357	0.0167201
809.435	0.0167506
809.513	0.0165443
809.591	0.0164315
809.669	0.0165044
809.747	0.0165446
809.825	0.0163261
809.904	0.0164259
809.982	0.0163747
810.060	0.0163786
810.138	0.0165011
810.216	0.0165388
810.294	0.0163544
810.372	0.0162562
810.450	0.0163426
810.529	0.0162822
810.607	0.0163120
810.685	0.0163898
810.763	0.0165892
810.841	0.0165131
810.919	0.0167311
810.997	0.0165224
811.075	0.0166712
811.154	0.0168934
811.232	0.0168905
811.310	0.0169064
811.388	0.0169119
811.466	0.0171079
811.544	0.0171655
811.622	0.0172485
811.700	0.0174515
811.779	0.0176065
811.857	0.0174336
811.935	0.0176194
812.013	0.0176136
812.091	0.0176984
812.169	0.0176655
812.247	0.0176810
812.325	0.0178119
812.404	0.0177695
812.482	0.0178613
812.560	0.0178224
812.638	0.0177729
812.716	0.0176566
812.794	0.0178239
812.872	0.0178842
812.950	0.0177402
813.029	0.0176772
813.107	0.0176952
813.185	0.0176641
813.263	0.0175388
813.341	0.0177744
813.419	0.0176093
813.497	0.0176128
813.575	0.0176061
813.654	0.0175039
813.732	0.0173872
813.810	0.0174480
813.888	0.0173341
813.966	0.0173140
814.044	0.0172212
814.122	0.0171960
814.200	0.0170740
814.279	0.0168906
814.357	0.0168707
814.435	0.0167780
814.513	0.0166407
814.591	0.0166070
814.669	0.0165904
814.747	0.0167167
814.825	0.0164758
814.904	0.0164632
814.982	0.0165132
815.060	0.0165262
815.138	0.0164756
815.216	0.0166013
815.294	0.0165412
815.372	0.0164908
815.450	0.0164514
815.529	0.0165501
815.607	0.0165886
815.685	0.0167751
815.763	0.0167782
815.841	0.0167291
815.919	0.0167675
815.997	0.0167025
816.075	0.0169641
816.154	0.0170834
816.232	0.0169298
816.310	0.0170033
816.388	0.0169856
816.466	0.0170531
816.544	0.0171125
816.622	0.0169781
816.700	0.0170686
816.779	0.0172475
816.857	0.0171191
816.935	0.0171883
817.013	0.0172468
817.091	0.0171352
817.169	0.0172556
817.247	0.0172403
817.325	0.0173761
817.404	0.0172667
817.482	0.0172739
817.560	0.0174886
817.638	0.0174605
817.716	0.0173768
817.794	0.0174738
817.872	0.0176631
817.950	0.0176685
818.029	0.0176299
818.107	0.0176158
818.185	0.0176931
818.263	0.0175842
818.341	0.0176069
818.419	0.0174964
818.497	0.0175298
818.575	0.0174280
818.654	0.0173207
818.732	0.0174178
818.810	0.0173182
818.888	0.0172022
818.966	0.0171839
819.044	0.0171819
819.122	0.0170853
819.200	0.0170255
819.279	0.0169778
819.357	0.0169785
819.435	0.0169723
819.513	0.0169779
819.591	0.0171129
819.669	0.0169973
819.747	0.0170374
819.825	0.0171010
819.904	0.0170430
819.982	0.0169496
820.060	0.0168609
820.138	0.0169535
820.216	0.0168327
820.294	0.0169057
820.372	0.0167442
820.450	0.0167670
820.529	0.0168503
820.607	0.0167701
820.685	0.0166902
820.763	0.0166567
820.841	0.0166525
820.919	0.0167625
820.997	0.0166387
821.075	0.0166174
821.154	0.0165681
821.232	0.0166807
821.310	0.0166138
821.388	0.0167375
821.466	0.0166869
821.544	0.0167549
821.622	0.0167181
821.700	0.0167397
821.779	0.0167240
821.857	0.0167091
821.935	0.0169009
822.013	0.0169333
822.091	0.0170085
822.169	0.0169421
822.247	0.0170329
822.325	0.0169990
822.404	0.0169080
822.482	0.0170194
822.560	0.0172260
822.638	0.0172385
822.716	0.0171850
822.794	0.0173317
822.872	0.0173803
822.950	0.0172617
823.029	0.0173343
823.107	0.0173367
823.185	0.0173699
823.263	0.0175294
823.341	0.0173223
823.419	0.0173911
823.497	0.0174581
823.575	0.0174254
823.654	0.0175040
823.732	0.0173798
823.810	0.0175104
823.888	0.0172990
823.966	0.0172716
824.044	0.0172442
824.122	0.0171968
824.200	0.0171637
824.279	0.0170415
824.357	0.0170347
824.435	0.0170446
824.513	0.0170250
824.591	0.0170368
824.669	0.0169337
824.747	0.0169325
824.825	0.0170231
824.904	0.0170045
824.982	0.0168545
825.060	0.0170103
825.138	0.0170409
825.216	0.0170922
825.294	0.0169394
825.372	0.0170284
825.450	0.0171076
825.529	0.0170045
825.607	0.0170396
825.685	0.0169746
825.763	0.0170297
825.841	0.0169267
825.919	0.0169154
825.997	0.0168255
826.075	0.0168376
826.154	0.0167183
826.232	0.0167754
826.310	0.0167011
826.388	0.0166829
826.466	0.0168390
826.544	0.0167721
826.622	0.0167365
826.700	0.0167714
826.779	0.0168006
826.857	0.0166737
826.935	0.0169045
827.013	0.0168237
827.091	0.0167901
827.169	0.0170271
827.247	0.0169355
827.325	0.0169443
827.404	0.0170735
827.482	0.0171343
827.560	0.0172747
827.638	0.0172373
827.716	0.0172742
827.794	0.0173557
827.872	0.0174024
827.950	0.0174242
828.029	0.0174137
828.107	0.0174203
828.185	0.0174072
828.263	0.0174667
828.341	0.0174085
828.419	0.0173793
828.497	0.0174504
828.575	0.0174268
828.654	0.0174154
828.732	0.0174033
828.810	0.0174236
828.888	0.0173619
828.966	0.0173386
829.044	0.0174089
829.122	0.0173003
829.200	0.0172729
829.279	0.0171593
829.357	0.0170823
829.435	0.0170953
829.513	0.0170509
829.591	0.0169985
829.669	0.0170734
829.747	0.0169702
829.825	0.0170493
829.904	0.0168373
829.982	0.0168240
830.060	0.0169083
830.138	0.0167860
830.216	0.0167523
830.294	0.0169033
830.372	0.0168574
830.450	0.0167722
830.529	0.0165688
830.607	0.0165852
830.685	0.0165677
830.763	0.0164705
830.841	0.0164126
830.919	0.0164950
830.997	0.0165429
831.075	0.0164533
831.154	0.0163811
831.232	0.0164204
831.310	0.0166040
831.388	0.0166480
831.466	0.0165697
831.544	0.0166245
831.622	0.0167052
831.700	0.0168152
831.779	0.0169521
831.857	0.0169705
831.935	0.0170292
832.013	0.0171214
832.091	0.0172540
832.169	0.0172503
832.247	0.0174046
832.325	0.0174144
832.404	0.0176254
832.482	0.0175974
832.560	0.0177301
832.638	0.0177573
832.716	0.0178376
832.794	0.0177403
832.872	0.0177438
832.950	0.0179185
833.029	0.0178296
833.107	0.0178413
833.185	0.0177765
833.263	0.0177377
833.341	0.0178191
833.419	0.0178376
833.497	0.0176267
833.575	0.0175812
833.654	0.0176376
833.732	0.0175701
833.810	0.0173335
833.888	0.0173140
833.966	0.0174274
834.044	0.0172102
834.122	0.0171148
834.200	0.0171648
834.279	0.0170663
834.357	0.0168980
834.435	0.0169637
834.513	0.0167667
834.591	0.0167371
834.669	0.0167876
834.747	0.0166918
834.825	0.0165836
834.904	0.0166195
834.982	0.0166204
835.060	0.0166273
835.138	0.0165037
835.216	0.0166157
835.294	0.0164783
835.372	0.0165100
835.450	0.0165109
835.529	0.0166080
835.607	0.0164107
835.685	0.0165011
835.763	0.0164709
835.841	0.0165733
835.919	0.0165480
835.997	0.0165912
836.075	0.0166451
836.154	0.0168841
836.232	0.0167577
836.310	0.0168141
836.388	0.0169205
836.466	0.0169270
836.544	0.0170269
836.622	0.0171429
836.700	0.0172941
836.779	0.0172854
836.857	0.0173159
836.935	0.0171735
837.013	0.0174466
837.091	0.0174423
837.169	0.0174862
837.247	0.0174876
837.325	0.0174919
837.404	0.0175588
837.482	0.0175826
837.560	0.0175022
837.638	0.0174593
837.716	0.0176353
837.794	0.0174853
837.872	0.0175844
837.950	0.0176905
838.029	0.0175353
838.107	0.0174953
838.185	0.0174809
838.263	0.0174857
838.341	0.0174263
838.419	0.0173444
838.497	0.0176207
838.575	0.0175118
838.654	0.0172569
838.732	0.0172659
838.810	0.0173704
838.888	0.0171111
838.966	0.0173483
839.044	0.0171432
839.122	0.0172172
839.200	0.0170953
839.279	0.0171317
839.357	0.0171616
839.435	0.0171046
839.513	0.0170194
839.591	0.0168715
839.669	0.0169812
839.747	0.0169733
839.825	0.0170360
839.904	0.0168385
839.982	0.0167613
840.060	0.0168495
840.138	0.0168114
840.216	0.0168194
840.294	0.0168530
840.372	0.0167723
840.450	0.0168546
840.529	0.0166805
840.607	0.0167096
840.685	0.0166975
840.763	0.0166728
840.841	0.0166949
840.919	0.0167604
840.997	0.0166442
841.075	0.0166829
841.154	0.0168337
841.232	0.0168163
841.310	0.0168582
841.388	0.0168598
841.466	0.0169201
841.544	0.0170125
841.622	0.0170659
841.700	0.0170846
841.779	0.0171838
841.857	0.0170569
841.935	0.0171915
842.013	0.0171220
842.091	0.0171851
842.169	0.0170858
842.247	0.0172178
842.325	0.0170840
842.404	0.0171102
842.482	0.0171104
842.560	0.0172294
842.638	0.0171284
842.716	0.0170837
842.794	0.0172228
842.872	0.0171056
842.950	0.0170418
843.029	0.0170373
843.107	0.0171548
843.185	0.0171082
843.263	0.0170827
843.341	0.0171251
843.419	0.0172473
843.497	0.0172408
843.575	0.0172626
843.654	0.0171894
843.732	0.0170559
843.810	0.0171749
843.888	0.0171445
843.966	0.0172839
844.044	0.0171105
844.122	0.0172047
844.200	0.0171424
844.279	0.0171407
844.357	0.0171529
844.435	0.0171938
844.513	0.0171017
844.591	0.0168500
844.669	0.0170338
844.747	0.0169851
844.825	0.0170489
844.904	0.0169262
844.982	0.0169233
845.060	0.0169120
845.138	0.0168726
845.216	0.0168900
845.294	0.0168337
845.372	0.0169112
845.450	0.0168073
845.529	0.0168320
845.607	0.0169456
845.685	0.0169638
845.763	0.0167629
845.841	0.0169183
845.919	0.0169440
845.997	0.0168106
846.075	0.0168439
846.154	0.0168767
846.232	0.0169151
846.310	0.0169573
846.388	0.0170132
846.466	0.0169125
846.544	0.0170491
846.622	0.0170464
846.700	0.0171115
846.779	0.0170650
846.857	0.0169829
846.935	0.0169485
847.013	0.0171047
847.091	0.0171273
847.169	0.0170644
847.247	0.0170577
847.325	0.0170216
847.404	0.0170873
847.482	0.0169775
847.560	0.0168980
847.638	0.0171606
847.716	0.0171078
847.794	0.0172175
847.872	0.0171430
847.950	0.0170519
848.029	0.0172478
848.107	0.0170889
848.185	0.0170308
848.263	0.0171456
848.341	0.0170393
848.419	0.0170477
848.497	0.0170743
848.575	0.0170144
848.654	0.0170027
848.732	0.0170815
848.810	0.0169901
848.888	0.0171793
848.966	0.0171632
849.044	0.0171280
849.122	0.0169252
849.200	0.0170242
849.279	0.0171235
849.357	0.0172812
849.435	0.0171675
849.513	0.0171482
849.591	0.0170171
849.669	0.0171686
849.747	0.0171699
849.825	0.0171415
849.904	0.0171748
849.982	0.0169680
850.060	0.0168698
850.138	0.0170541
850.216	0.0171297
850.294	0.0171881
850.372	0.0170010
850.450	0.0169814
850.529	0.0170761
850.607	0.0170768
850.685	0.0170390
850.763	0.0171471
850.841	0.0170510
850.919	0.0171423
850.997	0.0171489
851.075	0.0170763
851.154	0.0169852
851.232	0.0169752
851.310	0.0170436
851.388	0.0171343
851.466	0.0171673
851.544	0.0169327
851.622	0.0169032
851.700	0.0170061
851.779	0.0169644
851.857	0.0169312
851.935	0.0168929
852.013	0.0168407
852.091	0.0169204
852.169	0.0170152
852.247	0.0168644
852.325	0.0168542
852.404	0.0168178
852.482	0.0168111
852.560	0.0169341
852.638	0.0169567
852.716	0.0170113
852.794	0.0171345
852.872	0.0170952
852.950	0.0170573
853.029	0.0170127
853.107	0.0171449
853.185	0.0170994
853.263	0.0171667
853.341	0.0172723
853.419	0.0171808
853.497	0.0172173
853.575	0.0173158
853.654	0.0173105
853.732	0.0173445
853.810	0.0173450
853.888	0.0173735
853.966	0.0173036
854.044	0.0173192
854.122	0.0172379
854.200	0.0173354
854.279	0.0172497
854.357	0.0171737
854.435	0.0172237
854.513	0.0172747
854.591	0.0171748
854.669	0.0172460
854.747	0.0171861
854.825	0.0171359
854.904	0.0171436
854.982	0.0170659
855.060	0.0170898
855.138	0.0171621
855.216	0.0170905
855.294	0.0171581
855.372	0.0171098
855.450	0.0172050
855.529	0.0171470
855.607	0.0171009
855.685	0.0171008
855.763	0.0172092
855.841	0.0172114
855.919	0.0171525
855.997	0.0171962
856.075	0.0170956
856.154	0.0172552
856.232	0.0172594
856.310	0.0169561
856.388	0.0168681
856.466	0.0170900
856.544	0.0170867
856.622	0.0170952
856.700	0.0170347
856.779	0.0170493
856.857	0.0169392
856.935	0.0167942
857.013	0.0170197
857.091	0.0170636
857.169	0.0169885
857.247	0.0168857
857.325	0.0170427
857.404	0.0169782
857.482	0.0169997
857.560	0.0170142
857.638	0.0171109
857.716	0.0170405
857.794	0.0170602
857.872	0.0171179
857.950	0.0170576
858.029	0.0172057
858.107	0.0171709
858.185	0.0171642
858.263	0.0170435
858.341	0.0171291
858.419	0.0170439
858.497	0.0169550
858.575	0.0170607
858.654	0.0169616
858.732	0.0169189
858.810	0.0169598
858.888	0.0169399
858.966	0.0170433
859.044	0.0170887
859.122	0.0170699
859.200	0.0169960
859.279	0.0168098
859.357	0.0169427
859.435	0.0168761
859.513	0.0169405
859.591	0.0169489
859.669	0.0169045
859.747	0.0170233
859.825	0.0170767
859.904	0.0170011
859.982	0.0170866
860.060	0.0170707
860.138	0.0169557
860.216	0.0171311
860.294	0.0171244
860.372	0.0170775
860.450	0.0171513
860.529	0.0171152
860.607	0.0170448
860.685	0.0171223
860.763	0.0172009
860.841	0.0170969
860.919	0.0171410
860.997	0.0171388
861.075	0.0173367
861.154	0.0173597
861.232	0.0173767
861.310	0.0174191
861.388	0.0173591
861.466	0.0174923
861.544	0.0174265
861.622	0.0173177
861.700	0.0174464
861.779	0.0175056
861.857	0.0173786
861.935	0.0173448
862.013	0.0173146
862.091	0.0173663
862.169	0.0171856
862.247	0.0172991
862.325	0.0173280
862.404	0.0173192
862.482	0.0173125
862.560	0.0171871
862.638	0.0170237
862.716	0.0169860
862.794	0.0170279
862.872	0.0169029
862.950	0.0169447
863.029	0.0169347
863.107	0.0169062
863.185	0.0169758
863.263	0.0168320
863.341	0.0168631
863.419	0.0167944
863.497	0.0167560
863.575	0.0168317
863.654	0.0169049
863.732	0.0167954
863.810	0.0168322
863.888	0.0167648
863.966	0.0166826
864.044	0.0167897
864.122	0.0168394
864.200	0.0168028
864.279	0.0169130
864.357	0.0168428
864.435	0.0169400
864.513	0.0170428
864.591	0.0171584
864.669	0.0170540
864.747	0.0170418
864.825	0.0172138
864.904	0.0171510
864.982	0.0170657
865.060	0.0172462
865.138	0.0173278
865.216	0.0172431
865.294	0.0173335
865.372	0.0174115
865.450	0.0173722
865.529	0.0174911
865.607	0.0173945
865.685	0.0173000
865.763	0.0174577
865.841	0.0174945
865.919	0.0173429
865.997	0.0172822
866.075	0.0171943
866.154	0.0172968
866.232	0.0172095
866.310	0.0171153
866.388	0.0172192
866.466	0.0171981
866.544	0.0171519
866.622	0.0171741
866.700	0.0170711
866.779	0.0170648
866.857	0.0169910
866.935	0.0169689
867.013	0.0169764
867.091	0.0169884
867.169	0.0169685
867.247	0.0167998
867.325	0.0167751
867.404	0.0168137
867.482	0.0167229
867.560	0.0169002
867.638	0.0169238
867.716	0.0169467
867.794	0.0169417
867.872	0.0170018
867.950	0.0169229
868.029	0.0170556
868.107	0.0171021
868.185	0.0171012
868.263	0.0172042
868.341	0.0171349
868.419	0.0171655
868.497	0.0172172
868.575	0.0173083
868.654	0.0172854
868.732	0.0173283
868.810	0.0172369
868.888	0.0171222
868.966	0.0171585
869.044	0.0172532
869.122	0.0172413
869.200	0.0171786
869.279	0.0170691
869.357	0.0172034
869.435	0.0172867
869.513	0.0171088
869.591	0.0172173
869.669	0.0172326
869.747	0.0172974
869.825	0.0171564
869.904	0.0170865
869.982	0.0172197
870.060	0.0170977
870.138	0.0171250
870.216	0.0170137
870.294	0.0171024
870.372	0.0171404
870.450	0.0170303
870.529	0.0170530
870.607	0.0169820
870.685	0.0170364
870.763	0.0170432
870.841	0.0171112
870.919	0.0169845
870.997	0.0168461
871.075	0.0168713
871.154	0.0169115
871.232	0.0168319
871.310	0.0169028
871.388	0.0168042
871.466	0.0168224
871.544	0.0167258
871.622	0.0168417
871.700	0.0168343
871.779	0.0167892
871.857	0.0168615
871.935	0.0169568
872.013	0.0168301
872.091	0.0170235
872.169	0.0170092
872.247	0.0171481
872.325	0.0172141
872.404	0.0171130
872.482	0.0172057
872.560	0.0174627
872.638	0.0172996
872.716	0.0174312
872.794	0.0173663
872.872	0.0173386
872.950	0.0175172
873.029	0.0174161
873.107	0.0173539
873.185	0.0174802
873.263	0.0175204
873.341	0.0174096
873.419	0.0173460
873.497	0.0172190
873.575	0.0170495
873.654	0.0171871
873.732	0.0170795
873.810	0.0170442
873.888	0.0169907
873.966	0.0168606
874.044	0.0169009
874.122	0.0171106
874.200	0.0169950
874.279	0.0169043
874.357	0.0168886
874.435	0.0170665
874.513	0.0171393
874.591	0.0172619
874.669	0.0171564
874.747	0.0171594
874.825	0.0171370
874.904	0.0168820
874.982	0.0169534
875.060	0.0171902
875.138	0.0170699
875.216	0.0169960
875.294	0.0170174
875.372	0.0168718
875.450	0.0168841
875.529	0.0169636
875.607	0.0169331
875.685	0.0170538
875.763	0.0168868
875.841	0.0167437
875.919	0.0168455
875.997	0.0169820
876.075	0.0167786
876.154	0.0168871
876.232	0.0168487
876.310	0.0168436
876.388	0.0169328
876.466	0.0168605
876.544	0.0169517
876.622	0.0170744
876.700	0.0169968
876.779	0.0171365
876.857	0.0172733
876.935	0.0173006
877.013	0.0173241
877.091	0.0174524
877.169	0.0176299
877.247	0.0176382
877.325	0.0175063
877.404	0.0176701
877.482	0.0177030
877.560	0.0175550
877.638	0.0175413
877.716	0.0175114
877.794	0.0172753
877.872	0.0173932
877.950	0.0172282
878.029	0.0171681
878.107	0.0172833
878.185	0.0172281
878.263	0.0171792
878.341	0.0171449
878.419	0.0172368
878.497	0.0170518
878.575	0.0170748
878.654	0.0172404
878.732	0.0172836
878.810	0.0173038
878.888	0.0171470
878.966	0.0170773
879.044	0.0170979
879.122	0.0168649
879.200	0.0169787
879.279	0.0169817
879.357	0.0169151
879.435	0.0168573
879.513	0.0167432
879.591	0.0167616
879.669	0.0166822
879.747	0.0167971
879.825	0.0167110
879.904	0.0164950
879.982	0.0166364
880.060	0.0165270
880.138	0.0164428
880.216	0.0165918
880.294	0.0164207
880.372	0.0167313
880.450	0.0165337
880.529	0.0165382
880.607	0.0165802
880.685	0.0168173
880.763	0.0168990
880.841	0.0170753
880.919	0.0171032
880.997	0.0171735
881.075	0.0173458
881.154	0.0174649
881.232	0.0175869
881.310	0.0178180
881.388	0.0179250
881.466	0.0180329
881.544	0.0180305
881.622	0.0182757
881.700	0.0182277
881.779	0.0180702
881.857	0.0181298
881.935	0.0180883
882.013	0.0177073
882.091	0.0176305
882.169	0.0174216
882.247	0.0171348
882.325	0.0170699
882.404	0.0167328
882.482	0.0166463
882.560	0.0164697
882.638	0.0163440
882.716	0.0163705
882.794	0.0162553
882.872	0.0163708
882.950	0.0162460
883.029	0.0164320
883.107	0.0164303
883.185	0.0165469
883.263	0.0166629
883.341	0.0165929
883.419	0.0167496
883.497	0.0169464
883.575	0.0168583
883.654	0.0169053
883.732	0.0170585
883.810	0.0171782
883.888	0.0172190
883.966	0.0172392
884.044	0.0171696
884.122	0.0173321
884.200	0.0173444
884.279	0.0173224
884.357	0.0172890
884.435	0.0172256
884.513	0.0172496
884.591	0.0171796
884.669	0.0171838
884.747	0.0170443
884.825	0.0170674
884.904	0.0169616
884.982	0.0167418
885.060	0.0167659
885.138	0.0168388
885.216	0.0167867
885.294	0.0167403
885.372	0.0168613
885.450	0.0170320
885.529	0.0169602
885.607	0.0171355
885.685	0.0172704
885.763	0.0173428
885.841	0.0176305
885.919	0.0175915
885.997	0.0177971
886.075	0.0180653
886.154	0.0180473
886.232	0.0180854
886.310	0.0183167
886.388	0.0183991
886.466	0.0183153
886.544	0.0182120
886.622	0.0180034
886.700	0.0177714
886.779	0.0176864
886.857	0.0175413
886.935	0.0171566
887.013	0.0168025
887.091	0.0166746
887.169	0.0166064
887.247	0.0162874
887.325	0.0163039
887.404	0.0160514
887.482	0.0158975
887.560	0.0158581
887.638	0.0158820
887.716	0.0158860
887.794	0.0159148
887.872	0.0159070
887.950	0.0159532
888.029	0.0163896
888.107	0.0164034
888.185	0.0166556
888.263	0.0166792
888.341	0.0169193
888.419	0.0169803
888.497	0.0172006
888.575	0.0174261
888.654	0.0172984
888.732	0.0173307
888.810	0.0175530
888.888	0.0175909
888.966	0.0175773
889.044	0.0175951
889.122	0.0175974
889.200	0.0175403
889.279	0.0173885
889.357	0.0174344
889.435	0.0173881
889.513	0.0172913
889.591	0.0172021
889.669	0.0172646
889.747	0.0170890
889.825	0.0171510
889.904	0.0169465
889.982	0.0169823
890.060	0.0170611
890.138	0.0170116
890.216	0.0169631
890.294	0.0169565
890.372	0.0170105
890.450	0.0169898
890.529	0.0171536
890.607	0.0170519
890.685	0.0174036
890.763	0.0175288
890.841	0.0176637
890.919	0.0178528
890.997	0.0178664
891.075	0.0179094
891.154	0.0180807
891.232	0.0178068
891.310	0.0177615
891.388	0.0176947
891.466	0.0174697
891.544	0.0172469
891.622	0.0168649
891.700	0.0165845
891.779	0.0165850
891.857	0.0162805
891.935	0.0161753
892.013	0.0161761
892.091	0.0161372
892.169	0.0160753
892.247	0.0160701
892.325	0.0161109
892.404	0.0162784
892.482	0.0163251
892.560	0.0164346
892.638	0.0165607
892.716	0.0167544
892.794	0.0168179
892.872	0.0168700
892.950	0.0169569
893.029	0.0171976
893.107	0.0171616
893.185	0.0172558
893.263	0.0174271
893.341	0.0175322
893.419	0.0174960
893.497	0.0175832
893.575	0.0175572
893.654	0.0176398
893.732	0.0175204
893.810	0.0171990
893.888	0.0172985
893.966	0.0173933
894.044	0.0171236
894.122	0.0170640
894.200	0.0169659
894.279	0.0169026
894.357	0.0170168
894.435	0.0167167
894.513	0.0168176
894.591	0.0167599
894.669	0.0168188
894.747	0.0167628
894.825	0.0168528
894.904	0.0169320
894.982	0.0168809
895.060	0.0171206
895.138	0.0170944
895.216	0.0171768
895.294	0.0172836
895.372	0.0172240
895.450	0.0173916
895.529	0.0174550
895.607	0.0176967
895.685	0.0177136
895.763	0.0176469
895.841	0.0177515
895.919	0.0177748
895.997	0.0176361
896.075	0.0175535
896.154	0.0173265
896.232	0.0172316
896.310	0.0171605
896.388	0.0170332
896.466	0.0169865
896.544	0.0167892
896.622	0.0166671
896.700	0.0166235
896.779	0.0167115
896.857	0.0165137
896.935	0.0163976
897.013	0.0163788
897.091	0.0165411
897.169	0.0164529
897.247	0.0164227
897.325	0.0167146
897.404	0.0167680
897.482	0.0168573
897.560	0.0168372
897.638	0.0168949
897.716	0.0171153
897.794	0.0171270
897.872	0.0171041
897.950	0.0172093
898.029	0.0173843
898.107	0.0173708
898.185	0.0172491
898.263	0.0174554
898.341	0.0173578
898.419	0.0174601
898.497	0.0171440
898.575	0.0171349
898.654	0.0170945
898.732	0.0171587
898.810	0.0170434
898.888	0.0169024
898.966	0.0169733
899.044	0.0169347
899.122	0.0168900
899.200	0.0170546
899.279	0.0169294
899.357	0.0170297
899.435	0.0170042
899.513	0.0170744
899.591	0.0172227
899.669	0.0172264
899.747	0.0174841
899.825	0.0174504
899.904	0.0174892
899.982	0.0176034
900.060	0.0176884
900.138	0.0177312
900.216	0.0177637
900.294	0.0177972
900.372	0.0177028
900.450	0.0177975
900.529	0.0176608
900.607	0.0176595
900.685	0.0174243
900.763	0.0173539
900.841	0.0173795
900.919	0.0172520
900.997	0.0170200
901.075	0.0168502
901.154	0.0168193
901.232	0.0167125
901.310	0.0166018
901.388	0.0166224
901.466	0.0164268
901.544	0.0164398
901.622	0.0164843
901.700	0.0163780
901.779	0.0164301
901.857	0.0165652
901.935	0.0166007
902.013	0.0166070
902.091	0.0166235
902.169	0.0167858
902.247	0.0168839
902.325	0.0167171
902.404	0.0168270
902.482	0.0169724
902.560	0.0169381
902.638	0.0171594
902.716	0.0171104
902.794	0.0171239
902.872	0.0173370
902.950	0.0172484
903.029	0.0174431
903.107	0.0174607
903.185	0.0174278
903.263	0.0173734
903.341	0.0172675
903.419	0.0173145
903.497	0.0173250
903.575	0.0172304
903.654	0.0170721
903.732	0.0171362
903.810	0.0171159
903.888	0.0170574
903.966	0.0168850
904.044	0.0171481
904.122	0.0169807
904.200	0.0169449
904.279	0.0170872
904.357	0.0170844
904.435	0.0172417
904.513	0.0171451
904.591	0.0169967
904.669	0.0172083
904.747	0.0173839
904.825	0.0174462
904.904	0.0174682
904.982	0.0174435
905.060	0.0176983
905.138	0.0177021
905.216	0.0176562
905.294	0.0176073
905.372	0.0175324
905.450	0.0174881
905.529	0.0173791
905.607	0.0172559
905.685	0.0173635
905.763	0.0172407
905.841	0.0171460
905.919	0.0169854
905.997	0.0168851
906.075	0.0168634
906.154	0.0167569
906.232	0.0167212
906.310	0.0167261
906.388	0.0165141
906.466	0.0165961
906.544	0.0167650
906.622	0.0167301
906.700	0.0167280
906.779	0.0167935
906.857	0.0168750
906.935	0.0168815
907.013	0.0169046
907.091	0.0170280
907.169	0.0170983
907.247	0.0171799
907.325	0.0173043
907.404	0.0174836
907.482	0.0175573
907.560	0.0175208
907.638	0.0174703
907.716	0.0174749
907.794	0.0174692
907.872	0.0175027
907.950	0.0174693
908.029	0.0173245
908.107	0.0171843
908.185	0.0171936
908.263	0.0170403
908.341	0.0170133
908.419	0.0170699
908.497	0.0168185
908.575	0.0169123
908.654	0.0168559
908.732	0.0167987
908.810	0.0167937
908.888	0.0168273
908.966	0.0167857
909.044	0.0169112
909.122	0.0168941
909.200	0.0168094
909.279	0.0169955
909.357	0.0170363
909.435	0.0170260
909.513	0.0171339
909.591	0.0171974
909.669	0.0171609
909.747	0.0172884
909.825	0.0174642
909.904	0.0173019
909.982	0.0174505
910.060	0.0173896
910.138	0.0174362
910.216	0.0172690
910.294	0.0172346
910.372	0.0172935
910.450	0.0173698
910.529	0.0172315
910.607	0.0172660
910.685	0.0170953
910.763	0.0169037
910.841	0.0167488
910.919	0.0168619
910.997	0.0167918
911.075	0.0166980
911.154	0.0165625
911.232	0.0165071
911.310	0.0165512
911.388	0.0166205
911.466	0.0167582
911.544	0.0165557
911.622	0.0166222
911.700	0.0166435
911.779	0.0168789
911.857	0.0168921
911.935	0.0169611
912.013	0.0171654
912.091	0.0170643
912.169	0.0170922
912.247	0.0172501
912.325	0.0173909
912.404	0.0175745
912.482	0.0176231
912.560	0.0175039
912.638	0.0175491
912.716	0.0175249
912.794	0.0175397
912.872	0.0176260
912.950	0.0175746
913.029	0.0174740
913.107	0.0174541
913.185	0.0175066
913.263	0.0172668
913.341	0.0170847
913.419	0.0171014
913.497	0.0171376
913.575	0.0171538
913.654	0.0169437
913.732	0.0169590
913.810	0.0169002
913.888	0.0168438
913.966	0.0167750
914.044	0.0167577
914.122	0.0166563
914.200	0.0168237
914.279	0.0168095
914.357	0.0166324
914.435	0.0167418
914.513	0.0168507
914.591	0.0168055
914.669	0.0167444
914.747	0.0167567
914.825	0.0169077
914.904	0.0169128
914.982	0.0169714
915.060	0.0169411
915.138	0.0170307
915.216	0.0169652
915.294	0.0169666
915.372	0.0169188
915.450	0.0168925
915.529	0.0169534
915.607	0.0170222
915.685	0.0169756
915.763	0.0168056
915.841	0.0169905
915.919	0.0169119
915.997	0.0168664
916.075	0.0169627
916.154	0.0169896
916.232	0.0169608
916.310	0.0170076
916.388	0.0172271
916.466	0.0171454
916.544	0.0170837
916.622	0.0172023
916.700	0.0172572
916.779	0.0174251
916.857	0.0173901
916.935	0.0174244
917.013	0.0173434
917.091	0.0175838
917.169	0.0175678
917.247	0.0176084
917.325	0.0176360
917.404	0.0176222
917.482	0.0175902
917.560	0.0174763
917.638	0.0175750
917.716	0.0175623
917.794	0.0174075
917.872	0.0173381
917.950	0.0171674
918.029	0.0172179
918.107	0.0170748
918.185	0.0169255
918.263	0.0170019
918.341	0.0168999
918.419	0.0166457
918.497	0.0167704
918.575	0.0166914
918.654	0.0164885
918.732	0.0166856
918.810	0.0165883
918.888	0.0165453
918.966	0.0166205
919.044	0.0165981
919.122	0.0166604
919.200	0.0165930
919.279	0.0166806
919.357	0.0166512
919.435	0.0167083
919.513	0.0167243
919.591	0.0167515
919.669	0.0168256
919.747	0.0168752
919.825	0.0169845
919.904	0.0170118
