05/24/2022	20:15:44	Ver.	4.1	UNKNOWN
Optical Delay	599.988409	Delta X		0.078125	Sweeps	1	Scan Rate	0/0
Coordinates	Axis 1	NaN	Axis 2	NaN	Axis 3	NaN	Axis 4	NaN	Axis 5	NaN	Axis 6	0.000000
TX Power	0.000000	RX Power	0.000000

599.988	0.0165788
600.067	0.0166889
600.145	0.0166368
600.223	0.0165503
600.301	0.0164232
600.379	0.0166320
600.457	0.0165218
600.535	0.0165032
600.613	0.0166736
600.692	0.0166027
600.770	0.0166824
600.848	0.0166343
600.926	0.0166273
601.004	0.0167202
601.082	0.0166128
601.160	0.0165239
601.238	0.0165789
601.317	0.0166460
601.395	0.0166247
601.473	0.0165575
601.551	0.0165656
601.629	0.0165671
601.707	0.0166967
601.785	0.0165664
601.863	0.0165504
601.942	0.0166255
602.020	0.0166656
602.098	0.0164704
602.176	0.0165440
602.254	0.0165990
602.332	0.0166650
602.410	0.0166512
602.488	0.0165580
602.567	0.0167005
602.645	0.0166161
602.723	0.0165533
602.801	0.0165192
602.879	0.0166300
602.957	0.0165413
603.035	0.0166465
603.113	0.0164683
603.192	0.0165422
603.270	0.0165598
603.348	0.0166192
603.426	0.0165096
603.504	0.0165559
603.582	0.0165575
603.660	0.0165886
603.738	0.0165826
603.817	0.0165702
603.895	0.0164536
603.973	0.0165160
604.051	0.0165841
604.129	0.0166234
604.207	0.0165784
604.285	0.0165959
604.363	0.0166032
604.442	0.0165023
604.520	0.0166539
604.598	0.0166310
604.676	0.0164835
604.754	0.0165661
604.832	0.0166641
604.910	0.0166389
604.988	0.0165549
605.067	0.0165475
605.145	0.0164743
605.223	0.0165581
605.301	0.0165212
605.379	0.0166005
605.457	0.0166017
605.535	0.0166192
605.613	0.0166579
605.692	0.0164552
605.770	0.0165409
605.848	0.0165879
605.926	0.0166068
606.004	0.0165205
606.082	0.0166355
606.160	0.0167307
606.238	0.0165894
606.317	0.0164342
606.395	0.0166281
606.473	0.0165842
606.551	0.0165573
606.629	0.0165839
606.707	0.0165796
606.785	0.0166500
606.863	0.0166927
606.942	0.0166075
607.020	0.0166362
607.098	0.0166357
607.176	0.0165923
607.254	0.0167297
607.332	0.0166464
607.410	0.0166227
607.488	0.0165086
607.567	0.0165727
607.645	0.0164866
607.723	0.0164211
607.801	0.0166557
607.879	0.0164484
607.957	0.0165008
608.035	0.0165141
608.113	0.0164632
608.192	0.0164433
608.270	0.0165292
608.348	0.0164928
608.426	0.0164195
608.504	0.0165691
608.582	0.0164205
608.660	0.0164262
608.738	0.0165993
608.817	0.0165227
608.895	0.0165635
608.973	0.0163999
609.051	0.0164926
609.129	0.0166041
609.207	0.0166870
609.285	0.0165689
609.363	0.0165755
609.442	0.0165586
609.520	0.0167273
609.598	0.0166564
609.676	0.0166368
609.754	0.0166779
609.832	0.0166231
609.910	0.0165707
609.988	0.0166077
610.067	0.0166216
610.145	0.0164944
610.223	0.0165532
610.301	0.0165923
610.379	0.0165868
610.457	0.0164807
610.535	0.0165765
610.613	0.0165372
610.692	0.0165977
610.770	0.0165920
610.848	0.0164229
610.926	0.0165971
611.004	0.0164586
611.082	0.0164941
611.160	0.0164272
611.238	0.0163757
611.317	0.0165823
611.395	0.0165162
611.473	0.0166008
611.551	0.0164823
611.629	0.0166904
611.707	0.0166188
611.785	0.0166008
611.863	0.0165152
611.942	0.0164557
612.020	0.0163878
612.098	0.0165134
612.176	0.0165578
612.254	0.0165583
612.332	0.0165540
612.410	0.0166188
612.488	0.0166679
612.567	0.0164902
612.645	0.0165691
612.723	0.0165804
612.801	0.0165411
612.879	0.0164946
612.957	0.0165294
613.035	0.0166042
613.113	0.0164412
613.192	0.0166362
613.270	0.0165027
613.348	0.0164892
613.426	0.0164482
613.504	0.0165038
613.582	0.0165312
613.660	0.0165089
613.738	0.0165525
613.817	0.0164466
613.895	0.0164981
613.973	0.0166724
614.051	0.0166893
614.129	0.0164890
614.207	0.0165303
614.285	0.0164439
614.363	0.0166284
614.442	0.0165784
614.520	0.0165650
614.598	0.0166483
614.676	0.0166557
614.754	0.0164582
614.832	0.0164801
614.910	0.0166602
614.988	0.0166314
615.067	0.0166064
615.145	0.0165890
615.223	0.0165871
615.301	0.0165823
615.379	0.0164706
615.457	0.0166262
615.535	0.0165748
615.613	0.0164816
615.692	0.0166050
615.770	0.0165063
615.848	0.0165398
615.926	0.0165551
616.004	0.0165680
616.082	0.0165833
616.160	0.0164117
616.238	0.0166039
616.317	0.0165006
616.395	0.0165298
616.473	0.0165605
616.551	0.0164725
616.629	0.0165730
616.707	0.0167432
616.785	0.0164890
616.863	0.0165525
616.942	0.0163918
617.020	0.0165754
617.098	0.0166357
617.176	0.0165431
617.254	0.0167014
617.332	0.0164773
617.410	0.0166082
617.488	0.0163548
617.567	0.0165820
617.645	0.0164320
617.723	0.0165255
617.801	0.0164822
617.879	0.0166297
617.957	0.0166102
618.035	0.0164383
618.113	0.0165106
618.192	0.0165369
618.270	0.0165735
618.348	0.0165826
618.426	0.0165445
618.504	0.0166656
618.582	0.0165643
618.660	0.0165470
618.738	0.0166865
618.817	0.0164999
618.895	0.0167878
618.973	0.0165660
619.051	0.0165641
619.129	0.0167316
619.207	0.0166255
619.285	0.0166064
619.363	0.0166485
619.442	0.0167233
619.520	0.0166732
619.598	0.0166938
619.676	0.0167210
619.754	0.0165668
619.832	0.0166705
619.910	0.0166802
619.988	0.0165676
620.067	0.0166148
620.145	0.0167065
620.223	0.0166171
620.301	0.0164425
620.379	0.0165842
620.457	0.0165619
620.535	0.0165027
620.613	0.0166091
620.692	0.0165242
620.770	0.0164946
620.848	0.0165536
620.926	0.0166269
621.004	0.0165285
621.082	0.0164316
621.160	0.0164299
621.238	0.0165125
621.317	0.0163975
621.395	0.0166085
621.473	0.0165156
621.551	0.0166256
621.629	0.0166185
621.707	0.0164948
621.785	0.0164661
621.863	0.0164674
621.942	0.0165580
622.020	0.0166185
622.098	0.0164854
622.176	0.0164926
622.254	0.0164928
622.332	0.0165815
622.410	0.0165581
622.488	0.0165267
622.567	0.0165287
622.645	0.0165668
622.723	0.0165270
622.801	0.0164928
622.879	0.0165144
622.957	0.0164697
623.035	0.0165950
623.113	0.0165300
623.192	0.0165440
623.270	0.0164784
623.348	0.0164490
623.426	0.0165048
623.504	0.0164764
623.582	0.0166341
623.660	0.0165833
623.738	0.0165754
623.817	0.0165611
623.895	0.0164478
623.973	0.0165124
624.051	0.0164602
624.129	0.0166572
624.207	0.0165736
624.285	0.0163209
624.363	0.0166004
624.442	0.0166118
624.520	0.0166853
624.598	0.0166022
624.676	0.0167050
624.754	0.0166103
624.832	0.0166844
624.910	0.0165004
624.988	0.0166038
625.067	0.0166159
625.145	0.0167699
625.223	0.0166494
625.301	0.0165063
625.379	0.0165542
625.457	0.0166270
625.535	0.0165750
625.613	0.0165971
625.692	0.0164694
625.770	0.0165828
625.848	0.0167439
625.926	0.0164651
626.004	0.0166429
626.082	0.0165463
626.160	0.0165380
626.238	0.0166541
626.317	0.0165274
626.395	0.0165530
626.473	0.0165095
626.551	0.0165013
626.629	0.0165736
626.707	0.0165377
626.785	0.0164783
626.863	0.0166681
626.942	0.0165662
627.020	0.0166121
627.098	0.0165026
627.176	0.0165308
627.254	0.0165467
627.332	0.0164756
627.410	0.0166134
627.488	0.0165359
627.567	0.0165813
627.645	0.0165131
627.723	0.0165453
627.801	0.0165727
627.879	0.0164455
627.957	0.0165497
628.035	0.0165994
628.113	0.0165059
628.192	0.0165327
628.270	0.0166006
628.348	0.0165673
628.426	0.0165224
628.504	0.0164642
628.582	0.0166706
628.660	0.0165970
628.738	0.0164768
628.817	0.0167245
628.895	0.0166257
628.973	0.0166692
629.051	0.0165041
629.129	0.0165365
629.207	0.0166899
629.285	0.0166219
629.363	0.0166608
629.442	0.0164027
629.520	0.0166158
629.598	0.0166187
629.676	0.0165743
629.754	0.0165104
629.832	0.0165565
629.910	0.0165102
629.988	0.0166234
630.067	0.0164964
630.145	0.0165257
630.223	0.0165681
630.301	0.0165356
630.379	0.0164544
630.457	0.0165357
630.535	0.0166629
630.613	0.0165440
630.692	0.0165969
630.770	0.0165831
630.848	0.0165220
630.926	0.0166351
631.004	0.0165482
631.082	0.0164404
631.160	0.0165211
631.238	0.0165630
631.317	0.0165807
631.395	0.0165790
631.473	0.0164491
631.551	0.0165602
631.629	0.0166373
631.707	0.0165038
631.785	0.0164101
631.863	0.0164860
631.942	0.0165434
632.020	0.0166322
632.098	0.0164429
632.176	0.0165894
632.254	0.0165100
632.332	0.0166457
632.410	0.0164294
632.488	0.0163451
632.567	0.0164410
632.645	0.0165703
632.723	0.0165456
632.801	0.0165604
632.879	0.0164794
632.957	0.0165832
633.035	0.0165662
633.113	0.0165158
633.192	0.0164819
633.270	0.0163963
633.348	0.0164546
633.426	0.0165459
633.504	0.0165788
633.582	0.0165739
633.660	0.0166894
633.738	0.0165260
633.817	0.0166051
633.895	0.0164799
633.973	0.0165134
634.051	0.0164841
634.129	0.0166151
634.207	0.0165959
634.285	0.0164542
634.363	0.0166617
634.442	0.0165926
634.520	0.0164870
634.598	0.0165125
634.676	0.0165300
634.754	0.0165236
634.832	0.0164284
634.910	0.0165009
634.988	0.0164240
635.067	0.0165054
635.145	0.0165079
635.223	0.0164022
635.301	0.0165565
635.379	0.0166275
635.457	0.0165210
635.535	0.0165732
635.613	0.0165908
635.692	0.0166018
635.770	0.0165059
635.848	0.0167022
635.926	0.0165643
636.004	0.0166212
636.082	0.0165153
636.160	0.0165009
636.238	0.0164723
636.317	0.0165759
636.395	0.0164829
636.473	0.0165009
636.551	0.0163899
636.629	0.0165109
636.707	0.0164937
636.785	0.0164328
636.863	0.0166473
636.942	0.0166412
637.020	0.0166225
637.098	0.0164560
637.176	0.0165221
637.254	0.0165900
637.332	0.0166193
637.410	0.0165678
637.488	0.0164559
637.567	0.0164001
637.645	0.0165461
637.723	0.0164885
637.801	0.0165796
637.879	0.0166424
637.957	0.0165578
638.035	0.0165381
638.113	0.0167587
638.192	0.0167339
638.270	0.0165661
638.348	0.0165716
638.426	0.0166454
638.504	0.0165163
638.582	0.0165353
638.660	0.0165325
638.738	0.0165984
638.817	0.0166080
638.895	0.0165637
638.973	0.0164536
639.051	0.0165327
639.129	0.0165357
639.207	0.0165231
639.285	0.0164511
639.363	0.0164342
639.442	0.0165602
639.520	0.0164471
639.598	0.0165798
639.676	0.0164895
639.754	0.0164622
639.832	0.0165749
639.910	0.0165713
639.988	0.0164594
640.067	0.0164764
640.145	0.0167095
640.223	0.0165372
640.301	0.0165398
640.379	0.0165462
640.457	0.0164606
640.535	0.0165231
640.613	0.0165060
640.692	0.0165592
640.770	0.0165701
640.848	0.0164939
640.926	0.0164685
641.004	0.0165926
641.082	0.0166771
641.160	0.0166037
641.238	0.0165562
641.317	0.0165860
641.395	0.0165512
641.473	0.0165625
641.551	0.0167220
641.629	0.0164307
641.707	0.0165136
641.785	0.0165047
641.863	0.0164706
641.942	0.0165108
642.020	0.0166779
642.098	0.0165254
642.176	0.0165437
642.254	0.0164970
642.332	0.0166471
642.410	0.0165605
642.488	0.0165995
642.567	0.0165048
642.645	0.0164471
642.723	0.0166569
642.801	0.0167166
642.879	0.0167096
642.957	0.0164635
643.035	0.0164706
643.113	0.0166263
643.192	0.0165531
643.270	0.0165491
643.348	0.0166190
643.426	0.0167716
643.504	0.0166030
643.582	0.0165414
643.660	0.0166652
643.738	0.0165013
643.817	0.0166716
643.895	0.0165121
643.973	0.0166521
644.051	0.0167081
644.129	0.0165598
644.207	0.0165802
644.285	0.0165479
644.363	0.0165449
644.442	0.0166091
644.520	0.0166370
644.598	0.0166310
644.676	0.0166315
644.754	0.0165707
644.832	0.0166962
644.910	0.0165879
644.988	0.0165816
645.067	0.0165981
645.145	0.0165953
645.223	0.0165958
645.301	0.0164648
645.379	0.0165310
645.457	0.0166142
645.535	0.0165387
645.613	0.0165389
645.692	0.0166241
645.770	0.0166108
645.848	0.0164945
645.926	0.0165699
646.004	0.0166290
646.082	0.0165054
646.160	0.0166357
646.238	0.0165313
646.317	0.0166050
646.395	0.0166810
646.473	0.0165505
646.551	0.0165994
646.629	0.0166590
646.707	0.0166389
646.785	0.0165972
646.863	0.0165084
646.942	0.0164711
647.020	0.0167551
647.098	0.0166774
647.176	0.0165989
647.254	0.0165879
647.332	0.0166045
647.410	0.0164169
647.488	0.0167916
647.567	0.0165231
647.645	0.0165562
647.723	0.0164936
647.801	0.0166273
647.879	0.0166308
647.957	0.0167611
648.035	0.0165627
648.113	0.0166219
648.192	0.0165112
648.270	0.0165044
648.348	0.0167135
648.426	0.0166814
648.504	0.0165385
648.582	0.0165910
648.660	0.0165981
648.738	0.0166042
648.817	0.0166479
648.895	0.0164555
648.973	0.0164290
649.051	0.0165981
649.129	0.0165738
649.207	0.0166660
649.285	0.0165984
649.363	0.0164194
649.442	0.0164995
649.520	0.0166960
649.598	0.0165690
649.676	0.0165009
649.754	0.0165239
649.832	0.0166195
649.910	0.0164926
649.988	0.0166313
650.067	0.0166158
650.145	0.0166396
650.223	0.0167294
650.301	0.0165073
650.379	0.0165634
650.457	0.0165193
650.535	0.0166297
650.613	0.0166327
650.692	0.0166165
650.770	0.0166374
650.848	0.0167637
650.926	0.0166550
651.004	0.0165835
651.082	0.0165815
651.160	0.0165413
651.238	0.0166294
651.317	0.0166934
651.395	0.0166984
651.473	0.0165913
651.551	0.0164906
651.629	0.0165255
651.707	0.0165643
651.785	0.0166568
651.863	0.0165673
651.942	0.0166726
652.020	0.0165132
652.098	0.0164822
652.176	0.0167416
652.254	0.0165164
652.332	0.0165510
652.410	0.0165610
652.488	0.0165786
652.567	0.0166587
652.645	0.0167060
652.723	0.0165813
652.801	0.0165206
652.879	0.0165598
652.957	0.0166742
653.035	0.0165948
653.113	0.0164539
653.192	0.0165762
653.270	0.0165485
653.348	0.0164866
653.426	0.0167000
653.504	0.0166017
653.582	0.0165465
653.660	0.0165903
653.738	0.0166413
653.817	0.0165739
653.895	0.0165677
653.973	0.0166423
654.051	0.0165989
654.129	0.0166722
654.207	0.0165388
654.285	0.0166518
654.363	0.0165726
654.442	0.0165350
654.520	0.0165553
654.598	0.0167136
654.676	0.0165080
654.754	0.0166541
654.832	0.0166705
654.910	0.0165878
654.988	0.0164706
655.067	0.0165589
655.145	0.0165694
655.223	0.0164918
655.301	0.0165257
655.379	0.0165434
655.457	0.0166419
655.535	0.0166051
655.613	0.0165560
655.692	0.0164738
655.770	0.0165381
655.848	0.0164459
655.926	0.0164974
656.004	0.0165235
656.082	0.0165158
656.160	0.0166320
656.238	0.0167719
656.317	0.0166129
656.395	0.0166151
656.473	0.0165207
656.551	0.0166489
656.629	0.0165265
656.707	0.0165534
656.785	0.0165804
656.863	0.0165533
656.942	0.0165260
657.020	0.0165195
657.098	0.0167078
657.176	0.0165749
657.254	0.0164536
657.332	0.0166312
657.410	0.0167023
657.488	0.0166603
657.567	0.0165057
657.645	0.0164302
657.723	0.0165155
657.801	0.0165495
657.879	0.0164723
657.957	0.0166943
658.035	0.0166065
658.113	0.0165148
658.192	0.0164408
658.270	0.0165816
658.348	0.0166558
658.426	0.0166412
658.504	0.0165461
658.582	0.0165639
658.660	0.0164684
658.738	0.0164538
658.817	0.0165929
658.895	0.0164833
658.973	0.0165470
659.051	0.0164474
659.129	0.0166092
659.207	0.0165934
659.285	0.0165140
659.363	0.0164973
659.442	0.0166096
659.520	0.0165392
659.598	0.0164845
659.676	0.0167157
659.754	0.0165694
659.832	0.0164870
659.910	0.0165144
659.988	0.0166171
660.067	0.0165151
660.145	0.0165779
660.223	0.0164683
660.301	0.0165893
660.379	0.0166760
660.457	0.0165440
660.535	0.0165509
660.613	0.0164663
660.692	0.0164761
660.770	0.0164684
660.848	0.0165043
660.926	0.0166296
661.004	0.0164389
661.082	0.0164985
661.160	0.0164703
661.238	0.0164711
661.317	0.0165800
661.395	0.0164786
661.473	0.0165102
661.551	0.0165399
661.629	0.0164864
661.707	0.0165060
661.785	0.0164715
661.863	0.0165941
661.942	0.0165231
662.020	0.0166190
662.098	0.0166286
662.176	0.0166527
662.254	0.0166691
662.332	0.0167458
662.410	0.0165626
662.488	0.0166759
662.567	0.0167345
662.645	0.0166474
662.723	0.0166667
662.801	0.0166506
662.879	0.0165254
662.957	0.0167869
663.035	0.0167015
663.113	0.0167512
663.192	0.0167661
663.270	0.0167211
663.348	0.0165711
663.426	0.0166238
663.504	0.0164655
663.582	0.0163929
663.660	0.0164209
663.738	0.0163049
663.817	0.0164487
663.895	0.0164823
663.973	0.0162928
664.051	0.0163661
664.129	0.0162905
664.207	0.0162215
664.285	0.0162974
664.363	0.0162593
664.442	0.0161213
664.520	0.0161081
664.598	0.0161504
664.676	0.0162019
664.754	0.0162380
664.832	0.0162690
664.910	0.0164225
664.988	0.0165326
665.067	0.0166942
665.145	0.0166931
665.223	0.0168385
665.301	0.0168483
665.379	0.0169691
665.457	0.0168835
665.535	0.0170947
665.613	0.0172127
665.692	0.0172318
665.770	0.0170714
665.848	0.0172437
665.926	0.0171597
666.004	0.0173535
666.082	0.0171696
666.160	0.0171683
666.238	0.0170934
666.317	0.0170792
666.395	0.0169777
666.473	0.0167459
666.551	0.0166512
666.629	0.0163401
666.707	0.0163824
666.785	0.0162990
666.863	0.0161084
666.942	0.0163319
667.020	0.0164079
667.098	0.0163574
667.176	0.0163460
667.254	0.0164788
667.332	0.0163826
667.410	0.0161540
667.488	0.0161916
667.567	0.0160330
667.645	0.0158633
667.723	0.0159454
667.801	0.0158961
667.879	0.0159364
667.957	0.0161212
668.035	0.0163076
668.113	0.0162672
668.192	0.0163229
668.270	0.0164568
668.348	0.0163868
668.426	0.0163014
668.504	0.0162225
668.582	0.0162181
668.660	0.0161375
668.738	0.0160799
668.817	0.0160117
668.895	0.0161142
668.973	0.0162589
669.051	0.0162347
669.129	0.0164344
669.207	0.0166581
669.285	0.0169281
669.363	0.0169820
669.442	0.0168668
669.520	0.0172019
669.598	0.0171748
669.676	0.0173103
669.754	0.0173100
669.832	0.0173310
669.910	0.0174727
669.988	0.0175402
670.067	0.0174754
670.145	0.0174867
670.223	0.0173934
670.301	0.0174295
670.379	0.0171475
670.457	0.0169398
670.535	0.0166302
670.613	0.0165664
670.692	0.0164391
670.770	0.0161441
670.848	0.0161862
670.926	0.0163092
671.004	0.0163583
671.082	0.0163895
671.160	0.0165514
671.238	0.0166514
671.317	0.0168192
671.395	0.0168808
671.473	0.0167849
671.551	0.0167686
671.629	0.0166558
671.707	0.0165961
671.785	0.0165572
671.863	0.0164013
671.942	0.0162461
672.020	0.0163882
672.098	0.0161436
672.176	0.0160337
672.254	0.0162053
672.332	0.0161011
672.410	0.0162459
672.488	0.0161580
672.567	0.0161624
672.645	0.0161242
672.723	0.0161895
672.801	0.0160033
672.879	0.0158432
672.957	0.0157038
673.035	0.0158183
673.113	0.0155842
673.192	0.0157455
673.270	0.0157392
673.348	0.0157542
673.426	0.0160124
673.504	0.0162216
673.582	0.0164778
673.660	0.0166444
673.738	0.0167809
673.817	0.0170028
673.895	0.0172236
673.973	0.0174700
674.051	0.0176145
674.129	0.0177477
674.207	0.0177700
674.285	0.0177554
674.363	0.0177232
674.442	0.0175430
674.520	0.0172765
674.598	0.0170847
674.676	0.0167508
674.754	0.0165276
674.832	0.0161658
674.910	0.0158366
674.988	0.0158194
675.067	0.0159849
675.145	0.0160973
675.223	0.0162202
675.301	0.0165762
675.379	0.0168453
675.457	0.0170768
675.535	0.0173188
675.613	0.0175359
675.692	0.0176555
675.770	0.0176319
675.848	0.0178266
675.926	0.0175800
676.004	0.0174137
676.082	0.0172071
676.160	0.0170155
676.238	0.0166561
676.317	0.0163896
676.395	0.0161806
676.473	0.0160337
676.551	0.0158334
676.629	0.0158321
676.707	0.0156132
676.785	0.0155986
676.863	0.0155499
676.942	0.0157748
677.020	0.0159537
677.098	0.0159875
677.176	0.0158988
677.254	0.0159901
677.332	0.0159245
677.410	0.0160324
677.488	0.0159801
677.567	0.0159865
677.645	0.0160419
677.723	0.0160798
677.801	0.0162660
677.879	0.0164416
677.957	0.0163883
678.035	0.0165529
678.113	0.0168072
678.192	0.0168417
678.270	0.0168941
678.348	0.0168423
678.426	0.0167422
678.504	0.0165738
678.582	0.0163638
678.660	0.0162444
678.738	0.0163128
678.817	0.0160748
678.895	0.0162777
678.973	0.0162991
679.051	0.0162973
679.129	0.0165564
679.207	0.0165779
679.285	0.0164845
679.363	0.0165563
679.442	0.0166393
679.520	0.0165501
679.598	0.0163052
679.676	0.0164117
679.754	0.0164841
679.832	0.0166734
679.910	0.0165741
679.988	0.0167204
680.067	0.0169510
680.145	0.0172334
680.223	0.0176055
680.301	0.0177298
680.379	0.0180112
680.457	0.0182632
680.535	0.0184301
680.613	0.0184877
680.692	0.0183739
680.770	0.0183918
680.848	0.0180101
680.926	0.0176758
681.004	0.0171593
681.082	0.0165476
681.160	0.0163739
681.238	0.0158487
681.317	0.0157140
681.395	0.0155093
681.473	0.0153339
681.551	0.0153968
681.629	0.0156133
681.707	0.0158997
681.785	0.0161327
681.863	0.0165292
681.942	0.0166914
682.020	0.0169532
682.098	0.0170709
682.176	0.0171946
682.254	0.0170459
682.332	0.0168365
682.410	0.0165718
682.488	0.0161651
682.567	0.0158559
682.645	0.0154316
682.723	0.0150407
682.801	0.0147283
682.879	0.0141566
682.957	0.0138928
683.035	0.0138871
683.113	0.0138774
683.192	0.0139619
683.270	0.0143063
683.348	0.0144673
683.426	0.0149448
683.504	0.0153593
683.582	0.0157599
683.660	0.0162145
683.738	0.0167132
683.817	0.0169582
683.895	0.0173096
683.973	0.0175692
684.051	0.0178677
684.129	0.0179459
684.207	0.0180247
684.285	0.0181324
684.363	0.0182229
684.442	0.0184663
684.520	0.0183686
684.598	0.0183414
684.676	0.0182394
684.754	0.0182265
684.832	0.0181377
684.910	0.0180722
684.988	0.0181033
685.067	0.0180678
685.145	0.0180214
685.223	0.0178621
685.301	0.0179325
685.379	0.0180254
685.457	0.0180640
685.535	0.0180260
685.613	0.0182707
685.692	0.0185663
685.770	0.0186359
685.848	0.0188621
685.926	0.0188877
686.004	0.0189525
686.082	0.0192198
686.160	0.0190550
686.238	0.0190096
686.317	0.0188496
686.395	0.0186645
686.473	0.0184602
686.551	0.0181556
686.629	0.0178375
686.707	0.0173944
686.785	0.0167780
686.863	0.0161636
686.942	0.0154221
687.020	0.0144805
687.098	0.0135364
687.176	0.0126332
687.254	0.0114939
687.332	0.0103352
687.410	0.00931725
687.488	0.00815193
687.567	0.00713005
687.645	0.00634224
687.723	0.00562607
687.801	0.00518883
687.879	0.00500786
687.957	0.00520317
688.035	0.00588875
688.113	0.00696007
688.192	0.00822632
688.270	0.00998886
688.348	0.0118842
688.426	0.0143117
688.504	0.0167828
688.582	0.0192384
688.660	0.0218644
688.738	0.0241850
688.817	0.0265031
688.895	0.0284697
688.973	0.0300392
689.051	0.0312556
689.129	0.0320654
689.207	0.0323476
689.285	0.0322476
689.363	0.0318343
689.442	0.0309406
689.520	0.0296088
689.598	0.0280143
689.676	0.0263593
689.754	0.0245054
689.832	0.0225230
689.910	0.0207327
689.988	0.0188326
690.067	0.0171754
690.145	0.0157109
690.223	0.0143784
690.301	0.0132915
690.379	0.0122147
690.457	0.0115981
690.535	0.0108505
690.613	0.0102789
690.692	0.00994942
690.770	0.00975006
690.848	0.00946983
690.926	0.00947632
691.004	0.00950157
691.082	0.00953186
691.160	0.00973534
691.238	0.00991837
691.317	0.0101077
691.395	0.0106350
691.473	0.0110116
691.551	0.0113246
691.629	0.0117782
691.707	0.0121300
691.785	0.0125540
691.863	0.0127328
691.942	0.0129308
692.020	0.0130350
692.098	0.0128782
692.176	0.0128643
692.254	0.0125483
692.332	0.0121585
692.410	0.0118935
692.488	0.0117438
692.567	0.0113757
692.645	0.0113763
692.723	0.0115942
692.801	0.0121233
692.879	0.0127894
692.957	0.0137422
693.035	0.0148961
693.113	0.0161284
693.192	0.0177589
693.270	0.0196688
693.348	0.0212840
693.426	0.0231165
693.504	0.0250370
693.582	0.0266602
693.660	0.0279760
693.738	0.0290990
693.817	0.0296999
693.895	0.0302238
693.973	0.0303371
694.051	0.0301163
694.129	0.0295956
694.207	0.0287708
694.285	0.0277686
694.363	0.0266952
694.442	0.0253848
694.520	0.0240924
694.598	0.0228044
694.676	0.0214327
694.754	0.0199655
694.832	0.0184123
694.910	0.0168489
694.988	0.0153981
695.067	0.0139975
695.145	0.0126978
695.223	0.0114711
695.301	0.0104631
695.379	0.00940781
695.457	0.00887199
695.535	0.00853111
695.613	0.00833725
695.692	0.00831535
695.770	0.00841499
695.848	0.00873390
695.926	0.00925285
696.004	0.00988121
696.082	0.0102221
696.160	0.0106625
696.238	0.0110063
696.317	0.0113404
696.395	0.0115385
696.473	0.0115643
696.551	0.0115385
696.629	0.0116012
696.707	0.0114410
696.785	0.0114300
696.863	0.0111294
696.942	0.0111614
697.020	0.0110954
697.098	0.0110429
697.176	0.0109917
697.254	0.0111835
697.332	0.0111675
697.410	0.0113909
697.488	0.0117647
697.567	0.0121310
697.645	0.0126295
697.723	0.0133257
697.801	0.0142636
697.879	0.0153581
697.957	0.0166257
698.035	0.0179941
698.113	0.0198102
698.192	0.0216521
698.270	0.0237676
698.348	0.0258731
698.426	0.0276748
698.504	0.0294130
698.582	0.0308355
698.660	0.0318875
698.738	0.0323783
698.817	0.0323972
698.895	0.0321957
698.973	0.0316971
699.051	0.0302850
699.129	0.0289296
699.207	0.0274954
699.285	0.0256242
699.363	0.0239477
699.442	0.0221347
699.520	0.0204408
699.598	0.0187960
699.676	0.0171120
699.754	0.0156214
699.832	0.0142680
699.910	0.0131732
699.988	0.0123067
700.067	0.0113294
700.145	0.0106285
700.223	0.00999123
700.301	0.00990318
700.379	0.00976059
700.457	0.00940865
700.535	0.00941826
700.613	0.00955315
700.692	0.00968384
700.770	0.0100391
700.848	0.0101695
700.926	0.0103674
701.004	0.0106445
701.082	0.0106906
701.160	0.0108540
701.238	0.0109983
701.317	0.0110493
701.395	0.0110447
701.473	0.0109328
701.551	0.0111058
701.629	0.0111500
701.707	0.0112973
701.785	0.0114388
701.863	0.0118551
701.942	0.0120730
702.020	0.0124184
702.098	0.0127970
702.176	0.0132255
702.254	0.0137732
702.332	0.0140556
702.410	0.0144712
702.488	0.0151981
702.567	0.0159120
702.645	0.0165713
702.723	0.0171024
702.801	0.0178716
702.879	0.0187239
702.957	0.0194373
703.035	0.0203365
703.113	0.0212059
703.192	0.0222661
703.270	0.0232150
703.348	0.0240067
703.426	0.0246710
703.504	0.0252292
703.582	0.0256883
703.660	0.0257773
703.738	0.0257404
703.817	0.0253697
703.895	0.0248140
703.973	0.0243781
704.051	0.0236681
704.129	0.0229391
704.207	0.0219208
704.285	0.0210123
704.363	0.0202254
704.442	0.0194868
704.520	0.0186447
704.598	0.0179886
704.676	0.0174976
704.754	0.0168712
704.832	0.0165294
704.910	0.0162115
704.988	0.0158388
705.067	0.0157092
705.145	0.0156203
705.223	0.0152205
705.301	0.0151096
705.379	0.0149019
705.457	0.0146051
705.535	0.0144315
705.613	0.0141904
705.692	0.0138099
705.770	0.0136486
705.848	0.0134155
705.926	0.0131091
706.004	0.0128481
706.082	0.0124686
706.160	0.0121001
706.238	0.0118466
706.317	0.0115585
706.395	0.0113171
706.473	0.0112512
706.551	0.0111807
706.629	0.0114072
706.707	0.0115392
706.785	0.0118215
706.863	0.0121584
706.942	0.0125241
707.020	0.0131179
707.098	0.0135968
707.176	0.0142935
707.254	0.0147897
707.332	0.0153220
707.410	0.0159548
707.488	0.0165963
707.567	0.0173295
707.645	0.0178099
707.723	0.0181438
707.801	0.0186059
707.879	0.0191032
707.957	0.0193420
708.035	0.0194599
708.113	0.0195399
708.192	0.0197026
708.270	0.0195181
708.348	0.0193926
708.426	0.0192506
708.504	0.0188450
708.582	0.0186032
708.660	0.0182706
708.738	0.0178656
708.817	0.0175291
708.895	0.0171534
708.973	0.0167996
709.051	0.0167612
709.129	0.0167118
709.207	0.0166841
709.285	0.0169777
709.363	0.0172648
709.442	0.0174568
709.520	0.0178415
709.598	0.0183752
709.676	0.0188249
709.754	0.0192909
709.832	0.0196704
709.910	0.0201807
709.988	0.0205997
710.067	0.0207899
710.145	0.0208956
710.223	0.0207908
710.301	0.0204990
710.379	0.0202538
710.457	0.0198151
710.535	0.0193332
710.613	0.0189086
710.692	0.0182619
710.770	0.0174940
710.848	0.0167149
710.926	0.0160983
711.004	0.0152851
711.082	0.0144849
711.160	0.0140056
711.238	0.0135267
711.317	0.0131873
711.395	0.0127587
711.473	0.0125706
711.551	0.0125739
711.629	0.0126446
711.707	0.0129567
711.785	0.0131857
711.863	0.0136166
711.942	0.0139104
712.020	0.0143462
712.098	0.0149032
712.176	0.0152248
712.254	0.0155148
712.332	0.0159474
712.410	0.0162502
712.488	0.0165180
712.567	0.0166084
712.645	0.0167296
712.723	0.0167575
712.801	0.0165567
712.879	0.0166072
712.957	0.0163866
713.035	0.0161211
713.113	0.0157998
713.192	0.0156501
713.270	0.0154510
713.348	0.0150928
713.426	0.0147894
713.504	0.0147134
713.582	0.0145092
713.660	0.0144622
713.738	0.0142161
713.817	0.0141865
713.895	0.0142385
713.973	0.0143247
714.051	0.0145769
714.129	0.0148959
714.207	0.0152129
714.285	0.0156396
714.363	0.0163318
714.442	0.0167670
714.520	0.0174400
714.598	0.0180405
714.676	0.0186501
714.754	0.0191784
714.832	0.0197556
714.910	0.0202919
714.988	0.0207352
715.067	0.0210875
715.145	0.0212398
715.223	0.0213115
715.301	0.0211670
715.379	0.0210091
715.457	0.0207166
715.535	0.0202596
715.613	0.0197056
715.692	0.0190733
715.770	0.0186936
715.848	0.0178514
715.926	0.0171492
716.004	0.0166294
716.082	0.0161314
716.160	0.0158424
716.238	0.0154556
716.317	0.0152336
716.395	0.0148447
716.473	0.0147979
716.551	0.0150052
716.629	0.0149400
716.707	0.0151249
716.785	0.0154658
716.863	0.0157877
716.942	0.0160732
717.020	0.0164316
717.098	0.0168929
717.176	0.0171776
717.254	0.0175864
717.332	0.0176770
717.410	0.0177998
717.488	0.0179451
717.567	0.0179157
717.645	0.0177756
717.723	0.0176020
717.801	0.0173161
717.879	0.0169375
717.957	0.0164723
718.035	0.0160020
718.113	0.0153744
718.192	0.0149725
718.270	0.0144226
718.348	0.0139606
718.426	0.0134868
718.504	0.0130910
718.582	0.0129207
718.660	0.0125461
718.738	0.0124908
718.817	0.0124456
718.895	0.0125051
718.973	0.0127638
719.051	0.0130416
719.129	0.0134378
719.207	0.0137085
719.285	0.0141714
719.363	0.0148886
719.442	0.0155344
719.520	0.0161158
719.598	0.0165821
719.676	0.0174245
719.754	0.0178128
719.832	0.0182311
719.910	0.0186656
719.988	0.0189444
720.067	0.0192489
720.145	0.0192644
720.223	0.0193458
720.301	0.0193099
720.379	0.0193137
720.457	0.0190921
720.535	0.0187510
720.613	0.0184471
720.692	0.0182880
720.770	0.0180459
720.848	0.0175201
720.926	0.0173244
721.004	0.0170148
721.082	0.0167426
721.160	0.0168049
721.238	0.0166659
721.317	0.0166808
721.395	0.0165667
721.473	0.0166121
721.551	0.0167042
721.629	0.0168894
721.707	0.0171105
721.785	0.0173868
721.863	0.0175016
721.942	0.0176909
722.020	0.0179483
722.098	0.0182304
722.176	0.0182368
722.254	0.0183476
722.332	0.0187708
722.410	0.0189375
722.488	0.0188191
722.567	0.0186821
722.645	0.0186403
722.723	0.0184084
722.801	0.0181237
722.879	0.0178153
722.957	0.0174091
723.035	0.0168077
723.113	0.0162112
723.192	0.0158079
723.270	0.0155012
723.348	0.0150344
723.426	0.0145531
723.504	0.0142112
723.582	0.0139500
723.660	0.0137155
723.738	0.0135429
723.817	0.0134621
723.895	0.0132854
723.973	0.0133707
724.051	0.0135732
724.129	0.0137246
724.207	0.0139915
724.285	0.0141491
724.363	0.0143887
724.442	0.0148182
724.520	0.0150265
724.598	0.0156853
724.676	0.0158342
724.754	0.0160903
724.832	0.0165210
724.910	0.0166871
724.988	0.0170380
725.067	0.0172380
725.145	0.0173666
725.223	0.0175176
725.301	0.0176118
725.379	0.0176328
725.457	0.0176048
725.535	0.0175212
725.613	0.0175140
725.692	0.0173637
725.770	0.0172616
725.848	0.0173195
725.926	0.0172957
726.004	0.0172032
726.082	0.0170213
726.160	0.0168823
726.238	0.0170654
726.317	0.0170689
726.395	0.0169683
726.473	0.0168871
726.551	0.0167265
726.629	0.0168208
726.707	0.0166984
726.785	0.0167351
726.863	0.0168116
726.942	0.0170529
727.020	0.0170583
727.098	0.0171398
727.176	0.0175201
727.254	0.0175198
727.332	0.0178045
727.410	0.0179253
727.488	0.0178952
727.567	0.0180599
727.645	0.0180708
727.723	0.0180622
727.801	0.0180194
727.879	0.0178723
727.957	0.0177052
728.035	0.0174203
728.113	0.0171070
728.192	0.0170016
728.270	0.0166106
728.348	0.0163329
728.426	0.0161072
728.504	0.0158096
728.582	0.0155215
728.660	0.0153326
728.738	0.0153020
728.817	0.0150584
728.895	0.0150697
728.973	0.0148950
729.051	0.0148973
729.129	0.0149733
729.207	0.0150711
729.285	0.0150662
729.363	0.0153138
729.442	0.0154633
729.520	0.0156270
729.598	0.0158361
729.676	0.0160030
729.754	0.0161047
729.832	0.0163263
729.910	0.0164990
729.988	0.0167513
730.067	0.0168267
730.145	0.0169809
730.223	0.0170535
730.301	0.0173508
730.379	0.0174232
730.457	0.0175089
730.535	0.0176209
730.613	0.0175147
730.692	0.0175574
730.770	0.0174926
730.848	0.0172697
730.926	0.0173645
731.004	0.0171987
731.082	0.0170912
731.160	0.0168799
731.238	0.0167241
731.317	0.0166797
731.395	0.0165930
731.473	0.0165992
731.551	0.0163982
731.629	0.0162844
731.707	0.0162812
731.785	0.0163074
731.863	0.0162576
731.942	0.0161863
732.020	0.0162119
732.098	0.0163145
732.176	0.0164125
732.254	0.0165154
732.332	0.0165577
732.410	0.0167576
732.488	0.0169655
732.567	0.0170721
732.645	0.0171129
732.723	0.0170633
732.801	0.0169754
732.879	0.0172005
732.957	0.0171558
733.035	0.0170358
733.113	0.0169944
733.192	0.0169728
733.270	0.0167280
733.348	0.0164750
733.426	0.0162970
733.504	0.0160918
733.582	0.0158590
733.660	0.0158879
733.738	0.0158502
733.817	0.0157860
733.895	0.0157601
733.973	0.0156844
734.051	0.0157407
734.129	0.0157717
734.207	0.0158450
734.285	0.0157191
734.363	0.0159402
734.442	0.0157617
734.520	0.0158993
734.598	0.0160548
734.676	0.0162413
734.754	0.0163206
734.832	0.0162710
734.910	0.0166251
734.988	0.0168234
735.067	0.0168694
735.145	0.0169825
735.223	0.0172073
735.301	0.0172765
735.379	0.0173683
735.457	0.0177879
735.535	0.0178664
735.613	0.0177402
735.692	0.0178030
735.770	0.0178600
735.848	0.0178425
735.926	0.0176745
736.004	0.0176288
736.082	0.0176846
736.160	0.0175099
736.238	0.0172533
736.317	0.0172367
736.395	0.0171307
736.473	0.0167850
736.551	0.0167104
736.629	0.0166019
736.707	0.0164879
736.785	0.0163646
736.863	0.0163472
736.942	0.0162300
737.020	0.0161143
737.098	0.0160235
737.176	0.0159628
737.254	0.0161470
737.332	0.0164286
737.410	0.0164799
737.488	0.0165507
737.567	0.0165654
737.645	0.0167022
737.723	0.0166389
737.801	0.0167790
737.879	0.0167519
737.957	0.0167965
738.035	0.0167989
738.113	0.0166838
738.192	0.0167816
738.270	0.0168059
738.348	0.0167706
738.426	0.0166673
738.504	0.0166861
738.582	0.0164456
738.660	0.0165974
738.738	0.0164343
738.817	0.0162502
738.895	0.0162354
738.973	0.0160576
739.051	0.0159763
739.129	0.0158983
739.207	0.0157267
739.285	0.0154793
739.363	0.0153558
739.442	0.0153071
739.520	0.0154317
739.598	0.0155460
739.676	0.0156027
739.754	0.0155441
739.832	0.0155668
739.910	0.0157156
739.988	0.0158730
740.067	0.0160576
740.145	0.0160353
740.223	0.0162888
740.301	0.0164246
740.379	0.0165981
740.457	0.0167814
740.535	0.0169898
740.613	0.0170276
740.692	0.0172018
740.770	0.0172980
740.848	0.0173438
740.926	0.0174160
741.004	0.0175262
741.082	0.0175399
741.160	0.0173025
741.238	0.0173900
741.317	0.0176269
741.395	0.0174601
741.473	0.0173980
741.551	0.0172456
741.629	0.0172319
741.707	0.0170797
741.785	0.0170697
741.863	0.0170617
741.942	0.0170952
742.020	0.0170450
742.098	0.0168804
742.176	0.0167314
742.254	0.0168253
742.332	0.0166911
742.410	0.0166290
742.488	0.0166504
742.567	0.0167066
742.645	0.0166760
742.723	0.0165933
742.801	0.0166091
742.879	0.0168102
742.957	0.0167600
743.035	0.0165351
743.113	0.0167326
743.192	0.0166567
743.270	0.0166257
743.348	0.0165462
743.426	0.0164735
743.504	0.0164301
743.582	0.0164629
743.660	0.0162807
743.738	0.0162420
743.817	0.0162212
743.895	0.0161518
743.973	0.0158797
744.051	0.0160249
744.129	0.0160394
744.207	0.0159156
744.285	0.0159669
744.363	0.0157900
744.442	0.0159441
744.520	0.0158288
744.598	0.0159187
744.676	0.0159108
744.754	0.0157635
744.832	0.0158543
744.910	0.0158866
744.988	0.0159900
745.067	0.0160754
745.145	0.0159807
745.223	0.0160232
745.301	0.0162664
745.379	0.0162475
745.457	0.0163469
745.535	0.0164204
745.613	0.0164381
745.692	0.0164794
745.770	0.0165295
745.848	0.0165929
745.926	0.0166750
746.004	0.0168221
746.082	0.0168915
746.160	0.0169144
746.238	0.0169005
746.317	0.0169650
746.395	0.0170957
746.473	0.0171510
746.551	0.0171339
746.629	0.0172104
746.707	0.0173753
746.785	0.0170786
746.863	0.0171097
746.942	0.0172291
747.020	0.0171268
747.098	0.0169747
747.176	0.0168212
747.254	0.0167773
747.332	0.0166729
747.410	0.0164694
747.488	0.0164003
747.567	0.0163306
747.645	0.0163145
747.723	0.0162305
747.801	0.0163544
747.879	0.0162310
747.957	0.0162326
748.035	0.0163817
748.113	0.0161293
748.192	0.0164144
748.270	0.0163483
748.348	0.0164645
748.426	0.0164623
748.504	0.0164686
748.582	0.0164792
748.660	0.0165458
748.738	0.0166296
748.817	0.0166934
748.895	0.0166786
748.973	0.0167838
749.051	0.0166528
749.129	0.0166727
749.207	0.0166698
749.285	0.0165713
749.363	0.0166985
749.442	0.0166469
749.520	0.0167134
749.598	0.0166383
749.676	0.0166139
749.754	0.0164976
749.832	0.0164961
749.910	0.0164902
749.988	0.0164272
750.067	0.0163599
750.145	0.0163050
750.223	0.0163752
750.301	0.0162227
750.379	0.0162388
750.457	0.0162186
750.535	0.0161955
750.613	0.0161723
750.692	0.0161784
750.770	0.0163494
750.848	0.0162614
750.926	0.0164451
751.004	0.0165766
751.082	0.0165476
751.160	0.0167422
751.238	0.0168076
751.317	0.0168372
751.395	0.0170597
751.473	0.0169788
751.551	0.0169685
751.629	0.0171121
751.707	0.0171201
751.785	0.0172011
751.863	0.0172534
751.942	0.0171091
752.020	0.0172030
752.098	0.0172098
752.176	0.0169989
752.254	0.0169639
752.332	0.0169054
752.410	0.0168987
752.488	0.0168732
752.567	0.0165178
752.645	0.0165031
752.723	0.0165314
752.801	0.0164415
752.879	0.0163776
752.957	0.0163156
753.035	0.0163376
753.113	0.0160575
753.192	0.0160528
753.270	0.0160844
753.348	0.0162083
753.426	0.0162163
753.504	0.0161037
753.582	0.0160797
753.660	0.0161737
753.738	0.0161500
753.817	0.0162478
753.895	0.0162591
753.973	0.0162710
754.051	0.0163282
754.129	0.0162887
754.207	0.0164400
754.285	0.0164005
754.363	0.0163804
754.442	0.0163910
754.520	0.0165600
754.598	0.0165977
754.676	0.0164209
754.754	0.0165340
754.832	0.0164126
754.910	0.0164822
754.988	0.0164700
755.067	0.0164760
755.145	0.0164614
755.223	0.0165050
755.301	0.0164458
755.379	0.0165309
755.457	0.0165390
755.535	0.0165384
755.613	0.0165005
755.692	0.0165066
755.770	0.0166272
755.848	0.0166643
755.926	0.0167018
756.004	0.0168035
756.082	0.0168374
756.160	0.0170268
756.238	0.0169882
756.317	0.0171849
756.395	0.0173141
756.473	0.0172408
756.551	0.0172472
756.629	0.0173983
756.707	0.0175065
756.785	0.0173418
756.863	0.0173296
756.942	0.0174592
757.020	0.0174426
757.098	0.0173612
757.176	0.0172914
757.254	0.0172568
757.332	0.0173337
757.410	0.0172335
757.488	0.0171511
757.567	0.0169812
757.645	0.0167907
757.723	0.0167544
757.801	0.0166618
757.879	0.0166238
757.957	0.0163403
758.035	0.0162305
758.113	0.0160197
758.192	0.0160561
758.270	0.0160611
758.348	0.0159816
758.426	0.0158622
758.504	0.0158583
758.582	0.0157864
758.660	0.0157489
758.738	0.0156850
758.817	0.0157598
758.895	0.0156530
758.973	0.0157780
759.051	0.0157653
759.129	0.0158532
759.207	0.0160126
759.285	0.0159467
759.363	0.0159327
759.442	0.0160577
759.520	0.0162183
759.598	0.0162136
759.676	0.0162585
759.754	0.0163071
759.832	0.0164066
759.910	0.0165335
759.988	0.0165044
760.067	0.0163111
760.145	0.0163512
760.223	0.0165081
760.301	0.0164481
760.379	0.0165454
760.457	0.0166953
760.535	0.0165971
760.613	0.0166189
760.692	0.0167171
760.770	0.0169952
760.848	0.0167867
760.926	0.0168813
761.004	0.0169608
761.082	0.0168964
761.160	0.0170907
761.238	0.0171645
761.317	0.0171075
761.395	0.0170619
761.473	0.0171082
761.551	0.0170313
761.629	0.0170358
761.707	0.0171532
761.785	0.0169978
761.863	0.0171648
761.942	0.0169093
762.020	0.0171008
762.098	0.0170375
762.176	0.0170383
762.254	0.0170985
762.332	0.0169620
762.410	0.0170576
762.488	0.0169450
762.567	0.0169252
762.645	0.0170146
762.723	0.0168575
762.801	0.0167308
762.879	0.0168097
762.957	0.0166920
763.035	0.0166466
763.113	0.0166929
763.192	0.0164149
763.270	0.0163465
763.348	0.0163085
763.426	0.0162328
763.504	0.0161044
763.582	0.0161996
763.660	0.0162282
763.738	0.0161761
763.817	0.0160802
763.895	0.0159862
763.973	0.0160856
764.051	0.0160340
764.129	0.0162300
764.207	0.0161144
764.285	0.0161165
764.363	0.0161758
764.442	0.0162087
764.520	0.0163376
764.598	0.0162305
764.676	0.0164728
764.754	0.0165078
764.832	0.0164908
764.910	0.0165310
764.988	0.0166002
765.067	0.0166591
765.145	0.0165994
765.223	0.0166339
765.301	0.0166436
765.379	0.0166766
765.457	0.0167196
765.535	0.0166721
765.613	0.0166647
765.692	0.0164923
765.770	0.0164925
765.848	0.0165858
765.926	0.0164146
766.004	0.0165457
766.082	0.0165184
766.160	0.0164320
766.238	0.0164783
766.317	0.0166846
766.395	0.0166039
766.473	0.0167065
766.551	0.0167821
766.629	0.0167536
766.707	0.0167603
766.785	0.0167224
766.863	0.0168209
766.942	0.0169078
767.020	0.0168943
767.098	0.0168674
767.176	0.0169639
767.254	0.0168621
767.332	0.0168598
767.410	0.0168678
767.488	0.0168362
767.567	0.0169631
767.645	0.0167619
767.723	0.0168712
767.801	0.0168932
767.879	0.0169514
767.957	0.0168602
768.035	0.0168414
768.113	0.0167151
768.192	0.0167439
768.270	0.0168307
768.348	0.0168179
768.426	0.0166470
768.504	0.0165461
768.582	0.0165334
768.660	0.0165815
768.738	0.0164162
768.817	0.0164812
768.895	0.0164079
768.973	0.0164487
769.051	0.0163183
769.129	0.0161337
769.207	0.0162236
769.285	0.0161134
769.363	0.0161350
769.442	0.0163017
769.520	0.0161511
769.598	0.0160852
769.676	0.0162218
769.754	0.0161988
769.832	0.0162920
769.910	0.0161874
769.988	0.0161529
770.067	0.0162863
770.145	0.0162492
770.223	0.0163829
770.301	0.0165503
770.379	0.0164883
770.457	0.0164128
770.535	0.0165613
770.613	0.0166238
770.692	0.0166560
770.770	0.0167698
770.848	0.0167848
770.926	0.0167498
771.004	0.0166762
771.082	0.0167458
771.160	0.0168683
771.238	0.0166942
771.317	0.0166277
771.395	0.0167198
771.473	0.0167544
771.551	0.0167566
771.629	0.0167989
771.707	0.0167210
771.785	0.0168196
771.863	0.0168114
771.942	0.0169205
772.020	0.0167256
772.098	0.0167229
772.176	0.0169107
772.254	0.0169880
772.332	0.0168678
772.410	0.0168391
772.488	0.0168173
772.567	0.0168004
772.645	0.0169624
772.723	0.0168898
772.801	0.0168320
772.879	0.0169954
772.957	0.0168805
773.035	0.0168296
773.113	0.0168246
773.192	0.0169111
773.270	0.0167145
773.348	0.0167660
773.426	0.0165803
773.504	0.0165225
773.582	0.0165372
773.660	0.0163639
773.738	0.0163271
773.817	0.0164524
773.895	0.0163390
773.973	0.0163727
774.051	0.0163184
774.129	0.0163280
774.207	0.0163964
774.285	0.0164122
774.363	0.0163526
774.442	0.0163840
774.520	0.0161806
774.598	0.0162527
774.676	0.0161827
774.754	0.0163648
774.832	0.0163564
774.910	0.0161932
774.988	0.0162651
775.067	0.0163118
775.145	0.0163303
775.223	0.0163599
775.301	0.0164755
775.379	0.0165774
775.457	0.0164620
775.535	0.0165829
775.613	0.0165578
775.692	0.0166608
775.770	0.0166422
775.848	0.0166235
775.926	0.0166678
776.004	0.0165903
776.082	0.0165494
776.160	0.0166090
776.238	0.0166747
776.317	0.0164776
776.395	0.0166064
776.473	0.0166013
776.551	0.0166090
776.629	0.0166164
776.707	0.0166242
776.785	0.0168217
776.863	0.0167549
776.942	0.0168214
777.020	0.0169674
777.098	0.0170645
777.176	0.0169609
777.254	0.0170123
777.332	0.0170084
777.410	0.0172081
777.488	0.0172132
777.567	0.0171584
777.645	0.0171360
777.723	0.0173206
777.801	0.0171137
777.879	0.0171339
777.957	0.0170065
778.035	0.0170966
778.113	0.0170350
778.192	0.0169758
778.270	0.0168336
778.348	0.0167432
778.426	0.0167819
778.504	0.0165778
778.582	0.0166243
778.660	0.0163802
778.738	0.0164645
778.817	0.0164462
778.895	0.0162991
778.973	0.0162432
779.051	0.0161813
779.129	0.0161349
779.207	0.0160878
779.285	0.0161803
779.363	0.0160401
779.442	0.0160532
779.520	0.0161326
779.598	0.0159951
779.676	0.0159691
779.754	0.0160197
779.832	0.0158759
779.910	0.0159943
779.988	0.0160587
780.067	0.0161718
780.145	0.0161321
780.223	0.0163105
780.301	0.0163342
780.379	0.0164082
780.457	0.0164577
780.535	0.0163921
780.613	0.0165300
780.692	0.0165289
780.770	0.0166425
780.848	0.0166737
780.926	0.0167808
781.004	0.0167898
781.082	0.0169230
781.160	0.0168723
781.238	0.0168663
781.317	0.0170479
781.395	0.0171223
781.473	0.0171684
781.551	0.0170679
781.629	0.0170792
781.707	0.0171094
781.785	0.0171703
781.863	0.0172441
781.942	0.0172696
782.020	0.0170699
782.098	0.0170799
782.176	0.0172111
782.254	0.0170524
782.332	0.0170383
782.410	0.0172180
782.488	0.0171772
782.567	0.0170507
782.645	0.0169933
782.723	0.0170831
782.801	0.0170744
782.879	0.0168307
782.957	0.0169087
783.035	0.0168833
783.113	0.0166730
783.192	0.0167336
783.270	0.0165009
783.348	0.0164806
783.426	0.0164455
783.504	0.0162411
783.582	0.0161393
783.660	0.0160316
783.738	0.0160069
783.817	0.0158852
783.895	0.0157597
783.973	0.0155422
784.051	0.0155818
784.129	0.0156005
784.207	0.0154298
784.285	0.0153854
784.363	0.0154679
784.442	0.0155382
784.520	0.0155285
784.598	0.0155872
784.676	0.0157790
784.754	0.0158494
784.832	0.0160275
784.910	0.0163474
784.988	0.0166264
785.067	0.0165424
785.145	0.0167856
785.223	0.0172102
785.301	0.0174488
785.379	0.0174454
785.457	0.0175582
785.535	0.0177565
785.613	0.0177201
785.692	0.0178918
785.770	0.0178251
785.848	0.0179108
785.926	0.0177557
786.004	0.0178442
786.082	0.0177861
786.160	0.0175890
786.238	0.0173740
786.317	0.0175005
786.395	0.0174710
786.473	0.0172476
786.551	0.0170148
786.629	0.0170100
786.707	0.0167923
786.785	0.0166846
786.863	0.0168920
786.942	0.0166077
787.020	0.0163596
787.098	0.0163548
787.176	0.0163642
787.254	0.0163206
787.332	0.0162068
787.410	0.0161722
787.488	0.0162585
787.567	0.0160503
787.645	0.0160088
787.723	0.0160279
787.801	0.0158012
787.879	0.0158850
787.957	0.0160098
788.035	0.0158460
788.113	0.0158566
788.192	0.0157880
788.270	0.0157618
788.348	0.0156481
788.426	0.0157558
788.504	0.0157397
788.582	0.0158842
788.660	0.0157652
788.738	0.0158075
788.817	0.0158440
788.895	0.0159863
788.973	0.0158455
789.051	0.0159751
789.129	0.0160415
789.207	0.0160797
789.285	0.0162561
789.363	0.0163630
789.442	0.0166104
789.520	0.0167939
789.598	0.0166306
789.676	0.0168842
789.754	0.0171528
789.832	0.0173161
789.910	0.0174875
789.988	0.0175711
790.067	0.0177009
790.145	0.0178877
790.223	0.0177285
790.301	0.0178828
790.379	0.0180712
790.457	0.0179884
790.535	0.0179469
790.613	0.0180019
790.692	0.0179466
790.770	0.0179345
790.848	0.0176962
790.926	0.0176310
791.004	0.0176579
791.082	0.0175460
791.160	0.0172653
791.238	0.0170632
791.317	0.0169549
791.395	0.0167819
791.473	0.0165252
791.551	0.0165117
791.629	0.0162150
791.707	0.0160040
791.785	0.0160894
791.863	0.0159744
791.942	0.0159081
792.020	0.0157805
792.098	0.0158480
792.176	0.0158798
792.254	0.0158555
792.332	0.0158942
792.410	0.0158701
792.488	0.0158161
792.567	0.0158311
792.645	0.0157237
792.723	0.0158002
792.801	0.0157131
792.879	0.0158609
792.957	0.0155702
793.035	0.0155206
793.113	0.0156490
793.192	0.0156715
793.270	0.0155910
793.348	0.0154861
793.426	0.0156530
793.504	0.0157661
793.582	0.0156717
793.660	0.0158277
793.738	0.0158128
793.817	0.0157887
793.895	0.0159056
793.973	0.0160646
794.051	0.0160837
794.129	0.0162661
794.207	0.0162102
794.285	0.0165575
794.363	0.0167319
794.442	0.0169072
794.520	0.0170721
794.598	0.0174084
794.676	0.0175853
794.754	0.0177882
794.832	0.0178806
794.910	0.0181519
794.988	0.0182471
795.067	0.0183355
795.145	0.0185310
795.223	0.0183357
795.301	0.0183067
795.379	0.0182655
795.457	0.0181063
795.535	0.0179568
795.613	0.0178230
795.692	0.0177774
795.770	0.0176534
795.848	0.0174206
795.926	0.0173083
796.004	0.0171943
796.082	0.0170319
796.160	0.0169584
796.238	0.0166996
796.317	0.0165141
796.395	0.0164266
796.473	0.0164454
796.551	0.0162259
796.629	0.0162247
796.707	0.0162418
796.785	0.0160571
796.863	0.0159814
796.942	0.0160216
797.020	0.0161077
797.098	0.0161008
797.176	0.0160583
797.254	0.0159673
797.332	0.0161205
797.410	0.0160568
797.488	0.0159557
797.567	0.0158814
797.645	0.0158578
797.723	0.0157851
797.801	0.0157085
797.879	0.0156240
797.957	0.0157265
798.035	0.0155743
798.113	0.0155278
798.192	0.0156844
798.270	0.0156853
798.348	0.0156530
798.426	0.0157463
798.504	0.0157853
798.582	0.0157937
798.660	0.0158408
798.738	0.0160899
798.817	0.0160801
798.895	0.0162054
798.973	0.0162693
799.051	0.0162729
799.129	0.0162565
799.207	0.0166169
799.285	0.0166776
799.363	0.0167297
799.442	0.0167486
799.520	0.0169198
799.598	0.0169637
799.676	0.0170590
799.754	0.0172073
799.832	0.0172529
799.910	0.0172951
799.988	0.0173499
800.067	0.0174837
800.145	0.0174022
800.223	0.0173134
800.301	0.0173698
800.379	0.0172485
800.457	0.0173138
800.535	0.0172206
800.613	0.0171561
800.692	0.0171700
800.770	0.0172550
800.848	0.0172600
800.926	0.0171423
801.004	0.0169666
801.082	0.0172110
801.160	0.0173672
801.238	0.0173007
801.317	0.0172298
801.395	0.0171155
801.473	0.0171682
801.551	0.0171222
801.629	0.0170934
801.707	0.0171667
801.785	0.0170981
801.863	0.0170336
801.942	0.0168761
802.020	0.0168893
802.098	0.0167570
802.176	0.0167675
802.254	0.0167422
802.332	0.0165897
802.410	0.0164632
802.488	0.0163390
802.567	0.0163680
802.645	0.0162380
802.723	0.0161340
802.801	0.0160110
802.879	0.0159941
802.957	0.0158542
803.035	0.0159107
803.113	0.0158102
803.192	0.0158813
803.270	0.0158986
803.348	0.0157632
803.426	0.0156746
803.504	0.0157861
803.582	0.0157223
803.660	0.0158299
803.738	0.0158500
803.817	0.0158208
803.895	0.0159186
803.973	0.0159977
804.051	0.0159769
804.129	0.0161103
804.207	0.0161450
804.285	0.0161909
804.363	0.0163577
804.442	0.0162885
804.520	0.0164835
804.598	0.0163967
804.676	0.0164390
804.754	0.0165248
804.832	0.0165387
804.910	0.0164851
804.988	0.0165647
805.067	0.0165354
805.145	0.0168163
805.223	0.0166978
805.301	0.0168066
805.379	0.0168374
805.457	0.0168700
805.535	0.0169854
805.613	0.0170329
805.692	0.0171387
805.770	0.0170669
805.848	0.0171770
805.926	0.0172066
806.004	0.0174007
806.082	0.0173997
806.160	0.0174963
806.238	0.0175215
806.317	0.0175943
806.395	0.0175662
806.473	0.0175401
806.551	0.0175565
806.629	0.0175951
806.707	0.0176865
806.785	0.0174348
806.863	0.0174173
806.942	0.0172517
807.020	0.0172530
807.098	0.0173308
807.176	0.0172408
807.254	0.0170576
807.332	0.0170590
807.410	0.0169146
807.488	0.0168216
807.567	0.0167733
807.645	0.0166070
807.723	0.0164361
807.801	0.0165990
807.879	0.0163316
807.957	0.0165346
808.035	0.0162723
808.113	0.0161179
808.192	0.0160873
808.270	0.0160276
808.348	0.0160312
808.426	0.0159446
808.504	0.0159885
808.582	0.0159274
808.660	0.0158390
808.738	0.0158482
808.817	0.0158810
808.895	0.0158347
808.973	0.0158217
809.051	0.0156855
809.129	0.0156969
809.207	0.0156467
809.285	0.0158222
809.363	0.0157855
809.442	0.0159195
809.520	0.0157815
809.598	0.0158604
809.676	0.0160319
809.754	0.0161458
809.832	0.0159356
809.910	0.0158701
809.988	0.0160875
810.067	0.0161125
810.145	0.0163062
810.223	0.0162296
810.301	0.0162419
810.379	0.0163974
810.457	0.0165833
810.535	0.0166024
810.613	0.0165373
810.692	0.0169569
810.770	0.0168954
810.848	0.0170017
810.926	0.0170656
811.004	0.0172993
811.082	0.0173155
811.160	0.0173817
811.238	0.0174465
811.317	0.0176490
811.395	0.0176900
811.473	0.0175166
811.551	0.0176141
811.629	0.0176643
811.707	0.0176508
811.785	0.0175520
811.863	0.0174422
811.942	0.0174039
812.020	0.0172871
812.098	0.0172551
812.176	0.0171104
812.254	0.0170641
812.332	0.0169962
812.410	0.0171217
812.488	0.0168974
812.567	0.0167284
812.645	0.0166689
812.723	0.0167307
812.801	0.0166816
812.879	0.0167413
812.957	0.0166513
813.035	0.0166228
813.113	0.0165924
813.192	0.0165932
813.270	0.0165625
813.348	0.0165768
813.426	0.0165010
813.504	0.0165132
813.582	0.0164468
813.660	0.0162711
813.738	0.0163356
813.817	0.0163523
813.895	0.0162952
813.973	0.0162151
814.051	0.0161322
814.129	0.0160144
814.207	0.0159400
814.285	0.0159215
814.363	0.0158321
814.442	0.0158340
814.520	0.0155753
814.598	0.0156208
814.676	0.0157281
814.754	0.0156988
814.832	0.0155952
814.910	0.0155857
814.988	0.0157860
815.067	0.0157294
815.145	0.0157993
815.223	0.0157964
815.301	0.0159954
815.379	0.0161087
815.457	0.0162759
815.535	0.0163336
815.613	0.0163880
815.692	0.0164236
815.770	0.0164868
815.848	0.0165828
815.926	0.0166600
816.004	0.0167712
816.082	0.0168533
816.160	0.0169654
816.238	0.0168488
816.317	0.0170368
816.395	0.0170057
816.473	0.0170776
816.551	0.0171181
816.629	0.0171265
816.707	0.0171572
816.785	0.0172121
816.863	0.0173048
816.942	0.0172352
817.020	0.0170737
817.098	0.0172033
817.176	0.0173429
817.254	0.0171403
817.332	0.0172295
817.410	0.0172451
817.488	0.0171418
817.567	0.0171063
817.645	0.0173184
817.723	0.0172218
817.801	0.0171675
817.879	0.0170393
817.957	0.0169347
818.035	0.0169337
818.113	0.0169977
818.192	0.0167411
818.270	0.0167003
818.348	0.0166953
818.426	0.0167459
818.504	0.0164867
818.582	0.0165283
818.660	0.0165860
818.738	0.0165022
818.817	0.0164445
818.895	0.0164489
818.973	0.0164491
819.051	0.0163647
819.129	0.0162981
819.207	0.0163708
819.285	0.0162573
819.363	0.0162890
819.442	0.0162052
819.520	0.0160438
819.598	0.0161257
819.676	0.0160981
819.754	0.0161535
819.832	0.0161127
819.910	0.0161617
819.988	0.0159831
820.067	0.0161263
820.145	0.0160416
820.223	0.0160301
820.301	0.0160267
820.379	0.0160005
820.457	0.0161214
820.535	0.0160965
820.613	0.0162142
820.692	0.0161459
820.770	0.0163339
820.848	0.0161309
820.926	0.0162837
821.004	0.0164351
821.082	0.0164545
821.160	0.0164385
821.238	0.0162932
821.317	0.0164088
821.395	0.0165884
821.473	0.0165424
821.551	0.0166874
821.629	0.0167297
821.707	0.0166190
821.785	0.0166189
821.863	0.0167715
821.942	0.0167732
822.020	0.0168452
822.098	0.0168916
822.176	0.0168709
822.254	0.0168852
822.332	0.0167448
822.410	0.0169183
822.488	0.0169418
822.567	0.0168454
822.645	0.0169227
822.723	0.0168775
822.801	0.0169746
822.879	0.0170129
822.957	0.0169697
823.035	0.0168681
823.113	0.0167435
823.192	0.0168495
823.270	0.0167777
823.348	0.0168243
823.426	0.0168187
823.504	0.0166853
823.582	0.0167133
823.660	0.0166174
823.738	0.0165829
823.817	0.0165511
823.895	0.0166745
823.973	0.0165729
824.051	0.0164432
824.129	0.0164524
824.207	0.0165469
824.285	0.0166251
824.363	0.0164452
824.442	0.0165472
824.520	0.0165224
824.598	0.0165439
824.676	0.0165241
824.754	0.0165217
824.832	0.0165269
824.910	0.0164889
824.988	0.0164880
825.067	0.0165405
825.145	0.0166002
825.223	0.0165176
825.301	0.0164778
825.379	0.0164862
825.457	0.0165586
825.535	0.0163471
825.613	0.0164054
825.692	0.0164403
825.770	0.0163093
825.848	0.0164689
825.926	0.0162926
826.004	0.0161936
826.082	0.0161811
826.160	0.0162979
826.238	0.0162488
826.317	0.0163821
826.395	0.0163427
826.473	0.0163270
826.551	0.0165900
826.629	0.0164807
826.707	0.0166501
826.785	0.0166449
826.863	0.0167875
826.942	0.0167765
827.020	0.0167158
827.098	0.0167486
827.176	0.0168445
827.254	0.0166901
827.332	0.0167009
827.410	0.0166730
827.488	0.0167071
827.567	0.0167863
827.645	0.0166561
827.723	0.0166193
827.801	0.0167524
827.879	0.0166927
827.957	0.0166471
828.035	0.0166735
828.113	0.0165923
828.192	0.0167247
828.270	0.0166819
828.348	0.0166531
828.426	0.0167339
828.504	0.0167030
828.582	0.0165440
828.660	0.0164561
828.738	0.0166786
828.817	0.0164960
828.895	0.0165845
828.973	0.0164946
829.051	0.0165327
829.129	0.0164701
829.207	0.0166193
829.285	0.0163290
829.363	0.0162868
829.442	0.0164146
829.520	0.0164394
829.598	0.0163557
829.676	0.0163467
829.754	0.0162631
829.832	0.0162827
829.910	0.0163537
829.988	0.0163309
830.067	0.0162362
830.145	0.0161837
830.223	0.0162490
830.301	0.0163872
830.379	0.0163373
830.457	0.0163697
830.535	0.0164261
830.613	0.0164793
830.692	0.0165464
830.770	0.0165332
830.848	0.0166456
830.926	0.0167256
831.004	0.0167558
831.082	0.0168051
831.160	0.0167788
831.238	0.0168828
831.317	0.0169324
831.395	0.0170688
831.473	0.0170634
831.551	0.0170993
831.629	0.0169988
831.707	0.0170497
831.785	0.0170898
831.863	0.0170689
831.942	0.0170608
832.020	0.0170831
832.098	0.0169846
832.176	0.0171219
832.254	0.0170335
832.332	0.0169548
832.410	0.0169666
832.488	0.0169027
832.567	0.0169010
832.645	0.0167358
832.723	0.0167286
832.801	0.0167368
832.879	0.0167877
832.957	0.0166340
833.035	0.0165339
833.113	0.0166611
833.192	0.0164187
833.270	0.0164027
833.348	0.0164051
833.426	0.0163406
833.504	0.0163165
833.582	0.0163612
833.660	0.0164087
833.738	0.0161948
833.817	0.0163521
833.895	0.0163445
833.973	0.0161617
834.051	0.0162600
834.129	0.0163337
834.207	0.0162375
834.285	0.0161496
834.363	0.0161635
834.442	0.0160499
834.520	0.0161783
834.598	0.0161964
834.676	0.0162566
834.754	0.0161966
834.832	0.0161173
834.910	0.0160973
834.988	0.0161584
835.067	0.0162436
835.145	0.0161008
835.223	0.0162494
835.301	0.0161330
835.379	0.0163052
835.457	0.0162852
835.535	0.0164070
835.613	0.0166058
835.692	0.0166199
835.770	0.0167278
835.848	0.0167656
835.926	0.0167413
836.004	0.0168097
836.082	0.0168543
836.160	0.0167873
836.238	0.0169659
836.317	0.0169901
836.395	0.0170132
836.473	0.0169555
836.551	0.0171310
836.629	0.0170611
836.707	0.0170068
836.785	0.0169813
836.863	0.0170190
836.942	0.0169888
837.020	0.0168177
837.098	0.0168696
837.176	0.0169318
837.254	0.0169582
837.332	0.0167751
837.410	0.0167605
837.488	0.0167561
837.567	0.0166818
837.645	0.0168196
837.723	0.0167314
837.801	0.0167171
837.879	0.0166147
837.957	0.0166322
838.035	0.0165395
838.113	0.0166857
838.192	0.0165137
838.270	0.0164863
838.348	0.0165192
838.426	0.0165366
838.504	0.0164820
838.582	0.0163524
838.660	0.0164385
838.738	0.0164558
838.817	0.0162972
838.895	0.0162469
838.973	0.0163625
839.051	0.0163315
839.129	0.0164526
839.207	0.0163844
839.285	0.0163565
839.363	0.0163836
839.442	0.0163304
839.520	0.0163175
839.598	0.0162785
839.676	0.0162988
839.754	0.0164426
839.832	0.0163322
839.910	0.0162971
839.988	0.0163364
840.067	0.0164281
840.145	0.0161771
840.223	0.0163289
840.301	0.0162798
840.379	0.0163720
840.457	0.0163708
840.535	0.0164847
840.613	0.0164003
840.692	0.0165404
840.770	0.0165618
840.848	0.0164217
840.926	0.0165792
841.004	0.0165730
841.082	0.0166943
841.160	0.0165498
841.238	0.0165593
841.317	0.0168441
841.395	0.0167361
841.473	0.0167245
841.551	0.0166788
841.629	0.0167361
841.707	0.0168059
841.785	0.0169130
841.863	0.0167624
841.942	0.0168803
842.020	0.0166954
842.098	0.0166708
842.176	0.0166758
842.254	0.0168154
842.332	0.0166682
842.410	0.0167434
842.488	0.0165826
842.567	0.0166238
842.645	0.0165845
842.723	0.0166652
842.801	0.0167171
842.879	0.0165966
842.957	0.0166162
843.035	0.0167159
843.113	0.0166486
843.192	0.0165827
843.270	0.0166470
843.348	0.0165781
843.426	0.0165582
843.504	0.0165152
843.582	0.0165694
843.660	0.0164588
843.738	0.0163853
843.817	0.0163847
843.895	0.0163849
843.973	0.0164528
844.051	0.0164705
844.129	0.0163367
844.207	0.0163808
844.285	0.0162627
844.363	0.0163738
844.442	0.0164230
844.520	0.0164178
844.598	0.0164135
844.676	0.0163879
844.754	0.0162743
844.832	0.0163547
844.910	0.0163382
844.988	0.0163580
845.067	0.0165156
845.145	0.0164698
845.223	0.0164539
845.301	0.0164923
845.379	0.0164893
845.457	0.0164781
845.535	0.0165586
845.613	0.0165939
845.692	0.0165039
845.770	0.0164999
845.848	0.0164274
845.926	0.0165495
846.004	0.0165501
846.082	0.0166334
846.160	0.0166960
846.238	0.0166469
846.317	0.0165212
846.395	0.0165523
846.473	0.0165484
846.551	0.0166581
846.629	0.0165784
846.707	0.0165427
846.785	0.0165837
846.863	0.0166750
846.942	0.0165790
847.020	0.0166132
847.098	0.0166624
847.176	0.0166435
847.254	0.0166547
847.332	0.0166589
847.410	0.0169025
847.488	0.0167400
847.567	0.0167724
847.645	0.0168124
847.723	0.0169389
847.801	0.0167728
847.879	0.0167832
847.957	0.0168161
848.035	0.0167474
848.113	0.0167274
848.192	0.0167509
848.270	0.0167780
848.348	0.0166399
848.426	0.0166856
848.504	0.0168069
848.582	0.0164989
848.660	0.0165128
848.738	0.0166809
848.817	0.0165808
848.895	0.0163925
848.973	0.0163898
849.051	0.0165342
849.129	0.0164359
849.207	0.0164375
849.285	0.0164405
849.363	0.0164632
849.442	0.0165835
849.520	0.0166124
849.598	0.0165049
849.676	0.0164998
849.754	0.0164560
849.832	0.0164732
849.910	0.0165165
849.988	0.0166146
850.067	0.0165067
850.145	0.0164803
850.223	0.0163223
850.301	0.0165361
850.379	0.0165752
850.457	0.0164565
850.535	0.0164126
850.613	0.0165224
850.692	0.0163287
850.770	0.0163326
850.848	0.0162854
850.926	0.0161578
851.004	0.0162389
851.082	0.0162700
851.160	0.0162704
851.238	0.0163327
851.317	0.0163107
851.395	0.0161905
851.473	0.0162473
851.551	0.0161938
851.629	0.0163077
851.707	0.0163691
851.785	0.0163973
851.863	0.0166098
851.942	0.0165380
852.020	0.0166337
852.098	0.0166393
852.176	0.0165971
852.254	0.0167426
852.332	0.0167061
852.410	0.0167356
852.488	0.0168858
852.567	0.0168844
852.645	0.0168615
852.723	0.0169788
852.801	0.0168548
852.879	0.0166975
852.957	0.0169319
853.035	0.0168821
853.113	0.0168632
853.192	0.0168498
853.270	0.0168625
853.348	0.0166776
853.426	0.0167943
853.504	0.0168862
853.582	0.0168179
853.660	0.0167872
853.738	0.0166550
853.817	0.0166106
853.895	0.0167472
853.973	0.0168159
854.051	0.0167442
854.129	0.0167152
854.207	0.0166634
854.285	0.0167213
854.363	0.0166393
854.442	0.0166790
854.520	0.0167247
854.598	0.0167022
854.676	0.0165573
854.754	0.0165575
854.832	0.0164194
854.910	0.0164931
854.988	0.0165249
855.067	0.0165199
855.145	0.0164964
855.223	0.0165076
855.301	0.0164263
855.379	0.0165441
855.457	0.0165167
855.535	0.0166027
855.613	0.0165015
855.692	0.0163776
855.770	0.0164072
855.848	0.0163388
855.926	0.0165020
856.004	0.0164051
856.082	0.0164201
856.160	0.0162444
856.238	0.0162438
856.317	0.0163673
856.395	0.0163524
856.473	0.0164190
856.551	0.0164034
856.629	0.0165254
856.707	0.0163882
856.785	0.0164410
856.863	0.0164378
856.942	0.0164799
857.020	0.0164240
857.098	0.0164286
857.176	0.0164521
857.254	0.0164083
857.332	0.0165162
857.410	0.0164334
857.488	0.0164050
857.567	0.0164769
857.645	0.0165838
857.723	0.0164870
857.801	0.0164465
857.879	0.0165663
857.957	0.0165470
858.035	0.0165547
858.113	0.0165537
858.192	0.0165913
858.270	0.0165636
858.348	0.0165781
858.426	0.0166589
858.504	0.0167075
858.582	0.0166060
858.660	0.0166495
858.738	0.0168349
858.817	0.0167314
858.895	0.0168298
858.973	0.0167661
859.051	0.0169008
859.129	0.0167738
859.207	0.0168075
859.285	0.0166824
859.363	0.0168423
859.442	0.0166929
859.520	0.0167756
859.598	0.0167569
859.676	0.0168638
859.754	0.0167297
859.832	0.0169041
859.910	0.0166569
859.988	0.0166674
860.067	0.0167119
860.145	0.0166070
860.223	0.0165691
860.301	0.0166381
860.379	0.0165275
860.457	0.0165091
860.535	0.0164470
860.613	0.0164800
860.692	0.0164909
860.770	0.0163841
860.848	0.0164545
860.926	0.0164682
861.004	0.0165794
861.082	0.0165196
861.160	0.0165809
861.238	0.0167635
861.317	0.0165521
861.395	0.0166626
861.473	0.0167695
861.551	0.0166875
861.629	0.0167123
861.707	0.0166882
861.785	0.0166460
861.863	0.0168150
861.942	0.0166882
862.020	0.0166740
862.098	0.0166567
862.176	0.0167169
862.254	0.0167408
862.332	0.0165876
862.410	0.0166553
862.488	0.0164910
862.567	0.0164394
862.645	0.0166144
862.723	0.0165240
862.801	0.0166180
862.879	0.0166304
862.957	0.0166969
863.035	0.0165003
863.113	0.0163948
863.192	0.0165369
863.270	0.0165286
863.348	0.0165496
863.426	0.0164899
863.504	0.0165255
863.582	0.0164684
863.660	0.0164534
863.738	0.0164268
863.817	0.0163348
863.895	0.0166447
863.973	0.0165381
864.051	0.0164631
864.129	0.0165572
864.207	0.0165766
864.285	0.0164807
864.363	0.0164849
864.442	0.0163612
864.520	0.0164454
864.598	0.0163985
864.676	0.0165080
864.754	0.0165558
864.832	0.0165978
864.910	0.0165382
864.988	0.0165440
865.067	0.0163248
865.145	0.0166456
865.223	0.0165261
865.301	0.0165539
865.379	0.0166226
865.457	0.0167751
865.535	0.0167685
865.613	0.0168118
865.692	0.0169621
865.770	0.0167757
865.848	0.0169338
865.926	0.0168919
866.004	0.0169389
866.082	0.0168797
866.160	0.0169795
866.238	0.0168954
866.317	0.0172350
866.395	0.0171295
866.473	0.0170099
866.551	0.0170061
866.629	0.0170605
866.707	0.0169676
866.785	0.0170276
866.863	0.0169099
866.942	0.0169667
867.020	0.0168430
867.098	0.0169115
867.176	0.0168311
867.254	0.0167184
867.332	0.0166912
867.410	0.0165376
867.488	0.0165902
867.567	0.0166942
867.645	0.0163772
867.723	0.0161723
867.801	0.0161736
867.879	0.0163126
867.957	0.0161913
868.035	0.0159316
868.113	0.0159227
868.192	0.0160167
868.270	0.0159284
868.348	0.0159176
868.426	0.0159278
868.504	0.0160403
868.582	0.0161092
868.660	0.0161327
868.738	0.0161454
868.817	0.0160783
868.895	0.0162617
868.973	0.0163865
869.051	0.0164335
869.129	0.0164706
869.207	0.0164719
869.285	0.0166088
869.363	0.0166176
869.442	0.0168659
869.520	0.0167798
869.598	0.0168772
869.676	0.0170010
869.754	0.0169474
869.832	0.0169718
869.910	0.0170244
869.988	0.0169487
870.067	0.0169421
870.145	0.0169749
870.223	0.0168523
870.301	0.0168867
870.379	0.0169088
870.457	0.0166822
870.535	0.0167934
870.613	0.0168067
870.692	0.0168562
870.770	0.0169138
870.848	0.0166732
870.926	0.0166879
871.004	0.0167414
871.082	0.0167970
871.160	0.0167727
871.238	0.0167536
871.317	0.0167767
871.395	0.0166732
871.473	0.0165600
871.551	0.0165822
871.629	0.0165043
871.707	0.0166383
871.785	0.0167082
871.863	0.0165751
871.942	0.0166582
872.020	0.0167843
872.098	0.0166698
872.176	0.0167649
872.254	0.0167375
872.332	0.0166270
872.410	0.0166039
872.488	0.0166286
872.567	0.0165123
872.645	0.0165034
872.723	0.0162852
872.801	0.0163784
872.879	0.0162684
872.957	0.0162521
873.035	0.0161813
873.113	0.0162634
873.192	0.0160425
873.270	0.0161633
873.348	0.0162080
873.426	0.0162798
873.504	0.0162579
873.582	0.0164746
873.660	0.0164741
873.738	0.0166258
873.817	0.0166071
873.895	0.0166575
873.973	0.0166168
874.051	0.0168745
874.129	0.0168758
874.207	0.0168254
874.285	0.0166759
874.363	0.0167693
874.442	0.0167356
874.520	0.0166467
874.598	0.0165359
874.676	0.0166358
874.754	0.0167281
874.832	0.0165039
874.910	0.0164827
874.988	0.0164739
875.067	0.0164438
875.145	0.0165055
875.223	0.0164833
875.301	0.0167466
875.379	0.0166027
875.457	0.0166412
875.535	0.0167421
875.613	0.0167249
875.692	0.0168891
875.770	0.0168052
875.848	0.0168960
875.926	0.0169049
876.004	0.0168864
876.082	0.0167679
876.160	0.0167851
876.238	0.0168288
876.317	0.0168128
876.395	0.0167070
876.473	0.0168191
876.551	0.0170348
876.629	0.0168486
876.707	0.0168110
876.785	0.0167414
876.863	0.0168541
876.942	0.0169028
877.020	0.0168160
877.098	0.0166749
877.176	0.0166117
877.254	0.0165447
877.332	0.0166088
877.410	0.0166520
877.488	0.0166113
877.567	0.0167517
877.645	0.0164748
877.723	0.0167619
877.801	0.0165667
877.879	0.0166015
877.957	0.0165936
878.035	0.0165250
878.113	0.0166290
878.192	0.0166833
878.270	0.0165010
878.348	0.0164760
878.426	0.0165836
878.504	0.0166050
878.582	0.0163792
878.660	0.0164581
878.738	0.0163557
878.817	0.0162490
878.895	0.0161936
878.973	0.0161131
879.051	0.0160973
879.129	0.0159974
879.207	0.0158566
879.285	0.0158167
879.363	0.0158088
879.442	0.0158113
879.520	0.0157889
879.598	0.0159013
879.676	0.0158477
879.754	0.0159924
879.832	0.0161189
879.910	0.0161856
879.988	0.0164790
880.067	0.0165427
880.145	0.0167868
880.223	0.0170705
880.301	0.0173521
880.379	0.0174673
880.457	0.0177110
880.535	0.0178623
880.613	0.0179835
880.692	0.0180428
880.770	0.0179575
880.848	0.0179319
880.926	0.0176841
881.004	0.0175086
881.082	0.0174229
881.160	0.0172523
881.238	0.0170467
881.317	0.0168883
881.395	0.0166270
881.473	0.0164270
881.551	0.0162862
881.629	0.0160654
881.707	0.0159664
881.785	0.0159412
881.863	0.0159703
881.942	0.0159960
882.020	0.0158553
882.098	0.0157767
882.176	0.0159785
882.254	0.0159981
882.332	0.0159695
882.410	0.0160665
882.488	0.0160568
882.567	0.0162335
882.645	0.0163259
882.723	0.0164335
882.801	0.0162398
882.879	0.0165040
882.957	0.0166551
883.035	0.0165540
883.113	0.0166032
883.192	0.0167300
883.270	0.0167458
883.348	0.0168976
883.426	0.0167810
883.504	0.0168392
883.582	0.0169616
883.660	0.0167775
883.738	0.0167371
883.817	0.0167877
883.895	0.0166021
883.973	0.0166427
884.051	0.0166128
884.129	0.0165429
884.207	0.0165479
884.285	0.0163897
884.363	0.0162854
884.442	0.0162433
884.520	0.0163114
884.598	0.0164028
884.676	0.0164654
884.754	0.0165754
884.832	0.0167111
884.910	0.0167422
884.988	0.0169835
885.067	0.0169749
885.145	0.0170445
885.223	0.0172233
885.301	0.0174048
885.379	0.0176200
885.457	0.0176833
885.535	0.0175393
885.613	0.0174595
885.692	0.0173953
885.770	0.0173327
885.848	0.0170220
885.926	0.0168491
886.004	0.0167153
886.082	0.0166080
886.160	0.0163391
886.238	0.0161832
886.317	0.0160484
886.395	0.0160641
886.473	0.0159452
886.551	0.0157095
886.629	0.0157674
886.707	0.0157617
886.785	0.0156974
886.863	0.0157417
886.942	0.0157175
887.020	0.0157927
887.098	0.0158749
887.176	0.0158962
887.254	0.0159979
887.332	0.0161469
887.410	0.0162586
887.488	0.0165060
887.567	0.0165868
887.645	0.0168991
887.723	0.0169566
887.801	0.0169701
887.879	0.0169061
887.957	0.0170204
888.035	0.0169780
888.113	0.0170929
888.192	0.0170327
888.270	0.0168089
888.348	0.0171368
888.426	0.0168045
888.504	0.0167155
888.582	0.0168363
888.660	0.0166891
888.738	0.0164261
888.817	0.0165137
888.895	0.0164362
888.973	0.0164018
889.051	0.0162661
889.129	0.0163716
889.207	0.0161656
889.285	0.0161792
889.363	0.0161618
889.442	0.0162104
889.520	0.0163041
889.598	0.0162042
889.676	0.0163654
889.754	0.0165318
889.832	0.0168338
889.910	0.0168383
889.988	0.0170070
890.067	0.0172866
890.145	0.0173709
890.223	0.0174486
890.301	0.0176740
890.379	0.0175817
890.457	0.0175873
890.535	0.0174333
890.613	0.0171976
890.692	0.0172010
890.770	0.0169743
890.848	0.0167742
890.926	0.0165008
891.004	0.0162601
891.082	0.0162345
891.160	0.0159914
891.238	0.0159755
891.317	0.0158926
891.395	0.0157879
891.473	0.0155772
891.551	0.0157263
891.629	0.0159367
891.707	0.0159844
891.785	0.0158932
891.863	0.0160148
891.942	0.0162479
892.020	0.0162851
892.098	0.0162939
892.176	0.0164483
892.254	0.0166409
892.332	0.0167290
892.410	0.0166978
892.488	0.0168256
892.567	0.0169422
892.645	0.0167443
892.723	0.0168291
892.801	0.0168617
892.879	0.0168121
892.957	0.0168050
893.035	0.0168810
893.113	0.0167477
893.192	0.0165817
893.270	0.0165982
893.348	0.0165575
893.426	0.0163367
893.504	0.0164255
893.582	0.0164881
893.660	0.0164749
893.738	0.0163794
893.817	0.0163605
893.895	0.0164738
893.973	0.0163641
894.051	0.0164083
894.129	0.0165128
894.207	0.0165329
894.285	0.0166005
894.363	0.0166826
894.442	0.0167534
894.520	0.0167400
894.598	0.0169120
894.676	0.0167915
894.754	0.0170285
894.832	0.0170637
894.910	0.0169734
894.988	0.0170704
895.067	0.0170281
895.145	0.0169212
895.223	0.0171169
895.301	0.0170638
895.379	0.0169894
895.457	0.0169721
895.535	0.0167650
895.613	0.0166150
895.692	0.0165453
895.770	0.0165882
895.848	0.0165150
895.926	0.0163824
896.004	0.0163552
896.082	0.0162527
896.160	0.0161391
896.238	0.0163148
896.317	0.0163020
896.395	0.0162736
896.473	0.0162553
896.551	0.0163380
896.629	0.0162606
896.707	0.0163156
896.785	0.0163492
896.863	0.0163846
896.942	0.0165126
897.020	0.0165988
897.098	0.0167625
897.176	0.0166326
897.254	0.0167664
897.332	0.0167358
897.410	0.0167294
897.488	0.0166496
897.567	0.0166578
897.645	0.0166939
897.723	0.0166329
897.801	0.0164465
897.879	0.0165301
897.957	0.0164825
898.035	0.0164591
898.113	0.0163677
898.192	0.0163795
898.270	0.0162666
898.348	0.0163439
898.426	0.0164026
898.504	0.0164808
898.582	0.0164857
898.660	0.0165168
898.738	0.0166064
898.817	0.0165926
898.895	0.0168300
898.973	0.0170013
899.051	0.0168896
899.129	0.0168964
899.207	0.0170279
899.285	0.0170036
899.363	0.0171175
899.442	0.0170853
899.520	0.0172126
899.598	0.0171469
899.676	0.0171269
899.754	0.0171055
899.832	0.0171062
899.910	0.0170092
899.988	0.0168766
900.067	0.0168445
900.145	0.0166473
900.223	0.0166405
900.301	0.0166312
900.379	0.0165194
900.457	0.0164376
900.535	0.0163800
900.613	0.0162381
900.692	0.0162471
900.770	0.0163619
900.848	0.0162163
900.926	0.0163683
901.004	0.0163766
901.082	0.0164426
901.160	0.0165077
901.238	0.0165094
901.317	0.0164618
901.395	0.0164365
901.473	0.0165423
901.551	0.0166264
901.629	0.0165543
901.707	0.0165694
901.785	0.0165716
901.863	0.0165582
901.942	0.0165328
902.020	0.0165731
902.098	0.0165768
902.176	0.0166328
902.254	0.0165821
902.332	0.0163713
902.410	0.0164978
902.488	0.0165961
902.567	0.0166124
902.645	0.0164478
902.723	0.0164964
902.801	0.0164133
902.879	0.0164819
902.957	0.0165970
903.035	0.0165691
903.113	0.0164356
903.192	0.0165675
903.270	0.0165675
903.348	0.0165346
903.426	0.0164699
903.504	0.0165816
903.582	0.0165713
903.660	0.0166454
903.738	0.0168164
903.817	0.0166366
903.895	0.0167998
903.973	0.0169053
904.051	0.0168412
904.129	0.0168675
904.207	0.0169730
904.285	0.0168330
904.363	0.0169814
904.442	0.0169270
904.520	0.0167961
904.598	0.0166772
904.676	0.0167431
904.754	0.0167405
904.832	0.0166666
904.910	0.0166839
904.988	0.0165240
905.067	0.0163284
905.145	0.0163578
905.223	0.0165025
905.301	0.0162949
905.379	0.0163329
905.457	0.0163224
905.535	0.0164157
905.613	0.0163771
905.692	0.0163210
905.770	0.0162569
905.848	0.0163385
905.926	0.0164682
906.004	0.0164902
906.082	0.0166457
906.160	0.0167457
906.238	0.0167902
906.317	0.0168150
906.395	0.0168732
906.473	0.0169887
906.551	0.0170148
906.629	0.0169739
906.707	0.0168150
906.785	0.0168975
906.863	0.0170425
906.942	0.0168398
907.020	0.0168834
907.098	0.0167982
907.176	0.0167229
907.254	0.0166563
907.332	0.0164651
907.410	0.0164456
907.488	0.0164167
907.567	0.0163025
907.645	0.0161332
907.723	0.0161481
907.801	0.0160427
907.879	0.0160780
907.957	0.0161728
908.035	0.0160136
908.113	0.0162271
908.192	0.0162467
908.270	0.0163510
908.348	0.0162648
908.426	0.0162487
908.504	0.0163369
908.582	0.0164367
908.660	0.0165327
908.738	0.0166488
908.817	0.0166785
908.895	0.0167204
908.973	0.0168721
909.051	0.0167882
909.129	0.0167796
909.207	0.0168269
909.285	0.0168549
909.363	0.0167964
909.442	0.0167377
909.520	0.0168118
909.598	0.0167557
909.676	0.0167332
909.754	0.0165973
909.832	0.0166238
909.910	0.0165542
909.988	0.0164221
910.067	0.0163987
910.145	0.0164440
910.223	0.0164012
910.301	0.0164989
910.379	0.0163721
910.457	0.0164137
910.535	0.0164833
910.613	0.0164422
910.692	0.0166339
910.770	0.0167728
910.848	0.0165932
910.926	0.0166229
911.004	0.0166968
911.082	0.0168694
911.160	0.0169562
911.238	0.0168237
911.317	0.0169208
911.395	0.0168980
911.473	0.0169592
911.551	0.0169167
911.629	0.0168208
911.707	0.0168808
911.785	0.0168413
911.863	0.0170374
911.942	0.0167881
912.020	0.0165501
912.098	0.0165337
912.176	0.0166224
912.254	0.0164999
912.332	0.0164110
912.410	0.0162298
912.488	0.0161840
912.567	0.0160991
912.645	0.0161812
912.723	0.0161205
912.801	0.0159596
912.879	0.0161503
912.957	0.0161652
913.035	0.0160899
913.113	0.0161604
913.192	0.0159480
913.270	0.0161956
913.348	0.0162067
913.426	0.0161737
913.504	0.0162615
913.582	0.0164144
913.660	0.0164091
913.738	0.0165332
913.817	0.0165877
913.895	0.0166122
913.973	0.0167044
914.051	0.0167985
914.129	0.0167508
914.207	0.0167135
914.285	0.0170972
914.363	0.0170253
914.442	0.0170299
914.520	0.0167857
914.598	0.0168986
914.676	0.0167464
914.754	0.0167884
914.832	0.0168704
914.910	0.0168568
914.988	0.0165472
915.067	0.0166151
915.145	0.0166631
915.223	0.0166035
915.301	0.0165520
915.379	0.0166649
915.457	0.0164957
915.535	0.0164153
915.613	0.0165979
915.692	0.0166949
915.770	0.0167000
915.848	0.0165703
915.926	0.0167136
916.004	0.0166267
916.082	0.0166612
916.160	0.0167148
916.238	0.0167691
916.317	0.0167681
916.395	0.0168105
916.473	0.0168418
916.551	0.0167337
916.629	0.0167170
916.707	0.0168851
916.785	0.0167242
916.863	0.0168851
916.942	0.0166323
917.020	0.0166281
917.098	0.0166320
917.176	0.0165501
917.254	0.0165269
917.332	0.0164284
917.410	0.0163310
917.488	0.0163535
917.567	0.0162486
917.645	0.0162238
917.723	0.0161451
917.801	0.0161904
917.879	0.0161080
917.957	0.0162077
918.035	0.0160651
918.113	0.0162462
918.192	0.0163419
918.270	0.0162245
918.348	0.0161765
918.426	0.0162563
918.504	0.0163755
918.582	0.0165266
918.660	0.0164621
918.738	0.0164836
918.817	0.0166226
918.895	0.0167013
918.973	0.0166044
919.051	0.0167323
919.129	0.0167531
919.207	0.0167522
919.285	0.0168722
919.363	0.0169678
919.442	0.0167896
919.520	0.0169593
919.598	0.0168465
919.676	0.0166942
919.754	0.0167488
919.832	0.0167249
919.910	0.0166187
