05/24/2022	20:20:09	Ver.	4.1	UNKNOWN
Optical Delay	599.988409	Delta X		0.078125	Sweeps	1	Scan Rate	0/0
Coordinates	Axis 1	NaN	Axis 2	NaN	Axis 3	NaN	Axis 4	NaN	Axis 5	NaN	Axis 6	0.000000
TX Power	0.000000	RX Power	0.000000

599.988	0.0162730
600.067	0.0162477
600.145	0.0162234
600.223	0.0162668
600.301	0.0163190
600.379	0.0162757
600.457	0.0162959
600.535	0.0163297
600.613	0.0162357
600.692	0.0161308
600.770	0.0162467
600.848	0.0162228
600.926	0.0163345
601.004	0.0162373
601.082	0.0163355
601.160	0.0164226
601.238	0.0163127
601.317	0.0162100
601.395	0.0161565
601.473	0.0162054
601.551	0.0163973
601.629	0.0163451
601.707	0.0163770
601.785	0.0162767
601.863	0.0163689
601.942	0.0163354
602.020	0.0162647
602.098	0.0162360
602.176	0.0162356
602.254	0.0162225
602.332	0.0162804
602.410	0.0162301
602.488	0.0162911
602.567	0.0162802
602.645	0.0162232
602.723	0.0163245
602.801	0.0162978
602.879	0.0162471
602.957	0.0162053
603.035	0.0160629
603.113	0.0162450
603.192	0.0161400
603.270	0.0162709
603.348	0.0161201
603.426	0.0160621
603.504	0.0162467
603.582	0.0163570
603.660	0.0162060
603.738	0.0162014
603.817	0.0163060
603.895	0.0162751
603.973	0.0163252
604.051	0.0162605
604.129	0.0163411
604.207	0.0162812
604.285	0.0163309
604.363	0.0162627
604.442	0.0161108
604.520	0.0162883
604.598	0.0163026
604.676	0.0162822
604.754	0.0161695
604.832	0.0162260
604.910	0.0162349
604.988	0.0162083
605.067	0.0162714
605.145	0.0161876
605.223	0.0163033
605.301	0.0160764
605.379	0.0161842
605.457	0.0161662
605.535	0.0162869
605.613	0.0164159
605.692	0.0161680
605.770	0.0162070
605.848	0.0163548
605.926	0.0163074
606.004	0.0163293
606.082	0.0163089
606.160	0.0163824
606.238	0.0163259
606.317	0.0163538
606.395	0.0163542
606.473	0.0163348
606.551	0.0162758
606.629	0.0162731
606.707	0.0161167
606.785	0.0162853
606.863	0.0162048
606.942	0.0161586
607.020	0.0162455
607.098	0.0163038
607.176	0.0163626
607.254	0.0162354
607.332	0.0161923
607.410	0.0162812
607.488	0.0161720
607.567	0.0162809
607.645	0.0163795
607.723	0.0163176
607.801	0.0162748
607.879	0.0162315
607.957	0.0162331
608.035	0.0162049
608.113	0.0163210
608.192	0.0162936
608.270	0.0162151
608.348	0.0163158
608.426	0.0161984
608.504	0.0162963
608.582	0.0162278
608.660	0.0162389
608.738	0.0162705
608.817	0.0162479
608.895	0.0162859
608.973	0.0163376
609.051	0.0163290
609.129	0.0162328
609.207	0.0162642
609.285	0.0163673
609.363	0.0162814
609.442	0.0162704
609.520	0.0162534
609.598	0.0161654
609.676	0.0164097
609.754	0.0163336
609.832	0.0161675
609.910	0.0163670
609.988	0.0163577
610.067	0.0163641
610.145	0.0163077
610.223	0.0162184
610.301	0.0163378
610.379	0.0163020
610.457	0.0163876
610.535	0.0162946
610.613	0.0163539
610.692	0.0162614
610.770	0.0162650
610.848	0.0164109
610.926	0.0163086
611.004	0.0163573
611.082	0.0162411
611.160	0.0163615
611.238	0.0163053
611.317	0.0162571
611.395	0.0162965
611.473	0.0161675
611.551	0.0162119
611.629	0.0163048
611.707	0.0162746
611.785	0.0164321
611.863	0.0161716
611.942	0.0163663
612.020	0.0163001
612.098	0.0163132
612.176	0.0162768
612.254	0.0162766
612.332	0.0162844
612.410	0.0162563
612.488	0.0163210
612.567	0.0163445
612.645	0.0161887
612.723	0.0163756
612.801	0.0163670
612.879	0.0163022
612.957	0.0161702
613.035	0.0162473
613.113	0.0163844
613.192	0.0160907
613.270	0.0162693
613.348	0.0163869
613.426	0.0162567
613.504	0.0161753
613.582	0.0162981
613.660	0.0162241
613.738	0.0163287
613.817	0.0163748
613.895	0.0161703
613.973	0.0162450
614.051	0.0163799
614.129	0.0163042
614.207	0.0163813
614.285	0.0163705
614.363	0.0163104
614.442	0.0162688
614.520	0.0162701
614.598	0.0163277
614.676	0.0162198
614.754	0.0162758
614.832	0.0162359
614.910	0.0163395
614.988	0.0163435
615.067	0.0162381
615.145	0.0161008
615.223	0.0162608
615.301	0.0162410
615.379	0.0162579
615.457	0.0162485
615.535	0.0162878
615.613	0.0162180
615.692	0.0162313
615.770	0.0161469
615.848	0.0161983
615.926	0.0162767
616.004	0.0162122
616.082	0.0163280
616.160	0.0162293
616.238	0.0161884
616.317	0.0162354
616.395	0.0163956
616.473	0.0162598
616.551	0.0162418
616.629	0.0163303
616.707	0.0162795
616.785	0.0163578
616.863	0.0163338
616.942	0.0162597
617.020	0.0162388
617.098	0.0162400
617.176	0.0162582
617.254	0.0163388
617.332	0.0164320
617.410	0.0163119
617.488	0.0163051
617.567	0.0163445
617.645	0.0162338
617.723	0.0161993
617.801	0.0162449
617.879	0.0164717
617.957	0.0162659
618.035	0.0162230
618.113	0.0162071
618.192	0.0162997
618.270	0.0163218
618.348	0.0162834
618.426	0.0162481
618.504	0.0162990
618.582	0.0163542
618.660	0.0162041
618.738	0.0162621
618.817	0.0161246
618.895	0.0161381
618.973	0.0162483
619.051	0.0162707
619.129	0.0162138
619.207	0.0162229
619.285	0.0161208
619.363	0.0162148
619.442	0.0164449
619.520	0.0162620
619.598	0.0162296
619.676	0.0163106
619.754	0.0162404
619.832	0.0161928
619.910	0.0163087
619.988	0.0163219
620.067	0.0162994
620.145	0.0162947
620.223	0.0163319
620.301	0.0163203
620.379	0.0163177
620.457	0.0164400
620.535	0.0162554
620.613	0.0163170
620.692	0.0163297
620.770	0.0161443
620.848	0.0163320
620.926	0.0162953
621.004	0.0162970
621.082	0.0162877
621.160	0.0161990
621.238	0.0162102
621.317	0.0162238
621.395	0.0163786
621.473	0.0163047
621.551	0.0162703
621.629	0.0162540
621.707	0.0163177
621.785	0.0163700
621.863	0.0162525
621.942	0.0162499
622.020	0.0163428
622.098	0.0163969
622.176	0.0162691
622.254	0.0163281
622.332	0.0162941
622.410	0.0161884
622.488	0.0161297
622.567	0.0163111
622.645	0.0162630
622.723	0.0164183
622.801	0.0162422
622.879	0.0161096
622.957	0.0161957
623.035	0.0163634
623.113	0.0163832
623.192	0.0162357
623.270	0.0163119
623.348	0.0162971
623.426	0.0163892
623.504	0.0162260
623.582	0.0162775
623.660	0.0163184
623.738	0.0161794
623.817	0.0162766
623.895	0.0162291
623.973	0.0163050
624.051	0.0163193
624.129	0.0162826
624.207	0.0163837
624.285	0.0163787
624.363	0.0163672
624.442	0.0163672
624.520	0.0163792
624.598	0.0162868
624.676	0.0162509
624.754	0.0163907
624.832	0.0162532
624.910	0.0164700
624.988	0.0163591
625.067	0.0162893
625.145	0.0162460
625.223	0.0161396
625.301	0.0161078
625.379	0.0162209
625.457	0.0162540
625.535	0.0164411
625.613	0.0163258
625.692	0.0162559
625.770	0.0162379
625.848	0.0163441
625.926	0.0162532
626.004	0.0162680
626.082	0.0163720
626.160	0.0162443
626.238	0.0163639
626.317	0.0164255
626.395	0.0162991
626.473	0.0162254
626.551	0.0161678
626.629	0.0163844
626.707	0.0162224
626.785	0.0161630
626.863	0.0162402
626.942	0.0162094
627.020	0.0162563
627.098	0.0161642
627.176	0.0163660
627.254	0.0163238
627.332	0.0163203
627.410	0.0163284
627.488	0.0163737
627.567	0.0160958
627.645	0.0162748
627.723	0.0164300
627.801	0.0163524
627.879	0.0163581
627.957	0.0162999
628.035	0.0163264
628.113	0.0163332
628.192	0.0162959
628.270	0.0163892
628.348	0.0162935
628.426	0.0162943
628.504	0.0163220
628.582	0.0162362
628.660	0.0161174
628.738	0.0163390
628.817	0.0162707
628.895	0.0162948
628.973	0.0162381
629.051	0.0161529
629.129	0.0162458
629.207	0.0162218
629.285	0.0162778
629.363	0.0163194
629.442	0.0162233
629.520	0.0162403
629.598	0.0161905
629.676	0.0162314
629.754	0.0162787
629.832	0.0164864
629.910	0.0161559
629.988	0.0161601
630.067	0.0163031
630.145	0.0162442
630.223	0.0161721
630.301	0.0163130
630.379	0.0162775
630.457	0.0162106
630.535	0.0162039
630.613	0.0162834
630.692	0.0161861
630.770	0.0162117
630.848	0.0164267
630.926	0.0161850
631.004	0.0163557
631.082	0.0163811
631.160	0.0161410
631.238	0.0161687
631.317	0.0162400
631.395	0.0163531
631.473	0.0162574
631.551	0.0163163
631.629	0.0161981
631.707	0.0161599
631.785	0.0162175
631.863	0.0161675
631.942	0.0163966
632.020	0.0162618
632.098	0.0162231
632.176	0.0163374
632.254	0.0162357
632.332	0.0161526
632.410	0.0162482
632.488	0.0162247
632.567	0.0163000
632.645	0.0162487
632.723	0.0162709
632.801	0.0162528
632.879	0.0162070
632.957	0.0162061
633.035	0.0162998
633.113	0.0161839
633.192	0.0161558
633.270	0.0161420
633.348	0.0161774
633.426	0.0162315
633.504	0.0163337
633.582	0.0161199
633.660	0.0162478
633.738	0.0161496
633.817	0.0162965
633.895	0.0162051
633.973	0.0162950
634.051	0.0162553
634.129	0.0163076
634.207	0.0162570
634.285	0.0163765
634.363	0.0162209
634.442	0.0163689
634.520	0.0163951
634.598	0.0162102
634.676	0.0161726
634.754	0.0162070
634.832	0.0162811
634.910	0.0163481
634.988	0.0162613
635.067	0.0161951
635.145	0.0162853
635.223	0.0160904
635.301	0.0161662
635.379	0.0161725
635.457	0.0162587
635.535	0.0161314
635.613	0.0162521
635.692	0.0162677
635.770	0.0161772
635.848	0.0162157
635.926	0.0162610
636.004	0.0162328
636.082	0.0162020
636.160	0.0161824
636.238	0.0163526
636.317	0.0162563
636.395	0.0162917
636.473	0.0163289
636.551	0.0161088
636.629	0.0160962
636.707	0.0162611
636.785	0.0162508
636.863	0.0162077
636.942	0.0162808
637.020	0.0162271
637.098	0.0162005
637.176	0.0162350
637.254	0.0162436
637.332	0.0161060
637.410	0.0161887
637.488	0.0161196
637.567	0.0160763
637.645	0.0163302
637.723	0.0161671
637.801	0.0162254
637.879	0.0162244
637.957	0.0161429
638.035	0.0161335
638.113	0.0161765
638.192	0.0161800
638.270	0.0162995
638.348	0.0162662
638.426	0.0162001
638.504	0.0162155
638.582	0.0163290
638.660	0.0161298
638.738	0.0162154
638.817	0.0163171
638.895	0.0162924
638.973	0.0163277
639.051	0.0163328
639.129	0.0162420
639.207	0.0162849
639.285	0.0163884
639.363	0.0162654
639.442	0.0162556
639.520	0.0162990
639.598	0.0162932
639.676	0.0162766
639.754	0.0162969
639.832	0.0163128
639.910	0.0163271
639.988	0.0163626
640.067	0.0163699
640.145	0.0164346
640.223	0.0164277
640.301	0.0163288
640.379	0.0164620
640.457	0.0163128
640.535	0.0164085
640.613	0.0164062
640.692	0.0163051
640.770	0.0164559
640.848	0.0162722
640.926	0.0162775
641.004	0.0163243
641.082	0.0163872
641.160	0.0163660
641.238	0.0163850
641.317	0.0163336
641.395	0.0163334
641.473	0.0164076
641.551	0.0163355
641.629	0.0163812
641.707	0.0162614
641.785	0.0164697
641.863	0.0163444
641.942	0.0162636
642.020	0.0163474
642.098	0.0163727
642.176	0.0163750
642.254	0.0164050
642.332	0.0162971
642.410	0.0161595
642.488	0.0162887
642.567	0.0163591
642.645	0.0163153
642.723	0.0162518
642.801	0.0163056
642.879	0.0163099
642.957	0.0163564
643.035	0.0164411
643.113	0.0161984
643.192	0.0162975
643.270	0.0162964
643.348	0.0164836
643.426	0.0161707
643.504	0.0163731
643.582	0.0164449
643.660	0.0164701
643.738	0.0164452
643.817	0.0164651
643.895	0.0164735
643.973	0.0165137
644.051	0.0162331
644.129	0.0164435
644.207	0.0163245
644.285	0.0164223
644.363	0.0164520
644.442	0.0163708
644.520	0.0163867
644.598	0.0162973
644.676	0.0164202
644.754	0.0162160
644.832	0.0162007
644.910	0.0163192
644.988	0.0162288
645.067	0.0160832
645.145	0.0161887
645.223	0.0161178
645.301	0.0160192
645.379	0.0160634
645.457	0.0161125
645.535	0.0159386
645.613	0.0158489
645.692	0.0159209
645.770	0.0158569
645.848	0.0159673
645.926	0.0160011
646.004	0.0159370
646.082	0.0161150
646.160	0.0161421
646.238	0.0161497
646.317	0.0163351
646.395	0.0163322
646.473	0.0164655
646.551	0.0165490
646.629	0.0165519
646.707	0.0166907
646.785	0.0166831
646.863	0.0165664
646.942	0.0167429
647.020	0.0168192
647.098	0.0168223
647.176	0.0168752
647.254	0.0167870
647.332	0.0168349
647.410	0.0168073
647.488	0.0166213
647.567	0.0165997
647.645	0.0164427
647.723	0.0163677
647.801	0.0163616
647.879	0.0161263
647.957	0.0160624
648.035	0.0160214
648.113	0.0160043
648.192	0.0158297
648.270	0.0157632
648.348	0.0158522
648.426	0.0157921
648.504	0.0156565
648.582	0.0157251
648.660	0.0155067
648.738	0.0157653
648.817	0.0156688
648.895	0.0157081
648.973	0.0156837
649.051	0.0158616
649.129	0.0159549
649.207	0.0159174
649.285	0.0160056
649.363	0.0161868
649.442	0.0163512
649.520	0.0163424
649.598	0.0162322
649.676	0.0163463
649.754	0.0163948
649.832	0.0164500
649.910	0.0164173
649.988	0.0164523
650.067	0.0164156
650.145	0.0164880
650.223	0.0164967
650.301	0.0167210
650.379	0.0165955
650.457	0.0166707
650.535	0.0167656
650.613	0.0168584
650.692	0.0167214
650.770	0.0166245
650.848	0.0166686
650.926	0.0167413
651.004	0.0167233
651.082	0.0167274
651.160	0.0163774
651.238	0.0165462
651.317	0.0164817
651.395	0.0164397
651.473	0.0162727
651.551	0.0160674
651.629	0.0159600
651.707	0.0160072
651.785	0.0157983
651.863	0.0155791
651.942	0.0154905
652.020	0.0153101
652.098	0.0154085
652.176	0.0152810
652.254	0.0154938
652.332	0.0154786
652.410	0.0156119
652.488	0.0155280
652.567	0.0155738
652.645	0.0157777
652.723	0.0158939
652.801	0.0160298
652.879	0.0162733
652.957	0.0161112
653.035	0.0162292
653.113	0.0163644
653.192	0.0164113
653.270	0.0164622
653.348	0.0165150
653.426	0.0166862
653.504	0.0167518
653.582	0.0168771
653.660	0.0167336
653.738	0.0167986
653.817	0.0168185
653.895	0.0169507
653.973	0.0167941
654.051	0.0168662
654.129	0.0168587
654.207	0.0167030
654.285	0.0166375
654.363	0.0165990
654.442	0.0164300
654.520	0.0163218
654.598	0.0162827
654.676	0.0162131
654.754	0.0161793
654.832	0.0162126
654.910	0.0162712
654.988	0.0162390
655.067	0.0161167
655.145	0.0161520
655.223	0.0160973
655.301	0.0159969
655.379	0.0160017
655.457	0.0158703
655.535	0.0157266
655.613	0.0156697
655.692	0.0154939
655.770	0.0155431
655.848	0.0155612
655.926	0.0153503
656.004	0.0152573
656.082	0.0152653
656.160	0.0153395
656.238	0.0154633
656.317	0.0154437
656.395	0.0153957
656.473	0.0154181
656.551	0.0156388
656.629	0.0157955
656.707	0.0159814
656.785	0.0161298
656.863	0.0162312
656.942	0.0166127
657.020	0.0165985
657.098	0.0167556
657.176	0.0169929
657.254	0.0171994
657.332	0.0172630
657.410	0.0173532
657.488	0.0174100
657.567	0.0173561
657.645	0.0173188
657.723	0.0173633
657.801	0.0173133
657.879	0.0171600
657.957	0.0171114
658.035	0.0169891
658.113	0.0168781
658.192	0.0167946
658.270	0.0165733
658.348	0.0165364
658.426	0.0164317
658.504	0.0163718
658.582	0.0163492
658.660	0.0161559
658.738	0.0160459
658.817	0.0159823
658.895	0.0159886
658.973	0.0158868
659.051	0.0157281
659.129	0.0156907
659.207	0.0155318
659.285	0.0154695
659.363	0.0155590
659.442	0.0156226
659.520	0.0155054
659.598	0.0155748
659.676	0.0155163
659.754	0.0155141
659.832	0.0155876
659.910	0.0154367
659.988	0.0154573
660.067	0.0154757
660.145	0.0155608
660.223	0.0155038
660.301	0.0154103
660.379	0.0154714
660.457	0.0156172
660.535	0.0157137
660.613	0.0156384
660.692	0.0160456
660.770	0.0163063
660.848	0.0162460
660.926	0.0163525
661.004	0.0167702
661.082	0.0168675
661.160	0.0171771
661.238	0.0172598
661.317	0.0174203
661.395	0.0173715
661.473	0.0173233
661.551	0.0175252
661.629	0.0174261
661.707	0.0174071
661.785	0.0172326
661.863	0.0170408
661.942	0.0170087
662.020	0.0169240
662.098	0.0167773
662.176	0.0166591
662.254	0.0165823
662.332	0.0165203
662.410	0.0163596
662.488	0.0161971
662.567	0.0162236
662.645	0.0162164
662.723	0.0161389
662.801	0.0162438
662.879	0.0161826
662.957	0.0162492
663.035	0.0161701
663.113	0.0162964
663.192	0.0161559
663.270	0.0160999
663.348	0.0161671
663.426	0.0161076
663.504	0.0161536
663.582	0.0159986
663.660	0.0159432
663.738	0.0159657
663.817	0.0159071
663.895	0.0158234
663.973	0.0158580
664.051	0.0158942
664.129	0.0157685
664.207	0.0157899
664.285	0.0157427
664.363	0.0157450
664.442	0.0158096
664.520	0.0156425
664.598	0.0158146
664.676	0.0157502
664.754	0.0159101
664.832	0.0159361
664.910	0.0161806
664.988	0.0161008
665.067	0.0161239
665.145	0.0161956
665.223	0.0163074
665.301	0.0161368
665.379	0.0162518
665.457	0.0163284
665.535	0.0162051
665.613	0.0161624
665.692	0.0162068
665.770	0.0161462
665.848	0.0160812
665.926	0.0162534
666.004	0.0162940
666.082	0.0165221
666.160	0.0168121
666.238	0.0169083
666.317	0.0170190
666.395	0.0172963
666.473	0.0174094
666.551	0.0175260
666.629	0.0176475
666.707	0.0175448
666.785	0.0174705
666.863	0.0173589
666.942	0.0171976
667.020	0.0168935
667.098	0.0167743
667.176	0.0165279
667.254	0.0163643
667.332	0.0159100
667.410	0.0160266
667.488	0.0159047
667.567	0.0157258
667.645	0.0156913
667.723	0.0157503
667.801	0.0157559
667.879	0.0156716
667.957	0.0157679
668.035	0.0159634
668.113	0.0159150
668.192	0.0156156
668.270	0.0156882
668.348	0.0154792
668.426	0.0153768
668.504	0.0152267
668.582	0.0153197
668.660	0.0150490
668.738	0.0152029
668.817	0.0154832
668.895	0.0156200
668.973	0.0159070
669.051	0.0164231
669.129	0.0166893
669.207	0.0170786
669.285	0.0173717
669.363	0.0178001
669.442	0.0179436
669.520	0.0179683
669.598	0.0179369
669.676	0.0178609
669.754	0.0177670
669.832	0.0173905
669.910	0.0172002
669.988	0.0168456
670.067	0.0163511
670.145	0.0160557
670.223	0.0156356
670.301	0.0154457
670.379	0.0151965
670.457	0.0148441
670.535	0.0146880
670.613	0.0147042
670.692	0.0147061
670.770	0.0145577
670.848	0.0146585
670.926	0.0145765
671.004	0.0145930
671.082	0.0146203
671.160	0.0149382
671.238	0.0149205
671.317	0.0152157
671.395	0.0155367
671.473	0.0159514
671.551	0.0164312
671.629	0.0169603
671.707	0.0173844
671.785	0.0177670
671.863	0.0181911
671.942	0.0187392
672.020	0.0189426
672.098	0.0191986
672.176	0.0191009
672.254	0.0190421
672.332	0.0187077
672.410	0.0183418
672.488	0.0175604
672.567	0.0169429
672.645	0.0162881
672.723	0.0159102
672.801	0.0154796
672.879	0.0153571
672.957	0.0151688
673.035	0.0149993
673.113	0.0151011
673.192	0.0151755
673.270	0.0154740
673.348	0.0157684
673.426	0.0159283
673.504	0.0158717
673.582	0.0159367
673.660	0.0157800
673.738	0.0156768
673.817	0.0153155
673.895	0.0152377
673.973	0.0148965
674.051	0.0147197
674.129	0.0147260
674.207	0.0147821
674.285	0.0149720
674.363	0.0151303
674.442	0.0154448
674.520	0.0158305
674.598	0.0162166
674.676	0.0165495
674.754	0.0169369
674.832	0.0172567
674.910	0.0174316
674.988	0.0175857
675.067	0.0178099
675.145	0.0179019
675.223	0.0177287
675.301	0.0176881
675.379	0.0174073
675.457	0.0171918
675.535	0.0169659
675.613	0.0164293
675.692	0.0159913
675.770	0.0156932
675.848	0.0151615
675.926	0.0149810
676.004	0.0144530
676.082	0.0142616
676.160	0.0141286
676.238	0.0140499
676.317	0.0141353
676.395	0.0143292
676.473	0.0147559
676.551	0.0152239
676.629	0.0157322
676.707	0.0163128
676.785	0.0166895
676.863	0.0172913
676.942	0.0177989
677.020	0.0183601
677.098	0.0187727
677.176	0.0190921
677.254	0.0192634
677.332	0.0195042
677.410	0.0194523
677.488	0.0193799
677.567	0.0191515
677.645	0.0190430
677.723	0.0184055
677.801	0.0178191
677.879	0.0173892
677.957	0.0165398
678.035	0.0160819
678.113	0.0155264
678.192	0.0149506
678.270	0.0144925
678.348	0.0141351
678.426	0.0138181
678.504	0.0136913
678.582	0.0133712
678.660	0.0131268
678.738	0.0130338
678.817	0.0129527
678.895	0.0130197
678.973	0.0130074
679.051	0.0129220
679.129	0.0128021
679.207	0.0131590
679.285	0.0134907
679.363	0.0138946
679.442	0.0144204
679.520	0.0150665
679.598	0.0156408
679.676	0.0166476
679.754	0.0174967
679.832	0.0183350
679.910	0.0190502
679.988	0.0197066
680.067	0.0199803
680.145	0.0203458
680.223	0.0203042
680.301	0.0202993
680.379	0.0201070
680.457	0.0198433
680.535	0.0194717
680.613	0.0189570
680.692	0.0186738
680.770	0.0184289
680.848	0.0178778
680.926	0.0174438
681.004	0.0170238
681.082	0.0164870
681.160	0.0160708
681.238	0.0153960
681.317	0.0150177
681.395	0.0145067
681.473	0.0139490
681.551	0.0135687
681.629	0.0131579
681.707	0.0129071
681.785	0.0128566
681.863	0.0129898
681.942	0.0132011
682.020	0.0134122
682.098	0.0138725
682.176	0.0144946
682.254	0.0149662
682.332	0.0156235
682.410	0.0158456
682.488	0.0162386
682.567	0.0169244
682.645	0.0171040
682.723	0.0174008
682.801	0.0176593
682.879	0.0177483
682.957	0.0179387
683.035	0.0180074
683.113	0.0178670
683.192	0.0178506
683.270	0.0175518
683.348	0.0174026
683.426	0.0170009
683.504	0.0165087
683.582	0.0161240
683.660	0.0156120
683.738	0.0152227
683.817	0.0150119
683.895	0.0146545
683.973	0.0142707
684.051	0.0140354
684.129	0.0140013
684.207	0.0140047
684.285	0.0143690
684.363	0.0146507
684.442	0.0148559
684.520	0.0153059
684.598	0.0157059
684.676	0.0162193
684.754	0.0167932
684.832	0.0173493
684.910	0.0177917
684.988	0.0181660
685.067	0.0186665
685.145	0.0188978
685.223	0.0190388
685.301	0.0192039
685.379	0.0193788
685.457	0.0191064
685.535	0.0188663
685.613	0.0186568
685.692	0.0183878
685.770	0.0178832
685.848	0.0174344
685.926	0.0171391
686.004	0.0166852
686.082	0.0164584
686.160	0.0162304
686.238	0.0158983
686.317	0.0157518
686.395	0.0156950
686.473	0.0155102
686.551	0.0155508
686.629	0.0156237
686.707	0.0154783
686.785	0.0152363
686.863	0.0152490
686.942	0.0151794
687.020	0.0149933
687.098	0.0149565
687.176	0.0147415
687.254	0.0147917
687.332	0.0148399
687.410	0.0148666
687.488	0.0145532
687.567	0.0145642
687.645	0.0146987
687.723	0.0146112
687.801	0.0148238
687.879	0.0149660
687.957	0.0150829
688.035	0.0155019
688.113	0.0158227
688.192	0.0160651
688.270	0.0164210
688.348	0.0167336
688.426	0.0169817
688.504	0.0170928
688.582	0.0170277
688.660	0.0174231
688.738	0.0171677
688.817	0.0169382
688.895	0.0165154
688.973	0.0162074
689.051	0.0160699
689.129	0.0157829
689.207	0.0155733
689.285	0.0155428
689.363	0.0154610
689.442	0.0155927
689.520	0.0156158
689.598	0.0157175
689.676	0.0158675
689.754	0.0161259
689.832	0.0160296
689.910	0.0161347
689.988	0.0164349
690.067	0.0163972
690.145	0.0164925
690.223	0.0164359
690.301	0.0166944
690.379	0.0167387
690.457	0.0168023
690.535	0.0169692
690.613	0.0173089
690.692	0.0175021
690.770	0.0178311
690.848	0.0182796
690.926	0.0184258
691.004	0.0186173
691.082	0.0187725
691.160	0.0190857
691.238	0.0188324
691.317	0.0188773
691.395	0.0187758
691.473	0.0185459
691.551	0.0182963
691.629	0.0179324
691.707	0.0176505
691.785	0.0175659
691.863	0.0171714
691.942	0.0168726
692.020	0.0166535
692.098	0.0162899
692.176	0.0158953
692.254	0.0156826
692.332	0.0153164
692.410	0.0150661
692.488	0.0148460
692.567	0.0147649
692.645	0.0145989
692.723	0.0146446
692.801	0.0145719
692.879	0.0145216
692.957	0.0143871
693.035	0.0143263
693.113	0.0142853
693.192	0.0140353
693.270	0.0141250
693.348	0.0138894
693.426	0.0137920
693.504	0.0138718
693.582	0.0138190
693.660	0.0137273
693.738	0.0137251
693.817	0.0138074
693.895	0.0139770
693.973	0.0141050
694.051	0.0142802
694.129	0.0145709
694.207	0.0144637
694.285	0.0144929
694.363	0.0142934
694.442	0.0145066
694.520	0.0144214
694.598	0.0146233
694.676	0.0144906
694.754	0.0147041
694.832	0.0147227
694.910	0.0150020
694.988	0.0154356
695.067	0.0156187
695.145	0.0160115
695.223	0.0165357
695.301	0.0168771
695.379	0.0171685
695.457	0.0176753
695.535	0.0180091
695.613	0.0183532
695.692	0.0186268
695.770	0.0190250
695.848	0.0191378
695.926	0.0194234
696.004	0.0198727
696.082	0.0201879
696.160	0.0202691
696.238	0.0206873
696.317	0.0208156
696.395	0.0209686
696.473	0.0210437
696.551	0.0214436
696.629	0.0216265
696.707	0.0215156
696.785	0.0215311
696.863	0.0214890
696.942	0.0215429
697.020	0.0212453
697.098	0.0210683
697.176	0.0206724
697.254	0.0202109
697.332	0.0195972
697.410	0.0188979
697.488	0.0184331
697.567	0.0175420
697.645	0.0165655
697.723	0.0155820
697.801	0.0144773
697.879	0.0132599
697.957	0.0123473
698.035	0.0110167
698.113	0.00995880
698.192	0.00907555
698.270	0.00848244
698.348	0.00793365
698.426	0.00760307
698.504	0.00745567
698.582	0.00776825
698.660	0.00798775
698.738	0.00861031
698.817	0.00938156
698.895	0.0101815
698.973	0.0110780
699.051	0.0119263
699.129	0.0127326
699.207	0.0135767
699.285	0.0142514
699.363	0.0149866
699.442	0.0156369
699.520	0.0159674
699.598	0.0164993
699.676	0.0168745
699.754	0.0173134
699.832	0.0175716
699.910	0.0177598
699.988	0.0179035
700.067	0.0181768
700.145	0.0183368
700.223	0.0184620
700.301	0.0184241
700.379	0.0184218
700.457	0.0184474
700.535	0.0185026
700.613	0.0186707
700.692	0.0186884
700.770	0.0186969
700.848	0.0187693
700.926	0.0191180
701.004	0.0191280
701.082	0.0192498
701.160	0.0191716
701.238	0.0193216
701.317	0.0192208
701.395	0.0189376
701.473	0.0186991
701.551	0.0186544
701.629	0.0182771
701.707	0.0178331
701.785	0.0175529
701.863	0.0172681
701.942	0.0168622
702.020	0.0169077
702.098	0.0168759
702.176	0.0167207
702.254	0.0167218
702.332	0.0170462
702.410	0.0171973
702.488	0.0173672
702.567	0.0174817
702.645	0.0175899
702.723	0.0178802
702.801	0.0182321
702.879	0.0183282
702.957	0.0184349
703.035	0.0185929
703.113	0.0187431
703.192	0.0185305
703.270	0.0185307
703.348	0.0184908
703.426	0.0181152
703.504	0.0177711
703.582	0.0174048
703.660	0.0169559
703.738	0.0163187
703.817	0.0157503
703.895	0.0150015
703.973	0.0142710
704.051	0.0135689
704.129	0.0128988
704.207	0.0123225
704.285	0.0118322
704.363	0.0112581
704.442	0.0110217
704.520	0.0108331
704.598	0.0107600
704.676	0.0106488
704.754	0.0109954
704.832	0.0112389
704.910	0.0116745
704.988	0.0120686
705.067	0.0125581
705.145	0.0131441
705.223	0.0136083
705.301	0.0141174
705.379	0.0145185
705.457	0.0148044
705.535	0.0150333
705.613	0.0151564
705.692	0.0155155
705.770	0.0157676
705.848	0.0158179
705.926	0.0159087
706.004	0.0159144
706.082	0.0160497
706.160	0.0162234
706.238	0.0162801
706.317	0.0163797
706.395	0.0166153
706.473	0.0167070
706.551	0.0169604
706.629	0.0171256
706.707	0.0176128
706.785	0.0177890
706.863	0.0180915
706.942	0.0184674
707.020	0.0188313
707.098	0.0193814
707.176	0.0194511
707.254	0.0198275
707.332	0.0202650
707.410	0.0204042
707.488	0.0205348
707.567	0.0204322
707.645	0.0203320
707.723	0.0200121
707.801	0.0197384
707.879	0.0194128
707.957	0.0189612
708.035	0.0185444
708.113	0.0179053
708.192	0.0175243
708.270	0.0172042
708.348	0.0169798
708.426	0.0168921
708.504	0.0166816
708.582	0.0164904
708.660	0.0164282
708.738	0.0164792
708.817	0.0163849
708.895	0.0165913
708.973	0.0166603
709.051	0.0165771
709.129	0.0168768
709.207	0.0170608
709.285	0.0170786
709.363	0.0172372
709.442	0.0173453
709.520	0.0172842
709.598	0.0173812
709.676	0.0173490
709.754	0.0173671
709.832	0.0172833
709.910	0.0169584
709.988	0.0165874
710.067	0.0161524
710.145	0.0156335
710.223	0.0150513
710.301	0.0143839
710.379	0.0137741
710.457	0.0132288
710.535	0.0126145
710.613	0.0121043
710.692	0.0116525
710.770	0.0115933
710.848	0.0114305
710.926	0.0113700
711.004	0.0115295
711.082	0.0116855
711.160	0.0118732
711.238	0.0122979
711.317	0.0127455
711.395	0.0128770
711.473	0.0132439
711.551	0.0136838
711.629	0.0141622
711.707	0.0145839
711.785	0.0146741
711.863	0.0149875
711.942	0.0151312
712.020	0.0154065
712.098	0.0154170
712.176	0.0154794
712.254	0.0156584
712.332	0.0157351
712.410	0.0158883
712.488	0.0160220
712.567	0.0162097
712.645	0.0162125
712.723	0.0166410
712.801	0.0169489
712.879	0.0171114
712.957	0.0174986
713.035	0.0179791
713.113	0.0181081
713.192	0.0185756
713.270	0.0188248
713.348	0.0192654
713.426	0.0195864
713.504	0.0197990
713.582	0.0201354
713.660	0.0202029
713.738	0.0201265
713.817	0.0202154
713.895	0.0200207
713.973	0.0198556
714.051	0.0197652
714.129	0.0193179
714.207	0.0189753
714.285	0.0186768
714.363	0.0185223
714.442	0.0180997
714.520	0.0177157
714.598	0.0175834
714.676	0.0174532
714.754	0.0172366
714.832	0.0172148
714.910	0.0171994
714.988	0.0172179
715.067	0.0171312
715.145	0.0170765
715.223	0.0171445
715.301	0.0171124
715.379	0.0170879
715.457	0.0170094
715.535	0.0169818
715.613	0.0171704
715.692	0.0170486
715.770	0.0170020
715.848	0.0169025
715.926	0.0167383
716.004	0.0166013
716.082	0.0163417
716.160	0.0158943
716.238	0.0156342
716.317	0.0151746
716.395	0.0147455
716.473	0.0142720
716.551	0.0135999
716.629	0.0130394
716.707	0.0127351
716.785	0.0123097
716.863	0.0119512
716.942	0.0116554
717.020	0.0115785
717.098	0.0113416
717.176	0.0114692
717.254	0.0115836
717.332	0.0117931
717.410	0.0120821
717.488	0.0124637
717.567	0.0129475
717.645	0.0133351
717.723	0.0137799
717.801	0.0142862
717.879	0.0145914
717.957	0.0149957
718.035	0.0152972
718.113	0.0154762
718.192	0.0157491
718.270	0.0160002
718.348	0.0161581
718.426	0.0163245
718.504	0.0163295
718.582	0.0164996
718.660	0.0164350
718.738	0.0166132
718.817	0.0167484
718.895	0.0167403
718.973	0.0170405
719.051	0.0171439
719.129	0.0174554
719.207	0.0175996
719.285	0.0176357
719.363	0.0179369
719.442	0.0182499
719.520	0.0183217
719.598	0.0185254
719.676	0.0187413
719.754	0.0188772
719.832	0.0190648
719.910	0.0191312
719.988	0.0191341
720.067	0.0189676
720.145	0.0190582
720.223	0.0188041
720.301	0.0186741
720.379	0.0186551
720.457	0.0184522
720.535	0.0183095
720.613	0.0182658
720.692	0.0182383
720.770	0.0180026
720.848	0.0180003
720.926	0.0177368
721.004	0.0175452
721.082	0.0172887
721.160	0.0173129
721.238	0.0171737
721.317	0.0169774
721.395	0.0169934
721.473	0.0168867
721.551	0.0167295
721.629	0.0165506
721.707	0.0166670
721.785	0.0166852
721.863	0.0166026
721.942	0.0166670
722.020	0.0167654
722.098	0.0166550
722.176	0.0166087
722.254	0.0164909
722.332	0.0164367
722.410	0.0161290
722.488	0.0159489
722.567	0.0158224
722.645	0.0154643
722.723	0.0149971
722.801	0.0149214
722.879	0.0144267
722.957	0.0142194
723.035	0.0140958
723.113	0.0139036
723.192	0.0137357
723.270	0.0136981
723.348	0.0136751
723.426	0.0135582
723.504	0.0137407
723.582	0.0138028
723.660	0.0140462
723.738	0.0141077
723.817	0.0142227
723.895	0.0143181
723.973	0.0145696
724.051	0.0145978
724.129	0.0147003
724.207	0.0148450
724.285	0.0149874
724.363	0.0149305
724.442	0.0149808
724.520	0.0150688
724.598	0.0151791
724.676	0.0149938
724.754	0.0152241
724.832	0.0151653
724.910	0.0152896
724.988	0.0156176
725.067	0.0157702
725.145	0.0159097
725.223	0.0159970
725.301	0.0161988
725.379	0.0164552
725.457	0.0165142
725.535	0.0168147
725.613	0.0169427
725.692	0.0171338
725.770	0.0172154
725.848	0.0173335
725.926	0.0175492
726.004	0.0178179
726.082	0.0178680
726.160	0.0180504
726.238	0.0181098
726.317	0.0182791
726.395	0.0182848
726.473	0.0184026
726.551	0.0187089
726.629	0.0186572
726.707	0.0186106
726.785	0.0187469
726.863	0.0186349
726.942	0.0187299
727.020	0.0184441
727.098	0.0182673
727.176	0.0180685
727.254	0.0178562
727.332	0.0176878
727.410	0.0174519
727.488	0.0172738
727.567	0.0170622
727.645	0.0168039
727.723	0.0165197
727.801	0.0165978
727.879	0.0165221
727.957	0.0164563
728.035	0.0165742
728.113	0.0164665
728.192	0.0164896
728.270	0.0166070
728.348	0.0166833
728.426	0.0167538
728.504	0.0167649
728.582	0.0168363
728.660	0.0168793
728.738	0.0166702
728.817	0.0166457
728.895	0.0165417
728.973	0.0163697
729.051	0.0159814
729.129	0.0158804
729.207	0.0155920
729.285	0.0152545
729.363	0.0150391
729.442	0.0146722
729.520	0.0145509
729.598	0.0144342
729.676	0.0142517
729.754	0.0142673
729.832	0.0142168
729.910	0.0141805
729.988	0.0141826
730.067	0.0142474
730.145	0.0143780
730.223	0.0144829
730.301	0.0144199
730.379	0.0145127
730.457	0.0145143
730.535	0.0146762
730.613	0.0147722
730.692	0.0147080
730.770	0.0148481
730.848	0.0148876
730.926	0.0151041
731.004	0.0150877
731.082	0.0151578
731.160	0.0152098
731.238	0.0153304
731.317	0.0154327
731.395	0.0155042
731.473	0.0154939
731.551	0.0154800
731.629	0.0155215
731.707	0.0156055
731.785	0.0157053
731.863	0.0158839
731.942	0.0159487
732.020	0.0160582
732.098	0.0161884
732.176	0.0162652
732.254	0.0163534
732.332	0.0166929
732.410	0.0168719
732.488	0.0170567
732.567	0.0171469
732.645	0.0173762
732.723	0.0176046
732.801	0.0177379
732.879	0.0179721
732.957	0.0179813
733.035	0.0179260
733.113	0.0183159
733.192	0.0183000
733.270	0.0182655
733.348	0.0184192
733.426	0.0182694
733.504	0.0183298
733.582	0.0181910
733.660	0.0179431
733.738	0.0179823
733.817	0.0179411
733.895	0.0177625
733.973	0.0175185
734.051	0.0173237
734.129	0.0172523
734.207	0.0171826
734.285	0.0170657
734.363	0.0169301
734.442	0.0169154
734.520	0.0168877
734.598	0.0167632
734.676	0.0166276
734.754	0.0165575
734.832	0.0165174
734.910	0.0163508
734.988	0.0162533
735.067	0.0162475
735.145	0.0161485
735.223	0.0159692
735.301	0.0158349
735.379	0.0156969
735.457	0.0155844
735.535	0.0157150
735.613	0.0154823
735.692	0.0152675
735.770	0.0153165
735.848	0.0154124
735.926	0.0152828
736.004	0.0153418
736.082	0.0151495
736.160	0.0151009
736.238	0.0152585
736.317	0.0152345
736.395	0.0152537
736.473	0.0152422
736.551	0.0152832
736.629	0.0151831
736.707	0.0152573
736.785	0.0152295
736.863	0.0150763
736.942	0.0149745
737.020	0.0151951
737.098	0.0151308
737.176	0.0149888
737.254	0.0150658
737.332	0.0149961
737.410	0.0151752
737.488	0.0150182
737.567	0.0151202
737.645	0.0151760
737.723	0.0153383
737.801	0.0154514
737.879	0.0154289
737.957	0.0154594
738.035	0.0156298
738.113	0.0157312
738.192	0.0157220
738.270	0.0156447
738.348	0.0156174
738.426	0.0157494
738.504	0.0160538
738.582	0.0159989
738.660	0.0159366
738.738	0.0161464
738.817	0.0163358
738.895	0.0165253
738.973	0.0167275
739.051	0.0169133
739.129	0.0168995
739.207	0.0171397
739.285	0.0174015
739.363	0.0173473
739.442	0.0174293
739.520	0.0176785
739.598	0.0175771
739.676	0.0174883
739.754	0.0174893
739.832	0.0175069
739.910	0.0173231
739.988	0.0173834
740.067	0.0173635
740.145	0.0172150
740.223	0.0171953
740.301	0.0173019
740.379	0.0173126
740.457	0.0172654
740.535	0.0172447
740.613	0.0173412
740.692	0.0172858
740.770	0.0173161
740.848	0.0172719
740.926	0.0172811
741.004	0.0171062
741.082	0.0170925
741.160	0.0170149
741.238	0.0170921
741.317	0.0168204
741.395	0.0167717
741.473	0.0167337
741.551	0.0166251
741.629	0.0165363
741.707	0.0163445
741.785	0.0162453
741.863	0.0160957
741.942	0.0159650
742.020	0.0160007
742.098	0.0159376
742.176	0.0157253
742.254	0.0155854
742.332	0.0156067
742.410	0.0157452
742.488	0.0157457
742.567	0.0156742
742.645	0.0157138
742.723	0.0156924
742.801	0.0157745
742.879	0.0156484
742.957	0.0157361
743.035	0.0157041
743.113	0.0156656
743.192	0.0157529
743.270	0.0156371
743.348	0.0155754
743.426	0.0155646
743.504	0.0154311
743.582	0.0154256
743.660	0.0156351
743.738	0.0154547
743.817	0.0153774
743.895	0.0154841
743.973	0.0154579
744.051	0.0153626
744.129	0.0153652
744.207	0.0154411
744.285	0.0155458
744.363	0.0154863
744.442	0.0155428
744.520	0.0154881
744.598	0.0156130
744.676	0.0155948
744.754	0.0156980
744.832	0.0157655
744.910	0.0158765
744.988	0.0159416
745.067	0.0158211
745.145	0.0158965
745.223	0.0160538
745.301	0.0159949
745.379	0.0161207
745.457	0.0162934
745.535	0.0161662
745.613	0.0161644
745.692	0.0164581
745.770	0.0164478
745.848	0.0165585
745.926	0.0166171
746.004	0.0166046
746.082	0.0167478
746.160	0.0168819
746.238	0.0168203
746.317	0.0168429
746.395	0.0170332
746.473	0.0170592
746.551	0.0169778
746.629	0.0170696
746.707	0.0170833
746.785	0.0172527
746.863	0.0172221
746.942	0.0172383
747.020	0.0172925
747.098	0.0172447
747.176	0.0173257
747.254	0.0172978
747.332	0.0172303
747.410	0.0171410
747.488	0.0170937
747.567	0.0169891
747.645	0.0170398
747.723	0.0169871
747.801	0.0169043
747.879	0.0168400
747.957	0.0169302
748.035	0.0167603
748.113	0.0165823
748.192	0.0165775
748.270	0.0165079
748.348	0.0164396
748.426	0.0163793
748.504	0.0164117
748.582	0.0164234
748.660	0.0162923
748.738	0.0163610
748.817	0.0162418
748.895	0.0160644
748.973	0.0159759
749.051	0.0159485
749.129	0.0159645
749.207	0.0158483
749.285	0.0157062
749.363	0.0157699
749.442	0.0156673
749.520	0.0156451
749.598	0.0157669
749.676	0.0154503
749.754	0.0154434
749.832	0.0157257
749.910	0.0157633
749.988	0.0155828
750.067	0.0155484
750.145	0.0155927
750.223	0.0157085
750.301	0.0156506
750.379	0.0157807
750.457	0.0157269
750.535	0.0157336
750.613	0.0157927
750.692	0.0159214
750.770	0.0158833
750.848	0.0157744
750.926	0.0158876
751.004	0.0159333
751.082	0.0158804
751.160	0.0159100
751.238	0.0158174
751.317	0.0158643
751.395	0.0159026
751.473	0.0160601
751.551	0.0159314
751.629	0.0158261
751.707	0.0158630
751.785	0.0159199
751.863	0.0159056
751.942	0.0161642
752.020	0.0161950
752.098	0.0162507
752.176	0.0162297
752.254	0.0161469
752.332	0.0162977
752.410	0.0163113
752.488	0.0163079
752.567	0.0163896
752.645	0.0164371
752.723	0.0163294
752.801	0.0163366
752.879	0.0163815
752.957	0.0163305
753.035	0.0163665
753.113	0.0164643
753.192	0.0164725
753.270	0.0164705
753.348	0.0164564
753.426	0.0165945
753.504	0.0165949
753.582	0.0165334
753.660	0.0166991
753.738	0.0167430
753.817	0.0168211
753.895	0.0168405
753.973	0.0167151
754.051	0.0168286
754.129	0.0168596
754.207	0.0169316
754.285	0.0169412
754.363	0.0168014
754.442	0.0168161
754.520	0.0168786
754.598	0.0168741
754.676	0.0168574
754.754	0.0168634
754.832	0.0167822
754.910	0.0167355
754.988	0.0167780
755.067	0.0166953
755.145	0.0166638
755.223	0.0165053
755.301	0.0164582
755.379	0.0165031
755.457	0.0164741
755.535	0.0164388
755.613	0.0161140
755.692	0.0160880
755.770	0.0160015
755.848	0.0160506
755.926	0.0159166
756.004	0.0159152
756.082	0.0158517
756.160	0.0157834
756.238	0.0157179
756.317	0.0158756
756.395	0.0157076
756.473	0.0157169
756.551	0.0156928
756.629	0.0156966
756.707	0.0157299
756.785	0.0158267
756.863	0.0157293
756.942	0.0158026
757.020	0.0158408
757.098	0.0156703
757.176	0.0157848
757.254	0.0157949
757.332	0.0158782
757.410	0.0157156
757.488	0.0157499
757.567	0.0157351
757.645	0.0159262
757.723	0.0158511
757.801	0.0157240
757.879	0.0157047
757.957	0.0157945
758.035	0.0159114
758.113	0.0159781
758.192	0.0159091
758.270	0.0160912
758.348	0.0160876
758.426	0.0160157
758.504	0.0162093
758.582	0.0161060
758.660	0.0163273
758.738	0.0164104
758.817	0.0164852
758.895	0.0164985
758.973	0.0166255
759.051	0.0165280
759.129	0.0165524
759.207	0.0165376
759.285	0.0165874
759.363	0.0165708
759.442	0.0165300
759.520	0.0165638
759.598	0.0165466
759.676	0.0164683
759.754	0.0164551
759.832	0.0162505
759.910	0.0163145
759.988	0.0162650
760.067	0.0163146
760.145	0.0162112
760.223	0.0161890
760.301	0.0162185
760.379	0.0162508
760.457	0.0161344
760.535	0.0163167
760.613	0.0163441
760.692	0.0162953
760.770	0.0162742
760.848	0.0163731
760.926	0.0163454
761.004	0.0162872
761.082	0.0163747
761.160	0.0163947
761.238	0.0164571
761.317	0.0163617
761.395	0.0163819
761.473	0.0163243
761.551	0.0164717
761.629	0.0163670
761.707	0.0164352
761.785	0.0164484
761.863	0.0163718
761.942	0.0162933
762.020	0.0164252
762.098	0.0164844
762.176	0.0162766
762.254	0.0163502
762.332	0.0163949
762.410	0.0162596
762.488	0.0162914
762.567	0.0163455
762.645	0.0162599
762.723	0.0162408
762.801	0.0163629
762.879	0.0162123
762.957	0.0161558
763.035	0.0160798
763.113	0.0161797
763.192	0.0162689
763.270	0.0161194
763.348	0.0160945
763.426	0.0161787
763.504	0.0159427
763.582	0.0160988
763.660	0.0160323
763.738	0.0161685
763.817	0.0159607
763.895	0.0160292
763.973	0.0160670
764.051	0.0159747
764.129	0.0159635
764.207	0.0159589
764.285	0.0158674
764.363	0.0160526
764.442	0.0160458
764.520	0.0161214
764.598	0.0160856
764.676	0.0160755
764.754	0.0160621
764.832	0.0161808
764.910	0.0162910
764.988	0.0161890
765.067	0.0162337
765.145	0.0162498
765.223	0.0163655
765.301	0.0164873
765.379	0.0164380
765.457	0.0163905
765.535	0.0166062
765.613	0.0164146
765.692	0.0164690
765.770	0.0164018
765.848	0.0164155
765.926	0.0164894
766.004	0.0163302
766.082	0.0163526
766.160	0.0162550
766.238	0.0161636
766.317	0.0163093
766.395	0.0161520
766.473	0.0160924
766.551	0.0161758
766.629	0.0161799
766.707	0.0162749
766.785	0.0160662
766.863	0.0161374
766.942	0.0161474
767.020	0.0161709
767.098	0.0162820
767.176	0.0160194
767.254	0.0159978
767.332	0.0160182
767.410	0.0160424
767.488	0.0159122
767.567	0.0159383
767.645	0.0159676
767.723	0.0159398
767.801	0.0159578
767.879	0.0160740
767.957	0.0161320
768.035	0.0161359
768.113	0.0162626
768.192	0.0161459
768.270	0.0162000
768.348	0.0162471
768.426	0.0161334
768.504	0.0164312
768.582	0.0163825
768.660	0.0164147
768.738	0.0165051
768.817	0.0165726
768.895	0.0165417
768.973	0.0165780
769.051	0.0165730
769.129	0.0166074
769.207	0.0166705
769.285	0.0165990
769.363	0.0164059
769.442	0.0165191
769.520	0.0167028
769.598	0.0165256
769.676	0.0165386
769.754	0.0164932
769.832	0.0165298
769.910	0.0164437
769.988	0.0162257
770.067	0.0164259
770.145	0.0163955
770.223	0.0163824
770.301	0.0161406
770.379	0.0161013
770.457	0.0162366
770.535	0.0162471
770.613	0.0162395
770.692	0.0161018
770.770	0.0160378
770.848	0.0160732
770.926	0.0161594
771.004	0.0161922
771.082	0.0162382
771.160	0.0162053
771.238	0.0160793
771.317	0.0161327
771.395	0.0162340
771.473	0.0162590
771.551	0.0161072
771.629	0.0161819
771.707	0.0161407
771.785	0.0160262
771.863	0.0159074
771.942	0.0159505
772.020	0.0159232
772.098	0.0159377
772.176	0.0159569
772.254	0.0159445
772.332	0.0158621
772.410	0.0159465
772.488	0.0160267
772.567	0.0161071
772.645	0.0160378
772.723	0.0161161
772.801	0.0161684
772.879	0.0159942
772.957	0.0160530
773.035	0.0161707
773.113	0.0162925
773.192	0.0162532
773.270	0.0164370
773.348	0.0164071
773.426	0.0163963
773.504	0.0164268
773.582	0.0164452
773.660	0.0164052
773.738	0.0164114
773.817	0.0163803
773.895	0.0165533
773.973	0.0164153
774.051	0.0164209
774.129	0.0162695
774.207	0.0164365
774.285	0.0164343
774.363	0.0162519
774.442	0.0163162
774.520	0.0163274
774.598	0.0163006
774.676	0.0161578
774.754	0.0161412
774.832	0.0161055
774.910	0.0159413
774.988	0.0159112
775.067	0.0159285
775.145	0.0158402
775.223	0.0157788
775.301	0.0157778
775.379	0.0158072
775.457	0.0159223
775.535	0.0158030
775.613	0.0157684
775.692	0.0158672
775.770	0.0158781
775.848	0.0159891
775.926	0.0161536
776.004	0.0160075
776.082	0.0161275
776.160	0.0162464
776.238	0.0162615
776.317	0.0163792
776.395	0.0164339
776.473	0.0164469
776.551	0.0166232
776.629	0.0166198
776.707	0.0165529
776.785	0.0166568
776.863	0.0166123
776.942	0.0168347
777.020	0.0166451
777.098	0.0166785
777.176	0.0165713
777.254	0.0166611
777.332	0.0166432
777.410	0.0165095
777.488	0.0165543
777.567	0.0164086
777.645	0.0162674
777.723	0.0161475
777.801	0.0161629
777.879	0.0159792
777.957	0.0159323
778.035	0.0159792
778.113	0.0160708
778.192	0.0159505
778.270	0.0159907
778.348	0.0160796
778.426	0.0160553
778.504	0.0159185
778.582	0.0160593
778.660	0.0161552
778.738	0.0160538
778.817	0.0161641
778.895	0.0163349
778.973	0.0162513
779.051	0.0163087
779.129	0.0163581
779.207	0.0164027
779.285	0.0162534
779.363	0.0162360
779.442	0.0163363
779.520	0.0164097
779.598	0.0163909
779.676	0.0162242
779.754	0.0162870
779.832	0.0163525
779.910	0.0161319
779.988	0.0160326
780.067	0.0162662
780.145	0.0162474
780.223	0.0161617
780.301	0.0162327
780.379	0.0161704
780.457	0.0160792
780.535	0.0160371
780.613	0.0162226
780.692	0.0161066
780.770	0.0160389
780.848	0.0161395
780.926	0.0161601
781.004	0.0162819
781.082	0.0162205
781.160	0.0160963
781.238	0.0161878
781.317	0.0162627
781.395	0.0162193
781.473	0.0161473
781.551	0.0161907
781.629	0.0161168
781.707	0.0161501
781.785	0.0162141
781.863	0.0162891
781.942	0.0161192
782.020	0.0160674
782.098	0.0161563
782.176	0.0161970
782.254	0.0162476
782.332	0.0160820
782.410	0.0159747
782.488	0.0160942
782.567	0.0162521
782.645	0.0161567
782.723	0.0161848
782.801	0.0162450
782.879	0.0163746
782.957	0.0163033
783.035	0.0163261
783.113	0.0163080
783.192	0.0162656
783.270	0.0162828
783.348	0.0163135
783.426	0.0162671
783.504	0.0164007
783.582	0.0162879
783.660	0.0164076
783.738	0.0162359
783.817	0.0162860
783.895	0.0163660
783.973	0.0162215
784.051	0.0161596
784.129	0.0162914
784.207	0.0162579
784.285	0.0163554
784.363	0.0164146
784.442	0.0163916
784.520	0.0163136
784.598	0.0163909
784.676	0.0163812
784.754	0.0162459
784.832	0.0162926
784.910	0.0161752
784.988	0.0160924
785.067	0.0161012
785.145	0.0161683
785.223	0.0161816
785.301	0.0161758
785.379	0.0161694
785.457	0.0161918
785.535	0.0161199
785.613	0.0161793
785.692	0.0162159
785.770	0.0162555
785.848	0.0163169
785.926	0.0161594
786.004	0.0162214
786.082	0.0163789
786.160	0.0162609
786.238	0.0161213
786.317	0.0162560
786.395	0.0164083
786.473	0.0163129
786.551	0.0162662
786.629	0.0162750
786.707	0.0162631
786.785	0.0163031
786.863	0.0163529
786.942	0.0165914
787.020	0.0165003
787.098	0.0163884
787.176	0.0165877
787.254	0.0166029
787.332	0.0164738
787.410	0.0165582
787.488	0.0165763
787.567	0.0164311
787.645	0.0164041
787.723	0.0165968
787.801	0.0164719
787.879	0.0163992
787.957	0.0163668
788.035	0.0164027
788.113	0.0164423
788.192	0.0163885
788.270	0.0163175
788.348	0.0164288
788.426	0.0163148
788.504	0.0162344
788.582	0.0161715
788.660	0.0163577
788.738	0.0162783
788.817	0.0160835
788.895	0.0161192
788.973	0.0161939
789.051	0.0160102
789.129	0.0159771
789.207	0.0159498
789.285	0.0160287
789.363	0.0158949
789.442	0.0159408
789.520	0.0158435
789.598	0.0158038
789.676	0.0158854
789.754	0.0156430
789.832	0.0156843
789.910	0.0157182
789.988	0.0157831
790.067	0.0157510
790.145	0.0157650
790.223	0.0157634
790.301	0.0156160
790.379	0.0156718
790.457	0.0156502
790.535	0.0159196
790.613	0.0158476
790.692	0.0158689
790.770	0.0159176
790.848	0.0160077
790.926	0.0161040
791.004	0.0162514
791.082	0.0162480
791.160	0.0163120
791.238	0.0164629
791.317	0.0164732
791.395	0.0163818
791.473	0.0164391
791.551	0.0164199
791.629	0.0164767
791.707	0.0165451
791.785	0.0166074
791.863	0.0165231
791.942	0.0164743
792.020	0.0166037
792.098	0.0166875
792.176	0.0165031
792.254	0.0166389
792.332	0.0167585
792.410	0.0168631
792.488	0.0167268
792.567	0.0167165
792.645	0.0167676
792.723	0.0168049
792.801	0.0168986
792.879	0.0169265
792.957	0.0169527
793.035	0.0167307
793.113	0.0167679
793.192	0.0168233
793.270	0.0167688
793.348	0.0167487
793.426	0.0166719
793.504	0.0166634
793.582	0.0165623
793.660	0.0165975
793.738	0.0166820
793.817	0.0163747
793.895	0.0163744
793.973	0.0163394
794.051	0.0162975
794.129	0.0161778
794.207	0.0161765
794.285	0.0160381
794.363	0.0160514
794.442	0.0160513
794.520	0.0158757
794.598	0.0158325
794.676	0.0157614
794.754	0.0157713
794.832	0.0156289
794.910	0.0159278
794.988	0.0156036
795.067	0.0155954
795.145	0.0157285
795.223	0.0156245
795.301	0.0156461
795.379	0.0155147
795.457	0.0154411
795.535	0.0155164
795.613	0.0155879
795.692	0.0156796
795.770	0.0154807
795.848	0.0155503
795.926	0.0155760
796.004	0.0155977
796.082	0.0156325
796.160	0.0156237
796.238	0.0156744
796.317	0.0157878
796.395	0.0158721
796.473	0.0159861
796.551	0.0160043
796.629	0.0159000
796.707	0.0160780
796.785	0.0160747
796.863	0.0161929
796.942	0.0164163
797.020	0.0164088
797.098	0.0164762
797.176	0.0166148
797.254	0.0166405
797.332	0.0167438
797.410	0.0168070
797.488	0.0167799
797.567	0.0168112
797.645	0.0170039
797.723	0.0168832
797.801	0.0165914
797.879	0.0169077
797.957	0.0168364
798.035	0.0167339
798.113	0.0168922
798.192	0.0168361
798.270	0.0167020
798.348	0.0167106
798.426	0.0167622
798.504	0.0166838
798.582	0.0165129
798.660	0.0166220
798.738	0.0164371
798.817	0.0165242
798.895	0.0166239
798.973	0.0164756
799.051	0.0165724
799.129	0.0165408
799.207	0.0165153
799.285	0.0164073
799.363	0.0164536
799.442	0.0164154
799.520	0.0163899
799.598	0.0163883
799.676	0.0163044
799.754	0.0163425
799.832	0.0163128
799.910	0.0163186
799.988	0.0161725
800.067	0.0161201
800.145	0.0160616
800.223	0.0159864
800.301	0.0160626
800.379	0.0159660
800.457	0.0158874
800.535	0.0158007
800.613	0.0158413
800.692	0.0158438
800.770	0.0159005
800.848	0.0157476
800.926	0.0157143
801.004	0.0157507
801.082	0.0158258
801.160	0.0157173
801.238	0.0156452
801.317	0.0158514
801.395	0.0159142
801.473	0.0157442
801.551	0.0158064
801.629	0.0158711
801.707	0.0159136
801.785	0.0158936
801.863	0.0157873
801.942	0.0159892
802.020	0.0159768
802.098	0.0160180
802.176	0.0159637
802.254	0.0160121
802.332	0.0161594
802.410	0.0160674
802.488	0.0160004
802.567	0.0161697
802.645	0.0159787
802.723	0.0162334
802.801	0.0162836
802.879	0.0163431
802.957	0.0162836
803.035	0.0164049
803.113	0.0164095
803.192	0.0164783
803.270	0.0166547
803.348	0.0167534
803.426	0.0167517
803.504	0.0166982
803.582	0.0167860
803.660	0.0168823
803.738	0.0169270
803.817	0.0169503
803.895	0.0170318
803.973	0.0170258
804.051	0.0170544
804.129	0.0169344
804.207	0.0169156
804.285	0.0167603
804.363	0.0167532
804.442	0.0165901
804.520	0.0165786
804.598	0.0165668
804.676	0.0164235
804.754	0.0164023
804.832	0.0162391
804.910	0.0162608
804.988	0.0162298
805.067	0.0161283
805.145	0.0163493
805.223	0.0161565
805.301	0.0161399
805.379	0.0161357
805.457	0.0161253
805.535	0.0161298
805.613	0.0162033
805.692	0.0161160
805.770	0.0161824
805.848	0.0162704
805.926	0.0162740
806.004	0.0162615
806.082	0.0160870
806.160	0.0161298
806.238	0.0162077
806.317	0.0160671
806.395	0.0159988
806.473	0.0160034
806.551	0.0160952
806.629	0.0160061
806.707	0.0160970
806.785	0.0159590
806.863	0.0159656
806.942	0.0160303
807.020	0.0160374
807.098	0.0157841
807.176	0.0159006
807.254	0.0158498
807.332	0.0158037
807.410	0.0158703
807.488	0.0158443
807.567	0.0158112
807.645	0.0158097
807.723	0.0158743
807.801	0.0156706
807.879	0.0158832
807.957	0.0158067
808.035	0.0157809
808.113	0.0157507
808.192	0.0157571
808.270	0.0156850
808.348	0.0157713
808.426	0.0158468
808.504	0.0158921
808.582	0.0161911
808.660	0.0160001
808.738	0.0160868
808.817	0.0163422
808.895	0.0164324
808.973	0.0165406
809.051	0.0165469
809.129	0.0164822
809.207	0.0166705
809.285	0.0166562
809.363	0.0166834
809.442	0.0168913
809.520	0.0169282
809.598	0.0168207
809.676	0.0169088
809.754	0.0168910
809.832	0.0170315
809.910	0.0170444
809.988	0.0170921
810.067	0.0169823
810.145	0.0169333
810.223	0.0169580
810.301	0.0169827
810.379	0.0168989
810.457	0.0168521
810.535	0.0166966
810.613	0.0167241
810.692	0.0165977
810.770	0.0164727
810.848	0.0165679
810.926	0.0163740
811.004	0.0163143
811.082	0.0163088
811.160	0.0161636
811.238	0.0161081
811.317	0.0160975
811.395	0.0159422
811.473	0.0159636
811.551	0.0158534
811.629	0.0160837
811.707	0.0159526
811.785	0.0159734
811.863	0.0158592
811.942	0.0158276
812.020	0.0158122
812.098	0.0159682
812.176	0.0160532
812.254	0.0160194
812.332	0.0160126
812.410	0.0160227
812.488	0.0160316
812.567	0.0160613
812.645	0.0159641
812.723	0.0161926
812.801	0.0160005
812.879	0.0160345
812.957	0.0160277
813.035	0.0159049
813.113	0.0159845
813.192	0.0158398
813.270	0.0157169
813.348	0.0160249
813.426	0.0158003
813.504	0.0157756
813.582	0.0158365
813.660	0.0157513
813.738	0.0156573
813.817	0.0157555
813.895	0.0157486
813.973	0.0157874
814.051	0.0157413
814.129	0.0160513
814.207	0.0159923
814.285	0.0158389
814.363	0.0159314
814.442	0.0160427
814.520	0.0163101
814.598	0.0162186
814.676	0.0163022
814.754	0.0162984
814.832	0.0163654
814.910	0.0164438
814.988	0.0166189
815.067	0.0164867
815.145	0.0164011
815.223	0.0164628
815.301	0.0165550
815.379	0.0165012
815.457	0.0165343
815.535	0.0166261
815.613	0.0166219
815.692	0.0165005
815.770	0.0165648
815.848	0.0166093
815.926	0.0166914
816.004	0.0167487
816.082	0.0165547
816.160	0.0166132
816.238	0.0167264
816.317	0.0168893
816.395	0.0168415
816.473	0.0166837
816.551	0.0167780
816.629	0.0167735
816.707	0.0167503
816.785	0.0166769
816.863	0.0166158
816.942	0.0165986
817.020	0.0166937
817.098	0.0167138
817.176	0.0165777
817.254	0.0165239
817.332	0.0164522
817.410	0.0164601
817.488	0.0164359
817.567	0.0162681
817.645	0.0162356
817.723	0.0162351
817.801	0.0163973
817.879	0.0162009
817.957	0.0162312
818.035	0.0163105
818.113	0.0162561
818.192	0.0162035
818.270	0.0163062
818.348	0.0161309
818.426	0.0162068
818.504	0.0162215
818.582	0.0162808
818.660	0.0162965
818.738	0.0162495
818.817	0.0161204
818.895	0.0160660
818.973	0.0160712
819.051	0.0161494
819.129	0.0161597
819.207	0.0161160
819.285	0.0160094
819.363	0.0159384
819.442	0.0158962
819.520	0.0157187
819.598	0.0159683
819.676	0.0157422
819.754	0.0157554
819.832	0.0155196
819.910	0.0158331
819.988	0.0157356
820.067	0.0156673
820.145	0.0155718
820.223	0.0156639
820.301	0.0157304
820.379	0.0157568
820.457	0.0157367
820.535	0.0157072
820.613	0.0157535
820.692	0.0158126
820.770	0.0159379
820.848	0.0159142
820.926	0.0160420
821.004	0.0160790
821.082	0.0161214
821.160	0.0161482
821.238	0.0161293
821.317	0.0162794
821.395	0.0162159
821.473	0.0162796
821.551	0.0163764
821.629	0.0164456
821.707	0.0165043
821.785	0.0164183
821.863	0.0165434
821.942	0.0166764
822.020	0.0166451
822.098	0.0165412
822.176	0.0167290
822.254	0.0167371
822.332	0.0167950
822.410	0.0167856
822.488	0.0167583
822.567	0.0167993
822.645	0.0169152
822.723	0.0168419
822.801	0.0169485
822.879	0.0169135
822.957	0.0168215
823.035	0.0169067
823.113	0.0168659
823.192	0.0168581
823.270	0.0167818
823.348	0.0168353
823.426	0.0168091
823.504	0.0167737
823.582	0.0167396
823.660	0.0168065
823.738	0.0167233
823.817	0.0165579
823.895	0.0165276
823.973	0.0166070
824.051	0.0165335
824.129	0.0165376
824.207	0.0164303
824.285	0.0165505
824.363	0.0164686
824.442	0.0163821
824.520	0.0164324
824.598	0.0163968
824.676	0.0162884
824.754	0.0163345
824.832	0.0161892
824.910	0.0162004
824.988	0.0161576
825.067	0.0161689
825.145	0.0161005
825.223	0.0160180
825.301	0.0158747
825.379	0.0159589
825.457	0.0161653
825.535	0.0159979
825.613	0.0159231
825.692	0.0160378
825.770	0.0158654
825.848	0.0158128
825.926	0.0157514
826.004	0.0159687
826.082	0.0158913
826.160	0.0157553
826.238	0.0157079
826.317	0.0159624
826.395	0.0158791
826.473	0.0157539
826.551	0.0157951
826.629	0.0158347
826.707	0.0158184
826.785	0.0159248
826.863	0.0158436
826.942	0.0157364
827.020	0.0158231
827.098	0.0158050
827.176	0.0157082
827.254	0.0157070
827.332	0.0158369
827.410	0.0157659
827.488	0.0160146
827.567	0.0159781
827.645	0.0158848
827.723	0.0161284
827.801	0.0160530
827.879	0.0161176
827.957	0.0161286
828.035	0.0163284
828.113	0.0162376
828.192	0.0163643
828.270	0.0164559
828.348	0.0164876
828.426	0.0164169
828.504	0.0165905
828.582	0.0165754
828.660	0.0165697
828.738	0.0166673
828.817	0.0167120
828.895	0.0166809
828.973	0.0166020
829.051	0.0167741
829.129	0.0168509
829.207	0.0167621
829.285	0.0169487
829.363	0.0167510
829.442	0.0169885
829.520	0.0167960
829.598	0.0167706
829.676	0.0168027
829.754	0.0167420
829.832	0.0167524
829.910	0.0168165
829.988	0.0167426
830.067	0.0167318
830.145	0.0167032
830.223	0.0168818
830.301	0.0167561
830.379	0.0167179
830.457	0.0167817
830.535	0.0165605
830.613	0.0166237
830.692	0.0165949
830.770	0.0164285
830.848	0.0163376
830.926	0.0165171
831.004	0.0165131
831.082	0.0164306
831.160	0.0163889
831.238	0.0161102
831.317	0.0162239
831.395	0.0161594
831.473	0.0161568
831.551	0.0160626
831.629	0.0161297
831.707	0.0160506
831.785	0.0159442
831.863	0.0157684
831.942	0.0157864
832.020	0.0158270
832.098	0.0158508
832.176	0.0158762
832.254	0.0158010
832.332	0.0157868
832.410	0.0157543
832.488	0.0157285
832.567	0.0157794
832.645	0.0158418
832.723	0.0158271
832.801	0.0158000
832.879	0.0157548
832.957	0.0158823
833.035	0.0157610
833.113	0.0155873
833.192	0.0158261
833.270	0.0157853
833.348	0.0158078
833.426	0.0158668
833.504	0.0159116
833.582	0.0158765
833.660	0.0158154
833.738	0.0160067
833.817	0.0159632
833.895	0.0162078
833.973	0.0161572
834.051	0.0160426
834.129	0.0161303
834.207	0.0163375
834.285	0.0163084
834.363	0.0163721
834.442	0.0164574
834.520	0.0162711
834.598	0.0164138
834.676	0.0164865
834.754	0.0164237
834.832	0.0164261
834.910	0.0164644
834.988	0.0165408
835.067	0.0164729
835.145	0.0165686
835.223	0.0165382
835.301	0.0165314
835.379	0.0166267
835.457	0.0163771
835.535	0.0165775
835.613	0.0166357
835.692	0.0163640
835.770	0.0163931
835.848	0.0164549
835.926	0.0164127
836.004	0.0163050
836.082	0.0163925
836.160	0.0163181
836.238	0.0164868
836.317	0.0164409
836.395	0.0164188
836.473	0.0163837
836.551	0.0163879
836.629	0.0163020
836.707	0.0163711
836.785	0.0163711
836.863	0.0164056
836.942	0.0165010
837.020	0.0162522
837.098	0.0163010
837.176	0.0164226
837.254	0.0163992
837.332	0.0164135
837.410	0.0164256
837.488	0.0162513
837.567	0.0163448
837.645	0.0163264
837.723	0.0162111
837.801	0.0163683
837.879	0.0162930
837.957	0.0161723
838.035	0.0161947
838.113	0.0160855
838.192	0.0161561
838.270	0.0162465
838.348	0.0161733
838.426	0.0161015
838.504	0.0160128
838.582	0.0161724
838.660	0.0162180
838.738	0.0160371
838.817	0.0161966
838.895	0.0161687
838.973	0.0161667
839.051	0.0161301
839.129	0.0160159
839.207	0.0161692
839.285	0.0162332
839.363	0.0162799
839.442	0.0162712
839.520	0.0162496
839.598	0.0162595
839.676	0.0162478
839.754	0.0161723
839.832	0.0164072
839.910	0.0162341
839.988	0.0162605
840.067	0.0162057
840.145	0.0162539
840.223	0.0162418
840.301	0.0163289
840.379	0.0163163
840.457	0.0163342
840.535	0.0161838
840.613	0.0162411
840.692	0.0161902
840.770	0.0161856
840.848	0.0162472
840.926	0.0161845
841.004	0.0162353
841.082	0.0161647
841.160	0.0160154
841.238	0.0160899
841.317	0.0160686
841.395	0.0161498
841.473	0.0161027
841.551	0.0161440
841.629	0.0161037
841.707	0.0161488
841.785	0.0160713
841.863	0.0160223
841.942	0.0162811
842.020	0.0162388
842.098	0.0160687
842.176	0.0161648
842.254	0.0163094
842.332	0.0161847
842.410	0.0160984
842.488	0.0161185
842.567	0.0163348
842.645	0.0161485
842.723	0.0162996
842.801	0.0162185
842.879	0.0163010
842.957	0.0162015
843.035	0.0162644
843.113	0.0162956
843.192	0.0161792
843.270	0.0163586
843.348	0.0162606
843.426	0.0163152
843.504	0.0165239
843.582	0.0163889
843.660	0.0165282
843.738	0.0163607
843.817	0.0164404
843.895	0.0164975
843.973	0.0164059
844.051	0.0165641
844.129	0.0164603
844.207	0.0166060
844.285	0.0165263
844.363	0.0164942
844.442	0.0166370
844.520	0.0165363
844.598	0.0165569
844.676	0.0166971
844.754	0.0165273
844.832	0.0164854
844.910	0.0165170
844.988	0.0165482
845.067	0.0165684
845.145	0.0165526
845.223	0.0164166
845.301	0.0164997
845.379	0.0166698
845.457	0.0164665
845.535	0.0164216
845.613	0.0163103
845.692	0.0162376
845.770	0.0162719
845.848	0.0162916
845.926	0.0161232
846.004	0.0161768
846.082	0.0160311
846.160	0.0158930
846.238	0.0160298
846.317	0.0160529
846.395	0.0159276
846.473	0.0159675
846.551	0.0160574
846.629	0.0161156
846.707	0.0160403
846.785	0.0161575
846.863	0.0161370
846.942	0.0161840
847.020	0.0160748
847.098	0.0162319
847.176	0.0162278
847.254	0.0162962
847.332	0.0160932
847.410	0.0162067
847.488	0.0162543
847.567	0.0163187
847.645	0.0162357
847.723	0.0163902
847.801	0.0163672
847.879	0.0163821
847.957	0.0164529
848.035	0.0163931
848.113	0.0163789
848.192	0.0164117
848.270	0.0164476
848.348	0.0164752
848.426	0.0165755
848.504	0.0164652
848.582	0.0164384
848.660	0.0166109
848.738	0.0164256
848.817	0.0164622
848.895	0.0163538
848.973	0.0160615
849.051	0.0161652
849.129	0.0161725
849.207	0.0161348
849.285	0.0160414
849.363	0.0160895
849.442	0.0160764
849.520	0.0161794
849.598	0.0160531
849.676	0.0161730
849.754	0.0159472
849.832	0.0160939
849.910	0.0160274
849.988	0.0159805
850.067	0.0160239
850.145	0.0159343
850.223	0.0160092
850.301	0.0160062
850.379	0.0160917
850.457	0.0160342
850.535	0.0160761
850.613	0.0162235
850.692	0.0160022
850.770	0.0161598
850.848	0.0161233
850.926	0.0161909
851.004	0.0161916
851.082	0.0163495
851.160	0.0162784
851.238	0.0164254
851.317	0.0163630
851.395	0.0164071
851.473	0.0164081
851.551	0.0163871
851.629	0.0164764
851.707	0.0164793
851.785	0.0164905
851.863	0.0165540
851.942	0.0164166
852.020	0.0164610
852.098	0.0165125
852.176	0.0164510
852.254	0.0165082
852.332	0.0165974
852.410	0.0165176
852.488	0.0165336
852.567	0.0165787
852.645	0.0164761
852.723	0.0165198
852.801	0.0166166
852.879	0.0165516
852.957	0.0164864
853.035	0.0164170
853.113	0.0164938
853.192	0.0163744
853.270	0.0163699
853.348	0.0163598
853.426	0.0164117
853.504	0.0162820
853.582	0.0161885
853.660	0.0161899
853.738	0.0161013
853.817	0.0161218
853.895	0.0160599
853.973	0.0159538
854.051	0.0160883
854.129	0.0159879
854.207	0.0159784
854.285	0.0157719
854.363	0.0157599
854.442	0.0159175
854.520	0.0157942
854.598	0.0157789
854.676	0.0157585
854.754	0.0158461
854.832	0.0157833
854.910	0.0155647
854.988	0.0157314
855.067	0.0157471
855.145	0.0156562
855.223	0.0156720
855.301	0.0157388
855.379	0.0158354
855.457	0.0157710
855.535	0.0159313
855.613	0.0158262
855.692	0.0158404
855.770	0.0159863
855.848	0.0160427
855.926	0.0161048
856.004	0.0160768
856.082	0.0160537
856.160	0.0160136
856.238	0.0162688
856.317	0.0163349
856.395	0.0162904
856.473	0.0162907
856.551	0.0164953
856.629	0.0165546
856.707	0.0164943
856.785	0.0165613
856.863	0.0165585
856.942	0.0166364
857.020	0.0166151
857.098	0.0165253
857.176	0.0167868
857.254	0.0166302
857.332	0.0165427
857.410	0.0167049
857.488	0.0166090
857.567	0.0165676
857.645	0.0165467
857.723	0.0166637
857.801	0.0167088
857.879	0.0164945
857.957	0.0166600
858.035	0.0167061
858.113	0.0165714
858.192	0.0166697
858.270	0.0165484
858.348	0.0165384
858.426	0.0166264
858.504	0.0165499
858.582	0.0164725
858.660	0.0163412
858.738	0.0163671
858.817	0.0164587
858.895	0.0163616
858.973	0.0162423
859.051	0.0161941
859.129	0.0162578
859.207	0.0160751
859.285	0.0158973
859.363	0.0161105
859.442	0.0159634
859.520	0.0160612
859.598	0.0160822
859.676	0.0160147
859.754	0.0158821
859.832	0.0159221
859.910	0.0159064
859.988	0.0160536
860.067	0.0160704
860.145	0.0159663
860.223	0.0159889
860.301	0.0159689
860.379	0.0160558
860.457	0.0160362
860.535	0.0159651
860.613	0.0159926
860.692	0.0161846
860.770	0.0162807
860.848	0.0162597
860.926	0.0162977
861.004	0.0162766
861.082	0.0163571
861.160	0.0163976
861.238	0.0164762
861.317	0.0163144
861.395	0.0164195
861.473	0.0163531
861.551	0.0163961
861.629	0.0163509
861.707	0.0162141
861.785	0.0162266
861.863	0.0161987
861.942	0.0161489
862.020	0.0161422
862.098	0.0161148
862.176	0.0159633
862.254	0.0160340
862.332	0.0160683
862.410	0.0161166
862.488	0.0160772
862.567	0.0160787
862.645	0.0161212
862.723	0.0160729
862.801	0.0161943
862.879	0.0160352
862.957	0.0161525
863.035	0.0159961
863.113	0.0161713
863.192	0.0162810
863.270	0.0162274
863.348	0.0163549
863.426	0.0164572
863.504	0.0163735
863.582	0.0164973
863.660	0.0165492
863.738	0.0165556
863.817	0.0165998
863.895	0.0165086
863.973	0.0164862
864.051	0.0164417
864.129	0.0166379
864.207	0.0164575
864.285	0.0164102
864.363	0.0163552
864.442	0.0162402
864.520	0.0161257
864.598	0.0163050
864.676	0.0162467
864.754	0.0162672
864.832	0.0162349
864.910	0.0163604
864.988	0.0163595
865.067	0.0164288
865.145	0.0163092
865.223	0.0162805
865.301	0.0161760
865.379	0.0164642
865.457	0.0163366
865.535	0.0163737
865.613	0.0163308
865.692	0.0162134
865.770	0.0162227
865.848	0.0162933
865.926	0.0161739
866.004	0.0161898
866.082	0.0162493
866.160	0.0162592
866.238	0.0161783
866.317	0.0160825
866.395	0.0162387
866.473	0.0163426
866.551	0.0162726
866.629	0.0163250
866.707	0.0162163
866.785	0.0163216
866.863	0.0162744
866.942	0.0162753
867.020	0.0162821
867.098	0.0161723
867.176	0.0162034
867.254	0.0163023
867.332	0.0162083
867.410	0.0161250
867.488	0.0159198
867.567	0.0161765
867.645	0.0159657
867.723	0.0158162
867.801	0.0159812
867.879	0.0159263
867.957	0.0159376
868.035	0.0160390
868.113	0.0161523
868.192	0.0161340
868.270	0.0161073
868.348	0.0162603
868.426	0.0162196
868.504	0.0162585
868.582	0.0163757
868.660	0.0165511
868.738	0.0166138
868.817	0.0166461
868.895	0.0167853
868.973	0.0165697
869.051	0.0166708
869.129	0.0167814
869.207	0.0166747
869.285	0.0165144
869.363	0.0163980
869.442	0.0162724
869.520	0.0162643
869.598	0.0160316
869.676	0.0160494
869.754	0.0160562
869.832	0.0157721
869.910	0.0157697
869.988	0.0157303
870.067	0.0158355
870.145	0.0157085
870.223	0.0157676
870.301	0.0159152
870.379	0.0159093
870.457	0.0159106
870.535	0.0161067
870.613	0.0159818
870.692	0.0159826
870.770	0.0161621
870.848	0.0160488
870.926	0.0162116
871.004	0.0161596
871.082	0.0163895
871.160	0.0163655
871.238	0.0165140
871.317	0.0163898
871.395	0.0165495
871.473	0.0165357
871.551	0.0164917
871.629	0.0166735
871.707	0.0166678
871.785	0.0165524
871.863	0.0166683
871.942	0.0166189
872.020	0.0165828
872.098	0.0164017
872.176	0.0165080
872.254	0.0164366
872.332	0.0164240
872.410	0.0163874
872.488	0.0162968
872.567	0.0161004
872.645	0.0161724
872.723	0.0162135
872.801	0.0161118
872.879	0.0160411
872.957	0.0160429
873.035	0.0162227
873.113	0.0159248
873.192	0.0159132
873.270	0.0158507
873.348	0.0160338
873.426	0.0161428
873.504	0.0159696
873.582	0.0159964
873.660	0.0161057
873.738	0.0160290
873.817	0.0162067
873.895	0.0162293
873.973	0.0162650
874.051	0.0163500
874.129	0.0162893
874.207	0.0162725
874.285	0.0163390
874.363	0.0163257
874.442	0.0164861
874.520	0.0164382
874.598	0.0163618
874.676	0.0163416
874.754	0.0164453
874.832	0.0162696
874.910	0.0163017
874.988	0.0161717
875.067	0.0161951
875.145	0.0161851
875.223	0.0160889
875.301	0.0159557
875.379	0.0159529
875.457	0.0159293
875.535	0.0157418
875.613	0.0158376
875.692	0.0160047
875.770	0.0159278
875.848	0.0160411
875.926	0.0160018
876.004	0.0160120
876.082	0.0160950
876.160	0.0162014
876.238	0.0163705
876.317	0.0162913
876.395	0.0164680
876.473	0.0165200
876.551	0.0164421
876.629	0.0165350
876.707	0.0165279
876.785	0.0165288
876.863	0.0166705
876.942	0.0165897
877.020	0.0164415
877.098	0.0165727
877.176	0.0165598
877.254	0.0164837
877.332	0.0164127
877.410	0.0164299
877.488	0.0162470
877.567	0.0162652
877.645	0.0162739
877.723	0.0160565
877.801	0.0160850
877.879	0.0160838
877.957	0.0161736
878.035	0.0160480
878.113	0.0160235
878.192	0.0160548
878.270	0.0160245
878.348	0.0161279
878.426	0.0161005
878.504	0.0160410
878.582	0.0160310
878.660	0.0161213
878.738	0.0159858
878.817	0.0160036
878.895	0.0160555
878.973	0.0161304
879.051	0.0161932
879.129	0.0162653
879.207	0.0161325
879.285	0.0162633
879.363	0.0162954
879.442	0.0163853
879.520	0.0163379
879.598	0.0164712
879.676	0.0164382
879.754	0.0164053
879.832	0.0162325
879.910	0.0164006
879.988	0.0164796
880.067	0.0163846
880.145	0.0163760
880.223	0.0163882
880.301	0.0164838
880.379	0.0164134
880.457	0.0164218
880.535	0.0162926
880.613	0.0162528
880.692	0.0163502
880.770	0.0163361
880.848	0.0161209
880.926	0.0162043
881.004	0.0162560
881.082	0.0161694
881.160	0.0162740
881.238	0.0162978
881.317	0.0161806
881.395	0.0162154
881.473	0.0164223
881.551	0.0163506
881.629	0.0163386
881.707	0.0165012
881.785	0.0163885
881.863	0.0164111
881.942	0.0163898
882.020	0.0163523
882.098	0.0163837
882.176	0.0164559
882.254	0.0163029
882.332	0.0162920
882.410	0.0164380
882.488	0.0164850
882.567	0.0163493
882.645	0.0164356
882.723	0.0163853
882.801	0.0163288
882.879	0.0161951
882.957	0.0163663
883.035	0.0162965
883.113	0.0162834
883.192	0.0162969
883.270	0.0162421
883.348	0.0161998
883.426	0.0162611
883.504	0.0161158
883.582	0.0162145
883.660	0.0161382
883.738	0.0162728
883.817	0.0162115
883.895	0.0161717
883.973	0.0161624
884.051	0.0163323
884.129	0.0162502
884.207	0.0161312
884.285	0.0162537
884.363	0.0162176
884.442	0.0162262
884.520	0.0161949
884.598	0.0161153
884.676	0.0162938
884.754	0.0163438
884.832	0.0162137
884.910	0.0162165
884.988	0.0162052
885.067	0.0163232
885.145	0.0162685
885.223	0.0160784
885.301	0.0162811
885.379	0.0163802
885.457	0.0165247
885.535	0.0163500
885.613	0.0164662
885.692	0.0164320
885.770	0.0165891
885.848	0.0164597
885.926	0.0164874
886.004	0.0164662
886.082	0.0164857
886.160	0.0163974
886.238	0.0164318
886.317	0.0162797
886.395	0.0162717
886.473	0.0161993
886.551	0.0163129
886.629	0.0161818
886.707	0.0162615
886.785	0.0161575
886.863	0.0161947
886.942	0.0162291
887.020	0.0160458
887.098	0.0161780
887.176	0.0161838
887.254	0.0162314
887.332	0.0161695
887.410	0.0161346
887.488	0.0162704
887.567	0.0162818
887.645	0.0163045
887.723	0.0163386
887.801	0.0163578
887.879	0.0162181
887.957	0.0163853
888.035	0.0163593
888.113	0.0163581
888.192	0.0164565
888.270	0.0163465
888.348	0.0164674
888.426	0.0164333
888.504	0.0165634
888.582	0.0165141
888.660	0.0164690
888.738	0.0164896
888.817	0.0165300
888.895	0.0164297
888.973	0.0165689
889.051	0.0165469
889.129	0.0165327
889.207	0.0164374
889.285	0.0165312
889.363	0.0164137
889.442	0.0162784
889.520	0.0163551
889.598	0.0161802
889.676	0.0160626
889.754	0.0160896
889.832	0.0160448
889.910	0.0159840
889.988	0.0159708
890.067	0.0159259
890.145	0.0159715
890.223	0.0159264
890.301	0.0157755
890.379	0.0160268
890.457	0.0160081
890.535	0.0159627
890.613	0.0160229
890.692	0.0159895
890.770	0.0162716
890.848	0.0161909
890.926	0.0162319
891.004	0.0161786
891.082	0.0161425
891.160	0.0162775
891.238	0.0161849
891.317	0.0161035
891.395	0.0162599
891.473	0.0164001
891.551	0.0162987
891.629	0.0163821
891.707	0.0163845
891.785	0.0163734
891.863	0.0162872
891.942	0.0163972
892.020	0.0164227
892.098	0.0163991
892.176	0.0164755
892.254	0.0165269
892.332	0.0165454
892.410	0.0165842
892.488	0.0164433
892.567	0.0163998
892.645	0.0164679
892.723	0.0163652
892.801	0.0164197
892.879	0.0164912
892.957	0.0163787
893.035	0.0163639
893.113	0.0164497
893.192	0.0163110
893.270	0.0162383
893.348	0.0162299
893.426	0.0161081
893.504	0.0161493
893.582	0.0160091
893.660	0.0160869
893.738	0.0160429
893.817	0.0159557
893.895	0.0158884
893.973	0.0158752
894.051	0.0158627
894.129	0.0160374
894.207	0.0159636
894.285	0.0159941
894.363	0.0161015
894.442	0.0161077
894.520	0.0160804
894.598	0.0161084
894.676	0.0161754
894.754	0.0162690
894.832	0.0163784
894.910	0.0165180
894.988	0.0164313
895.067	0.0165933
895.145	0.0164619
895.223	0.0164614
895.301	0.0164363
895.379	0.0165179
895.457	0.0165834
895.535	0.0165921
895.613	0.0163886
895.692	0.0163538
895.770	0.0164848
895.848	0.0163657
895.926	0.0163003
896.004	0.0163206
896.082	0.0161407
896.160	0.0162447
896.238	0.0163348
896.317	0.0162337
896.395	0.0163309
896.473	0.0162431
896.551	0.0163079
896.629	0.0162726
896.707	0.0163084
896.785	0.0162569
896.863	0.0162769
896.942	0.0162138
897.020	0.0161961
897.098	0.0162598
897.176	0.0162388
897.254	0.0161800
897.332	0.0161924
897.410	0.0163381
897.488	0.0163343
897.567	0.0163288
897.645	0.0162031
897.723	0.0162627
897.801	0.0163259
897.879	0.0163337
897.957	0.0162274
898.035	0.0163541
898.113	0.0162102
898.192	0.0162378
898.270	0.0161774
898.348	0.0161983
898.426	0.0162890
898.504	0.0160339
898.582	0.0161770
898.660	0.0161263
898.738	0.0161671
898.817	0.0160091
898.895	0.0160654
898.973	0.0160799
899.051	0.0160405
899.129	0.0160867
899.207	0.0160559
899.285	0.0160078
899.363	0.0159475
899.442	0.0157954
899.520	0.0160842
899.598	0.0160764
899.676	0.0159290
899.754	0.0159135
899.832	0.0159582
899.910	0.0157494
899.988	0.0158575
900.067	0.0158762
900.145	0.0160842
900.223	0.0161797
900.301	0.0161572
900.379	0.0162578
900.457	0.0162875
900.535	0.0163931
900.613	0.0165294
900.692	0.0166825
900.770	0.0167188
900.848	0.0166179
900.926	0.0167366
901.004	0.0167163
901.082	0.0167112
901.160	0.0167936
901.238	0.0167353
901.317	0.0167754
901.395	0.0168120
901.473	0.0168134
901.551	0.0166493
901.629	0.0168678
901.707	0.0166975
901.785	0.0166891
901.863	0.0165647
901.942	0.0165434
902.020	0.0165163
902.098	0.0162281
902.176	0.0163049
902.254	0.0162769
902.332	0.0161648
902.410	0.0161045
902.488	0.0160915
902.567	0.0160194
902.645	0.0159861
902.723	0.0159725
902.801	0.0160918
902.879	0.0159663
902.957	0.0158429
903.035	0.0160770
903.113	0.0161425
903.192	0.0161158
903.270	0.0161520
903.348	0.0162080
903.426	0.0162924
903.504	0.0163805
903.582	0.0163891
903.660	0.0164953
903.738	0.0164151
903.817	0.0164944
903.895	0.0164667
903.973	0.0164893
904.051	0.0164706
904.129	0.0164613
904.207	0.0163794
904.285	0.0164151
904.363	0.0163220
904.442	0.0163258
904.520	0.0161563
904.598	0.0162227
904.676	0.0162711
904.754	0.0162473
904.832	0.0161382
904.910	0.0162894
904.988	0.0162150
905.067	0.0162286
905.145	0.0161847
905.223	0.0161503
905.301	0.0163012
905.379	0.0162305
905.457	0.0163155
905.535	0.0161578
905.613	0.0161618
905.692	0.0160784
905.770	0.0162015
905.848	0.0161109
905.926	0.0160771
906.004	0.0160577
906.082	0.0161298
906.160	0.0159988
906.238	0.0160287
906.317	0.0161142
906.395	0.0162193
906.473	0.0161519
906.551	0.0162916
906.629	0.0164057
906.707	0.0164189
906.785	0.0164848
906.863	0.0164945
906.942	0.0164845
907.020	0.0165742
907.098	0.0166541
907.176	0.0166754
907.254	0.0167818
907.332	0.0165611
907.410	0.0166492
907.488	0.0167446
907.567	0.0167172
907.645	0.0167416
907.723	0.0167588
907.801	0.0166682
907.879	0.0168563
907.957	0.0167061
908.035	0.0165052
908.113	0.0164352
908.192	0.0163947
908.270	0.0162930
908.348	0.0162746
908.426	0.0163728
908.504	0.0160923
908.582	0.0160076
908.660	0.0160097
908.738	0.0159317
908.817	0.0158676
908.895	0.0160171
908.973	0.0159946
909.051	0.0161402
909.129	0.0161314
909.207	0.0161670
909.285	0.0162997
909.363	0.0163973
909.442	0.0162365
909.520	0.0163878
909.598	0.0163481
909.676	0.0165163
909.754	0.0164725
909.832	0.0164889
909.910	0.0164980
909.988	0.0164761
910.067	0.0164198
910.145	0.0164564
910.223	0.0165066
910.301	0.0164700
910.379	0.0165529
910.457	0.0163824
910.535	0.0163843
910.613	0.0162306
910.692	0.0161862
910.770	0.0163122
910.848	0.0161657
910.926	0.0161155
911.004	0.0161516
911.082	0.0161674
911.160	0.0161097
911.238	0.0160635
911.317	0.0158547
911.395	0.0160907
911.473	0.0159037
911.551	0.0159766
911.629	0.0159678
911.707	0.0161089
911.785	0.0160588
911.863	0.0158495
911.942	0.0159985
912.020	0.0158997
912.098	0.0160686
912.176	0.0161668
912.254	0.0160114
912.332	0.0160357
912.410	0.0159143
912.488	0.0161004
912.567	0.0161507
912.645	0.0160834
912.723	0.0162186
912.801	0.0162350
912.879	0.0162465
912.957	0.0162915
913.035	0.0162064
913.113	0.0163567
913.192	0.0164754
913.270	0.0164474
913.348	0.0164502
913.426	0.0164719
913.504	0.0165703
913.582	0.0166019
913.660	0.0166282
913.738	0.0165945
913.817	0.0165336
913.895	0.0166849
913.973	0.0166887
914.051	0.0165294
914.129	0.0165595
914.207	0.0165081
914.285	0.0165553
914.363	0.0162878
914.442	0.0164162
914.520	0.0162366
914.598	0.0162504
914.676	0.0162899
914.754	0.0163058
914.832	0.0161437
914.910	0.0161384
914.988	0.0160285
915.067	0.0160773
915.145	0.0160135
915.223	0.0159065
915.301	0.0160176
915.379	0.0159792
915.457	0.0159918
915.535	0.0160460
915.613	0.0161618
915.692	0.0161683
915.770	0.0162399
915.848	0.0161720
915.926	0.0161964
916.004	0.0163590
916.082	0.0163727
916.160	0.0163881
916.238	0.0162370
916.317	0.0163338
916.395	0.0164906
916.473	0.0164118
916.551	0.0163271
916.629	0.0163876
916.707	0.0162949
916.785	0.0163461
916.863	0.0163039
916.942	0.0163190
917.020	0.0161572
917.098	0.0162601
917.176	0.0162137
917.254	0.0161198
917.332	0.0161922
917.410	0.0160426
917.488	0.0160126
917.567	0.0160749
917.645	0.0162778
917.723	0.0160986
917.801	0.0160075
917.879	0.0161653
917.957	0.0161169
918.035	0.0162122
918.113	0.0162463
918.192	0.0161204
918.270	0.0161565
918.348	0.0161091
918.426	0.0161663
918.504	0.0162346
918.582	0.0162024
918.660	0.0161275
918.738	0.0161396
918.817	0.0162375
918.895	0.0163125
918.973	0.0161237
919.051	0.0161812
919.129	0.0162221
919.207	0.0162157
919.285	0.0161666
919.363	0.0161536
919.442	0.0163823
919.520	0.0162911
919.598	0.0162848
919.676	0.0163708
919.754	0.0163155
919.832	0.0164705
919.910	0.0164456
