05/24/2022	20:20:34	Ver.	4.1	UNKNOWN
Optical Delay	599.981738	Delta X		0.078125	Sweeps	1	Scan Rate	0/0
Coordinates	Axis 1	NaN	Axis 2	NaN	Axis 3	NaN	Axis 4	NaN	Axis 5	NaN	Axis 6	0.000000
TX Power	0.000000	RX Power	0.000000

599.982	0.0161063
600.060	0.0160637
600.138	0.0160458
600.216	0.0161500
600.294	0.0162344
600.372	0.0162032
600.450	0.0161745
600.529	0.0160957
600.607	0.0162891
600.685	0.0162069
600.763	0.0162079
600.841	0.0161185
600.919	0.0160666
600.997	0.0160822
601.075	0.0160992
601.154	0.0160376
601.232	0.0160811
601.310	0.0161754
601.388	0.0160516
601.466	0.0161002
601.544	0.0162300
601.622	0.0162183
601.700	0.0161724
601.779	0.0161330
601.857	0.0160978
601.935	0.0161054
602.013	0.0161329
602.091	0.0160426
602.169	0.0160972
602.247	0.0162039
602.325	0.0160427
602.404	0.0160848
602.482	0.0162554
602.560	0.0162396
602.638	0.0160587
602.716	0.0161289
602.794	0.0161408
602.872	0.0161698
602.950	0.0161581
603.029	0.0161588
603.107	0.0159917
603.185	0.0160961
603.263	0.0161357
603.341	0.0160860
603.419	0.0161317
603.497	0.0161546
603.575	0.0161296
603.654	0.0161625
603.732	0.0161356
603.810	0.0161858
603.888	0.0161166
603.966	0.0160915
604.044	0.0162014
604.122	0.0162309
604.200	0.0161295
604.279	0.0160687
604.357	0.0161008
604.435	0.0160831
604.513	0.0160849
604.591	0.0161452
604.669	0.0160776
604.747	0.0160421
604.825	0.0162103
604.904	0.0162840
604.982	0.0162158
605.060	0.0160331
605.138	0.0161395
605.216	0.0161397
605.294	0.0160276
605.372	0.0162974
605.450	0.0161599
605.529	0.0159881
605.607	0.0161751
605.685	0.0161350
605.763	0.0162620
605.841	0.0160279
605.919	0.0160587
605.997	0.0161993
606.075	0.0161640
606.154	0.0160770
606.232	0.0161055
606.310	0.0161002
606.388	0.0162711
606.466	0.0161977
606.544	0.0162080
606.622	0.0160471
606.700	0.0160806
606.779	0.0161538
606.857	0.0160722
606.935	0.0161250
607.013	0.0162090
607.091	0.0161396
607.169	0.0161205
607.247	0.0161298
607.325	0.0161386
607.404	0.0161327
607.482	0.0161902
607.560	0.0161568
607.638	0.0161724
607.716	0.0161588
607.794	0.0160313
607.872	0.0161823
607.950	0.0161296
608.029	0.0160047
608.107	0.0162440
608.185	0.0162017
608.263	0.0161318
608.341	0.0161339
608.419	0.0161930
608.497	0.0161258
608.575	0.0160153
608.654	0.0161316
608.732	0.0161974
608.810	0.0161539
608.888	0.0160162
608.966	0.0161467
609.044	0.0162190
609.122	0.0161572
609.200	0.0161015
609.279	0.0161535
609.357	0.0160369
609.435	0.0161404
609.513	0.0162945
609.591	0.0160908
609.669	0.0160871
609.747	0.0161414
609.825	0.0160006
609.904	0.0160276
609.982	0.0161617
610.060	0.0160171
610.138	0.0160718
610.216	0.0162238
610.294	0.0161584
610.372	0.0160784
610.450	0.0160989
610.529	0.0159503
610.607	0.0160608
610.685	0.0159990
610.763	0.0160448
610.841	0.0162032
610.919	0.0161151
610.997	0.0160696
611.075	0.0160488
611.154	0.0161401
611.232	0.0159895
611.310	0.0161536
611.388	0.0160555
611.466	0.0159324
611.544	0.0160769
611.622	0.0161619
611.700	0.0160965
611.779	0.0162399
611.857	0.0159536
611.935	0.0159931
612.013	0.0160852
612.091	0.0160649
612.169	0.0160513
612.247	0.0161087
612.325	0.0161272
612.404	0.0160750
612.482	0.0161288
612.560	0.0161497
612.638	0.0161649
612.716	0.0161436
612.794	0.0161140
612.872	0.0162575
612.950	0.0161346
613.029	0.0159911
613.107	0.0161523
613.185	0.0160876
613.263	0.0160130
613.341	0.0161066
613.419	0.0161225
613.497	0.0161236
613.575	0.0159804
613.654	0.0162073
613.732	0.0161041
613.810	0.0161024
613.888	0.0161122
613.966	0.0160526
614.044	0.0160926
614.122	0.0160402
614.200	0.0160836
614.279	0.0160962
614.357	0.0160574
614.435	0.0160825
614.513	0.0160085
614.591	0.0159011
614.669	0.0161909
614.747	0.0161253
614.825	0.0161213
614.904	0.0161550
614.982	0.0159978
615.060	0.0160664
615.138	0.0161594
615.216	0.0162867
615.294	0.0159546
615.372	0.0159608
615.450	0.0160827
615.529	0.0161725
615.607	0.0160166
615.685	0.0161202
615.763	0.0161066
615.841	0.0161271
615.919	0.0162181
615.997	0.0161545
616.075	0.0160996
616.154	0.0160930
616.232	0.0160931
616.310	0.0162478
616.388	0.0161005
616.466	0.0161204
616.544	0.0161103
616.622	0.0160818
616.700	0.0162093
616.779	0.0161863
616.857	0.0160493
616.935	0.0161893
617.013	0.0161240
617.091	0.0162172
617.169	0.0160954
617.247	0.0161730
617.325	0.0160392
617.404	0.0161261
617.482	0.0161063
617.560	0.0161073
617.638	0.0160831
617.716	0.0162383
617.794	0.0160587
617.872	0.0161446
617.950	0.0162683
618.029	0.0162091
618.107	0.0161147
618.185	0.0161413
618.263	0.0162262
618.341	0.0161097
618.419	0.0161741
618.497	0.0160464
618.575	0.0160274
618.654	0.0162038
618.732	0.0160899
618.810	0.0162881
618.888	0.0161043
618.966	0.0159692
619.044	0.0160334
619.122	0.0160881
619.200	0.0161839
619.279	0.0161199
619.357	0.0160400
619.435	0.0160642
619.513	0.0160563
619.591	0.0162063
619.669	0.0161936
619.747	0.0161268
619.825	0.0162891
619.904	0.0161996
619.982	0.0162048
620.060	0.0161897
620.138	0.0161470
620.216	0.0161228
620.294	0.0162746
620.372	0.0161680
620.450	0.0161544
620.529	0.0162016
620.607	0.0162450
620.685	0.0162772
620.763	0.0162138
620.841	0.0161723
620.919	0.0162202
620.997	0.0160599
621.075	0.0160870
621.154	0.0162024
621.232	0.0161842
621.310	0.0161935
621.388	0.0161372
621.466	0.0161034
621.544	0.0161859
621.622	0.0162392
621.700	0.0161725
621.779	0.0161869
621.857	0.0160899
621.935	0.0162056
622.013	0.0162506
622.091	0.0160616
622.169	0.0161530
622.247	0.0163107
622.325	0.0161937
622.404	0.0161282
622.482	0.0162685
622.560	0.0161718
622.638	0.0162337
622.716	0.0161313
622.794	0.0162487
622.872	0.0160917
622.950	0.0162340
623.029	0.0161745
623.107	0.0161641
623.185	0.0162020
623.263	0.0162507
623.341	0.0160463
623.419	0.0161513
623.497	0.0161861
623.575	0.0161403
623.654	0.0161576
623.732	0.0161347
623.810	0.0161800
623.888	0.0160442
623.966	0.0161476
624.044	0.0162569
624.122	0.0160147
624.200	0.0160470
624.279	0.0161221
624.357	0.0162108
624.435	0.0162016
624.513	0.0161069
624.591	0.0161481
624.669	0.0162335
624.747	0.0161010
624.825	0.0161761
624.904	0.0160688
624.982	0.0159275
625.060	0.0162107
625.138	0.0160353
625.216	0.0159783
625.294	0.0160760
625.372	0.0161029
625.450	0.0160368
625.529	0.0160764
625.607	0.0160323
625.685	0.0159994
625.763	0.0160486
625.841	0.0161394
625.919	0.0160126
625.997	0.0161092
626.075	0.0161107
626.154	0.0159119
626.232	0.0161330
626.310	0.0160822
626.388	0.0161102
626.466	0.0160524
626.544	0.0161595
626.622	0.0161058
626.700	0.0160830
626.779	0.0161139
626.857	0.0160913
626.935	0.0161253
627.013	0.0161170
627.091	0.0161692
627.169	0.0160310
627.247	0.0160850
627.325	0.0160895
627.404	0.0160686
627.482	0.0161078
627.560	0.0160816
627.638	0.0160532
627.716	0.0162755
627.794	0.0160398
627.872	0.0161530
627.950	0.0161934
628.029	0.0160503
628.107	0.0160065
628.185	0.0160688
628.263	0.0161612
628.341	0.0160654
628.419	0.0160672
628.497	0.0161607
628.575	0.0161314
628.654	0.0160517
628.732	0.0159711
628.810	0.0160087
628.888	0.0159349
628.966	0.0160213
629.044	0.0159891
629.122	0.0162125
629.200	0.0160537
629.279	0.0159195
629.357	0.0160941
629.435	0.0160776
629.513	0.0159943
629.591	0.0160609
629.669	0.0161725
629.747	0.0160722
629.825	0.0160627
629.904	0.0162244
629.982	0.0160285
630.060	0.0161056
630.138	0.0160741
630.216	0.0161016
630.294	0.0161338
630.372	0.0160343
630.450	0.0160312
630.529	0.0161063
630.607	0.0162405
630.685	0.0159857
630.763	0.0160319
630.841	0.0160720
630.919	0.0160960
630.997	0.0159637
631.075	0.0159201
631.154	0.0161033
631.232	0.0161223
631.310	0.0161354
631.388	0.0161261
631.466	0.0160644
631.544	0.0159378
631.622	0.0159599
631.700	0.0160353
631.779	0.0160182
631.857	0.0160513
631.935	0.0160789
632.013	0.0158990
632.091	0.0160722
632.169	0.0161238
632.247	0.0159938
632.325	0.0160761
632.404	0.0160899
632.482	0.0160736
632.560	0.0159708
632.638	0.0160419
632.716	0.0160075
632.794	0.0161121
632.872	0.0160674
632.950	0.0161195
633.029	0.0160390
633.107	0.0160423
633.185	0.0162516
633.263	0.0160637
633.341	0.0160315
633.419	0.0159125
633.497	0.0160217
633.575	0.0162845
633.654	0.0162155
633.732	0.0161611
633.810	0.0161362
633.888	0.0162437
633.966	0.0160913
634.044	0.0160612
634.122	0.0160478
634.200	0.0162108
634.279	0.0161384
634.357	0.0160995
634.435	0.0161206
634.513	0.0161443
634.591	0.0160820
634.669	0.0161266
634.747	0.0161646
634.825	0.0161061
634.904	0.0161115
634.982	0.0161729
635.060	0.0160462
635.138	0.0161382
635.216	0.0160423
635.294	0.0161216
635.372	0.0162253
635.450	0.0161774
635.529	0.0161835
635.607	0.0161387
635.685	0.0161615
635.763	0.0161322
635.841	0.0162859
635.919	0.0161266
635.997	0.0161560
636.075	0.0161931
636.154	0.0162420
636.232	0.0161382
636.310	0.0160874
636.388	0.0160777
636.466	0.0161226
636.544	0.0162871
636.622	0.0162730
636.700	0.0160616
636.779	0.0161402
636.857	0.0162921
636.935	0.0162695
637.013	0.0161953
637.091	0.0161461
637.169	0.0161681
637.247	0.0162997
637.325	0.0161453
637.404	0.0162075
637.482	0.0162024
637.560	0.0162587
637.638	0.0161280
637.716	0.0161682
637.794	0.0161320
637.872	0.0162776
637.950	0.0163178
638.029	0.0161922
638.107	0.0162370
638.185	0.0161839
638.263	0.0162164
638.341	0.0161015
638.419	0.0162144
638.497	0.0161372
638.575	0.0163137
638.654	0.0163358
638.732	0.0163536
638.810	0.0162052
638.888	0.0161902
638.966	0.0162869
639.044	0.0160907
639.122	0.0160805
639.200	0.0162512
639.279	0.0163602
639.357	0.0162631
639.435	0.0160970
639.513	0.0161047
639.591	0.0162501
639.669	0.0162244
639.747	0.0161299
639.825	0.0162180
639.904	0.0161458
639.982	0.0163518
640.060	0.0162063
640.138	0.0162251
640.216	0.0161870
640.294	0.0161765
640.372	0.0163804
640.450	0.0160999
640.529	0.0160820
640.607	0.0161269
640.685	0.0161708
640.763	0.0161734
640.841	0.0161859
640.919	0.0161165
640.997	0.0161259
641.075	0.0161295
641.154	0.0161965
641.232	0.0161036
641.310	0.0160559
641.388	0.0161638
641.466	0.0160741
641.544	0.0160955
641.622	0.0161605
641.700	0.0161508
641.779	0.0161568
641.857	0.0160817
641.935	0.0162313
642.013	0.0161592
642.091	0.0161331
642.169	0.0160441
642.247	0.0160215
642.325	0.0162414
642.404	0.0163183
642.482	0.0160611
642.560	0.0161939
642.638	0.0161967
642.716	0.0162086
642.794	0.0161905
642.872	0.0163106
642.950	0.0163180
643.029	0.0162403
643.107	0.0161211
643.185	0.0161995
643.263	0.0162489
643.341	0.0161594
643.419	0.0162908
643.497	0.0161211
643.575	0.0161932
643.654	0.0161287
643.732	0.0160547
643.810	0.0160022
643.888	0.0160582
643.966	0.0159524
644.044	0.0160043
644.122	0.0160678
644.200	0.0159361
644.279	0.0159422
644.357	0.0158269
644.435	0.0157468
644.513	0.0158648
644.591	0.0158622
644.669	0.0157593
644.747	0.0156758
644.825	0.0158292
644.904	0.0157150
644.982	0.0158762
645.060	0.0159760
645.138	0.0160396
645.216	0.0160807
645.294	0.0161314
645.372	0.0161707
645.450	0.0162705
645.529	0.0162138
645.607	0.0163394
645.685	0.0163869
645.763	0.0163065
645.841	0.0165707
645.919	0.0166402
645.997	0.0165768
646.075	0.0166044
646.154	0.0167321
646.232	0.0165745
646.310	0.0166264
646.388	0.0164461
646.466	0.0166088
646.544	0.0163413
646.622	0.0163866
646.700	0.0163416
646.779	0.0160941
646.857	0.0159759
646.935	0.0160349
647.013	0.0159991
647.091	0.0157262
647.169	0.0157323
647.247	0.0157491
647.325	0.0155283
647.404	0.0156931
647.482	0.0154000
647.560	0.0153854
647.638	0.0154491
647.716	0.0155815
647.794	0.0156026
647.872	0.0155771
647.950	0.0155830
648.029	0.0156713
648.107	0.0157822
648.185	0.0157948
648.263	0.0157864
648.341	0.0158699
648.419	0.0159203
648.497	0.0161555
648.575	0.0161445
648.654	0.0161180
648.732	0.0162072
648.810	0.0162219
648.888	0.0163363
648.966	0.0163715
649.044	0.0162984
649.122	0.0162559
649.200	0.0163982
649.279	0.0165159
649.357	0.0165720
649.435	0.0165276
649.513	0.0165865
649.591	0.0167788
649.669	0.0166010
649.747	0.0165675
649.825	0.0164712
649.904	0.0165784
649.982	0.0165993
650.060	0.0165225
650.138	0.0164526
650.216	0.0164321
650.294	0.0164016
650.372	0.0161243
650.450	0.0160384
650.529	0.0159103
650.607	0.0156461
650.685	0.0155555
650.763	0.0154916
650.841	0.0154078
650.919	0.0152768
650.997	0.0152703
651.075	0.0151805
651.154	0.0152718
651.232	0.0152580
651.310	0.0153085
651.388	0.0153341
651.466	0.0153390
651.544	0.0155186
651.622	0.0155123
651.700	0.0156745
651.779	0.0157378
651.857	0.0157551
651.935	0.0159600
652.013	0.0161407
652.091	0.0161132
652.169	0.0162157
652.247	0.0164864
652.325	0.0165435
652.404	0.0164320
652.482	0.0167580
652.560	0.0167213
652.638	0.0166742
652.716	0.0168415
652.794	0.0168605
652.872	0.0168000
652.950	0.0167141
653.029	0.0167035
653.107	0.0165617
653.185	0.0166056
653.263	0.0165929
653.341	0.0164089
653.419	0.0163790
653.497	0.0164556
653.575	0.0162167
653.654	0.0163120
653.732	0.0163372
653.810	0.0160466
653.888	0.0159888
653.966	0.0160853
654.044	0.0160234
654.122	0.0159339
654.200	0.0159254
654.279	0.0158181
654.357	0.0159171
654.435	0.0156470
654.513	0.0156814
654.591	0.0156177
654.669	0.0154005
654.747	0.0154139
654.825	0.0152342
654.904	0.0153078
654.982	0.0150713
655.060	0.0152132
655.138	0.0152081
655.216	0.0150748
655.294	0.0151878
655.372	0.0154035
655.450	0.0154176
655.529	0.0154560
655.607	0.0156560
655.685	0.0158287
655.763	0.0161870
655.841	0.0162565
655.919	0.0162660
655.997	0.0165672
656.075	0.0168064
656.154	0.0169554
656.232	0.0170829
656.310	0.0171629
656.388	0.0172411
656.466	0.0172687
656.544	0.0172716
656.622	0.0174095
656.700	0.0172498
656.779	0.0171693
656.857	0.0171723
656.935	0.0171032
657.013	0.0169556
657.091	0.0168429
657.169	0.0167564
657.247	0.0167523
657.325	0.0165571
657.404	0.0164215
657.482	0.0162914
657.560	0.0162021
657.638	0.0161499
657.716	0.0160065
657.794	0.0158746
657.872	0.0158344
657.950	0.0157395
658.029	0.0156679
658.107	0.0155865
658.185	0.0154971
658.263	0.0155939
658.341	0.0156254
658.419	0.0154900
658.497	0.0154451
658.575	0.0154204
658.654	0.0152409
658.732	0.0153360
658.810	0.0153896
658.888	0.0154344
658.966	0.0153146
659.044	0.0154079
659.122	0.0153272
659.200	0.0154198
659.279	0.0153926
659.357	0.0153465
659.435	0.0154750
659.513	0.0156152
659.591	0.0156884
659.669	0.0157008
659.747	0.0159011
659.825	0.0161308
659.904	0.0162975
659.982	0.0165044
660.060	0.0166267
660.138	0.0168188
660.216	0.0170110
660.294	0.0172031
660.372	0.0171655
660.450	0.0171381
660.529	0.0171931
660.607	0.0171645
660.685	0.0170499
660.763	0.0170757
660.841	0.0169186
660.919	0.0168768
660.997	0.0168533
661.075	0.0167136
661.154	0.0164916
661.232	0.0164573
661.310	0.0165298
661.388	0.0163343
661.466	0.0160950
661.544	0.0161871
661.622	0.0160580
661.700	0.0159898
661.779	0.0160642
661.857	0.0159297
661.935	0.0159612
662.013	0.0160554
662.091	0.0159164
662.169	0.0159996
662.247	0.0159697
662.325	0.0159319
662.404	0.0160144
662.482	0.0161031
662.560	0.0157433
662.638	0.0160214
662.716	0.0158741
662.794	0.0157863
662.872	0.0158551
662.950	0.0158326
663.029	0.0159602
663.107	0.0159066
663.185	0.0158091
663.263	0.0159188
663.341	0.0157631
663.419	0.0157040
663.497	0.0157995
663.575	0.0156582
663.654	0.0155238
663.732	0.0155634
663.810	0.0157660
663.888	0.0155946
663.966	0.0155550
664.044	0.0155441
664.122	0.0156624
664.200	0.0159274
664.279	0.0159222
664.357	0.0160248
664.435	0.0161692
664.513	0.0162818
664.591	0.0164888
664.669	0.0165070
664.747	0.0165810
664.825	0.0166434
664.904	0.0165631
664.982	0.0166234
665.060	0.0165296
665.138	0.0163828
665.216	0.0164852
665.294	0.0161737
665.372	0.0162646
665.450	0.0162038
665.529	0.0161805
665.607	0.0160257
665.685	0.0163181
665.763	0.0163814
665.841	0.0164410
665.919	0.0166716
665.997	0.0166776
666.075	0.0169798
666.154	0.0170918
666.232	0.0170951
666.310	0.0169230
666.388	0.0170084
666.466	0.0168736
666.544	0.0166720
666.622	0.0165429
666.700	0.0162834
666.779	0.0161417
666.857	0.0157793
666.935	0.0156053
667.013	0.0154503
667.091	0.0153414
667.169	0.0153132
667.247	0.0154191
667.325	0.0153382
667.404	0.0153674
667.482	0.0155951
667.560	0.0155068
667.638	0.0154760
667.716	0.0155825
667.794	0.0153954
667.872	0.0154369
667.950	0.0153645
668.029	0.0152157
668.107	0.0151649
668.185	0.0150392
668.263	0.0152177
668.341	0.0153963
668.419	0.0154620
668.497	0.0157604
668.575	0.0159856
668.654	0.0162914
668.732	0.0166716
668.810	0.0169176
668.888	0.0171921
668.966	0.0176091
669.044	0.0176170
669.122	0.0177135
669.200	0.0177238
669.279	0.0175523
669.357	0.0174536
669.435	0.0172948
669.513	0.0170209
669.591	0.0165202
669.669	0.0163188
669.747	0.0160268
669.825	0.0155164
669.904	0.0152763
669.982	0.0153091
670.060	0.0149896
670.138	0.0148080
670.216	0.0146683
670.294	0.0146913
670.372	0.0147189
670.450	0.0146854
670.529	0.0147024
670.607	0.0147176
670.685	0.0147747
670.763	0.0149709
670.841	0.0150560
670.919	0.0152456
670.997	0.0153645
671.075	0.0155877
671.154	0.0159402
671.232	0.0163227
671.310	0.0167229
671.388	0.0172218
671.466	0.0175274
671.544	0.0178851
671.622	0.0182505
671.700	0.0184922
671.779	0.0186262
671.857	0.0186595
671.935	0.0186470
672.013	0.0183196
672.091	0.0177880
672.169	0.0175634
672.247	0.0169559
672.325	0.0163021
672.404	0.0158380
672.482	0.0154575
672.560	0.0150018
672.638	0.0146438
672.716	0.0147630
672.794	0.0147639
672.872	0.0146767
672.950	0.0149600
673.029	0.0150885
673.107	0.0152385
673.185	0.0154300
673.263	0.0153855
673.341	0.0153355
673.419	0.0154055
673.497	0.0152408
673.575	0.0150829
673.654	0.0148088
673.732	0.0146833
673.810	0.0146600
673.888	0.0147455
673.966	0.0149194
674.044	0.0151900
674.122	0.0155024
674.200	0.0158312
674.279	0.0162546
674.357	0.0166685
674.435	0.0170655
674.513	0.0174619
674.591	0.0177936
674.669	0.0179647
674.747	0.0181071
674.825	0.0179286
674.904	0.0180378
674.982	0.0180143
675.060	0.0178082
675.138	0.0174052
675.216	0.0170393
675.294	0.0166482
675.372	0.0163517
675.450	0.0159750
675.529	0.0153722
675.607	0.0149647
675.685	0.0146770
675.763	0.0142202
675.841	0.0139140
675.919	0.0136008
675.997	0.0135160
676.075	0.0135900
676.154	0.0137138
676.232	0.0140668
676.310	0.0145897
676.388	0.0150934
676.466	0.0157331
676.544	0.0164114
676.622	0.0171078
676.700	0.0178559
676.779	0.0185419
676.857	0.0192030
676.935	0.0195309
677.013	0.0197202
677.091	0.0199009
677.169	0.0196398
677.247	0.0195129
677.325	0.0190502
677.404	0.0185800
677.482	0.0179517
677.560	0.0172992
677.638	0.0164927
677.716	0.0159439
677.794	0.0151910
677.872	0.0145525
677.950	0.0141384
678.029	0.0137891
678.107	0.0134515
678.185	0.0132154
678.263	0.0130017
678.341	0.0130935
678.419	0.0130128
678.497	0.0130404
678.575	0.0130347
678.654	0.0130365
678.732	0.0131183
678.810	0.0132385
678.888	0.0134195
678.966	0.0135066
679.044	0.0136961
679.122	0.0139650
679.200	0.0145452
679.279	0.0151501
679.357	0.0160136
679.435	0.0167481
679.513	0.0177028
679.591	0.0185697
679.669	0.0194496
679.747	0.0199890
679.825	0.0205283
679.904	0.0208537
679.982	0.0208374
680.060	0.0207239
680.138	0.0203682
680.216	0.0199995
680.294	0.0194987
680.372	0.0188512
680.450	0.0185063
680.529	0.0178354
680.607	0.0174377
680.685	0.0169132
680.763	0.0164374
680.841	0.0160248
680.919	0.0156782
680.997	0.0152203
681.075	0.0146466
681.154	0.0140722
681.232	0.0136973
681.310	0.0132383
681.388	0.0128999
681.466	0.0126649
681.544	0.0125231
681.622	0.0125246
681.700	0.0129163
681.779	0.0132311
681.857	0.0136317
681.935	0.0142548
682.013	0.0147037
682.091	0.0153954
682.169	0.0156830
682.247	0.0161889
682.325	0.0166270
682.404	0.0168377
682.482	0.0169061
682.560	0.0168722
682.638	0.0169965
682.716	0.0170280
682.794	0.0170448
682.872	0.0168542
682.950	0.0168638
683.029	0.0168713
683.107	0.0167814
683.185	0.0166841
683.263	0.0166010
683.341	0.0165891
683.419	0.0165307
683.497	0.0162841
683.575	0.0160690
683.654	0.0159189
683.732	0.0160294
683.810	0.0159663
683.888	0.0156741
683.966	0.0155428
684.044	0.0156715
684.122	0.0155795
684.200	0.0157092
684.279	0.0158779
684.357	0.0158595
684.435	0.0159602
684.513	0.0162450
684.591	0.0165108
684.669	0.0167361
684.747	0.0170093
684.825	0.0173499
684.904	0.0175869
684.982	0.0179935
685.060	0.0181995
685.138	0.0185395
685.216	0.0186462
685.294	0.0185094
685.372	0.0183530
685.450	0.0181927
685.529	0.0178535
685.607	0.0175148
685.685	0.0169872
685.763	0.0165414
685.841	0.0160227
685.919	0.0155128
685.997	0.0151689
686.075	0.0150107
686.154	0.0148493
686.232	0.0145965
686.310	0.0146983
686.388	0.0148703
686.466	0.0149792
686.544	0.0151289
686.622	0.0151229
686.700	0.0153946
686.779	0.0153419
686.857	0.0152464
686.935	0.0153133
687.013	0.0152074
687.091	0.0149818
687.169	0.0149044
687.247	0.0147631
687.325	0.0144963
687.404	0.0144477
687.482	0.0144518
687.560	0.0144684
687.638	0.0146275
687.716	0.0148134
687.794	0.0150438
687.872	0.0153340
687.950	0.0156723
688.029	0.0160311
688.107	0.0162476
688.185	0.0164883
688.263	0.0168443
688.341	0.0171315
688.419	0.0172760
688.497	0.0173813
688.575	0.0174301
688.654	0.0173924
688.732	0.0175201
688.810	0.0172829
688.888	0.0171313
688.966	0.0168124
689.044	0.0165997
689.122	0.0164949
689.200	0.0162489
689.279	0.0161596
689.357	0.0159415
689.435	0.0158378
689.513	0.0158389
689.591	0.0158143
689.669	0.0157551
689.747	0.0160356
689.825	0.0161749
689.904	0.0160992
689.982	0.0161582
690.060	0.0162582
690.138	0.0164602
690.216	0.0167884
690.294	0.0169008
690.372	0.0170872
690.450	0.0173748
690.529	0.0174458
690.607	0.0177065
690.685	0.0178258
690.763	0.0179224
690.841	0.0179536
690.919	0.0178172
690.997	0.0177952
691.075	0.0176679
691.154	0.0174574
691.232	0.0172151
691.310	0.0169859
691.388	0.0166319
691.466	0.0164727
691.544	0.0161175
691.622	0.0160530
691.700	0.0157984
691.779	0.0157711
691.857	0.0156768
691.935	0.0156178
692.013	0.0153621
692.091	0.0151215
692.169	0.0152797
692.247	0.0151012
692.325	0.0149485
692.404	0.0148203
692.482	0.0147466
692.560	0.0147449
692.638	0.0147538
692.716	0.0145951
692.794	0.0146316
692.872	0.0145200
692.950	0.0144779
693.029	0.0144783
693.107	0.0144097
693.185	0.0143555
693.263	0.0145284
693.341	0.0145690
693.419	0.0143708
693.497	0.0145544
693.575	0.0146416
693.654	0.0146354
693.732	0.0147836
693.810	0.0148589
693.888	0.0149994
693.966	0.0152379
694.044	0.0154147
694.122	0.0156999
694.200	0.0155884
694.279	0.0155907
694.357	0.0155160
694.435	0.0153960
694.513	0.0150906
694.591	0.0150058
694.669	0.0145887
694.747	0.0145410
694.825	0.0143574
694.904	0.0145583
694.982	0.0145595
695.060	0.0148801
695.138	0.0151160
695.216	0.0156170
695.294	0.0160964
695.372	0.0168200
695.450	0.0175417
695.529	0.0182005
695.607	0.0188232
695.685	0.0192992
695.763	0.0198979
695.841	0.0204916
695.919	0.0207390
695.997	0.0210603
696.075	0.0212785
696.154	0.0214570
696.232	0.0215454
696.310	0.0215087
696.388	0.0215964
696.466	0.0217685
696.544	0.0216072
696.622	0.0215012
696.700	0.0212405
696.779	0.0212143
696.857	0.0209441
696.935	0.0205502
697.013	0.0199211
697.091	0.0192798
697.169	0.0184326
697.247	0.0175404
697.325	0.0165596
697.404	0.0155130
697.482	0.0145068
697.560	0.0131226
697.638	0.0119497
697.716	0.0108315
697.794	0.00978218
697.872	0.00912689
697.950	0.00818359
698.029	0.00774727
698.107	0.00757713
698.185	0.00757523
698.263	0.00786873
698.341	0.00810432
698.419	0.00883774
698.497	0.00940521
698.575	0.0101649
698.654	0.0109093
698.732	0.0117017
698.810	0.0125170
698.888	0.0132558
698.966	0.0138883
699.044	0.0144661
699.122	0.0151768
699.200	0.0154979
699.279	0.0160313
699.357	0.0165155
699.435	0.0169333
699.513	0.0170465
699.591	0.0174181
699.669	0.0177296
699.747	0.0178718
699.825	0.0182497
699.904	0.0184598
699.982	0.0184380
700.060	0.0188364
700.138	0.0190511
700.216	0.0190852
700.294	0.0192609
700.372	0.0194430
700.450	0.0194788
700.529	0.0197307
700.607	0.0196861
700.685	0.0197690
700.763	0.0197760
700.841	0.0195033
700.919	0.0195325
700.997	0.0191948
701.075	0.0189301
701.154	0.0185394
701.232	0.0181229
701.310	0.0177923
701.388	0.0172762
701.466	0.0170181
701.544	0.0165173
701.622	0.0161847
701.700	0.0161083
701.779	0.0160708
701.857	0.0160632
701.935	0.0159824
702.013	0.0162391
702.091	0.0164256
702.169	0.0167495
702.247	0.0171117
702.325	0.0175011
702.404	0.0177198
702.482	0.0179970
702.560	0.0183224
702.638	0.0184756
702.716	0.0186312
702.794	0.0187146
702.872	0.0187577
702.950	0.0185699
703.029	0.0183604
703.107	0.0178859
703.185	0.0174968
703.263	0.0170483
703.341	0.0164540
703.419	0.0157507
703.497	0.0150100
703.575	0.0143578
703.654	0.0135143
703.732	0.0129125
703.810	0.0121825
703.888	0.0115656
703.966	0.0111841
704.044	0.0106963
704.122	0.0105061
704.200	0.0104671
704.279	0.0105575
704.357	0.0106599
704.435	0.0109937
704.513	0.0112290
704.591	0.0117994
704.669	0.0122172
704.747	0.0128287
704.825	0.0134336
704.904	0.0138689
704.982	0.0145123
705.060	0.0150526
705.138	0.0152968
705.216	0.0155156
705.294	0.0157893
705.372	0.0158806
705.450	0.0160059
705.529	0.0161572
705.607	0.0160571
705.685	0.0160612
705.763	0.0161610
705.841	0.0161842
705.919	0.0162917
705.997	0.0162307
706.075	0.0164719
706.154	0.0167986
706.232	0.0169324
706.310	0.0172279
706.388	0.0176865
706.466	0.0181304
706.544	0.0184461
706.622	0.0188766
706.700	0.0190392
706.779	0.0194208
706.857	0.0197459
706.935	0.0199110
707.013	0.0201541
707.091	0.0202501
707.169	0.0203040
707.247	0.0201589
707.325	0.0199193
707.404	0.0196530
707.482	0.0192513
707.560	0.0188014
707.638	0.0184310
707.716	0.0178736
707.794	0.0173878
707.872	0.0169946
707.950	0.0167498
708.029	0.0164251
708.107	0.0160957
708.185	0.0159361
708.263	0.0157790
708.341	0.0157600
708.419	0.0157435
708.497	0.0159100
708.575	0.0160941
708.654	0.0161318
708.732	0.0162350
708.810	0.0164542
708.888	0.0167485
708.966	0.0168779
709.044	0.0170172
709.122	0.0170858
709.200	0.0170461
709.279	0.0172706
709.357	0.0171929
709.435	0.0171049
709.513	0.0167536
709.591	0.0164388
709.669	0.0161001
709.747	0.0156533
709.825	0.0150246
709.904	0.0143681
709.982	0.0138374
710.060	0.0133055
710.138	0.0127570
710.216	0.0124115
710.294	0.0121387
710.372	0.0118230
710.450	0.0116273
710.529	0.0117982
710.607	0.0117272
710.685	0.0120394
710.763	0.0122708
710.841	0.0126323
710.919	0.0129645
710.997	0.0132819
711.075	0.0138309
711.154	0.0140691
711.232	0.0144473
711.310	0.0146347
711.388	0.0148572
711.466	0.0151027
711.544	0.0151127
711.622	0.0151726
711.700	0.0151344
711.779	0.0153785
711.857	0.0153698
711.935	0.0153461
712.013	0.0154720
712.091	0.0154961
712.169	0.0157528
712.247	0.0158664
712.325	0.0162482
712.404	0.0164848
712.482	0.0166981
712.560	0.0171776
712.638	0.0174596
712.716	0.0178855
712.794	0.0182667
712.872	0.0186517
712.950	0.0190276
713.029	0.0192989
713.107	0.0194002
713.185	0.0195403
713.263	0.0199728
713.341	0.0199950
713.419	0.0198804
713.497	0.0197717
713.575	0.0196622
713.654	0.0192724
713.732	0.0191136
713.810	0.0187241
713.888	0.0182683
713.966	0.0179206
714.044	0.0175883
714.122	0.0172108
714.200	0.0170500
714.279	0.0169167
714.357	0.0166671
714.435	0.0164561
714.513	0.0165334
714.591	0.0165697
714.669	0.0166541
714.747	0.0168123
714.825	0.0169336
714.904	0.0169695
714.982	0.0171442
715.060	0.0172230
715.138	0.0174319
715.216	0.0172618
715.294	0.0173742
715.372	0.0173103
715.450	0.0172064
715.529	0.0171002
715.607	0.0169684
715.685	0.0168288
715.763	0.0164185
715.841	0.0160363
715.919	0.0157448
715.997	0.0152694
716.075	0.0148713
716.154	0.0144058
716.232	0.0138320
716.310	0.0133293
716.388	0.0127811
716.466	0.0125446
716.544	0.0121897
716.622	0.0117868
716.700	0.0115308
716.779	0.0114440
716.857	0.0115189
716.935	0.0114957
717.013	0.0117635
717.091	0.0120359
717.169	0.0124077
717.247	0.0125988
717.325	0.0130676
717.404	0.0135789
717.482	0.0140662
717.560	0.0142318
717.638	0.0147758
717.716	0.0148540
717.794	0.0152119
717.872	0.0153263
717.950	0.0157880
718.029	0.0159541
718.107	0.0161289
718.185	0.0162717
718.263	0.0162648
718.341	0.0163865
718.419	0.0165311
718.497	0.0167390
718.575	0.0168629
718.654	0.0168448
718.732	0.0169514
718.810	0.0171442
718.888	0.0173520
718.966	0.0176505
719.044	0.0178200
719.122	0.0180575
719.200	0.0183870
719.279	0.0184722
719.357	0.0185452
719.435	0.0186993
719.513	0.0190381
719.591	0.0190871
719.669	0.0190053
719.747	0.0191512
719.825	0.0188754
719.904	0.0189455
719.982	0.0188788
720.060	0.0185418
720.138	0.0184702
720.216	0.0183910
720.294	0.0180236
720.372	0.0178442
720.450	0.0178208
720.529	0.0176014
720.607	0.0173716
720.685	0.0171256
720.763	0.0170850
720.841	0.0168222
720.919	0.0167900
720.997	0.0165794
721.075	0.0165269
721.154	0.0164180
721.232	0.0164182
721.310	0.0164605
721.388	0.0163939
721.466	0.0163328
721.544	0.0164313
721.622	0.0164080
721.700	0.0165099
721.779	0.0165830
721.857	0.0166669
721.935	0.0164552
722.013	0.0163526
722.091	0.0162442
722.169	0.0158765
722.247	0.0157197
722.325	0.0154241
722.404	0.0150446
722.482	0.0147900
722.560	0.0143028
722.638	0.0141402
722.716	0.0140353
722.794	0.0137000
722.872	0.0135850
722.950	0.0133793
723.029	0.0133966
723.107	0.0131744
723.185	0.0133002
723.263	0.0133898
723.341	0.0137014
723.419	0.0137198
723.497	0.0138952
723.575	0.0141036
723.654	0.0143772
723.732	0.0145301
723.810	0.0147138
723.888	0.0147176
723.966	0.0149595
724.044	0.0151165
724.122	0.0151027
724.200	0.0151123
724.279	0.0150979
724.357	0.0151936
724.435	0.0152441
724.513	0.0152203
724.591	0.0153469
724.669	0.0153699
724.747	0.0154968
724.825	0.0155103
724.904	0.0158250
724.982	0.0159738
725.060	0.0161315
725.138	0.0162448
725.216	0.0165580
725.294	0.0166718
725.372	0.0168902
725.450	0.0169987
725.529	0.0172489
725.607	0.0174918
725.685	0.0176977
725.763	0.0180994
725.841	0.0180529
725.919	0.0181430
725.997	0.0183854
726.075	0.0184560
726.154	0.0185789
726.232	0.0185109
726.310	0.0185567
726.388	0.0184692
726.466	0.0185197
726.544	0.0183819
726.622	0.0182919
726.700	0.0182811
726.779	0.0179749
726.857	0.0178078
726.935	0.0174675
727.013	0.0173306
727.091	0.0171183
727.169	0.0168197
727.247	0.0167237
727.325	0.0165506
727.404	0.0163255
727.482	0.0162282
727.560	0.0161058
727.638	0.0161860
727.716	0.0162802
727.794	0.0163506
727.872	0.0163653
727.950	0.0165082
728.029	0.0165986
728.107	0.0168732
728.185	0.0167601
728.263	0.0169664
728.341	0.0168296
728.419	0.0168331
728.497	0.0166700
728.575	0.0164158
728.654	0.0164164
728.732	0.0160371
728.810	0.0157200
728.888	0.0155074
728.966	0.0151635
729.044	0.0147858
729.122	0.0147498
729.200	0.0145547
729.279	0.0144064
729.357	0.0142618
729.435	0.0140923
729.513	0.0141623
729.591	0.0141975
729.669	0.0141601
729.747	0.0142432
729.825	0.0142940
729.904	0.0143188
729.982	0.0144221
730.060	0.0144662
730.138	0.0144056
730.216	0.0145603
730.294	0.0147852
730.372	0.0147959
730.450	0.0147127
730.529	0.0148566
730.607	0.0149490
730.685	0.0150642
730.763	0.0151163
730.841	0.0152020
730.919	0.0153052
730.997	0.0153554
731.075	0.0151606
731.154	0.0154276
731.232	0.0153853
731.310	0.0153217
731.388	0.0154683
731.466	0.0155524
731.544	0.0154937
731.622	0.0155849
731.700	0.0158317
731.779	0.0159750
731.857	0.0160479
731.935	0.0162547
732.013	0.0164365
732.091	0.0167978
732.169	0.0170303
732.247	0.0171369
732.325	0.0172498
732.404	0.0175856
732.482	0.0177348
732.560	0.0179537
732.638	0.0180889
732.716	0.0180870
732.794	0.0181495
732.872	0.0182686
732.950	0.0182398
733.029	0.0181818
733.107	0.0180575
733.185	0.0180872
733.263	0.0180230
733.341	0.0177135
733.419	0.0175861
733.497	0.0174968
733.575	0.0174452
733.654	0.0174101
733.732	0.0171594
733.810	0.0170196
733.888	0.0168625
733.966	0.0168927
734.044	0.0168074
734.122	0.0169807
734.200	0.0168452
734.279	0.0168016
734.357	0.0168224
734.435	0.0166905
734.513	0.0167587
734.591	0.0167507
734.669	0.0166570
734.747	0.0163653
734.825	0.0163800
734.904	0.0163688
734.982	0.0161523
735.060	0.0160170
735.138	0.0159026
735.216	0.0155993
735.294	0.0155132
735.372	0.0153828
735.450	0.0152531
735.529	0.0152255
735.607	0.0149587
735.685	0.0149838
735.763	0.0149462
735.841	0.0149651
735.919	0.0148985
735.997	0.0150260
736.075	0.0149760
736.154	0.0149734
736.232	0.0150531
736.310	0.0151476
736.388	0.0150465
736.466	0.0151538
736.544	0.0149639
736.622	0.0151450
736.700	0.0149826
736.779	0.0150868
736.857	0.0150934
736.935	0.0149814
737.013	0.0149882
737.091	0.0150440
737.169	0.0150024
737.247	0.0151209
737.325	0.0151722
737.404	0.0151225
737.482	0.0151853
737.560	0.0151679
737.638	0.0153095
737.716	0.0152935
737.794	0.0154605
737.872	0.0153587
737.950	0.0153880
738.029	0.0155194
738.107	0.0156156
738.185	0.0156765
738.263	0.0156104
738.341	0.0157198
738.419	0.0159675
738.497	0.0161316
738.575	0.0163294
738.654	0.0163914
738.732	0.0166284
738.810	0.0168013
738.888	0.0168990
738.966	0.0171875
739.044	0.0173166
739.122	0.0173705
739.200	0.0173469
739.279	0.0174007
739.357	0.0175423
739.435	0.0174834
739.513	0.0173547
739.591	0.0174274
739.669	0.0174205
739.747	0.0174434
739.825	0.0173676
739.904	0.0171211
739.982	0.0172187
740.060	0.0171964
740.138	0.0172472
740.216	0.0173010
740.294	0.0173096
740.372	0.0173331
740.450	0.0173268
740.529	0.0172356
740.607	0.0171693
740.685	0.0171203
740.763	0.0171120
740.841	0.0169376
740.919	0.0169254
740.997	0.0168005
741.075	0.0167460
741.154	0.0167625
741.232	0.0165694
741.310	0.0163204
741.388	0.0163117
741.466	0.0162327
741.544	0.0159789
741.622	0.0159510
741.700	0.0159101
741.779	0.0158846
741.857	0.0157266
741.935	0.0157618
742.013	0.0156256
742.091	0.0155875
742.169	0.0156522
742.247	0.0156520
742.325	0.0156912
742.404	0.0155780
742.482	0.0153806
742.560	0.0154836
742.638	0.0155376
742.716	0.0154529
742.794	0.0154932
742.872	0.0154444
742.950	0.0153070
743.029	0.0153185
743.107	0.0152403
743.185	0.0150989
743.263	0.0151672
743.341	0.0151253
743.419	0.0151949
743.497	0.0150949
743.575	0.0151763
743.654	0.0151119
743.732	0.0151550
743.810	0.0152927
743.888	0.0152766
743.966	0.0151306
744.044	0.0153246
744.122	0.0153066
744.200	0.0152692
744.279	0.0152287
744.357	0.0153313
744.435	0.0154449
744.513	0.0154759
744.591	0.0155703
744.669	0.0155307
744.747	0.0155925
744.825	0.0157536
744.904	0.0157331
744.982	0.0158343
745.060	0.0159752
745.138	0.0158696
745.216	0.0160753
745.294	0.0163048
745.372	0.0163696
745.450	0.0164361
745.529	0.0164008
745.607	0.0164699
745.685	0.0165584
745.763	0.0168633
745.841	0.0168334
745.919	0.0167188
745.997	0.0168470
746.075	0.0168114
746.154	0.0168222
746.232	0.0169462
746.310	0.0168418
746.388	0.0168382
746.466	0.0170332
746.544	0.0169878
746.622	0.0168962
746.700	0.0170230
746.779	0.0168854
746.857	0.0171420
746.935	0.0172428
747.013	0.0171323
747.091	0.0171915
747.169	0.0171987
747.247	0.0171055
747.325	0.0170072
747.404	0.0169301
747.482	0.0169171
747.560	0.0167076
747.638	0.0167430
747.716	0.0166443
747.794	0.0166068
747.872	0.0164541
747.950	0.0164409
748.029	0.0162479
748.107	0.0163104
748.185	0.0163519
748.263	0.0161716
748.341	0.0161697
748.419	0.0162263
748.497	0.0160210
748.575	0.0160594
748.654	0.0159634
748.732	0.0158565
748.810	0.0157362
748.888	0.0158123
748.966	0.0157021
749.044	0.0156814
749.122	0.0155676
749.200	0.0155526
749.279	0.0157208
749.357	0.0156743
749.435	0.0156992
749.513	0.0158108
749.591	0.0158573
749.669	0.0158022
749.747	0.0158175
749.825	0.0156709
749.904	0.0156718
749.982	0.0158201
750.060	0.0156570
750.138	0.0156281
750.216	0.0158207
750.294	0.0157704
750.372	0.0157125
750.450	0.0156319
750.529	0.0155857
750.607	0.0155561
750.685	0.0156390
750.763	0.0155325
750.841	0.0155289
750.919	0.0154712
750.997	0.0155161
751.075	0.0153712
751.154	0.0154251
751.232	0.0154411
751.310	0.0153397
751.388	0.0154408
751.466	0.0155253
751.544	0.0156075
751.622	0.0156519
751.700	0.0156425
751.779	0.0158271
751.857	0.0156853
751.935	0.0157615
752.013	0.0159574
752.091	0.0159495
752.169	0.0160757
752.247	0.0161387
752.325	0.0160896
752.404	0.0160999
752.482	0.0163858
752.560	0.0162881
752.638	0.0163845
752.716	0.0164043
752.794	0.0165755
752.872	0.0165692
752.950	0.0166844
753.029	0.0166721
753.107	0.0166490
753.185	0.0167879
753.263	0.0167261
753.341	0.0169036
753.419	0.0168364
753.497	0.0168269
753.575	0.0169250
753.654	0.0169700
753.732	0.0169450
753.810	0.0169078
753.888	0.0170026
753.966	0.0170451
754.044	0.0169817
754.122	0.0169629
754.200	0.0168104
754.279	0.0167104
754.357	0.0168586
754.435	0.0168138
754.513	0.0167247
754.591	0.0167680
754.669	0.0166180
754.747	0.0166207
754.825	0.0165611
754.904	0.0164848
754.982	0.0164636
755.060	0.0161987
755.138	0.0160583
755.216	0.0160419
755.294	0.0159859
755.372	0.0159740
755.450	0.0158644
755.529	0.0157769
755.607	0.0157056
755.685	0.0158927
755.763	0.0158250
755.841	0.0156952
755.919	0.0156846
755.997	0.0157539
756.075	0.0156606
756.154	0.0155582
756.232	0.0157770
756.310	0.0156485
756.388	0.0156645
756.466	0.0157291
756.544	0.0156642
756.622	0.0156554
756.700	0.0155891
756.779	0.0155434
756.857	0.0156731
756.935	0.0156200
757.013	0.0156159
757.091	0.0157255
757.169	0.0155234
757.247	0.0156590
757.325	0.0157802
757.404	0.0156610
757.482	0.0157236
757.560	0.0159167
757.638	0.0158931
757.716	0.0157840
757.794	0.0158601
757.872	0.0158631
757.950	0.0159740
758.029	0.0158772
758.107	0.0160487
758.185	0.0160331
758.263	0.0160133
758.341	0.0161346
758.419	0.0161723
758.497	0.0162527
758.575	0.0162296
758.654	0.0162450
758.732	0.0161911
758.810	0.0162077
758.888	0.0163273
758.966	0.0162259
759.044	0.0162104
759.122	0.0163363
759.200	0.0161668
759.279	0.0162904
759.357	0.0161215
759.435	0.0162652
759.513	0.0162753
759.591	0.0161558
759.669	0.0162315
759.747	0.0162756
759.825	0.0162318
759.904	0.0161867
759.982	0.0162022
760.060	0.0161220
760.138	0.0162209
760.216	0.0162113
760.294	0.0164764
760.372	0.0162340
760.450	0.0162301
760.529	0.0163895
760.607	0.0164013
760.685	0.0164364
760.763	0.0164061
760.841	0.0162582
760.919	0.0163500
760.997	0.0164987
761.075	0.0164455
761.154	0.0164223
761.232	0.0163425
761.310	0.0164542
761.388	0.0164855
761.466	0.0164521
761.544	0.0164177
761.622	0.0163916
761.700	0.0164211
761.779	0.0163464
761.857	0.0162813
761.935	0.0162740
762.013	0.0163065
762.091	0.0162098
762.169	0.0161914
762.247	0.0161774
762.325	0.0162236
762.404	0.0161401
762.482	0.0161145
762.560	0.0161773
762.638	0.0160941
762.716	0.0161665
762.794	0.0161118
762.872	0.0160072
762.950	0.0161172
763.029	0.0160156
763.107	0.0160674
763.185	0.0158833
763.263	0.0159672
763.341	0.0158777
763.419	0.0157602
763.497	0.0158946
763.575	0.0157380
763.654	0.0157289
763.732	0.0156473
763.810	0.0156306
763.888	0.0156996
763.966	0.0156881
764.044	0.0158233
764.122	0.0157822
764.200	0.0158025
764.279	0.0158914
764.357	0.0158591
764.435	0.0161151
764.513	0.0161446
764.591	0.0161229
764.669	0.0163004
764.747	0.0163621
764.825	0.0163034
764.904	0.0162962
764.982	0.0163908
765.060	0.0164548
765.138	0.0163649
765.216	0.0163414
765.294	0.0163195
765.372	0.0162553
765.450	0.0161523
765.529	0.0162291
765.607	0.0160378
765.685	0.0159529
765.763	0.0160074
765.841	0.0159653
765.919	0.0160372
765.997	0.0160494
766.075	0.0160172
766.154	0.0159283
766.232	0.0159279
766.310	0.0158401
766.388	0.0159275
766.466	0.0159957
766.544	0.0159916
766.622	0.0158700
766.700	0.0157927
766.779	0.0158517
766.857	0.0158241
766.935	0.0157978
767.013	0.0159147
767.091	0.0159341
767.169	0.0159796
767.247	0.0158232
767.325	0.0159713
767.404	0.0161514
767.482	0.0161194
767.560	0.0160959
767.638	0.0161766
767.716	0.0161804
767.794	0.0163812
767.872	0.0163995
767.950	0.0164535
768.029	0.0164430
768.107	0.0165146
768.185	0.0165572
768.263	0.0165444
768.341	0.0166451
768.419	0.0165092
768.497	0.0165719
768.575	0.0165711
768.654	0.0166200
768.732	0.0166172
768.810	0.0166796
768.888	0.0166176
768.966	0.0166233
769.044	0.0164474
769.122	0.0163219
769.200	0.0162711
769.279	0.0163098
769.357	0.0163022
769.435	0.0163898
769.513	0.0162566
769.591	0.0159365
769.669	0.0160226
769.747	0.0160731
769.825	0.0159279
769.904	0.0158129
769.982	0.0158157
770.060	0.0157571
770.138	0.0158312
770.216	0.0159325
770.294	0.0158772
770.372	0.0158175
770.450	0.0156419
770.529	0.0157573
770.607	0.0159239
770.685	0.0159740
770.763	0.0158483
770.841	0.0157883
770.919	0.0158051
770.997	0.0158799
771.075	0.0158578
771.154	0.0159184
771.232	0.0158595
771.310	0.0157865
771.388	0.0158401
771.466	0.0158676
771.544	0.0158622
771.622	0.0159407
771.700	0.0159198
771.779	0.0158183
771.857	0.0158603
771.935	0.0159499
772.013	0.0160490
772.091	0.0159437
772.169	0.0160478
772.247	0.0160989
772.325	0.0160281
772.404	0.0161469
772.482	0.0162217
772.560	0.0161025
772.638	0.0160140
772.716	0.0160648
772.794	0.0160678
772.872	0.0163001
772.950	0.0161750
773.029	0.0161609
773.107	0.0163476
773.185	0.0163314
773.263	0.0163126
773.341	0.0162546
773.419	0.0163420
773.497	0.0163505
773.575	0.0163066
773.654	0.0161172
773.732	0.0162955
773.810	0.0161271
773.888	0.0160123
773.966	0.0161230
774.044	0.0161423
774.122	0.0160960
774.200	0.0160497
774.279	0.0161222
774.357	0.0161067
774.435	0.0159083
774.513	0.0159830
774.591	0.0159006
774.669	0.0158662
774.747	0.0158798
774.825	0.0158331
774.904	0.0159351
774.982	0.0157867
775.060	0.0157856
775.138	0.0159774
775.216	0.0158338
775.294	0.0157858
775.372	0.0157459
775.450	0.0159726
775.529	0.0159403
775.607	0.0161573
775.685	0.0161746
775.763	0.0163156
775.841	0.0163882
775.919	0.0162812
775.997	0.0164337
776.075	0.0165287
776.154	0.0164488
776.232	0.0165137
776.310	0.0165006
776.388	0.0164618
776.466	0.0163914
776.544	0.0165437
776.622	0.0164198
776.700	0.0162976
776.779	0.0161952
776.857	0.0162711
776.935	0.0162409
777.013	0.0161597
777.091	0.0161597
777.169	0.0161268
777.247	0.0162050
777.325	0.0161291
777.404	0.0160029
777.482	0.0160106
777.560	0.0159531
777.638	0.0157585
777.716	0.0159171
777.794	0.0158142
777.872	0.0158271
777.950	0.0158803
778.029	0.0157969
778.107	0.0159393
778.185	0.0159284
778.263	0.0159361
778.341	0.0159016
778.419	0.0159427
778.497	0.0161399
778.575	0.0160835
778.654	0.0160630
778.732	0.0161202
778.810	0.0160964
778.888	0.0160999
778.966	0.0161710
779.044	0.0162756
779.122	0.0161623
779.200	0.0162805
779.279	0.0162655
779.357	0.0163769
779.435	0.0162454
779.513	0.0162297
779.591	0.0162510
779.669	0.0161742
779.747	0.0160741
779.825	0.0160760
779.904	0.0160121
779.982	0.0161250
780.060	0.0160366
780.138	0.0159689
780.216	0.0160290
780.294	0.0160604
780.372	0.0158546
780.450	0.0158875
780.529	0.0159615
780.607	0.0159785
780.685	0.0160476
780.763	0.0160123
780.841	0.0159685
780.919	0.0160246
780.997	0.0160779
781.075	0.0162296
781.154	0.0162855
781.232	0.0161710
781.310	0.0160895
781.388	0.0161475
781.466	0.0161268
781.544	0.0160622
781.622	0.0162328
781.700	0.0160487
781.779	0.0160419
781.857	0.0160502
781.935	0.0160373
782.013	0.0159175
782.091	0.0160688
782.169	0.0160759
782.247	0.0160944
782.325	0.0160772
782.404	0.0160517
782.482	0.0160445
782.560	0.0159054
782.638	0.0161900
782.716	0.0162079
782.794	0.0161486
782.872	0.0162191
782.950	0.0162057
783.029	0.0161565
783.107	0.0160524
783.185	0.0161943
783.263	0.0161488
783.341	0.0161839
783.419	0.0161724
783.497	0.0160846
783.575	0.0160976
783.654	0.0161046
783.732	0.0161925
783.810	0.0161511
783.888	0.0159953
783.966	0.0160796
784.044	0.0162215
784.122	0.0162423
784.200	0.0163539
784.279	0.0161675
784.357	0.0162362
784.435	0.0161482
784.513	0.0160645
784.591	0.0161304
784.669	0.0161596
784.747	0.0160719
784.825	0.0160346
784.904	0.0160272
784.982	0.0160604
785.060	0.0159717
785.138	0.0160085
785.216	0.0160165
785.294	0.0161139
785.372	0.0160554
785.450	0.0160529
785.529	0.0161652
785.607	0.0162051
785.685	0.0161472
785.763	0.0161691
785.841	0.0162347
785.919	0.0160643
785.997	0.0161123
786.075	0.0162115
786.154	0.0160914
786.232	0.0161308
786.310	0.0162399
786.388	0.0163753
786.466	0.0160553
786.544	0.0162426
786.622	0.0163124
786.700	0.0162417
786.779	0.0163102
786.857	0.0163499
786.935	0.0162935
787.013	0.0163222
787.091	0.0162935
787.169	0.0163356
787.247	0.0162801
787.325	0.0162746
787.404	0.0161927
787.482	0.0161950
787.560	0.0160628
787.638	0.0161199
787.716	0.0162608
787.794	0.0161591
787.872	0.0161144
787.950	0.0159496
788.029	0.0159711
788.107	0.0159251
788.185	0.0160438
788.263	0.0160026
788.341	0.0159666
788.419	0.0159522
788.497	0.0159915
788.575	0.0158688
788.654	0.0159150
788.732	0.0161584
788.810	0.0159479
788.888	0.0158485
788.966	0.0159488
789.044	0.0160092
789.122	0.0158610
789.200	0.0161079
789.279	0.0158835
789.357	0.0157441
789.435	0.0158817
789.513	0.0157875
789.591	0.0157656
789.669	0.0158393
789.747	0.0158101
789.825	0.0157060
789.904	0.0158150
789.982	0.0158842
790.060	0.0157223
790.138	0.0157168
790.216	0.0157926
790.294	0.0157390
790.372	0.0159921
790.450	0.0158183
790.529	0.0160020
790.607	0.0160018
790.685	0.0159786
790.763	0.0159420
790.841	0.0160906
790.919	0.0159449
790.997	0.0162038
791.075	0.0162516
791.154	0.0159894
791.232	0.0161463
791.310	0.0161452
791.388	0.0162003
791.466	0.0162553
791.544	0.0162820
791.622	0.0161511
791.700	0.0164637
791.779	0.0164471
791.857	0.0164175
791.935	0.0164156
792.013	0.0166302
792.091	0.0164905
792.169	0.0166139
792.247	0.0167825
792.325	0.0166547
792.404	0.0166801
792.482	0.0166592
792.560	0.0167132
792.638	0.0166619
792.716	0.0166837
792.794	0.0166003
792.872	0.0164914
792.950	0.0165273
793.029	0.0164201
793.107	0.0165710
793.185	0.0165535
793.263	0.0163428
793.341	0.0164236
793.419	0.0163541
793.497	0.0161827
793.575	0.0161231
793.654	0.0161829
793.732	0.0161362
793.810	0.0160018
793.888	0.0159099
793.966	0.0159073
794.044	0.0158206
794.122	0.0158050
794.200	0.0158135
794.279	0.0156813
794.357	0.0156380
794.435	0.0156844
794.513	0.0154939
794.591	0.0154443
794.669	0.0156384
794.747	0.0154788
794.825	0.0154723
794.904	0.0154055
794.982	0.0154663
795.060	0.0153741
795.138	0.0153965
795.216	0.0154684
795.294	0.0153723
795.372	0.0154597
795.450	0.0153691
795.529	0.0154780
795.607	0.0154913
795.685	0.0153758
795.763	0.0156096
795.841	0.0155973
795.919	0.0157005
795.997	0.0157664
796.075	0.0157961
796.154	0.0157339
796.232	0.0159699
796.310	0.0161316
796.388	0.0162055
796.466	0.0161674
796.544	0.0163111
796.622	0.0163541
796.700	0.0165122
796.779	0.0164342
796.857	0.0163476
796.935	0.0164231
797.013	0.0166111
797.091	0.0166393
797.169	0.0165978
797.247	0.0166742
797.325	0.0166930
797.404	0.0167293
797.482	0.0166971
797.560	0.0167755
797.638	0.0168015
797.716	0.0166159
797.794	0.0165327
797.872	0.0165403
797.950	0.0165206
798.029	0.0164238
798.107	0.0163332
798.185	0.0163358
798.263	0.0164075
798.341	0.0164098
798.419	0.0165250
798.497	0.0165442
798.575	0.0163320
798.654	0.0163632
798.732	0.0164288
798.810	0.0163689
798.888	0.0163812
798.966	0.0162607
799.044	0.0163048
799.122	0.0163134
799.200	0.0162590
799.279	0.0160860
799.357	0.0161513
799.435	0.0162197
799.513	0.0161563
799.591	0.0162128
799.669	0.0159010
799.747	0.0160576
799.825	0.0160621
799.904	0.0157959
799.982	0.0159209
800.060	0.0158834
800.138	0.0157529
800.216	0.0158280
800.294	0.0158312
800.372	0.0156384
800.450	0.0157601
800.529	0.0157392
800.607	0.0157703
800.685	0.0157301
800.763	0.0157528
800.841	0.0157497
800.919	0.0156631
800.997	0.0157093
801.075	0.0155814
801.154	0.0155211
801.232	0.0155901
801.310	0.0157601
801.388	0.0158070
801.466	0.0157123
801.544	0.0158016
801.622	0.0158414
801.700	0.0158080
801.779	0.0157161
801.857	0.0159106
801.935	0.0158187
802.013	0.0158260
802.091	0.0159163
802.169	0.0160126
802.247	0.0159852
802.325	0.0159288
802.404	0.0160835
802.482	0.0161791
802.560	0.0161784
802.638	0.0162587
802.716	0.0163560
802.794	0.0163916
802.872	0.0164880
802.950	0.0166628
803.029	0.0165307
803.107	0.0165942
803.185	0.0166763
803.263	0.0166819
803.341	0.0165913
803.419	0.0168618
803.497	0.0168960
803.575	0.0167226
803.654	0.0167436
803.732	0.0167307
803.810	0.0166319
803.888	0.0165437
803.966	0.0166679
804.044	0.0166982
804.122	0.0165291
804.200	0.0165822
804.279	0.0165197
804.357	0.0164157
804.435	0.0161861
804.513	0.0162878
804.591	0.0161411
804.669	0.0161732
804.747	0.0162478
804.825	0.0159788
804.904	0.0160026
804.982	0.0160341
805.060	0.0160648
805.138	0.0161017
805.216	0.0159812
805.294	0.0160117
805.372	0.0160372
805.450	0.0159004
805.529	0.0161060
805.607	0.0160073
805.685	0.0159670
805.763	0.0160725
805.841	0.0159506
805.919	0.0159792
805.997	0.0158916
806.075	0.0159049
806.154	0.0159594
806.232	0.0158515
806.310	0.0157935
806.388	0.0156689
806.466	0.0158361
806.544	0.0157288
806.622	0.0157729
806.700	0.0156352
806.779	0.0156171
806.857	0.0156895
806.935	0.0155656
807.013	0.0156072
807.091	0.0156302
807.169	0.0156232
807.247	0.0156329
807.325	0.0157489
807.404	0.0156828
807.482	0.0156332
807.560	0.0157253
807.638	0.0156657
807.716	0.0157012
807.794	0.0156947
807.872	0.0157317
807.950	0.0157795
808.029	0.0159036
808.107	0.0158808
808.185	0.0160620
808.263	0.0158436
808.341	0.0159668
808.419	0.0160452
808.497	0.0161818
808.575	0.0162540
808.654	0.0162534
808.732	0.0164150
808.810	0.0164301
808.888	0.0164697
808.966	0.0165855
809.044	0.0165375
809.122	0.0165723
809.200	0.0165979
809.279	0.0167799
809.357	0.0167295
809.435	0.0168169
809.513	0.0167847
809.591	0.0167863
809.669	0.0168061
809.747	0.0168349
809.825	0.0168308
809.904	0.0167765
809.982	0.0166611
810.060	0.0166701
810.138	0.0165951
810.216	0.0164860
810.294	0.0162923
810.372	0.0164433
810.450	0.0163865
810.529	0.0162943
810.607	0.0162608
810.685	0.0161277
810.763	0.0161454
810.841	0.0160526
810.919	0.0160982
810.997	0.0160310
811.075	0.0158469
811.154	0.0159161
811.232	0.0158716
811.310	0.0159274
811.388	0.0157961
811.466	0.0157947
811.544	0.0158220
811.622	0.0159737
811.700	0.0159312
811.779	0.0159032
811.857	0.0158125
811.935	0.0158366
812.013	0.0158892
812.091	0.0156973
812.169	0.0158019
812.247	0.0158986
812.325	0.0157178
812.404	0.0157359
812.482	0.0158814
812.560	0.0158116
812.638	0.0157780
812.716	0.0156470
812.794	0.0158764
812.872	0.0156458
812.950	0.0156427
813.029	0.0155855
813.107	0.0156313
813.185	0.0156636
813.263	0.0156843
813.341	0.0157028
813.419	0.0156585
813.497	0.0157283
813.575	0.0157948
813.654	0.0159206
813.732	0.0158245
813.810	0.0158665
813.888	0.0158341
813.966	0.0159610
814.044	0.0160069
814.122	0.0159093
814.200	0.0160113
814.279	0.0160990
814.357	0.0161125
814.435	0.0161339
814.513	0.0163218
814.591	0.0163301
814.669	0.0163216
814.747	0.0162595
814.825	0.0163378
814.904	0.0162682
814.982	0.0162854
815.060	0.0163551
815.138	0.0163489
815.216	0.0163603
815.294	0.0162608
815.372	0.0164499
815.450	0.0164681
815.529	0.0164970
815.607	0.0164496
815.685	0.0164665
815.763	0.0165630
815.841	0.0165487
815.919	0.0167175
815.997	0.0166404
816.075	0.0167334
816.154	0.0166804
816.232	0.0168073
816.310	0.0165614
816.388	0.0166846
816.466	0.0166238
816.544	0.0163882
816.622	0.0165302
816.700	0.0164537
816.779	0.0163805
816.857	0.0164199
816.935	0.0163807
817.013	0.0161889
817.091	0.0162055
817.169	0.0162605
817.247	0.0162151
817.325	0.0160996
817.404	0.0160957
817.482	0.0160901
817.560	0.0160940
817.638	0.0161230
817.716	0.0161631
817.794	0.0161411
817.872	0.0160443
817.950	0.0160774
818.029	0.0161809
818.107	0.0161840
818.185	0.0160298
818.263	0.0160542
818.341	0.0161633
818.419	0.0160503
818.497	0.0160095
818.575	0.0160726
818.654	0.0159966
818.732	0.0160152
818.810	0.0158797
818.888	0.0159010
818.966	0.0157451
819.044	0.0157764
819.122	0.0158978
819.200	0.0157538
819.279	0.0157667
819.357	0.0155647
819.435	0.0156161
819.513	0.0156786
819.591	0.0156453
819.669	0.0158049
819.747	0.0156597
819.825	0.0156345
819.904	0.0156545
819.982	0.0155475
820.060	0.0154860
820.138	0.0156796
820.216	0.0155884
820.294	0.0155526
820.372	0.0157005
820.450	0.0156687
820.529	0.0156807
820.607	0.0156846
820.685	0.0156231
820.763	0.0159002
820.841	0.0159092
820.919	0.0158557
820.997	0.0159275
821.075	0.0160696
821.154	0.0161280
821.232	0.0160600
821.310	0.0161858
821.388	0.0161868
821.466	0.0163875
821.544	0.0163683
821.622	0.0161427
821.700	0.0164705
821.779	0.0165301
821.857	0.0166720
821.935	0.0167333
822.013	0.0166476
822.091	0.0166515
822.169	0.0166132
822.247	0.0167238
822.325	0.0167001
822.404	0.0166660
822.482	0.0166704
822.560	0.0166854
822.638	0.0167428
822.716	0.0167287
822.794	0.0164843
822.872	0.0166477
822.950	0.0166072
823.029	0.0165979
823.107	0.0165749
823.185	0.0165241
823.263	0.0164704
823.341	0.0164787
823.419	0.0164658
823.497	0.0162777
823.575	0.0163625
823.654	0.0164242
823.732	0.0162733
823.810	0.0164007
823.888	0.0163655
823.966	0.0163774
824.044	0.0163067
824.122	0.0162820
824.200	0.0162563
824.279	0.0162774
824.357	0.0163474
824.435	0.0164045
824.513	0.0162383
824.591	0.0162565
824.669	0.0162177
824.747	0.0159792
824.825	0.0160238
824.904	0.0160919
824.982	0.0159451
825.060	0.0159277
825.138	0.0160384
825.216	0.0159743
825.294	0.0157986
825.372	0.0158602
825.450	0.0159518
825.529	0.0158128
825.607	0.0159051
825.685	0.0158456
825.763	0.0158728
825.841	0.0158031
825.919	0.0157156
825.997	0.0158045
826.075	0.0157607
826.154	0.0157400
826.232	0.0158279
826.310	0.0157499
826.388	0.0156413
826.466	0.0157024
826.544	0.0155781
826.622	0.0155165
826.700	0.0157163
826.779	0.0157233
826.857	0.0156657
826.935	0.0156758
827.013	0.0157188
827.091	0.0157222
827.169	0.0157430
827.247	0.0158411
827.325	0.0160197
827.404	0.0159581
827.482	0.0159639
827.560	0.0160150
827.638	0.0159814
827.716	0.0161214
827.794	0.0161744
827.872	0.0160719
827.950	0.0161681
828.029	0.0163410
828.107	0.0163507
828.185	0.0163764
828.263	0.0163608
828.341	0.0164857
828.419	0.0164702
828.497	0.0163215
828.575	0.0164301
828.654	0.0165895
828.732	0.0166502
828.810	0.0164974
828.888	0.0164114
828.966	0.0165545
829.044	0.0167072
829.122	0.0165904
829.200	0.0165725
829.279	0.0165954
829.357	0.0167159
829.435	0.0166334
829.513	0.0164395
829.591	0.0166889
829.669	0.0166150
829.747	0.0166061
829.825	0.0165868
829.904	0.0164740
829.982	0.0165285
830.060	0.0166688
830.138	0.0163332
830.216	0.0162902
830.294	0.0163627
830.372	0.0163127
830.450	0.0162958
830.529	0.0163680
830.607	0.0162923
830.685	0.0160789
830.763	0.0161974
830.841	0.0161722
830.919	0.0161278
830.997	0.0160265
831.075	0.0158125
831.154	0.0158480
831.232	0.0158050
831.310	0.0159615
831.388	0.0159381
831.466	0.0157153
831.544	0.0157076
831.622	0.0157721
831.700	0.0158749
831.779	0.0159248
831.857	0.0157368
831.935	0.0157094
832.013	0.0157400
832.091	0.0157813
832.169	0.0157901
832.247	0.0156821
832.325	0.0157314
832.404	0.0157186
832.482	0.0157206
832.560	0.0158318
832.638	0.0157905
832.716	0.0158128
832.794	0.0158458
832.872	0.0156538
832.950	0.0157624
833.029	0.0158334
833.107	0.0157625
833.185	0.0158658
833.263	0.0158697
833.341	0.0158759
833.419	0.0159419
833.497	0.0157711
833.575	0.0159576
833.654	0.0160317
833.732	0.0160973
833.810	0.0159453
833.888	0.0160648
833.966	0.0161419
834.044	0.0161330
834.122	0.0162244
834.200	0.0162934
834.279	0.0162852
834.357	0.0161488
834.435	0.0161898
834.513	0.0163725
834.591	0.0162691
834.669	0.0163087
834.747	0.0162954
834.825	0.0163847
834.904	0.0164008
834.982	0.0163501
835.060	0.0160934
835.138	0.0163651
835.216	0.0162575
835.294	0.0163397
835.372	0.0162178
835.450	0.0162144
835.529	0.0162808
835.607	0.0161130
835.685	0.0164368
835.763	0.0162753
835.841	0.0162373
835.919	0.0163130
835.997	0.0163503
836.075	0.0162584
836.154	0.0162753
836.232	0.0161975
836.310	0.0163918
836.388	0.0163640
836.466	0.0163039
836.544	0.0162967
836.622	0.0163104
836.700	0.0162373
836.779	0.0161961
836.857	0.0162256
836.935	0.0162357
837.013	0.0163462
837.091	0.0162572
837.169	0.0162981
837.247	0.0162688
837.325	0.0162517
837.404	0.0161369
837.482	0.0160719
837.560	0.0160696
837.638	0.0161469
837.716	0.0160453
837.794	0.0160007
837.872	0.0160389
837.950	0.0158883
838.029	0.0159644
838.107	0.0160442
838.185	0.0159661
838.263	0.0158051
838.341	0.0160323
838.419	0.0160600
838.497	0.0162528
838.575	0.0159280
838.654	0.0160310
838.732	0.0161774
838.810	0.0160567
838.888	0.0161484
838.966	0.0161446
839.044	0.0161064
839.122	0.0160713
839.200	0.0159234
839.279	0.0160438
839.357	0.0161809
839.435	0.0161755
839.513	0.0160273
839.591	0.0160080
839.669	0.0160389
839.747	0.0160049
839.825	0.0161333
839.904	0.0160562
839.982	0.0160365
840.060	0.0159913
840.138	0.0159875
840.216	0.0159171
840.294	0.0160329
840.372	0.0159609
840.450	0.0160709
840.529	0.0159717
840.607	0.0160410
840.685	0.0160128
840.763	0.0159721
840.841	0.0158862
840.919	0.0158629
840.997	0.0159737
841.075	0.0159075
841.154	0.0158646
841.232	0.0159690
841.310	0.0158363
841.388	0.0158617
841.466	0.0160239
841.544	0.0159666
841.622	0.0159731
841.700	0.0160345
841.779	0.0160928
841.857	0.0160835
841.935	0.0160940
842.013	0.0159504
842.091	0.0160831
842.169	0.0160203
842.247	0.0159479
842.325	0.0161023
842.404	0.0161124
842.482	0.0161713
842.560	0.0161457
842.638	0.0161865
842.716	0.0161140
842.794	0.0162115
842.872	0.0163419
842.950	0.0164431
843.029	0.0163893
843.107	0.0162720
843.185	0.0163029
843.263	0.0164024
843.341	0.0163624
843.419	0.0165529
843.497	0.0165662
843.575	0.0164966
843.654	0.0164933
843.732	0.0164456
843.810	0.0163822
843.888	0.0164855
843.966	0.0163798
844.044	0.0164537
844.122	0.0163164
844.200	0.0162437
844.279	0.0163311
844.357	0.0162910
844.435	0.0163441
844.513	0.0162724
844.591	0.0163129
844.669	0.0161604
844.747	0.0160801
844.825	0.0161951
844.904	0.0161175
844.982	0.0160051
845.060	0.0162357
845.138	0.0160459
845.216	0.0161542
845.294	0.0160046
845.372	0.0159408
845.450	0.0159371
845.529	0.0158085
845.607	0.0158201
845.685	0.0158961
845.763	0.0158812
845.841	0.0159724
845.919	0.0158827
845.997	0.0158621
846.075	0.0159695
846.154	0.0159602
846.232	0.0158051
846.310	0.0158923
846.388	0.0160922
846.466	0.0160973
846.544	0.0159927
846.622	0.0159912
846.700	0.0161168
846.779	0.0161398
846.857	0.0161685
846.935	0.0163358
847.013	0.0164373
847.091	0.0162274
847.169	0.0163752
847.247	0.0165578
847.325	0.0165032
847.404	0.0164152
847.482	0.0163739
847.560	0.0164327
847.638	0.0163816
847.716	0.0163737
847.794	0.0162980
847.872	0.0162141
847.950	0.0162368
848.029	0.0161861
848.107	0.0160170
848.185	0.0160258
848.263	0.0160848
848.341	0.0159473
848.419	0.0159172
848.497	0.0157582
848.575	0.0157542
848.654	0.0158239
848.732	0.0156876
848.810	0.0156848
848.888	0.0155921
848.966	0.0157358
849.044	0.0157639
849.122	0.0155377
849.200	0.0157715
849.279	0.0156600
849.357	0.0157480
849.435	0.0157579
849.513	0.0156962
849.591	0.0158709
849.669	0.0158112
849.747	0.0158868
849.825	0.0158849
849.904	0.0159081
849.982	0.0159908
850.060	0.0162017
850.138	0.0161595
850.216	0.0161121
850.294	0.0161584
850.372	0.0161471
850.450	0.0161043
850.529	0.0162674
850.607	0.0163696
850.685	0.0164413
850.763	0.0164188
850.841	0.0163882
850.919	0.0163407
850.997	0.0163070
851.075	0.0162796
851.154	0.0163124
851.232	0.0163412
851.310	0.0165247
851.388	0.0166234
851.466	0.0164398
851.544	0.0164331
851.622	0.0164912
851.700	0.0164565
851.779	0.0165511
851.857	0.0164278
851.935	0.0166647
852.013	0.0165466
852.091	0.0165477
852.169	0.0164009
852.247	0.0164586
852.325	0.0163477
852.404	0.0161366
852.482	0.0163322
852.560	0.0162852
852.638	0.0162351
852.716	0.0160988
852.794	0.0162415
852.872	0.0161844
852.950	0.0161782
853.029	0.0161086
853.107	0.0159968
853.185	0.0159107
853.263	0.0159559
853.341	0.0158390
853.419	0.0158194
853.497	0.0158298
853.575	0.0157607
853.654	0.0156819
853.732	0.0157925
853.810	0.0157183
853.888	0.0157730
853.966	0.0157805
854.044	0.0155676
854.122	0.0156288
854.200	0.0156549
854.279	0.0157059
854.357	0.0155743
854.435	0.0155095
854.513	0.0155845
854.591	0.0156884
854.669	0.0156159
854.747	0.0155721
854.825	0.0156588
854.904	0.0156517
854.982	0.0157700
855.060	0.0158122
855.138	0.0157679
855.216	0.0158833
855.294	0.0160320
855.372	0.0160706
855.450	0.0159397
855.529	0.0160310
855.607	0.0162022
855.685	0.0161211
855.763	0.0161063
855.841	0.0162874
855.919	0.0163683
855.997	0.0162946
856.075	0.0164137
856.154	0.0163855
856.232	0.0166461
856.310	0.0164955
856.388	0.0165353
856.466	0.0165440
856.544	0.0165077
856.622	0.0166594
856.700	0.0165639
856.779	0.0165682
856.857	0.0166748
856.935	0.0164599
857.013	0.0165083
857.091	0.0165023
857.169	0.0164133
857.247	0.0162799
857.325	0.0162093
857.404	0.0162907
857.482	0.0163241
857.560	0.0161190
857.638	0.0162169
857.716	0.0161668
857.794	0.0161031
857.872	0.0161764
857.950	0.0162221
858.029	0.0160343
858.107	0.0160756
858.185	0.0161248
858.263	0.0160938
858.341	0.0160651
858.419	0.0160251
858.497	0.0160298
858.575	0.0159037
858.654	0.0158766
858.732	0.0158879
858.810	0.0158994
858.888	0.0159872
858.966	0.0159272
859.044	0.0159876
859.122	0.0159298
859.200	0.0158426
859.279	0.0160289
859.357	0.0160422
859.435	0.0161984
859.513	0.0161283
859.591	0.0159865
859.669	0.0161473
859.747	0.0162000
859.825	0.0160661
859.904	0.0161714
859.982	0.0159722
860.060	0.0162223
860.138	0.0160846
860.216	0.0160754
860.294	0.0160400
860.372	0.0161266
860.450	0.0161687
860.529	0.0162440
860.607	0.0162417
860.685	0.0162457
860.763	0.0162239
860.841	0.0162183
860.919	0.0163208
860.997	0.0161237
861.075	0.0160932
861.154	0.0161050
861.232	0.0161634
861.310	0.0160385
861.388	0.0158066
861.466	0.0159895
861.544	0.0158572
861.622	0.0156445
861.700	0.0158001
861.779	0.0158843
861.857	0.0157196
861.935	0.0157267
862.013	0.0157389
862.091	0.0158739
862.169	0.0158184
862.247	0.0158820
862.325	0.0159858
862.404	0.0159037
862.482	0.0159520
862.560	0.0159595
862.638	0.0159465
862.716	0.0160492
862.794	0.0160447
862.872	0.0161243
862.950	0.0162067
863.029	0.0161015
863.107	0.0162316
863.185	0.0164173
863.263	0.0164466
863.341	0.0163587
863.419	0.0163943
863.497	0.0165420
863.575	0.0164072
863.654	0.0165905
863.732	0.0164394
863.810	0.0164581
863.888	0.0165319
863.966	0.0164688
864.044	0.0164085
864.122	0.0163499
864.200	0.0161729
864.279	0.0160928
864.357	0.0162282
864.435	0.0160606
864.513	0.0161452
864.591	0.0160239
864.669	0.0160164
864.747	0.0160641
864.825	0.0161253
864.904	0.0160268
864.982	0.0160596
865.060	0.0160268
865.138	0.0161136
865.216	0.0160998
865.294	0.0161166
865.372	0.0160294
865.450	0.0161040
865.529	0.0160674
865.607	0.0160004
865.685	0.0161309
865.763	0.0160567
865.841	0.0158654
865.919	0.0160532
865.997	0.0162354
866.075	0.0161421
866.154	0.0162166
866.232	0.0161624
866.310	0.0161653
866.388	0.0162276
866.466	0.0162527
866.544	0.0162905
866.622	0.0162046
866.700	0.0162194
866.779	0.0161534
866.857	0.0160734
866.935	0.0161493
867.013	0.0161716
867.091	0.0160352
867.169	0.0159972
867.247	0.0159181
867.325	0.0157811
867.404	0.0159173
867.482	0.0158296
867.560	0.0160059
867.638	0.0159256
867.716	0.0157842
867.794	0.0158752
867.872	0.0159557
867.950	0.0158306
868.029	0.0160070
868.107	0.0160234
868.185	0.0160638
868.263	0.0161494
868.341	0.0163567
868.419	0.0163630
868.497	0.0163333
868.575	0.0165116
868.654	0.0165144
868.732	0.0165016
868.810	0.0164539
868.888	0.0164258
868.966	0.0163480
869.044	0.0163133
869.122	0.0161206
869.200	0.0159878
869.279	0.0159404
869.357	0.0157998
869.435	0.0157773
869.513	0.0158824
869.591	0.0156652
869.669	0.0154687
869.747	0.0156653
869.825	0.0157242
869.904	0.0157858
869.982	0.0157446
870.060	0.0159021
870.138	0.0159444
870.216	0.0158478
870.294	0.0158518
870.372	0.0161348
870.450	0.0161285
870.529	0.0162171
870.607	0.0162587
870.685	0.0161939
870.763	0.0162384
870.841	0.0162835
870.919	0.0163605
870.997	0.0163053
871.075	0.0163935
871.154	0.0164558
871.232	0.0164970
871.310	0.0165079
871.388	0.0164861
871.466	0.0164316
871.544	0.0163686
871.622	0.0163554
871.700	0.0164235
871.779	0.0162846
871.857	0.0162989
871.935	0.0161540
872.013	0.0159347
872.091	0.0160441
872.169	0.0159892
872.247	0.0159696
872.325	0.0158983
872.404	0.0157355
872.482	0.0160043
872.560	0.0159321
872.638	0.0158385
872.716	0.0158282
872.794	0.0159081
872.872	0.0157728
872.950	0.0157539
873.029	0.0158146
873.107	0.0157043
873.185	0.0157314
873.263	0.0159077
873.341	0.0157823
873.419	0.0158125
873.497	0.0158484
873.575	0.0160662
873.654	0.0160084
873.732	0.0160724
873.810	0.0161626
873.888	0.0161469
873.966	0.0163077
874.044	0.0164413
874.122	0.0162680
874.200	0.0161938
874.279	0.0163832
874.357	0.0163834
874.435	0.0163842
874.513	0.0162026
874.591	0.0162932
874.669	0.0162368
874.747	0.0160367
874.825	0.0161328
874.904	0.0160897
874.982	0.0160022
875.060	0.0160087
875.138	0.0159890
875.216	0.0159331
875.294	0.0157700
875.372	0.0159052
875.450	0.0160088
875.529	0.0159686
875.607	0.0161718
875.685	0.0161021
875.763	0.0161709
875.841	0.0161062
875.919	0.0161568
875.997	0.0163151
876.075	0.0162070
876.154	0.0162721
876.232	0.0162302
876.310	0.0162266
876.388	0.0162946
876.466	0.0162920
876.544	0.0164521
876.622	0.0160954
876.700	0.0162469
876.779	0.0162753
876.857	0.0162788
876.935	0.0162827
877.013	0.0161130
877.091	0.0160852
877.169	0.0161442
877.247	0.0160816
877.325	0.0160636
877.404	0.0158325
877.482	0.0158618
877.560	0.0158172
877.638	0.0158877
877.716	0.0159062
877.794	0.0157409
877.872	0.0157185
877.950	0.0157978
878.029	0.0157427
878.107	0.0158804
878.185	0.0159621
878.263	0.0159917
878.341	0.0160389
878.419	0.0160089
878.497	0.0161258
878.575	0.0161295
878.654	0.0162145
878.732	0.0161864
878.810	0.0161579
878.888	0.0161230
878.966	0.0162727
879.044	0.0162721
879.122	0.0163351
879.200	0.0163481
879.279	0.0162665
879.357	0.0163476
879.435	0.0163902
879.513	0.0163150
879.591	0.0163467
879.669	0.0163829
879.747	0.0163163
879.825	0.0164390
879.904	0.0162043
879.982	0.0163688
880.060	0.0163312
880.138	0.0161481
880.216	0.0161204
880.294	0.0161509
880.372	0.0162225
880.450	0.0162006
880.529	0.0162270
880.607	0.0160322
880.685	0.0161874
880.763	0.0160293
880.841	0.0160847
880.919	0.0160097
880.997	0.0160577
881.075	0.0161304
881.154	0.0162109
881.232	0.0161526
881.310	0.0161572
881.388	0.0162428
881.466	0.0162473
881.544	0.0162811
881.622	0.0161666
881.700	0.0161480
881.779	0.0160989
881.857	0.0162086
881.935	0.0161223
882.013	0.0162452
882.091	0.0161246
882.169	0.0161316
882.247	0.0161604
882.325	0.0160589
882.404	0.0161642
882.482	0.0160773
882.560	0.0159842
882.638	0.0160873
882.716	0.0161727
882.794	0.0160889
882.872	0.0160576
882.950	0.0160318
883.029	0.0161896
883.107	0.0162753
883.185	0.0160223
883.263	0.0161688
883.341	0.0160611
883.419	0.0161923
883.497	0.0160081
883.575	0.0161452
883.654	0.0162011
883.732	0.0162688
883.810	0.0161589
883.888	0.0161455
883.966	0.0159586
884.044	0.0161589
884.122	0.0161880
884.200	0.0161216
884.279	0.0161151
884.357	0.0160609
884.435	0.0160255
884.513	0.0159193
884.591	0.0158887
884.669	0.0160320
884.747	0.0160757
884.825	0.0160069
884.904	0.0160208
884.982	0.0159890
885.060	0.0161314
885.138	0.0160320
885.216	0.0159682
885.294	0.0162526
885.372	0.0161976
885.450	0.0161013
885.529	0.0161412
885.607	0.0161790
885.685	0.0160354
885.763	0.0161899
885.841	0.0161109
885.919	0.0161454
885.997	0.0161665
886.075	0.0160150
886.154	0.0159705
886.232	0.0160715
886.310	0.0159798
886.388	0.0158821
886.466	0.0157416
886.544	0.0158534
886.622	0.0159519
886.700	0.0159364
886.779	0.0160926
886.857	0.0161008
886.935	0.0161451
887.013	0.0159962
887.091	0.0162151
887.169	0.0162137
887.247	0.0161390
887.325	0.0162552
887.404	0.0162863
887.482	0.0162621
887.560	0.0162991
887.638	0.0163408
887.716	0.0163550
887.794	0.0163427
887.872	0.0163054
887.950	0.0163767
888.029	0.0163938
888.107	0.0163230
888.185	0.0163726
888.263	0.0162429
888.341	0.0164507
888.419	0.0164211
888.497	0.0164111
888.575	0.0162817
888.654	0.0164273
888.732	0.0163142
888.810	0.0162971
888.888	0.0162753
888.966	0.0162855
889.044	0.0161964
889.122	0.0161069
889.200	0.0161208
889.279	0.0160465
889.357	0.0161304
889.435	0.0160007
889.513	0.0157630
889.591	0.0155765
889.669	0.0158649
889.747	0.0158388
889.825	0.0157564
889.904	0.0156948
889.982	0.0157550
890.060	0.0157153
890.138	0.0157030
890.216	0.0156746
890.294	0.0158402
890.372	0.0158898
890.450	0.0159119
890.529	0.0159412
890.607	0.0159402
890.685	0.0160414
890.763	0.0159563
890.841	0.0160576
890.919	0.0162326
890.997	0.0159820
891.075	0.0159861
891.154	0.0161171
891.232	0.0162285
891.310	0.0160971
891.388	0.0162405
891.466	0.0163122
891.544	0.0162218
891.622	0.0161565
891.700	0.0162529
891.779	0.0163073
891.857	0.0162175
891.935	0.0162551
892.013	0.0162904
892.091	0.0162017
892.169	0.0162070
892.247	0.0162444
892.325	0.0162387
892.404	0.0162724
892.482	0.0160748
892.560	0.0162688
892.638	0.0161452
892.716	0.0161400
892.794	0.0160294
892.872	0.0159012
892.950	0.0159049
893.029	0.0159024
893.107	0.0159624
893.185	0.0158889
893.263	0.0158637
893.341	0.0157104
893.419	0.0158466
893.497	0.0158514
893.575	0.0156723
893.654	0.0156905
893.732	0.0158128
893.810	0.0160517
893.888	0.0160365
893.966	0.0159394
894.044	0.0161211
894.122	0.0160867
894.200	0.0161415
894.279	0.0162383
894.357	0.0161363
894.435	0.0160831
894.513	0.0161978
894.591	0.0162737
894.669	0.0162852
894.747	0.0163939
894.825	0.0163431
894.904	0.0162961
894.982	0.0162786
895.060	0.0164104
895.138	0.0163983
895.216	0.0163904
895.294	0.0165491
895.372	0.0163684
895.450	0.0162918
895.529	0.0163272
895.607	0.0161060
895.685	0.0162031
895.763	0.0162024
895.841	0.0161268
895.919	0.0161238
895.997	0.0159521
896.075	0.0159430
896.154	0.0160343
896.232	0.0160809
896.310	0.0159318
896.388	0.0159391
896.466	0.0159594
896.544	0.0158791
896.622	0.0158467
896.700	0.0159549
896.779	0.0160851
896.857	0.0160348
896.935	0.0159686
897.013	0.0160636
897.091	0.0160433
897.169	0.0159882
897.247	0.0160976
897.325	0.0161427
897.404	0.0160020
897.482	0.0161008
897.560	0.0161446
897.638	0.0160813
897.716	0.0163342
897.794	0.0162183
897.872	0.0161591
897.950	0.0162170
898.029	0.0161518
898.107	0.0161596
898.185	0.0162322
898.263	0.0161248
898.341	0.0160724
898.419	0.0160606
898.497	0.0160641
898.575	0.0159802
898.654	0.0160835
898.732	0.0160407
898.810	0.0160777
898.888	0.0159837
898.966	0.0158932
899.044	0.0158260
899.122	0.0158769
899.200	0.0157694
899.279	0.0158322
899.357	0.0157313
899.435	0.0157109
899.513	0.0158714
899.591	0.0157841
899.669	0.0157980
899.747	0.0157608
899.825	0.0158092
899.904	0.0158760
899.982	0.0159607
900.060	0.0160711
900.138	0.0161180
900.216	0.0163819
900.294	0.0162648
900.372	0.0164104
900.450	0.0163641
900.529	0.0164111
900.607	0.0164949
900.685	0.0165332
900.763	0.0163807
900.841	0.0164709
900.919	0.0165649
900.997	0.0165315
901.075	0.0166171
901.154	0.0166058
901.232	0.0164669
901.310	0.0166627
901.388	0.0164462
901.466	0.0164687
901.544	0.0164398
901.622	0.0164006
901.700	0.0162261
901.779	0.0163071
901.857	0.0161601
901.935	0.0160795
902.013	0.0159660
902.091	0.0161933
902.169	0.0159503
902.247	0.0159842
902.325	0.0158647
902.404	0.0159390
902.482	0.0160408
902.560	0.0160127
902.638	0.0159380
902.716	0.0160123
902.794	0.0159243
902.872	0.0160240
902.950	0.0159352
903.029	0.0160192
903.107	0.0162273
903.185	0.0161309
903.263	0.0160694
903.341	0.0161085
903.419	0.0160671
903.497	0.0162228
903.575	0.0163078
903.654	0.0162603
903.732	0.0163363
903.810	0.0163318
903.888	0.0163634
903.966	0.0163466
904.044	0.0161497
904.122	0.0162270
904.200	0.0162885
904.279	0.0161078
904.357	0.0163376
904.435	0.0161607
904.513	0.0159570
904.591	0.0160117
904.669	0.0159862
904.747	0.0159412
904.825	0.0160661
904.904	0.0160342
904.982	0.0158887
905.060	0.0158093
905.138	0.0158813
905.216	0.0159022
905.294	0.0158669
905.372	0.0159705
905.450	0.0157594
905.529	0.0158650
905.607	0.0158484
905.685	0.0158112
905.763	0.0159236
905.841	0.0156735
905.919	0.0158591
905.997	0.0159194
906.075	0.0158651
906.154	0.0159057
906.232	0.0160530
906.310	0.0161944
906.388	0.0163114
906.466	0.0162739
906.544	0.0161561
906.622	0.0162276
906.700	0.0164140
906.779	0.0164120
906.857	0.0165053
906.935	0.0165038
907.013	0.0164486
907.091	0.0165340
907.169	0.0164993
907.247	0.0163649
907.325	0.0164583
907.404	0.0165191
907.482	0.0165215
907.560	0.0164204
907.638	0.0163996
907.716	0.0163669
907.794	0.0163762
907.872	0.0162846
907.950	0.0162334
908.029	0.0162154
908.107	0.0160915
908.185	0.0161448
908.263	0.0160274
908.341	0.0160406
908.419	0.0159052
908.497	0.0159678
908.575	0.0159206
908.654	0.0158025
908.732	0.0158944
908.810	0.0159199
908.888	0.0159204
908.966	0.0158912
909.044	0.0158143
909.122	0.0160651
909.200	0.0160356
909.279	0.0161304
909.357	0.0161311
909.435	0.0163063
909.513	0.0160580
909.591	0.0162223
909.669	0.0162977
909.747	0.0162962
909.825	0.0163315
909.904	0.0162534
909.982	0.0163235
910.060	0.0161572
910.138	0.0162846
910.216	0.0163077
910.294	0.0161931
910.372	0.0160355
910.450	0.0159776
910.529	0.0160758
910.607	0.0159482
910.685	0.0159647
910.763	0.0159698
910.841	0.0159650
910.919	0.0158776
910.997	0.0158082
911.075	0.0157706
911.154	0.0158892
911.232	0.0157227
911.310	0.0156807
911.388	0.0158750
911.466	0.0158344
911.544	0.0157543
911.622	0.0157533
911.700	0.0155602
911.779	0.0157172
911.857	0.0159195
911.935	0.0157911
912.013	0.0156970
912.091	0.0159250
912.169	0.0159842
912.247	0.0159582
912.325	0.0159521
912.404	0.0160293
912.482	0.0160532
912.560	0.0161620
912.638	0.0160383
912.716	0.0162598
912.794	0.0162957
912.872	0.0164224
912.950	0.0163317
913.029	0.0163609
913.107	0.0163698
913.185	0.0166111
913.263	0.0164301
913.341	0.0164571
913.419	0.0166122
913.497	0.0164023
913.575	0.0163457
913.654	0.0163058
913.732	0.0164405
913.810	0.0163954
913.888	0.0162059
913.966	0.0162564
914.044	0.0162499
914.122	0.0160989
914.200	0.0162091
914.279	0.0159662
914.357	0.0159547
914.435	0.0159882
914.513	0.0158338
914.591	0.0159283
914.669	0.0159501
914.747	0.0158740
914.825	0.0158414
914.904	0.0158394
914.982	0.0158456
915.060	0.0159860
915.138	0.0160654
915.216	0.0158197
915.294	0.0158678
915.372	0.0158636
915.450	0.0159869
915.529	0.0162502
915.607	0.0160571
915.685	0.0160366
915.763	0.0161423
915.841	0.0161948
915.919	0.0160508
915.997	0.0161582
916.075	0.0161752
916.154	0.0161016
916.232	0.0162695
916.310	0.0160730
916.388	0.0161258
916.466	0.0161816
916.544	0.0161541
916.622	0.0160374
916.700	0.0161479
916.779	0.0161053
916.857	0.0161003
916.935	0.0160976
917.013	0.0158470
917.091	0.0159302
917.169	0.0161076
917.247	0.0159588
917.325	0.0159259
917.404	0.0159712
917.482	0.0160021
917.560	0.0159690
917.638	0.0159432
917.716	0.0159949
917.794	0.0159823
917.872	0.0159083
917.950	0.0160430
918.029	0.0161322
918.107	0.0159629
918.185	0.0159995
918.263	0.0159621
918.341	0.0159644
918.419	0.0159464
918.497	0.0159206
918.575	0.0160842
918.654	0.0161417
918.732	0.0160365
918.810	0.0161555
918.888	0.0159393
918.966	0.0160352
919.044	0.0162035
919.122	0.0161416
919.200	0.0161251
919.279	0.0161395
919.357	0.0162031
919.435	0.0163042
919.513	0.0164301
919.591	0.0163393
919.669	0.0163549
919.747	0.0162867
919.825	0.0164475
919.904	0.0164495
