05/24/2022	20:21:19	Ver.	4.1	UNKNOWN
Optical Delay	599.981738	Delta X		0.078125	Sweeps	1	Scan Rate	0/0
Coordinates	Axis 1	NaN	Axis 2	NaN	Axis 3	NaN	Axis 4	NaN	Axis 5	NaN	Axis 6	0.000000
TX Power	0.000000	RX Power	0.000000

599.982	0.0166161
600.060	0.0165966
600.138	0.0165063
600.216	0.0166643
600.294	0.0166344
600.372	0.0166059
600.450	0.0165990
600.529	0.0166487
600.607	0.0165516
600.685	0.0167113
600.763	0.0166195
600.841	0.0164972
600.919	0.0166270
600.997	0.0165616
601.075	0.0164940
601.154	0.0165705
601.232	0.0164539
601.310	0.0165267
601.388	0.0166029
601.466	0.0164640
601.544	0.0166266
601.622	0.0165796
601.700	0.0166006
601.779	0.0166525
601.857	0.0165773
601.935	0.0165762
602.013	0.0165660
602.091	0.0167457
602.169	0.0165600
602.247	0.0167242
602.325	0.0168421
602.404	0.0165514
602.482	0.0166002
602.560	0.0166947
602.638	0.0165775
602.716	0.0166433
602.794	0.0165771
602.872	0.0166907
602.950	0.0167009
603.029	0.0165720
603.107	0.0167052
603.185	0.0166698
603.263	0.0165924
603.341	0.0165984
603.419	0.0166547
603.497	0.0165862
603.575	0.0166168
603.654	0.0167213
603.732	0.0166038
603.810	0.0166596
603.888	0.0164763
603.966	0.0165938
604.044	0.0166332
604.122	0.0166118
604.200	0.0166546
604.279	0.0167190
604.357	0.0165884
604.435	0.0166659
604.513	0.0167497
604.591	0.0165704
604.669	0.0165382
604.747	0.0166229
604.825	0.0166101
604.904	0.0165813
604.982	0.0166505
605.060	0.0165930
605.138	0.0165084
605.216	0.0167281
605.294	0.0165786
605.372	0.0166098
605.450	0.0165880
605.529	0.0165571
605.607	0.0165424
605.685	0.0166741
605.763	0.0166528
605.841	0.0166410
605.919	0.0164331
605.997	0.0164978
606.075	0.0167596
606.154	0.0166604
606.232	0.0165990
606.310	0.0165063
606.388	0.0165578
606.466	0.0167232
606.544	0.0164685
606.622	0.0165565
606.700	0.0165305
606.779	0.0166414
606.857	0.0164775
606.935	0.0165391
607.013	0.0165133
607.091	0.0165271
607.169	0.0166367
607.247	0.0165780
607.325	0.0166445
607.404	0.0167069
607.482	0.0166701
607.560	0.0166346
607.638	0.0165736
607.716	0.0165845
607.794	0.0167102
607.872	0.0167123
607.950	0.0166245
608.029	0.0166216
608.107	0.0165904
608.185	0.0165402
608.263	0.0166279
608.341	0.0166644
608.419	0.0165121
608.497	0.0165825
608.575	0.0167796
608.654	0.0165768
608.732	0.0167104
608.810	0.0167614
608.888	0.0166589
608.966	0.0167442
609.044	0.0167481
609.122	0.0166533
609.200	0.0165624
609.279	0.0167281
609.357	0.0166714
609.435	0.0166238
609.513	0.0165980
609.591	0.0166718
609.669	0.0166546
609.747	0.0165998
609.825	0.0166497
609.904	0.0167293
609.982	0.0167021
610.060	0.0166060
610.138	0.0164956
610.216	0.0168310
610.294	0.0167112
610.372	0.0166917
610.450	0.0165507
610.529	0.0165168
610.607	0.0167082
610.685	0.0166240
610.763	0.0166828
610.841	0.0166003
610.919	0.0167449
610.997	0.0166615
611.075	0.0166524
611.154	0.0167032
611.232	0.0167414
611.310	0.0166708
611.388	0.0165752
611.466	0.0166984
611.544	0.0168198
611.622	0.0167591
611.700	0.0166774
611.779	0.0166797
611.857	0.0166135
611.935	0.0167545
612.013	0.0165864
612.091	0.0165537
612.169	0.0166286
612.247	0.0165997
612.325	0.0166477
612.404	0.0165565
612.482	0.0166756
612.560	0.0166892
612.638	0.0166264
612.716	0.0166530
612.794	0.0165428
612.872	0.0166680
612.950	0.0167747
613.029	0.0166541
613.107	0.0167406
613.185	0.0166624
613.263	0.0165690
613.341	0.0166736
613.419	0.0166640
613.497	0.0166836
613.575	0.0165488
613.654	0.0165399
613.732	0.0165714
613.810	0.0164561
613.888	0.0165791
613.966	0.0165889
614.044	0.0166533
614.122	0.0165751
614.200	0.0165567
614.279	0.0166721
614.357	0.0165651
614.435	0.0167981
614.513	0.0165652
614.591	0.0166232
614.669	0.0165768
614.747	0.0166198
614.825	0.0165215
614.904	0.0166992
614.982	0.0166266
615.060	0.0166196
615.138	0.0166182
615.216	0.0165773
615.294	0.0165665
615.372	0.0164979
615.450	0.0165874
615.529	0.0166524
615.607	0.0165498
615.685	0.0166660
615.763	0.0166367
615.841	0.0165648
615.919	0.0167117
615.997	0.0165383
616.075	0.0165511
616.154	0.0166423
616.232	0.0167310
616.310	0.0166952
616.388	0.0166769
616.466	0.0166067
616.544	0.0165801
616.622	0.0165282
616.700	0.0165468
616.779	0.0165585
616.857	0.0166848
616.935	0.0165678
617.013	0.0166066
617.091	0.0165787
617.169	0.0165089
617.247	0.0164873
617.325	0.0165487
617.404	0.0165263
617.482	0.0166337
617.560	0.0166263
617.638	0.0165802
617.716	0.0166368
617.794	0.0165226
617.872	0.0166369
617.950	0.0165883
618.029	0.0165549
618.107	0.0164430
618.185	0.0164040
618.263	0.0164826
618.341	0.0165927
618.419	0.0167495
618.497	0.0165664
618.575	0.0165627
618.654	0.0166635
618.732	0.0166309
618.810	0.0164310
618.888	0.0164818
618.966	0.0165553
619.044	0.0165810
619.122	0.0166776
619.200	0.0166017
619.279	0.0164546
619.357	0.0165525
619.435	0.0166173
619.513	0.0165119
619.591	0.0166610
619.669	0.0166405
619.747	0.0164966
619.825	0.0165296
619.904	0.0165983
619.982	0.0165958
620.060	0.0166758
620.138	0.0166171
620.216	0.0163879
620.294	0.0164728
620.372	0.0166948
620.450	0.0167265
620.529	0.0165366
620.607	0.0166587
620.685	0.0166354
620.763	0.0164807
620.841	0.0166014
620.919	0.0165374
620.997	0.0164962
621.075	0.0165146
621.154	0.0166100
621.232	0.0165266
621.310	0.0165319
621.388	0.0165255
621.466	0.0166102
621.544	0.0165674
621.622	0.0165991
621.700	0.0167201
621.779	0.0165408
621.857	0.0164990
621.935	0.0166371
622.013	0.0166431
622.091	0.0165434
622.169	0.0166301
622.247	0.0167496
622.325	0.0165918
622.404	0.0165356
622.482	0.0166509
622.560	0.0164459
622.638	0.0165903
622.716	0.0165385
622.794	0.0165450
622.872	0.0165577
622.950	0.0164642
623.029	0.0165925
623.107	0.0166814
623.185	0.0165707
623.263	0.0166220
623.341	0.0167673
623.419	0.0166690
623.497	0.0166122
623.575	0.0165293
623.654	0.0167212
623.732	0.0166982
623.810	0.0166458
623.888	0.0167043
623.966	0.0166080
624.044	0.0165892
624.122	0.0166028
624.200	0.0167000
624.279	0.0167023
624.357	0.0165295
624.435	0.0165772
624.513	0.0166515
624.591	0.0166537
624.669	0.0166496
624.747	0.0167387
624.825	0.0165791
624.904	0.0166364
624.982	0.0167669
625.060	0.0166987
625.138	0.0166349
625.216	0.0167001
625.294	0.0166676
625.372	0.0166737
625.450	0.0167831
625.529	0.0166724
625.607	0.0166154
625.685	0.0168306
625.763	0.0167039
625.841	0.0167728
625.919	0.0166996
625.997	0.0166225
626.075	0.0166975
626.154	0.0168642
626.232	0.0168409
626.310	0.0165147
626.388	0.0167599
626.466	0.0167569
626.544	0.0166476
626.622	0.0167175
626.700	0.0167889
626.779	0.0168020
626.857	0.0167310
626.935	0.0166969
627.013	0.0166021
627.091	0.0167442
627.169	0.0166551
627.247	0.0166397
627.325	0.0166193
627.404	0.0167197
627.482	0.0168272
627.560	0.0166047
627.638	0.0165533
627.716	0.0165295
627.794	0.0166107
627.872	0.0167267
627.950	0.0167668
628.029	0.0166191
628.107	0.0166347
628.185	0.0166100
628.263	0.0165205
628.341	0.0166924
628.419	0.0165934
628.497	0.0166708
628.575	0.0165764
628.654	0.0165224
628.732	0.0166738
628.810	0.0166081
628.888	0.0166354
628.966	0.0166060
629.044	0.0165742
629.122	0.0166493
629.200	0.0167036
629.279	0.0167318
629.357	0.0167040
629.435	0.0166396
629.513	0.0166350
629.591	0.0166267
629.669	0.0167641
629.747	0.0166946
629.825	0.0167463
629.904	0.0166758
629.982	0.0166322
630.060	0.0166480
630.138	0.0167787
630.216	0.0167168
630.294	0.0167183
630.372	0.0166416
630.450	0.0166683
630.529	0.0166000
630.607	0.0166447
630.685	0.0167453
630.763	0.0165902
630.841	0.0166674
630.919	0.0166544
630.997	0.0166754
631.075	0.0167147
631.154	0.0166008
631.232	0.0166289
631.310	0.0167920
631.388	0.0165754
631.466	0.0165728
631.544	0.0166499
631.622	0.0167867
631.700	0.0166449
631.779	0.0167201
631.857	0.0167192
631.935	0.0167100
632.013	0.0167447
632.091	0.0166164
632.169	0.0166937
632.247	0.0166582
632.325	0.0166812
632.404	0.0165770
632.482	0.0166560
632.560	0.0166771
632.638	0.0166939
632.716	0.0166541
632.794	0.0166810
632.872	0.0166890
632.950	0.0166005
633.029	0.0166757
633.107	0.0165111
633.185	0.0166012
633.263	0.0166927
633.341	0.0167506
633.419	0.0166163
633.497	0.0166734
633.575	0.0167047
633.654	0.0165393
633.732	0.0165728
633.810	0.0165865
633.888	0.0167051
633.966	0.0166257
634.044	0.0166650
634.122	0.0166376
634.200	0.0166293
634.279	0.0167567
634.357	0.0166569
634.435	0.0166190
634.513	0.0167677
634.591	0.0165834
634.669	0.0165834
634.747	0.0165277
634.825	0.0166250
634.904	0.0166106
634.982	0.0165228
635.060	0.0165110
635.138	0.0166416
635.216	0.0166009
635.294	0.0165868
635.372	0.0165343
635.450	0.0165528
635.529	0.0165874
635.607	0.0165672
635.685	0.0165475
635.763	0.0165803
635.841	0.0166472
635.919	0.0164462
635.997	0.0166826
636.075	0.0165754
636.154	0.0165363
636.232	0.0165878
636.310	0.0165856
636.388	0.0165298
636.466	0.0165917
636.544	0.0164451
636.622	0.0165797
636.700	0.0166824
636.779	0.0165481
636.857	0.0164691
636.935	0.0165542
637.013	0.0166384
637.091	0.0165980
637.169	0.0165008
637.247	0.0165750
637.325	0.0166402
637.404	0.0164583
637.482	0.0165562
637.560	0.0165868
637.638	0.0165263
637.716	0.0165147
637.794	0.0163173
637.872	0.0165166
637.950	0.0165816
638.029	0.0166122
638.107	0.0165943
638.185	0.0164263
638.263	0.0165320
638.341	0.0165462
638.419	0.0166194
638.497	0.0165405
638.575	0.0166597
638.654	0.0164571
638.732	0.0165804
638.810	0.0166010
638.888	0.0165804
638.966	0.0166362
639.044	0.0166891
639.122	0.0166498
639.200	0.0165662
639.279	0.0165967
639.357	0.0165355
639.435	0.0166314
639.513	0.0167744
639.591	0.0165283
639.669	0.0166333
639.747	0.0166573
639.825	0.0165691
639.904	0.0165511
639.982	0.0166327
640.060	0.0165788
640.138	0.0166519
640.216	0.0165351
640.294	0.0164983
640.372	0.0164120
640.450	0.0164665
640.529	0.0164631
640.607	0.0164529
640.685	0.0163525
640.763	0.0164011
640.841	0.0163055
640.919	0.0163558
640.997	0.0163260
641.075	0.0162396
641.154	0.0161374
641.232	0.0161726
641.310	0.0162368
641.388	0.0163181
641.466	0.0164753
641.544	0.0164800
641.622	0.0165554
641.700	0.0164640
641.779	0.0168059
641.857	0.0168683
641.935	0.0167370
642.013	0.0167881
642.091	0.0168961
642.169	0.0170195
642.247	0.0170448
642.325	0.0170733
642.404	0.0170779
642.482	0.0170274
642.560	0.0169949
642.638	0.0170040
642.716	0.0170773
642.794	0.0170265
642.872	0.0168906
642.950	0.0168560
643.029	0.0166820
643.107	0.0168085
643.185	0.0165758
643.263	0.0165138
643.341	0.0163494
643.419	0.0163475
643.497	0.0163018
643.575	0.0160293
643.654	0.0160989
643.732	0.0162133
643.810	0.0161024
643.888	0.0160246
643.966	0.0159406
644.044	0.0159934
644.122	0.0159933
644.200	0.0161199
644.279	0.0161208
644.357	0.0159966
644.435	0.0162336
644.513	0.0163088
644.591	0.0164082
644.669	0.0164823
644.747	0.0166192
644.825	0.0163824
644.904	0.0165443
644.982	0.0166645
645.060	0.0167867
645.138	0.0168161
645.216	0.0168371
645.294	0.0169930
645.372	0.0170127
645.450	0.0170444
645.529	0.0170039
645.607	0.0170814
645.685	0.0171397
645.763	0.0171449
645.841	0.0171578
645.919	0.0172549
645.997	0.0172140
646.075	0.0172200
646.154	0.0171893
646.232	0.0172913
646.310	0.0172821
646.388	0.0171243
646.466	0.0170455
646.544	0.0169055
646.622	0.0168419
646.700	0.0169683
646.779	0.0167410
646.857	0.0164995
646.935	0.0165743
647.013	0.0162975
647.091	0.0162388
647.169	0.0161264
647.247	0.0160168
647.325	0.0159921
647.404	0.0159057
647.482	0.0158086
647.560	0.0159672
647.638	0.0159876
647.716	0.0160146
647.794	0.0159534
647.872	0.0159385
647.950	0.0161481
648.029	0.0162486
648.107	0.0161620
648.185	0.0162785
648.263	0.0164906
648.341	0.0167210
648.419	0.0166328
648.497	0.0168053
648.575	0.0167964
648.654	0.0169201
648.732	0.0171017
648.810	0.0171430
648.888	0.0172128
648.966	0.0173444
649.044	0.0173819
649.122	0.0173571
649.200	0.0173607
649.279	0.0173703
649.357	0.0174236
649.435	0.0173691
649.513	0.0173106
649.591	0.0172243
649.669	0.0172010
649.747	0.0170484
649.825	0.0169034
649.904	0.0169836
649.982	0.0170050
650.060	0.0169077
650.138	0.0168432
650.216	0.0168070
650.294	0.0168066
650.372	0.0167568
650.450	0.0166419
650.529	0.0166455
650.607	0.0163651
650.685	0.0164446
650.763	0.0163212
650.841	0.0164253
650.919	0.0161337
650.997	0.0161832
651.075	0.0160541
651.154	0.0158055
651.232	0.0157526
651.310	0.0156955
651.388	0.0156599
651.466	0.0156481
651.544	0.0156931
651.622	0.0157410
651.700	0.0157446
651.779	0.0159176
651.857	0.0159720
651.935	0.0161338
652.013	0.0161357
652.091	0.0163596
652.169	0.0166611
652.247	0.0167429
652.325	0.0168306
652.404	0.0170482
652.482	0.0172095
652.560	0.0175135
652.638	0.0175391
652.716	0.0175462
652.794	0.0178008
652.872	0.0178120
652.950	0.0178979
653.029	0.0178175
653.107	0.0177870
653.185	0.0177673
653.263	0.0175827
653.341	0.0175340
653.419	0.0174392
653.497	0.0173015
653.575	0.0172887
653.654	0.0171790
653.732	0.0168852
653.810	0.0169827
653.888	0.0168279
653.966	0.0167973
654.044	0.0167266
654.122	0.0166300
654.200	0.0163754
654.279	0.0164670
654.357	0.0163140
654.435	0.0161633
654.513	0.0160860
654.591	0.0161365
654.669	0.0160861
654.747	0.0159986
654.825	0.0160176
654.904	0.0160036
654.982	0.0159173
655.060	0.0158967
655.138	0.0159445
655.216	0.0159364
655.294	0.0158639
655.372	0.0157656
655.450	0.0157976
655.529	0.0157805
655.607	0.0159157
655.685	0.0159115
655.763	0.0159357
655.841	0.0161532
655.919	0.0161758
655.997	0.0161282
656.075	0.0162943
656.154	0.0165785
656.232	0.0166640
656.310	0.0166685
656.388	0.0168814
656.466	0.0173356
656.544	0.0172171
656.622	0.0173395
656.700	0.0175261
656.779	0.0176081
656.857	0.0176736
656.935	0.0176294
657.013	0.0175089
657.091	0.0172759
657.169	0.0173279
657.247	0.0174135
657.325	0.0171352
657.404	0.0171574
657.482	0.0170147
657.560	0.0169775
657.638	0.0168672
657.716	0.0168005
657.794	0.0167629
657.872	0.0167291
657.950	0.0166586
658.029	0.0165044
658.107	0.0164816
658.185	0.0163190
658.263	0.0164757
658.341	0.0164936
658.419	0.0163463
658.497	0.0163217
658.575	0.0164168
658.654	0.0164352
658.732	0.0163453
658.810	0.0163907
658.888	0.0163422
658.966	0.0163360
659.044	0.0164371
659.122	0.0165083
659.200	0.0164458
659.279	0.0164989
659.357	0.0163363
659.435	0.0164186
659.513	0.0164372
659.591	0.0163564
659.669	0.0163603
659.747	0.0162378
659.825	0.0163439
659.904	0.0162735
659.982	0.0163586
660.060	0.0162582
660.138	0.0161979
660.216	0.0161724
660.294	0.0161827
660.372	0.0161452
660.450	0.0161198
660.529	0.0161052
660.607	0.0161514
660.685	0.0163481
660.763	0.0162946
660.841	0.0163258
660.919	0.0166235
660.997	0.0165639
661.075	0.0165253
661.154	0.0167980
661.232	0.0166305
661.310	0.0168191
661.388	0.0168586
661.466	0.0168217
661.544	0.0170072
661.622	0.0169011
661.700	0.0169696
661.779	0.0169718
661.857	0.0169225
661.935	0.0168053
662.013	0.0167739
662.091	0.0167815
662.169	0.0168198
662.247	0.0167528
662.325	0.0168021
662.404	0.0166385
662.482	0.0167591
662.560	0.0167178
662.638	0.0168281
662.716	0.0167816
662.794	0.0167458
662.872	0.0168594
662.950	0.0168822
663.029	0.0168174
663.107	0.0167512
663.185	0.0167156
663.263	0.0165189
663.341	0.0163119
663.419	0.0162972
663.497	0.0162337
663.575	0.0160937
663.654	0.0158914
663.732	0.0159013
663.810	0.0159431
663.888	0.0158040
663.966	0.0160218
664.044	0.0160467
664.122	0.0163426
664.200	0.0165007
664.279	0.0166153
664.357	0.0168204
664.435	0.0169231
664.513	0.0170998
664.591	0.0171671
664.669	0.0170890
664.747	0.0170820
664.825	0.0167367
664.904	0.0166310
664.982	0.0166284
665.060	0.0162939
665.138	0.0160442
665.216	0.0159225
665.294	0.0158551
665.372	0.0157516
665.450	0.0157943
665.529	0.0159005
665.607	0.0159074
665.685	0.0160644
665.763	0.0162604
665.841	0.0162483
665.919	0.0163332
665.997	0.0165627
666.075	0.0163867
666.154	0.0164149
666.232	0.0163962
666.310	0.0163199
666.388	0.0163343
666.466	0.0163996
666.544	0.0163219
666.622	0.0164432
666.700	0.0165306
666.779	0.0167255
666.857	0.0169431
666.935	0.0173003
667.013	0.0173969
667.091	0.0177035
667.169	0.0179794
667.247	0.0180708
667.325	0.0183046
667.404	0.0182885
667.482	0.0181019
667.560	0.0180898
667.638	0.0179288
667.716	0.0175536
667.794	0.0173597
667.872	0.0171330
667.950	0.0167517
668.029	0.0164583
668.107	0.0163956
668.185	0.0160645
668.263	0.0159665
668.341	0.0155550
668.419	0.0154100
668.497	0.0152821
668.575	0.0152145
668.654	0.0149879
668.732	0.0147784
668.810	0.0146590
668.888	0.0145537
668.966	0.0145592
669.044	0.0143644
669.122	0.0148243
669.200	0.0149394
669.279	0.0151562
669.357	0.0154564
669.435	0.0159294
669.513	0.0163342
669.591	0.0167079
669.669	0.0173119
669.747	0.0175507
669.825	0.0179666
669.904	0.0182480
669.982	0.0185281
670.060	0.0187882
670.138	0.0187578
670.216	0.0189750
670.294	0.0188705
670.372	0.0187100
670.450	0.0185205
670.529	0.0182722
670.607	0.0180988
670.685	0.0178056
670.763	0.0174466
670.841	0.0172102
670.919	0.0166843
670.997	0.0162825
671.075	0.0159369
671.154	0.0156353
671.232	0.0154064
671.310	0.0150622
671.388	0.0149718
671.466	0.0150620
671.544	0.0148400
671.622	0.0148406
671.700	0.0148876
671.779	0.0150398
671.857	0.0150745
671.935	0.0155697
672.013	0.0155341
672.091	0.0156668
672.169	0.0158385
672.247	0.0159708
672.325	0.0160902
672.404	0.0162450
672.482	0.0165067
672.560	0.0168829
672.638	0.0171474
672.716	0.0177409
672.794	0.0181736
672.872	0.0186091
672.950	0.0187824
673.029	0.0192489
673.107	0.0192920
673.185	0.0192220
673.263	0.0190319
673.341	0.0185549
673.419	0.0182236
673.497	0.0177771
673.575	0.0172804
673.654	0.0165885
673.732	0.0161051
673.810	0.0156398
673.888	0.0152593
673.966	0.0152654
674.044	0.0150193
674.122	0.0150688
674.200	0.0151210
674.279	0.0149662
674.357	0.0149538
674.435	0.0149589
674.513	0.0147046
674.591	0.0147594
674.669	0.0145184
674.747	0.0145396
674.825	0.0144996
674.904	0.0147384
674.982	0.0150014
675.060	0.0155175
675.138	0.0162454
675.216	0.0170192
675.294	0.0180080
675.372	0.0189831
675.450	0.0198594
675.529	0.0203705
675.607	0.0208820
675.685	0.0213211
675.763	0.0212904
675.841	0.0209349
675.919	0.0204066
675.997	0.0197575
676.075	0.0189644
676.154	0.0180068
676.232	0.0169391
676.310	0.0159071
676.388	0.0151345
676.466	0.0143436
676.544	0.0137540
676.622	0.0134082
676.700	0.0132536
676.779	0.0131933
676.857	0.0131779
676.935	0.0133818
677.013	0.0134364
677.091	0.0137166
677.169	0.0138261
677.247	0.0141079
677.325	0.0144766
677.404	0.0148104
677.482	0.0150587
677.560	0.0155013
677.638	0.0157685
677.716	0.0159563
677.794	0.0164123
677.872	0.0166582
677.950	0.0170790
678.029	0.0176268
678.107	0.0181277
678.185	0.0183722
678.263	0.0188876
678.341	0.0193645
678.419	0.0199080
678.497	0.0201838
678.575	0.0203860
678.654	0.0203162
678.732	0.0203291
678.810	0.0203077
678.888	0.0200227
678.966	0.0195485
679.044	0.0191370
679.122	0.0185813
679.200	0.0178380
679.279	0.0171915
679.357	0.0167011
679.435	0.0160901
679.513	0.0157321
679.591	0.0150013
679.669	0.0146675
679.747	0.0143136
679.825	0.0141345
679.904	0.0138648
679.982	0.0136723
680.060	0.0134347
680.138	0.0134049
680.216	0.0132178
680.294	0.0130910
680.372	0.0131088
680.450	0.0132613
680.529	0.0135772
680.607	0.0139622
680.685	0.0144434
680.763	0.0150204
680.841	0.0158182
680.919	0.0166476
680.997	0.0173422
681.075	0.0177804
681.154	0.0183773
681.232	0.0188272
681.310	0.0188448
681.388	0.0186272
681.466	0.0182764
681.544	0.0180445
681.622	0.0175193
681.700	0.0170447
681.779	0.0166114
681.857	0.0163689
681.935	0.0161172
682.013	0.0160850
682.091	0.0165089
682.169	0.0169668
682.247	0.0174516
682.325	0.0179245
682.404	0.0186594
682.482	0.0191876
682.560	0.0195463
682.638	0.0197948
682.716	0.0197204
682.794	0.0198554
682.872	0.0193700
682.950	0.0187722
683.029	0.0181102
683.107	0.0175433
683.185	0.0167477
683.263	0.0159844
683.341	0.0153125
683.419	0.0146714
683.497	0.0142149
683.575	0.0140939
683.654	0.0140916
683.732	0.0140604
683.810	0.0144626
683.888	0.0147581
683.966	0.0152147
684.044	0.0156942
684.122	0.0162086
684.200	0.0165016
684.279	0.0169798
684.357	0.0172934
684.435	0.0173326
684.513	0.0170895
684.591	0.0169006
684.669	0.0166241
684.747	0.0162919
684.825	0.0161484
684.904	0.0159644
684.982	0.0157140
685.060	0.0156363
685.138	0.0156519
685.216	0.0157677
685.294	0.0158517
685.372	0.0160018
685.450	0.0162419
685.529	0.0163075
685.607	0.0162122
685.685	0.0161928
685.763	0.0163005
685.841	0.0161404
685.919	0.0160555
685.997	0.0160324
686.075	0.0160259
686.154	0.0158273
686.232	0.0158527
686.310	0.0160158
686.388	0.0163699
686.466	0.0166337
686.544	0.0168053
686.622	0.0171938
686.700	0.0172601
686.779	0.0174408
686.857	0.0176107
686.935	0.0175690
687.013	0.0175377
687.091	0.0174746
687.169	0.0173740
687.247	0.0172308
687.325	0.0171424
687.404	0.0170496
687.482	0.0170100
687.560	0.0169054
687.638	0.0170551
687.716	0.0171204
687.794	0.0173611
687.872	0.0173722
687.950	0.0174012
688.029	0.0173875
688.107	0.0174657
688.185	0.0174921
688.263	0.0175085
688.341	0.0173471
688.419	0.0174016
688.497	0.0172357
688.575	0.0172704
688.654	0.0170606
688.732	0.0170473
688.810	0.0169289
688.888	0.0168074
688.966	0.0168373
689.044	0.0167081
689.122	0.0166257
689.200	0.0164789
689.279	0.0164713
689.357	0.0162576
689.435	0.0160289
689.513	0.0158907
689.591	0.0157251
689.669	0.0155898
689.747	0.0153291
689.825	0.0151995
689.904	0.0150531
689.982	0.0151712
690.060	0.0152853
690.138	0.0155028
690.216	0.0157069
690.294	0.0160970
690.372	0.0161708
690.450	0.0163345
690.529	0.0166171
690.607	0.0169263
690.685	0.0170360
690.763	0.0170231
690.841	0.0170436
690.919	0.0170028
690.997	0.0167712
691.075	0.0165971
691.154	0.0164046
691.232	0.0163170
691.310	0.0160631
691.388	0.0160085
691.466	0.0158207
691.544	0.0158783
691.622	0.0158000
691.700	0.0157697
691.779	0.0158581
691.857	0.0160471
691.935	0.0160897
692.013	0.0161674
692.091	0.0162140
692.169	0.0165832
692.247	0.0165952
692.325	0.0162366
692.404	0.0163129
692.482	0.0164719
692.560	0.0163676
692.638	0.0162540
692.716	0.0161472
692.794	0.0162003
692.872	0.0162429
692.950	0.0160683
693.029	0.0159701
693.107	0.0159308
693.185	0.0160090
693.263	0.0161317
693.341	0.0161813
693.419	0.0161315
693.497	0.0163367
693.575	0.0165243
693.654	0.0165945
693.732	0.0168501
693.810	0.0170866
693.888	0.0173637
693.966	0.0173283
694.044	0.0175156
694.122	0.0177613
694.200	0.0180879
694.279	0.0183192
694.357	0.0183869
694.435	0.0185162
694.513	0.0187492
694.591	0.0188412
694.669	0.0190268
694.747	0.0191278
694.825	0.0193449
694.904	0.0194346
694.982	0.0195482
695.060	0.0196635
695.138	0.0196767
695.216	0.0196476
695.294	0.0194891
695.372	0.0192800
695.450	0.0190745
695.529	0.0187040
695.607	0.0182881
695.685	0.0178286
695.763	0.0174104
695.841	0.0169020
695.919	0.0161577
695.997	0.0156065
696.075	0.0151112
696.154	0.0146166
696.232	0.0141141
696.310	0.0136499
696.388	0.0132965
696.466	0.0130602
696.544	0.0126847
696.622	0.0124860
696.700	0.0124352
696.779	0.0123287
696.857	0.0121275
696.935	0.0121000
697.013	0.0122445
697.091	0.0124154
697.169	0.0123897
697.247	0.0127570
697.325	0.0129630
697.404	0.0131940
697.482	0.0135464
697.560	0.0139043
697.638	0.0141873
697.716	0.0145469
697.794	0.0152404
697.872	0.0155724
697.950	0.0159149
698.029	0.0163184
698.107	0.0167706
698.185	0.0171339
698.263	0.0177068
698.341	0.0179154
698.419	0.0185004
698.497	0.0187211
698.575	0.0188941
698.654	0.0193424
698.732	0.0197704
698.810	0.0198936
698.888	0.0200465
698.966	0.0201155
699.044	0.0200484
699.122	0.0200023
699.200	0.0199145
699.279	0.0196339
699.357	0.0194521
699.435	0.0191459
699.513	0.0187848
699.591	0.0186082
699.669	0.0183536
699.747	0.0179247
699.825	0.0179127
699.904	0.0177441
699.982	0.0175449
700.060	0.0174586
700.138	0.0174216
700.216	0.0175332
700.294	0.0175510
700.372	0.0174760
700.450	0.0175341
700.529	0.0177405
700.607	0.0177012
700.685	0.0176672
700.763	0.0179341
700.841	0.0181857
700.919	0.0182246
700.997	0.0184485
701.075	0.0185143
701.154	0.0185604
701.232	0.0184722
701.310	0.0183224
701.388	0.0181754
701.466	0.0177706
701.544	0.0172445
701.622	0.0168511
701.700	0.0162196
701.779	0.0156579
701.857	0.0151024
701.935	0.0143816
702.013	0.0137645
702.091	0.0131327
702.169	0.0126922
702.247	0.0122495
702.325	0.0119096
702.404	0.0116469
702.482	0.0115738
702.560	0.0114689
702.638	0.0115277
702.716	0.0116289
702.794	0.0119043
702.872	0.0122639
702.950	0.0124192
703.029	0.0129537
703.107	0.0134233
703.185	0.0136848
703.263	0.0142011
703.341	0.0146562
703.419	0.0150175
703.497	0.0153011
703.575	0.0158170
703.654	0.0161964
703.732	0.0161893
703.810	0.0166267
703.888	0.0169143
703.966	0.0169955
704.044	0.0171563
704.122	0.0172025
704.200	0.0173615
704.279	0.0175273
704.357	0.0177679
704.435	0.0177631
704.513	0.0180257
704.591	0.0182291
704.669	0.0185881
704.747	0.0189384
704.825	0.0191367
704.904	0.0194081
704.982	0.0198474
705.060	0.0201311
705.138	0.0203963
705.216	0.0204487
705.294	0.0205054
705.372	0.0204506
705.450	0.0202618
705.529	0.0200594
705.607	0.0197961
705.685	0.0194964
705.763	0.0190047
705.841	0.0185726
705.919	0.0180353
705.997	0.0176649
706.075	0.0174160
706.154	0.0170982
706.232	0.0167889
706.310	0.0167500
706.388	0.0166596
706.466	0.0166336
706.544	0.0168037
706.622	0.0168984
706.700	0.0168055
706.779	0.0169957
706.857	0.0171564
706.935	0.0172000
707.013	0.0172289
707.091	0.0172858
707.169	0.0174187
707.247	0.0173483
707.325	0.0171441
707.404	0.0172658
707.482	0.0171387
707.560	0.0171773
707.638	0.0166307
707.716	0.0165614
707.794	0.0162446
707.872	0.0157889
707.950	0.0153674
708.029	0.0150426
708.107	0.0146058
708.185	0.0143056
708.263	0.0138564
708.341	0.0134624
708.419	0.0133298
708.497	0.0131452
708.575	0.0130080
708.654	0.0129918
708.732	0.0128844
708.810	0.0128943
708.888	0.0130311
708.966	0.0132017
709.044	0.0133696
709.122	0.0137502
709.200	0.0140685
709.279	0.0145239
709.357	0.0147189
709.435	0.0150331
709.513	0.0153391
709.591	0.0157546
709.669	0.0159510
709.747	0.0160133
709.825	0.0163116
709.904	0.0162906
709.982	0.0163685
710.060	0.0165378
710.138	0.0163819
710.216	0.0164080
710.294	0.0165150
710.372	0.0164901
710.450	0.0167503
710.529	0.0166674
710.607	0.0168267
710.685	0.0172849
710.763	0.0172092
710.841	0.0175600
710.919	0.0180481
710.997	0.0183939
711.075	0.0187202
711.154	0.0189336
711.232	0.0193821
711.310	0.0196211
711.388	0.0198097
711.466	0.0200307
711.544	0.0200271
711.622	0.0201894
711.700	0.0202217
711.779	0.0201755
711.857	0.0199805
711.935	0.0196502
712.013	0.0192834
712.091	0.0190335
712.169	0.0185120
712.247	0.0180724
712.325	0.0176056
712.404	0.0170865
712.482	0.0168211
712.560	0.0163497
712.638	0.0161823
712.716	0.0159736
712.794	0.0160072
712.872	0.0159218
712.950	0.0158176
713.029	0.0160287
713.107	0.0159368
713.185	0.0160668
713.263	0.0164456
713.341	0.0165354
713.419	0.0168480
713.497	0.0170139
713.575	0.0171908
713.654	0.0173996
713.732	0.0175211
713.810	0.0179055
713.888	0.0177059
713.966	0.0179308
714.044	0.0179994
714.122	0.0177307
714.200	0.0174706
714.279	0.0173788
714.357	0.0171346
714.435	0.0165063
714.513	0.0160654
714.591	0.0157143
714.669	0.0150596
714.747	0.0145655
714.825	0.0140642
714.904	0.0136614
714.982	0.0132765
715.060	0.0130209
715.138	0.0127605
715.216	0.0126336
715.294	0.0127198
715.372	0.0127457
715.450	0.0128710
715.529	0.0130909
715.607	0.0132021
715.685	0.0136514
715.763	0.0140001
715.841	0.0142455
715.919	0.0145378
715.997	0.0147217
716.075	0.0151097
716.154	0.0152625
716.232	0.0155668
716.310	0.0158271
716.388	0.0159386
716.466	0.0161429
716.544	0.0162892
716.622	0.0165146
716.700	0.0165613
716.779	0.0165799
716.857	0.0169059
716.935	0.0170889
717.013	0.0171576
717.091	0.0171876
717.169	0.0174722
717.247	0.0177542
717.325	0.0178776
717.404	0.0181129
717.482	0.0183560
717.560	0.0186442
717.638	0.0190064
717.716	0.0191695
717.794	0.0194454
717.872	0.0196239
717.950	0.0197974
718.029	0.0199443
718.107	0.0198836
718.185	0.0196764
718.263	0.0196696
718.341	0.0193444
718.419	0.0191762
718.497	0.0189112
718.575	0.0186015
718.654	0.0181473
718.732	0.0176664
718.810	0.0174516
718.888	0.0172277
718.966	0.0170323
719.044	0.0168467
719.122	0.0166534
719.200	0.0167239
719.279	0.0167563
719.357	0.0165536
719.435	0.0165234
719.513	0.0166872
719.591	0.0165738
719.669	0.0167368
719.747	0.0166273
719.825	0.0166836
719.904	0.0169338
719.982	0.0169015
720.060	0.0169502
720.138	0.0170135
720.216	0.0169932
720.294	0.0169814
720.372	0.0168530
720.450	0.0168695
720.529	0.0167262
720.607	0.0166473
720.685	0.0163699
720.763	0.0163208
720.841	0.0160558
720.919	0.0158203
720.997	0.0154480
721.075	0.0151363
721.154	0.0149082
721.232	0.0146044
721.310	0.0145466
721.388	0.0144110
721.466	0.0142958
721.544	0.0140189
721.622	0.0140262
721.700	0.0140250
721.779	0.0142132
721.857	0.0143439
721.935	0.0144959
722.013	0.0146155
722.091	0.0145744
722.169	0.0148045
722.247	0.0149529
722.325	0.0150837
722.404	0.0152453
722.482	0.0152769
722.560	0.0153875
722.638	0.0155697
722.716	0.0154848
722.794	0.0157485
722.872	0.0159404
722.950	0.0160723
723.029	0.0161134
723.107	0.0162709
723.185	0.0164687
723.263	0.0166305
723.341	0.0165404
723.419	0.0164928
723.497	0.0165106
723.575	0.0165270
723.654	0.0167216
723.732	0.0167358
723.810	0.0167918
723.888	0.0168871
723.966	0.0172314
724.044	0.0174037
724.122	0.0177072
724.200	0.0180060
724.279	0.0182764
724.357	0.0185748
724.435	0.0189554
724.513	0.0192368
724.591	0.0192862
724.669	0.0195183
724.747	0.0194787
724.825	0.0194128
724.904	0.0193406
724.982	0.0190411
725.060	0.0189365
725.138	0.0184995
725.216	0.0182340
725.294	0.0179015
725.372	0.0175189
725.450	0.0172429
725.529	0.0171163
725.607	0.0169579
725.685	0.0165742
725.763	0.0164716
725.841	0.0163840
725.919	0.0163248
725.997	0.0164498
726.075	0.0163185
726.154	0.0163651
726.232	0.0165279
726.310	0.0168765
726.388	0.0170150
726.466	0.0170084
726.544	0.0172580
726.622	0.0174141
726.700	0.0174579
726.779	0.0175812
726.857	0.0175311
726.935	0.0175742
727.013	0.0173882
727.091	0.0172178
727.169	0.0169762
727.247	0.0167012
727.325	0.0163728
727.404	0.0161714
727.482	0.0159608
727.560	0.0157405
727.638	0.0154362
727.716	0.0152229
727.794	0.0149447
727.872	0.0149252
727.950	0.0147514
728.029	0.0147446
728.107	0.0148079
728.185	0.0147463
728.263	0.0147606
728.341	0.0148849
728.419	0.0149519
728.497	0.0151958
728.575	0.0153043
728.654	0.0152320
728.732	0.0153134
728.810	0.0154958
728.888	0.0155263
728.966	0.0153949
729.044	0.0151757
729.122	0.0151775
729.200	0.0152603
729.279	0.0154040
729.357	0.0152632
729.435	0.0151105
729.513	0.0151806
729.591	0.0151112
729.669	0.0151848
729.747	0.0153290
729.825	0.0154640
729.904	0.0155421
729.982	0.0156946
730.060	0.0157541
730.138	0.0158685
730.216	0.0161196
730.294	0.0163052
730.372	0.0167469
730.450	0.0168102
730.529	0.0169626
730.607	0.0173573
730.685	0.0175652
730.763	0.0177970
730.841	0.0180542
730.919	0.0183636
730.997	0.0184451
731.075	0.0185866
731.154	0.0188235
731.232	0.0189539
731.310	0.0189880
731.388	0.0187835
731.466	0.0187141
731.544	0.0186198
731.622	0.0184940
731.700	0.0184395
731.779	0.0181608
731.857	0.0180944
731.935	0.0180303
732.013	0.0177641
732.091	0.0176434
732.169	0.0176162
732.247	0.0175162
732.325	0.0174686
732.404	0.0172780
732.482	0.0172497
732.560	0.0173149
732.638	0.0172527
732.716	0.0173502
732.794	0.0174027
732.872	0.0172854
732.950	0.0174412
733.029	0.0174986
733.107	0.0174445
733.185	0.0174979
733.263	0.0174176
733.341	0.0173699
733.419	0.0172911
733.497	0.0172411
733.575	0.0169237
733.654	0.0167940
733.732	0.0166803
733.810	0.0163016
733.888	0.0161886
733.966	0.0158850
734.044	0.0157975
734.122	0.0157889
734.200	0.0154448
734.279	0.0152738
734.357	0.0151267
734.435	0.0151241
734.513	0.0150661
734.591	0.0149493
734.669	0.0148869
734.747	0.0151330
734.825	0.0151681
734.904	0.0150994
734.982	0.0151928
735.060	0.0152030
735.138	0.0153181
735.216	0.0152979
735.294	0.0154814
735.372	0.0153896
735.450	0.0154401
735.529	0.0155885
735.607	0.0154167
735.685	0.0156764
735.763	0.0155853
735.841	0.0155708
735.919	0.0156484
735.997	0.0155737
736.075	0.0156120
736.154	0.0156261
736.232	0.0156012
736.310	0.0156435
736.388	0.0156890
736.466	0.0155524
736.544	0.0156525
736.622	0.0158669
736.700	0.0160617
736.779	0.0161182
736.857	0.0161832
736.935	0.0163577
737.013	0.0167085
737.091	0.0168149
737.169	0.0169674
737.247	0.0172220
737.325	0.0174013
737.404	0.0176144
737.482	0.0176984
737.560	0.0177822
737.638	0.0180029
737.716	0.0180347
737.794	0.0179237
737.872	0.0179229
737.950	0.0180633
738.029	0.0180002
738.107	0.0178545
738.185	0.0179645
738.263	0.0178028
738.341	0.0177930
738.419	0.0177957
738.497	0.0178017
738.575	0.0177112
738.654	0.0177182
738.732	0.0176775
738.810	0.0175963
738.888	0.0175706
738.966	0.0176860
739.044	0.0177466
739.122	0.0176706
739.200	0.0175044
739.279	0.0173731
739.357	0.0172635
739.435	0.0171929
739.513	0.0169146
739.591	0.0169980
739.669	0.0169141
739.747	0.0167500
739.825	0.0166393
739.904	0.0166438
739.982	0.0164164
740.060	0.0165780
740.138	0.0165169
740.216	0.0164470
740.294	0.0165714
740.372	0.0163525
740.450	0.0165025
740.529	0.0163573
740.607	0.0163546
740.685	0.0164897
740.763	0.0164439
740.841	0.0162202
740.919	0.0161832
740.997	0.0162447
741.075	0.0161153
741.154	0.0160991
741.232	0.0160352
741.310	0.0158516
741.388	0.0158478
741.466	0.0157806
741.544	0.0156622
741.622	0.0158100
741.700	0.0157816
741.779	0.0156859
741.857	0.0156359
741.935	0.0155999
742.013	0.0156936
742.091	0.0156806
742.169	0.0156116
742.247	0.0156816
742.325	0.0156284
742.404	0.0157327
742.482	0.0156792
742.560	0.0157960
742.638	0.0156414
742.716	0.0157673
742.794	0.0158640
742.872	0.0156403
742.950	0.0158311
743.029	0.0158896
743.107	0.0159142
743.185	0.0159402
743.263	0.0160338
743.341	0.0160305
743.419	0.0160944
743.497	0.0161490
743.575	0.0161639
743.654	0.0163028
743.732	0.0163690
743.810	0.0163898
743.888	0.0166183
743.966	0.0167212
744.044	0.0165990
744.122	0.0167779
744.200	0.0168690
744.279	0.0169148
744.357	0.0169499
744.435	0.0169832
744.513	0.0168727
744.591	0.0169484
744.669	0.0171152
744.747	0.0171176
744.825	0.0171400
744.904	0.0171443
744.982	0.0171542
745.060	0.0173829
745.138	0.0173920
745.216	0.0174038
745.294	0.0174662
745.372	0.0174406
745.450	0.0175452
745.529	0.0176048
745.607	0.0177051
745.685	0.0177336
745.763	0.0178826
745.841	0.0178390
745.919	0.0176736
745.997	0.0177637
746.075	0.0175970
746.154	0.0177688
746.232	0.0176127
746.310	0.0177203
746.388	0.0177409
746.466	0.0174489
746.544	0.0174930
746.622	0.0173872
746.700	0.0174446
746.779	0.0174052
746.857	0.0172692
746.935	0.0171577
747.013	0.0170622
747.091	0.0170095
747.169	0.0168624
747.247	0.0168307
747.325	0.0166188
747.404	0.0164136
747.482	0.0164362
747.560	0.0162511
747.638	0.0160217
747.716	0.0161177
747.794	0.0160279
747.872	0.0159032
747.950	0.0158743
748.029	0.0157526
748.107	0.0158587
748.185	0.0156960
748.263	0.0157470
748.341	0.0158568
748.419	0.0158681
748.497	0.0158553
748.575	0.0159549
748.654	0.0159555
748.732	0.0157452
748.810	0.0156654
748.888	0.0156494
748.966	0.0157020
749.044	0.0157533
749.122	0.0154955
749.200	0.0155090
749.279	0.0155914
749.357	0.0156779
749.435	0.0156989
749.513	0.0157070
749.591	0.0157687
749.669	0.0157441
749.747	0.0160332
749.825	0.0161864
749.904	0.0160962
749.982	0.0162939
750.060	0.0161575
750.138	0.0161683
750.216	0.0164346
750.294	0.0164888
750.372	0.0166328
750.450	0.0163834
750.529	0.0164043
750.607	0.0165628
750.685	0.0167010
750.763	0.0166517
750.841	0.0167286
750.919	0.0167371
750.997	0.0167010
751.075	0.0167823
751.154	0.0167374
751.232	0.0168964
751.310	0.0167905
751.388	0.0169847
751.466	0.0170212
751.544	0.0170490
751.622	0.0170199
751.700	0.0169892
751.779	0.0171149
751.857	0.0171072
751.935	0.0173229
752.013	0.0172363
752.091	0.0171778
752.169	0.0171564
752.247	0.0173005
752.325	0.0174249
752.404	0.0172554
752.482	0.0173615
752.560	0.0173461
752.638	0.0172575
752.716	0.0173513
752.794	0.0172411
752.872	0.0172308
752.950	0.0173431
753.029	0.0172340
753.107	0.0172974
753.185	0.0172794
753.263	0.0172993
753.341	0.0172046
753.419	0.0172682
753.497	0.0173455
753.575	0.0173141
753.654	0.0170411
753.732	0.0172549
753.810	0.0170249
753.888	0.0169489
753.966	0.0169392
754.044	0.0167625
754.122	0.0168323
754.200	0.0167650
754.279	0.0165886
754.357	0.0166106
754.435	0.0165791
754.513	0.0165536
754.591	0.0164741
754.669	0.0163448
754.747	0.0163857
754.825	0.0163667
754.904	0.0163917
754.982	0.0162100
755.060	0.0161805
755.138	0.0161034
755.216	0.0162191
755.294	0.0161501
755.372	0.0161086
755.450	0.0157941
755.529	0.0158391
755.607	0.0158850
755.685	0.0158243
755.763	0.0158376
755.841	0.0157078
755.919	0.0155255
755.997	0.0155637
756.075	0.0155936
756.154	0.0157658
756.232	0.0157516
756.310	0.0157489
756.388	0.0157884
756.466	0.0157452
756.544	0.0160279
756.622	0.0159434
756.700	0.0159722
756.779	0.0161446
756.857	0.0162868
756.935	0.0161546
757.013	0.0162395
757.091	0.0162553
757.169	0.0164297
757.247	0.0163925
757.325	0.0164796
757.404	0.0164574
757.482	0.0165945
757.560	0.0165975
757.638	0.0164934
757.716	0.0166182
757.794	0.0166049
757.872	0.0164993
757.950	0.0165659
758.029	0.0166448
758.107	0.0166502
758.185	0.0167764
758.263	0.0166399
758.341	0.0167850
758.419	0.0168678
758.497	0.0167994
758.575	0.0168623
758.654	0.0168951
758.732	0.0169501
758.810	0.0169783
758.888	0.0168844
758.966	0.0171140
759.044	0.0170879
759.122	0.0170177
759.200	0.0169647
759.279	0.0171120
759.357	0.0169531
759.435	0.0170908
759.513	0.0169817
759.591	0.0170229
759.669	0.0171339
759.747	0.0170339
759.825	0.0170112
759.904	0.0171140
759.982	0.0171666
760.060	0.0171165
760.138	0.0170528
760.216	0.0171625
760.294	0.0171156
760.372	0.0172067
760.450	0.0170972
760.529	0.0171328
760.607	0.0169387
760.685	0.0169650
760.763	0.0169492
760.841	0.0169418
760.919	0.0168861
760.997	0.0169234
761.075	0.0167712
761.154	0.0166973
761.232	0.0167926
761.310	0.0165531
761.388	0.0166048
761.466	0.0166962
761.544	0.0165530
761.622	0.0165293
761.700	0.0165238
761.779	0.0164034
761.857	0.0162575
761.935	0.0162582
762.013	0.0160683
762.091	0.0161645
762.169	0.0162000
762.247	0.0161609
762.325	0.0161214
762.404	0.0159919
762.482	0.0162207
762.560	0.0161694
762.638	0.0162990
762.716	0.0161852
762.794	0.0161461
762.872	0.0161404
762.950	0.0161554
763.029	0.0161707
763.107	0.0162834
763.185	0.0161485
763.263	0.0160191
763.341	0.0160784
763.419	0.0161862
763.497	0.0161907
763.575	0.0160697
763.654	0.0159349
763.732	0.0160738
763.810	0.0161527
763.888	0.0160724
763.966	0.0161012
764.044	0.0163176
764.122	0.0163033
764.200	0.0163019
764.279	0.0163741
764.357	0.0164383
764.435	0.0164869
764.513	0.0164882
764.591	0.0164866
764.669	0.0166281
764.747	0.0166127
764.825	0.0166466
764.904	0.0165328
764.982	0.0163766
765.060	0.0164790
765.138	0.0164459
765.216	0.0165753
765.294	0.0165477
765.372	0.0164358
765.450	0.0163714
765.529	0.0165004
765.607	0.0165176
765.685	0.0165043
765.763	0.0165141
765.841	0.0167302
765.919	0.0166840
765.997	0.0167612
766.075	0.0169515
766.154	0.0171021
766.232	0.0171022
766.310	0.0171584
766.388	0.0170979
766.466	0.0172740
766.544	0.0173521
766.622	0.0174628
766.700	0.0174253
766.779	0.0172948
766.857	0.0173595
766.935	0.0172956
767.013	0.0173877
767.091	0.0173000
767.169	0.0173425
767.247	0.0173544
767.325	0.0172360
767.404	0.0170415
767.482	0.0171078
767.560	0.0169546
767.638	0.0169723
767.716	0.0168594
767.794	0.0168125
767.872	0.0167735
767.950	0.0167520
768.029	0.0165758
768.107	0.0165714
768.185	0.0165861
768.263	0.0166033
768.341	0.0164841
768.419	0.0164805
768.497	0.0163358
768.575	0.0162593
768.654	0.0164506
768.732	0.0162817
768.810	0.0163680
768.888	0.0163866
768.966	0.0163857
769.044	0.0164761
769.122	0.0163889
769.200	0.0164076
769.279	0.0165768
769.357	0.0166075
769.435	0.0164954
769.513	0.0164379
769.591	0.0164532
769.669	0.0164714
769.747	0.0163380
769.825	0.0163235
769.904	0.0163690
769.982	0.0163847
770.060	0.0163145
770.138	0.0162238
770.216	0.0160700
770.294	0.0161507
770.372	0.0161118
770.450	0.0161598
770.529	0.0161971
770.607	0.0162952
770.685	0.0162928
770.763	0.0161307
770.841	0.0161961
770.919	0.0161794
770.997	0.0160606
771.075	0.0162704
771.154	0.0161513
771.232	0.0162257
771.310	0.0163419
771.388	0.0162602
771.466	0.0163624
771.544	0.0161672
771.622	0.0165627
771.700	0.0166361
771.779	0.0166740
771.857	0.0166216
771.935	0.0168962
772.013	0.0167522
772.091	0.0168093
772.169	0.0169907
772.247	0.0169194
772.325	0.0168780
772.404	0.0170274
772.482	0.0171516
772.560	0.0170514
772.638	0.0171078
772.716	0.0169820
772.794	0.0168501
772.872	0.0169954
772.950	0.0167842
773.029	0.0167496
773.107	0.0167009
773.185	0.0167626
773.263	0.0167114
773.341	0.0166259
773.419	0.0164614
773.497	0.0165462
773.575	0.0165838
773.654	0.0164989
773.732	0.0165919
773.810	0.0166778
773.888	0.0165880
773.966	0.0165955
774.044	0.0165406
774.122	0.0167180
774.200	0.0169088
774.279	0.0167640
774.357	0.0169490
774.435	0.0169784
774.513	0.0167471
774.591	0.0169628
774.669	0.0171311
774.747	0.0170997
774.825	0.0170159
774.904	0.0170551
774.982	0.0170860
775.060	0.0169747
775.138	0.0169125
775.216	0.0169936
775.294	0.0169823
775.372	0.0169675
775.450	0.0170182
775.529	0.0168906
775.607	0.0169362
775.685	0.0168341
775.763	0.0166999
775.841	0.0165756
775.919	0.0165807
775.997	0.0165323
776.075	0.0163631
776.154	0.0162702
776.232	0.0163121
776.310	0.0162762
776.388	0.0162634
776.466	0.0160569
776.544	0.0160321
776.622	0.0158738
776.700	0.0159519
776.779	0.0160530
776.857	0.0159913
776.935	0.0160088
777.013	0.0159398
777.091	0.0159261
777.169	0.0161476
777.247	0.0162061
777.325	0.0160796
777.404	0.0162524
777.482	0.0163412
777.560	0.0163679
777.638	0.0163191
777.716	0.0164036
777.794	0.0163727
777.872	0.0164587
777.950	0.0164011
778.029	0.0164322
778.107	0.0164033
778.185	0.0166034
778.263	0.0164201
778.341	0.0164619
778.419	0.0166184
778.497	0.0165547
778.575	0.0166033
778.654	0.0166334
778.732	0.0166843
778.810	0.0167796
778.888	0.0167167
778.966	0.0167349
779.044	0.0169805
779.122	0.0168694
779.200	0.0166855
779.279	0.0168458
779.357	0.0167593
779.435	0.0169484
779.513	0.0168964
779.591	0.0166585
779.669	0.0166164
779.747	0.0167863
779.825	0.0167448
779.904	0.0167199
779.982	0.0165770
780.060	0.0164555
780.138	0.0167307
780.216	0.0166517
780.294	0.0165750
780.372	0.0165405
780.450	0.0164999
780.529	0.0165849
780.607	0.0167094
780.685	0.0166350
780.763	0.0165498
780.841	0.0166485
780.919	0.0164375
780.997	0.0165630
781.075	0.0165669
781.154	0.0165499
781.232	0.0164931
781.310	0.0163734
781.388	0.0165703
781.466	0.0165943
781.544	0.0165645
781.622	0.0166003
781.700	0.0164948
781.779	0.0165785
781.857	0.0166656
781.935	0.0165844
782.013	0.0166267
782.091	0.0166821
782.169	0.0167197
782.247	0.0165678
782.325	0.0166936
782.404	0.0167961
782.482	0.0167944
782.560	0.0168260
782.638	0.0167110
782.716	0.0167094
782.794	0.0166058
782.872	0.0166430
782.950	0.0166840
783.029	0.0166689
783.107	0.0168535
783.185	0.0166566
783.263	0.0166546
783.341	0.0167412
783.419	0.0167254
783.497	0.0165652
783.575	0.0166747
783.654	0.0166238
783.732	0.0166080
783.810	0.0165221
783.888	0.0167083
783.966	0.0166669
784.044	0.0167528
784.122	0.0167081
784.200	0.0166219
784.279	0.0165916
784.357	0.0166104
784.435	0.0165620
784.513	0.0164114
784.591	0.0165501
784.669	0.0165376
784.747	0.0162520
784.825	0.0162990
784.904	0.0163626
784.982	0.0163240
785.060	0.0164981
785.138	0.0163245
785.216	0.0165440
785.294	0.0165593
785.372	0.0166862
785.450	0.0165813
785.529	0.0165295
785.607	0.0165686
785.685	0.0165865
785.763	0.0166296
785.841	0.0165480
785.919	0.0166364
785.997	0.0164872
786.075	0.0164945
786.154	0.0164511
786.232	0.0164314
786.310	0.0165177
786.388	0.0166660
786.466	0.0165712
786.544	0.0164675
786.622	0.0166051
786.700	0.0165190
786.779	0.0165376
786.857	0.0167159
786.935	0.0166228
787.013	0.0166923
787.091	0.0166779
787.169	0.0167535
787.247	0.0166264
787.325	0.0165623
787.404	0.0165250
787.482	0.0165823
787.560	0.0165438
787.638	0.0164660
787.716	0.0164768
787.794	0.0165590
787.872	0.0165862
787.950	0.0163693
788.029	0.0165744
788.107	0.0166364
788.185	0.0165565
788.263	0.0165833
788.341	0.0166702
788.419	0.0164835
788.497	0.0165684
788.575	0.0165741
788.654	0.0167597
788.732	0.0166134
788.810	0.0165849
788.888	0.0166270
788.966	0.0167274
789.044	0.0166802
789.122	0.0167712
789.200	0.0167635
789.279	0.0166689
789.357	0.0167197
789.435	0.0167605
789.513	0.0167204
789.591	0.0166312
789.669	0.0167045
789.747	0.0167127
789.825	0.0167921
789.904	0.0168072
789.982	0.0168467
790.060	0.0168144
790.138	0.0167797
790.216	0.0167799
790.294	0.0167674
790.372	0.0167557
790.450	0.0168431
790.529	0.0168079
790.607	0.0169463
790.685	0.0168948
790.763	0.0168481
790.841	0.0169014
790.919	0.0168569
790.997	0.0168844
791.075	0.0170473
791.154	0.0169772
791.232	0.0169277
791.310	0.0168909
791.388	0.0167934
791.466	0.0169028
791.544	0.0168305
791.622	0.0167903
791.700	0.0167855
791.779	0.0167557
791.857	0.0167429
791.935	0.0166770
792.013	0.0168245
792.091	0.0168309
792.169	0.0167027
792.247	0.0166575
792.325	0.0166105
792.404	0.0167200
792.482	0.0165115
792.560	0.0165975
792.638	0.0164883
792.716	0.0163385
792.794	0.0163308
792.872	0.0162910
792.950	0.0163277
793.029	0.0162749
793.107	0.0160793
793.185	0.0160476
793.263	0.0161553
793.341	0.0161234
793.419	0.0161939
793.497	0.0160305
793.575	0.0160336
793.654	0.0160006
793.732	0.0161765
793.810	0.0162427
793.888	0.0163634
793.966	0.0161906
794.044	0.0161755
794.122	0.0163739
794.200	0.0164077
794.279	0.0164172
794.357	0.0164447
794.435	0.0164500
794.513	0.0165660
794.591	0.0165785
794.669	0.0166887
794.747	0.0168268
794.825	0.0166739
794.904	0.0168387
794.982	0.0168340
795.060	0.0169341
795.138	0.0169025
795.216	0.0169027
795.294	0.0169025
795.372	0.0168053
795.450	0.0167540
795.529	0.0167133
795.607	0.0169122
795.685	0.0167133
795.763	0.0168651
795.841	0.0167276
795.919	0.0168074
795.997	0.0167474
796.075	0.0168855
796.154	0.0169621
796.232	0.0168237
796.310	0.0169056
796.388	0.0167918
796.466	0.0169197
796.544	0.0170246
796.622	0.0168325
796.700	0.0169888
796.779	0.0170222
796.857	0.0170124
796.935	0.0169189
797.013	0.0169179
797.091	0.0170238
797.169	0.0170473
797.247	0.0169735
797.325	0.0169350
797.404	0.0169737
797.482	0.0169523
797.560	0.0170757
797.638	0.0169099
797.716	0.0168649
797.794	0.0168151
797.872	0.0167226
797.950	0.0167521
798.029	0.0167079
798.107	0.0164922
798.185	0.0162995
798.263	0.0165133
798.341	0.0165175
798.419	0.0161691
798.497	0.0161211
798.575	0.0161602
798.654	0.0162961
798.732	0.0161150
798.810	0.0158424
798.888	0.0160724
798.966	0.0160389
799.044	0.0160029
799.122	0.0160820
799.200	0.0159118
799.279	0.0159135
799.357	0.0161921
799.435	0.0159734
799.513	0.0158999
799.591	0.0159967
799.669	0.0161507
799.747	0.0161073
799.825	0.0160590
799.904	0.0161817
799.982	0.0162848
800.060	0.0162703
800.138	0.0162844
800.216	0.0163737
800.294	0.0164275
800.372	0.0164019
800.450	0.0164428
800.529	0.0164817
800.607	0.0165726
800.685	0.0166247
800.763	0.0164761
800.841	0.0165331
800.919	0.0167340
800.997	0.0166763
801.075	0.0167153
801.154	0.0169421
801.232	0.0168585
801.310	0.0169707
801.388	0.0170845
801.466	0.0171024
801.544	0.0170815
801.622	0.0171096
801.700	0.0171759
801.779	0.0172681
801.857	0.0172422
801.935	0.0171471
802.013	0.0172683
802.091	0.0171345
802.169	0.0170956
802.247	0.0170560
802.325	0.0170181
802.404	0.0170437
802.482	0.0169331
802.560	0.0171309
802.638	0.0168232
802.716	0.0167505
802.794	0.0168451
802.872	0.0169485
802.950	0.0166491
803.029	0.0165670
803.107	0.0166661
803.185	0.0164348
803.263	0.0166725
803.341	0.0166199
803.419	0.0165128
803.497	0.0164459
803.575	0.0165584
803.654	0.0162918
803.732	0.0163503
803.810	0.0162762
803.888	0.0162979
803.966	0.0162997
804.044	0.0164210
804.122	0.0164071
804.200	0.0162937
804.279	0.0162697
804.357	0.0161970
804.435	0.0163396
804.513	0.0163009
804.591	0.0162116
804.669	0.0163396
804.747	0.0163495
804.825	0.0162714
804.904	0.0163422
804.982	0.0162942
805.060	0.0163686
805.138	0.0163739
805.216	0.0163219
805.294	0.0163590
805.372	0.0162167
805.450	0.0164552
805.529	0.0163911
805.607	0.0163269
805.685	0.0162083
805.763	0.0162639
805.841	0.0163926
805.919	0.0164931
805.997	0.0162997
806.075	0.0163108
806.154	0.0164272
806.232	0.0163646
806.310	0.0162840
806.388	0.0164964
806.466	0.0164584
806.544	0.0165127
806.622	0.0164653
806.700	0.0165018
806.779	0.0164397
806.857	0.0165069
806.935	0.0167282
807.013	0.0166422
807.091	0.0167572
807.169	0.0167332
807.247	0.0168904
807.325	0.0168776
807.404	0.0169556
807.482	0.0170741
807.560	0.0169746
807.638	0.0170596
807.716	0.0171613
807.794	0.0172612
807.872	0.0172727
807.950	0.0172337
808.029	0.0173477
808.107	0.0174187
808.185	0.0172892
808.263	0.0171993
808.341	0.0170787
808.419	0.0171406
808.497	0.0172236
808.575	0.0169492
808.654	0.0170635
808.732	0.0169273
808.810	0.0167141
808.888	0.0167429
808.966	0.0166825
809.044	0.0166149
809.122	0.0166866
809.200	0.0165522
809.279	0.0166808
809.357	0.0165701
809.435	0.0164377
809.513	0.0166165
809.591	0.0164896
809.669	0.0164521
809.747	0.0163668
809.825	0.0164841
809.904	0.0164586
809.982	0.0163425
810.060	0.0164111
810.138	0.0162775
810.216	0.0165541
810.294	0.0163833
810.372	0.0163807
810.450	0.0164827
810.529	0.0164742
810.607	0.0164558
810.685	0.0165432
810.763	0.0164058
810.841	0.0166118
810.919	0.0164970
810.997	0.0164789
811.075	0.0165585
811.154	0.0165467
811.232	0.0165874
811.310	0.0164433
811.388	0.0164378
811.466	0.0163477
811.544	0.0163911
811.622	0.0162731
811.700	0.0164626
811.779	0.0164192
811.857	0.0163014
811.935	0.0163707
812.013	0.0163123
812.091	0.0164629
812.169	0.0164018
812.247	0.0164060
812.325	0.0163983
812.404	0.0163786
812.482	0.0162947
812.560	0.0164115
812.638	0.0165059
812.716	0.0166577
812.794	0.0165864
812.872	0.0166128
812.950	0.0165153
813.029	0.0166232
813.107	0.0166793
813.185	0.0167165
813.263	0.0167218
813.341	0.0168150
813.419	0.0168475
813.497	0.0168795
813.575	0.0167249
813.654	0.0169189
813.732	0.0169160
813.810	0.0169782
813.888	0.0169328
813.966	0.0169097
814.044	0.0168745
814.122	0.0170052
814.200	0.0171081
814.279	0.0170131
814.357	0.0171709
814.435	0.0171212
814.513	0.0172424
814.591	0.0171084
814.669	0.0172117
814.747	0.0171120
814.825	0.0170444
814.904	0.0169754
814.982	0.0169692
815.060	0.0167677
815.138	0.0168998
815.216	0.0168903
815.294	0.0167324
815.372	0.0165891
815.450	0.0167110
815.529	0.0166115
815.607	0.0166936
815.685	0.0165727
815.763	0.0165342
815.841	0.0164365
815.919	0.0165848
815.997	0.0167163
816.075	0.0165363
816.154	0.0165855
816.232	0.0165444
816.310	0.0165697
816.388	0.0166454
816.466	0.0167019
816.544	0.0166729
816.622	0.0165717
816.700	0.0166772
816.779	0.0166647
816.857	0.0166665
816.935	0.0166206
817.013	0.0167341
817.091	0.0165122
817.169	0.0166065
817.247	0.0167728
817.325	0.0164922
817.404	0.0164749
817.482	0.0163513
817.560	0.0164171
817.638	0.0164391
817.716	0.0164755
817.794	0.0163140
817.872	0.0160867
817.950	0.0162766
818.029	0.0163376
818.107	0.0161361
818.185	0.0160817
818.263	0.0162615
818.341	0.0162053
818.419	0.0160844
818.497	0.0160609
818.575	0.0160753
818.654	0.0161497
818.732	0.0161349
818.810	0.0160701
818.888	0.0162234
818.966	0.0162390
819.044	0.0160925
819.122	0.0162968
819.200	0.0162231
819.279	0.0162201
819.357	0.0163383
819.435	0.0163731
819.513	0.0165636
819.591	0.0164360
819.669	0.0163737
819.747	0.0165124
819.825	0.0165966
819.904	0.0166924
819.982	0.0166891
820.060	0.0166805
820.138	0.0167367
820.216	0.0167719
820.294	0.0169091
820.372	0.0169602
820.450	0.0170959
820.529	0.0171515
820.607	0.0172572
820.685	0.0171124
820.763	0.0170429
820.841	0.0171642
820.919	0.0172440
820.997	0.0171532
821.075	0.0172372
821.154	0.0170991
821.232	0.0170798
821.310	0.0169657
821.388	0.0170108
821.466	0.0171868
821.544	0.0170220
821.622	0.0170515
821.700	0.0169880
821.779	0.0169125
821.857	0.0169839
821.935	0.0170303
822.013	0.0167719
822.091	0.0169011
822.169	0.0167774
822.247	0.0167119
822.325	0.0166736
822.404	0.0168115
822.482	0.0167120
822.560	0.0166763
822.638	0.0164214
822.716	0.0164409
822.794	0.0166788
822.872	0.0165057
822.950	0.0165246
823.029	0.0165565
823.107	0.0164386
823.185	0.0166248
823.263	0.0164914
823.341	0.0163549
823.419	0.0163695
823.497	0.0164281
823.575	0.0163615
823.654	0.0164017
823.732	0.0164680
823.810	0.0164700
823.888	0.0164166
823.966	0.0164312
824.044	0.0164030
824.122	0.0162939
824.200	0.0164610
824.279	0.0163010
824.357	0.0164365
824.435	0.0164873
824.513	0.0163702
824.591	0.0162797
824.669	0.0163718
824.747	0.0162607
824.825	0.0163389
824.904	0.0163154
824.982	0.0163806
825.060	0.0163280
825.138	0.0163139
825.216	0.0162363
825.294	0.0164030
825.372	0.0163418
825.450	0.0162994
825.529	0.0162066
825.607	0.0164041
825.685	0.0164048
825.763	0.0164207
825.841	0.0163390
825.919	0.0163757
825.997	0.0164259
826.075	0.0165632
826.154	0.0164425
826.232	0.0164996
826.310	0.0165783
826.388	0.0166796
826.466	0.0166900
826.544	0.0166245
826.622	0.0166837
826.700	0.0166386
826.779	0.0168096
826.857	0.0168190
826.935	0.0166831
827.013	0.0167445
827.091	0.0168944
827.169	0.0168296
827.247	0.0168182
827.325	0.0169119
827.404	0.0170430
827.482	0.0169318
827.560	0.0169349
827.638	0.0170131
827.716	0.0169788
827.794	0.0169591
827.872	0.0170324
827.950	0.0170433
828.029	0.0169605
828.107	0.0168166
828.185	0.0169868
828.263	0.0169447
828.341	0.0168603
828.419	0.0168320
828.497	0.0168223
828.575	0.0168048
828.654	0.0168443
828.732	0.0167291
828.810	0.0168388
828.888	0.0166795
828.966	0.0165804
829.044	0.0166667
829.122	0.0167200
829.200	0.0165960
829.279	0.0167242
829.357	0.0165010
829.435	0.0165766
829.513	0.0166648
829.591	0.0165680
829.669	0.0166483
829.747	0.0166102
829.825	0.0164627
829.904	0.0165685
829.982	0.0167527
830.060	0.0166506
830.138	0.0164272
830.216	0.0165656
830.294	0.0164270
830.372	0.0165917
830.450	0.0164817
830.529	0.0166235
830.607	0.0166174
830.685	0.0163383
830.763	0.0164252
830.841	0.0163818
830.919	0.0165005
830.997	0.0164407
831.075	0.0166011
831.154	0.0163166
831.232	0.0163843
831.310	0.0164417
831.388	0.0163313
831.466	0.0161680
831.544	0.0163705
831.622	0.0162363
831.700	0.0162801
831.779	0.0163693
831.857	0.0164366
831.935	0.0161810
832.013	0.0163158
832.091	0.0163978
832.169	0.0163797
832.247	0.0164863
832.325	0.0164935
832.404	0.0164021
832.482	0.0164458
832.560	0.0165571
832.638	0.0165489
832.716	0.0166904
832.794	0.0165434
832.872	0.0166452
832.950	0.0166661
833.029	0.0165520
833.107	0.0166238
833.185	0.0167554
833.263	0.0166740
833.341	0.0166156
833.419	0.0167783
833.497	0.0168072
833.575	0.0167343
833.654	0.0166475
833.732	0.0166801
833.810	0.0166080
833.888	0.0166204
833.966	0.0167851
834.044	0.0166170
834.122	0.0167587
834.200	0.0168108
834.279	0.0167842
834.357	0.0167854
834.435	0.0167482
834.513	0.0167167
834.591	0.0168918
834.669	0.0169292
834.747	0.0169041
834.825	0.0167902
834.904	0.0167700
834.982	0.0168328
835.060	0.0168152
835.138	0.0169098
835.216	0.0166463
835.294	0.0166708
835.372	0.0168452
835.450	0.0167124
835.529	0.0166906
835.607	0.0167140
835.685	0.0166987
835.763	0.0165941
835.841	0.0166957
835.919	0.0165664
835.997	0.0165982
836.075	0.0166420
836.154	0.0163214
836.232	0.0164675
836.310	0.0166214
836.388	0.0164565
836.466	0.0164776
836.544	0.0165810
836.622	0.0164892
836.700	0.0165778
836.779	0.0165109
836.857	0.0165695
836.935	0.0165951
837.013	0.0166267
837.091	0.0166025
837.169	0.0167010
837.247	0.0167029
837.325	0.0168031
837.404	0.0166635
837.482	0.0165605
837.560	0.0165627
837.638	0.0166232
837.716	0.0166496
837.794	0.0164694
837.872	0.0165416
837.950	0.0165740
838.029	0.0165701
838.107	0.0164875
838.185	0.0163873
838.263	0.0164792
838.341	0.0164983
838.419	0.0165190
838.497	0.0164766
838.575	0.0164369
838.654	0.0164145
838.732	0.0164007
838.810	0.0164489
838.888	0.0164793
838.966	0.0165559
839.044	0.0164986
839.122	0.0165521
839.200	0.0164482
839.279	0.0166381
839.357	0.0165681
839.435	0.0165498
839.513	0.0165994
839.591	0.0166381
839.669	0.0165972
839.747	0.0166976
839.825	0.0167477
839.904	0.0166282
839.982	0.0168130
840.060	0.0168524
840.138	0.0166318
840.216	0.0168008
840.294	0.0167287
840.372	0.0168184
840.450	0.0165634
840.529	0.0166759
840.607	0.0167061
840.685	0.0167644
840.763	0.0165290
840.841	0.0164342
840.919	0.0165591
840.997	0.0167590
841.075	0.0164743
841.154	0.0164576
841.232	0.0165382
841.310	0.0163458
841.388	0.0164346
841.466	0.0165531
841.544	0.0163751
841.622	0.0165310
841.700	0.0164279
841.779	0.0165504
841.857	0.0164481
841.935	0.0165593
842.013	0.0165609
842.091	0.0163992
842.169	0.0164241
842.247	0.0164317
842.325	0.0165515
842.404	0.0164647
842.482	0.0166705
842.560	0.0165042
842.638	0.0166609
842.716	0.0165720
842.794	0.0167413
842.872	0.0167712
842.950	0.0168023
843.029	0.0170239
843.107	0.0169171
843.185	0.0169587
843.263	0.0170032
843.341	0.0170953
843.419	0.0170757
843.497	0.0169190
843.575	0.0170577
843.654	0.0172300
843.732	0.0172486
843.810	0.0170733
843.888	0.0172488
843.966	0.0171426
844.044	0.0171510
844.122	0.0170851
844.200	0.0169603
844.279	0.0170080
844.357	0.0169830
844.435	0.0168034
844.513	0.0169024
844.591	0.0168890
844.669	0.0165953
844.747	0.0166539
844.825	0.0165040
844.904	0.0165192
844.982	0.0164941
845.060	0.0164014
845.138	0.0163841
845.216	0.0163928
845.294	0.0163180
845.372	0.0162998
845.450	0.0162311
845.529	0.0162936
845.607	0.0162426
845.685	0.0162636
845.763	0.0162270
845.841	0.0162761
845.919	0.0161987
845.997	0.0162177
846.075	0.0161539
846.154	0.0162422
846.232	0.0163356
846.310	0.0162615
846.388	0.0162229
846.466	0.0162418
846.544	0.0162061
846.622	0.0163462
846.700	0.0162889
846.779	0.0162959
846.857	0.0162729
846.935	0.0162766
847.013	0.0163146
847.091	0.0164288
847.169	0.0163663
847.247	0.0164646
847.325	0.0163864
847.404	0.0165031
847.482	0.0166544
847.560	0.0166331
847.638	0.0166624
847.716	0.0166803
847.794	0.0167266
847.872	0.0166971
847.950	0.0167429
848.029	0.0168430
848.107	0.0168099
848.185	0.0168886
848.263	0.0168792
848.341	0.0167357
848.419	0.0168211
848.497	0.0169110
848.575	0.0168185
848.654	0.0168745
848.732	0.0168587
848.810	0.0167512
848.888	0.0168206
848.966	0.0168320
849.044	0.0167251
849.122	0.0167160
849.200	0.0167024
849.279	0.0167415
849.357	0.0168327
849.435	0.0168269
849.513	0.0168128
849.591	0.0167992
849.669	0.0168204
849.747	0.0168082
849.825	0.0166166
849.904	0.0166864
849.982	0.0166938
850.060	0.0167230
850.138	0.0165123
850.216	0.0165957
850.294	0.0165216
850.372	0.0165807
850.450	0.0165588
850.529	0.0165396
850.607	0.0166772
850.685	0.0165533
850.763	0.0165344
850.841	0.0164780
850.919	0.0164445
850.997	0.0165073
851.075	0.0165160
851.154	0.0163941
851.232	0.0164744
851.310	0.0165199
851.388	0.0165065
851.466	0.0164529
851.544	0.0164066
851.622	0.0164969
851.700	0.0164748
851.779	0.0164323
851.857	0.0165550
851.935	0.0164628
852.013	0.0164378
852.091	0.0164677
852.169	0.0165247
852.247	0.0165316
852.325	0.0165900
852.404	0.0165118
852.482	0.0165727
852.560	0.0166049
852.638	0.0166386
852.716	0.0166522
852.794	0.0166115
852.872	0.0166717
852.950	0.0167435
853.029	0.0166961
853.107	0.0165342
853.185	0.0166071
853.263	0.0166236
853.341	0.0165846
853.419	0.0166624
853.497	0.0166427
853.575	0.0164162
853.654	0.0164962
853.732	0.0166047
853.810	0.0165344
853.888	0.0165540
853.966	0.0166247
854.044	0.0165702
854.122	0.0164140
854.200	0.0164187
854.279	0.0166085
854.357	0.0166165
854.435	0.0163800
854.513	0.0163881
854.591	0.0163591
854.669	0.0162166
854.747	0.0163127
854.825	0.0163697
854.904	0.0162495
854.982	0.0162648
855.060	0.0163893
855.138	0.0165011
855.216	0.0161841
855.294	0.0164508
855.372	0.0164964
855.450	0.0163984
855.529	0.0165836
855.607	0.0164560
855.685	0.0165981
855.763	0.0166072
855.841	0.0167075
855.919	0.0166468
855.997	0.0167926
856.075	0.0168079
856.154	0.0169215
856.232	0.0169704
856.310	0.0170254
856.388	0.0169820
856.466	0.0169360
856.544	0.0169572
856.622	0.0168068
856.700	0.0169365
856.779	0.0167857
856.857	0.0168927
856.935	0.0168699
857.013	0.0167475
857.091	0.0167649
857.169	0.0167274
857.247	0.0166734
857.325	0.0168007
857.404	0.0167906
857.482	0.0167859
857.560	0.0167833
857.638	0.0166833
857.716	0.0167155
857.794	0.0166951
857.872	0.0166081
857.950	0.0166127
858.029	0.0165601
858.107	0.0163834
858.185	0.0165774
858.263	0.0165642
858.341	0.0165546
858.419	0.0165405
858.497	0.0165933
858.575	0.0165062
858.654	0.0164660
858.732	0.0165658
858.810	0.0165123
858.888	0.0164447
858.966	0.0165395
859.044	0.0165126
859.122	0.0165315
859.200	0.0164956
859.279	0.0164597
859.357	0.0163805
859.435	0.0164785
859.513	0.0164304
859.591	0.0162593
859.669	0.0162403
859.747	0.0165722
859.825	0.0164175
859.904	0.0164425
859.982	0.0163807
860.060	0.0164334
860.138	0.0164853
860.216	0.0164394
860.294	0.0166088
860.372	0.0165646
860.450	0.0165258
860.529	0.0165477
860.607	0.0164887
860.685	0.0166096
860.763	0.0165390
860.841	0.0166988
860.919	0.0167363
860.997	0.0166418
861.075	0.0165887
861.154	0.0167193
861.232	0.0167606
861.310	0.0166274
861.388	0.0167313
861.466	0.0167170
861.544	0.0167876
861.622	0.0167020
861.700	0.0166898
861.779	0.0167066
861.857	0.0167034
861.935	0.0166713
862.013	0.0167963
862.091	0.0166458
862.169	0.0165722
862.247	0.0166917
862.325	0.0166131
862.404	0.0165158
862.482	0.0166830
862.560	0.0165833
862.638	0.0166013
862.716	0.0165924
862.794	0.0164948
862.872	0.0164781
862.950	0.0165681
863.029	0.0165168
863.107	0.0164979
863.185	0.0165393
863.263	0.0165485
863.341	0.0164980
863.419	0.0164487
863.497	0.0165345
863.575	0.0167111
863.654	0.0167721
863.732	0.0166335
863.810	0.0166156
863.888	0.0166866
863.966	0.0167655
864.044	0.0166458
864.122	0.0167144
864.200	0.0167274
864.279	0.0167149
864.357	0.0167275
864.435	0.0166737
864.513	0.0168328
864.591	0.0168507
864.669	0.0168040
864.747	0.0168220
864.825	0.0169382
864.904	0.0167525
864.982	0.0165795
865.060	0.0166902
865.138	0.0167222
865.216	0.0165506
865.294	0.0163418
865.372	0.0163859
865.450	0.0163122
865.529	0.0162599
865.607	0.0162686
865.685	0.0163873
865.763	0.0162523
865.841	0.0163543
865.919	0.0164302
865.997	0.0162471
866.075	0.0164343
866.154	0.0163023
866.232	0.0163488
866.310	0.0163528
866.388	0.0164026
866.466	0.0163829
866.544	0.0166775
866.622	0.0166443
866.700	0.0166168
866.779	0.0165750
866.857	0.0167469
866.935	0.0168745
867.013	0.0169449
867.091	0.0170301
867.169	0.0170163
867.247	0.0169086
867.325	0.0170815
867.404	0.0172085
867.482	0.0170113
867.560	0.0171093
867.638	0.0169615
867.716	0.0168259
867.794	0.0165481
867.872	0.0165820
867.950	0.0164687
868.029	0.0164779
868.107	0.0163671
868.185	0.0162347
868.263	0.0162883
868.341	0.0161992
868.419	0.0162384
868.497	0.0163096
868.575	0.0163208
868.654	0.0163647
868.732	0.0163200
868.810	0.0163973
868.888	0.0165869
868.966	0.0166798
869.044	0.0165141
869.122	0.0166147
869.200	0.0166670
869.279	0.0166377
869.357	0.0167145
869.435	0.0166196
869.513	0.0167561
869.591	0.0167865
869.669	0.0166160
869.747	0.0166955
869.825	0.0166128
869.904	0.0166138
869.982	0.0165950
870.060	0.0166049
870.138	0.0166281
870.216	0.0165817
870.294	0.0165331
870.372	0.0165228
870.450	0.0165564
870.529	0.0166628
870.607	0.0165834
870.685	0.0165161
870.763	0.0165179
870.841	0.0165220
870.919	0.0164922
870.997	0.0165266
871.075	0.0165141
871.154	0.0164769
871.232	0.0164728
871.310	0.0163065
871.388	0.0162956
871.466	0.0163436
871.544	0.0164519
871.622	0.0163433
871.700	0.0162296
871.779	0.0162888
871.857	0.0163940
871.935	0.0162840
872.013	0.0163224
872.091	0.0164591
872.169	0.0164384
872.247	0.0165584
872.325	0.0166535
872.404	0.0166898
872.482	0.0168568
872.560	0.0168612
872.638	0.0169454
872.716	0.0169706
872.794	0.0170262
872.872	0.0171426
872.950	0.0170638
873.029	0.0169872
873.107	0.0167772
873.185	0.0167307
873.263	0.0167384
873.341	0.0167693
873.419	0.0165038
873.497	0.0166129
873.575	0.0165525
873.654	0.0162811
873.732	0.0162617
873.810	0.0164378
873.888	0.0165247
873.966	0.0165105
874.044	0.0165955
874.122	0.0167343
874.200	0.0166866
874.279	0.0168851
874.357	0.0169505
874.435	0.0168324
874.513	0.0168217
874.591	0.0167277
874.669	0.0168101
874.747	0.0165522
874.825	0.0165727
874.904	0.0164873
874.982	0.0163708
875.060	0.0162802
875.138	0.0162237
875.216	0.0162776
875.294	0.0163957
875.372	0.0163557
875.450	0.0163967
875.529	0.0162611
875.607	0.0163235
875.685	0.0166392
875.763	0.0166536
875.841	0.0166743
875.919	0.0166022
875.997	0.0166464
876.075	0.0167314
876.154	0.0166450
876.232	0.0166998
876.310	0.0165505
876.388	0.0165186
876.466	0.0164421
876.544	0.0163956
876.622	0.0165382
876.700	0.0164697
876.779	0.0164387
876.857	0.0164342
876.935	0.0167245
877.013	0.0167263
877.091	0.0167453
877.169	0.0166863
877.247	0.0167212
877.325	0.0167892
877.404	0.0168209
877.482	0.0167043
877.560	0.0167049
877.638	0.0166676
877.716	0.0166849
877.794	0.0167271
877.872	0.0165726
877.950	0.0167015
878.029	0.0166768
878.107	0.0165024
878.185	0.0166756
878.263	0.0165334
878.341	0.0166017
878.419	0.0165850
878.497	0.0165715
878.575	0.0165449
878.654	0.0164706
878.732	0.0163837
878.810	0.0164073
878.888	0.0163194
878.966	0.0163313
879.044	0.0163506
879.122	0.0164224
879.200	0.0163542
879.279	0.0164547
879.357	0.0164417
879.435	0.0162858
879.513	0.0165452
879.591	0.0166692
879.669	0.0166157
879.747	0.0168326
879.825	0.0168451
879.904	0.0166549
879.982	0.0169038
880.060	0.0168700
880.138	0.0168002
880.216	0.0169646
880.294	0.0169221
880.372	0.0169311
880.450	0.0169189
880.529	0.0168771
880.607	0.0168898
880.685	0.0169363
880.763	0.0168517
880.841	0.0168402
880.919	0.0168646
880.997	0.0167830
881.075	0.0169092
881.154	0.0168681
881.232	0.0168893
881.310	0.0167835
881.388	0.0167323
881.466	0.0166187
881.544	0.0165861
881.622	0.0166695
881.700	0.0166038
881.779	0.0165937
881.857	0.0165347
881.935	0.0164578
882.013	0.0166659
882.091	0.0165086
882.169	0.0165653
882.247	0.0166041
882.325	0.0164301
882.404	0.0164935
882.482	0.0164994
882.560	0.0164436
882.638	0.0164706
882.716	0.0164355
882.794	0.0164198
882.872	0.0163161
882.950	0.0163148
883.029	0.0165257
883.107	0.0164256
883.185	0.0164701
883.263	0.0163750
883.341	0.0164356
883.419	0.0165748
883.497	0.0165763
883.575	0.0165296
883.654	0.0165711
883.732	0.0166151
883.810	0.0165433
883.888	0.0166185
883.966	0.0167013
884.044	0.0164970
884.122	0.0165105
884.200	0.0165824
884.279	0.0166154
884.357	0.0164732
884.435	0.0165509
884.513	0.0164956
884.591	0.0163238
884.669	0.0165762
884.747	0.0163912
884.825	0.0165289
884.904	0.0165562
884.982	0.0164842
885.060	0.0164132
885.138	0.0165025
885.216	0.0166537
885.294	0.0165687
885.372	0.0167107
885.450	0.0164756
885.529	0.0165886
885.607	0.0166442
885.685	0.0167130
885.763	0.0167621
885.841	0.0166441
885.919	0.0168315
885.997	0.0166910
886.075	0.0166418
886.154	0.0166328
886.232	0.0168159
886.310	0.0167845
886.388	0.0167500
886.466	0.0167032
886.544	0.0166798
886.622	0.0168726
886.700	0.0168218
886.779	0.0168931
886.857	0.0167936
886.935	0.0166807
887.013	0.0167534
887.091	0.0168915
887.169	0.0169808
887.247	0.0169793
887.325	0.0167464
887.404	0.0168140
887.482	0.0167104
887.560	0.0167208
887.638	0.0167332
887.716	0.0168591
887.794	0.0166770
887.872	0.0166734
887.950	0.0167014
888.029	0.0167658
888.107	0.0166486
888.185	0.0165524
888.263	0.0164457
888.341	0.0163810
888.419	0.0164446
888.497	0.0165007
888.575	0.0164019
888.654	0.0164267
888.732	0.0165077
888.810	0.0165168
888.888	0.0164125
888.966	0.0163844
889.044	0.0163973
889.122	0.0165077
889.200	0.0164716
889.279	0.0163941
889.357	0.0164440
889.435	0.0164455
889.513	0.0164749
889.591	0.0164933
889.669	0.0165266
889.747	0.0165212
889.825	0.0166832
889.904	0.0165160
889.982	0.0165645
890.060	0.0165597
890.138	0.0164983
890.216	0.0165379
890.294	0.0164890
890.372	0.0166149
890.450	0.0165844
890.529	0.0165437
890.607	0.0165806
890.685	0.0165118
890.763	0.0165166
890.841	0.0165833
890.919	0.0165418
890.997	0.0166029
891.075	0.0164871
891.154	0.0165749
891.232	0.0165820
891.310	0.0166087
891.388	0.0166673
891.466	0.0165848
891.544	0.0166243
891.622	0.0167012
891.700	0.0166730
891.779	0.0167702
891.857	0.0167117
891.935	0.0168230
892.013	0.0167373
892.091	0.0166128
892.169	0.0166535
892.247	0.0166973
892.325	0.0165984
892.404	0.0166618
892.482	0.0167979
892.560	0.0165790
892.638	0.0166479
892.716	0.0165150
892.794	0.0166267
892.872	0.0166360
892.950	0.0167448
893.029	0.0166244
893.107	0.0165566
893.185	0.0166003
893.263	0.0166815
893.341	0.0166248
893.419	0.0166110
893.497	0.0164556
893.575	0.0163268
893.654	0.0163367
893.732	0.0164225
893.810	0.0164589
893.888	0.0164553
893.966	0.0163243
894.044	0.0164757
894.122	0.0162893
894.200	0.0163834
894.279	0.0165112
894.357	0.0163567
894.435	0.0164727
894.513	0.0165044
894.591	0.0166263
894.669	0.0165085
894.747	0.0166088
894.825	0.0166640
894.904	0.0166920
894.982	0.0167690
895.060	0.0167208
895.138	0.0166837
895.216	0.0169315
895.294	0.0169413
895.372	0.0166829
895.450	0.0168910
895.529	0.0167304
895.607	0.0168261
895.685	0.0168038
895.763	0.0167981
895.841	0.0167206
895.919	0.0167271
895.997	0.0167963
896.075	0.0166847
896.154	0.0167065
896.232	0.0168530
896.310	0.0167197
896.388	0.0168292
896.466	0.0167215
896.544	0.0166264
896.622	0.0167478
896.700	0.0166315
896.779	0.0167542
896.857	0.0166826
896.935	0.0165667
897.013	0.0166108
897.091	0.0162872
897.169	0.0165040
897.247	0.0162730
897.325	0.0162450
897.404	0.0162208
897.482	0.0162495
897.560	0.0162629
897.638	0.0161040
897.716	0.0160484
897.794	0.0160487
897.872	0.0161440
897.950	0.0161916
898.029	0.0161823
898.107	0.0162033
898.185	0.0162560
898.263	0.0162383
898.341	0.0163190
898.419	0.0164908
898.497	0.0165527
898.575	0.0165173
898.654	0.0165305
898.732	0.0164861
898.810	0.0165794
898.888	0.0166865
898.966	0.0166416
899.044	0.0166512
899.122	0.0169106
899.200	0.0168520
899.279	0.0168608
899.357	0.0166862
899.435	0.0168668
899.513	0.0168885
899.591	0.0168984
899.669	0.0169160
899.747	0.0169971
899.825	0.0169014
899.904	0.0170854
899.982	0.0169675
900.060	0.0169550
900.138	0.0168977
900.216	0.0168435
900.294	0.0169007
900.372	0.0167955
900.450	0.0167083
900.529	0.0166818
900.607	0.0167782
900.685	0.0166093
900.763	0.0167084
900.841	0.0166349
900.919	0.0165942
900.997	0.0165189
901.075	0.0165527
901.154	0.0164981
901.232	0.0164954
901.310	0.0165885
901.388	0.0164864
901.466	0.0164928
901.544	0.0166868
901.622	0.0167298
901.700	0.0166640
901.779	0.0167124
901.857	0.0167983
901.935	0.0167084
902.013	0.0167606
902.091	0.0167708
902.169	0.0166720
902.247	0.0167435
902.325	0.0167751
902.404	0.0166206
902.482	0.0167979
902.560	0.0165910
902.638	0.0165733
902.716	0.0165587
902.794	0.0166515
902.872	0.0165335
902.950	0.0165938
903.029	0.0164561
903.107	0.0164550
903.185	0.0165420
903.263	0.0164151
903.341	0.0165119
903.419	0.0163891
903.497	0.0163565
903.575	0.0162223
903.654	0.0162553
903.732	0.0161206
903.810	0.0162429
903.888	0.0161948
903.966	0.0162189
904.044	0.0163229
904.122	0.0161716
904.200	0.0161684
904.279	0.0162519
904.357	0.0162654
904.435	0.0162839
904.513	0.0164779
904.591	0.0164970
904.669	0.0165778
904.747	0.0166833
904.825	0.0167022
904.904	0.0167359
904.982	0.0167001
905.060	0.0168972
905.138	0.0168813
905.216	0.0169416
905.294	0.0170329
905.372	0.0169180
905.450	0.0169595
905.529	0.0170632
905.607	0.0170186
905.685	0.0169361
905.763	0.0170007
905.841	0.0170045
905.919	0.0169681
905.997	0.0170350
906.075	0.0169685
906.154	0.0167534
906.232	0.0166270
906.310	0.0167262
906.388	0.0167651
906.466	0.0166904
906.544	0.0164811
906.622	0.0163638
906.700	0.0163988
906.779	0.0162926
906.857	0.0162587
906.935	0.0163142
907.013	0.0162839
907.091	0.0162686
907.169	0.0163435
907.247	0.0162357
907.325	0.0163518
907.404	0.0163918
907.482	0.0164162
907.560	0.0164751
907.638	0.0164693
907.716	0.0166735
907.794	0.0166375
907.872	0.0166915
907.950	0.0166737
908.029	0.0168179
908.107	0.0166219
908.185	0.0166822
908.263	0.0168006
908.341	0.0167947
908.419	0.0167455
908.497	0.0167549
908.575	0.0167012
908.654	0.0167794
908.732	0.0165703
908.810	0.0167126
908.888	0.0166076
908.966	0.0166993
909.044	0.0166148
909.122	0.0165501
909.200	0.0164901
909.279	0.0164345
909.357	0.0165647
909.435	0.0164265
909.513	0.0165362
909.591	0.0163743
909.669	0.0164415
909.747	0.0164202
909.825	0.0165421
909.904	0.0165278
909.982	0.0163427
910.060	0.0162807
910.138	0.0163176
910.216	0.0163685
910.294	0.0164134
910.372	0.0164291
910.450	0.0163098
910.529	0.0163161
910.607	0.0164832
910.685	0.0164253
910.763	0.0165422
910.841	0.0164555
910.919	0.0166136
910.997	0.0166517
911.075	0.0167893
911.154	0.0168439
911.232	0.0167885
911.310	0.0168413
911.388	0.0169710
911.466	0.0169249
911.544	0.0169732
911.622	0.0169784
911.700	0.0170894
911.779	0.0169447
911.857	0.0170881
911.935	0.0168995
912.013	0.0169350
912.091	0.0170842
912.169	0.0167835
912.247	0.0167259
912.325	0.0169067
912.404	0.0167514
912.482	0.0167668
912.560	0.0166274
912.638	0.0166728
912.716	0.0166717
912.794	0.0165362
912.872	0.0165528
912.950	0.0165057
913.029	0.0163863
913.107	0.0163454
913.185	0.0163759
913.263	0.0163334
913.341	0.0163861
913.419	0.0164852
913.497	0.0163560
913.575	0.0164064
913.654	0.0162748
913.732	0.0163715
913.810	0.0163654
913.888	0.0164509
913.966	0.0165176
914.044	0.0165246
914.122	0.0166476
914.200	0.0166899
914.279	0.0165907
914.357	0.0166333
914.435	0.0166383
914.513	0.0166885
914.591	0.0166338
914.669	0.0166673
914.747	0.0166772
914.825	0.0166985
914.904	0.0166360
914.982	0.0166409
915.060	0.0165765
915.138	0.0164886
915.216	0.0164778
915.294	0.0164893
915.372	0.0164756
915.450	0.0165923
915.529	0.0165396
915.607	0.0163810
915.685	0.0164868
915.763	0.0164966
915.841	0.0164424
915.919	0.0164841
915.997	0.0166114
916.075	0.0165095
916.154	0.0165620
916.232	0.0165659
916.310	0.0165549
916.388	0.0167439
916.466	0.0166500
916.544	0.0165765
916.622	0.0168084
916.700	0.0166660
916.779	0.0165710
916.857	0.0167503
916.935	0.0168098
917.013	0.0166846
917.091	0.0166563
917.169	0.0167088
917.247	0.0165923
917.325	0.0167914
917.404	0.0168147
917.482	0.0166512
917.560	0.0166747
917.638	0.0168182
917.716	0.0167431
917.794	0.0168458
917.872	0.0167519
917.950	0.0167409
918.029	0.0167375
918.107	0.0167361
918.185	0.0168028
918.263	0.0167011
918.341	0.0166013
918.419	0.0167354
918.497	0.0165832
918.575	0.0166554
918.654	0.0165932
918.732	0.0165076
918.810	0.0165592
918.888	0.0164532
918.966	0.0165112
919.044	0.0164582
919.122	0.0164323
919.200	0.0163994
919.279	0.0164861
919.357	0.0164440
919.435	0.0164156
919.513	0.0163705
919.591	0.0163115
919.669	0.0164040
919.747	0.0165462
919.825	0.0164303
919.904	0.0165056
