05/24/2022	20:21:44	Ver.	4.1	UNKNOWN
Optical Delay	599.981738	Delta X		0.078125	Sweeps	1	Scan Rate	0/0
Coordinates	Axis 1	NaN	Axis 2	NaN	Axis 3	NaN	Axis 4	NaN	Axis 5	NaN	Axis 6	0.000000
TX Power	0.000000	RX Power	0.000000

599.982	0.0165780
600.060	0.0166783
600.138	0.0166396
600.216	0.0165026
600.294	0.0165001
600.372	0.0165913
600.450	0.0164691
600.529	0.0165794
600.607	0.0165999
600.685	0.0165456
600.763	0.0165075
600.841	0.0165461
600.919	0.0164794
600.997	0.0166016
601.075	0.0164892
601.154	0.0164623
601.232	0.0165034
601.310	0.0165253
601.388	0.0166428
601.466	0.0165128
601.544	0.0164738
601.622	0.0166791
601.700	0.0165794
601.779	0.0165363
601.857	0.0165590
601.935	0.0165228
602.013	0.0165337
602.091	0.0165641
602.169	0.0165920
602.247	0.0166010
602.325	0.0165485
602.404	0.0165449
602.482	0.0165345
602.560	0.0164569
602.638	0.0165456
602.716	0.0166107
602.794	0.0167098
602.872	0.0165425
602.950	0.0166378
603.029	0.0165152
603.107	0.0165699
603.185	0.0165067
603.263	0.0165424
603.341	0.0166152
603.419	0.0166677
603.497	0.0164256
603.575	0.0165021
603.654	0.0167400
603.732	0.0165715
603.810	0.0166535
603.888	0.0165472
603.966	0.0166475
604.044	0.0166465
604.122	0.0165542
604.200	0.0166011
604.279	0.0166378
604.357	0.0165639
604.435	0.0165857
604.513	0.0166285
604.591	0.0166265
604.669	0.0165085
604.747	0.0164873
604.825	0.0166049
604.904	0.0165770
604.982	0.0165971
605.060	0.0165234
605.138	0.0165499
605.216	0.0165816
605.294	0.0166740
605.372	0.0166869
605.450	0.0166600
605.529	0.0166184
605.607	0.0165344
605.685	0.0165973
605.763	0.0166927
605.841	0.0165364
605.919	0.0166004
605.997	0.0166553
606.075	0.0166594
606.154	0.0166180
606.232	0.0165438
606.310	0.0167432
606.388	0.0166006
606.466	0.0164959
606.544	0.0165157
606.622	0.0166277
606.700	0.0165421
606.779	0.0166297
606.857	0.0166787
606.935	0.0168509
607.013	0.0166146
607.091	0.0165259
607.169	0.0166470
607.247	0.0166151
607.325	0.0165900
607.404	0.0165460
607.482	0.0167193
607.560	0.0166909
607.638	0.0165895
607.716	0.0166066
607.794	0.0166058
607.872	0.0166545
607.950	0.0167050
608.029	0.0166387
608.107	0.0165755
608.185	0.0164668
608.263	0.0165968
608.341	0.0164603
608.419	0.0166277
608.497	0.0165120
608.575	0.0166480
608.654	0.0165220
608.732	0.0166971
608.810	0.0166230
608.888	0.0165015
608.966	0.0165566
609.044	0.0166074
609.122	0.0165878
609.200	0.0165323
609.279	0.0165520
609.357	0.0166148
609.435	0.0166862
609.513	0.0165921
609.591	0.0164378
609.669	0.0165778
609.747	0.0166810
609.825	0.0165664
609.904	0.0164681
609.982	0.0166103
610.060	0.0165927
610.138	0.0165554
610.216	0.0164538
610.294	0.0166378
610.372	0.0166229
610.450	0.0164841
610.529	0.0167226
610.607	0.0164529
610.685	0.0165547
610.763	0.0166517
610.841	0.0165268
610.919	0.0163969
610.997	0.0164309
611.075	0.0165560
611.154	0.0166505
611.232	0.0165565
611.310	0.0166417
611.388	0.0165598
611.466	0.0165126
611.544	0.0164911
611.622	0.0166220
611.700	0.0164452
611.779	0.0166317
611.857	0.0165953
611.935	0.0165195
612.013	0.0165768
612.091	0.0166340
612.169	0.0165876
612.247	0.0164407
612.325	0.0164134
612.404	0.0165118
612.482	0.0165662
612.560	0.0165134
612.638	0.0165758
612.716	0.0165154
612.794	0.0165565
612.872	0.0165435
612.950	0.0166400
613.029	0.0164831
613.107	0.0165549
613.185	0.0166265
613.263	0.0165540
613.341	0.0164911
613.419	0.0164232
613.497	0.0165376
613.575	0.0166096
613.654	0.0165244
613.732	0.0166534
613.810	0.0165753
613.888	0.0165401
613.966	0.0165528
614.044	0.0165270
614.122	0.0164214
614.200	0.0164923
614.279	0.0166150
614.357	0.0166150
614.435	0.0165949
614.513	0.0164397
614.591	0.0165111
614.669	0.0166610
614.747	0.0164630
614.825	0.0165202
614.904	0.0165916
614.982	0.0165820
615.060	0.0164864
615.138	0.0164380
615.216	0.0166142
615.294	0.0166029
615.372	0.0164828
615.450	0.0165681
615.529	0.0163528
615.607	0.0164723
615.685	0.0164339
615.763	0.0164677
615.841	0.0165237
615.919	0.0165018
615.997	0.0165654
616.075	0.0165852
616.154	0.0164143
616.232	0.0164854
616.310	0.0164967
616.388	0.0165440
616.466	0.0166172
616.544	0.0165231
616.622	0.0165177
616.700	0.0165115
616.779	0.0163869
616.857	0.0164364
616.935	0.0164931
617.013	0.0164308
617.091	0.0166012
617.169	0.0165694
617.247	0.0163032
617.325	0.0164066
617.404	0.0164912
617.482	0.0165215
617.560	0.0164712
617.638	0.0164221
617.716	0.0164474
617.794	0.0165717
617.872	0.0164892
617.950	0.0164687
618.029	0.0164252
618.107	0.0165876
618.185	0.0165631
618.263	0.0165207
618.341	0.0164377
618.419	0.0165884
618.497	0.0165478
618.575	0.0165524
618.654	0.0165034
618.732	0.0166244
618.810	0.0164420
618.888	0.0164492
618.966	0.0166176
619.044	0.0165499
619.122	0.0165309
619.200	0.0165574
619.279	0.0165146
619.357	0.0164986
619.435	0.0165333
619.513	0.0165540
619.591	0.0167264
619.669	0.0166009
619.747	0.0165453
619.825	0.0164158
619.904	0.0165993
619.982	0.0165621
620.060	0.0164489
620.138	0.0165883
620.216	0.0165984
620.294	0.0168742
620.372	0.0166486
620.450	0.0166224
620.529	0.0165398
620.607	0.0166531
620.685	0.0165754
620.763	0.0167069
620.841	0.0166749
620.919	0.0166320
620.997	0.0165759
621.075	0.0165281
621.154	0.0166632
621.232	0.0167993
621.310	0.0167303
621.388	0.0167334
621.466	0.0165769
621.544	0.0165722
621.622	0.0166534
621.700	0.0165636
621.779	0.0165682
621.857	0.0166934
621.935	0.0167476
622.013	0.0166846
622.091	0.0165391
622.169	0.0165265
622.247	0.0166930
622.325	0.0165598
622.404	0.0167211
622.482	0.0165510
622.560	0.0165659
622.638	0.0165667
622.716	0.0165877
622.794	0.0166014
622.872	0.0166489
622.950	0.0165245
623.029	0.0165979
623.107	0.0165662
623.185	0.0166006
623.263	0.0166470
623.341	0.0165990
623.419	0.0166914
623.497	0.0165067
623.575	0.0166372
623.654	0.0167197
623.732	0.0167521
623.810	0.0166018
623.888	0.0166746
623.966	0.0166458
624.044	0.0166644
624.122	0.0167058
624.200	0.0166308
624.279	0.0165761
624.357	0.0166251
624.435	0.0167020
624.513	0.0166731
624.591	0.0165296
624.669	0.0166615
624.747	0.0166573
624.825	0.0166797
624.904	0.0167079
624.982	0.0165996
625.060	0.0167555
625.138	0.0165816
625.216	0.0165669
625.294	0.0166344
625.372	0.0167310
625.450	0.0166943
625.529	0.0165228
625.607	0.0165431
625.685	0.0165730
625.763	0.0165943
625.841	0.0166634
625.919	0.0167126
625.997	0.0166322
626.075	0.0167102
626.154	0.0165975
626.232	0.0166682
626.310	0.0166060
626.388	0.0167213
626.466	0.0165438
626.544	0.0166506
626.622	0.0165495
626.700	0.0166460
626.779	0.0165880
626.857	0.0165536
626.935	0.0166125
627.013	0.0166458
627.091	0.0164951
627.169	0.0165804
627.247	0.0166278
627.325	0.0166662
627.404	0.0165212
627.482	0.0165503
627.560	0.0167149
627.638	0.0166567
627.716	0.0165974
627.794	0.0166193
627.872	0.0165870
627.950	0.0166674
628.029	0.0165034
628.107	0.0165333
628.185	0.0165897
628.263	0.0165575
628.341	0.0165638
628.419	0.0165966
628.497	0.0166127
628.575	0.0164996
628.654	0.0166344
628.732	0.0165581
628.810	0.0165064
628.888	0.0165796
628.966	0.0165930
629.044	0.0165842
629.122	0.0166368
629.200	0.0167149
629.279	0.0165469
629.357	0.0166170
629.435	0.0164838
629.513	0.0168111
629.591	0.0166335
629.669	0.0166100
629.747	0.0165347
629.825	0.0165849
629.904	0.0166253
629.982	0.0166783
630.060	0.0165625
630.138	0.0166306
630.216	0.0165005
630.294	0.0165273
630.372	0.0165503
630.450	0.0165313
630.529	0.0166338
630.607	0.0166230
630.685	0.0166123
630.763	0.0166239
630.841	0.0164430
630.919	0.0165950
630.997	0.0165953
631.075	0.0166450
631.154	0.0165833
631.232	0.0166855
631.310	0.0165623
631.388	0.0166501
631.466	0.0165954
631.544	0.0165563
631.622	0.0165844
631.700	0.0166417
631.779	0.0166096
631.857	0.0165968
631.935	0.0166240
632.013	0.0165810
632.091	0.0165567
632.169	0.0165899
632.247	0.0165398
632.325	0.0167409
632.404	0.0165721
632.482	0.0164557
632.560	0.0165807
632.638	0.0164273
632.716	0.0164982
632.794	0.0165938
632.872	0.0166126
632.950	0.0165222
633.029	0.0165501
633.107	0.0165379
633.185	0.0164284
633.263	0.0163245
633.341	0.0164883
633.419	0.0165725
633.497	0.0164711
633.575	0.0166068
633.654	0.0164114
633.732	0.0165161
633.810	0.0165352
633.888	0.0166036
633.966	0.0164095
634.044	0.0165856
634.122	0.0164569
634.200	0.0163828
634.279	0.0165475
634.357	0.0165595
634.435	0.0165434
634.513	0.0166083
634.591	0.0164391
634.669	0.0163652
634.747	0.0164880
634.825	0.0164270
634.904	0.0165623
634.982	0.0164878
635.060	0.0165596
635.138	0.0164278
635.216	0.0164321
635.294	0.0165179
635.372	0.0165256
635.450	0.0165963
635.529	0.0164875
635.607	0.0164731
635.685	0.0164923
635.763	0.0165889
635.841	0.0164357
635.919	0.0163592
635.997	0.0164738
636.075	0.0164224
636.154	0.0163502
636.232	0.0164951
636.310	0.0163253
636.388	0.0164546
636.466	0.0164872
636.544	0.0166129
636.622	0.0163764
636.700	0.0163242
636.779	0.0164426
636.857	0.0163876
636.935	0.0164895
637.013	0.0164749
637.091	0.0166539
637.169	0.0166547
637.247	0.0163688
637.325	0.0164227
637.404	0.0164103
637.482	0.0165600
637.560	0.0166832
637.638	0.0164527
637.716	0.0164182
637.794	0.0166038
637.872	0.0165469
637.950	0.0166272
638.029	0.0165967
638.107	0.0166257
638.185	0.0166908
638.263	0.0167216
638.341	0.0165569
638.419	0.0166222
638.497	0.0165562
638.575	0.0165485
638.654	0.0166862
638.732	0.0165580
638.810	0.0165224
638.888	0.0164954
638.966	0.0163831
639.044	0.0164300
639.122	0.0165005
639.200	0.0162787
639.279	0.0163863
639.357	0.0162891
639.435	0.0162074
639.513	0.0163390
639.591	0.0163201
639.669	0.0161859
639.747	0.0162203
639.825	0.0162666
639.904	0.0162991
639.982	0.0161139
640.060	0.0162526
640.138	0.0163532
640.216	0.0164525
640.294	0.0166288
640.372	0.0165898
640.450	0.0167152
640.529	0.0166419
640.607	0.0167521
640.685	0.0167151
640.763	0.0169567
640.841	0.0169257
640.919	0.0169492
640.997	0.0170094
641.075	0.0169785
641.154	0.0171194
641.232	0.0171376
641.310	0.0169921
641.388	0.0170410
641.466	0.0168324
641.544	0.0169271
641.622	0.0169279
641.700	0.0168063
641.779	0.0167829
641.857	0.0164986
641.935	0.0164945
642.013	0.0164928
642.091	0.0163628
642.169	0.0164035
642.247	0.0161213
642.325	0.0160500
642.404	0.0161481
642.482	0.0161647
642.560	0.0160846
642.638	0.0160292
642.716	0.0159795
642.794	0.0160574
642.872	0.0159657
642.950	0.0160132
643.029	0.0160875
643.107	0.0161284
643.185	0.0162127
643.263	0.0163207
643.341	0.0163959
643.419	0.0164506
643.497	0.0164939
643.575	0.0165559
643.654	0.0166412
643.732	0.0167746
643.810	0.0167922
643.888	0.0166966
643.966	0.0169354
644.044	0.0168174
644.122	0.0168233
644.200	0.0169949
644.279	0.0170630
644.357	0.0171060
644.435	0.0170518
644.513	0.0171133
644.591	0.0170410
644.669	0.0171346
644.747	0.0171632
644.825	0.0172781
644.904	0.0170905
644.982	0.0171645
645.060	0.0172186
645.138	0.0170705
645.216	0.0170873
645.294	0.0168828
645.372	0.0169557
645.450	0.0167065
645.529	0.0165558
645.607	0.0164412
645.685	0.0162484
645.763	0.0163293
645.841	0.0160886
645.919	0.0160334
645.997	0.0160562
646.075	0.0158378
646.154	0.0158648
646.232	0.0157829
646.310	0.0157898
646.388	0.0158947
646.466	0.0157890
646.544	0.0160336
646.622	0.0160911
646.700	0.0161967
646.779	0.0161839
646.857	0.0162548
646.935	0.0164338
647.013	0.0165134
647.091	0.0165693
647.169	0.0168313
647.247	0.0167466
647.325	0.0169378
647.404	0.0170180
647.482	0.0170042
647.560	0.0172216
647.638	0.0172341
647.716	0.0172702
647.794	0.0171867
647.872	0.0173734
647.950	0.0174831
648.029	0.0173230
648.107	0.0175114
648.185	0.0173756
648.263	0.0173137
648.341	0.0171088
648.419	0.0170766
648.497	0.0170902
648.575	0.0170403
648.654	0.0168832
648.732	0.0169927
648.810	0.0168822
648.888	0.0168599
648.966	0.0168771
649.044	0.0167077
649.122	0.0165978
649.200	0.0165976
649.279	0.0165971
649.357	0.0163155
649.435	0.0164168
649.513	0.0163177
649.591	0.0161268
649.669	0.0158945
649.747	0.0160805
649.825	0.0159972
649.904	0.0159287
649.982	0.0157366
650.060	0.0157423
650.138	0.0156297
650.216	0.0156187
650.294	0.0156087
650.372	0.0155915
650.450	0.0157815
650.529	0.0158547
650.607	0.0158716
650.685	0.0160389
650.763	0.0162665
650.841	0.0164893
650.919	0.0165862
650.997	0.0167525
651.075	0.0169797
651.154	0.0171444
651.232	0.0172750
651.310	0.0175529
651.388	0.0174894
651.466	0.0176024
651.544	0.0176414
651.622	0.0177456
651.700	0.0178664
651.779	0.0176743
651.857	0.0177740
651.935	0.0176656
652.013	0.0175266
652.091	0.0175090
652.169	0.0172965
652.247	0.0172718
652.325	0.0171760
652.404	0.0171637
652.482	0.0169720
652.560	0.0168591
652.638	0.0167175
652.716	0.0165574
652.794	0.0165779
652.872	0.0163827
652.950	0.0164213
653.029	0.0163477
653.107	0.0162984
653.185	0.0160955
653.263	0.0159840
653.341	0.0159944
653.419	0.0159684
653.497	0.0159956
653.575	0.0158246
653.654	0.0159128
653.732	0.0158929
653.810	0.0159365
653.888	0.0158121
653.966	0.0158002
654.044	0.0158559
654.122	0.0157230
654.200	0.0157854
654.279	0.0157219
654.357	0.0158502
654.435	0.0159121
654.513	0.0157368
654.591	0.0159224
654.669	0.0161357
654.747	0.0162469
654.825	0.0163344
654.904	0.0164866
654.982	0.0165816
655.060	0.0168519
655.138	0.0169147
655.216	0.0169889
655.294	0.0170882
655.372	0.0172051
655.450	0.0173219
655.529	0.0173150
655.607	0.0173540
655.685	0.0174714
655.763	0.0174596
655.841	0.0173035
655.919	0.0172393
655.997	0.0171873
656.075	0.0172307
656.154	0.0169639
656.232	0.0169413
656.310	0.0168478
656.388	0.0167423
656.466	0.0166077
656.544	0.0166833
656.622	0.0166548
656.700	0.0165647
656.779	0.0165242
656.857	0.0165140
656.935	0.0164294
657.013	0.0164063
657.091	0.0163094
657.169	0.0162956
657.247	0.0164223
657.325	0.0163442
657.404	0.0162769
657.482	0.0163213
657.560	0.0163343
657.638	0.0164420
657.716	0.0164130
657.794	0.0163465
657.872	0.0163363
657.950	0.0164163
658.029	0.0164960
658.107	0.0163718
658.185	0.0164473
658.263	0.0164041
658.341	0.0163400
658.419	0.0164287
658.497	0.0162879
658.575	0.0162246
658.654	0.0161951
658.732	0.0162546
658.810	0.0161732
658.888	0.0160903
658.966	0.0160075
659.044	0.0159746
659.122	0.0160766
659.200	0.0160932
659.279	0.0160897
659.357	0.0161438
659.435	0.0161846
659.513	0.0162923
659.591	0.0163721
659.669	0.0163387
659.747	0.0164756
659.825	0.0166740
659.904	0.0168020
659.982	0.0167721
660.060	0.0169021
660.138	0.0167538
660.216	0.0168382
660.294	0.0168460
660.372	0.0171154
660.450	0.0170317
660.529	0.0169521
660.607	0.0169456
660.685	0.0169386
660.763	0.0169592
660.841	0.0170216
660.919	0.0168969
660.997	0.0167535
661.075	0.0166246
661.154	0.0167583
661.232	0.0166084
661.310	0.0166604
661.388	0.0166000
661.466	0.0166631
661.544	0.0165119
661.622	0.0163433
661.700	0.0164801
661.779	0.0166408
661.857	0.0165528
661.935	0.0165621
662.013	0.0166260
662.091	0.0166924
662.169	0.0166946
662.247	0.0168350
662.325	0.0168734
662.404	0.0166380
662.482	0.0166106
662.560	0.0165805
662.638	0.0163988
662.716	0.0162675
662.794	0.0161980
662.872	0.0161459
662.950	0.0160078
663.029	0.0159466
663.107	0.0158486
663.185	0.0158304
663.263	0.0158749
663.341	0.0159995
663.419	0.0160903
663.497	0.0163075
663.575	0.0166814
663.654	0.0167914
663.732	0.0168447
663.810	0.0169765
663.888	0.0171050
663.966	0.0172552
664.044	0.0172798
664.122	0.0171228
664.200	0.0168725
664.279	0.0167888
664.357	0.0165497
664.435	0.0164675
664.513	0.0161536
664.591	0.0160141
664.669	0.0159813
664.747	0.0158806
664.825	0.0157455
664.904	0.0159905
664.982	0.0159123
665.060	0.0162085
665.138	0.0161604
665.216	0.0163914
665.294	0.0165363
665.372	0.0167626
665.450	0.0168489
665.529	0.0168932
665.607	0.0167836
665.685	0.0167499
665.763	0.0168006
665.841	0.0167189
665.919	0.0167185
665.997	0.0167299
666.075	0.0167729
666.154	0.0168925
666.232	0.0171561
666.310	0.0171611
666.388	0.0172976
666.466	0.0173241
666.544	0.0176354
666.622	0.0176067
666.700	0.0176929
666.779	0.0177158
666.857	0.0176855
666.935	0.0175067
667.013	0.0173702
667.091	0.0172936
667.169	0.0172226
667.247	0.0168243
667.325	0.0165593
667.404	0.0163983
667.482	0.0162358
667.560	0.0160410
667.638	0.0158839
667.716	0.0158007
667.794	0.0158719
667.872	0.0156551
667.950	0.0153884
668.029	0.0152345
668.107	0.0149020
668.185	0.0149712
668.263	0.0148511
668.341	0.0146801
668.419	0.0146805
668.497	0.0147340
668.575	0.0148081
668.654	0.0150405
668.732	0.0152879
668.810	0.0156653
668.888	0.0160455
668.966	0.0164453
669.044	0.0167499
669.122	0.0173650
669.200	0.0176031
669.279	0.0179712
669.357	0.0184661
669.435	0.0185730
669.513	0.0188409
669.591	0.0188301
669.669	0.0189858
669.747	0.0189437
669.825	0.0187575
669.904	0.0186566
669.982	0.0185383
670.060	0.0184938
670.138	0.0182626
670.216	0.0178195
670.294	0.0174659
670.372	0.0170493
670.450	0.0168127
670.529	0.0164488
670.607	0.0158610
670.685	0.0156786
670.763	0.0153410
670.841	0.0147526
670.919	0.0146583
670.997	0.0145328
671.075	0.0143446
671.154	0.0142339
671.232	0.0142597
671.310	0.0143852
671.388	0.0145975
671.466	0.0148815
671.544	0.0152275
671.622	0.0153513
671.700	0.0156670
671.779	0.0160163
671.857	0.0163482
671.935	0.0168281
672.013	0.0170599
672.091	0.0175266
672.169	0.0179725
672.247	0.0184609
672.325	0.0187112
672.404	0.0189701
672.482	0.0193896
672.560	0.0193502
672.638	0.0194079
672.716	0.0190836
672.794	0.0187215
672.872	0.0181140
672.950	0.0175439
673.029	0.0170671
673.107	0.0163337
673.185	0.0157912
673.263	0.0153293
673.341	0.0151023
673.419	0.0149622
673.497	0.0147010
673.575	0.0146727
673.654	0.0148441
673.732	0.0149991
673.810	0.0151122
673.888	0.0152469
673.966	0.0152749
674.044	0.0151659
674.122	0.0151625
674.200	0.0149725
674.279	0.0149975
674.357	0.0151133
674.435	0.0153365
674.513	0.0156080
674.591	0.0161224
674.669	0.0165191
674.747	0.0172260
674.825	0.0180403
674.904	0.0189245
674.982	0.0195264
675.060	0.0202386
675.138	0.0206197
675.216	0.0207347
675.294	0.0208124
675.372	0.0206602
675.450	0.0200861
675.529	0.0193331
675.607	0.0185447
675.685	0.0176060
675.763	0.0166788
675.841	0.0158008
675.919	0.0149103
675.997	0.0141856
676.075	0.0137123
676.154	0.0133009
676.232	0.0129901
676.310	0.0129637
676.388	0.0129674
676.466	0.0131348
676.544	0.0133488
676.622	0.0134379
676.700	0.0138721
676.779	0.0142246
676.857	0.0145287
676.935	0.0150146
677.013	0.0154147
677.091	0.0155193
677.169	0.0160503
677.247	0.0164566
677.325	0.0168523
677.404	0.0172053
677.482	0.0175463
677.560	0.0178383
677.638	0.0182905
677.716	0.0186306
677.794	0.0188342
677.872	0.0191139
677.950	0.0193911
678.029	0.0196125
678.107	0.0196776
678.185	0.0197061
678.263	0.0197694
678.341	0.0196970
678.419	0.0194804
678.497	0.0191720
678.575	0.0189798
678.654	0.0183869
678.732	0.0181043
678.810	0.0175601
678.888	0.0169717
678.966	0.0162682
679.044	0.0157896
679.122	0.0153854
679.200	0.0148923
679.279	0.0144771
679.357	0.0140730
679.435	0.0139194
679.513	0.0136304
679.591	0.0134755
679.669	0.0133994
679.747	0.0135086
679.825	0.0132984
679.904	0.0135438
679.982	0.0137256
680.060	0.0137423
680.138	0.0140585
680.216	0.0147239
680.294	0.0150541
680.372	0.0154792
680.450	0.0162101
680.529	0.0166549
680.607	0.0171378
680.685	0.0177150
680.763	0.0181458
680.841	0.0183298
680.919	0.0187518
680.997	0.0185831
681.075	0.0184576
681.154	0.0180727
681.232	0.0178444
681.310	0.0174477
681.388	0.0171661
681.466	0.0169071
681.544	0.0167359
681.622	0.0168283
681.700	0.0169045
681.779	0.0171528
681.857	0.0177073
681.935	0.0179454
682.013	0.0185219
682.091	0.0188686
682.169	0.0192243
682.247	0.0192962
682.325	0.0192529
682.404	0.0191624
682.482	0.0187793
682.560	0.0183220
682.638	0.0178544
682.716	0.0172450
682.794	0.0164399
682.872	0.0158729
682.950	0.0153364
683.029	0.0145316
683.107	0.0141827
683.185	0.0139809
683.263	0.0137588
683.341	0.0137310
683.419	0.0139362
683.497	0.0143829
683.575	0.0146912
683.654	0.0150928
683.732	0.0156232
683.810	0.0160072
683.888	0.0165553
683.966	0.0168447
684.044	0.0171608
684.122	0.0172311
684.200	0.0172664
684.279	0.0171368
684.357	0.0168155
684.435	0.0168353
684.513	0.0164826
684.591	0.0163699
684.669	0.0162813
684.747	0.0159750
684.825	0.0161092
684.904	0.0158628
684.982	0.0160101
685.060	0.0162382
685.138	0.0161501
685.216	0.0162427
685.294	0.0162527
685.372	0.0163532
685.450	0.0164550
685.529	0.0163233
685.607	0.0164143
685.685	0.0163036
685.763	0.0162399
685.841	0.0163018
685.919	0.0164812
685.997	0.0166055
686.075	0.0166943
686.154	0.0169160
686.232	0.0171539
686.310	0.0173174
686.388	0.0174223
686.466	0.0175851
686.544	0.0176547
686.622	0.0176598
686.700	0.0177321
686.779	0.0174329
686.857	0.0174447
686.935	0.0174731
687.013	0.0175917
687.091	0.0173782
687.169	0.0173396
687.247	0.0174613
687.325	0.0177621
687.404	0.0176050
687.482	0.0177242
687.560	0.0175516
687.638	0.0172807
687.716	0.0172161
687.794	0.0171568
687.872	0.0167352
687.950	0.0165202
688.029	0.0161437
688.107	0.0159682
688.185	0.0160147
688.263	0.0158847
688.341	0.0160469
688.419	0.0161742
688.497	0.0162540
688.575	0.0166312
688.654	0.0168237
688.732	0.0168803
688.810	0.0168171
688.888	0.0167709
688.966	0.0166512
689.044	0.0162693
689.122	0.0159386
689.200	0.0157033
689.279	0.0152708
689.357	0.0148771
689.435	0.0147673
689.513	0.0146655
689.591	0.0148241
689.669	0.0149306
689.747	0.0152872
689.825	0.0157192
689.904	0.0160794
689.982	0.0164747
690.060	0.0169239
690.138	0.0172221
690.216	0.0172805
690.294	0.0175317
690.372	0.0175618
690.450	0.0175233
690.529	0.0173119
690.607	0.0171633
690.685	0.0169160
690.763	0.0168566
690.841	0.0165799
690.919	0.0163507
690.997	0.0163201
691.075	0.0162508
691.154	0.0162115
691.232	0.0161073
691.310	0.0162627
691.388	0.0162857
691.466	0.0163723
691.544	0.0165125
691.622	0.0163844
691.700	0.0165163
691.779	0.0164482
691.857	0.0165076
691.935	0.0163300
692.013	0.0163787
692.091	0.0163515
692.169	0.0161049
692.247	0.0159611
692.325	0.0157989
692.404	0.0159155
692.482	0.0156044
692.560	0.0155672
692.638	0.0155785
692.716	0.0157712
692.794	0.0160308
692.872	0.0161430
692.950	0.0164679
693.029	0.0167867
693.107	0.0172401
693.185	0.0173853
693.263	0.0178081
693.341	0.0178755
693.419	0.0179112
693.497	0.0179871
693.575	0.0181561
693.654	0.0179620
693.732	0.0181161
693.810	0.0181782
693.888	0.0182407
693.966	0.0183581
694.044	0.0185279
694.122	0.0184975
694.200	0.0186435
694.279	0.0186829
694.357	0.0186879
694.435	0.0187431
694.513	0.0188634
694.591	0.0184922
694.669	0.0183973
694.747	0.0182176
694.825	0.0178374
694.904	0.0174749
694.982	0.0170670
695.060	0.0168870
695.138	0.0165024
695.216	0.0161929
695.294	0.0161315
695.372	0.0158268
695.450	0.0152390
695.529	0.0154214
695.607	0.0152157
695.685	0.0151122
695.763	0.0151170
695.841	0.0148867
695.919	0.0148096
695.997	0.0145730
696.075	0.0144233
696.154	0.0141734
696.232	0.0138972
696.310	0.0137842
696.388	0.0136214
696.466	0.0134323
696.544	0.0133720
696.622	0.0134309
696.700	0.0136211
696.779	0.0135719
696.857	0.0138066
696.935	0.0142783
697.013	0.0144836
697.091	0.0146767
697.169	0.0148898
697.247	0.0153793
697.325	0.0154297
697.404	0.0158343
697.482	0.0158976
697.560	0.0161198
697.638	0.0163679
697.716	0.0167521
697.794	0.0170461
697.872	0.0175986
697.950	0.0178842
698.029	0.0182600
698.107	0.0187303
698.185	0.0189314
698.263	0.0192171
698.341	0.0192731
698.419	0.0195629
698.497	0.0195509
698.575	0.0194112
698.654	0.0192438
698.732	0.0189393
698.810	0.0183824
698.888	0.0182145
698.966	0.0182403
699.044	0.0179221
699.122	0.0177088
699.200	0.0176151
699.279	0.0177186
699.357	0.0177452
699.435	0.0179269
699.513	0.0179813
699.591	0.0180698
699.669	0.0180579
699.747	0.0182638
699.825	0.0183235
699.904	0.0183022
699.982	0.0183867
700.060	0.0184789
700.138	0.0186730
700.216	0.0187996
700.294	0.0187895
700.372	0.0190556
700.450	0.0190144
700.529	0.0188641
700.607	0.0186896
700.685	0.0184447
700.763	0.0182964
700.841	0.0179255
700.919	0.0174619
700.997	0.0168452
701.075	0.0164751
701.154	0.0156098
701.232	0.0150415
701.310	0.0143839
701.388	0.0138818
701.466	0.0131688
701.544	0.0127507
701.622	0.0123262
701.700	0.0120752
701.779	0.0117343
701.857	0.0117902
701.935	0.0117567
702.013	0.0114951
702.091	0.0117173
702.169	0.0119079
702.247	0.0124815
702.325	0.0127411
702.404	0.0132148
702.482	0.0135350
702.560	0.0139368
702.638	0.0142651
702.716	0.0145674
702.794	0.0149773
702.872	0.0152728
702.950	0.0155715
703.029	0.0156964
703.107	0.0159774
703.185	0.0161429
703.263	0.0162754
703.341	0.0166910
703.419	0.0168920
703.497	0.0170009
703.575	0.0172260
703.654	0.0174388
703.732	0.0175398
703.810	0.0177173
703.888	0.0180637
703.966	0.0182472
704.044	0.0184482
704.122	0.0187713
704.200	0.0190628
704.279	0.0193530
704.357	0.0196187
704.435	0.0198627
704.513	0.0199400
704.591	0.0202544
704.669	0.0202520
704.747	0.0203800
704.825	0.0202185
704.904	0.0201082
704.982	0.0198112
705.060	0.0195102
705.138	0.0191648
705.216	0.0187993
705.294	0.0182968
705.372	0.0179763
705.450	0.0175278
705.529	0.0172560
705.607	0.0169836
705.685	0.0167992
705.763	0.0165363
705.841	0.0166144
705.919	0.0165425
705.997	0.0166729
706.075	0.0167628
706.154	0.0169917
706.232	0.0172009
706.310	0.0172584
706.388	0.0174308
706.466	0.0176504
706.544	0.0177059
706.622	0.0176963
706.700	0.0175873
706.779	0.0176058
706.857	0.0174090
706.935	0.0173112
707.013	0.0169967
707.091	0.0166568
707.169	0.0162163
707.247	0.0159451
707.325	0.0154854
707.404	0.0150195
707.482	0.0146523
707.560	0.0141377
707.638	0.0138573
707.716	0.0134498
707.794	0.0131467
707.872	0.0129108
707.950	0.0127068
708.029	0.0127621
708.107	0.0126811
708.185	0.0127573
708.263	0.0129439
708.341	0.0129874
708.419	0.0131248
708.497	0.0134385
708.575	0.0139306
708.654	0.0141737
708.732	0.0145358
708.810	0.0148130
708.888	0.0150927
708.966	0.0154807
709.044	0.0157916
709.122	0.0161462
709.200	0.0163120
709.279	0.0165028
709.357	0.0166888
709.435	0.0167440
709.513	0.0168913
709.591	0.0168513
709.669	0.0168708
709.747	0.0169702
709.825	0.0169833
709.904	0.0169944
709.982	0.0172089
710.060	0.0173881
710.138	0.0175778
710.216	0.0176306
710.294	0.0178696
710.372	0.0180927
710.450	0.0184946
710.529	0.0188269
710.607	0.0193407
710.685	0.0195042
710.763	0.0198515
710.841	0.0200622
710.919	0.0202458
710.997	0.0202992
711.075	0.0201431
711.154	0.0202155
711.232	0.0199632
711.310	0.0197770
711.388	0.0192853
711.466	0.0189205
711.544	0.0184443
711.622	0.0179833
711.700	0.0177303
711.779	0.0171490
711.857	0.0167023
711.935	0.0164033
712.013	0.0160340
712.091	0.0157871
712.169	0.0158469
712.247	0.0156465
712.325	0.0155527
712.404	0.0157887
712.482	0.0157407
712.560	0.0159315
712.638	0.0160155
712.716	0.0162036
712.794	0.0165537
712.872	0.0166847
712.950	0.0169099
713.029	0.0170844
713.107	0.0174155
713.185	0.0174170
713.263	0.0175174
713.341	0.0174606
713.419	0.0175790
713.497	0.0174831
713.575	0.0172859
713.654	0.0171366
713.732	0.0170071
713.810	0.0167501
713.888	0.0162994
713.966	0.0158537
714.044	0.0154420
714.122	0.0149805
714.200	0.0146459
714.279	0.0142104
714.357	0.0139413
714.435	0.0135170
714.513	0.0133797
714.591	0.0134095
714.669	0.0131059
714.747	0.0132462
714.825	0.0132360
714.904	0.0134069
714.982	0.0137389
715.060	0.0137949
715.138	0.0141164
715.216	0.0143684
715.294	0.0147996
715.372	0.0149723
715.450	0.0151553
715.529	0.0152840
715.607	0.0155406
715.685	0.0157610
715.763	0.0158708
715.841	0.0161874
715.919	0.0163653
715.997	0.0165312
716.075	0.0166167
716.154	0.0166502
716.232	0.0169374
716.310	0.0170691
716.388	0.0172353
716.466	0.0172777
716.544	0.0175027
716.622	0.0174050
716.700	0.0177499
716.779	0.0180237
716.857	0.0180957
716.935	0.0184391
717.013	0.0186326
717.091	0.0189305
717.169	0.0190466
717.247	0.0193465
717.325	0.0195432
717.404	0.0196777
717.482	0.0197900
717.560	0.0197983
717.638	0.0197884
717.716	0.0197749
717.794	0.0194307
717.872	0.0189890
717.950	0.0186694
718.029	0.0182027
718.107	0.0178072
718.185	0.0174412
718.263	0.0170830
718.341	0.0167501
718.419	0.0163489
718.497	0.0162023
718.575	0.0161624
718.654	0.0161510
718.732	0.0161208
718.810	0.0161268
718.888	0.0162275
718.966	0.0162349
719.044	0.0164919
719.122	0.0165623
719.200	0.0166373
719.279	0.0167908
719.357	0.0168041
719.435	0.0170036
719.513	0.0169914
719.591	0.0171127
719.669	0.0172066
719.747	0.0171891
719.825	0.0172353
719.904	0.0170190
719.982	0.0170029
720.060	0.0168608
720.138	0.0168585
720.216	0.0166498
720.294	0.0163122
720.372	0.0160542
720.450	0.0157243
720.529	0.0155289
720.607	0.0151886
720.685	0.0150097
720.763	0.0147609
720.841	0.0145612
720.919	0.0143369
720.997	0.0142509
721.075	0.0142706
721.154	0.0142838
721.232	0.0143604
721.310	0.0145533
721.388	0.0145258
721.466	0.0146226
721.544	0.0146942
721.622	0.0149432
721.700	0.0150404
721.779	0.0149490
721.857	0.0150202
721.935	0.0151107
722.013	0.0151955
722.091	0.0154140
722.169	0.0153075
722.247	0.0155257
722.325	0.0156320
722.404	0.0157244
722.482	0.0159415
722.560	0.0161462
722.638	0.0162250
722.716	0.0162435
722.794	0.0164353
722.872	0.0165352
722.950	0.0164503
723.029	0.0166482
723.107	0.0166557
723.185	0.0168427
723.263	0.0168517
723.341	0.0172089
723.419	0.0173237
723.497	0.0175526
723.575	0.0179547
723.654	0.0181599
723.732	0.0185333
723.810	0.0188209
723.888	0.0190984
723.966	0.0193615
724.044	0.0194170
724.122	0.0195770
724.200	0.0195094
724.279	0.0194590
724.357	0.0194078
724.435	0.0190746
724.513	0.0188072
724.591	0.0185286
724.669	0.0181510
724.747	0.0177802
724.825	0.0175243
724.904	0.0170435
724.982	0.0167360
725.060	0.0165554
725.138	0.0163708
725.216	0.0162418
725.294	0.0161968
725.372	0.0161559
725.450	0.0161716
725.529	0.0162008
725.607	0.0164300
725.685	0.0166583
725.763	0.0168642
725.841	0.0169492
725.919	0.0171212
725.997	0.0172951
726.075	0.0173990
726.154	0.0174895
726.232	0.0176765
726.310	0.0174831
726.388	0.0175999
726.466	0.0173680
726.544	0.0172691
726.622	0.0170611
726.700	0.0168658
726.779	0.0166579
726.857	0.0162904
726.935	0.0162733
727.013	0.0158389
727.091	0.0154940
727.169	0.0153676
727.247	0.0150792
727.325	0.0148970
727.404	0.0149264
727.482	0.0148351
727.560	0.0147245
727.638	0.0148117
727.716	0.0147443
727.794	0.0148434
727.872	0.0149657
727.950	0.0150691
728.029	0.0149769
728.107	0.0151406
728.185	0.0151377
728.263	0.0154856
728.341	0.0153233
728.419	0.0151700
728.497	0.0152973
728.575	0.0152764
728.654	0.0151024
728.732	0.0151392
728.810	0.0151987
728.888	0.0151643
728.966	0.0150432
729.044	0.0151379
729.122	0.0151598
729.200	0.0150217
729.279	0.0151322
729.357	0.0153378
729.435	0.0154532
729.513	0.0156232
729.591	0.0157887
729.669	0.0160590
729.747	0.0161292
729.825	0.0165572
729.904	0.0167130
729.982	0.0169331
730.060	0.0172674
730.138	0.0176015
730.216	0.0177866
730.294	0.0182377
730.372	0.0183536
730.450	0.0185793
730.529	0.0187289
730.607	0.0189339
730.685	0.0190590
730.763	0.0190764
730.841	0.0191434
730.919	0.0190755
730.997	0.0189041
731.075	0.0188798
731.154	0.0184425
731.232	0.0183204
731.310	0.0183373
731.388	0.0179592
731.466	0.0177198
731.544	0.0177412
731.622	0.0175840
731.700	0.0174428
731.779	0.0173280
731.857	0.0170894
731.935	0.0172041
732.013	0.0170643
732.091	0.0173315
732.169	0.0172879
732.247	0.0172297
732.325	0.0173126
732.404	0.0173063
732.482	0.0171661
732.560	0.0172574
732.638	0.0173022
732.716	0.0172257
732.794	0.0172404
732.872	0.0170937
732.950	0.0169869
733.029	0.0167439
733.107	0.0166404
733.185	0.0165243
733.263	0.0162617
733.341	0.0163375
733.419	0.0160196
733.497	0.0157483
733.575	0.0156889
733.654	0.0154999
733.732	0.0155284
733.810	0.0153307
733.888	0.0152833
733.966	0.0151876
734.044	0.0150551
734.122	0.0151472
734.200	0.0150811
734.279	0.0149638
734.357	0.0151510
734.435	0.0151537
734.513	0.0152134
734.591	0.0152176
734.669	0.0153184
734.747	0.0154466
734.825	0.0154061
734.904	0.0155481
734.982	0.0157500
735.060	0.0156248
735.138	0.0155711
735.216	0.0156315
735.294	0.0157732
735.372	0.0155527
735.450	0.0155293
735.529	0.0155575
735.607	0.0155714
735.685	0.0155782
735.763	0.0153664
735.841	0.0154829
735.919	0.0155369
735.997	0.0156394
736.075	0.0156662
736.154	0.0157986
736.232	0.0161054
736.310	0.0162514
736.388	0.0163977
736.466	0.0165291
736.544	0.0169091
736.622	0.0170493
736.700	0.0171110
736.779	0.0172733
736.857	0.0174892
736.935	0.0175584
737.013	0.0177008
737.091	0.0179295
737.169	0.0179982
737.247	0.0180491
737.325	0.0180718
737.404	0.0180178
737.482	0.0180237
737.560	0.0180534
737.638	0.0181141
737.716	0.0179965
737.794	0.0179089
737.872	0.0177693
737.950	0.0176792
738.029	0.0176860
738.107	0.0176159
738.185	0.0174711
738.263	0.0174982
738.341	0.0174629
738.419	0.0174040
738.497	0.0172147
738.575	0.0172172
738.654	0.0173861
738.732	0.0172478
738.810	0.0170637
738.888	0.0171431
738.966	0.0172482
739.044	0.0169688
739.122	0.0170657
739.200	0.0168276
739.279	0.0167683
739.357	0.0167907
739.435	0.0167008
739.513	0.0167006
739.591	0.0167529
739.669	0.0166325
739.747	0.0165495
739.825	0.0166748
739.904	0.0166159
739.982	0.0166095
740.060	0.0166225
740.138	0.0165987
740.216	0.0164393
740.294	0.0164742
740.372	0.0163758
740.450	0.0162816
740.529	0.0162747
740.607	0.0161913
740.685	0.0160169
740.763	0.0158775
740.841	0.0159851
740.919	0.0158695
740.997	0.0157290
741.075	0.0155098
741.154	0.0156258
741.232	0.0156628
741.310	0.0157291
741.388	0.0155653
741.466	0.0156448
741.544	0.0156484
741.622	0.0156909
741.700	0.0155730
741.779	0.0155257
741.857	0.0157311
741.935	0.0156876
742.013	0.0156139
742.091	0.0156937
742.169	0.0155404
742.247	0.0156958
742.325	0.0156796
742.404	0.0157701
742.482	0.0157767
742.560	0.0158873
742.638	0.0157337
742.716	0.0158374
742.794	0.0158736
742.872	0.0159882
742.950	0.0160456
743.029	0.0160840
743.107	0.0162124
743.185	0.0161972
743.263	0.0162190
743.341	0.0164663
743.419	0.0165982
743.497	0.0166736
743.575	0.0167812
743.654	0.0168588
743.732	0.0167995
743.810	0.0170068
743.888	0.0171298
743.966	0.0171476
744.044	0.0170067
744.122	0.0171600
744.200	0.0172467
744.279	0.0173560
744.357	0.0173730
744.435	0.0173838
744.513	0.0172740
744.591	0.0175819
744.669	0.0175266
744.747	0.0175992
744.825	0.0175643
744.904	0.0176579
744.982	0.0177361
745.060	0.0176850
745.138	0.0176157
745.216	0.0175925
745.294	0.0176464
745.372	0.0176790
745.450	0.0176425
745.529	0.0174974
745.607	0.0175694
745.685	0.0175826
745.763	0.0174579
745.841	0.0175150
745.919	0.0174170
745.997	0.0172227
746.075	0.0173275
746.154	0.0173244
746.232	0.0171120
746.310	0.0171835
746.388	0.0170861
746.466	0.0168605
746.544	0.0169418
746.622	0.0168740
746.700	0.0166411
746.779	0.0165726
746.857	0.0164226
746.935	0.0164049
747.013	0.0163203
747.091	0.0161095
747.169	0.0161327
747.247	0.0160241
747.325	0.0160513
747.404	0.0159186
747.482	0.0158907
747.560	0.0159154
747.638	0.0160257
747.716	0.0160487
747.794	0.0160177
747.872	0.0160765
747.950	0.0161124
748.029	0.0161379
748.107	0.0162849
748.185	0.0161076
748.263	0.0161838
748.341	0.0161002
748.419	0.0159113
748.497	0.0160020
748.575	0.0159794
748.654	0.0157777
748.732	0.0158575
748.810	0.0157980
748.888	0.0157435
748.966	0.0158301
749.044	0.0157069
749.122	0.0158681
749.200	0.0160212
749.279	0.0160029
749.357	0.0162079
749.435	0.0161520
749.513	0.0159847
749.591	0.0161347
749.669	0.0162434
749.747	0.0163840
749.825	0.0162105
749.904	0.0162972
749.982	0.0163980
750.060	0.0163692
750.138	0.0162605
750.216	0.0163074
750.294	0.0163969
750.372	0.0163482
750.450	0.0163666
750.529	0.0166609
750.607	0.0166486
750.685	0.0165452
750.763	0.0165896
750.841	0.0167498
750.919	0.0167955
750.997	0.0169563
751.075	0.0169496
751.154	0.0169012
751.232	0.0170277
751.310	0.0169692
751.388	0.0170294
751.466	0.0170857
751.544	0.0172754
751.622	0.0172909
751.700	0.0171690
751.779	0.0171767
751.857	0.0172562
751.935	0.0174084
752.013	0.0173885
752.091	0.0174303
752.169	0.0173884
752.247	0.0175021
752.325	0.0175794
752.404	0.0175424
752.482	0.0175096
752.560	0.0175265
752.638	0.0175409
752.716	0.0176661
752.794	0.0174451
752.872	0.0174667
752.950	0.0174893
753.029	0.0174852
753.107	0.0175113
753.185	0.0172120
753.263	0.0172613
753.341	0.0173168
753.419	0.0171384
753.497	0.0169783
753.575	0.0168636
753.654	0.0167141
753.732	0.0167279
753.810	0.0167495
753.888	0.0166289
753.966	0.0163615
754.044	0.0164176
754.122	0.0163918
754.200	0.0163202
754.279	0.0163290
754.357	0.0163039
754.435	0.0161551
754.513	0.0162052
754.591	0.0161031
754.669	0.0159281
754.747	0.0159673
754.825	0.0157513
754.904	0.0157520
754.982	0.0156848
755.060	0.0156459
755.138	0.0155717
755.216	0.0156022
755.294	0.0155160
755.372	0.0154496
755.450	0.0155382
755.529	0.0156197
755.607	0.0155730
755.685	0.0156297
755.763	0.0157751
755.841	0.0158456
755.919	0.0157796
755.997	0.0159058
756.075	0.0159972
756.154	0.0160007
756.232	0.0160849
756.310	0.0160644
756.388	0.0162821
756.466	0.0163921
756.544	0.0163712
756.622	0.0165051
756.700	0.0163652
756.779	0.0163334
756.857	0.0166006
756.935	0.0163944
757.013	0.0162948
757.091	0.0164861
757.169	0.0164476
757.247	0.0165839
757.325	0.0163951
757.404	0.0165817
757.482	0.0165199
757.560	0.0166402
757.638	0.0166839
757.716	0.0166141
757.794	0.0166194
757.872	0.0167683
757.950	0.0168506
758.029	0.0168687
758.107	0.0168139
758.185	0.0168038
758.263	0.0169621
758.341	0.0168339
758.419	0.0168008
758.497	0.0167864
758.575	0.0168103
758.654	0.0167368
758.732	0.0170054
758.810	0.0168649
758.888	0.0169287
758.966	0.0168833
759.044	0.0169685
759.122	0.0170320
759.200	0.0170593
759.279	0.0172860
759.357	0.0174121
759.435	0.0171728
759.513	0.0171696
759.591	0.0172328
759.669	0.0172611
759.747	0.0172256
759.825	0.0174596
759.904	0.0173577
759.982	0.0173975
760.060	0.0172445
760.138	0.0172905
760.216	0.0172968
760.294	0.0171847
760.372	0.0169926
760.450	0.0171336
760.529	0.0170650
760.607	0.0168560
760.685	0.0166728
760.763	0.0168394
760.841	0.0167346
760.919	0.0164738
760.997	0.0164372
761.075	0.0163203
761.154	0.0163517
761.232	0.0164363
761.310	0.0163685
761.388	0.0161192
761.466	0.0162162
761.544	0.0162124
761.622	0.0160538
761.700	0.0161015
761.779	0.0159406
761.857	0.0158665
761.935	0.0159898
762.013	0.0158508
762.091	0.0159168
762.169	0.0159312
762.247	0.0159196
762.325	0.0160436
762.404	0.0162659
762.482	0.0161359
762.560	0.0160912
762.638	0.0162618
762.716	0.0161398
762.794	0.0161237
762.872	0.0161624
762.950	0.0161469
763.029	0.0163477
763.107	0.0162710
763.185	0.0161192
763.263	0.0162009
763.341	0.0161684
763.419	0.0161639
763.497	0.0161520
763.575	0.0162764
763.654	0.0163868
763.732	0.0165577
763.810	0.0164519
763.888	0.0165727
763.966	0.0165102
764.044	0.0166460
764.122	0.0166506
764.200	0.0164808
764.279	0.0164509
764.357	0.0164735
764.435	0.0164685
764.513	0.0165087
764.591	0.0164353
764.669	0.0164118
764.747	0.0163464
764.825	0.0163815
764.904	0.0164528
764.982	0.0164040
765.060	0.0163451
765.138	0.0165232
765.216	0.0166251
765.294	0.0166040
765.372	0.0165384
765.450	0.0166694
765.529	0.0168413
765.607	0.0169379
765.685	0.0168196
765.763	0.0169769
765.841	0.0171375
765.919	0.0170492
765.997	0.0171489
766.075	0.0172688
766.154	0.0173097
766.232	0.0173630
766.310	0.0173417
766.388	0.0172844
766.466	0.0174503
766.544	0.0176604
766.622	0.0174040
766.700	0.0173500
766.779	0.0173433
766.857	0.0172370
766.935	0.0172072
767.013	0.0171144
767.091	0.0170670
767.169	0.0170429
767.247	0.0169950
767.325	0.0168751
767.404	0.0169504
767.482	0.0168567
767.560	0.0167075
767.638	0.0166329
767.716	0.0166579
767.794	0.0166291
767.872	0.0165604
767.950	0.0166116
768.029	0.0165838
768.107	0.0163791
768.185	0.0164062
768.263	0.0164947
768.341	0.0163593
768.419	0.0164516
768.497	0.0164854
768.575	0.0163535
768.654	0.0164041
768.732	0.0164193
768.810	0.0164206
768.888	0.0165298
768.966	0.0164416
769.044	0.0163085
769.122	0.0162841
769.200	0.0163504
769.279	0.0163432
769.357	0.0163031
769.435	0.0162316
769.513	0.0162929
769.591	0.0162119
769.669	0.0162251
769.747	0.0161198
769.825	0.0161185
769.904	0.0161089
769.982	0.0161176
770.060	0.0161160
770.138	0.0160764
770.216	0.0160322
770.294	0.0161256
770.372	0.0161476
770.450	0.0162302
770.529	0.0161074
770.607	0.0161018
770.685	0.0162594
770.763	0.0161697
770.841	0.0161736
770.919	0.0163255
770.997	0.0163700
771.075	0.0163364
771.154	0.0164613
771.232	0.0165650
771.310	0.0165181
771.388	0.0167373
771.466	0.0166615
771.544	0.0166355
771.622	0.0166125
771.700	0.0165672
771.779	0.0165264
771.857	0.0165935
771.935	0.0165633
772.013	0.0166301
772.091	0.0165636
772.169	0.0165250
772.247	0.0166737
772.325	0.0166505
772.404	0.0166480
772.482	0.0166977
772.560	0.0167513
772.638	0.0166621
772.716	0.0166600
772.794	0.0165593
772.872	0.0167181
772.950	0.0169247
773.029	0.0167525
773.107	0.0168052
773.185	0.0166499
773.263	0.0168258
773.341	0.0169684
773.419	0.0168935
773.497	0.0169463
773.575	0.0168958
773.654	0.0168650
773.732	0.0170087
773.810	0.0170254
773.888	0.0169904
773.966	0.0170976
774.044	0.0171169
774.122	0.0171619
774.200	0.0172163
774.279	0.0172477
774.357	0.0172414
774.435	0.0171828
774.513	0.0170669
774.591	0.0171249
774.669	0.0169164
774.747	0.0170717
774.825	0.0169676
774.904	0.0168162
774.982	0.0168097
775.060	0.0166879
775.138	0.0168445
775.216	0.0167782
775.294	0.0166676
775.372	0.0166467
775.450	0.0164506
775.529	0.0163751
775.607	0.0162498
775.685	0.0161465
775.763	0.0160987
775.841	0.0160342
775.919	0.0159603
775.997	0.0156557
776.075	0.0157879
776.154	0.0157340
776.232	0.0156508
776.310	0.0156527
776.388	0.0158714
776.466	0.0159083
776.544	0.0158463
776.622	0.0159808
776.700	0.0160398
776.779	0.0159468
776.857	0.0160448
776.935	0.0163072
777.013	0.0162145
777.091	0.0162647
777.169	0.0163715
777.247	0.0164196
777.325	0.0163020
777.404	0.0165660
777.482	0.0167231
777.560	0.0164759
777.638	0.0166048
777.716	0.0164944
777.794	0.0164227
777.872	0.0165646
777.950	0.0165678
778.029	0.0166538
778.107	0.0166553
778.185	0.0167844
778.263	0.0166730
778.341	0.0167200
778.419	0.0168151
778.497	0.0168243
778.575	0.0168121
778.654	0.0168847
778.732	0.0169616
778.810	0.0169955
778.888	0.0167798
778.966	0.0169006
779.044	0.0168577
779.122	0.0167653
779.200	0.0167475
779.279	0.0165578
779.357	0.0165034
779.435	0.0166086
779.513	0.0166150
779.591	0.0165784
779.669	0.0163319
779.747	0.0165480
779.825	0.0164058
779.904	0.0164268
779.982	0.0165559
780.060	0.0165597
780.138	0.0166169
780.216	0.0167400
780.294	0.0165094
780.372	0.0166216
780.450	0.0167181
780.529	0.0167469
780.607	0.0167455
780.685	0.0166372
780.763	0.0166688
780.841	0.0167222
780.919	0.0166853
780.997	0.0166625
781.075	0.0166611
781.154	0.0166428
781.232	0.0166975
781.310	0.0168130
781.388	0.0168404
781.466	0.0167648
781.544	0.0168800
781.622	0.0168044
781.700	0.0169176
781.779	0.0168047
781.857	0.0167786
781.935	0.0169088
782.013	0.0167978
782.091	0.0167414
782.169	0.0166733
782.247	0.0167131
782.325	0.0167027
782.404	0.0168343
782.482	0.0166777
782.560	0.0166850
782.638	0.0165325
782.716	0.0166665
782.794	0.0167046
782.872	0.0166356
782.950	0.0165903
783.029	0.0167252
783.107	0.0165129
783.185	0.0164644
783.263	0.0164470
783.341	0.0165036
783.419	0.0163708
783.497	0.0164867
783.575	0.0165118
783.654	0.0165015
783.732	0.0165108
783.810	0.0164749
783.888	0.0163245
783.966	0.0164494
784.044	0.0163761
784.122	0.0163644
784.200	0.0163583
784.279	0.0164924
784.357	0.0164913
784.435	0.0164678
784.513	0.0165735
784.591	0.0163812
784.669	0.0164853
784.747	0.0166184
784.825	0.0166213
784.904	0.0163789
784.982	0.0165652
785.060	0.0166557
785.138	0.0166186
785.216	0.0167294
785.294	0.0165015
785.372	0.0166050
785.450	0.0164257
785.529	0.0163995
785.607	0.0163259
785.685	0.0163597
785.763	0.0163789
785.841	0.0163773
785.919	0.0163726
785.997	0.0164703
786.075	0.0164238
786.154	0.0163739
786.232	0.0164481
786.310	0.0166620
786.388	0.0166322
786.466	0.0166043
786.544	0.0166304
786.622	0.0166707
786.700	0.0167783
786.779	0.0166177
786.857	0.0167399
786.935	0.0167023
787.013	0.0168221
787.091	0.0168462
787.169	0.0167409
787.247	0.0165837
787.325	0.0167972
787.404	0.0167915
787.482	0.0167580
787.560	0.0167477
787.638	0.0167771
787.716	0.0167278
787.794	0.0168610
787.872	0.0168061
787.950	0.0166887
788.029	0.0166552
788.107	0.0165921
788.185	0.0166126
788.263	0.0167552
788.341	0.0167682
788.419	0.0166391
788.497	0.0165321
788.575	0.0166255
788.654	0.0166599
788.732	0.0168038
788.810	0.0168070
788.888	0.0166389
788.966	0.0165724
789.044	0.0166740
789.122	0.0166375
789.200	0.0166492
789.279	0.0167329
789.357	0.0166285
789.435	0.0167194
789.513	0.0167558
789.591	0.0166828
789.669	0.0167230
789.747	0.0167275
789.825	0.0166560
789.904	0.0166600
789.982	0.0166680
790.060	0.0168435
790.138	0.0167720
790.216	0.0167782
790.294	0.0167782
790.372	0.0166023
790.450	0.0167247
790.529	0.0166870
790.607	0.0167744
790.685	0.0167780
790.763	0.0164603
790.841	0.0165964
790.919	0.0166341
790.997	0.0165411
791.075	0.0166742
791.154	0.0166045
791.232	0.0165761
791.310	0.0165633
791.388	0.0167628
791.466	0.0167207
791.544	0.0164163
791.622	0.0165938
791.700	0.0165391
791.779	0.0165787
791.857	0.0167623
791.935	0.0166100
792.013	0.0164824
792.091	0.0165344
792.169	0.0165231
792.247	0.0163335
792.325	0.0162434
792.404	0.0162363
792.482	0.0161816
792.560	0.0162843
792.638	0.0162794
792.716	0.0161195
792.794	0.0161864
792.872	0.0160896
792.950	0.0160185
793.029	0.0161023
793.107	0.0161514
793.185	0.0162563
793.263	0.0162660
793.341	0.0161256
793.419	0.0161848
793.497	0.0161670
793.575	0.0162808
793.654	0.0163290
793.732	0.0162773
793.810	0.0163808
793.888	0.0164381
793.966	0.0165354
794.044	0.0165668
794.122	0.0166933
794.200	0.0167163
794.279	0.0167297
794.357	0.0168513
794.435	0.0168465
794.513	0.0168530
794.591	0.0169116
794.669	0.0168718
794.747	0.0170072
794.825	0.0170074
794.904	0.0170604
794.982	0.0168771
795.060	0.0170877
795.138	0.0168884
795.216	0.0169811
795.294	0.0168579
795.372	0.0167866
795.450	0.0170525
795.529	0.0169010
795.607	0.0168992
795.685	0.0168277
795.763	0.0170673
795.841	0.0169328
795.919	0.0171165
795.997	0.0170334
796.075	0.0169418
796.154	0.0169400
796.232	0.0169881
796.310	0.0169885
796.388	0.0168989
796.466	0.0167507
796.544	0.0169416
796.622	0.0168262
796.700	0.0166880
796.779	0.0169528
796.857	0.0168385
796.935	0.0168027
797.013	0.0167505
797.091	0.0167618
797.169	0.0165843
797.247	0.0166408
797.325	0.0166489
797.404	0.0166529
797.482	0.0166418
797.560	0.0165580
797.638	0.0164841
797.716	0.0163259
797.794	0.0162619
797.872	0.0163754
797.950	0.0162769
798.029	0.0161977
798.107	0.0160483
798.185	0.0160303
798.263	0.0161201
798.341	0.0160614
798.419	0.0161059
798.497	0.0159107
798.575	0.0159232
798.654	0.0157761
798.732	0.0160012
798.810	0.0160353
798.888	0.0157561
798.966	0.0159354
799.044	0.0159541
799.122	0.0159500
799.200	0.0161017
799.279	0.0160943
799.357	0.0163636
799.435	0.0163416
799.513	0.0163966
799.591	0.0165740
799.669	0.0163883
799.747	0.0165697
799.825	0.0165261
799.904	0.0166006
799.982	0.0166455
800.060	0.0166246
800.138	0.0165625
800.216	0.0167683
800.294	0.0168083
800.372	0.0168098
800.450	0.0168882
800.529	0.0168349
800.607	0.0169128
800.685	0.0170638
800.763	0.0170083
800.841	0.0169991
800.919	0.0170473
800.997	0.0171007
801.075	0.0171115
801.154	0.0171003
801.232	0.0172019
801.310	0.0172479
801.388	0.0172517
801.466	0.0169069
801.544	0.0170350
801.622	0.0170438
801.700	0.0168436
801.779	0.0168506
801.857	0.0168142
801.935	0.0167639
802.013	0.0167764
802.091	0.0166833
802.169	0.0167690
802.247	0.0166764
802.325	0.0166604
802.404	0.0166638
802.482	0.0165386
802.560	0.0167377
802.638	0.0167008
802.716	0.0165792
802.794	0.0167763
802.872	0.0165579
802.950	0.0165179
803.029	0.0165631
803.107	0.0165903
803.185	0.0166037
803.263	0.0164145
803.341	0.0165064
803.419	0.0165040
803.497	0.0164866
803.575	0.0163554
803.654	0.0163396
803.732	0.0163433
803.810	0.0163013
803.888	0.0162572
803.966	0.0163554
804.044	0.0163661
804.122	0.0161998
804.200	0.0161657
804.279	0.0162769
804.357	0.0162417
804.435	0.0162329
804.513	0.0161520
804.591	0.0161578
804.669	0.0162819
804.747	0.0163006
804.825	0.0163575
804.904	0.0161837
804.982	0.0163206
805.060	0.0162535
805.138	0.0163139
805.216	0.0161707
805.294	0.0161655
805.372	0.0163580
805.450	0.0162829
805.529	0.0163510
805.607	0.0163780
805.685	0.0162991
805.763	0.0163906
805.841	0.0164523
805.919	0.0163928
805.997	0.0163817
806.075	0.0166749
806.154	0.0165576
806.232	0.0166340
806.310	0.0166228
806.388	0.0165880
806.466	0.0166839
806.544	0.0168235
806.622	0.0170203
806.700	0.0170271
806.779	0.0168971
806.857	0.0168445
806.935	0.0170620
807.013	0.0170950
807.091	0.0170647
807.169	0.0170841
807.247	0.0170821
807.325	0.0171236
807.404	0.0170716
807.482	0.0171014
807.560	0.0171765
807.638	0.0171686
807.716	0.0170248
807.794	0.0170368
807.872	0.0170375
807.950	0.0168989
808.029	0.0168443
808.107	0.0166852
808.185	0.0166107
808.263	0.0166184
808.341	0.0165910
808.419	0.0167786
808.497	0.0165952
808.575	0.0165964
808.654	0.0166607
808.732	0.0165140
808.810	0.0165909
808.888	0.0165422
808.966	0.0165604
809.044	0.0165299
809.122	0.0167170
809.200	0.0165290
809.279	0.0164294
809.357	0.0165147
809.435	0.0165096
809.513	0.0166058
809.591	0.0163641
809.669	0.0164162
809.747	0.0165044
809.825	0.0164906
809.904	0.0164051
809.982	0.0164156
810.060	0.0163753
810.138	0.0163983
810.216	0.0164823
810.294	0.0164120
810.372	0.0164391
810.450	0.0163004
810.529	0.0163931
810.607	0.0163633
810.685	0.0164644
810.763	0.0164441
810.841	0.0163740
810.919	0.0163914
810.997	0.0163551
811.075	0.0163768
811.154	0.0162457
811.232	0.0164613
811.310	0.0164066
811.388	0.0161330
811.466	0.0163448
811.544	0.0162507
811.622	0.0162080
811.700	0.0163669
811.779	0.0162431
811.857	0.0162390
811.935	0.0162383
812.013	0.0163010
812.091	0.0163277
812.169	0.0163368
812.247	0.0163606
812.325	0.0164429
812.404	0.0164869
812.482	0.0165228
812.560	0.0166006
812.638	0.0166822
812.716	0.0168068
812.794	0.0168201
812.872	0.0167716
812.950	0.0165977
813.029	0.0167460
813.107	0.0168667
813.185	0.0169514
813.263	0.0168221
813.341	0.0166896
813.419	0.0167871
813.497	0.0168325
813.575	0.0169167
813.654	0.0170860
813.732	0.0169476
813.810	0.0170615
813.888	0.0170436
813.966	0.0169774
814.044	0.0170656
814.122	0.0169814
814.200	0.0169392
814.279	0.0169062
814.357	0.0169243
814.435	0.0169062
814.513	0.0170900
814.591	0.0168821
814.669	0.0167345
814.747	0.0166267
814.825	0.0165369
814.904	0.0167020
814.982	0.0164429
815.060	0.0164878
815.138	0.0164950
815.216	0.0164392
815.294	0.0165975
815.372	0.0165372
815.450	0.0164261
815.529	0.0164890
815.607	0.0164035
815.685	0.0164280
815.763	0.0164138
815.841	0.0164935
815.919	0.0164307
815.997	0.0164595
816.075	0.0165423
816.154	0.0164244
816.232	0.0165748
816.310	0.0165840
816.388	0.0166154
816.466	0.0163971
816.544	0.0164576
816.622	0.0164664
816.700	0.0165262
816.779	0.0165162
816.857	0.0164947
816.935	0.0164599
817.013	0.0166400
817.091	0.0163612
817.169	0.0164921
817.247	0.0162978
817.325	0.0163987
817.404	0.0163499
817.482	0.0161493
817.560	0.0162185
817.638	0.0161123
817.716	0.0162259
817.794	0.0161095
817.872	0.0161291
817.950	0.0161944
818.029	0.0161558
818.107	0.0161085
818.185	0.0161310
818.263	0.0160741
818.341	0.0161082
818.419	0.0162133
818.497	0.0163802
818.575	0.0163255
818.654	0.0162808
818.732	0.0162445
818.810	0.0165187
818.888	0.0164540
818.966	0.0164890
819.044	0.0164867
819.122	0.0165237
819.200	0.0165318
819.279	0.0166580
819.357	0.0167288
819.435	0.0167172
819.513	0.0168736
819.591	0.0168259
819.669	0.0167800
819.747	0.0169852
819.825	0.0168940
819.904	0.0169127
819.982	0.0170156
820.060	0.0171204
820.138	0.0172334
820.216	0.0171923
820.294	0.0170262
820.372	0.0171249
820.450	0.0172408
820.529	0.0172050
820.607	0.0170812
820.685	0.0170835
820.763	0.0169604
820.841	0.0169860
820.919	0.0168795
820.997	0.0169948
821.075	0.0169431
821.154	0.0167552
821.232	0.0168811
821.310	0.0167307
821.388	0.0167545
821.466	0.0165771
821.544	0.0166213
821.622	0.0166319
821.700	0.0165850
821.779	0.0166010
821.857	0.0165239
821.935	0.0164249
822.013	0.0165092
822.091	0.0164825
822.169	0.0163832
822.247	0.0164130
822.325	0.0164272
822.404	0.0164262
822.482	0.0163773
822.560	0.0163365
822.638	0.0164105
822.716	0.0163266
822.794	0.0162952
822.872	0.0165184
822.950	0.0164941
823.029	0.0165987
823.107	0.0165012
823.185	0.0165421
823.263	0.0164470
823.341	0.0164087
823.419	0.0164822
823.497	0.0164957
823.575	0.0163968
823.654	0.0163918
823.732	0.0163955
823.810	0.0165472
823.888	0.0164764
823.966	0.0164709
824.044	0.0164679
824.122	0.0164746
824.200	0.0164100
824.279	0.0162453
824.357	0.0164832
824.435	0.0163080
824.513	0.0163181
824.591	0.0165148
824.669	0.0164275
824.747	0.0164330
824.825	0.0164121
824.904	0.0164984
824.982	0.0164769
825.060	0.0165391
825.138	0.0164884
825.216	0.0163252
825.294	0.0163829
825.372	0.0163896
825.450	0.0163824
825.529	0.0165427
825.607	0.0164595
825.685	0.0166180
825.763	0.0165939
825.841	0.0165730
825.919	0.0165919
825.997	0.0165942
826.075	0.0165315
826.154	0.0166460
826.232	0.0166920
826.310	0.0167268
826.388	0.0168418
826.466	0.0168635
826.544	0.0167313
826.622	0.0167894
826.700	0.0168347
826.779	0.0168986
826.857	0.0167956
826.935	0.0168099
827.013	0.0169115
827.091	0.0168837
827.169	0.0170554
827.247	0.0169899
827.325	0.0169348
827.404	0.0171468
827.482	0.0169931
827.560	0.0169221
827.638	0.0169463
827.716	0.0170426
827.794	0.0169224
827.872	0.0169279
827.950	0.0169984
828.029	0.0167816
828.107	0.0169638
828.185	0.0168053
828.263	0.0167897
828.341	0.0167275
828.419	0.0167712
828.497	0.0166986
828.575	0.0164712
828.654	0.0166785
828.732	0.0166722
828.810	0.0164965
828.888	0.0165981
828.966	0.0166544
829.044	0.0165424
829.122	0.0165076
829.200	0.0165626
829.279	0.0165868
829.357	0.0166148
829.435	0.0164670
829.513	0.0164910
829.591	0.0165639
829.669	0.0164470
829.747	0.0165704
829.825	0.0163724
829.904	0.0163233
829.982	0.0163444
830.060	0.0164888
830.138	0.0164700
830.216	0.0162187
830.294	0.0164398
830.372	0.0165031
830.450	0.0164262
830.529	0.0163013
830.607	0.0163319
830.685	0.0162576
830.763	0.0163383
830.841	0.0163176
830.919	0.0161551
830.997	0.0163567
831.075	0.0163168
831.154	0.0163605
831.232	0.0164474
831.310	0.0162814
831.388	0.0164285
831.466	0.0164011
831.544	0.0164142
831.622	0.0163258
831.700	0.0163430
831.779	0.0165992
831.857	0.0164686
831.935	0.0164742
832.013	0.0166149
832.091	0.0165147
832.169	0.0165652
832.247	0.0167437
832.325	0.0165961
832.404	0.0166227
832.482	0.0166470
832.560	0.0165450
832.638	0.0167471
832.716	0.0166858
832.794	0.0165992
832.872	0.0166634
832.950	0.0168917
833.029	0.0167052
833.107	0.0165269
833.185	0.0166792
833.263	0.0166246
833.341	0.0167259
833.419	0.0166812
833.497	0.0166191
833.575	0.0165929
833.654	0.0166644
833.732	0.0168091
833.810	0.0167246
833.888	0.0168147
833.966	0.0167570
834.044	0.0168293
834.122	0.0167548
834.200	0.0169233
834.279	0.0167660
834.357	0.0167470
834.435	0.0168025
834.513	0.0167348
834.591	0.0167488
834.669	0.0167252
834.747	0.0166978
834.825	0.0167132
834.904	0.0165687
834.982	0.0166354
835.060	0.0165111
835.138	0.0165437
835.216	0.0165049
835.294	0.0164989
835.372	0.0164575
835.450	0.0165578
835.529	0.0163779
835.607	0.0164507
835.685	0.0164556
835.763	0.0164667
835.841	0.0165419
835.919	0.0165070
835.997	0.0163414
836.075	0.0164777
836.154	0.0165285
836.232	0.0165068
836.310	0.0164632
836.388	0.0164929
836.466	0.0165519
836.544	0.0165047
836.622	0.0165060
836.700	0.0165403
836.779	0.0165244
836.857	0.0165213
836.935	0.0165352
837.013	0.0164308
837.091	0.0164764
837.169	0.0164733
837.247	0.0164069
837.325	0.0165604
837.404	0.0165994
837.482	0.0164778
837.560	0.0164653
837.638	0.0166613
837.716	0.0164791
837.794	0.0165739
837.872	0.0166342
837.950	0.0165189
838.029	0.0166096
838.107	0.0166496
838.185	0.0167123
838.263	0.0167100
838.341	0.0166672
838.419	0.0167169
838.497	0.0167609
838.575	0.0166731
838.654	0.0167529
838.732	0.0167348
838.810	0.0167101
838.888	0.0166994
838.966	0.0166823
839.044	0.0165491
839.122	0.0165027
839.200	0.0167266
839.279	0.0167371
839.357	0.0167174
839.435	0.0166491
839.513	0.0165327
839.591	0.0165483
839.669	0.0164984
839.747	0.0163171
839.825	0.0165029
839.904	0.0165156
839.982	0.0164497
840.060	0.0163406
840.138	0.0164189
840.216	0.0164018
840.294	0.0161278
840.372	0.0162042
840.450	0.0162539
840.529	0.0164065
840.607	0.0163837
840.685	0.0161607
840.763	0.0163560
840.841	0.0162463
840.919	0.0163874
840.997	0.0163943
841.075	0.0163338
841.154	0.0164266
841.232	0.0165396
841.310	0.0166649
841.388	0.0165182
841.466	0.0164492
841.544	0.0165547
841.622	0.0167184
841.700	0.0168571
841.779	0.0167293
841.857	0.0166763
841.935	0.0168083
842.013	0.0167935
842.091	0.0168678
842.169	0.0169064
842.247	0.0169696
842.325	0.0169696
842.404	0.0169539
842.482	0.0170431
842.560	0.0170566
842.638	0.0170401
842.716	0.0170349
842.794	0.0170493
842.872	0.0170924
842.950	0.0170810
843.029	0.0169372
843.107	0.0169852
843.185	0.0169427
843.263	0.0170139
843.341	0.0170058
843.419	0.0167539
843.497	0.0167796
843.575	0.0168063
843.654	0.0167754
843.732	0.0166400
843.810	0.0164804
843.888	0.0164239
843.966	0.0165186
844.044	0.0164846
844.122	0.0165405
844.200	0.0164464
844.279	0.0161442
844.357	0.0162834
844.435	0.0162899
844.513	0.0164007
844.591	0.0162582
844.669	0.0162467
844.747	0.0163309
844.825	0.0163018
844.904	0.0162704
844.982	0.0163018
845.060	0.0163250
845.138	0.0163694
845.216	0.0163230
845.294	0.0163869
845.372	0.0163084
845.450	0.0163632
845.529	0.0164762
845.607	0.0164790
845.685	0.0162745
845.763	0.0163425
845.841	0.0162995
845.919	0.0164000
845.997	0.0164565
846.075	0.0165000
846.154	0.0164270
846.232	0.0164494
846.310	0.0163698
846.388	0.0164793
846.466	0.0164734
846.544	0.0166135
846.622	0.0166756
846.700	0.0165202
846.779	0.0165424
846.857	0.0164822
846.935	0.0165894
847.013	0.0167403
847.091	0.0167346
847.169	0.0166628
847.247	0.0166824
847.325	0.0166797
847.404	0.0168252
847.482	0.0166419
847.560	0.0166960
847.638	0.0166373
847.716	0.0166675
847.794	0.0167550
847.872	0.0166505
847.950	0.0166130
848.029	0.0165649
848.107	0.0165627
848.185	0.0165155
848.263	0.0165444
848.341	0.0166425
848.419	0.0165703
848.497	0.0164958
848.575	0.0166174
848.654	0.0165083
848.732	0.0165443
848.810	0.0164420
848.888	0.0166090
848.966	0.0165868
849.044	0.0164618
849.122	0.0164393
849.200	0.0166277
849.279	0.0165929
849.357	0.0166266
849.435	0.0166373
849.513	0.0164958
849.591	0.0165051
849.669	0.0163595
849.747	0.0165562
849.825	0.0165323
849.904	0.0165007
849.982	0.0164391
850.060	0.0165707
850.138	0.0165432
850.216	0.0166378
850.294	0.0165549
850.372	0.0164516
850.450	0.0165009
850.529	0.0164648
850.607	0.0166447
850.685	0.0165930
850.763	0.0165934
850.841	0.0167014
850.919	0.0166483
850.997	0.0166538
851.075	0.0167699
851.154	0.0167135
851.232	0.0168287
851.310	0.0168958
851.388	0.0165614
851.466	0.0169282
851.544	0.0168054
851.622	0.0167041
851.700	0.0170042
851.779	0.0166331
851.857	0.0167266
851.935	0.0168328
852.013	0.0165910
852.091	0.0167070
852.169	0.0166157
852.247	0.0166690
852.325	0.0165895
852.404	0.0165361
852.482	0.0165522
852.560	0.0165900
852.638	0.0165949
852.716	0.0164185
852.794	0.0164066
852.872	0.0165070
852.950	0.0162584
853.029	0.0162488
853.107	0.0162940
853.185	0.0161907
853.263	0.0164291
853.341	0.0163428
853.419	0.0162516
853.497	0.0163009
853.575	0.0163170
853.654	0.0164071
853.732	0.0163988
853.810	0.0163815
853.888	0.0165261
853.966	0.0165352
854.044	0.0163423
854.122	0.0163366
854.200	0.0163783
854.279	0.0163985
854.357	0.0164640
854.435	0.0163580
854.513	0.0164660
854.591	0.0165826
854.669	0.0165690
854.747	0.0166079
854.825	0.0164604
854.904	0.0166541
854.982	0.0166947
855.060	0.0167603
855.138	0.0167049
855.216	0.0167924
855.294	0.0168353
855.372	0.0169180
855.450	0.0170478
855.529	0.0168854
855.607	0.0169382
855.685	0.0169910
855.763	0.0169650
855.841	0.0168780
855.919	0.0167429
855.997	0.0168637
856.075	0.0169421
856.154	0.0166741
856.232	0.0166320
856.310	0.0167357
856.388	0.0165984
856.466	0.0165901
856.544	0.0165431
856.622	0.0165395
856.700	0.0167731
856.779	0.0165506
856.857	0.0164639
856.935	0.0165940
857.013	0.0166809
857.091	0.0165202
857.169	0.0165191
857.247	0.0166051
857.325	0.0163357
857.404	0.0166064
857.482	0.0165608
857.560	0.0165939
857.638	0.0165831
857.716	0.0165485
857.794	0.0164944
857.872	0.0165194
857.950	0.0165987
858.029	0.0165616
858.107	0.0165976
858.185	0.0165159
858.263	0.0167377
858.341	0.0166659
858.419	0.0165002
858.497	0.0165355
858.575	0.0166650
858.654	0.0166313
858.732	0.0165879
858.810	0.0165836
858.888	0.0166071
858.966	0.0164598
859.044	0.0165844
859.122	0.0166202
859.200	0.0165821
859.279	0.0165671
859.357	0.0164793
859.435	0.0167307
859.513	0.0166302
859.591	0.0163873
859.669	0.0165866
859.747	0.0166712
859.825	0.0165479
859.904	0.0165250
859.982	0.0165393
860.060	0.0165712
860.138	0.0167335
860.216	0.0165928
860.294	0.0165542
860.372	0.0165290
860.450	0.0165186
860.529	0.0166588
860.607	0.0165604
860.685	0.0166592
860.763	0.0166438
860.841	0.0166319
860.919	0.0167182
860.997	0.0167574
861.075	0.0167775
861.154	0.0168000
861.232	0.0167753
861.310	0.0167871
861.388	0.0167993
861.466	0.0167445
861.544	0.0166924
861.622	0.0165840
861.700	0.0167609
861.779	0.0166327
861.857	0.0166327
861.935	0.0166875
862.013	0.0165989
862.091	0.0166096
862.169	0.0165942
862.247	0.0166506
862.325	0.0166003
862.404	0.0165848
862.482	0.0165656
862.560	0.0167033
862.638	0.0165836
862.716	0.0165712
862.794	0.0166666
862.872	0.0165469
862.950	0.0163558
863.029	0.0164865
863.107	0.0167441
863.185	0.0166383
863.263	0.0166776
863.341	0.0165354
863.419	0.0165795
863.497	0.0166062
863.575	0.0167427
863.654	0.0166633
863.732	0.0167331
863.810	0.0166188
863.888	0.0166151
863.966	0.0166309
864.044	0.0165906
864.122	0.0166803
864.200	0.0167389
864.279	0.0167236
864.357	0.0167548
864.435	0.0165804
864.513	0.0165421
864.591	0.0164482
864.669	0.0165137
864.747	0.0163651
864.825	0.0164050
864.904	0.0163325
864.982	0.0161604
865.060	0.0162746
865.138	0.0161592
865.216	0.0162601
865.294	0.0162202
865.372	0.0162991
865.450	0.0164108
865.529	0.0165621
865.607	0.0164561
865.685	0.0166525
865.763	0.0167766
865.841	0.0166764
865.919	0.0166604
865.997	0.0165761
866.075	0.0168060
866.154	0.0167047
866.232	0.0167351
866.310	0.0167532
866.388	0.0166829
866.466	0.0168971
866.544	0.0168088
866.622	0.0168283
866.700	0.0170134
866.779	0.0169490
866.857	0.0168272
866.935	0.0169878
867.013	0.0168967
867.091	0.0169685
867.169	0.0167407
867.247	0.0165798
867.325	0.0167204
867.404	0.0164853
867.482	0.0164822
867.560	0.0163676
867.638	0.0161659
867.716	0.0161647
867.794	0.0162527
867.872	0.0161208
867.950	0.0162489
868.029	0.0160990
868.107	0.0162317
868.185	0.0162765
868.263	0.0163035
868.341	0.0162721
868.419	0.0163836
868.497	0.0164265
868.575	0.0164824
868.654	0.0164996
868.732	0.0165300
868.810	0.0165585
868.888	0.0166360
868.966	0.0166554
869.044	0.0166384
869.122	0.0166622
869.200	0.0165783
869.279	0.0164405
869.357	0.0165549
869.435	0.0168240
869.513	0.0165992
869.591	0.0165584
869.669	0.0164972
869.747	0.0165654
869.825	0.0164514
869.904	0.0165739
869.982	0.0164588
870.060	0.0165620
870.138	0.0164407
870.216	0.0165703
870.294	0.0166664
870.372	0.0166967
870.450	0.0165511
870.529	0.0166305
870.607	0.0165665
870.685	0.0164952
870.763	0.0164200
870.841	0.0164014
870.919	0.0164237
870.997	0.0161742
871.075	0.0163572
871.154	0.0162663
871.232	0.0161403
871.310	0.0162423
871.388	0.0162359
871.466	0.0163024
871.544	0.0162885
871.622	0.0164375
871.700	0.0164059
871.779	0.0165192
871.857	0.0166143
871.935	0.0166843
872.013	0.0165917
872.091	0.0166908
872.169	0.0167835
872.247	0.0168708
872.325	0.0167626
872.404	0.0168215
872.482	0.0167033
872.560	0.0169093
872.638	0.0170028
872.716	0.0165897
872.794	0.0167797
872.872	0.0167403
872.950	0.0165962
873.029	0.0166777
873.107	0.0166039
873.185	0.0163918
873.263	0.0164890
873.341	0.0165465
873.419	0.0164198
873.497	0.0165003
873.575	0.0167052
873.654	0.0166812
873.732	0.0168157
873.810	0.0169572
873.888	0.0168206
873.966	0.0168409
874.044	0.0169627
874.122	0.0169530
874.200	0.0168519
874.279	0.0168773
874.357	0.0168647
874.435	0.0166727
874.513	0.0165007
874.591	0.0164700
874.669	0.0164285
874.747	0.0163124
874.825	0.0162845
874.904	0.0162711
874.982	0.0163934
875.060	0.0163968
875.138	0.0163825
875.216	0.0164163
875.294	0.0166830
875.372	0.0164610
875.450	0.0166712
875.529	0.0166008
875.607	0.0166349
875.685	0.0167522
875.763	0.0169014
875.841	0.0167015
875.919	0.0165274
875.997	0.0166438
876.075	0.0166637
876.154	0.0167090
876.232	0.0165465
876.310	0.0165992
876.388	0.0166778
876.466	0.0164796
876.544	0.0164915
876.622	0.0165958
876.700	0.0165033
876.779	0.0164983
876.857	0.0164779
876.935	0.0166415
877.013	0.0164421
877.091	0.0164415
877.169	0.0165434
877.247	0.0164981
877.325	0.0163757
877.404	0.0164719
877.482	0.0164700
877.560	0.0163936
877.638	0.0165157
877.716	0.0165672
877.794	0.0164215
877.872	0.0165184
877.950	0.0164714
878.029	0.0165012
878.107	0.0165443
878.185	0.0163797
878.263	0.0164129
878.341	0.0163976
878.419	0.0164870
878.497	0.0164965
878.575	0.0164491
878.654	0.0163706
878.732	0.0164726
878.810	0.0163896
878.888	0.0166985
878.966	0.0166626
879.044	0.0167570
879.122	0.0167345
879.200	0.0167750
879.279	0.0169131
879.357	0.0168084
879.435	0.0168167
879.513	0.0168768
879.591	0.0168842
879.669	0.0168642
879.747	0.0170115
879.825	0.0169141
879.904	0.0169388
879.982	0.0168980
880.060	0.0167422
880.138	0.0167099
880.216	0.0168126
880.294	0.0167600
880.372	0.0167840
880.450	0.0169448
880.529	0.0166637
880.607	0.0167190
880.685	0.0167570
880.763	0.0166478
880.841	0.0166343
880.919	0.0165263
880.997	0.0166060
881.075	0.0166105
881.154	0.0165148
881.232	0.0164021
881.310	0.0164165
881.388	0.0164528
881.466	0.0165363
881.544	0.0166659
881.622	0.0167051
881.700	0.0167673
881.779	0.0166818
881.857	0.0166930
881.935	0.0168299
882.013	0.0167188
882.091	0.0165910
882.169	0.0165770
882.247	0.0165318
882.325	0.0166294
882.404	0.0165874
882.482	0.0165254
882.560	0.0164846
882.638	0.0165112
882.716	0.0165170
882.794	0.0165232
882.872	0.0164649
882.950	0.0164848
883.029	0.0165481
883.107	0.0165543
883.185	0.0167038
883.263	0.0165849
883.341	0.0164918
883.419	0.0164423
883.497	0.0163465
883.575	0.0164342
883.654	0.0164434
883.732	0.0164754
883.810	0.0163871
883.888	0.0164153
883.966	0.0165733
884.044	0.0165687
884.122	0.0162892
884.200	0.0163019
884.279	0.0163834
884.357	0.0163847
884.435	0.0165079
884.513	0.0164960
884.591	0.0165920
884.669	0.0165378
884.747	0.0164746
884.825	0.0165259
884.904	0.0165805
884.982	0.0167002
885.060	0.0166313
885.138	0.0166970
885.216	0.0166151
885.294	0.0165134
885.372	0.0167330
885.450	0.0166859
885.529	0.0166858
885.607	0.0167228
885.685	0.0165912
885.763	0.0168066
885.841	0.0169020
885.919	0.0167725
885.997	0.0167961
886.075	0.0167618
886.154	0.0168650
886.232	0.0169188
886.310	0.0168182
886.388	0.0169595
886.466	0.0170206
886.544	0.0169922
886.622	0.0168957
886.700	0.0167770
886.779	0.0167788
886.857	0.0168024
886.935	0.0167066
887.013	0.0167617
887.091	0.0166322
887.169	0.0166687
887.247	0.0167278
887.325	0.0166209
887.404	0.0165712
887.482	0.0165874
887.560	0.0165228
887.638	0.0165625
887.716	0.0164572
887.794	0.0164333
887.872	0.0164182
887.950	0.0164368
888.029	0.0163401
888.107	0.0164168
888.185	0.0162669
888.263	0.0164872
888.341	0.0164030
888.419	0.0165043
888.497	0.0164922
888.575	0.0164143
888.654	0.0165411
888.732	0.0166776
888.810	0.0166158
888.888	0.0165905
888.966	0.0166505
889.044	0.0166959
889.122	0.0166205
889.200	0.0166035
889.279	0.0166611
889.357	0.0167529
889.435	0.0166786
889.513	0.0167471
889.591	0.0166067
889.669	0.0168026
889.747	0.0167236
889.825	0.0166979
889.904	0.0166521
889.982	0.0166294
890.060	0.0166896
890.138	0.0166445
890.216	0.0167015
890.294	0.0166560
890.372	0.0166407
890.450	0.0166841
890.529	0.0166093
890.607	0.0164495
890.685	0.0165761
890.763	0.0166557
890.841	0.0164357
890.919	0.0164834
890.997	0.0165639
891.075	0.0165690
891.154	0.0166470
891.232	0.0166367
891.310	0.0166178
891.388	0.0164841
891.466	0.0164234
891.544	0.0165660
891.622	0.0164904
891.700	0.0164916
891.779	0.0164551
891.857	0.0165344
891.935	0.0164257
892.013	0.0163229
892.091	0.0163107
892.169	0.0165463
892.247	0.0165717
892.325	0.0165796
892.404	0.0166425
892.482	0.0166135
892.560	0.0166885
892.638	0.0166243
892.716	0.0167268
892.794	0.0167678
892.872	0.0166646
892.950	0.0166396
893.029	0.0166943
893.107	0.0166717
893.185	0.0165668
893.263	0.0166315
893.341	0.0165311
893.419	0.0164494
893.497	0.0165492
893.575	0.0165070
893.654	0.0165250
893.732	0.0164879
893.810	0.0165456
893.888	0.0164614
893.966	0.0165323
894.044	0.0166018
894.122	0.0167469
894.200	0.0166438
894.279	0.0166520
894.357	0.0165955
894.435	0.0167163
894.513	0.0169464
894.591	0.0169428
894.669	0.0168792
894.747	0.0167783
894.825	0.0168433
894.904	0.0169241
894.982	0.0169035
895.060	0.0168074
895.138	0.0169053
895.216	0.0168324
895.294	0.0169088
895.372	0.0168704
895.450	0.0167673
895.529	0.0168745
895.607	0.0167229
895.685	0.0166128
895.763	0.0165664
895.841	0.0166956
895.919	0.0166566
895.997	0.0165548
896.075	0.0165703
896.154	0.0165614
896.232	0.0165122
896.310	0.0164065
896.388	0.0164587
896.466	0.0165517
896.544	0.0163589
896.622	0.0163126
896.700	0.0163940
896.779	0.0162035
896.857	0.0162140
896.935	0.0162238
897.013	0.0162936
897.091	0.0162321
897.169	0.0161842
897.247	0.0163591
897.325	0.0163376
897.404	0.0161722
897.482	0.0161861
897.560	0.0163731
897.638	0.0162941
897.716	0.0164300
897.794	0.0165108
897.872	0.0164618
897.950	0.0164860
898.029	0.0163506
898.107	0.0164182
898.185	0.0162807
898.263	0.0163867
898.341	0.0164436
898.419	0.0165952
898.497	0.0165968
898.575	0.0164813
898.654	0.0165985
898.732	0.0166563
898.810	0.0168465
898.888	0.0168152
898.966	0.0168013
899.044	0.0168747
899.122	0.0169439
899.200	0.0169393
899.279	0.0169965
899.357	0.0171409
899.435	0.0169241
899.513	0.0168701
899.591	0.0168214
899.669	0.0169135
899.747	0.0168335
899.825	0.0167845
899.904	0.0169110
899.982	0.0167937
900.060	0.0166661
900.138	0.0167308
900.216	0.0166661
900.294	0.0166088
900.372	0.0165815
900.450	0.0165347
900.529	0.0165591
900.607	0.0165639
900.685	0.0166042
900.763	0.0164598
900.841	0.0164938
900.919	0.0166015
900.997	0.0165363
901.075	0.0165965
901.154	0.0165796
901.232	0.0166782
901.310	0.0168897
901.388	0.0167181
901.466	0.0169141
901.544	0.0168678
901.622	0.0167471
901.700	0.0167287
901.779	0.0167754
901.857	0.0167052
901.935	0.0165679
902.013	0.0166428
902.091	0.0166570
902.169	0.0166212
902.247	0.0165794
902.325	0.0166303
902.404	0.0165353
902.482	0.0166439
902.560	0.0165220
902.638	0.0163909
902.716	0.0163947
902.794	0.0165155
902.872	0.0162955
902.950	0.0164121
903.029	0.0165032
903.107	0.0164063
903.185	0.0163669
903.263	0.0164023
903.341	0.0164031
903.419	0.0163493
903.497	0.0164363
903.575	0.0163577
903.654	0.0164640
903.732	0.0165685
903.810	0.0162957
903.888	0.0164666
903.966	0.0165681
904.044	0.0164761
904.122	0.0164877
904.200	0.0166343
904.279	0.0167259
904.357	0.0166668
904.435	0.0168026
904.513	0.0167095
904.591	0.0168031
904.669	0.0167658
904.747	0.0168213
904.825	0.0168284
904.904	0.0168055
904.982	0.0169289
905.060	0.0170372
905.138	0.0169339
905.216	0.0168658
905.294	0.0170117
905.372	0.0169196
905.450	0.0169566
905.529	0.0170365
905.607	0.0168968
905.685	0.0168888
905.763	0.0167793
905.841	0.0166702
905.919	0.0166389
905.997	0.0167281
906.075	0.0164046
906.154	0.0164571
906.232	0.0163615
906.310	0.0163586
906.388	0.0162778
906.466	0.0162559
906.544	0.0163674
906.622	0.0161617
906.700	0.0162407
906.779	0.0163262
906.857	0.0163243
906.935	0.0163284
907.013	0.0165445
907.091	0.0166184
907.169	0.0166289
907.247	0.0165883
907.325	0.0166577
907.404	0.0166994
907.482	0.0169049
907.560	0.0169212
907.638	0.0169103
907.716	0.0169881
907.794	0.0169098
907.872	0.0170438
907.950	0.0170047
908.029	0.0168051
908.107	0.0169057
908.185	0.0168309
908.263	0.0168438
908.341	0.0168541
908.419	0.0168372
908.497	0.0166154
908.575	0.0166419
908.654	0.0166086
908.732	0.0164867
908.810	0.0164877
908.888	0.0164365
908.966	0.0165364
909.044	0.0164857
909.122	0.0164473
909.200	0.0164958
909.279	0.0164419
909.357	0.0164086
909.435	0.0162787
909.513	0.0163958
909.591	0.0163960
909.669	0.0163915
909.747	0.0164204
909.825	0.0162823
909.904	0.0162297
909.982	0.0164217
910.060	0.0164812
910.138	0.0165179
910.216	0.0165884
910.294	0.0164929
910.372	0.0166460
910.450	0.0166685
910.529	0.0167907
910.607	0.0168163
910.685	0.0168730
910.763	0.0169755
910.841	0.0169401
910.919	0.0169820
910.997	0.0168999
911.075	0.0170062
911.154	0.0169141
911.232	0.0168644
911.310	0.0168965
911.388	0.0168613
911.466	0.0167990
911.544	0.0170110
911.622	0.0168530
911.700	0.0166908
911.779	0.0166837
911.857	0.0168360
911.935	0.0167595
912.013	0.0166225
912.091	0.0165010
912.169	0.0166130
912.247	0.0165224
912.325	0.0164134
912.404	0.0163742
912.482	0.0163654
912.560	0.0163071
912.638	0.0164523
912.716	0.0162403
912.794	0.0162450
912.872	0.0162149
912.950	0.0162615
913.029	0.0162836
913.107	0.0163105
913.185	0.0165494
913.263	0.0163986
913.341	0.0163789
913.419	0.0164056
913.497	0.0165912
913.575	0.0164845
913.654	0.0164009
913.732	0.0166371
913.810	0.0165983
913.888	0.0164492
913.966	0.0164914
914.044	0.0166425
914.122	0.0166093
914.200	0.0165289
914.279	0.0165674
914.357	0.0165398
914.435	0.0165764
914.513	0.0166582
914.591	0.0167212
914.669	0.0166241
914.747	0.0166295
914.825	0.0166002
914.904	0.0164815
914.982	0.0165341
915.060	0.0165773
915.138	0.0164063
915.216	0.0165414
915.294	0.0164510
915.372	0.0163821
915.450	0.0165401
915.529	0.0164648
915.607	0.0165050
915.685	0.0164111
915.763	0.0164879
915.841	0.0164749
915.919	0.0165967
915.997	0.0167197
916.075	0.0166888
916.154	0.0166721
916.232	0.0165526
916.310	0.0166486
916.388	0.0165451
916.466	0.0166821
916.544	0.0166340
916.622	0.0165958
916.700	0.0165950
916.779	0.0168047
916.857	0.0167726
916.935	0.0167393
917.013	0.0166328
917.091	0.0166345
917.169	0.0166496
917.247	0.0167840
917.325	0.0166578
917.404	0.0167989
917.482	0.0168017
917.560	0.0167899
917.638	0.0168264
917.716	0.0165813
917.794	0.0167794
917.872	0.0166555
917.950	0.0165787
918.029	0.0166019
918.107	0.0165984
918.185	0.0167210
918.263	0.0164886
918.341	0.0164558
918.419	0.0166401
918.497	0.0165220
918.575	0.0165871
918.654	0.0163949
918.732	0.0164568
918.810	0.0165936
918.888	0.0165687
918.966	0.0167139
919.044	0.0164182
919.122	0.0163792
919.200	0.0165395
919.279	0.0165554
919.357	0.0165110
919.435	0.0166504
919.513	0.0165118
919.591	0.0166126
919.669	0.0166563
919.747	0.0165038
919.825	0.0165738
919.904	0.0165891
