05/24/2022	20:22:04	Ver.	4.1	UNKNOWN
Optical Delay	599.988409	Delta X		0.078125	Sweeps	1	Scan Rate	0/0
Coordinates	Axis 1	NaN	Axis 2	NaN	Axis 3	NaN	Axis 4	NaN	Axis 5	NaN	Axis 6	0.000000
TX Power	0.000000	RX Power	0.000000

599.988	0.0164004
600.067	0.0164804
600.145	0.0163254
600.223	0.0162324
600.301	0.0163792
600.379	0.0164234
600.457	0.0163696
600.535	0.0164751
600.613	0.0163869
600.692	0.0164497
600.770	0.0162868
600.848	0.0163425
600.926	0.0162698
601.004	0.0163555
601.082	0.0164450
601.160	0.0165034
601.238	0.0164878
601.317	0.0164301
601.395	0.0164484
601.473	0.0163271
601.551	0.0163689
601.629	0.0165508
601.707	0.0164150
601.785	0.0164513
601.863	0.0163786
601.942	0.0162710
602.020	0.0163896
602.098	0.0163809
602.176	0.0164119
602.254	0.0163284
602.332	0.0164032
602.410	0.0163477
602.488	0.0163792
602.567	0.0162035
602.645	0.0162721
602.723	0.0164507
602.801	0.0164046
602.879	0.0162609
602.957	0.0163642
603.035	0.0163667
603.113	0.0163390
603.192	0.0164235
603.270	0.0162949
603.348	0.0162712
603.426	0.0163438
603.504	0.0164171
603.582	0.0162837
603.660	0.0163264
603.738	0.0163077
603.817	0.0163922
603.895	0.0163152
603.973	0.0163485
604.051	0.0162814
604.129	0.0164031
604.207	0.0163701
604.285	0.0162453
604.363	0.0162614
604.442	0.0164051
604.520	0.0163200
604.598	0.0163177
604.676	0.0164172
604.754	0.0162314
604.832	0.0162971
604.910	0.0162841
604.988	0.0164165
605.067	0.0163707
605.145	0.0163482
605.223	0.0163404
605.301	0.0164655
605.379	0.0162552
605.457	0.0162988
605.535	0.0164074
605.613	0.0162016
605.692	0.0163151
605.770	0.0163906
605.848	0.0163422
605.926	0.0162027
606.004	0.0164451
606.082	0.0163734
606.160	0.0162679
606.238	0.0162697
606.317	0.0163374
606.395	0.0163409
606.473	0.0164224
606.551	0.0163834
606.629	0.0163684
606.707	0.0162247
606.785	0.0162168
606.863	0.0163694
606.942	0.0164192
607.020	0.0164087
607.098	0.0164708
607.176	0.0162257
607.254	0.0164159
607.332	0.0162934
607.410	0.0163961
607.488	0.0163334
607.567	0.0163935
607.645	0.0162799
607.723	0.0162710
607.801	0.0162682
607.879	0.0164030
607.957	0.0162990
608.035	0.0163060
608.113	0.0163495
608.192	0.0164516
608.270	0.0163445
608.348	0.0164140
608.426	0.0162646
608.504	0.0163107
608.582	0.0164678
608.660	0.0162981
608.738	0.0163431
608.817	0.0164558
608.895	0.0163264
608.973	0.0162293
609.051	0.0162968
609.129	0.0163670
609.207	0.0163602
609.285	0.0163968
609.363	0.0164014
609.442	0.0163091
609.520	0.0162736
609.598	0.0164219
609.676	0.0163625
609.754	0.0162378
609.832	0.0163496
609.910	0.0163663
609.988	0.0164211
610.067	0.0161653
610.145	0.0163663
610.223	0.0163080
610.301	0.0162962
610.379	0.0163830
610.457	0.0162595
610.535	0.0162318
610.613	0.0162452
610.692	0.0162023
610.770	0.0162798
610.848	0.0162750
610.926	0.0162936
611.004	0.0163700
611.082	0.0164065
611.160	0.0162684
611.238	0.0163198
611.317	0.0162835
611.395	0.0163399
611.473	0.0161357
611.551	0.0161653
611.629	0.0163502
611.707	0.0163774
611.785	0.0162702
611.863	0.0163646
611.942	0.0161987
612.020	0.0161076
612.098	0.0163205
612.176	0.0161890
612.254	0.0164082
612.332	0.0162575
612.410	0.0162318
612.488	0.0162400
612.567	0.0161720
612.645	0.0162823
612.723	0.0162363
612.801	0.0162575
612.879	0.0163976
612.957	0.0162791
613.035	0.0162506
613.113	0.0164230
613.192	0.0165114
613.270	0.0164034
613.348	0.0164097
613.426	0.0164431
613.504	0.0163930
613.582	0.0164176
613.660	0.0164091
613.738	0.0162594
613.817	0.0162885
613.895	0.0163049
613.973	0.0163573
614.051	0.0163163
614.129	0.0164821
614.207	0.0163872
614.285	0.0163001
614.363	0.0164439
614.442	0.0163293
614.520	0.0164027
614.598	0.0164404
614.676	0.0163675
614.754	0.0164331
614.832	0.0164023
614.910	0.0162955
614.988	0.0163007
615.067	0.0164828
615.145	0.0163892
615.223	0.0163604
615.301	0.0164746
615.379	0.0163490
615.457	0.0162819
615.535	0.0162998
615.613	0.0163614
615.692	0.0163176
615.770	0.0163521
615.848	0.0163417
615.926	0.0163597
616.004	0.0164216
616.082	0.0164846
616.160	0.0162978
616.238	0.0162988
616.317	0.0163704
616.395	0.0164453
616.473	0.0163734
616.551	0.0164014
616.629	0.0164681
616.707	0.0162289
616.785	0.0164230
616.863	0.0163577
616.942	0.0162845
617.020	0.0164503
617.098	0.0164912
617.176	0.0163771
617.254	0.0163815
617.332	0.0165939
617.410	0.0164727
617.488	0.0163944
617.567	0.0165081
617.645	0.0163701
617.723	0.0163781
617.801	0.0162781
617.879	0.0163230
617.957	0.0163776
618.035	0.0165025
618.113	0.0164165
618.192	0.0164170
618.270	0.0163576
618.348	0.0164446
618.426	0.0165385
618.504	0.0162132
618.582	0.0164417
618.660	0.0163637
618.738	0.0163406
618.817	0.0163694
618.895	0.0163564
618.973	0.0163824
619.051	0.0163544
619.129	0.0164151
619.207	0.0164425
619.285	0.0164722
619.363	0.0164703
619.442	0.0163891
619.520	0.0162833
619.598	0.0163354
619.676	0.0164248
619.754	0.0163631
619.832	0.0163313
619.910	0.0163863
619.988	0.0165359
620.067	0.0163741
620.145	0.0163946
620.223	0.0163574
620.301	0.0164877
620.379	0.0164490
620.457	0.0163871
620.535	0.0164846
620.613	0.0164175
620.692	0.0164537
620.770	0.0163526
620.848	0.0163558
620.926	0.0165236
621.004	0.0164294
621.082	0.0163548
621.160	0.0162983
621.238	0.0164298
621.317	0.0163740
621.395	0.0164783
621.473	0.0164208
621.551	0.0163705
621.629	0.0163418
621.707	0.0164803
621.785	0.0163550
621.863	0.0162264
621.942	0.0163024
622.020	0.0163406
622.098	0.0163448
622.176	0.0164503
622.254	0.0164912
622.332	0.0164246
622.410	0.0163710
622.488	0.0165331
622.567	0.0163795
622.645	0.0165012
622.723	0.0162971
622.801	0.0164126
622.879	0.0164090
622.957	0.0164854
623.035	0.0162851
623.113	0.0164828
623.192	0.0163687
623.270	0.0164032
623.348	0.0163693
623.426	0.0164236
623.504	0.0164648
623.582	0.0164266
623.660	0.0165227
623.738	0.0163815
623.817	0.0164529
623.895	0.0165592
623.973	0.0163396
624.051	0.0165497
624.129	0.0166258
624.207	0.0164638
624.285	0.0164140
624.363	0.0165786
624.442	0.0163534
624.520	0.0163754
624.598	0.0164136
624.676	0.0163172
624.754	0.0164309
624.832	0.0165406
624.910	0.0164828
624.988	0.0163721
625.067	0.0165001
625.145	0.0164626
625.223	0.0163685
625.301	0.0163847
625.379	0.0164536
625.457	0.0164452
625.535	0.0165662
625.613	0.0164634
625.692	0.0164430
625.770	0.0163670
625.848	0.0164499
625.926	0.0163760
626.004	0.0164519
626.082	0.0165031
626.160	0.0164521
626.238	0.0164333
626.317	0.0163013
626.395	0.0164629
626.473	0.0164745
626.551	0.0162904
626.629	0.0163618
626.707	0.0165826
626.785	0.0163078
626.863	0.0164088
626.942	0.0164956
627.020	0.0163519
627.098	0.0163205
627.176	0.0163731
627.254	0.0163113
627.332	0.0163238
627.410	0.0164819
627.488	0.0162514
627.567	0.0162296
627.645	0.0163329
627.723	0.0163750
627.801	0.0163262
627.879	0.0163490
627.957	0.0163322
628.035	0.0162455
628.113	0.0164172
628.192	0.0162359
628.270	0.0164574
628.348	0.0165603
628.426	0.0163951
628.504	0.0162733
628.582	0.0163609
628.660	0.0162962
628.738	0.0162621
628.817	0.0164618
628.895	0.0164069
628.973	0.0161429
629.051	0.0164481
629.129	0.0163380
629.207	0.0162878
629.285	0.0164163
629.363	0.0163685
629.442	0.0163154
629.520	0.0162775
629.598	0.0163529
629.676	0.0164053
629.754	0.0162861
629.832	0.0163530
629.910	0.0162850
629.988	0.0163020
630.067	0.0164311
630.145	0.0164093
630.223	0.0162489
630.301	0.0163079
630.379	0.0164026
630.457	0.0163171
630.535	0.0161685
630.613	0.0162845
630.692	0.0165366
630.770	0.0164889
630.848	0.0163212
630.926	0.0161488
631.004	0.0163557
631.082	0.0162141
631.160	0.0162933
631.238	0.0164260
631.317	0.0162772
631.395	0.0162561
631.473	0.0163728
631.551	0.0162482
631.629	0.0162787
631.707	0.0163367
631.785	0.0162756
631.863	0.0164294
631.942	0.0162419
632.020	0.0163203
632.098	0.0162568
632.176	0.0162914
632.254	0.0164069
632.332	0.0162228
632.410	0.0162743
632.488	0.0163259
632.567	0.0161690
632.645	0.0161678
632.723	0.0163175
632.801	0.0162543
632.879	0.0164341
632.957	0.0163649
633.035	0.0162315
633.113	0.0162769
633.192	0.0163129
633.270	0.0162730
633.348	0.0162920
633.426	0.0163110
633.504	0.0163298
633.582	0.0161779
633.660	0.0164053
633.738	0.0164791
633.817	0.0162579
633.895	0.0162078
633.973	0.0163885
634.051	0.0162475
634.129	0.0162717
634.207	0.0162999
634.285	0.0163094
634.363	0.0162518
634.442	0.0163770
634.520	0.0163007
634.598	0.0162900
634.676	0.0162364
634.754	0.0162534
634.832	0.0162978
634.910	0.0162514
634.988	0.0162336
635.067	0.0162978
635.145	0.0162539
635.223	0.0162529
635.301	0.0161741
635.379	0.0163760
635.457	0.0163263
635.535	0.0162441
635.613	0.0162310
635.692	0.0163734
635.770	0.0163250
635.848	0.0163863
635.926	0.0163141
636.004	0.0164365
636.082	0.0163383
636.160	0.0163081
636.238	0.0164519
636.317	0.0164774
636.395	0.0163800
636.473	0.0163980
636.551	0.0164470
636.629	0.0164809
636.707	0.0165517
636.785	0.0163805
636.863	0.0164040
636.942	0.0165105
637.020	0.0163132
637.098	0.0162469
637.176	0.0163550
637.254	0.0163842
637.332	0.0164611
637.410	0.0162013
637.488	0.0163284
637.567	0.0164191
637.645	0.0162529
637.723	0.0161227
637.801	0.0162366
637.879	0.0161655
637.957	0.0161234
638.035	0.0161987
638.113	0.0160699
638.192	0.0161787
638.270	0.0161567
638.348	0.0161546
638.426	0.0161343
638.504	0.0161224
638.582	0.0162609
638.660	0.0163433
638.738	0.0165865
638.817	0.0164442
638.895	0.0164682
638.973	0.0166393
639.051	0.0167342
639.129	0.0168060
639.207	0.0167812
639.285	0.0168609
639.363	0.0167822
639.442	0.0168913
639.520	0.0169844
639.598	0.0169330
639.676	0.0168774
639.754	0.0168846
639.832	0.0167398
639.910	0.0167808
639.988	0.0167624
640.067	0.0166125
640.145	0.0166068
640.223	0.0164130
640.301	0.0164044
640.379	0.0162704
640.457	0.0161907
640.535	0.0161423
640.613	0.0159821
640.692	0.0159446
640.770	0.0159959
640.848	0.0159739
640.926	0.0157529
641.004	0.0158353
641.082	0.0158488
641.160	0.0157617
641.238	0.0158036
641.317	0.0158989
641.395	0.0158276
641.473	0.0158876
641.551	0.0160624
641.629	0.0161961
641.707	0.0161939
641.785	0.0162304
641.863	0.0163278
641.942	0.0163490
642.020	0.0164508
642.098	0.0164431
642.176	0.0164656
642.254	0.0166388
642.332	0.0167698
642.410	0.0166824
642.488	0.0166811
642.567	0.0167104
642.645	0.0168100
642.723	0.0169498
642.801	0.0169036
642.879	0.0170049
642.957	0.0170236
643.035	0.0170496
643.113	0.0168854
643.192	0.0168979
643.270	0.0170564
643.348	0.0170703
643.426	0.0170427
643.504	0.0166990
643.582	0.0167637
643.660	0.0167031
643.738	0.0165525
643.817	0.0164470
643.895	0.0164169
643.973	0.0162437
644.051	0.0161308
644.129	0.0160764
644.207	0.0158399
644.285	0.0158337
644.363	0.0157847
644.442	0.0157256
644.520	0.0155833
644.598	0.0155705
644.676	0.0157121
644.754	0.0156438
644.832	0.0158089
644.910	0.0156895
644.988	0.0156171
645.067	0.0157862
645.145	0.0157955
645.223	0.0159628
645.301	0.0161724
645.379	0.0162241
645.457	0.0162207
645.535	0.0162808
645.613	0.0164944
645.692	0.0165768
645.770	0.0166796
645.848	0.0167009
645.926	0.0167242
646.004	0.0170520
646.082	0.0170682
646.160	0.0170687
646.238	0.0171934
646.317	0.0171444
646.395	0.0172188
646.473	0.0170379
646.551	0.0171601
646.629	0.0169747
646.707	0.0170832
646.785	0.0168639
646.863	0.0167654
646.942	0.0167788
647.020	0.0168138
647.098	0.0166481
647.176	0.0165668
647.254	0.0165768
647.332	0.0165097
647.410	0.0165283
647.488	0.0163550
647.567	0.0162916
647.645	0.0163230
647.723	0.0161916
647.801	0.0160700
647.879	0.0160777
647.957	0.0158237
648.035	0.0156937
648.113	0.0157459
648.192	0.0155341
648.270	0.0154797
648.348	0.0153485
648.426	0.0152042
648.504	0.0154919
648.582	0.0153324
648.660	0.0153564
648.738	0.0154148
648.817	0.0154194
648.895	0.0155085
648.973	0.0157321
649.051	0.0158287
649.129	0.0159992
649.207	0.0159933
649.285	0.0162787
649.363	0.0165209
649.442	0.0166127
649.520	0.0168201
649.598	0.0169918
649.676	0.0171393
649.754	0.0170761
649.832	0.0172221
649.910	0.0174606
649.988	0.0175211
650.067	0.0175402
650.145	0.0173772
650.223	0.0174399
650.301	0.0173540
650.379	0.0173259
650.457	0.0173178
650.535	0.0170901
650.613	0.0170577
650.692	0.0170141
650.770	0.0168390
650.848	0.0167371
650.926	0.0166560
651.004	0.0164819
651.082	0.0164312
651.160	0.0163985
651.238	0.0163705
651.317	0.0161027
651.395	0.0160642
651.473	0.0161066
651.551	0.0158708
651.629	0.0158933
651.707	0.0158305
651.785	0.0157010
651.863	0.0156040
651.942	0.0157020
652.020	0.0156461
652.098	0.0156014
652.176	0.0157309
652.254	0.0154886
652.332	0.0155270
652.410	0.0154961
652.488	0.0154252
652.567	0.0156930
652.645	0.0154597
652.723	0.0155671
652.801	0.0156002
652.879	0.0156670
652.957	0.0157423
653.035	0.0158105
653.113	0.0160193
653.192	0.0161530
653.270	0.0163140
653.348	0.0164386
653.426	0.0164755
653.504	0.0166786
653.582	0.0166862
653.660	0.0168880
653.738	0.0170190
653.817	0.0169400
653.895	0.0169135
653.973	0.0170752
654.051	0.0170798
654.129	0.0170745
654.207	0.0169252
654.285	0.0169561
654.363	0.0169251
654.442	0.0167943
654.520	0.0168458
654.598	0.0167019
654.676	0.0166282
654.754	0.0165314
654.832	0.0165995
654.910	0.0165398
654.988	0.0164472
655.067	0.0163952
655.145	0.0163211
655.223	0.0162457
655.301	0.0162267
655.379	0.0160481
655.457	0.0162806
655.535	0.0160901
655.613	0.0162154
655.692	0.0160885
655.770	0.0160760
655.848	0.0160782
655.926	0.0161279
656.004	0.0160582
656.082	0.0161527
656.160	0.0161684
656.238	0.0163219
656.317	0.0162615
656.395	0.0161765
656.473	0.0164131
656.551	0.0164561
656.629	0.0162358
656.707	0.0162527
656.785	0.0161922
656.863	0.0162045
656.942	0.0162002
657.020	0.0161703
657.098	0.0160381
657.176	0.0160233
657.254	0.0159744
657.332	0.0160892
657.410	0.0160690
657.488	0.0159181
657.567	0.0160684
657.645	0.0159268
657.723	0.0159384
657.801	0.0159287
657.879	0.0159708
657.957	0.0160384
658.035	0.0160742
658.113	0.0162753
658.192	0.0162734
658.270	0.0163981
658.348	0.0163824
658.426	0.0165277
658.504	0.0166381
658.582	0.0167347
658.660	0.0167123
658.738	0.0169129
658.817	0.0168134
658.895	0.0166749
658.973	0.0167458
659.051	0.0168542
659.129	0.0167799
659.207	0.0167731
659.285	0.0166899
659.363	0.0166094
659.442	0.0166194
659.520	0.0166323
659.598	0.0165164
659.676	0.0165764
659.754	0.0164876
659.832	0.0164420
659.910	0.0164297
659.988	0.0162479
660.067	0.0163161
660.145	0.0164371
660.223	0.0162168
660.301	0.0161781
660.379	0.0163117
660.457	0.0163176
660.535	0.0161847
660.613	0.0161732
660.692	0.0162766
660.770	0.0161726
660.848	0.0161472
660.926	0.0162634
661.004	0.0161854
661.082	0.0161512
661.160	0.0162591
661.238	0.0163309
661.317	0.0164165
661.395	0.0164173
661.473	0.0164680
661.551	0.0165435
661.629	0.0166820
661.707	0.0164827
661.785	0.0162554
661.863	0.0162201
661.942	0.0161592
662.020	0.0161588
662.098	0.0158895
662.176	0.0157184
662.254	0.0156544
662.332	0.0155448
662.410	0.0154624
662.488	0.0154322
662.567	0.0156806
662.645	0.0158797
662.723	0.0159511
662.801	0.0160603
662.879	0.0163878
662.957	0.0167132
663.035	0.0168279
663.113	0.0169319
663.192	0.0172784
663.270	0.0172416
663.348	0.0172662
663.426	0.0171630
663.504	0.0170851
663.582	0.0170011
663.660	0.0166966
663.738	0.0166467
663.817	0.0163628
663.895	0.0162494
663.973	0.0161243
664.051	0.0159785
664.129	0.0160063
664.207	0.0160063
664.285	0.0161526
664.363	0.0160693
664.442	0.0162360
664.520	0.0163978
664.598	0.0164112
664.676	0.0166513
664.754	0.0165518
664.832	0.0165250
664.910	0.0164054
664.988	0.0163766
665.067	0.0164510
665.145	0.0163510
665.223	0.0162611
665.301	0.0160725
665.379	0.0161975
665.457	0.0164126
665.535	0.0164155
665.613	0.0165001
665.692	0.0166762
665.770	0.0168567
665.848	0.0170065
665.926	0.0171412
666.004	0.0172274
666.082	0.0172504
666.160	0.0172066
666.238	0.0171407
666.317	0.0169540
666.395	0.0166692
666.473	0.0166580
666.551	0.0164350
666.629	0.0161662
666.707	0.0161244
666.785	0.0158809
666.863	0.0158412
666.942	0.0159105
667.020	0.0157423
667.098	0.0155797
667.176	0.0155344
667.254	0.0154038
667.332	0.0154985
667.410	0.0151291
667.488	0.0150092
667.567	0.0149589
667.645	0.0147678
667.723	0.0146554
667.801	0.0147079
667.879	0.0147114
667.957	0.0147474
668.035	0.0151158
668.113	0.0152625
668.192	0.0157648
668.270	0.0162527
668.348	0.0166640
668.426	0.0172657
668.504	0.0174238
668.582	0.0178568
668.660	0.0182971
668.738	0.0186828
668.817	0.0189063
668.895	0.0190627
668.973	0.0191778
669.051	0.0191460
669.129	0.0190336
669.207	0.0188026
669.285	0.0186788
669.363	0.0184992
669.442	0.0180121
669.520	0.0178107
669.598	0.0173315
669.676	0.0169587
669.754	0.0165391
669.832	0.0162587
669.910	0.0157108
669.988	0.0153614
670.067	0.0149608
670.145	0.0145996
670.223	0.0143888
670.301	0.0141671
670.379	0.0138535
670.457	0.0136462
670.535	0.0135554
670.613	0.0136356
670.692	0.0136585
670.770	0.0137256
670.848	0.0140659
670.926	0.0143385
671.004	0.0147096
671.082	0.0150518
671.160	0.0155035
671.238	0.0160268
671.317	0.0166769
671.395	0.0168732
671.473	0.0174429
671.551	0.0180491
671.629	0.0184368
671.707	0.0188229
671.785	0.0191521
671.863	0.0193023
671.942	0.0194583
672.020	0.0192103
672.098	0.0188973
672.176	0.0187213
672.254	0.0182714
672.332	0.0175751
672.410	0.0170338
672.488	0.0164166
672.567	0.0160213
672.645	0.0153635
672.723	0.0149316
672.801	0.0145531
672.879	0.0143821
672.957	0.0142804
673.035	0.0143008
673.113	0.0144012
673.192	0.0145663
673.270	0.0147911
673.348	0.0148809
673.426	0.0150865
673.504	0.0153061
673.582	0.0154694
673.660	0.0155264
673.738	0.0156990
673.817	0.0157932
673.895	0.0160806
673.973	0.0163641
674.051	0.0166926
674.129	0.0169562
674.207	0.0175246
674.285	0.0179677
674.363	0.0182966
674.442	0.0188294
674.520	0.0191779
674.598	0.0193694
674.676	0.0193187
674.754	0.0194197
674.832	0.0191551
674.910	0.0186398
674.988	0.0181551
675.067	0.0174872
675.145	0.0169296
675.223	0.0162513
675.301	0.0155235
675.379	0.0147055
675.457	0.0143502
675.535	0.0138348
675.613	0.0136424
675.692	0.0133511
675.770	0.0131906
675.848	0.0131511
675.926	0.0131503
676.004	0.0133678
676.082	0.0134235
676.160	0.0134362
676.238	0.0139983
676.317	0.0143170
676.395	0.0146764
676.473	0.0150739
676.551	0.0154443
676.629	0.0159698
676.707	0.0164300
676.785	0.0168443
676.863	0.0173763
676.942	0.0178379
677.020	0.0181649
677.098	0.0183897
677.176	0.0186076
677.254	0.0187455
677.332	0.0188350
677.410	0.0188515
677.488	0.0188583
677.567	0.0187575
677.645	0.0188132
677.723	0.0186914
677.801	0.0186869
677.879	0.0187526
677.957	0.0184225
678.035	0.0182966
678.113	0.0180180
678.192	0.0178198
678.270	0.0174307
678.348	0.0170905
678.426	0.0167090
678.504	0.0162325
678.582	0.0157051
678.660	0.0152280
678.738	0.0146532
678.817	0.0143340
678.895	0.0139180
678.973	0.0136399
679.051	0.0134853
679.129	0.0135612
679.207	0.0134039
679.285	0.0135109
679.363	0.0136289
679.442	0.0139126
679.520	0.0141095
679.598	0.0145241
679.676	0.0147861
679.754	0.0150687
679.832	0.0153954
679.910	0.0155312
679.988	0.0158047
680.067	0.0159544
680.145	0.0161893
680.223	0.0162243
680.301	0.0164941
680.379	0.0168600
680.457	0.0169483
680.535	0.0172509
680.613	0.0175300
680.692	0.0177827
680.770	0.0180000
680.848	0.0180954
680.926	0.0180588
681.004	0.0181371
681.082	0.0178741
681.160	0.0178259
681.238	0.0179115
681.317	0.0177146
681.395	0.0177364
681.473	0.0178810
681.551	0.0178725
681.629	0.0179093
681.707	0.0180463
681.785	0.0179033
681.863	0.0179259
681.942	0.0180589
682.020	0.0180287
682.098	0.0178678
682.176	0.0175300
682.254	0.0171932
682.332	0.0165942
682.410	0.0161080
682.488	0.0155212
682.567	0.0150986
682.645	0.0146898
682.723	0.0143063
682.801	0.0140524
682.879	0.0137728
682.957	0.0136612
683.035	0.0137969
683.113	0.0139761
683.192	0.0140984
683.270	0.0145093
683.348	0.0148321
683.426	0.0150671
683.504	0.0155357
683.582	0.0158500
683.660	0.0162455
683.738	0.0165251
683.817	0.0166069
683.895	0.0167022
683.973	0.0167304
684.051	0.0166999
684.129	0.0166486
684.207	0.0163654
684.285	0.0163058
684.363	0.0161939
684.442	0.0158929
684.520	0.0159544
684.598	0.0158601
684.676	0.0157631
684.754	0.0158944
684.832	0.0160945
684.910	0.0161213
684.988	0.0162518
685.067	0.0165784
685.145	0.0167231
685.223	0.0168566
685.301	0.0170815
685.379	0.0172892
685.457	0.0174252
685.535	0.0175219
685.613	0.0173520
685.692	0.0173347
685.770	0.0175196
685.848	0.0172362
685.926	0.0171184
686.004	0.0170866
686.082	0.0168640
686.160	0.0169473
686.238	0.0168797
686.317	0.0170168
686.395	0.0171178
686.473	0.0171165
686.551	0.0171537
686.629	0.0173872
686.707	0.0173373
686.785	0.0173734
686.863	0.0173032
686.942	0.0173479
687.020	0.0170916
687.098	0.0168716
687.176	0.0167096
687.254	0.0166319
687.332	0.0164027
687.410	0.0159740
687.488	0.0157779
687.567	0.0157423
687.645	0.0154250
687.723	0.0152904
687.801	0.0153056
687.879	0.0150205
687.957	0.0150191
688.035	0.0148545
688.113	0.0149498
688.192	0.0151277
688.270	0.0152246
688.348	0.0153064
688.426	0.0156398
688.504	0.0158740
688.582	0.0159062
688.660	0.0162492
688.738	0.0164204
688.817	0.0163427
688.895	0.0164595
688.973	0.0164172
689.051	0.0163498
689.129	0.0165049
689.207	0.0164861
689.285	0.0163003
689.363	0.0162020
689.442	0.0162479
689.520	0.0161773
689.598	0.0162844
689.676	0.0162563
689.754	0.0163972
689.832	0.0166961
689.910	0.0166119
689.988	0.0167491
690.067	0.0167894
690.145	0.0169646
690.223	0.0170048
690.301	0.0169817
690.379	0.0170271
690.457	0.0169207
690.535	0.0168770
690.613	0.0167954
690.692	0.0168643
690.770	0.0165721
690.848	0.0165228
690.926	0.0164622
691.004	0.0162855
691.082	0.0161931
691.160	0.0159824
691.238	0.0160294
691.317	0.0158078
691.395	0.0154861
691.473	0.0156165
691.551	0.0154032
691.629	0.0152467
691.707	0.0152457
691.785	0.0151343
691.863	0.0153191
691.942	0.0151832
692.020	0.0152874
692.098	0.0155248
692.176	0.0156445
692.254	0.0159184
692.332	0.0163233
692.410	0.0167327
692.488	0.0168855
692.567	0.0172853
692.645	0.0177701
692.723	0.0181123
692.801	0.0182427
692.879	0.0185334
692.957	0.0187485
693.035	0.0188522
693.113	0.0188847
693.192	0.0189445
693.270	0.0188654
693.348	0.0187392
693.426	0.0185110
693.504	0.0183345
693.582	0.0179125
693.660	0.0176592
693.738	0.0172889
693.817	0.0171498
693.895	0.0167288
693.973	0.0166065
694.051	0.0164339
694.129	0.0162566
694.207	0.0160332
694.285	0.0157731
694.363	0.0155412
694.442	0.0153308
694.520	0.0151778
694.598	0.0150465
694.676	0.0147810
694.754	0.0145113
694.832	0.0144466
694.910	0.0144242
694.988	0.0145304
695.067	0.0145721
695.145	0.0146260
695.223	0.0148452
695.301	0.0150966
695.379	0.0153610
695.457	0.0154644
695.535	0.0155195
695.613	0.0155715
695.692	0.0157841
695.770	0.0156575
695.848	0.0155837
695.926	0.0154544
696.004	0.0154047
696.082	0.0154679
696.160	0.0153383
696.238	0.0152174
696.317	0.0153944
696.395	0.0153323
696.473	0.0154475
696.551	0.0154877
696.629	0.0157584
696.707	0.0157781
696.785	0.0158870
696.863	0.0162318
696.942	0.0164706
697.020	0.0165886
697.098	0.0165864
697.176	0.0167243
697.254	0.0167172
697.332	0.0168316
697.410	0.0168993
697.488	0.0169446
697.567	0.0171774
697.645	0.0170708
697.723	0.0171511
697.801	0.0172091
697.879	0.0172346
697.957	0.0174360
698.035	0.0174084
698.113	0.0175697
698.192	0.0175122
698.270	0.0174770
698.348	0.0173859
698.426	0.0173283
698.504	0.0173920
698.582	0.0172188
698.660	0.0172179
698.738	0.0171837
698.817	0.0172968
698.895	0.0174490
698.973	0.0173678
699.051	0.0175037
699.129	0.0177464
699.207	0.0179878
699.285	0.0181030
699.363	0.0185741
699.442	0.0186257
699.520	0.0189204
699.598	0.0191545
699.676	0.0191473
699.754	0.0192769
699.832	0.0191029
699.910	0.0192867
699.988	0.0190635
700.067	0.0188846
700.145	0.0184708
700.223	0.0180581
700.301	0.0178503
700.379	0.0172484
700.457	0.0164576
700.535	0.0157578
700.613	0.0151254
700.692	0.0144035
700.770	0.0137064
700.848	0.0130806
700.926	0.0125083
701.004	0.0120116
701.082	0.0116855
701.160	0.0114287
701.238	0.0113895
701.317	0.0112180
701.395	0.0114256
701.473	0.0117063
701.551	0.0121367
701.629	0.0124535
701.707	0.0127538
701.785	0.0131750
701.863	0.0136742
701.942	0.0140385
702.020	0.0143410
702.098	0.0147610
702.176	0.0151307
702.254	0.0152013
702.332	0.0155058
702.410	0.0158304
702.488	0.0158495
702.567	0.0158437
702.645	0.0161072
702.723	0.0162215
702.801	0.0163718
702.879	0.0165440
702.957	0.0167158
703.035	0.0170601
703.113	0.0171655
703.192	0.0175997
703.270	0.0178313
703.348	0.0183503
703.426	0.0186530
703.504	0.0187789
703.582	0.0190269
703.660	0.0193934
703.738	0.0196074
703.817	0.0198078
703.895	0.0197622
703.973	0.0198920
704.051	0.0196898
704.129	0.0195465
704.207	0.0193929
704.285	0.0190844
704.363	0.0188672
704.442	0.0183402
704.520	0.0180947
704.598	0.0178423
704.676	0.0175902
704.754	0.0174212
704.832	0.0171353
704.910	0.0170332
704.988	0.0168276
705.067	0.0167388
705.145	0.0167229
705.223	0.0166740
705.301	0.0166961
705.379	0.0167632
705.457	0.0167061
705.535	0.0169441
705.613	0.0171449
705.692	0.0172720
705.770	0.0172787
705.848	0.0173595
705.926	0.0174924
706.004	0.0176051
706.082	0.0175276
706.160	0.0174778
706.238	0.0173254
706.317	0.0171760
706.395	0.0168886
706.473	0.0164215
706.551	0.0161125
706.629	0.0156113
706.707	0.0150015
706.785	0.0145187
706.863	0.0142107
706.942	0.0136048
707.020	0.0131068
707.098	0.0128384
707.176	0.0124173
707.254	0.0121915
707.332	0.0120901
707.410	0.0122582
707.488	0.0122730
707.567	0.0122175
707.645	0.0124439
707.723	0.0127052
707.801	0.0129407
707.879	0.0131577
707.957	0.0135105
708.035	0.0138204
708.113	0.0140278
708.192	0.0144360
708.270	0.0147353
708.348	0.0150876
708.426	0.0152913
708.504	0.0155878
708.582	0.0160599
708.660	0.0163257
708.738	0.0165151
708.817	0.0168626
708.895	0.0170569
708.973	0.0171650
709.051	0.0174473
709.129	0.0174741
709.207	0.0176681
709.285	0.0178480
709.363	0.0179072
709.442	0.0179870
709.520	0.0180664
709.598	0.0181660
709.676	0.0182571
709.754	0.0185075
709.832	0.0187094
709.910	0.0187272
709.988	0.0189732
710.067	0.0194453
710.145	0.0195322
710.223	0.0197686
710.301	0.0198197
710.379	0.0198481
710.457	0.0196586
710.535	0.0194572
710.613	0.0193488
710.692	0.0189487
710.770	0.0185073
710.848	0.0180748
710.926	0.0177262
711.004	0.0171516
711.082	0.0168011
711.160	0.0163608
711.238	0.0161282
711.317	0.0158144
711.395	0.0157305
711.473	0.0155569
711.551	0.0155742
711.629	0.0154752
711.707	0.0154814
711.785	0.0155934
711.863	0.0157193
711.942	0.0157993
712.020	0.0161353
712.098	0.0162662
712.176	0.0162889
712.254	0.0165276
712.332	0.0167024
712.410	0.0167128
712.488	0.0167670
712.567	0.0167796
712.645	0.0168002
712.723	0.0165967
712.801	0.0166567
712.879	0.0167033
712.957	0.0164402
713.035	0.0162720
713.113	0.0161620
713.192	0.0158511
713.270	0.0155466
713.348	0.0153210
713.426	0.0148868
713.504	0.0146436
713.582	0.0144812
713.660	0.0141943
713.738	0.0140016
713.817	0.0137109
713.895	0.0136205
713.973	0.0136615
714.051	0.0135581
714.129	0.0134451
714.207	0.0135684
714.285	0.0137904
714.363	0.0139549
714.442	0.0140307
714.520	0.0141642
714.598	0.0144579
714.676	0.0146532
714.754	0.0148820
714.832	0.0151984
714.910	0.0153384
714.988	0.0156017
715.067	0.0157291
715.145	0.0159791
715.223	0.0162889
715.301	0.0163725
715.379	0.0165504
715.457	0.0166570
715.535	0.0170088
715.613	0.0170806
715.692	0.0171983
715.770	0.0174117
715.848	0.0174812
715.926	0.0178649
716.004	0.0179805
716.082	0.0179872
716.160	0.0182996
716.238	0.0184571
716.317	0.0186816
716.395	0.0187273
716.473	0.0187537
716.551	0.0189650
716.629	0.0191380
716.707	0.0191077
716.785	0.0191069
716.863	0.0191005
716.942	0.0188708
717.020	0.0188614
717.098	0.0187288
717.176	0.0184254
717.254	0.0180703
717.332	0.0177116
717.410	0.0172879
717.488	0.0169199
717.567	0.0163834
717.645	0.0162048
717.723	0.0159793
717.801	0.0157497
717.879	0.0154671
717.957	0.0155103
718.035	0.0152779
718.113	0.0152464
718.192	0.0154067
718.270	0.0156203
718.348	0.0158369
718.426	0.0160473
718.504	0.0161061
718.582	0.0164159
718.660	0.0165553
718.738	0.0168156
718.817	0.0168641
718.895	0.0168829
718.973	0.0171780
719.051	0.0172919
719.129	0.0173380
719.207	0.0172652
719.285	0.0172023
719.363	0.0171629
719.442	0.0170415
719.520	0.0168127
719.598	0.0166092
719.676	0.0164214
719.754	0.0163133
719.832	0.0159281
719.910	0.0156309
719.988	0.0154302
720.067	0.0151460
720.145	0.0149655
720.223	0.0147360
720.301	0.0144880
720.379	0.0144465
720.457	0.0145140
720.535	0.0144427
720.613	0.0143468
720.692	0.0143745
720.770	0.0146493
720.848	0.0147114
720.926	0.0146945
721.004	0.0147749
721.082	0.0149194
721.160	0.0147777
721.238	0.0148670
721.317	0.0151298
721.395	0.0149927
721.473	0.0149094
721.551	0.0151220
721.629	0.0150983
721.707	0.0151424
721.785	0.0153331
721.863	0.0154566
721.942	0.0154379
722.020	0.0155764
722.098	0.0158164
722.176	0.0159241
722.254	0.0161266
722.332	0.0161715
722.410	0.0163410
722.488	0.0167884
722.567	0.0169198
722.645	0.0171016
722.723	0.0170629
722.801	0.0174128
722.879	0.0176851
722.957	0.0180034
723.035	0.0181444
723.113	0.0185262
723.192	0.0185693
723.270	0.0187997
723.348	0.0189159
723.426	0.0189382
723.504	0.0191167
723.582	0.0190376
723.660	0.0189861
723.738	0.0189780
723.817	0.0186478
723.895	0.0183574
723.973	0.0181372
724.051	0.0179740
724.129	0.0175304
724.207	0.0173174
724.285	0.0169578
724.363	0.0165298
724.442	0.0164719
724.520	0.0162244
724.598	0.0158681
724.676	0.0158147
724.754	0.0157433
724.832	0.0157700
724.910	0.0159193
724.988	0.0158792
725.067	0.0160173
725.145	0.0162466
725.223	0.0163084
725.301	0.0165992
725.379	0.0167242
725.457	0.0169374
725.535	0.0171499
725.613	0.0171513
725.692	0.0174377
725.770	0.0173098
725.848	0.0173293
725.926	0.0171790
726.004	0.0171124
726.082	0.0169196
726.160	0.0167558
726.238	0.0165096
726.317	0.0162724
726.395	0.0160296
726.473	0.0156313
726.551	0.0154545
726.629	0.0152423
726.707	0.0151183
726.785	0.0149798
726.863	0.0147722
726.942	0.0147682
727.020	0.0146645
727.098	0.0145951
727.176	0.0146474
727.254	0.0147027
727.332	0.0145884
727.410	0.0147962
727.488	0.0148010
727.567	0.0147604
727.645	0.0147662
727.723	0.0149714
727.801	0.0148526
727.879	0.0148486
727.957	0.0147808
728.035	0.0149198
728.113	0.0149159
728.192	0.0147993
728.270	0.0148958
728.348	0.0148351
728.426	0.0148840
728.504	0.0150121
728.582	0.0150443
728.660	0.0152369
728.738	0.0152341
728.817	0.0153730
728.895	0.0155573
728.973	0.0157563
729.051	0.0160783
729.129	0.0160979
729.207	0.0163149
729.285	0.0165153
729.363	0.0167842
729.442	0.0170851
729.520	0.0173501
729.598	0.0176070
729.676	0.0179694
729.754	0.0181437
729.832	0.0181985
729.910	0.0185328
729.988	0.0185696
730.067	0.0186385
730.145	0.0187004
730.223	0.0187518
730.301	0.0185383
730.379	0.0186489
730.457	0.0184995
730.535	0.0184037
730.613	0.0181565
730.692	0.0179528
730.770	0.0179644
730.848	0.0176008
730.926	0.0174425
731.004	0.0173487
731.082	0.0171005
731.160	0.0171729
731.238	0.0169798
731.317	0.0168781
731.395	0.0166864
731.473	0.0167221
731.551	0.0166231
731.629	0.0166845
731.707	0.0167463
731.785	0.0166873
731.863	0.0166877
731.942	0.0167758
732.020	0.0168739
732.098	0.0167561
732.176	0.0167624
732.254	0.0167025
732.332	0.0167009
732.410	0.0166468
732.488	0.0162425
732.567	0.0162083
732.645	0.0162109
732.723	0.0160538
732.801	0.0158276
732.879	0.0158797
732.957	0.0156074
733.035	0.0155043
733.113	0.0154491
733.192	0.0152083
733.270	0.0151849
733.348	0.0151665
733.426	0.0151749
733.504	0.0149766
733.582	0.0149471
733.660	0.0150101
733.738	0.0150729
733.817	0.0150340
733.895	0.0151292
733.973	0.0151227
734.051	0.0152403
734.129	0.0151940
734.207	0.0153162
734.285	0.0153738
734.363	0.0151914
734.442	0.0154542
734.520	0.0154607
734.598	0.0153196
734.676	0.0153104
734.754	0.0154679
734.832	0.0153707
734.910	0.0152930
734.988	0.0154078
735.067	0.0153439
735.145	0.0152907
735.223	0.0152916
735.301	0.0154364
735.379	0.0152342
735.457	0.0153098
735.535	0.0154774
735.613	0.0156499
735.692	0.0156987
735.770	0.0159002
735.848	0.0161349
735.926	0.0163223
736.004	0.0165173
736.082	0.0167625
736.160	0.0167438
736.238	0.0170148
736.317	0.0172102
736.395	0.0175211
736.473	0.0175714
736.551	0.0175673
736.629	0.0178078
736.707	0.0179347
736.785	0.0178311
736.863	0.0178686
736.942	0.0180029
737.020	0.0181808
737.098	0.0180222
737.176	0.0178495
737.254	0.0177496
737.332	0.0178759
737.410	0.0178111
737.488	0.0175285
737.567	0.0173337
737.645	0.0173457
737.723	0.0171951
737.801	0.0170691
737.879	0.0170689
737.957	0.0169335
738.035	0.0168930
738.113	0.0168835
738.192	0.0168681
738.270	0.0168483
738.348	0.0167130
738.426	0.0168851
738.504	0.0169133
738.582	0.0167268
738.660	0.0168248
738.738	0.0167973
738.817	0.0169343
738.895	0.0167683
738.973	0.0167612
739.051	0.0166529
739.129	0.0165781
739.207	0.0166212
739.285	0.0164965
739.363	0.0165206
739.442	0.0164625
739.520	0.0164238
739.598	0.0163866
739.676	0.0163078
739.754	0.0160471
739.832	0.0159051
739.910	0.0159573
739.988	0.0158006
740.067	0.0157510
740.145	0.0156421
740.223	0.0156451
740.301	0.0156034
740.379	0.0153888
740.457	0.0154124
740.535	0.0153552
740.613	0.0153538
740.692	0.0153926
740.770	0.0153209
740.848	0.0154171
740.926	0.0154256
741.004	0.0152737
741.082	0.0152341
741.160	0.0152824
741.238	0.0152895
741.317	0.0152779
741.395	0.0152721
741.473	0.0152136
741.551	0.0152316
741.629	0.0151686
741.707	0.0152917
741.785	0.0152830
741.863	0.0154101
741.942	0.0154617
742.020	0.0154998
742.098	0.0155695
742.176	0.0155646
742.254	0.0157145
742.332	0.0158710
742.410	0.0159170
742.488	0.0160754
742.567	0.0163013
742.645	0.0163576
742.723	0.0166698
742.801	0.0166007
742.879	0.0166478
742.957	0.0169306
743.035	0.0169608
743.113	0.0168862
743.192	0.0170276
743.270	0.0172308
743.348	0.0170657
743.426	0.0172217
743.504	0.0171970
743.582	0.0172764
743.660	0.0175000
743.738	0.0174970
743.817	0.0174893
743.895	0.0173685
743.973	0.0173611
744.051	0.0173187
744.129	0.0174139
744.207	0.0173273
744.285	0.0172554
744.363	0.0171545
744.442	0.0171320
744.520	0.0171745
744.598	0.0171729
744.676	0.0169003
744.754	0.0169244
744.832	0.0169339
744.910	0.0169231
744.988	0.0166988
745.067	0.0168021
745.145	0.0168124
745.223	0.0167895
745.301	0.0167741
745.379	0.0167560
745.457	0.0167528
745.535	0.0168819
745.613	0.0168459
745.692	0.0168699
745.770	0.0167654
745.848	0.0167904
745.926	0.0166532
746.004	0.0165874
746.082	0.0167056
746.160	0.0165076
746.238	0.0165461
746.317	0.0163371
746.395	0.0162240
746.473	0.0162670
746.551	0.0162715
746.629	0.0161441
746.707	0.0161384
746.785	0.0160732
746.863	0.0160992
746.942	0.0161781
747.020	0.0162050
747.098	0.0162762
747.176	0.0160840
747.254	0.0160567
747.332	0.0160387
747.410	0.0161101
747.488	0.0160885
747.567	0.0162534
747.645	0.0160615
747.723	0.0158907
747.801	0.0157865
747.879	0.0158160
747.957	0.0156459
748.035	0.0155474
748.113	0.0155460
748.192	0.0153651
748.270	0.0153648
748.348	0.0152282
748.426	0.0153319
748.504	0.0154310
748.582	0.0152665
748.660	0.0152357
748.738	0.0153259
748.817	0.0155100
748.895	0.0155931
748.973	0.0156158
749.051	0.0155906
749.129	0.0157521
749.207	0.0156554
749.285	0.0156905
749.363	0.0159538
749.442	0.0159232
749.520	0.0159610
749.598	0.0158369
749.676	0.0159204
749.754	0.0159695
749.832	0.0159712
749.910	0.0160417
749.988	0.0161643
750.067	0.0162366
750.145	0.0163302
750.223	0.0163692
750.301	0.0164664
750.379	0.0164312
750.457	0.0166727
750.535	0.0167200
750.613	0.0167558
750.692	0.0168282
750.770	0.0168266
750.848	0.0170392
750.926	0.0170707
751.004	0.0170203
751.082	0.0173133
751.160	0.0171425
751.238	0.0173054
751.317	0.0173361
751.395	0.0172836
751.473	0.0172095
751.551	0.0173802
751.629	0.0173050
751.707	0.0172172
751.785	0.0172611
751.863	0.0172269
751.942	0.0172588
752.020	0.0172291
752.098	0.0171458
752.176	0.0172555
752.254	0.0170261
752.332	0.0170685
752.410	0.0170183
752.488	0.0170728
752.567	0.0168496
752.645	0.0170852
752.723	0.0168878
752.801	0.0166527
752.879	0.0165627
752.957	0.0167271
753.035	0.0165575
753.113	0.0164331
753.192	0.0163748
753.270	0.0165710
753.348	0.0164840
753.426	0.0163407
753.504	0.0161874
753.582	0.0160806
753.660	0.0160497
753.738	0.0160735
753.817	0.0160908
753.895	0.0159301
753.973	0.0160235
754.051	0.0160623
754.129	0.0158553
754.207	0.0158082
754.285	0.0158691
754.363	0.0157674
754.442	0.0156687
754.520	0.0156290
754.598	0.0155954
754.676	0.0155131
754.754	0.0155794
754.832	0.0155897
754.910	0.0155048
754.988	0.0154169
755.067	0.0154075
755.145	0.0154493
755.223	0.0154103
755.301	0.0153654
755.379	0.0155219
755.457	0.0155457
755.535	0.0155923
755.613	0.0156431
755.692	0.0157060
755.770	0.0156693
755.848	0.0156229
755.926	0.0157186
756.004	0.0159050
756.082	0.0158942
756.160	0.0160545
756.238	0.0160300
756.317	0.0159607
756.395	0.0160415
756.473	0.0161788
756.551	0.0160416
756.629	0.0161322
756.707	0.0161936
756.785	0.0161210
756.863	0.0160941
756.942	0.0161588
757.020	0.0161555
757.098	0.0163004
757.176	0.0163875
757.254	0.0164210
757.332	0.0164373
757.410	0.0164137
757.488	0.0164488
757.567	0.0165043
757.645	0.0165851
757.723	0.0165777
757.801	0.0166563
757.879	0.0166608
757.957	0.0166241
758.035	0.0166779
758.113	0.0168013
758.192	0.0168832
758.270	0.0168951
758.348	0.0169127
758.426	0.0170368
758.504	0.0170399
758.582	0.0171921
758.660	0.0171687
758.738	0.0174125
758.817	0.0173753
758.895	0.0173549
758.973	0.0172757
759.051	0.0171999
759.129	0.0172785
759.207	0.0172129
759.285	0.0172872
759.363	0.0171508
759.442	0.0171077
759.520	0.0171638
759.598	0.0169244
759.676	0.0169415
759.754	0.0170028
759.832	0.0168409
759.910	0.0167993
759.988	0.0167265
760.067	0.0166352
760.145	0.0164764
760.223	0.0164068
760.301	0.0163932
760.379	0.0163637
760.457	0.0161285
760.535	0.0160508
760.613	0.0161921
760.692	0.0159161
760.770	0.0159357
760.848	0.0159759
760.926	0.0158839
761.004	0.0158689
761.082	0.0159755
761.160	0.0159103
761.238	0.0157607
761.317	0.0157874
761.395	0.0159739
761.473	0.0159142
761.551	0.0160205
761.629	0.0161323
761.707	0.0159373
761.785	0.0159271
761.863	0.0159965
761.942	0.0159148
762.020	0.0159586
762.098	0.0159649
762.176	0.0159757
762.254	0.0158864
762.332	0.0159531
762.410	0.0160395
762.488	0.0159640
762.567	0.0158340
762.645	0.0158797
762.723	0.0159143
762.801	0.0160394
762.879	0.0160006
762.957	0.0159785
763.035	0.0159910
763.113	0.0159093
763.192	0.0161162
763.270	0.0160727
763.348	0.0160655
763.426	0.0160658
763.504	0.0161618
763.582	0.0160802
763.660	0.0158865
763.738	0.0160526
763.817	0.0161317
763.895	0.0162603
763.973	0.0161285
764.051	0.0158447
764.129	0.0159622
764.207	0.0160752
764.285	0.0160796
764.363	0.0161137
764.442	0.0160749
764.520	0.0162800
764.598	0.0163682
764.676	0.0164409
764.754	0.0163110
764.832	0.0165218
764.910	0.0166828
764.988	0.0168022
765.067	0.0169348
765.145	0.0169062
765.223	0.0169229
765.301	0.0168629
765.379	0.0169456
765.457	0.0169859
765.535	0.0171227
765.613	0.0172251
765.692	0.0171912
765.770	0.0171925
765.848	0.0171586
765.926	0.0172626
766.004	0.0171704
766.082	0.0172836
766.160	0.0171187
766.238	0.0172881
766.317	0.0171066
766.395	0.0170754
766.473	0.0170359
766.551	0.0169638
766.629	0.0167764
766.707	0.0169839
766.785	0.0168712
766.863	0.0167365
766.942	0.0165858
767.020	0.0165902
767.098	0.0165712
767.176	0.0163948
767.254	0.0164724
767.332	0.0163230
767.410	0.0163136
767.488	0.0162877
767.567	0.0162933
767.645	0.0163496
767.723	0.0162417
767.801	0.0161896
767.879	0.0161608
767.957	0.0161013
768.035	0.0162376
768.113	0.0161921
768.192	0.0163188
768.270	0.0161924
768.348	0.0162511
768.426	0.0160231
768.504	0.0161248
768.582	0.0162281
768.660	0.0161030
768.738	0.0160415
768.817	0.0160853
768.895	0.0160904
768.973	0.0160205
769.051	0.0160188
769.129	0.0158948
769.207	0.0159370
769.285	0.0159721
769.363	0.0160204
769.442	0.0158769
769.520	0.0158456
769.598	0.0158329
769.676	0.0158299
769.754	0.0157793
769.832	0.0157561
769.910	0.0156711
769.988	0.0158131
770.067	0.0155659
770.145	0.0155313
770.223	0.0156274
770.301	0.0156609
770.379	0.0157719
770.457	0.0158891
770.535	0.0158429
770.613	0.0157619
770.692	0.0159821
770.770	0.0159929
770.848	0.0161230
770.926	0.0161282
771.004	0.0162218
771.082	0.0162646
771.160	0.0163603
771.238	0.0163992
771.317	0.0165622
771.395	0.0165012
771.473	0.0165568
771.551	0.0164470
771.629	0.0165239
771.707	0.0166405
771.785	0.0166560
771.863	0.0166700
771.942	0.0166348
772.020	0.0168140
772.098	0.0166293
772.176	0.0167583
772.254	0.0167241
772.332	0.0167028
772.410	0.0167223
772.488	0.0166332
772.567	0.0166506
772.645	0.0167846
772.723	0.0167462
772.801	0.0168668
772.879	0.0168501
772.957	0.0168095
773.035	0.0167648
773.113	0.0169103
773.192	0.0169086
773.270	0.0170087
773.348	0.0170306
773.426	0.0170854
773.504	0.0169562
773.582	0.0170995
773.660	0.0170213
773.738	0.0168308
773.817	0.0168675
773.895	0.0170572
773.973	0.0169349
774.051	0.0167045
774.129	0.0167275
774.207	0.0167300
774.285	0.0166385
774.363	0.0165814
774.442	0.0165951
774.520	0.0165788
774.598	0.0165356
774.676	0.0164924
774.754	0.0163052
774.832	0.0162575
774.910	0.0163099
774.988	0.0161610
775.067	0.0160444
775.145	0.0160002
775.223	0.0159469
775.301	0.0158936
775.379	0.0158901
775.457	0.0157405
775.535	0.0157457
775.613	0.0158654
775.692	0.0157642
775.770	0.0158156
775.848	0.0157448
775.926	0.0156985
776.004	0.0157860
776.082	0.0159912
776.160	0.0158529
776.238	0.0158819
776.317	0.0158996
776.395	0.0159498
776.473	0.0159659
776.551	0.0159327
776.629	0.0159528
776.707	0.0161803
776.785	0.0160543
776.863	0.0160991
776.942	0.0160660
777.020	0.0160273
777.098	0.0162960
777.176	0.0161813
777.254	0.0161428
777.332	0.0161965
777.410	0.0162030
777.488	0.0161713
777.567	0.0161865
777.645	0.0162428
777.723	0.0163620
777.801	0.0165220
777.879	0.0163136
777.957	0.0164618
778.035	0.0164772
778.113	0.0164367
778.192	0.0164552
778.270	0.0164418
778.348	0.0165350
778.426	0.0164435
778.504	0.0164568
778.582	0.0165426
778.660	0.0164804
778.738	0.0162622
778.817	0.0164165
778.895	0.0163367
778.973	0.0163338
779.051	0.0163104
779.129	0.0164371
779.207	0.0164461
779.285	0.0163242
779.363	0.0162722
779.442	0.0163667
779.520	0.0164603
779.598	0.0165158
779.676	0.0164952
779.754	0.0165854
779.832	0.0166270
779.910	0.0166742
779.988	0.0164846
780.067	0.0166077
780.145	0.0166509
780.223	0.0167369
780.301	0.0167271
780.379	0.0167604
780.457	0.0166462
780.535	0.0166828
780.613	0.0168210
780.692	0.0167430
780.770	0.0168050
780.848	0.0167268
780.926	0.0167874
781.004	0.0168385
781.082	0.0168045
781.160	0.0167614
781.238	0.0167171
781.317	0.0166779
781.395	0.0167233
781.473	0.0166148
781.551	0.0164448
781.629	0.0165482
781.707	0.0164527
781.785	0.0162887
781.863	0.0162955
781.942	0.0162985
782.020	0.0163096
782.098	0.0161158
782.176	0.0162778
782.254	0.0163292
782.332	0.0162685
782.410	0.0163295
782.488	0.0162167
782.567	0.0162244
782.645	0.0162531
782.723	0.0162309
782.801	0.0163889
782.879	0.0162924
782.957	0.0162678
783.035	0.0162769
783.113	0.0162828
783.192	0.0162275
783.270	0.0161644
783.348	0.0162737
783.426	0.0162354
783.504	0.0161945
783.582	0.0161689
783.660	0.0161923
783.738	0.0161339
783.817	0.0160658
783.895	0.0162173
783.973	0.0161023
784.051	0.0161752
784.129	0.0161132
784.207	0.0160673
784.285	0.0161790
784.363	0.0160828
784.442	0.0159476
784.520	0.0160748
784.598	0.0160403
784.676	0.0160931
784.754	0.0161600
784.832	0.0160474
784.910	0.0159983
784.988	0.0160330
785.067	0.0160853
785.145	0.0160857
785.223	0.0161727
785.301	0.0160921
785.379	0.0160529
785.457	0.0162134
785.535	0.0162343
785.613	0.0162363
785.692	0.0162942
785.770	0.0163769
785.848	0.0162746
785.926	0.0164812
786.004	0.0164514
786.082	0.0164660
786.160	0.0164481
786.238	0.0164855
786.317	0.0165919
786.395	0.0165602
786.473	0.0165427
786.551	0.0165495
786.629	0.0167307
786.707	0.0166007
786.785	0.0167336
786.863	0.0166827
786.942	0.0167259
787.020	0.0168633
787.098	0.0166782
787.176	0.0167383
787.254	0.0168055
787.332	0.0168505
787.410	0.0167350
787.488	0.0166968
787.567	0.0165443
787.645	0.0165452
787.723	0.0167031
787.801	0.0167567
787.879	0.0166085
787.957	0.0165466
788.035	0.0166174
788.113	0.0165477
788.192	0.0164796
788.270	0.0165338
788.348	0.0164969
788.426	0.0165025
788.504	0.0165062
788.582	0.0163744
788.660	0.0162981
788.738	0.0162627
788.817	0.0165442
788.895	0.0164554
788.973	0.0163898
789.051	0.0163448
789.129	0.0163343
789.207	0.0163163
789.285	0.0164419
789.363	0.0165903
789.442	0.0164507
789.520	0.0164793
789.598	0.0164619
789.676	0.0163722
789.754	0.0164269
789.832	0.0162962
789.910	0.0164161
789.988	0.0162732
790.067	0.0162543
790.145	0.0163728
790.223	0.0162920
790.301	0.0163148
790.379	0.0162109
790.457	0.0162197
790.535	0.0161961
790.613	0.0162842
790.692	0.0161317
790.770	0.0162896
790.848	0.0162751
790.926	0.0162150
791.004	0.0161642
791.082	0.0160469
791.160	0.0161256
791.238	0.0161404
791.317	0.0160864
791.395	0.0160722
791.473	0.0160937
791.551	0.0160791
791.629	0.0161273
791.707	0.0161095
791.785	0.0161287
791.863	0.0159597
791.942	0.0159317
792.020	0.0160463
792.098	0.0160303
792.176	0.0158704
792.254	0.0158854
792.332	0.0158971
792.410	0.0158986
792.488	0.0157807
792.567	0.0159898
792.645	0.0159696
792.723	0.0160345
792.801	0.0161142
792.879	0.0161795
792.957	0.0161114
793.035	0.0161989
793.113	0.0163084
793.192	0.0163437
793.270	0.0164321
793.348	0.0166741
793.426	0.0164413
793.504	0.0165780
793.582	0.0166608
793.660	0.0167392
793.738	0.0166697
793.817	0.0167524
793.895	0.0166690
793.973	0.0167831
794.051	0.0168778
794.129	0.0168278
794.207	0.0168784
794.285	0.0169375
794.363	0.0168144
794.442	0.0167256
794.520	0.0168255
794.598	0.0167440
794.676	0.0168153
794.754	0.0167513
794.832	0.0167260
794.910	0.0165890
794.988	0.0167564
795.067	0.0166280
795.145	0.0164516
795.223	0.0166049
795.301	0.0166806
795.379	0.0167429
795.457	0.0165784
795.535	0.0166879
795.613	0.0166499
795.692	0.0165057
795.770	0.0167897
795.848	0.0168170
795.926	0.0166438
796.004	0.0165723
796.082	0.0165323
796.160	0.0165652
796.238	0.0164604
796.317	0.0164182
796.395	0.0163870
796.473	0.0164775
796.551	0.0163295
796.629	0.0162566
796.707	0.0162508
796.785	0.0162041
796.863	0.0161526
796.942	0.0161055
797.020	0.0160470
797.098	0.0160443
797.176	0.0160069
797.254	0.0159422
797.332	0.0159426
797.410	0.0158759
797.488	0.0159420
797.567	0.0159534
797.645	0.0157737
797.723	0.0159011
797.801	0.0158766
797.879	0.0158089
797.957	0.0158150
798.035	0.0159260
798.113	0.0157744
798.192	0.0158476
798.270	0.0157868
798.348	0.0158889
798.426	0.0160040
798.504	0.0160261
798.582	0.0159362
798.660	0.0159613
798.738	0.0161965
798.817	0.0163326
798.895	0.0163507
798.973	0.0164411
799.051	0.0163774
799.129	0.0165488
799.207	0.0164095
799.285	0.0163801
799.363	0.0164481
799.442	0.0165406
799.520	0.0165438
799.598	0.0165320
799.676	0.0166193
799.754	0.0165640
799.832	0.0166637
799.910	0.0166678
799.988	0.0167046
800.067	0.0167365
800.145	0.0166592
800.223	0.0167631
800.301	0.0165113
800.379	0.0166839
800.457	0.0166608
800.535	0.0165740
800.613	0.0165582
800.692	0.0165800
800.770	0.0166270
800.848	0.0165604
800.926	0.0165481
801.004	0.0166879
801.082	0.0165253
801.160	0.0164848
801.238	0.0165546
801.317	0.0167308
801.395	0.0165499
801.473	0.0164484
801.551	0.0165800
801.629	0.0166312
801.707	0.0166309
801.785	0.0165950
801.863	0.0164437
801.942	0.0164168
802.020	0.0165796
802.098	0.0166042
802.176	0.0166140
802.254	0.0165820
802.332	0.0165759
802.410	0.0165170
802.488	0.0164716
802.567	0.0164404
802.645	0.0162916
802.723	0.0164660
802.801	0.0164539
802.879	0.0163057
802.957	0.0162115
803.035	0.0162095
803.113	0.0161557
803.192	0.0161230
803.270	0.0161017
803.348	0.0161242
803.426	0.0161134
803.504	0.0160822
803.582	0.0160432
803.660	0.0160804
803.738	0.0160553
803.817	0.0160049
803.895	0.0160806
803.973	0.0160084
804.051	0.0159816
804.129	0.0160149
804.207	0.0160493
804.285	0.0159722
804.363	0.0159827
804.442	0.0160030
804.520	0.0161038
804.598	0.0160484
804.676	0.0161874
804.754	0.0162100
804.832	0.0161654
804.910	0.0162593
804.988	0.0162218
805.067	0.0162240
805.145	0.0163187
805.223	0.0163222
805.301	0.0162827
805.379	0.0163667
805.457	0.0163149
805.535	0.0164237
805.613	0.0164153
805.692	0.0162875
805.770	0.0164687
805.848	0.0165828
805.926	0.0164799
806.004	0.0164160
806.082	0.0165712
806.160	0.0165426
806.238	0.0165003
806.317	0.0166640
806.395	0.0167818
806.473	0.0166892
806.551	0.0167638
806.629	0.0167720
806.707	0.0167330
806.785	0.0167937
806.863	0.0169555
806.942	0.0167592
807.020	0.0168500
807.098	0.0168974
807.176	0.0166657
807.254	0.0166245
807.332	0.0167667
807.410	0.0167225
807.488	0.0166376
807.567	0.0166560
807.645	0.0166676
807.723	0.0165573
807.801	0.0165965
807.879	0.0163445
807.957	0.0163916
808.035	0.0164537
808.113	0.0162904
808.192	0.0163910
808.270	0.0164547
808.348	0.0164838
808.426	0.0163069
808.504	0.0163140
808.582	0.0161917
808.660	0.0161885
808.738	0.0161539
808.817	0.0160699
808.895	0.0161977
808.973	0.0160785
809.051	0.0160362
809.129	0.0160690
809.207	0.0161748
809.285	0.0161052
809.363	0.0162238
809.442	0.0162605
809.520	0.0162428
809.598	0.0162615
809.676	0.0161205
809.754	0.0161710
809.832	0.0161567
809.910	0.0162508
809.988	0.0162925
810.067	0.0161568
810.145	0.0160851
810.223	0.0162014
810.301	0.0161488
810.379	0.0161448
810.457	0.0161234
810.535	0.0161568
810.613	0.0161996
810.692	0.0162318
810.770	0.0159724
810.848	0.0161461
810.926	0.0160592
811.004	0.0161429
811.082	0.0161537
811.160	0.0160535
811.238	0.0161653
811.317	0.0161528
811.395	0.0161490
811.473	0.0160966
811.551	0.0162579
811.629	0.0162659
811.707	0.0162318
811.785	0.0162086
811.863	0.0163713
811.942	0.0164388
812.020	0.0164977
812.098	0.0164333
812.176	0.0165724
812.254	0.0167096
812.332	0.0166273
812.410	0.0165475
812.488	0.0166522
812.567	0.0166222
812.645	0.0167644
812.723	0.0167327
812.801	0.0167935
812.879	0.0167844
812.957	0.0167572
813.035	0.0167858
813.113	0.0168884
813.192	0.0167903
813.270	0.0169724
813.348	0.0170184
813.426	0.0168268
813.504	0.0168568
813.582	0.0170187
813.660	0.0168016
813.738	0.0168374
813.817	0.0167181
813.895	0.0166393
813.973	0.0167429
814.051	0.0165131
814.129	0.0164122
814.207	0.0165121
814.285	0.0163344
814.363	0.0163555
814.442	0.0161417
814.520	0.0161288
814.598	0.0162509
814.676	0.0161113
814.754	0.0161385
814.832	0.0160617
814.910	0.0158983
814.988	0.0160561
815.067	0.0160992
815.145	0.0162260
815.223	0.0162326
815.301	0.0162160
815.379	0.0161214
815.457	0.0162524
815.535	0.0162526
815.613	0.0161858
815.692	0.0163518
815.770	0.0162561
815.848	0.0162848
815.926	0.0162998
816.004	0.0162090
816.082	0.0162901
816.160	0.0162994
816.238	0.0162148
816.317	0.0161510
816.395	0.0163688
816.473	0.0160424
816.551	0.0161227
816.629	0.0161646
816.707	0.0161165
816.785	0.0160076
816.863	0.0161749
816.942	0.0160836
817.020	0.0158212
817.098	0.0159199
817.176	0.0160004
817.254	0.0159649
817.332	0.0160272
817.410	0.0160825
817.488	0.0160973
817.567	0.0160863
817.645	0.0160642
817.723	0.0160801
817.801	0.0161279
817.879	0.0161186
817.957	0.0162157
818.035	0.0162617
818.113	0.0163400
818.192	0.0162774
818.270	0.0163542
818.348	0.0163393
818.426	0.0164062
818.504	0.0163654
818.582	0.0165520
818.660	0.0164580
818.738	0.0164433
818.817	0.0165298
818.895	0.0167219
818.973	0.0167203
819.051	0.0165993
819.129	0.0167370
819.207	0.0166768
819.285	0.0167302
819.363	0.0167801
819.442	0.0167156
819.520	0.0167413
819.598	0.0167829
819.676	0.0167603
819.754	0.0167298
819.832	0.0167333
819.910	0.0169259
819.988	0.0167868
820.067	0.0168182
820.145	0.0166893
820.223	0.0167441
820.301	0.0166779
820.379	0.0165325
820.457	0.0164535
820.535	0.0164088
820.613	0.0164180
820.692	0.0164903
820.770	0.0164272
820.848	0.0163978
820.926	0.0163310
821.004	0.0162990
821.082	0.0162163
821.160	0.0162933
821.238	0.0162428
821.317	0.0161362
821.395	0.0162497
821.473	0.0162686
821.551	0.0160696
821.629	0.0161496
821.707	0.0161825
821.785	0.0161982
821.863	0.0161414
821.942	0.0160920
822.020	0.0162945
822.098	0.0162042
822.176	0.0161001
822.254	0.0162379
822.332	0.0163472
822.410	0.0162369
822.488	0.0161710
822.567	0.0164336
822.645	0.0163010
822.723	0.0163072
822.801	0.0163707
822.879	0.0163986
822.957	0.0165052
823.035	0.0162994
823.113	0.0161803
823.192	0.0162010
823.270	0.0161913
823.348	0.0163217
823.426	0.0161451
823.504	0.0162065
823.582	0.0161274
823.660	0.0162206
823.738	0.0161040
823.817	0.0161805
823.895	0.0162337
823.973	0.0161729
824.051	0.0161182
824.129	0.0160271
824.207	0.0160815
824.285	0.0160677
824.363	0.0160238
824.442	0.0161620
824.520	0.0160096
824.598	0.0158994
824.676	0.0161385
824.754	0.0160195
824.832	0.0160847
824.910	0.0160616
824.988	0.0160842
825.067	0.0161794
825.145	0.0161996
825.223	0.0161671
825.301	0.0163624
825.379	0.0164342
825.457	0.0165136
825.535	0.0163346
825.613	0.0164043
825.692	0.0163523
825.770	0.0166157
825.848	0.0167250
825.926	0.0165853
826.004	0.0165176
826.082	0.0167636
826.160	0.0167184
826.238	0.0168330
826.317	0.0166586
826.395	0.0166930
826.473	0.0168745
826.551	0.0168440
826.629	0.0168317
826.707	0.0168645
826.785	0.0168533
826.863	0.0166521
826.942	0.0168353
827.020	0.0167570
827.098	0.0167215
827.176	0.0168508
827.254	0.0167697
827.332	0.0167246
827.410	0.0166117
827.488	0.0165762
827.567	0.0165030
827.645	0.0165587
827.723	0.0164806
827.801	0.0162479
827.879	0.0163831
827.957	0.0164059
828.035	0.0163394
828.113	0.0163772
828.192	0.0163222
828.270	0.0163188
828.348	0.0163627
828.426	0.0161282
828.504	0.0162804
828.582	0.0162177
828.660	0.0162924
828.738	0.0162508
828.817	0.0162259
828.895	0.0161543
828.973	0.0161661
829.051	0.0162299
829.129	0.0161496
829.207	0.0161392
829.285	0.0162236
829.363	0.0162245
829.442	0.0161478
829.520	0.0162083
829.598	0.0161756
829.676	0.0161126
829.754	0.0160829
829.832	0.0162160
829.910	0.0160805
829.988	0.0161404
830.067	0.0163294
830.145	0.0161916
830.223	0.0161777
830.301	0.0161037
830.379	0.0161359
830.457	0.0162033
830.535	0.0162165
830.613	0.0161449
830.692	0.0162811
830.770	0.0161723
830.848	0.0161855
830.926	0.0163600
831.004	0.0163167
831.082	0.0163910
831.160	0.0163107
831.238	0.0163722
831.317	0.0164588
831.395	0.0163751
831.473	0.0165051
831.551	0.0163039
831.629	0.0164182
831.707	0.0164468
831.785	0.0164304
831.863	0.0166342
831.942	0.0165949
832.020	0.0164589
832.098	0.0164257
832.176	0.0165479
832.254	0.0165432
832.332	0.0163834
832.410	0.0164840
832.488	0.0166573
832.567	0.0165485
832.645	0.0165771
832.723	0.0164836
832.801	0.0165379
832.879	0.0164447
832.957	0.0165550
833.035	0.0167106
833.113	0.0166432
833.192	0.0167229
833.270	0.0166703
833.348	0.0166037
833.426	0.0165511
833.504	0.0165101
833.582	0.0165257
833.660	0.0165369
833.738	0.0164961
833.817	0.0165963
833.895	0.0164153
833.973	0.0166058
834.051	0.0163878
834.129	0.0162794
834.207	0.0163688
834.285	0.0163743
834.363	0.0161824
834.442	0.0162873
834.520	0.0163667
834.598	0.0164261
834.676	0.0163486
834.754	0.0162482
834.832	0.0162269
834.910	0.0162371
834.988	0.0161488
835.067	0.0161332
835.145	0.0163406
835.223	0.0162743
835.301	0.0160632
835.379	0.0162822
835.457	0.0162435
835.535	0.0161351
835.613	0.0162151
835.692	0.0162991
835.770	0.0163789
835.848	0.0163792
835.926	0.0163035
836.004	0.0163728
836.082	0.0162521
836.160	0.0163813
836.238	0.0162977
836.317	0.0164391
836.395	0.0163219
836.473	0.0163434
836.551	0.0164578
836.629	0.0166035
836.707	0.0163633
836.785	0.0163029
836.863	0.0165116
836.942	0.0165794
837.020	0.0165556
837.098	0.0166423
837.176	0.0165504
837.254	0.0165691
837.332	0.0164887
837.410	0.0167931
837.488	0.0166225
837.567	0.0165160
837.645	0.0165321
837.723	0.0165685
837.801	0.0164372
837.879	0.0164792
837.957	0.0164183
838.035	0.0163500
838.113	0.0162353
838.192	0.0162639
838.270	0.0162232
838.348	0.0161945
838.426	0.0161375
838.504	0.0162037
838.582	0.0161120
838.660	0.0160863
838.738	0.0160677
838.817	0.0161779
838.895	0.0160885
838.973	0.0161518
839.051	0.0161145
839.129	0.0160464
839.207	0.0162073
839.285	0.0162259
839.363	0.0161121
839.442	0.0161802
839.520	0.0162171
839.598	0.0161564
839.676	0.0162380
839.754	0.0162963
839.832	0.0164132
839.910	0.0165018
839.988	0.0163889
840.067	0.0163925
840.145	0.0164517
840.223	0.0164447
840.301	0.0164773
840.379	0.0164867
840.457	0.0167023
840.535	0.0165350
840.613	0.0165869
840.692	0.0167336
840.770	0.0167080
840.848	0.0166574
840.926	0.0166747
841.004	0.0167312
841.082	0.0166650
841.160	0.0166982
841.238	0.0166918
841.317	0.0165533
841.395	0.0167246
841.473	0.0166378
841.551	0.0164301
841.629	0.0165564
841.707	0.0165239
841.785	0.0165597
841.863	0.0165076
841.942	0.0163787
842.020	0.0163966
842.098	0.0163210
842.176	0.0163586
842.254	0.0165096
842.332	0.0163204
842.410	0.0162818
842.488	0.0161796
842.567	0.0164031
842.645	0.0164561
842.723	0.0163325
842.801	0.0162716
842.879	0.0161623
842.957	0.0162305
843.035	0.0162572
843.113	0.0161401
843.192	0.0161698
843.270	0.0160761
843.348	0.0162644
843.426	0.0161344
843.504	0.0161739
843.582	0.0161213
843.660	0.0163072
843.738	0.0162177
843.817	0.0162180
843.895	0.0162015
843.973	0.0162386
844.051	0.0162276
844.129	0.0162634
844.207	0.0162807
844.285	0.0163353
844.363	0.0160892
844.442	0.0161640
844.520	0.0163251
844.598	0.0163580
844.676	0.0163758
844.754	0.0162949
844.832	0.0162640
844.910	0.0164342
844.988	0.0164652
845.067	0.0164005
845.145	0.0162405
845.223	0.0163075
845.301	0.0162964
845.379	0.0165523
845.457	0.0164927
845.535	0.0164870
845.613	0.0163361
845.692	0.0163238
845.770	0.0163301
845.848	0.0164346
845.926	0.0163787
846.004	0.0164780
846.082	0.0164369
846.160	0.0163210
846.238	0.0162611
846.317	0.0163923
846.395	0.0163339
846.473	0.0163271
846.551	0.0162888
846.629	0.0162596
846.707	0.0162601
846.785	0.0162177
846.863	0.0164043
846.942	0.0163642
847.020	0.0162436
847.098	0.0162949
847.176	0.0162173
847.254	0.0163620
847.332	0.0163410
847.410	0.0163457
847.488	0.0161581
847.567	0.0161629
847.645	0.0163290
847.723	0.0162899
847.801	0.0161781
847.879	0.0162660
847.957	0.0162706
848.035	0.0162003
848.113	0.0162968
848.192	0.0163091
848.270	0.0163244
848.348	0.0162621
848.426	0.0163496
848.504	0.0162943
848.582	0.0163229
848.660	0.0164954
848.738	0.0163693
848.817	0.0164892
848.895	0.0164178
848.973	0.0165408
849.051	0.0164529
849.129	0.0164158
849.207	0.0164691
849.285	0.0165636
849.363	0.0165675
849.442	0.0167274
849.520	0.0165092
849.598	0.0165545
849.676	0.0165013
849.754	0.0165785
849.832	0.0166911
849.910	0.0166867
849.988	0.0166037
850.067	0.0166927
850.145	0.0165990
850.223	0.0165110
850.301	0.0166769
850.379	0.0167116
850.457	0.0165911
850.535	0.0166389
850.613	0.0164061
850.692	0.0164356
850.770	0.0163487
850.848	0.0163901
850.926	0.0162606
851.004	0.0163424
851.082	0.0163298
851.160	0.0163476
851.238	0.0161724
851.317	0.0161465
851.395	0.0161342
851.473	0.0160881
851.551	0.0160247
851.629	0.0159508
851.707	0.0160019
851.785	0.0160755
851.863	0.0160065
851.942	0.0160390
852.020	0.0160732
852.098	0.0158898
852.176	0.0159898
852.254	0.0160784
852.332	0.0160495
852.410	0.0160148
852.488	0.0161016
852.567	0.0161634
852.645	0.0161203
852.723	0.0163491
852.801	0.0163093
852.879	0.0161976
852.957	0.0162206
853.035	0.0163480
853.113	0.0164783
853.192	0.0164896
853.270	0.0165079
853.348	0.0164809
853.426	0.0164440
853.504	0.0165203
853.582	0.0165124
853.660	0.0165528
853.738	0.0166268
853.817	0.0166638
853.895	0.0164825
853.973	0.0163891
854.051	0.0165726
854.129	0.0164980
854.207	0.0165856
854.285	0.0164639
854.363	0.0165215
854.442	0.0165270
854.520	0.0165833
854.598	0.0167181
854.676	0.0165399
854.754	0.0164542
854.832	0.0166109
854.910	0.0166180
854.988	0.0165276
855.067	0.0165034
855.145	0.0164375
855.223	0.0163979
855.301	0.0165862
855.379	0.0164490
855.457	0.0163772
855.535	0.0163676
855.613	0.0162740
855.692	0.0160278
855.770	0.0162261
855.848	0.0163979
855.926	0.0162712
856.004	0.0162728
856.082	0.0161411
856.160	0.0162905
856.238	0.0163725
856.317	0.0163998
856.395	0.0163192
856.473	0.0162891
856.551	0.0162798
856.629	0.0164074
856.707	0.0163108
856.785	0.0162550
856.863	0.0163223
856.942	0.0164012
857.020	0.0164053
857.098	0.0164042
857.176	0.0163929
857.254	0.0165289
857.332	0.0164564
857.410	0.0165559
857.488	0.0165311
857.567	0.0164139
857.645	0.0165238
857.723	0.0164128
857.801	0.0163796
857.879	0.0165335
857.957	0.0165094
858.035	0.0163671
858.113	0.0163914
858.192	0.0163803
858.270	0.0163167
858.348	0.0162372
858.426	0.0162241
858.504	0.0163503
858.582	0.0162901
858.660	0.0162346
858.738	0.0161426
858.817	0.0162635
858.895	0.0163078
858.973	0.0163771
859.051	0.0164100
859.129	0.0163274
859.207	0.0163235
859.285	0.0164863
859.363	0.0164479
859.442	0.0165063
859.520	0.0163724
859.598	0.0163815
859.676	0.0164330
859.754	0.0163248
859.832	0.0163615
859.910	0.0162493
859.988	0.0163117
860.067	0.0165407
860.145	0.0166311
860.223	0.0164375
860.301	0.0165932
860.379	0.0165495
860.457	0.0165816
860.535	0.0165469
860.613	0.0165301
860.692	0.0166042
860.770	0.0165715
860.848	0.0166308
860.926	0.0164787
861.004	0.0165428
861.082	0.0165881
861.160	0.0165078
861.238	0.0164805
861.317	0.0164973
861.395	0.0163441
861.473	0.0164922
861.551	0.0164198
861.629	0.0163420
861.707	0.0164410
861.785	0.0164269
861.863	0.0162267
861.942	0.0163954
862.020	0.0162961
862.098	0.0162374
862.176	0.0162260
862.254	0.0162385
862.332	0.0161356
862.410	0.0161395
862.488	0.0162173
862.567	0.0162775
862.645	0.0161761
862.723	0.0162351
862.801	0.0162239
862.879	0.0164162
862.957	0.0164149
863.035	0.0163577
863.113	0.0162824
863.192	0.0165012
863.270	0.0164730
863.348	0.0163722
863.426	0.0164031
863.504	0.0165202
863.582	0.0164937
863.660	0.0165804
863.738	0.0164506
863.817	0.0162188
863.895	0.0163364
863.973	0.0162908
864.051	0.0162387
864.129	0.0162086
864.207	0.0161629
864.285	0.0161348
864.363	0.0160478
864.442	0.0161027
864.520	0.0160482
864.598	0.0159818
864.676	0.0160989
864.754	0.0160942
864.832	0.0161869
864.910	0.0162224
864.988	0.0162928
865.067	0.0163649
865.145	0.0165067
865.223	0.0165170
865.301	0.0164767
865.379	0.0165020
865.457	0.0165096
865.535	0.0164979
865.613	0.0164417
865.692	0.0166334
865.770	0.0166545
865.848	0.0166470
865.926	0.0166686
866.004	0.0167162
866.082	0.0167222
866.160	0.0166552
866.238	0.0165430
866.317	0.0165591
866.395	0.0164731
866.473	0.0164044
866.551	0.0165095
866.629	0.0163822
866.707	0.0162738
866.785	0.0162695
866.863	0.0162177
866.942	0.0161116
867.020	0.0160913
867.098	0.0160782
867.176	0.0160320
867.254	0.0161179
867.332	0.0161086
867.410	0.0161488
867.488	0.0161242
867.567	0.0161272
867.645	0.0162718
867.723	0.0161239
867.801	0.0161444
867.879	0.0162870
867.957	0.0162692
868.035	0.0163609
868.113	0.0164193
868.192	0.0164793
868.270	0.0164626
868.348	0.0164303
868.426	0.0166944
868.504	0.0165759
868.582	0.0165809
868.660	0.0166054
868.738	0.0163798
868.817	0.0164986
868.895	0.0165836
868.973	0.0166397
869.051	0.0164819
869.129	0.0165601
869.207	0.0163998
869.285	0.0164785
869.363	0.0164938
869.442	0.0164460
869.520	0.0163556
869.598	0.0165068
869.676	0.0164388
869.754	0.0164667
869.832	0.0165019
869.910	0.0165900
869.988	0.0165768
870.067	0.0163103
870.145	0.0164275
870.223	0.0162497
870.301	0.0161163
870.379	0.0162241
870.457	0.0161469
870.535	0.0159985
870.613	0.0159373
870.692	0.0159122
870.770	0.0158675
870.848	0.0159032
870.926	0.0159135
871.004	0.0160269
871.082	0.0160665
871.160	0.0160170
871.238	0.0161389
871.317	0.0162901
871.395	0.0162029
871.473	0.0164487
871.551	0.0164915
871.629	0.0163597
871.707	0.0164468
871.785	0.0166156
871.863	0.0165079
871.942	0.0164827
872.020	0.0165543
872.098	0.0164246
872.176	0.0165231
872.254	0.0165470
872.332	0.0163818
872.410	0.0165759
872.488	0.0165363
872.567	0.0165482
872.645	0.0165427
872.723	0.0165681
872.801	0.0166263
872.879	0.0166610
872.957	0.0165485
873.035	0.0165244
873.113	0.0165431
873.192	0.0166495
873.270	0.0165974
873.348	0.0166942
873.426	0.0166621
873.504	0.0166552
873.582	0.0166627
873.660	0.0166434
873.738	0.0165884
873.817	0.0166943
873.895	0.0166035
873.973	0.0165419
874.051	0.0164413
874.129	0.0165582
874.207	0.0164849
874.285	0.0163387
874.363	0.0162904
874.442	0.0164182
874.520	0.0162984
874.598	0.0161462
874.676	0.0163415
874.754	0.0163273
874.832	0.0163367
874.910	0.0163400
874.988	0.0165501
875.067	0.0165136
875.145	0.0164577
875.223	0.0165330
875.301	0.0166111
875.379	0.0165338
875.457	0.0165243
875.535	0.0165616
875.613	0.0165128
875.692	0.0164098
875.770	0.0164853
875.848	0.0163985
875.926	0.0163125
876.004	0.0162839
876.082	0.0162978
876.160	0.0163156
876.238	0.0163046
876.317	0.0162789
876.395	0.0161657
876.473	0.0161069
876.551	0.0162335
876.629	0.0161765
876.707	0.0161889
876.785	0.0162428
876.863	0.0162786
876.942	0.0163078
877.020	0.0162935
877.098	0.0163705
877.176	0.0163992
877.254	0.0165089
877.332	0.0165393
877.410	0.0163931
877.488	0.0164532
877.567	0.0163990
877.645	0.0163203
877.723	0.0164050
877.801	0.0163692
877.879	0.0163415
877.957	0.0163302
878.035	0.0163439
878.113	0.0164204
878.192	0.0164732
878.270	0.0163680
878.348	0.0163017
878.426	0.0165025
878.504	0.0164640
878.582	0.0166425
878.660	0.0165886
878.738	0.0165508
878.817	0.0165347
878.895	0.0164853
878.973	0.0165416
879.051	0.0166628
879.129	0.0165328
879.207	0.0164939
879.285	0.0166029
879.363	0.0165633
879.442	0.0164053
879.520	0.0165356
879.598	0.0165449
879.676	0.0165907
879.754	0.0164336
879.832	0.0164920
879.910	0.0165186
879.988	0.0165115
880.067	0.0164043
880.145	0.0163774
880.223	0.0163490
880.301	0.0162930
880.379	0.0163728
880.457	0.0164362
880.535	0.0164031
880.613	0.0163805
880.692	0.0164032
880.770	0.0165453
880.848	0.0166939
880.926	0.0166320
881.004	0.0164573
881.082	0.0166617
881.160	0.0165871
881.238	0.0165526
881.317	0.0166992
881.395	0.0165922
881.473	0.0166307
881.551	0.0165581
881.629	0.0164353
881.707	0.0165230
881.785	0.0165996
881.863	0.0163160
881.942	0.0164268
882.020	0.0164091
882.098	0.0163835
882.176	0.0163267
882.254	0.0161404
882.332	0.0161518
882.410	0.0162284
882.488	0.0161757
882.567	0.0159365
882.645	0.0161162
882.723	0.0161548
882.801	0.0161288
882.879	0.0162032
882.957	0.0160727
883.035	0.0159801
883.113	0.0161592
883.192	0.0162017
883.270	0.0162511
883.348	0.0163625
883.426	0.0161853
883.504	0.0162222
883.582	0.0163052
883.660	0.0162366
883.738	0.0162449
883.817	0.0162344
883.895	0.0162392
883.973	0.0163300
884.051	0.0162119
884.129	0.0163097
884.207	0.0164724
884.285	0.0164239
884.363	0.0164462
884.442	0.0164982
884.520	0.0164174
884.598	0.0164571
884.676	0.0165412
884.754	0.0166592
884.832	0.0166455
884.910	0.0166496
884.988	0.0166780
885.067	0.0166740
885.145	0.0167312
885.223	0.0166167
885.301	0.0163091
885.379	0.0165330
885.457	0.0165556
885.535	0.0165310
885.613	0.0165048
885.692	0.0163660
885.770	0.0164072
885.848	0.0164528
885.926	0.0164213
886.004	0.0163138
886.082	0.0162902
886.160	0.0163010
886.238	0.0162867
886.317	0.0160914
886.395	0.0163046
886.473	0.0163647
886.551	0.0163030
886.629	0.0161097
886.707	0.0160291
886.785	0.0161815
886.863	0.0162946
886.942	0.0162448
887.020	0.0162795
887.098	0.0164402
887.176	0.0163898
887.254	0.0162987
887.332	0.0164506
887.410	0.0164330
887.488	0.0163605
887.567	0.0162354
887.645	0.0162894
887.723	0.0162840
887.801	0.0164594
887.879	0.0164030
887.957	0.0164276
888.035	0.0163982
888.113	0.0165069
888.192	0.0166476
888.270	0.0166896
888.348	0.0166897
888.426	0.0166649
888.504	0.0167583
888.582	0.0166680
888.660	0.0166063
888.738	0.0167056
888.817	0.0165678
888.895	0.0164912
888.973	0.0165776
889.051	0.0164507
889.129	0.0164247
889.207	0.0166026
889.285	0.0164699
889.363	0.0164250
889.442	0.0164211
889.520	0.0161880
889.598	0.0163164
889.676	0.0163019
889.754	0.0162245
889.832	0.0162531
889.910	0.0161687
889.988	0.0161427
890.067	0.0162410
890.145	0.0160266
890.223	0.0160571
890.301	0.0160472
890.379	0.0160880
890.457	0.0160143
890.535	0.0160941
890.613	0.0161162
890.692	0.0160986
890.770	0.0159399
890.848	0.0160548
890.926	0.0160614
891.004	0.0161172
891.082	0.0160968
891.160	0.0163837
891.238	0.0162115
891.317	0.0162504
891.395	0.0162882
891.473	0.0163167
891.551	0.0163356
891.629	0.0165988
891.707	0.0165166
891.785	0.0165099
891.863	0.0165988
891.942	0.0166941
892.020	0.0165981
892.098	0.0166119
892.176	0.0166808
892.254	0.0165525
892.332	0.0167451
892.410	0.0166444
892.488	0.0165818
892.567	0.0164849
892.645	0.0163622
892.723	0.0162570
892.801	0.0163078
892.879	0.0163313
892.957	0.0161656
893.035	0.0162635
893.113	0.0162527
893.192	0.0163401
893.270	0.0161997
893.348	0.0162640
893.426	0.0162796
893.504	0.0164988
893.582	0.0164793
893.660	0.0165258
893.738	0.0165720
893.817	0.0167311
893.895	0.0165260
893.973	0.0166669
894.051	0.0166525
894.129	0.0166386
894.207	0.0164911
894.285	0.0166445
894.363	0.0166187
894.442	0.0166533
894.520	0.0165475
894.598	0.0165273
894.676	0.0165585
894.754	0.0166848
894.832	0.0164214
894.910	0.0165405
894.988	0.0165955
895.067	0.0166219
895.145	0.0164095
895.223	0.0164330
895.301	0.0164844
895.379	0.0164738
895.457	0.0165507
895.535	0.0164448
895.613	0.0164848
895.692	0.0163841
895.770	0.0163120
895.848	0.0163155
895.926	0.0163319
896.004	0.0163795
896.082	0.0161709
896.160	0.0163737
896.238	0.0163113
896.317	0.0162144
896.395	0.0162271
896.473	0.0162942
896.551	0.0162641
896.629	0.0162099
896.707	0.0162096
896.785	0.0162854
896.863	0.0161839
896.942	0.0161998
897.020	0.0160976
897.098	0.0161674
897.176	0.0161723
897.254	0.0161888
897.332	0.0161349
897.410	0.0163040
897.488	0.0161606
897.567	0.0162484
897.645	0.0161936
897.723	0.0161759
897.801	0.0163771
897.879	0.0164590
897.957	0.0164470
898.035	0.0163586
898.113	0.0166573
898.192	0.0165266
898.270	0.0165234
898.348	0.0166840
898.426	0.0167559
898.504	0.0166959
898.582	0.0165619
898.660	0.0167380
898.738	0.0167325
898.817	0.0166302
898.895	0.0167371
898.973	0.0165641
899.051	0.0165388
899.129	0.0167156
899.207	0.0165256
899.285	0.0164754
899.363	0.0164944
899.442	0.0165251
899.520	0.0164560
899.598	0.0164233
899.676	0.0162917
899.754	0.0163386
899.832	0.0163540
899.910	0.0162427
899.988	0.0162314
900.067	0.0162843
900.145	0.0163864
900.223	0.0164909
900.301	0.0164730
900.379	0.0165067
900.457	0.0164484
900.535	0.0164557
900.613	0.0166930
900.692	0.0167299
900.770	0.0166162
900.848	0.0165260
900.926	0.0166047
901.004	0.0166000
901.082	0.0165362
901.160	0.0164613
901.238	0.0165309
901.317	0.0163656
901.395	0.0162746
901.473	0.0164240
901.551	0.0164076
901.629	0.0163220
901.707	0.0162108
901.785	0.0165024
901.863	0.0164349
901.942	0.0163896
902.020	0.0164675
902.098	0.0164646
902.176	0.0164349
902.254	0.0163911
902.332	0.0164681
902.410	0.0163977
902.488	0.0164183
902.567	0.0163486
902.645	0.0163473
902.723	0.0163726
902.801	0.0162946
902.879	0.0162927
902.957	0.0163629
903.035	0.0163507
903.113	0.0162599
903.192	0.0162966
903.270	0.0163285
903.348	0.0164072
903.426	0.0164314
903.504	0.0163499
903.582	0.0164540
903.660	0.0164230
903.738	0.0163996
903.817	0.0165112
903.895	0.0163940
903.973	0.0165248
904.051	0.0163600
904.129	0.0164912
904.207	0.0165829
904.285	0.0165836
904.363	0.0164710
904.442	0.0165308
904.520	0.0164710
904.598	0.0164468
904.676	0.0165275
904.754	0.0167786
904.832	0.0167250
904.910	0.0165502
904.988	0.0165092
905.067	0.0165462
905.145	0.0165633
905.223	0.0164740
905.301	0.0164602
905.379	0.0163154
905.457	0.0162298
905.535	0.0162852
905.613	0.0162788
905.692	0.0162231
905.770	0.0162470
905.848	0.0161450
905.926	0.0160663
906.004	0.0159847
906.082	0.0160408
906.160	0.0162460
906.238	0.0161922
906.317	0.0160748
906.395	0.0160433
906.473	0.0160551
906.551	0.0162682
906.629	0.0164610
906.707	0.0163374
906.785	0.0163960
906.863	0.0163622
906.942	0.0165656
907.020	0.0164549
907.098	0.0166266
907.176	0.0166267
907.254	0.0165209
907.332	0.0164732
907.410	0.0165969
907.488	0.0165952
907.567	0.0165614
907.645	0.0165154
907.723	0.0164149
907.801	0.0165069
907.879	0.0163130
907.957	0.0163021
908.035	0.0162529
908.113	0.0162376
908.192	0.0162868
908.270	0.0161703
908.348	0.0161723
908.426	0.0162794
908.504	0.0161777
908.582	0.0162167
908.660	0.0160531
908.738	0.0160944
908.817	0.0161014
908.895	0.0161979
908.973	0.0161102
909.051	0.0161521
909.129	0.0162109
909.207	0.0162061
909.285	0.0161755
909.363	0.0161781
909.442	0.0162603
909.520	0.0162318
909.598	0.0161861
909.676	0.0162619
909.754	0.0161790
909.832	0.0164659
909.910	0.0164790
909.988	0.0165922
910.067	0.0167231
910.145	0.0167472
910.223	0.0166064
910.301	0.0167072
910.379	0.0169307
910.457	0.0166831
910.535	0.0167507
910.613	0.0167573
910.692	0.0166942
910.770	0.0166820
910.848	0.0166769
910.926	0.0166139
911.004	0.0165247
911.082	0.0165044
911.160	0.0163718
911.238	0.0164751
911.317	0.0163827
911.395	0.0162870
911.473	0.0161712
911.551	0.0162141
911.629	0.0162706
911.707	0.0162978
911.785	0.0162256
911.863	0.0161506
911.942	0.0160867
912.020	0.0161616
912.098	0.0162463
912.176	0.0159530
912.254	0.0162109
912.332	0.0161720
912.410	0.0161864
912.488	0.0161433
912.567	0.0162548
912.645	0.0162672
912.723	0.0162393
912.801	0.0161853
912.879	0.0164027
912.957	0.0164141
913.035	0.0165216
913.113	0.0163821
913.192	0.0163689
913.270	0.0163289
913.348	0.0163818
913.426	0.0164747
913.504	0.0162934
913.582	0.0163857
913.660	0.0165356
913.738	0.0162777
913.817	0.0162445
913.895	0.0164307
913.973	0.0163932
914.051	0.0163284
914.129	0.0163617
914.207	0.0164494
914.285	0.0161794
914.363	0.0163059
914.442	0.0163306
914.520	0.0162552
914.598	0.0162270
914.676	0.0163686
914.754	0.0162543
914.832	0.0163692
914.910	0.0163634
914.988	0.0163371
915.067	0.0164278
915.145	0.0163239
915.223	0.0163792
915.301	0.0163478
915.379	0.0162691
915.457	0.0164890
915.535	0.0163400
915.613	0.0162766
915.692	0.0162970
915.770	0.0161828
915.848	0.0161780
915.926	0.0162047
916.004	0.0162888
916.082	0.0163073
916.160	0.0163920
916.238	0.0163401
916.317	0.0164799
916.395	0.0165003
916.473	0.0164609
916.551	0.0166048
916.629	0.0164820
916.707	0.0166217
916.785	0.0166045
916.863	0.0166637
916.942	0.0166009
917.020	0.0166241
917.098	0.0166401
917.176	0.0167529
917.254	0.0166326
917.332	0.0167303
917.410	0.0166470
917.488	0.0165727
917.567	0.0166028
917.645	0.0164870
917.723	0.0164744
917.801	0.0165475
917.879	0.0164759
917.957	0.0164359
918.035	0.0163071
918.113	0.0163531
918.192	0.0162192
918.270	0.0162825
918.348	0.0161638
918.426	0.0163442
918.504	0.0162719
918.582	0.0162509
918.660	0.0161487
918.738	0.0161743
918.817	0.0162030
918.895	0.0163667
918.973	0.0162148
919.051	0.0163293
919.129	0.0161004
919.207	0.0162170
919.285	0.0162042
919.363	0.0162665
919.442	0.0162004
919.520	0.0162170
919.598	0.0162764
919.676	0.0162446
919.754	0.0164049
919.832	0.0162997
919.910	0.0163142
