05/24/2022	20:22:54	Ver.	4.1	UNKNOWN
Optical Delay	599.981738	Delta X		0.078125	Sweeps	1	Scan Rate	0/0
Coordinates	Axis 1	NaN	Axis 2	NaN	Axis 3	NaN	Axis 4	NaN	Axis 5	NaN	Axis 6	0.000000
TX Power	0.000000	RX Power	0.000000

599.982	0.0164856
600.060	0.0164982
600.138	0.0164687
600.216	0.0164274
600.294	0.0165596
600.372	0.0164688
600.450	0.0163789
600.529	0.0165890
600.607	0.0164721
600.685	0.0163756
600.763	0.0165188
600.841	0.0164144
600.919	0.0163184
600.997	0.0165969
601.075	0.0165269
601.154	0.0164761
601.232	0.0164999
601.310	0.0165099
601.388	0.0165208
601.466	0.0163274
601.544	0.0163110
601.622	0.0164983
601.700	0.0164596
601.779	0.0163718
601.857	0.0164212
601.935	0.0164551
602.013	0.0163127
602.091	0.0163746
602.169	0.0164980
602.247	0.0165040
602.325	0.0165246
602.404	0.0165282
602.482	0.0163719
602.560	0.0164239
602.638	0.0164742
602.716	0.0165761
602.794	0.0164859
602.872	0.0164502
602.950	0.0165201
603.029	0.0165907
603.107	0.0165739
603.185	0.0165423
603.263	0.0165974
603.341	0.0164893
603.419	0.0166522
603.497	0.0164956
603.575	0.0164240
603.654	0.0164587
603.732	0.0165816
603.810	0.0166048
603.888	0.0164907
603.966	0.0164258
604.044	0.0164315
604.122	0.0164833
604.200	0.0166270
604.279	0.0165836
604.357	0.0165949
604.435	0.0166124
604.513	0.0166084
604.591	0.0165224
604.669	0.0164915
604.747	0.0166447
604.825	0.0165460
604.904	0.0165344
604.982	0.0164700
605.060	0.0165167
605.138	0.0164735
605.216	0.0166199
605.294	0.0163503
605.372	0.0165041
605.450	0.0166334
605.529	0.0165283
605.607	0.0166573
605.685	0.0165536
605.763	0.0166225
605.841	0.0165101
605.919	0.0165832
605.997	0.0164459
606.075	0.0166116
606.154	0.0165073
606.232	0.0165678
606.310	0.0166775
606.388	0.0166557
606.466	0.0164679
606.544	0.0164951
606.622	0.0165662
606.700	0.0165706
606.779	0.0164130
606.857	0.0164612
606.935	0.0167232
607.013	0.0165318
607.091	0.0165125
607.169	0.0164909
607.247	0.0165665
607.325	0.0165348
607.404	0.0165764
607.482	0.0166499
607.560	0.0165724
607.638	0.0165685
607.716	0.0165089
607.794	0.0164968
607.872	0.0166049
607.950	0.0165799
608.029	0.0163869
608.107	0.0165195
608.185	0.0165036
608.263	0.0165734
608.341	0.0164837
608.419	0.0166025
608.497	0.0166245
608.575	0.0165418
608.654	0.0166887
608.732	0.0165901
608.810	0.0165649
608.888	0.0166340
608.966	0.0165443
609.044	0.0164969
609.122	0.0166453
609.200	0.0165466
609.279	0.0165561
609.357	0.0166837
609.435	0.0165534
609.513	0.0165344
609.591	0.0165050
609.669	0.0165748
609.747	0.0166580
609.825	0.0165928
609.904	0.0165468
609.982	0.0165356
610.060	0.0165255
610.138	0.0165375
610.216	0.0165052
610.294	0.0164467
610.372	0.0165129
610.450	0.0165874
610.529	0.0165527
610.607	0.0165601
610.685	0.0165909
610.763	0.0165421
610.841	0.0165856
610.919	0.0165118
610.997	0.0166432
611.075	0.0166493
611.154	0.0165336
611.232	0.0165562
611.310	0.0165543
611.388	0.0166125
611.466	0.0164970
611.544	0.0166284
611.622	0.0164132
611.700	0.0166249
611.779	0.0165718
611.857	0.0163766
611.935	0.0166679
612.013	0.0166272
612.091	0.0165079
612.169	0.0165697
612.247	0.0165260
612.325	0.0165383
612.404	0.0164847
612.482	0.0164143
612.560	0.0164969
612.638	0.0166097
612.716	0.0165855
612.794	0.0167757
612.872	0.0165703
612.950	0.0165800
613.029	0.0165574
613.107	0.0166639
613.185	0.0166695
613.263	0.0164848
613.341	0.0165710
613.419	0.0166584
613.497	0.0165466
613.575	0.0163740
613.654	0.0165742
613.732	0.0165161
613.810	0.0165126
613.888	0.0167268
613.966	0.0165145
614.044	0.0165247
614.122	0.0166819
614.200	0.0165755
614.279	0.0164691
614.357	0.0166328
614.435	0.0166223
614.513	0.0165139
614.591	0.0164970
614.669	0.0165478
614.747	0.0165807
614.825	0.0166289
614.904	0.0165388
614.982	0.0165385
615.060	0.0165585
615.138	0.0167117
615.216	0.0165891
615.294	0.0165982
615.372	0.0167759
615.450	0.0165598
615.529	0.0164896
615.607	0.0166361
615.685	0.0165784
615.763	0.0165574
615.841	0.0166262
615.919	0.0165037
615.997	0.0164658
616.075	0.0166045
616.154	0.0164617
616.232	0.0163401
616.310	0.0165525
616.388	0.0165797
616.466	0.0163648
616.544	0.0164529
616.622	0.0165010
616.700	0.0166545
616.779	0.0165276
616.857	0.0164924
616.935	0.0164043
617.013	0.0165860
617.091	0.0166448
617.169	0.0166248
617.247	0.0165356
617.325	0.0166127
617.404	0.0165350
617.482	0.0164755
617.560	0.0164920
617.638	0.0165440
617.716	0.0164677
617.794	0.0164840
617.872	0.0164913
617.950	0.0164927
618.029	0.0165134
618.107	0.0165510
618.185	0.0164156
618.263	0.0164748
618.341	0.0164628
618.419	0.0165573
618.497	0.0164635
618.575	0.0164742
618.654	0.0165883
618.732	0.0165759
618.810	0.0164794
618.888	0.0165365
618.966	0.0165261
619.044	0.0164617
619.122	0.0164066
619.200	0.0165218
619.279	0.0164621
619.357	0.0167181
619.435	0.0164722
619.513	0.0165415
619.591	0.0163660
619.669	0.0163731
619.747	0.0165912
619.825	0.0165082
619.904	0.0165933
619.982	0.0164360
620.060	0.0166757
620.138	0.0165301
620.216	0.0164915
620.294	0.0164111
620.372	0.0164376
620.450	0.0164085
620.529	0.0165370
620.607	0.0165536
620.685	0.0165343
620.763	0.0165177
620.841	0.0164903
620.919	0.0163787
620.997	0.0164689
621.075	0.0165948
621.154	0.0165267
621.232	0.0164082
621.310	0.0165143
621.388	0.0164619
621.466	0.0164297
621.544	0.0165161
621.622	0.0165510
621.700	0.0164532
621.779	0.0164886
621.857	0.0166357
621.935	0.0166276
622.013	0.0164888
622.091	0.0164324
622.169	0.0164124
622.247	0.0164942
622.325	0.0165310
622.404	0.0164285
622.482	0.0163785
622.560	0.0164378
622.638	0.0164594
622.716	0.0166438
622.794	0.0165199
622.872	0.0164362
622.950	0.0165279
623.029	0.0163743
623.107	0.0165373
623.185	0.0166534
623.263	0.0165601
623.341	0.0164114
623.419	0.0164792
623.497	0.0163668
623.575	0.0165739
623.654	0.0165798
623.732	0.0165013
623.810	0.0165075
623.888	0.0165514
623.966	0.0167134
624.044	0.0164653
624.122	0.0164219
624.200	0.0164558
624.279	0.0165154
624.357	0.0166135
624.435	0.0165192
624.513	0.0165549
624.591	0.0165603
624.669	0.0165372
624.747	0.0163982
624.825	0.0163724
624.904	0.0164686
624.982	0.0164661
625.060	0.0165771
625.138	0.0164776
625.216	0.0163978
625.294	0.0164294
625.372	0.0165160
625.450	0.0164671
625.529	0.0165844
625.607	0.0166048
625.685	0.0164844
625.763	0.0164906
625.841	0.0165172
625.919	0.0165643
625.997	0.0165524
626.075	0.0164317
626.154	0.0164951
626.232	0.0166513
626.310	0.0165938
626.388	0.0165058
626.466	0.0163742
626.544	0.0164287
626.622	0.0164882
626.700	0.0165532
626.779	0.0165559
626.857	0.0164056
626.935	0.0165584
627.013	0.0165125
627.091	0.0165176
627.169	0.0164170
627.247	0.0165370
627.325	0.0164374
627.404	0.0164115
627.482	0.0163940
627.560	0.0164336
627.638	0.0165129
627.716	0.0165023
627.794	0.0165420
627.872	0.0166053
627.950	0.0165956
628.029	0.0165240
628.107	0.0165356
628.185	0.0165444
628.263	0.0164397
628.341	0.0164786
628.419	0.0164777
628.497	0.0163889
628.575	0.0164734
628.654	0.0164566
628.732	0.0164431
628.810	0.0165269
628.888	0.0165028
628.966	0.0165326
629.044	0.0166154
629.122	0.0164143
629.200	0.0165472
629.279	0.0166470
629.357	0.0164136
629.435	0.0164419
629.513	0.0165403
629.591	0.0165366
629.669	0.0165101
629.747	0.0165450
629.825	0.0166265
629.904	0.0164965
629.982	0.0164910
630.060	0.0166537
630.138	0.0166064
630.216	0.0165356
630.294	0.0164853
630.372	0.0164534
630.450	0.0165478
630.529	0.0165289
630.607	0.0165265
630.685	0.0165623
630.763	0.0164825
630.841	0.0164674
630.919	0.0164576
630.997	0.0165643
631.075	0.0166773
631.154	0.0165670
631.232	0.0165395
631.310	0.0164595
631.388	0.0165529
631.466	0.0165676
631.544	0.0165956
631.622	0.0165282
631.700	0.0163753
631.779	0.0166481
631.857	0.0165972
631.935	0.0165682
632.013	0.0164878
632.091	0.0165221
632.169	0.0165675
632.247	0.0165600
632.325	0.0166019
632.404	0.0167009
632.482	0.0166373
632.560	0.0165244
632.638	0.0164913
632.716	0.0166490
632.794	0.0165141
632.872	0.0166236
632.950	0.0166651
633.029	0.0166127
633.107	0.0165716
633.185	0.0166417
633.263	0.0167711
633.341	0.0166312
633.419	0.0165492
633.497	0.0166091
633.575	0.0162905
633.654	0.0166158
633.732	0.0165766
633.810	0.0166055
633.888	0.0164652
633.966	0.0164720
634.044	0.0164150
634.122	0.0164253
634.200	0.0164413
634.279	0.0164320
634.357	0.0163665
634.435	0.0162272
634.513	0.0162657
634.591	0.0163223
634.669	0.0162690
634.747	0.0163092
634.825	0.0162835
634.904	0.0161749
634.982	0.0164407
635.060	0.0163875
635.138	0.0164449
635.216	0.0164643
635.294	0.0165779
635.372	0.0166250
635.450	0.0168114
635.529	0.0166364
635.607	0.0167189
635.685	0.0167797
635.763	0.0167388
635.841	0.0169813
635.919	0.0170819
635.997	0.0170030
636.075	0.0171356
636.154	0.0169655
636.232	0.0170254
636.310	0.0170660
636.388	0.0169955
636.466	0.0169770
636.544	0.0169519
636.622	0.0167486
636.700	0.0167960
636.779	0.0166459
636.857	0.0164592
636.935	0.0165365
637.013	0.0163460
637.091	0.0161313
637.169	0.0161579
637.247	0.0161552
637.325	0.0159850
637.404	0.0159985
637.482	0.0160326
637.560	0.0159731
637.638	0.0160798
637.716	0.0159798
637.794	0.0160490
637.872	0.0159496
637.950	0.0159582
638.029	0.0160941
638.107	0.0162380
638.185	0.0162395
638.263	0.0163074
638.341	0.0164824
638.419	0.0163440
638.497	0.0165942
638.575	0.0165794
638.654	0.0166338
638.732	0.0166943
638.810	0.0167780
638.888	0.0167060
638.966	0.0168398
639.044	0.0168139
639.122	0.0168271
639.200	0.0170001
639.279	0.0168793
639.357	0.0170411
639.435	0.0169480
639.513	0.0171415
639.591	0.0170707
639.669	0.0171267
639.747	0.0171299
639.825	0.0171308
639.904	0.0170002
639.982	0.0168901
640.060	0.0169447
640.138	0.0169865
640.216	0.0169873
640.294	0.0167318
640.372	0.0167259
640.450	0.0166206
640.529	0.0165396
640.607	0.0165399
640.685	0.0160629
640.763	0.0161456
640.841	0.0160664
640.919	0.0158304
640.997	0.0157592
641.075	0.0158674
641.154	0.0157773
641.232	0.0157533
641.310	0.0157843
641.388	0.0157136
641.466	0.0156831
641.544	0.0158932
641.622	0.0158892
641.700	0.0158015
641.779	0.0160411
641.857	0.0159416
641.935	0.0161224
642.013	0.0162781
642.091	0.0163927
642.169	0.0164407
642.247	0.0165406
642.325	0.0167276
642.404	0.0167825
642.482	0.0169322
642.560	0.0170936
642.638	0.0169614
642.716	0.0170873
642.794	0.0170524
642.872	0.0171917
642.950	0.0171912
643.029	0.0173432
643.107	0.0172268
643.185	0.0172102
643.263	0.0172205
643.341	0.0171513
643.419	0.0171557
643.497	0.0171529
643.575	0.0170654
643.654	0.0167392
643.732	0.0169096
643.810	0.0168607
643.888	0.0167501
643.966	0.0167295
644.044	0.0166118
644.122	0.0165869
644.200	0.0165453
644.279	0.0163335
644.357	0.0162612
644.435	0.0162721
644.513	0.0161156
644.591	0.0159095
644.669	0.0159411
644.747	0.0158181
644.825	0.0157143
644.904	0.0156931
644.982	0.0155056
645.060	0.0154555
645.138	0.0154325
645.216	0.0155037
645.294	0.0155209
645.372	0.0155810
645.450	0.0155551
645.529	0.0156383
645.607	0.0157792
645.685	0.0160827
645.763	0.0160556
645.841	0.0160811
645.919	0.0163892
645.997	0.0166681
646.075	0.0166277
646.154	0.0169880
646.232	0.0170223
646.310	0.0171011
646.388	0.0172855
646.466	0.0173514
646.544	0.0174445
646.622	0.0174677
646.700	0.0176326
646.779	0.0174271
646.857	0.0175137
646.935	0.0175006
647.013	0.0173258
647.091	0.0172557
647.169	0.0173727
647.247	0.0172205
647.325	0.0172405
647.404	0.0169703
647.482	0.0168553
647.560	0.0168021
647.638	0.0166900
647.716	0.0166896
647.794	0.0165541
647.872	0.0165218
647.950	0.0163567
648.029	0.0163227
648.107	0.0163165
648.185	0.0161886
648.263	0.0161052
648.341	0.0160193
648.419	0.0158744
648.497	0.0159402
648.575	0.0160154
648.654	0.0159293
648.732	0.0157772
648.810	0.0157069
648.888	0.0157355
648.966	0.0156551
649.044	0.0156659
649.122	0.0157987
649.200	0.0156950
649.279	0.0156239
649.357	0.0156969
649.435	0.0158124
649.513	0.0159367
649.591	0.0158958
649.669	0.0160835
649.747	0.0163553
649.825	0.0163784
649.904	0.0164655
649.982	0.0166220
650.060	0.0168150
650.138	0.0169125
650.216	0.0170618
650.294	0.0170808
650.372	0.0171707
650.450	0.0172118
650.529	0.0173624
650.607	0.0173470
650.685	0.0172797
650.763	0.0172404
650.841	0.0171868
650.919	0.0171019
650.997	0.0171947
651.075	0.0170231
651.154	0.0170735
651.232	0.0167962
651.310	0.0168555
651.388	0.0169788
651.466	0.0168932
651.544	0.0166426
651.622	0.0165086
651.700	0.0164774
651.779	0.0164111
651.857	0.0164629
651.935	0.0164005
652.013	0.0162350
652.091	0.0162785
652.169	0.0163813
652.247	0.0164092
652.325	0.0163441
652.404	0.0164636
652.482	0.0164604
652.560	0.0164574
652.638	0.0163177
652.716	0.0163085
652.794	0.0164019
652.872	0.0164626
652.950	0.0166481
653.029	0.0163806
653.107	0.0165167
653.185	0.0166093
653.263	0.0164829
653.341	0.0164559
653.419	0.0164771
653.497	0.0164864
653.575	0.0163238
653.654	0.0162997
653.732	0.0162041
653.810	0.0163350
653.888	0.0163503
653.966	0.0162496
654.044	0.0162442
654.122	0.0161712
654.200	0.0160793
654.279	0.0162264
654.357	0.0160638
654.435	0.0162679
654.513	0.0163609
654.591	0.0163288
654.669	0.0163137
654.747	0.0162065
654.825	0.0163924
654.904	0.0162201
654.982	0.0165186
655.060	0.0165136
655.138	0.0165788
655.216	0.0166679
655.294	0.0165884
655.372	0.0166627
655.450	0.0167154
655.529	0.0167271
655.607	0.0167625
655.685	0.0169067
655.763	0.0168457
655.841	0.0166898
655.919	0.0168114
655.997	0.0169382
656.075	0.0168768
656.154	0.0168226
656.232	0.0167149
656.310	0.0166888
656.388	0.0167657
656.466	0.0167179
656.544	0.0166904
656.622	0.0167355
656.700	0.0166507
656.779	0.0166170
656.857	0.0166136
656.935	0.0164928
657.013	0.0164209
657.091	0.0164745
657.169	0.0163563
657.247	0.0163576
657.325	0.0165172
657.404	0.0166578
657.482	0.0164967
657.560	0.0164079
657.638	0.0164583
657.716	0.0164775
657.794	0.0163840
657.872	0.0164298
657.950	0.0165266
658.029	0.0163976
658.107	0.0164909
658.185	0.0164268
658.263	0.0165174
658.341	0.0164146
658.419	0.0163229
658.497	0.0163931
658.575	0.0163159
658.654	0.0163504
658.732	0.0163622
658.810	0.0163232
658.888	0.0162933
658.966	0.0161753
659.044	0.0163200
659.122	0.0161268
659.200	0.0160841
659.279	0.0161020
659.357	0.0160761
659.435	0.0162422
659.513	0.0161245
659.591	0.0162242
659.669	0.0164183
659.747	0.0164306
659.825	0.0165955
659.904	0.0165676
659.982	0.0166970
660.060	0.0167545
660.138	0.0167380
660.216	0.0168935
660.294	0.0167776
660.372	0.0168723
660.450	0.0165713
660.529	0.0166547
660.607	0.0165626
660.685	0.0165329
660.763	0.0163705
660.841	0.0164185
660.919	0.0164098
660.997	0.0162685
661.075	0.0163754
661.154	0.0164758
661.232	0.0166756
661.310	0.0166811
661.388	0.0168356
661.466	0.0170462
661.544	0.0172740
661.622	0.0174172
661.700	0.0175771
661.779	0.0175068
661.857	0.0174195
661.935	0.0172391
662.013	0.0171529
662.091	0.0168540
662.169	0.0166171
662.247	0.0164531
662.325	0.0161158
662.404	0.0159315
662.482	0.0158020
662.560	0.0156901
662.638	0.0156353
662.716	0.0155333
662.794	0.0154960
662.872	0.0158553
662.950	0.0159274
663.029	0.0159848
663.107	0.0161944
663.185	0.0162170
663.263	0.0163186
663.341	0.0165526
663.419	0.0165182
663.497	0.0163767
663.575	0.0164751
663.654	0.0165547
663.732	0.0165187
663.810	0.0163441
663.888	0.0165837
663.966	0.0166472
664.044	0.0166069
664.122	0.0168467
664.200	0.0169882
664.279	0.0170362
664.357	0.0172292
664.435	0.0173092
664.513	0.0171980
664.591	0.0173052
664.669	0.0170518
664.747	0.0170190
664.825	0.0168443
664.904	0.0166817
664.982	0.0164874
665.060	0.0163654
665.138	0.0163144
665.216	0.0160338
665.294	0.0160207
665.372	0.0161128
665.450	0.0159690
665.529	0.0161097
665.607	0.0162879
665.685	0.0162692
665.763	0.0165002
665.841	0.0164436
665.919	0.0164873
665.997	0.0163641
666.075	0.0161924
666.154	0.0161262
666.232	0.0160419
666.310	0.0158514
666.388	0.0158291
666.466	0.0155899
666.544	0.0156543
666.622	0.0156821
666.700	0.0157674
666.779	0.0160431
666.857	0.0165009
666.935	0.0165433
667.013	0.0170263
667.091	0.0174242
667.169	0.0177540
667.247	0.0180711
667.325	0.0182034
667.404	0.0185890
667.482	0.0187249
667.560	0.0186539
667.638	0.0185990
667.716	0.0185993
667.794	0.0183033
667.872	0.0181025
667.950	0.0177737
668.029	0.0175525
668.107	0.0173492
668.185	0.0168960
668.263	0.0164415
668.341	0.0162065
668.419	0.0158508
668.497	0.0155012
668.575	0.0149290
668.654	0.0148048
668.732	0.0145095
668.810	0.0142378
668.888	0.0142071
668.966	0.0139774
669.044	0.0140230
669.122	0.0139869
669.200	0.0138916
669.279	0.0138152
669.357	0.0139413
669.435	0.0142072
669.513	0.0143415
669.591	0.0145262
669.669	0.0148479
669.747	0.0152149
669.825	0.0158524
669.904	0.0162991
669.982	0.0168690
670.060	0.0177238
670.138	0.0182874
670.216	0.0190255
670.294	0.0196131
670.372	0.0198869
670.450	0.0201057
670.529	0.0204312
670.607	0.0203521
670.685	0.0200139
670.763	0.0197713
670.841	0.0193037
670.919	0.0187785
670.997	0.0181857
671.075	0.0176430
671.154	0.0171127
671.232	0.0165630
671.310	0.0160933
671.388	0.0156582
671.466	0.0153120
671.544	0.0150636
671.622	0.0148031
671.700	0.0145438
671.779	0.0143785
671.857	0.0142293
671.935	0.0142646
672.013	0.0142127
672.091	0.0142969
672.169	0.0144879
672.247	0.0145623
672.325	0.0147099
672.404	0.0149844
672.482	0.0154639
672.560	0.0157838
672.638	0.0164534
672.716	0.0168422
672.794	0.0171949
672.872	0.0175323
672.950	0.0178715
673.029	0.0183210
673.107	0.0184769
673.185	0.0182655
673.263	0.0183421
673.341	0.0180687
673.419	0.0177008
673.497	0.0174632
673.575	0.0171604
673.654	0.0167016
673.732	0.0163181
673.810	0.0160458
673.888	0.0160316
673.966	0.0158324
674.044	0.0155442
674.122	0.0157196
674.200	0.0156676
674.279	0.0158720
674.357	0.0160303
674.435	0.0159323
674.513	0.0160480
674.591	0.0161505
674.669	0.0160994
674.747	0.0159602
674.825	0.0159296
674.904	0.0156020
674.982	0.0154614
675.060	0.0153999
675.138	0.0152974
675.216	0.0151654
675.294	0.0152367
675.372	0.0154150
675.450	0.0158422
675.529	0.0160196
675.607	0.0163922
675.685	0.0168087
675.763	0.0172110
675.841	0.0177353
675.919	0.0180182
675.997	0.0183121
676.075	0.0186841
676.154	0.0187357
676.232	0.0186739
676.310	0.0186070
676.388	0.0186530
676.466	0.0183121
676.544	0.0182289
676.622	0.0180860
676.700	0.0177773
676.779	0.0177570
676.857	0.0174926
676.935	0.0173682
677.013	0.0172028
677.091	0.0171783
677.169	0.0169194
677.247	0.0167351
677.325	0.0163937
677.404	0.0161503
677.482	0.0157996
677.560	0.0153879
677.638	0.0151501
677.716	0.0144911
677.794	0.0142326
677.872	0.0139323
677.950	0.0137199
678.029	0.0134743
678.107	0.0135179
678.185	0.0136871
678.263	0.0140034
678.341	0.0144480
678.419	0.0149635
678.497	0.0153310
678.575	0.0156730
678.654	0.0160932
678.732	0.0163379
678.810	0.0164173
678.888	0.0164888
678.966	0.0164911
679.044	0.0163723
679.122	0.0163989
679.200	0.0163980
679.279	0.0165260
679.357	0.0166406
679.435	0.0166053
679.513	0.0169453
679.591	0.0174001
679.669	0.0179212
679.747	0.0180152
679.825	0.0184947
679.904	0.0187734
679.982	0.0191634
680.060	0.0192365
680.138	0.0193620
680.216	0.0194717
680.294	0.0195932
680.372	0.0192661
680.450	0.0190882
680.529	0.0187006
680.607	0.0183543
680.685	0.0180778
680.763	0.0177527
680.841	0.0172749
680.919	0.0169273
680.997	0.0163233
681.075	0.0158785
681.154	0.0154079
681.232	0.0152065
681.310	0.0147572
681.388	0.0145788
681.466	0.0143382
681.544	0.0141320
681.622	0.0140993
681.700	0.0139598
681.779	0.0141174
681.857	0.0143654
681.935	0.0145184
682.013	0.0147157
682.091	0.0151206
682.169	0.0154247
682.247	0.0156417
682.325	0.0159432
682.404	0.0161791
682.482	0.0163878
682.560	0.0163455
682.638	0.0163999
682.716	0.0165933
682.794	0.0164155
682.872	0.0163890
682.950	0.0161672
683.029	0.0160332
683.107	0.0159091
683.185	0.0157980
683.263	0.0157725
683.341	0.0157633
683.419	0.0155116
683.497	0.0156454
683.575	0.0156232
683.654	0.0158195
683.732	0.0161364
683.810	0.0163979
683.888	0.0166436
683.966	0.0170780
684.044	0.0174679
684.122	0.0178481
684.200	0.0183877
684.279	0.0188982
684.357	0.0191193
684.435	0.0193094
684.513	0.0193695
684.591	0.0194628
684.669	0.0193441
684.747	0.0191069
684.825	0.0188147
684.904	0.0184100
684.982	0.0180415
685.060	0.0176199
685.138	0.0174043
685.216	0.0168783
685.294	0.0167738
685.372	0.0166071
685.450	0.0162068
685.529	0.0160811
685.607	0.0158857
685.685	0.0158286
685.763	0.0154993
685.841	0.0154301
685.919	0.0152881
685.997	0.0151333
686.075	0.0150283
686.154	0.0150884
686.232	0.0149590
686.310	0.0149165
686.388	0.0149488
686.466	0.0151413
686.544	0.0151343
686.622	0.0154010
686.700	0.0153912
686.779	0.0154426
686.857	0.0156878
686.935	0.0156638
687.013	0.0157642
687.091	0.0158684
687.169	0.0155054
687.247	0.0156376
687.325	0.0157208
687.404	0.0155356
687.482	0.0156141
687.560	0.0156607
687.638	0.0159212
687.716	0.0162468
687.794	0.0166339
687.872	0.0168986
687.950	0.0172463
688.029	0.0175608
688.107	0.0178049
688.185	0.0181825
688.263	0.0183305
688.341	0.0184200
688.419	0.0186189
688.497	0.0186744
688.575	0.0185883
688.654	0.0183941
688.732	0.0182001
688.810	0.0181303
688.888	0.0178259
688.966	0.0173969
689.044	0.0168771
689.122	0.0167923
689.200	0.0166628
689.279	0.0160883
689.357	0.0156966
689.435	0.0154732
689.513	0.0151194
689.591	0.0149486
689.669	0.0147401
689.747	0.0145660
689.825	0.0144949
689.904	0.0145085
689.982	0.0146932
690.060	0.0146785
690.138	0.0147902
690.216	0.0149968
690.294	0.0153835
690.372	0.0157372
690.450	0.0162141
690.529	0.0164594
690.607	0.0168610
690.685	0.0172569
690.763	0.0175700
690.841	0.0177070
690.919	0.0179550
690.997	0.0180800
691.075	0.0180602
691.154	0.0181794
691.232	0.0181995
691.310	0.0181748
691.388	0.0178556
691.466	0.0179842
691.544	0.0177588
691.622	0.0176974
691.700	0.0178027
691.779	0.0176070
691.857	0.0178521
691.935	0.0179456
692.013	0.0179138
692.091	0.0178645
692.169	0.0181058
692.247	0.0180361
692.325	0.0180920
692.404	0.0180305
692.482	0.0177782
692.560	0.0174665
692.638	0.0171349
692.716	0.0165257
692.794	0.0160562
692.872	0.0153966
692.950	0.0147928
693.029	0.0142188
693.107	0.0138101
693.185	0.0135221
693.263	0.0132891
693.341	0.0132513
693.419	0.0131706
693.497	0.0133072
693.575	0.0136390
693.654	0.0139207
693.732	0.0141595
693.810	0.0146685
693.888	0.0150980
693.966	0.0156076
694.044	0.0158086
694.122	0.0161365
694.200	0.0163412
694.279	0.0165402
694.357	0.0167066
694.435	0.0166916
694.513	0.0166333
694.591	0.0169000
694.669	0.0170362
694.747	0.0169775
694.825	0.0171973
694.904	0.0172975
694.982	0.0174132
695.060	0.0174562
695.138	0.0176147
695.216	0.0175758
695.294	0.0175760
695.372	0.0175323
695.450	0.0173478
695.529	0.0174076
695.607	0.0173329
695.685	0.0175140
695.763	0.0172847
695.841	0.0174995
695.919	0.0175812
695.997	0.0176515
696.075	0.0179305
696.154	0.0179381
696.232	0.0178974
696.310	0.0179659
696.388	0.0176890
696.466	0.0175488
696.544	0.0174684
696.622	0.0170363
696.700	0.0165096
696.779	0.0163369
696.857	0.0157890
696.935	0.0154710
697.013	0.0150495
697.091	0.0149443
697.169	0.0149152
697.247	0.0147462
697.325	0.0148431
697.404	0.0151168
697.482	0.0154057
697.560	0.0158012
697.638	0.0161100
697.716	0.0166447
697.794	0.0167844
697.872	0.0174195
697.950	0.0177480
698.029	0.0180672
698.107	0.0183993
698.185	0.0184810
698.263	0.0187251
698.341	0.0187855
698.419	0.0187830
698.497	0.0186965
698.575	0.0185237
698.654	0.0184084
698.732	0.0182206
698.810	0.0180685
698.888	0.0178660
698.966	0.0175285
699.044	0.0172951
699.122	0.0171227
699.200	0.0165651
699.279	0.0162995
699.357	0.0158865
699.435	0.0152694
699.513	0.0149504
699.591	0.0145830
699.669	0.0141492
699.747	0.0136405
699.825	0.0133794
699.904	0.0131890
699.982	0.0130541
700.060	0.0130336
700.138	0.0130360
700.216	0.0130643
700.294	0.0132681
700.372	0.0134880
700.450	0.0140667
700.529	0.0142840
700.607	0.0146140
700.685	0.0149544
700.763	0.0152425
700.841	0.0155958
700.919	0.0157951
700.997	0.0159251
701.075	0.0161597
701.154	0.0162679
701.232	0.0163963
701.310	0.0165227
701.388	0.0165060
701.466	0.0168092
701.544	0.0169344
701.622	0.0171790
701.700	0.0173952
701.779	0.0177230
701.857	0.0178836
701.935	0.0180946
702.013	0.0181505
702.091	0.0181841
702.169	0.0185571
702.247	0.0184795
702.325	0.0185772
702.404	0.0184877
702.482	0.0184270
702.560	0.0182717
702.638	0.0179784
702.716	0.0177933
702.794	0.0176778
702.872	0.0176855
702.950	0.0176035
703.029	0.0175054
703.107	0.0174783
703.185	0.0175676
703.263	0.0175246
703.341	0.0177271
703.419	0.0179231
703.497	0.0180191
703.575	0.0180856
703.654	0.0181433
703.732	0.0178637
703.810	0.0180894
703.888	0.0180491
703.966	0.0176037
704.044	0.0176157
704.122	0.0174397
704.200	0.0173827
704.279	0.0171982
704.357	0.0170933
704.435	0.0168931
704.513	0.0168652
704.591	0.0168180
704.669	0.0168397
704.747	0.0167171
704.825	0.0167039
704.904	0.0165163
704.982	0.0164261
705.060	0.0161961
705.138	0.0160477
705.216	0.0158562
705.294	0.0154770
705.372	0.0152908
705.450	0.0149906
705.529	0.0145407
705.607	0.0143519
705.685	0.0141565
705.763	0.0138142
705.841	0.0137103
705.919	0.0135483
705.997	0.0133847
706.075	0.0133352
706.154	0.0132471
706.232	0.0133598
706.310	0.0134423
706.388	0.0135296
706.466	0.0137301
706.544	0.0139349
706.622	0.0138377
706.700	0.0142159
706.779	0.0145074
706.857	0.0146244
706.935	0.0149006
707.013	0.0149133
707.091	0.0151540
707.169	0.0155374
707.247	0.0157483
707.325	0.0160126
707.404	0.0162336
707.482	0.0164848
707.560	0.0169732
707.638	0.0172694
707.716	0.0177054
707.794	0.0178706
707.872	0.0182884
707.950	0.0187051
708.029	0.0189644
708.107	0.0194361
708.185	0.0195152
708.263	0.0197042
708.341	0.0199674
708.419	0.0201833
708.497	0.0202321
708.575	0.0201124
708.654	0.0201874
708.732	0.0200609
708.810	0.0198129
708.888	0.0196768
708.966	0.0192162
709.044	0.0188846
709.122	0.0184770
709.200	0.0181316
709.279	0.0176966
709.357	0.0173791
709.435	0.0169006
709.513	0.0163667
709.591	0.0162177
709.669	0.0158518
709.747	0.0158102
709.825	0.0155940
709.904	0.0155957
709.982	0.0157080
710.060	0.0155608
710.138	0.0157809
710.216	0.0157927
710.294	0.0160075
710.372	0.0162884
710.450	0.0164373
710.529	0.0167849
710.607	0.0170250
710.685	0.0170845
710.763	0.0172210
710.841	0.0174619
710.919	0.0174871
710.997	0.0173453
711.075	0.0172399
711.154	0.0172029
711.232	0.0169698
711.310	0.0166548
711.388	0.0164581
711.466	0.0163510
711.544	0.0160735
711.622	0.0156551
711.700	0.0155092
711.779	0.0152618
711.857	0.0150828
711.935	0.0148794
712.013	0.0148067
712.091	0.0147279
712.169	0.0145040
712.247	0.0146024
712.325	0.0145223
712.404	0.0144180
712.482	0.0143265
712.560	0.0142735
712.638	0.0142116
712.716	0.0141408
712.794	0.0141808
712.872	0.0140434
712.950	0.0141611
713.029	0.0141956
713.107	0.0141908
713.185	0.0143033
713.263	0.0144249
713.341	0.0147456
713.419	0.0149192
713.497	0.0151743
713.575	0.0154129
713.654	0.0156254
713.732	0.0158373
713.810	0.0163268
713.888	0.0164915
713.966	0.0166935
714.044	0.0168240
714.122	0.0172564
714.200	0.0174686
714.279	0.0178465
714.357	0.0180721
714.435	0.0183418
714.513	0.0187549
714.591	0.0187584
714.669	0.0190574
714.747	0.0193141
714.825	0.0197065
714.904	0.0198595
714.982	0.0200228
715.060	0.0201628
715.138	0.0202450
715.216	0.0203381
715.294	0.0201767
715.372	0.0199837
715.450	0.0196098
715.529	0.0192917
715.607	0.0188873
715.685	0.0184093
715.763	0.0179115
715.841	0.0174072
715.919	0.0168646
715.997	0.0164698
716.075	0.0159222
716.154	0.0154350
716.232	0.0153052
716.310	0.0151749
716.388	0.0149068
716.466	0.0150254
716.544	0.0150016
716.622	0.0149742
716.700	0.0149924
716.779	0.0151337
716.857	0.0152122
716.935	0.0154118
717.013	0.0157005
717.091	0.0158549
717.169	0.0159505
717.247	0.0162950
717.325	0.0163645
717.404	0.0164959
717.482	0.0167886
717.560	0.0168771
717.638	0.0168613
717.716	0.0170139
717.794	0.0170254
717.872	0.0169668
717.950	0.0169228
718.029	0.0168233
718.107	0.0168147
718.185	0.0166544
718.263	0.0165542
718.341	0.0164650
718.419	0.0163092
718.497	0.0161533
718.575	0.0160550
718.654	0.0157803
718.732	0.0157293
718.810	0.0155449
718.888	0.0155563
718.966	0.0155460
719.044	0.0154325
719.122	0.0153113
719.200	0.0153115
719.279	0.0153273
719.357	0.0153394
719.435	0.0152047
719.513	0.0151050
719.591	0.0152184
719.669	0.0151850
719.747	0.0150560
719.825	0.0151021
719.904	0.0151205
719.982	0.0150492
720.060	0.0150518
720.138	0.0151867
720.216	0.0153034
720.294	0.0153097
720.372	0.0153747
720.450	0.0156322
720.529	0.0156061
720.607	0.0156754
720.685	0.0159114
720.763	0.0161498
720.841	0.0162491
720.919	0.0164072
720.997	0.0166810
721.075	0.0169345
721.154	0.0171287
721.232	0.0173229
721.310	0.0175900
721.388	0.0178326
721.466	0.0179874
721.544	0.0184407
721.622	0.0186721
721.700	0.0189600
721.779	0.0191092
721.857	0.0191001
721.935	0.0193085
722.013	0.0193869
722.091	0.0194368
722.169	0.0193627
722.247	0.0191885
722.325	0.0189221
722.404	0.0185948
722.482	0.0181419
722.560	0.0177483
722.638	0.0174577
722.716	0.0170705
722.794	0.0165489
722.872	0.0161369
722.950	0.0159628
723.029	0.0157175
723.107	0.0155057
723.185	0.0153910
723.263	0.0152679
723.341	0.0154470
723.419	0.0153873
723.497	0.0155897
723.575	0.0157396
723.654	0.0160229
723.732	0.0160755
723.810	0.0163519
723.888	0.0165173
723.966	0.0166542
724.044	0.0166631
724.122	0.0167690
724.200	0.0170600
724.279	0.0170571
724.357	0.0170127
724.435	0.0169834
724.513	0.0169602
724.591	0.0169041
724.669	0.0168394
724.747	0.0166873
724.825	0.0166293
724.904	0.0164076
724.982	0.0162934
725.060	0.0162299
725.138	0.0160461
725.216	0.0159668
725.294	0.0157503
725.372	0.0156148
725.450	0.0155325
725.529	0.0156309
725.607	0.0156182
725.685	0.0156134
725.763	0.0154723
725.841	0.0155967
725.919	0.0156567
725.997	0.0155815
726.075	0.0154607
726.154	0.0153761
726.232	0.0155152
726.310	0.0153534
726.388	0.0152447
726.466	0.0150362
726.544	0.0151044
726.622	0.0150088
726.700	0.0150317
726.779	0.0149520
726.857	0.0148939
726.935	0.0149943
727.013	0.0150396
727.091	0.0150156
727.169	0.0150601
727.247	0.0154111
727.325	0.0154495
727.404	0.0157976
727.482	0.0159805
727.560	0.0160917
727.638	0.0161838
727.716	0.0164707
727.794	0.0165668
727.872	0.0169080
727.950	0.0169996
728.029	0.0172410
728.107	0.0174529
728.185	0.0174570
728.263	0.0178201
728.341	0.0180086
728.419	0.0180392
728.497	0.0182182
728.575	0.0182771
728.654	0.0184470
728.732	0.0186008
728.810	0.0184717
728.888	0.0186002
728.966	0.0184801
729.044	0.0184721
729.122	0.0185068
729.200	0.0182124
729.279	0.0180597
729.357	0.0178008
729.435	0.0176459
729.513	0.0174424
729.591	0.0171992
729.669	0.0169340
729.747	0.0167247
729.825	0.0168293
729.904	0.0167594
729.982	0.0165314
730.060	0.0164118
730.138	0.0165126
730.216	0.0165453
730.294	0.0164941
730.372	0.0164774
730.450	0.0168135
730.529	0.0169605
730.607	0.0170151
730.685	0.0171469
730.763	0.0171547
730.841	0.0171413
730.919	0.0170819
730.997	0.0171581
731.075	0.0170806
731.154	0.0167558
731.232	0.0168861
731.310	0.0167382
731.388	0.0166929
731.466	0.0164494
731.544	0.0163025
731.622	0.0161909
731.700	0.0160999
731.779	0.0161567
731.857	0.0158611
731.935	0.0157640
732.013	0.0157748
732.091	0.0156253
732.169	0.0155861
732.247	0.0156119
732.325	0.0154532
732.404	0.0155054
732.482	0.0155620
732.560	0.0156251
732.638	0.0156144
732.716	0.0157327
732.794	0.0155824
732.872	0.0157674
732.950	0.0156516
733.029	0.0156695
733.107	0.0154211
733.185	0.0155231
733.263	0.0152908
733.341	0.0153836
733.419	0.0152739
733.497	0.0151721
733.575	0.0150957
733.654	0.0151695
733.732	0.0151345
733.810	0.0150574
733.888	0.0153503
733.966	0.0153929
734.044	0.0154416
734.122	0.0155614
734.200	0.0156947
734.279	0.0158059
734.357	0.0157781
734.435	0.0160288
734.513	0.0162324
734.591	0.0164244
734.669	0.0167326
734.747	0.0167853
734.825	0.0167873
734.904	0.0170862
734.982	0.0172787
735.060	0.0174835
735.138	0.0175637
735.216	0.0178604
735.294	0.0180244
735.372	0.0181823
735.450	0.0182589
735.529	0.0183330
735.607	0.0183289
735.685	0.0184251
735.763	0.0184393
735.841	0.0184364
735.919	0.0182973
735.997	0.0182517
736.075	0.0180714
736.154	0.0179207
736.232	0.0177164
736.310	0.0176952
736.388	0.0175108
736.466	0.0172048
736.544	0.0171331
736.622	0.0168493
736.700	0.0169179
736.779	0.0169149
736.857	0.0167631
736.935	0.0166031
737.013	0.0167496
737.091	0.0167789
737.169	0.0166818
737.247	0.0166148
737.325	0.0168236
737.404	0.0169738
737.482	0.0168871
737.560	0.0169536
737.638	0.0167876
737.716	0.0170077
737.794	0.0169638
737.872	0.0167844
737.950	0.0168702
738.029	0.0168726
738.107	0.0166960
738.185	0.0165009
738.263	0.0163016
738.341	0.0162399
738.419	0.0161742
738.497	0.0161182
738.575	0.0159105
738.654	0.0157496
738.732	0.0157197
738.810	0.0155902
738.888	0.0154244
738.966	0.0152957
739.044	0.0152561
739.122	0.0151907
739.200	0.0151625
739.279	0.0152396
739.357	0.0151527
739.435	0.0154049
739.513	0.0155724
739.591	0.0154534
739.669	0.0154237
739.747	0.0154340
739.825	0.0154829
739.904	0.0154826
739.982	0.0155453
740.060	0.0156417
740.138	0.0155307
740.216	0.0154726
740.294	0.0156487
740.372	0.0156952
740.450	0.0156152
740.529	0.0155234
740.607	0.0157718
740.685	0.0156814
740.763	0.0157394
740.841	0.0158302
740.919	0.0160346
740.997	0.0161106
741.075	0.0163329
741.154	0.0162251
741.232	0.0162411
741.310	0.0164299
741.388	0.0164908
741.466	0.0164897
741.544	0.0166230
741.622	0.0167072
741.700	0.0170331
741.779	0.0170032
741.857	0.0170179
741.935	0.0171467
742.013	0.0171665
742.091	0.0172605
742.169	0.0174095
742.247	0.0174762
742.325	0.0175224
742.404	0.0175904
742.482	0.0175984
742.560	0.0176199
742.638	0.0176234
742.716	0.0176225
742.794	0.0175208
742.872	0.0174644
742.950	0.0173933
743.029	0.0174187
743.107	0.0174315
743.185	0.0172469
743.263	0.0172404
743.341	0.0170218
743.419	0.0171428
743.497	0.0170463
743.575	0.0171871
743.654	0.0169878
743.732	0.0168953
743.810	0.0170308
743.888	0.0171013
743.966	0.0169793
744.044	0.0170412
744.122	0.0169882
744.200	0.0168628
744.279	0.0169800
744.357	0.0169579
744.435	0.0167108
744.513	0.0168659
744.591	0.0168658
744.669	0.0168659
744.747	0.0166215
744.825	0.0168477
744.904	0.0165524
744.982	0.0166452
745.060	0.0165487
745.138	0.0165221
745.216	0.0164471
745.294	0.0163828
745.372	0.0163159
745.450	0.0163978
745.529	0.0163124
745.607	0.0161425
745.685	0.0161279
745.763	0.0160329
745.841	0.0160840
745.919	0.0159309
745.997	0.0159307
746.075	0.0159489
746.154	0.0157771
746.232	0.0156456
746.310	0.0155860
746.388	0.0156357
746.466	0.0156994
746.544	0.0157102
746.622	0.0157652
746.700	0.0156328
746.779	0.0156277
746.857	0.0156336
746.935	0.0157783
747.013	0.0155557
747.091	0.0156807
747.169	0.0156838
747.247	0.0157471
747.325	0.0156883
747.404	0.0157841
747.482	0.0159711
747.560	0.0159951
747.638	0.0159280
747.716	0.0159678
747.794	0.0161310
747.872	0.0162772
747.950	0.0161810
748.029	0.0161516
748.107	0.0163135
748.185	0.0164448
748.263	0.0163448
748.341	0.0164117
748.419	0.0163353
748.497	0.0165375
748.575	0.0165647
748.654	0.0167874
748.732	0.0166932
748.810	0.0169522
748.888	0.0168394
748.966	0.0168934
749.044	0.0169795
749.122	0.0169836
749.200	0.0170214
749.279	0.0172430
749.357	0.0170932
749.435	0.0170377
749.513	0.0170922
749.591	0.0171634
749.669	0.0170741
749.747	0.0170415
749.825	0.0170924
749.904	0.0170002
749.982	0.0170435
750.060	0.0169263
750.138	0.0169074
750.216	0.0168739
750.294	0.0167086
750.372	0.0166263
750.450	0.0168954
750.529	0.0168044
750.607	0.0167935
750.685	0.0168326
750.763	0.0168217
750.841	0.0168392
750.919	0.0169805
750.997	0.0169579
751.075	0.0169723
751.154	0.0172565
751.232	0.0171301
751.310	0.0171040
751.388	0.0171538
751.466	0.0172250
751.544	0.0171198
751.622	0.0170795
751.700	0.0172878
751.779	0.0172102
751.857	0.0170274
751.935	0.0169475
752.013	0.0171284
752.091	0.0170680
752.169	0.0169643
752.247	0.0168005
752.325	0.0167994
752.404	0.0168301
752.482	0.0167416
752.560	0.0168599
752.638	0.0166553
752.716	0.0165013
752.794	0.0163867
752.872	0.0163601
752.950	0.0164266
753.029	0.0162780
753.107	0.0159452
753.185	0.0160427
753.263	0.0158909
753.341	0.0157710
753.419	0.0157717
753.497	0.0157523
753.575	0.0155696
753.654	0.0154003
753.732	0.0155168
753.810	0.0155365
753.888	0.0155123
753.966	0.0154948
754.044	0.0154752
754.122	0.0154076
754.200	0.0154661
754.279	0.0155380
754.357	0.0156302
754.435	0.0157758
754.513	0.0156920
754.591	0.0157399
754.669	0.0157830
754.747	0.0157678
754.825	0.0159109
754.904	0.0158941
754.982	0.0159808
755.060	0.0160598
755.138	0.0160993
755.216	0.0159973
755.294	0.0161523
755.372	0.0163255
755.450	0.0161810
755.529	0.0163668
755.607	0.0164054
755.685	0.0164050
755.763	0.0164427
755.841	0.0165462
755.919	0.0167521
755.997	0.0167619
756.075	0.0167046
756.154	0.0167837
756.232	0.0169598
756.310	0.0168800
756.388	0.0168232
756.466	0.0169045
756.544	0.0168888
756.622	0.0170335
756.700	0.0169623
756.779	0.0169952
756.857	0.0171330
756.935	0.0171296
757.013	0.0172321
757.091	0.0171375
757.169	0.0171055
757.247	0.0172987
757.325	0.0171363
757.404	0.0170970
757.482	0.0171561
757.560	0.0171210
757.638	0.0171370
757.716	0.0172484
757.794	0.0171347
757.872	0.0172126
757.950	0.0172257
758.029	0.0172083
758.107	0.0171254
758.185	0.0171971
758.263	0.0171251
758.341	0.0171150
758.419	0.0170673
758.497	0.0170899
758.575	0.0170418
758.654	0.0169736
758.732	0.0169023
758.810	0.0168392
758.888	0.0168636
758.966	0.0169334
759.044	0.0169000
759.122	0.0167371
759.200	0.0168190
759.279	0.0168050
759.357	0.0167102
759.435	0.0167367
759.513	0.0165643
759.591	0.0166880
759.669	0.0166297
759.747	0.0165291
759.825	0.0164280
759.904	0.0164713
759.982	0.0164698
760.060	0.0164286
760.138	0.0161476
760.216	0.0160540
760.294	0.0160577
760.372	0.0160217
760.450	0.0160309
760.529	0.0159104
760.607	0.0157603
760.685	0.0156290
760.763	0.0156396
760.841	0.0156226
760.919	0.0155853
760.997	0.0157304
761.075	0.0156535
761.154	0.0156847
761.232	0.0157693
761.310	0.0157284
761.388	0.0156406
761.466	0.0159761
761.544	0.0159807
761.622	0.0158959
761.700	0.0160133
761.779	0.0160815
761.857	0.0161600
761.935	0.0162243
762.013	0.0161903
762.091	0.0161520
762.169	0.0160058
762.247	0.0160987
762.325	0.0160770
762.404	0.0161065
762.482	0.0160932
762.560	0.0161008
762.638	0.0162804
762.716	0.0162005
762.794	0.0162029
762.872	0.0163171
762.950	0.0163412
763.029	0.0162998
763.107	0.0164404
763.185	0.0164764
763.263	0.0167740
763.341	0.0167755
763.419	0.0167319
763.497	0.0168816
763.575	0.0168996
763.654	0.0168970
763.732	0.0170569
763.810	0.0170531
763.888	0.0170840
763.966	0.0171680
764.044	0.0171171
764.122	0.0172062
764.200	0.0171695
764.279	0.0172370
764.357	0.0173154
764.435	0.0173548
764.513	0.0172952
764.591	0.0173360
764.669	0.0172554
764.747	0.0172029
764.825	0.0172526
764.904	0.0171935
764.982	0.0172066
765.060	0.0171507
765.138	0.0171187
765.216	0.0170607
765.294	0.0169466
765.372	0.0169316
765.450	0.0168851
765.529	0.0168576
765.607	0.0168394
765.685	0.0166325
765.763	0.0167910
765.841	0.0166782
765.919	0.0167021
765.997	0.0167167
766.075	0.0168015
766.154	0.0167822
766.232	0.0168937
766.310	0.0168929
766.388	0.0168373
766.466	0.0167097
766.544	0.0168298
766.622	0.0168864
766.700	0.0169511
766.779	0.0167529
766.857	0.0168086
766.935	0.0166927
767.013	0.0167081
767.091	0.0165092
767.169	0.0165312
767.247	0.0163774
767.325	0.0165209
767.404	0.0163699
767.482	0.0162177
767.560	0.0162527
767.638	0.0161329
767.716	0.0161423
767.794	0.0159476
767.872	0.0161380
767.950	0.0160853
768.029	0.0160159
768.107	0.0158675
768.185	0.0158924
768.263	0.0157621
768.341	0.0156910
768.419	0.0156866
768.497	0.0157039
768.575	0.0157690
768.654	0.0157497
768.732	0.0157000
768.810	0.0156702
768.888	0.0157800
768.966	0.0159058
769.044	0.0158255
769.122	0.0160162
769.200	0.0159678
769.279	0.0161237
769.357	0.0159953
769.435	0.0161475
769.513	0.0162392
769.591	0.0161464
769.669	0.0162255
769.747	0.0162967
769.825	0.0163419
769.904	0.0164796
769.982	0.0163519
770.060	0.0164454
770.138	0.0165843
770.216	0.0165495
770.294	0.0164946
770.372	0.0165924
770.450	0.0166954
770.529	0.0165508
770.607	0.0167577
770.685	0.0165231
770.763	0.0166104
770.841	0.0167142
770.919	0.0167686
770.997	0.0167027
771.075	0.0167236
771.154	0.0166805
771.232	0.0167216
771.310	0.0168601
771.388	0.0167970
771.466	0.0167520
771.544	0.0168526
771.622	0.0170354
771.700	0.0170757
771.779	0.0170598
771.857	0.0170757
771.935	0.0172427
772.013	0.0174146
772.091	0.0174179
772.169	0.0173791
772.247	0.0175371
772.325	0.0175378
772.404	0.0172910
772.482	0.0174763
772.560	0.0175189
772.638	0.0174570
772.716	0.0173552
772.794	0.0173615
772.872	0.0174405
772.950	0.0172654
773.029	0.0172443
773.107	0.0171596
773.185	0.0172772
773.263	0.0169798
773.341	0.0169221
773.419	0.0169141
773.497	0.0169080
773.575	0.0167120
773.654	0.0167184
773.732	0.0166582
773.810	0.0165182
773.888	0.0163044
773.966	0.0161157
774.044	0.0161250
774.122	0.0162044
774.200	0.0160558
774.279	0.0158814
774.357	0.0157672
774.435	0.0159280
774.513	0.0157115
774.591	0.0156725
774.669	0.0157621
774.747	0.0157764
774.825	0.0155625
774.904	0.0156014
774.982	0.0156752
775.060	0.0156691
775.138	0.0156158
775.216	0.0156934
775.294	0.0157592
775.372	0.0156816
775.450	0.0157195
775.529	0.0157796
775.607	0.0159718
775.685	0.0157816
775.763	0.0159454
775.841	0.0161566
775.919	0.0162230
775.997	0.0163007
776.075	0.0162259
776.154	0.0163601
776.232	0.0163521
776.310	0.0164041
776.388	0.0165446
776.466	0.0166084
776.544	0.0166627
776.622	0.0166705
776.700	0.0166101
776.779	0.0166400
776.857	0.0166560
776.935	0.0167593
777.013	0.0166066
777.091	0.0167613
777.169	0.0166940
777.247	0.0167543
777.325	0.0167770
777.404	0.0165652
777.482	0.0166344
777.560	0.0167554
777.638	0.0166245
777.716	0.0166407
777.794	0.0164280
777.872	0.0167361
777.950	0.0166905
778.029	0.0165856
778.107	0.0165225
778.185	0.0163855
778.263	0.0164636
778.341	0.0164915
778.419	0.0165237
778.497	0.0164254
778.575	0.0165922
778.654	0.0164947
778.732	0.0166647
778.810	0.0165817
778.888	0.0166117
778.966	0.0167548
779.044	0.0166496
779.122	0.0167474
779.200	0.0169032
779.279	0.0169145
779.357	0.0170308
779.435	0.0170429
779.513	0.0169399
779.591	0.0170419
779.669	0.0170760
779.747	0.0172391
779.825	0.0171879
779.904	0.0170558
779.982	0.0170512
780.060	0.0170554
780.138	0.0171443
780.216	0.0171687
780.294	0.0169717
780.372	0.0170551
780.450	0.0169613
780.529	0.0167469
780.607	0.0168913
780.685	0.0167912
780.763	0.0167793
780.841	0.0167424
780.919	0.0166807
780.997	0.0166199
781.075	0.0166205
781.154	0.0165868
781.232	0.0165538
781.310	0.0165057
781.388	0.0163396
781.466	0.0162830
781.544	0.0162424
781.622	0.0161858
781.700	0.0162569
781.779	0.0162856
781.857	0.0161020
781.935	0.0160056
782.013	0.0162328
782.091	0.0160634
782.169	0.0162170
782.247	0.0160247
782.325	0.0160973
782.404	0.0160020
782.482	0.0160802
782.560	0.0160620
782.638	0.0160217
782.716	0.0159520
782.794	0.0159045
782.872	0.0160223
782.950	0.0159312
783.029	0.0160629
783.107	0.0159973
783.185	0.0160709
783.263	0.0159871
783.341	0.0160327
783.419	0.0159215
783.497	0.0162025
783.575	0.0161658
783.654	0.0161700
783.732	0.0161636
783.810	0.0163048
783.888	0.0163554
783.966	0.0164085
784.044	0.0163468
784.122	0.0164684
784.200	0.0163987
784.279	0.0164407
784.357	0.0165648
784.435	0.0165848
784.513	0.0167190
784.591	0.0167712
784.669	0.0167181
784.747	0.0166318
784.825	0.0167152
784.904	0.0166108
784.982	0.0167847
785.060	0.0167039
785.138	0.0168300
785.216	0.0167011
785.294	0.0167999
785.372	0.0169135
785.450	0.0167800
785.529	0.0167621
785.607	0.0168501
785.685	0.0169453
785.763	0.0169441
785.841	0.0168287
785.919	0.0169035
785.997	0.0169265
786.075	0.0168733
786.154	0.0168875
786.232	0.0170203
786.310	0.0168489
786.388	0.0168643
786.466	0.0169440
786.544	0.0169036
786.622	0.0169659
786.700	0.0168757
786.779	0.0168314
786.857	0.0167952
786.935	0.0168400
787.013	0.0168040
787.091	0.0168903
787.169	0.0169277
787.247	0.0169949
787.325	0.0168615
787.404	0.0168187
787.482	0.0168334
787.560	0.0168511
787.638	0.0168387
787.716	0.0168711
787.794	0.0167636
787.872	0.0166027
787.950	0.0167311
788.029	0.0167644
788.107	0.0166285
788.185	0.0166235
788.263	0.0166702
788.341	0.0166312
788.419	0.0164716
788.497	0.0168182
788.575	0.0165956
788.654	0.0165352
788.732	0.0163758
788.810	0.0164426
788.888	0.0164381
788.966	0.0164738
789.044	0.0162992
789.122	0.0163258
789.200	0.0162139
789.279	0.0163639
789.357	0.0161298
789.435	0.0161906
789.513	0.0162196
789.591	0.0161398
789.669	0.0160533
789.747	0.0159850
789.825	0.0161898
789.904	0.0161090
789.982	0.0159966
790.060	0.0160696
790.138	0.0160613
790.216	0.0160215
790.294	0.0161138
790.372	0.0161887
790.450	0.0161153
790.529	0.0160226
790.607	0.0162161
790.685	0.0160423
790.763	0.0160564
790.841	0.0163152
790.919	0.0162680
790.997	0.0162061
791.075	0.0162778
791.154	0.0163093
791.232	0.0164642
791.310	0.0164858
791.388	0.0165208
791.466	0.0165005
791.544	0.0166011
791.622	0.0166873
791.700	0.0168285
791.779	0.0168096
791.857	0.0168306
791.935	0.0166077
792.013	0.0168539
792.091	0.0166647
792.169	0.0168079
792.247	0.0169391
792.325	0.0169406
792.404	0.0168494
792.482	0.0169184
792.560	0.0170746
792.638	0.0169133
792.716	0.0169616
792.794	0.0169284
792.872	0.0170036
792.950	0.0169501
793.029	0.0169724
793.107	0.0169175
793.185	0.0169522
793.263	0.0167696
793.341	0.0167081
793.419	0.0167832
793.497	0.0168467
793.575	0.0168780
793.654	0.0167047
793.732	0.0167831
793.810	0.0165760
793.888	0.0168621
793.966	0.0167046
794.044	0.0168502
794.122	0.0168634
794.200	0.0166775
794.279	0.0167740
794.357	0.0168005
794.435	0.0168249
794.513	0.0167361
794.591	0.0168602
794.669	0.0168907
794.747	0.0168452
794.825	0.0166245
794.904	0.0167854
794.982	0.0167060
795.060	0.0168136
795.138	0.0167951
795.216	0.0166833
795.294	0.0167799
795.372	0.0166759
795.450	0.0166885
795.529	0.0165520
795.607	0.0165246
795.685	0.0165616
795.763	0.0164311
795.841	0.0165630
795.919	0.0164059
795.997	0.0163740
796.075	0.0164079
796.154	0.0162565
796.232	0.0161976
796.310	0.0162568
796.388	0.0161573
796.466	0.0159881
796.544	0.0159447
796.622	0.0159795
796.700	0.0159994
796.779	0.0160184
796.857	0.0160118
796.935	0.0159731
797.013	0.0160435
797.091	0.0160904
797.169	0.0161417
797.247	0.0161448
797.325	0.0162493
797.404	0.0162305
797.482	0.0163268
797.560	0.0162460
797.638	0.0163711
797.716	0.0164180
797.794	0.0163894
797.872	0.0162727
797.950	0.0164447
798.029	0.0165524
798.107	0.0165369
798.185	0.0163354
798.263	0.0164079
798.341	0.0165011
798.419	0.0165019
798.497	0.0163248
798.575	0.0165005
798.654	0.0165012
798.732	0.0164281
798.810	0.0164311
798.888	0.0164258
798.966	0.0164487
799.044	0.0165372
799.122	0.0166135
799.200	0.0165961
799.279	0.0165482
799.357	0.0166296
799.435	0.0166687
799.513	0.0167664
799.591	0.0167252
799.669	0.0168766
799.747	0.0167938
799.825	0.0167839
799.904	0.0167446
799.982	0.0167845
800.060	0.0168053
800.138	0.0168810
800.216	0.0168525
800.294	0.0167854
800.372	0.0168820
800.450	0.0169069
800.529	0.0167907
800.607	0.0167989
800.685	0.0166653
800.763	0.0168609
800.841	0.0167403
800.919	0.0168228
800.997	0.0168405
801.075	0.0167336
801.154	0.0167981
801.232	0.0167770
801.310	0.0168035
801.388	0.0167210
801.466	0.0166566
801.544	0.0166804
801.622	0.0168219
801.700	0.0167214
801.779	0.0165969
801.857	0.0164756
801.935	0.0166752
802.013	0.0164735
802.091	0.0162920
802.169	0.0164188
802.247	0.0163909
802.325	0.0161472
802.404	0.0162379
802.482	0.0162689
802.560	0.0161066
802.638	0.0160097
802.716	0.0160440
802.794	0.0159539
802.872	0.0160437
802.950	0.0160209
803.029	0.0160230
803.107	0.0159725
803.185	0.0160739
803.263	0.0161266
803.341	0.0160638
803.419	0.0161049
803.497	0.0162319
803.575	0.0163065
803.654	0.0162492
803.732	0.0163345
803.810	0.0162840
803.888	0.0165701
803.966	0.0164918
804.044	0.0165284
804.122	0.0164769
804.200	0.0165195
804.279	0.0166630
804.357	0.0166125
804.435	0.0165520
804.513	0.0166682
804.591	0.0167762
804.669	0.0167005
804.747	0.0168985
804.825	0.0169015
804.904	0.0168381
804.982	0.0169704
805.060	0.0169669
805.138	0.0170551
805.216	0.0169502
805.294	0.0168685
805.372	0.0168545
805.450	0.0169617
805.529	0.0167490
805.607	0.0166871
805.685	0.0168135
805.763	0.0169156
805.841	0.0166677
805.919	0.0166872
805.997	0.0167001
806.075	0.0166418
806.154	0.0167113
806.232	0.0165855
806.310	0.0167319
806.388	0.0164686
806.466	0.0163628
806.544	0.0165767
806.622	0.0165361
806.700	0.0164246
806.779	0.0164773
806.857	0.0165687
806.935	0.0164792
807.013	0.0164140
807.091	0.0164741
807.169	0.0166002
807.247	0.0164014
807.325	0.0164535
807.404	0.0164613
807.482	0.0164436
807.560	0.0161760
807.638	0.0164861
807.716	0.0165312
807.794	0.0163417
807.872	0.0162528
807.950	0.0164452
808.029	0.0163165
808.107	0.0164366
808.185	0.0164629
808.263	0.0165141
808.341	0.0165833
808.419	0.0163925
808.497	0.0164604
808.575	0.0164122
808.654	0.0163598
808.732	0.0164741
808.810	0.0163846
808.888	0.0164288
808.966	0.0164707
809.044	0.0164361
809.122	0.0162909
809.200	0.0164360
809.279	0.0164442
809.357	0.0163644
809.435	0.0164596
809.513	0.0162794
809.591	0.0163509
809.669	0.0163527
809.747	0.0163144
809.825	0.0163944
809.904	0.0164127
809.982	0.0165461
810.060	0.0165272
810.138	0.0164621
810.216	0.0165401
810.294	0.0165185
810.372	0.0164684
810.450	0.0164862
810.529	0.0165221
810.607	0.0166468
810.685	0.0165771
810.763	0.0165437
810.841	0.0166758
810.919	0.0166424
810.997	0.0165990
811.075	0.0166169
811.154	0.0167393
811.232	0.0168707
811.310	0.0168176
811.388	0.0168391
811.466	0.0167944
811.544	0.0167514
811.622	0.0166930
811.700	0.0168968
811.779	0.0168163
811.857	0.0168330
811.935	0.0169756
812.013	0.0167513
812.091	0.0166664
812.169	0.0167651
812.247	0.0167445
812.325	0.0166773
812.404	0.0166573
812.482	0.0166808
812.560	0.0166190
812.638	0.0166125
812.716	0.0165251
812.794	0.0165193
812.872	0.0164654
812.950	0.0163177
813.029	0.0162939
813.107	0.0163287
813.185	0.0163116
813.263	0.0161278
813.341	0.0162474
813.419	0.0160519
813.497	0.0161228
813.575	0.0161469
813.654	0.0161514
813.732	0.0161329
813.810	0.0161286
813.888	0.0162820
813.966	0.0161729
814.044	0.0161026
814.122	0.0162672
814.200	0.0163351
814.279	0.0162561
814.357	0.0164811
814.435	0.0164545
814.513	0.0163843
814.591	0.0164835
814.669	0.0164626
814.747	0.0166230
814.825	0.0166118
814.904	0.0165257
814.982	0.0165659
815.060	0.0166056
815.138	0.0166357
815.216	0.0164516
815.294	0.0165172
815.372	0.0165517
815.450	0.0166798
815.529	0.0165773
815.607	0.0164835
815.685	0.0164638
815.763	0.0162709
815.841	0.0164394
815.919	0.0163815
815.997	0.0162463
816.075	0.0163855
816.154	0.0162666
816.232	0.0161623
816.310	0.0162366
816.388	0.0162331
816.466	0.0163193
816.544	0.0164227
816.622	0.0163170
816.700	0.0162820
816.779	0.0164140
816.857	0.0165281
816.935	0.0165006
817.013	0.0165359
817.091	0.0165494
817.169	0.0163809
817.247	0.0166367
817.325	0.0165845
817.404	0.0166708
817.482	0.0166513
817.560	0.0167714
817.638	0.0167764
817.716	0.0167519
817.794	0.0167100
817.872	0.0167545
817.950	0.0167220
818.029	0.0167382
818.107	0.0167485
818.185	0.0168967
818.263	0.0168797
818.341	0.0168929
818.419	0.0167449
818.497	0.0168836
818.575	0.0169530
818.654	0.0170403
818.732	0.0168568
818.810	0.0167963
818.888	0.0167385
818.966	0.0167162
819.044	0.0167297
819.122	0.0166074
819.200	0.0165085
819.279	0.0166509
819.357	0.0166116
819.435	0.0164816
819.513	0.0164473
819.591	0.0164951
819.669	0.0163313
819.747	0.0163042
819.825	0.0164526
819.904	0.0163050
819.982	0.0163139
820.060	0.0162524
820.138	0.0162638
820.216	0.0161887
820.294	0.0160786
820.372	0.0162547
820.450	0.0163226
820.529	0.0162692
820.607	0.0161916
820.685	0.0164037
820.763	0.0163293
820.841	0.0163535
820.919	0.0163198
820.997	0.0163376
821.075	0.0163537
821.154	0.0163374
821.232	0.0164162
821.310	0.0162991
821.388	0.0164868
821.466	0.0164175
821.544	0.0164166
821.622	0.0163761
821.700	0.0163446
821.779	0.0163862
821.857	0.0164198
821.935	0.0165241
822.013	0.0163903
822.091	0.0164346
822.169	0.0163690
822.247	0.0163136
822.325	0.0165240
822.404	0.0165152
822.482	0.0163486
822.560	0.0164088
822.638	0.0164185
822.716	0.0165900
822.794	0.0163992
822.872	0.0164417
822.950	0.0165009
823.029	0.0163835
823.107	0.0163713
823.185	0.0163988
823.263	0.0161972
823.341	0.0163411
823.419	0.0163786
823.497	0.0164443
823.575	0.0163765
823.654	0.0164277
823.732	0.0164702
823.810	0.0165462
823.888	0.0165132
823.966	0.0166229
824.044	0.0165627
824.122	0.0167065
824.200	0.0166418
824.279	0.0167524
824.357	0.0168115
824.435	0.0168388
824.513	0.0167970
824.591	0.0168140
824.669	0.0167844
824.747	0.0168401
824.825	0.0168246
824.904	0.0167723
824.982	0.0168826
825.060	0.0167688
825.138	0.0167496
825.216	0.0167055
825.294	0.0168687
825.372	0.0168156
825.450	0.0166924
825.529	0.0166985
825.607	0.0167682
825.685	0.0167402
825.763	0.0167442
825.841	0.0167416
825.919	0.0167730
825.997	0.0166570
826.075	0.0163869
826.154	0.0165083
826.232	0.0165086
826.310	0.0165665
826.388	0.0164291
826.466	0.0164012
826.544	0.0163121
826.622	0.0163568
826.700	0.0163873
826.779	0.0164474
826.857	0.0165103
826.935	0.0162803
827.013	0.0163811
827.091	0.0164291
827.169	0.0163762
827.247	0.0164445
827.325	0.0164343
827.404	0.0163695
827.482	0.0163618
827.560	0.0164149
827.638	0.0164478
827.716	0.0164539
827.794	0.0163568
827.872	0.0163830
827.950	0.0163981
828.029	0.0163706
828.107	0.0163628
828.185	0.0163860
828.263	0.0163655
828.341	0.0163250
828.419	0.0163282
828.497	0.0164215
828.575	0.0163057
828.654	0.0164285
828.732	0.0164924
828.810	0.0164966
828.888	0.0163703
828.966	0.0164039
829.044	0.0163493
829.122	0.0164771
829.200	0.0164986
829.279	0.0164362
829.357	0.0165357
829.435	0.0163667
829.513	0.0162813
829.591	0.0165110
829.669	0.0165382
829.747	0.0164443
829.825	0.0164550
829.904	0.0165324
829.982	0.0164246
830.060	0.0164122
830.138	0.0165318
830.216	0.0165624
830.294	0.0165099
830.372	0.0165205
830.450	0.0165233
830.529	0.0164709
830.607	0.0167282
830.685	0.0165788
830.763	0.0165739
830.841	0.0164133
830.919	0.0164943
830.997	0.0164582
831.075	0.0164986
831.154	0.0165812
831.232	0.0165789
831.310	0.0166260
831.388	0.0166279
831.466	0.0166263
831.544	0.0166724
831.622	0.0166702
831.700	0.0166405
831.779	0.0166970
831.857	0.0168207
831.935	0.0167217
832.013	0.0166954
832.091	0.0167337
832.169	0.0166603
832.247	0.0166169
832.325	0.0166357
832.404	0.0166070
832.482	0.0163931
832.560	0.0165401
832.638	0.0165312
832.716	0.0164688
832.794	0.0165159
832.872	0.0165364
832.950	0.0164574
833.029	0.0166218
833.107	0.0164738
833.185	0.0164512
833.263	0.0163924
833.341	0.0164645
833.419	0.0165604
833.497	0.0164812
833.575	0.0164456
833.654	0.0167088
833.732	0.0166465
833.810	0.0164090
833.888	0.0166498
833.966	0.0166953
834.044	0.0166386
834.122	0.0166954
834.200	0.0167278
834.279	0.0166094
834.357	0.0163869
834.435	0.0165871
834.513	0.0165334
834.591	0.0163480
834.669	0.0163769
834.747	0.0163080
834.825	0.0162521
834.904	0.0163602
834.982	0.0162566
835.060	0.0160754
835.138	0.0161032
835.216	0.0161737
835.294	0.0160789
835.372	0.0161073
835.450	0.0160923
835.529	0.0161241
835.607	0.0161182
835.685	0.0160854
835.763	0.0160752
835.841	0.0161573
835.919	0.0162051
835.997	0.0161719
836.075	0.0160680
836.154	0.0162706
836.232	0.0164127
836.310	0.0162904
836.388	0.0163007
836.466	0.0164402
836.544	0.0162734
836.622	0.0162818
836.700	0.0163392
836.779	0.0164147
836.857	0.0165304
836.935	0.0165078
837.013	0.0165677
837.091	0.0165292
837.169	0.0167453
837.247	0.0166169
837.325	0.0166824
837.404	0.0167242
837.482	0.0167213
837.560	0.0167758
837.638	0.0167781
837.716	0.0167306
837.794	0.0168394
837.872	0.0168210
837.950	0.0167887
838.029	0.0167767
838.107	0.0167467
838.185	0.0167019
838.263	0.0166069
838.341	0.0166450
838.419	0.0165997
838.497	0.0165773
838.575	0.0166387
838.654	0.0164846
838.732	0.0165200
838.810	0.0163392
838.888	0.0163818
838.966	0.0163985
839.044	0.0164162
839.122	0.0163118
839.200	0.0162898
839.279	0.0165196
839.357	0.0163807
839.435	0.0162252
839.513	0.0162929
839.591	0.0162283
839.669	0.0162871
839.747	0.0164085
839.825	0.0163840
839.904	0.0163089
839.982	0.0164116
840.060	0.0164285
840.138	0.0164140
840.216	0.0163752
840.294	0.0164519
840.372	0.0164383
840.450	0.0165569
840.529	0.0164101
840.607	0.0164376
840.685	0.0164452
840.763	0.0163747
840.841	0.0163673
840.919	0.0163879
840.997	0.0164340
841.075	0.0164576
841.154	0.0165712
841.232	0.0163894
841.310	0.0165029
841.388	0.0165895
841.466	0.0166333
841.544	0.0165915
841.622	0.0166401
841.700	0.0166839
841.779	0.0166142
841.857	0.0165366
841.935	0.0167709
842.013	0.0166940
842.091	0.0166849
842.169	0.0165390
842.247	0.0166267
842.325	0.0166210
842.404	0.0165321
842.482	0.0164302
842.560	0.0165153
842.638	0.0166301
842.716	0.0165536
842.794	0.0164034
842.872	0.0164032
842.950	0.0162851
843.029	0.0162026
843.107	0.0162990
843.185	0.0163129
843.263	0.0162231
843.341	0.0162827
843.419	0.0163020
843.497	0.0162662
843.575	0.0162031
843.654	0.0162132
843.732	0.0162150
843.810	0.0163405
843.888	0.0163258
843.966	0.0163795
844.044	0.0163163
844.122	0.0163548
844.200	0.0162557
844.279	0.0162666
844.357	0.0163204
844.435	0.0163938
844.513	0.0164245
844.591	0.0163295
844.669	0.0163785
844.747	0.0163504
844.825	0.0163458
844.904	0.0163419
844.982	0.0163566
845.060	0.0163554
845.138	0.0164989
845.216	0.0164169
845.294	0.0164787
845.372	0.0164456
845.450	0.0164600
845.529	0.0164855
845.607	0.0166504
845.685	0.0167033
845.763	0.0165704
845.841	0.0166569
845.919	0.0166249
845.997	0.0166424
846.075	0.0167443
846.154	0.0168957
846.232	0.0168058
846.310	0.0166719
846.388	0.0168306
846.466	0.0168085
846.544	0.0167652
846.622	0.0168596
846.700	0.0168398
846.779	0.0167616
846.857	0.0167352
846.935	0.0167661
847.013	0.0169872
847.091	0.0168988
847.169	0.0168890
847.247	0.0169368
847.325	0.0168700
847.404	0.0168472
847.482	0.0167721
847.560	0.0167693
847.638	0.0166901
847.716	0.0165836
847.794	0.0165943
847.872	0.0165520
847.950	0.0165624
848.029	0.0165005
848.107	0.0164259
848.185	0.0163405
848.263	0.0164796
848.341	0.0162634
848.419	0.0162363
848.497	0.0162978
848.575	0.0162144
848.654	0.0162746
848.732	0.0162811
848.810	0.0162611
848.888	0.0162968
848.966	0.0162683
849.044	0.0162453
849.122	0.0162338
849.200	0.0162740
849.279	0.0162511
849.357	0.0163136
849.435	0.0163348
849.513	0.0162512
849.591	0.0162327
849.669	0.0162693
849.747	0.0164282
849.825	0.0163670
849.904	0.0162225
849.982	0.0164799
850.060	0.0165012
850.138	0.0164142
850.216	0.0163485
850.294	0.0165642
850.372	0.0165546
850.450	0.0165402
850.529	0.0165406
850.607	0.0164138
850.685	0.0165993
850.763	0.0165607
850.841	0.0165436
850.919	0.0165254
850.997	0.0164991
851.075	0.0165505
851.154	0.0166632
851.232	0.0167596
851.310	0.0167476
851.388	0.0166104
851.466	0.0167673
851.544	0.0167673
851.622	0.0166634
851.700	0.0166181
851.779	0.0165589
851.857	0.0165279
851.935	0.0165358
852.013	0.0165997
852.091	0.0165682
852.169	0.0166641
852.247	0.0166413
852.325	0.0165518
852.404	0.0164638
852.482	0.0163557
852.560	0.0163777
852.638	0.0164460
852.716	0.0164030
852.794	0.0164625
852.872	0.0164333
852.950	0.0165847
853.029	0.0165755
853.107	0.0166449
853.185	0.0167849
853.263	0.0165732
853.341	0.0165739
853.419	0.0165950
853.497	0.0166273
853.575	0.0166925
853.654	0.0166104
853.732	0.0166518
853.810	0.0167400
853.888	0.0163372
853.966	0.0164507
854.044	0.0165813
854.122	0.0166786
854.200	0.0164738
854.279	0.0163906
854.357	0.0164669
854.435	0.0164962
854.513	0.0165062
854.591	0.0164661
854.669	0.0165590
854.747	0.0165642
854.825	0.0166528
854.904	0.0165969
854.982	0.0164540
855.060	0.0165475
855.138	0.0165616
855.216	0.0164604
855.294	0.0165472
855.372	0.0165498
855.450	0.0164636
855.529	0.0167167
855.607	0.0164011
855.685	0.0164639
855.763	0.0166005
855.841	0.0165167
855.919	0.0165822
855.997	0.0165931
856.075	0.0165081
856.154	0.0164445
856.232	0.0165271
856.310	0.0165559
856.388	0.0164625
856.466	0.0165379
856.544	0.0166072
856.622	0.0164381
856.700	0.0164359
856.779	0.0164537
856.857	0.0163372
856.935	0.0163644
857.013	0.0162910
857.091	0.0163362
857.169	0.0162715
857.247	0.0163368
857.325	0.0163934
857.404	0.0163898
857.482	0.0162825
857.560	0.0163760
857.638	0.0164706
857.716	0.0164914
857.794	0.0165404
857.872	0.0163986
857.950	0.0163508
858.029	0.0165325
858.107	0.0164030
858.185	0.0163412
858.263	0.0163763
858.341	0.0164385
858.419	0.0164214
858.497	0.0164892
858.575	0.0164914
858.654	0.0164614
858.732	0.0165532
858.810	0.0167585
858.888	0.0165813
858.966	0.0164647
859.044	0.0166603
859.122	0.0167110
859.200	0.0166866
859.279	0.0165965
859.357	0.0167742
859.435	0.0166721
859.513	0.0167619
859.591	0.0166079
859.669	0.0167009
859.747	0.0164399
859.825	0.0165598
859.904	0.0164964
859.982	0.0165528
860.060	0.0165356
860.138	0.0164499
860.216	0.0165232
860.294	0.0166225
860.372	0.0166170
860.450	0.0166256
860.529	0.0165949
860.607	0.0164046
860.685	0.0163891
860.763	0.0163987
860.841	0.0164707
860.919	0.0163856
860.997	0.0164452
861.075	0.0165147
861.154	0.0164539
861.232	0.0164484
861.310	0.0164762
861.388	0.0166790
861.466	0.0165263
861.544	0.0165525
861.622	0.0165807
861.700	0.0167368
861.779	0.0167554
861.857	0.0167532
861.935	0.0167452
862.013	0.0167553
862.091	0.0167907
862.169	0.0166617
862.247	0.0166244
862.325	0.0165327
862.404	0.0164857
862.482	0.0165283
862.560	0.0164390
862.638	0.0164061
862.716	0.0163935
862.794	0.0161423
862.872	0.0161937
862.950	0.0162009
863.029	0.0161182
863.107	0.0160304
863.185	0.0161137
863.263	0.0160672
863.341	0.0160972
863.419	0.0161010
863.497	0.0161361
863.575	0.0162206
863.654	0.0162716
863.732	0.0161868
863.810	0.0163130
863.888	0.0163093
863.966	0.0164969
864.044	0.0164018
864.122	0.0165252
864.200	0.0165752
864.279	0.0166816
864.357	0.0166737
864.435	0.0166169
864.513	0.0167963
864.591	0.0167844
864.669	0.0167782
864.747	0.0168582
864.825	0.0166531
864.904	0.0166577
864.982	0.0165932
865.060	0.0164816
865.138	0.0165091
865.216	0.0164330
865.294	0.0162804
865.372	0.0163033
865.450	0.0163244
865.529	0.0161867
865.607	0.0162944
865.685	0.0162577
865.763	0.0162563
865.841	0.0162965
865.919	0.0163970
865.997	0.0165266
866.075	0.0166212
866.154	0.0166068
866.232	0.0165015
866.310	0.0167189
866.388	0.0167183
866.466	0.0166425
866.544	0.0167637
866.622	0.0166547
866.700	0.0166221
866.779	0.0166312
866.857	0.0165981
866.935	0.0167233
867.013	0.0166738
867.091	0.0168060
867.169	0.0166097
867.247	0.0168072
867.325	0.0166954
867.404	0.0167412
867.482	0.0167671
867.560	0.0169397
867.638	0.0168643
867.716	0.0167736
867.794	0.0168135
867.872	0.0166552
867.950	0.0167722
868.029	0.0166637
868.107	0.0167403
868.185	0.0167177
868.263	0.0166587
868.341	0.0166844
868.419	0.0165910
868.497	0.0165710
868.575	0.0164354
868.654	0.0164177
868.732	0.0165175
868.810	0.0163498
868.888	0.0163830
868.966	0.0164143
869.044	0.0163488
869.122	0.0163044
869.200	0.0162251
869.279	0.0162859
869.357	0.0162824
869.435	0.0162469
869.513	0.0162237
869.591	0.0162229
869.669	0.0161960
869.747	0.0162251
869.825	0.0162039
869.904	0.0161725
869.982	0.0162226
870.060	0.0161877
870.138	0.0164964
870.216	0.0164608
870.294	0.0164520
870.372	0.0165156
870.450	0.0164838
870.529	0.0166754
870.607	0.0166778
870.685	0.0165308
870.763	0.0167086
870.841	0.0166074
870.919	0.0166108
870.997	0.0168407
871.075	0.0165923
871.154	0.0167828
871.232	0.0166335
871.310	0.0169005
871.388	0.0168335
871.466	0.0167635
871.544	0.0168416
871.622	0.0167729
871.700	0.0167560
871.779	0.0168621
871.857	0.0168504
871.935	0.0167016
872.013	0.0168103
872.091	0.0167970
872.169	0.0167691
872.247	0.0167213
872.325	0.0166753
872.404	0.0165505
872.482	0.0165229
872.560	0.0165150
872.638	0.0165102
872.716	0.0164226
872.794	0.0162653
872.872	0.0162106
872.950	0.0162862
873.029	0.0162061
873.107	0.0163096
873.185	0.0162503
873.263	0.0162583
873.341	0.0163139
873.419	0.0162470
873.497	0.0163855
873.575	0.0163944
873.654	0.0163453
873.732	0.0164616
873.810	0.0165948
873.888	0.0167201
873.966	0.0167350
874.044	0.0165682
874.122	0.0166018
874.200	0.0167676
874.279	0.0167294
874.357	0.0167496
874.435	0.0167284
874.513	0.0169475
874.591	0.0166502
874.669	0.0166556
874.747	0.0167655
874.825	0.0167612
874.904	0.0168014
874.982	0.0167665
875.060	0.0165753
875.138	0.0165675
875.216	0.0166582
875.294	0.0164090
875.372	0.0166013
875.450	0.0165386
875.529	0.0165091
875.607	0.0164519
875.685	0.0165570
875.763	0.0166459
875.841	0.0164736
875.919	0.0165807
875.997	0.0166390
876.075	0.0166341
876.154	0.0164793
876.232	0.0165501
876.310	0.0165491
876.388	0.0165435
876.466	0.0164631
876.544	0.0164485
876.622	0.0163857
876.700	0.0164315
876.779	0.0163829
876.857	0.0165681
876.935	0.0164575
877.013	0.0164136
877.091	0.0164335
877.169	0.0163350
877.247	0.0164364
877.325	0.0164508
877.404	0.0165105
877.482	0.0164177
877.560	0.0164037
877.638	0.0163756
877.716	0.0164885
877.794	0.0163934
877.872	0.0165330
877.950	0.0164410
878.029	0.0163136
878.107	0.0165275
878.185	0.0166748
878.263	0.0165401
878.341	0.0164674
878.419	0.0166151
878.497	0.0165765
878.575	0.0165007
878.654	0.0163921
878.732	0.0163998
878.810	0.0163264
878.888	0.0164246
878.966	0.0164496
879.044	0.0165047
879.122	0.0163511
879.200	0.0165189
879.279	0.0163752
879.357	0.0163560
879.435	0.0166589
879.513	0.0167081
879.591	0.0167506
879.669	0.0167083
879.747	0.0167468
879.825	0.0167130
879.904	0.0167675
879.982	0.0167922
880.060	0.0169083
880.138	0.0168597
880.216	0.0168051
880.294	0.0167354
880.372	0.0166230
880.450	0.0166558
880.529	0.0166391
880.607	0.0167112
880.685	0.0167368
880.763	0.0165668
880.841	0.0164172
880.919	0.0164419
880.997	0.0165506
881.075	0.0165296
881.154	0.0164843
881.232	0.0164436
881.310	0.0162720
881.388	0.0164741
881.466	0.0164320
881.544	0.0162849
881.622	0.0162947
881.700	0.0163419
881.779	0.0164275
881.857	0.0163944
881.935	0.0163158
882.013	0.0163824
882.091	0.0164107
882.169	0.0162988
882.247	0.0163517
882.325	0.0163670
882.404	0.0163380
882.482	0.0165169
882.560	0.0164518
882.638	0.0164795
882.716	0.0165052
882.794	0.0163744
882.872	0.0163287
882.950	0.0164330
883.029	0.0165040
883.107	0.0164395
883.185	0.0165910
883.263	0.0164171
883.341	0.0163308
883.419	0.0165862
883.497	0.0163861
883.575	0.0167036
883.654	0.0165437
883.732	0.0165929
883.810	0.0167055
883.888	0.0167578
883.966	0.0168301
884.044	0.0168360
884.122	0.0165824
884.200	0.0165847
884.279	0.0166050
884.357	0.0166597
884.435	0.0165704
884.513	0.0165172
884.591	0.0164683
884.669	0.0162932
884.747	0.0164885
884.825	0.0163869
884.904	0.0163305
884.982	0.0163926
885.060	0.0163148
885.138	0.0163571
885.216	0.0163933
885.294	0.0165035
885.372	0.0164655
885.450	0.0165240
885.529	0.0166208
885.607	0.0166625
885.685	0.0167236
885.763	0.0168749
885.841	0.0168254
885.919	0.0166886
885.997	0.0167073
886.075	0.0167368
886.154	0.0168301
886.232	0.0167822
886.310	0.0167184
886.388	0.0166219
886.466	0.0166576
886.544	0.0166537
886.622	0.0165421
886.700	0.0165421
886.779	0.0165161
886.857	0.0165529
886.935	0.0164499
887.013	0.0164053
887.091	0.0164828
887.169	0.0164321
887.247	0.0165044
887.325	0.0163746
887.404	0.0164330
887.482	0.0164324
887.560	0.0164435
887.638	0.0164813
887.716	0.0164696
887.794	0.0164796
887.872	0.0164396
887.950	0.0165954
888.029	0.0164181
888.107	0.0165883
888.185	0.0165324
888.263	0.0166020
888.341	0.0166833
888.419	0.0164585
888.497	0.0166267
888.575	0.0167201
888.654	0.0166049
888.732	0.0164880
888.810	0.0164765
888.888	0.0164175
888.966	0.0165155
889.044	0.0164948
889.122	0.0164848
889.200	0.0165691
889.279	0.0166129
889.357	0.0167149
889.435	0.0166512
889.513	0.0165974
889.591	0.0165281
889.669	0.0166496
889.747	0.0168151
889.825	0.0166368
889.904	0.0165813
889.982	0.0166475
890.060	0.0167591
890.138	0.0166193
890.216	0.0167011
890.294	0.0166840
890.372	0.0166793
890.450	0.0164911
890.529	0.0166049
890.607	0.0166500
890.685	0.0167120
890.763	0.0166541
890.841	0.0168118
890.919	0.0166546
890.997	0.0166900
891.075	0.0167773
891.154	0.0166644
891.232	0.0165053
891.310	0.0164782
891.388	0.0164249
891.466	0.0164697
891.544	0.0164820
891.622	0.0165242
891.700	0.0163669
891.779	0.0162959
891.857	0.0163811
891.935	0.0163535
892.013	0.0163644
892.091	0.0164250
892.169	0.0165549
892.247	0.0165942
892.325	0.0165384
892.404	0.0165676
892.482	0.0166319
892.560	0.0166339
892.638	0.0168142
892.716	0.0166652
892.794	0.0165859
892.872	0.0166923
892.950	0.0166759
893.029	0.0167277
893.107	0.0166465
893.185	0.0166423
893.263	0.0165434
893.341	0.0165285
893.419	0.0165279
893.497	0.0165127
893.575	0.0165379
893.654	0.0165886
893.732	0.0165222
893.810	0.0165511
893.888	0.0164599
893.966	0.0165587
894.044	0.0165312
894.122	0.0165598
894.200	0.0165493
894.279	0.0166536
894.357	0.0165495
894.435	0.0165835
894.513	0.0167300
894.591	0.0167022
894.669	0.0166723
894.747	0.0167619
894.825	0.0168215
894.904	0.0166809
894.982	0.0167532
895.060	0.0166474
895.138	0.0167640
895.216	0.0167688
895.294	0.0167666
895.372	0.0167559
895.450	0.0166326
895.529	0.0165144
895.607	0.0166772
895.685	0.0165822
895.763	0.0165410
895.841	0.0163914
895.919	0.0164328
895.997	0.0163118
896.075	0.0163068
896.154	0.0162968
896.232	0.0163379
896.310	0.0164559
896.388	0.0165266
896.466	0.0164303
896.544	0.0165319
896.622	0.0166216
896.700	0.0165722
896.779	0.0166513
896.857	0.0167210
896.935	0.0167235
897.013	0.0167710
897.091	0.0167186
897.169	0.0166729
897.247	0.0166219
897.325	0.0166528
897.404	0.0165075
897.482	0.0166061
897.560	0.0166137
897.638	0.0164722
897.716	0.0164214
897.794	0.0164150
897.872	0.0164305
897.950	0.0163751
898.029	0.0164174
898.107	0.0165999
898.185	0.0164318
898.263	0.0164392
898.341	0.0164153
898.419	0.0165173
898.497	0.0165163
898.575	0.0165106
898.654	0.0166688
898.732	0.0165859
898.810	0.0166597
898.888	0.0166975
898.966	0.0167159
899.044	0.0166217
899.122	0.0166943
899.200	0.0167212
899.279	0.0165028
899.357	0.0167001
899.435	0.0166353
899.513	0.0166865
899.591	0.0165897
899.669	0.0165470
899.747	0.0166047
899.825	0.0165692
899.904	0.0166801
899.982	0.0166288
900.060	0.0166246
900.138	0.0165747
900.216	0.0167061
900.294	0.0165792
900.372	0.0164552
900.450	0.0166315
900.529	0.0164976
900.607	0.0164183
900.685	0.0165512
900.763	0.0163251
900.841	0.0162816
900.919	0.0163024
900.997	0.0162531
901.075	0.0162463
901.154	0.0163683
901.232	0.0162104
901.310	0.0162415
901.388	0.0162599
901.466	0.0164468
901.544	0.0164560
901.622	0.0163786
901.700	0.0164914
901.779	0.0166072
901.857	0.0165945
901.935	0.0165625
902.013	0.0165614
902.091	0.0166618
902.169	0.0166168
902.247	0.0167389
902.325	0.0166143
902.404	0.0166459
902.482	0.0166972
902.560	0.0166085
902.638	0.0166351
902.716	0.0167130
902.794	0.0166723
902.872	0.0167970
902.950	0.0166723
903.029	0.0169031
903.107	0.0167648
903.185	0.0165873
903.263	0.0167044
903.341	0.0167432
903.419	0.0167187
903.497	0.0166726
903.575	0.0166249
903.654	0.0164666
903.732	0.0166867
903.810	0.0166798
903.888	0.0165726
903.966	0.0164429
904.044	0.0165812
904.122	0.0162978
904.200	0.0163422
904.279	0.0164699
904.357	0.0164023
904.435	0.0162912
904.513	0.0162557
904.591	0.0162498
904.669	0.0161869
904.747	0.0162637
904.825	0.0163791
904.904	0.0163752
904.982	0.0164030
905.060	0.0164674
905.138	0.0165498
905.216	0.0165382
905.294	0.0166018
905.372	0.0163703
905.450	0.0166898
905.529	0.0166090
905.607	0.0166200
905.685	0.0166455
905.763	0.0167831
905.841	0.0165859
905.919	0.0165810
905.997	0.0166405
906.075	0.0166771
906.154	0.0166484
906.232	0.0166684
906.310	0.0166826
906.388	0.0165685
906.466	0.0164103
906.544	0.0165111
906.622	0.0165159
906.700	0.0164939
906.779	0.0163649
906.857	0.0164510
906.935	0.0164514
907.013	0.0163485
907.091	0.0163853
907.169	0.0165098
907.247	0.0163171
907.325	0.0163206
907.404	0.0164325
907.482	0.0163065
907.560	0.0162386
907.638	0.0160247
907.716	0.0162926
907.794	0.0162693
907.872	0.0160918
907.950	0.0161714
908.029	0.0163772
908.107	0.0164680
908.185	0.0164223
908.263	0.0164733
908.341	0.0165685
908.419	0.0166850
908.497	0.0167013
908.575	0.0166674
908.654	0.0166298
908.732	0.0167918
908.810	0.0167689
908.888	0.0168607
908.966	0.0168769
909.044	0.0169221
909.122	0.0170754
909.200	0.0168422
909.279	0.0169093
909.357	0.0168642
909.435	0.0168645
909.513	0.0168036
909.591	0.0168088
909.669	0.0167648
909.747	0.0168508
909.825	0.0167138
909.904	0.0167928
909.982	0.0168214
910.060	0.0167239
910.138	0.0166930
910.216	0.0166128
910.294	0.0164728
910.372	0.0164480
910.450	0.0164495
910.529	0.0164416
910.607	0.0165041
910.685	0.0165473
910.763	0.0163766
910.841	0.0163673
910.919	0.0164119
910.997	0.0164636
911.075	0.0164031
911.154	0.0163718
911.232	0.0163411
911.310	0.0165723
911.388	0.0164826
911.466	0.0164017
911.544	0.0164759
911.622	0.0165636
911.700	0.0164856
911.779	0.0166575
911.857	0.0164201
911.935	0.0164360
912.013	0.0164510
912.091	0.0165713
912.169	0.0165848
912.247	0.0166234
912.325	0.0163792
912.404	0.0164368
912.482	0.0165182
912.560	0.0164513
912.638	0.0164354
912.716	0.0164623
912.794	0.0163919
912.872	0.0163970
912.950	0.0164101
913.029	0.0163522
913.107	0.0164049
913.185	0.0163308
913.263	0.0162225
913.341	0.0164095
913.419	0.0164000
913.497	0.0163379
913.575	0.0163953
913.654	0.0164211
913.732	0.0165588
913.810	0.0164641
913.888	0.0164736
913.966	0.0165939
914.044	0.0165162
914.122	0.0165712
914.200	0.0166807
914.279	0.0164409
914.357	0.0165115
914.435	0.0165177
914.513	0.0165851
914.591	0.0166845
914.669	0.0163818
914.747	0.0165115
914.825	0.0165887
914.904	0.0166806
914.982	0.0166618
915.060	0.0166713
915.138	0.0167506
915.216	0.0167151
915.294	0.0168036
915.372	0.0167521
915.450	0.0166890
915.529	0.0167647
915.607	0.0167960
915.685	0.0168134
915.763	0.0169018
915.841	0.0167391
915.919	0.0165679
915.997	0.0167284
916.075	0.0167847
916.154	0.0166534
916.232	0.0166549
916.310	0.0168265
916.388	0.0167783
916.466	0.0166409
916.544	0.0167253
916.622	0.0168543
916.700	0.0165207
916.779	0.0166699
916.857	0.0166074
916.935	0.0165623
917.013	0.0165107
917.091	0.0165381
917.169	0.0165805
917.247	0.0164240
917.325	0.0162914
917.404	0.0164790
917.482	0.0164800
917.560	0.0163048
917.638	0.0163310
917.716	0.0164440
917.794	0.0164486
917.872	0.0164601
917.950	0.0164278
918.029	0.0164823
918.107	0.0163928
918.185	0.0164144
918.263	0.0163639
918.341	0.0163758
918.419	0.0166461
918.497	0.0163035
918.575	0.0162994
918.654	0.0164441
918.732	0.0164514
918.810	0.0163676
918.888	0.0164922
918.966	0.0166129
919.044	0.0165363
919.122	0.0166914
919.200	0.0165484
919.279	0.0165115
919.357	0.0165633
919.435	0.0165626
919.513	0.0165326
919.591	0.0164883
919.669	0.0164302
919.747	0.0165279
919.825	0.0164452
919.904	0.0164334
