05/24/2022	20:27:25	Ver.	4.1	UNKNOWN
Optical Delay	599.988409	Delta X		0.078125	Sweeps	1	Scan Rate	0/0
Coordinates	Axis 1	NaN	Axis 2	NaN	Axis 3	NaN	Axis 4	NaN	Axis 5	NaN	Axis 6	0.000000
TX Power	0.000000	RX Power	0.000000

599.988	0.0164744
600.067	0.0165179
600.145	0.0163840
600.223	0.0165061
600.301	0.0165961
600.379	0.0163901
600.457	0.0164127
600.535	0.0164639
600.613	0.0164819
600.692	0.0163945
600.770	0.0164236
600.848	0.0165064
600.926	0.0165329
601.004	0.0163972
601.082	0.0165392
601.160	0.0163662
601.238	0.0164964
601.317	0.0164128
601.395	0.0165360
601.473	0.0166339
601.551	0.0165198
601.629	0.0165046
601.707	0.0164103
601.785	0.0163561
601.863	0.0164738
601.942	0.0166335
602.020	0.0164990
602.098	0.0163985
602.176	0.0164196
602.254	0.0164709
602.332	0.0163708
602.410	0.0164641
602.488	0.0165850
602.567	0.0164711
602.645	0.0163876
602.723	0.0165449
602.801	0.0164492
602.879	0.0165269
602.957	0.0165489
603.035	0.0164144
603.113	0.0164171
603.192	0.0165097
603.270	0.0164571
603.348	0.0164452
603.426	0.0164681
603.504	0.0164252
603.582	0.0165446
603.660	0.0164427
603.738	0.0165041
603.817	0.0164931
603.895	0.0164210
603.973	0.0165040
604.051	0.0164793
604.129	0.0164465
604.207	0.0164739
604.285	0.0164808
604.363	0.0164820
604.442	0.0163817
604.520	0.0165016
604.598	0.0165062
604.676	0.0166271
604.754	0.0164796
604.832	0.0163531
604.910	0.0164326
604.988	0.0164141
605.067	0.0163638
605.145	0.0165009
605.223	0.0164069
605.301	0.0163791
605.379	0.0165064
605.457	0.0165305
605.535	0.0163541
605.613	0.0164343
605.692	0.0164510
605.770	0.0164288
605.848	0.0164230
605.926	0.0164939
606.004	0.0163747
606.082	0.0164798
606.160	0.0166383
606.238	0.0165186
606.317	0.0164487
606.395	0.0164767
606.473	0.0165054
606.551	0.0163745
606.629	0.0163655
606.707	0.0164494
606.785	0.0164597
606.863	0.0163364
606.942	0.0163351
607.020	0.0164314
607.098	0.0164206
607.176	0.0164204
607.254	0.0163518
607.332	0.0164302
607.410	0.0163115
607.488	0.0165163
607.567	0.0165601
607.645	0.0164395
607.723	0.0163950
607.801	0.0163757
607.879	0.0163524
607.957	0.0164281
608.035	0.0164970
608.113	0.0164445
608.192	0.0163950
608.270	0.0163186
608.348	0.0165104
608.426	0.0165604
608.504	0.0163187
608.582	0.0165279
608.660	0.0165456
608.738	0.0165058
608.817	0.0165440
608.895	0.0163410
608.973	0.0166193
609.051	0.0166029
609.129	0.0163743
609.207	0.0165701
609.285	0.0164435
609.363	0.0164820
609.442	0.0164444
609.520	0.0164150
609.598	0.0164133
609.676	0.0164151
609.754	0.0165281
609.832	0.0163588
609.910	0.0164818
609.988	0.0164769
610.067	0.0163517
610.145	0.0165390
610.223	0.0165659
610.301	0.0165873
610.379	0.0163815
610.457	0.0164867
610.535	0.0165231
610.613	0.0164509
610.692	0.0164117
610.770	0.0164799
610.848	0.0165524
610.926	0.0165067
611.004	0.0164077
611.082	0.0163423
611.160	0.0163559
611.238	0.0165985
611.317	0.0165052
611.395	0.0164046
611.473	0.0165308
611.551	0.0165263
611.629	0.0164383
611.707	0.0164655
611.785	0.0164287
611.863	0.0164354
611.942	0.0165398
612.020	0.0165044
612.098	0.0164339
612.176	0.0164626
612.254	0.0164255
612.332	0.0163972
612.410	0.0164470
612.488	0.0164610
612.567	0.0164130
612.645	0.0164717
612.723	0.0164514
612.801	0.0164032
612.879	0.0163871
612.957	0.0165003
613.035	0.0163425
613.113	0.0165149
613.192	0.0164584
613.270	0.0164269
613.348	0.0164159
613.426	0.0164711
613.504	0.0166093
613.582	0.0163763
613.660	0.0164027
613.738	0.0164059
613.817	0.0164094
613.895	0.0164560
613.973	0.0164529
614.051	0.0164581
614.129	0.0162948
614.207	0.0164028
614.285	0.0165500
614.363	0.0163603
614.442	0.0163720
614.520	0.0165491
614.598	0.0163860
614.676	0.0163923
614.754	0.0164580
614.832	0.0162859
614.910	0.0164635
614.988	0.0163879
615.067	0.0164182
615.145	0.0163266
615.223	0.0164732
615.301	0.0163786
615.379	0.0163129
615.457	0.0164359
615.535	0.0164348
615.613	0.0163516
615.692	0.0164263
615.770	0.0164254
615.848	0.0163763
615.926	0.0164043
616.004	0.0165176
616.082	0.0163422
616.160	0.0164322
616.238	0.0163363
616.317	0.0165047
616.395	0.0163633
616.473	0.0165179
616.551	0.0164572
616.629	0.0164890
616.707	0.0165907
616.785	0.0164946
616.863	0.0165292
616.942	0.0164812
617.020	0.0162799
617.098	0.0164594
617.176	0.0165093
617.254	0.0163856
617.332	0.0164396
617.410	0.0164531
617.488	0.0165244
617.567	0.0164807
617.645	0.0165302
617.723	0.0164237
617.801	0.0164183
617.879	0.0164318
617.957	0.0164390
618.035	0.0163636
618.113	0.0164148
618.192	0.0163142
618.270	0.0164474
618.348	0.0165598
618.426	0.0163829
618.504	0.0164404
618.582	0.0164442
618.660	0.0165306
618.738	0.0164556
618.817	0.0164897
618.895	0.0164218
618.973	0.0165478
619.051	0.0164909
619.129	0.0164309
619.207	0.0165076
619.285	0.0165453
619.363	0.0164925
619.442	0.0164835
619.520	0.0163973
619.598	0.0165966
619.676	0.0164563
619.754	0.0164376
619.832	0.0164510
619.910	0.0166502
619.988	0.0165289
620.067	0.0165092
620.145	0.0164323
620.223	0.0164291
620.301	0.0163730
620.379	0.0164983
620.457	0.0164641
620.535	0.0165502
620.613	0.0164741
620.692	0.0162476
620.770	0.0162576
620.848	0.0162623
620.926	0.0163531
621.004	0.0164479
621.082	0.0162615
621.160	0.0163655
621.238	0.0163415
621.317	0.0162505
621.395	0.0164449
621.473	0.0164044
621.551	0.0164340
621.629	0.0164774
621.707	0.0165692
621.785	0.0165938
621.863	0.0166166
621.942	0.0167298
622.020	0.0166943
622.098	0.0167331
622.176	0.0165571
622.254	0.0167055
622.332	0.0167481
622.410	0.0167407
622.488	0.0168047
622.567	0.0167332
622.645	0.0167820
622.723	0.0165748
622.801	0.0166196
622.879	0.0166222
622.957	0.0165788
623.035	0.0164303
623.113	0.0164246
623.192	0.0163927
623.270	0.0162326
623.348	0.0163164
623.426	0.0162994
623.504	0.0161684
623.582	0.0162497
623.660	0.0161346
623.738	0.0161828
623.817	0.0164111
623.895	0.0162138
623.973	0.0161507
624.051	0.0163034
624.129	0.0162262
624.207	0.0161307
624.285	0.0162630
624.363	0.0165015
624.442	0.0164645
624.520	0.0163674
624.598	0.0165733
624.676	0.0166634
624.754	0.0166410
624.832	0.0166851
624.910	0.0168050
624.988	0.0168549
625.067	0.0168480
625.145	0.0168718
625.223	0.0169470
625.301	0.0169666
625.379	0.0169064
625.457	0.0167656
625.535	0.0168092
625.613	0.0167443
625.692	0.0166402
625.770	0.0166989
625.848	0.0167388
625.926	0.0165445
626.004	0.0165694
626.082	0.0166059
626.160	0.0164413
626.238	0.0165070
626.317	0.0162631
626.395	0.0163871
626.473	0.0163393
626.551	0.0161884
626.629	0.0162165
626.707	0.0163663
626.785	0.0162255
626.863	0.0162733
626.942	0.0162904
627.020	0.0161359
627.098	0.0161300
627.176	0.0161071
627.254	0.0160247
627.332	0.0162409
627.410	0.0162333
627.488	0.0161621
627.567	0.0162592
627.645	0.0162870
627.723	0.0163235
627.801	0.0164327
627.879	0.0164812
627.957	0.0164710
628.035	0.0165625
628.113	0.0167493
628.192	0.0167577
628.270	0.0167609
628.348	0.0165376
628.426	0.0168881
628.504	0.0169669
628.582	0.0169250
628.660	0.0169684
628.738	0.0170078
628.817	0.0169085
628.895	0.0169742
628.973	0.0169637
629.051	0.0170074
629.129	0.0168788
629.207	0.0169421
629.285	0.0168941
629.363	0.0168956
629.442	0.0168610
629.520	0.0167706
629.598	0.0167464
629.676	0.0166879
629.754	0.0164920
629.832	0.0166047
629.910	0.0164027
629.988	0.0163037
630.067	0.0162815
630.145	0.0163734
630.223	0.0162011
630.301	0.0161580
630.379	0.0160371
630.457	0.0159165
630.535	0.0159086
630.613	0.0160258
630.692	0.0159380
630.770	0.0159842
630.848	0.0161825
630.926	0.0159860
631.004	0.0161430
631.082	0.0161736
631.160	0.0161575
631.238	0.0162925
631.317	0.0162181
631.395	0.0162882
631.473	0.0164117
631.551	0.0166565
631.629	0.0165508
631.707	0.0165545
631.785	0.0167449
631.863	0.0169776
631.942	0.0168675
632.020	0.0170229
632.098	0.0171212
632.176	0.0170999
632.254	0.0170023
632.332	0.0170637
632.410	0.0171307
632.488	0.0172457
632.567	0.0172713
632.645	0.0170853
632.723	0.0172186
632.801	0.0169376
632.879	0.0168872
632.957	0.0169077
633.035	0.0169112
633.113	0.0167435
633.192	0.0165878
633.270	0.0165495
633.348	0.0163635
633.426	0.0162416
633.504	0.0161615
633.582	0.0161128
633.660	0.0160547
633.738	0.0158634
633.817	0.0158903
633.895	0.0159618
633.973	0.0158727
634.051	0.0158527
634.129	0.0157819
634.207	0.0157700
634.285	0.0158908
634.363	0.0159690
634.442	0.0159573
634.520	0.0159673
634.598	0.0161454
634.676	0.0163296
634.754	0.0163375
634.832	0.0163358
634.910	0.0164933
634.988	0.0165572
635.067	0.0166209
635.145	0.0167987
635.223	0.0167333
635.301	0.0167727
635.379	0.0170317
635.457	0.0168829
635.535	0.0169829
635.613	0.0169001
635.692	0.0170921
635.770	0.0170481
635.848	0.0169775
635.926	0.0169332
636.004	0.0169027
636.082	0.0167716
636.160	0.0169727
636.238	0.0167717
636.317	0.0166150
636.395	0.0167410
636.473	0.0166086
636.551	0.0166881
636.629	0.0165238
636.707	0.0165309
636.785	0.0165730
636.863	0.0165424
636.942	0.0163945
637.020	0.0164522
637.098	0.0164606
637.176	0.0163379
637.254	0.0163354
637.332	0.0163863
637.410	0.0164662
637.488	0.0162502
637.567	0.0162843
637.645	0.0162410
637.723	0.0161631
637.801	0.0161604
637.879	0.0162310
637.957	0.0160999
638.035	0.0161735
638.113	0.0161501
638.192	0.0158466
638.270	0.0160419
638.348	0.0161124
638.426	0.0161457
638.504	0.0161430
638.582	0.0161023
638.660	0.0162679
638.738	0.0161121
638.817	0.0162926
638.895	0.0164391
638.973	0.0165659
639.051	0.0167766
639.129	0.0168665
639.207	0.0167199
639.285	0.0167960
639.363	0.0168977
639.442	0.0170898
639.520	0.0170557
639.598	0.0170934
639.676	0.0171957
639.754	0.0170161
639.832	0.0170775
639.910	0.0169872
639.988	0.0169604
640.067	0.0168342
640.145	0.0168580
640.223	0.0166439
640.301	0.0165311
640.379	0.0164159
640.457	0.0162748
640.535	0.0163352
640.613	0.0161727
640.692	0.0160720
640.770	0.0159987
640.848	0.0160790
640.926	0.0160585
641.004	0.0159708
641.082	0.0159254
641.160	0.0159518
641.238	0.0161281
641.317	0.0160841
641.395	0.0160233
641.473	0.0160259
641.551	0.0161677
641.629	0.0162825
641.707	0.0162929
641.785	0.0162717
641.863	0.0164349
641.942	0.0164521
642.020	0.0165924
642.098	0.0167898
642.176	0.0165900
642.254	0.0166319
642.332	0.0167407
642.410	0.0166599
642.488	0.0166666
642.567	0.0168367
642.645	0.0166903
642.723	0.0166146
642.801	0.0165493
642.879	0.0165949
642.957	0.0164880
643.035	0.0164921
643.113	0.0163079
643.192	0.0164504
643.270	0.0163435
643.348	0.0163490
643.426	0.0165737
643.504	0.0163155
643.582	0.0163760
643.660	0.0164509
643.738	0.0164481
643.817	0.0166357
643.895	0.0165324
643.973	0.0165997
644.051	0.0165663
644.129	0.0166795
644.207	0.0166425
644.285	0.0166485
644.363	0.0167202
644.442	0.0165105
644.520	0.0166160
644.598	0.0165409
644.676	0.0164883
644.754	0.0164983
644.832	0.0163123
644.910	0.0163643
644.988	0.0163117
645.067	0.0162175
645.145	0.0162925
645.223	0.0161707
645.301	0.0162669
645.379	0.0163548
645.457	0.0162740
645.535	0.0162046
645.613	0.0162296
645.692	0.0162679
645.770	0.0162579
645.848	0.0162708
645.926	0.0163428
646.004	0.0163071
646.082	0.0164941
646.160	0.0164845
646.238	0.0164121
646.317	0.0166402
646.395	0.0165548
646.473	0.0165397
646.551	0.0166592
646.629	0.0167130
646.707	0.0168674
646.785	0.0169143
646.863	0.0168199
646.942	0.0167990
647.020	0.0168468
647.098	0.0167177
647.176	0.0167127
647.254	0.0168008
647.332	0.0167297
647.410	0.0166624
647.488	0.0166716
647.567	0.0165362
647.645	0.0164590
647.723	0.0163623
647.801	0.0163648
647.879	0.0164144
647.957	0.0163900
648.035	0.0163485
648.113	0.0162983
648.192	0.0162483
648.270	0.0162241
648.348	0.0163806
648.426	0.0163570
648.504	0.0165204
648.582	0.0163026
648.660	0.0162129
648.738	0.0164852
648.817	0.0164794
648.895	0.0163496
648.973	0.0164082
649.051	0.0164701
649.129	0.0164216
649.207	0.0163702
649.285	0.0165615
649.363	0.0164901
649.442	0.0164142
649.520	0.0164796
649.598	0.0165549
649.676	0.0166701
649.754	0.0165637
649.832	0.0166319
649.910	0.0167449
649.988	0.0166274
650.067	0.0168363
650.145	0.0167139
650.223	0.0167399
650.301	0.0167039
650.379	0.0166145
650.457	0.0165437
650.535	0.0166801
650.613	0.0167680
650.692	0.0165131
650.770	0.0166413
650.848	0.0165089
650.926	0.0164093
651.004	0.0164133
651.082	0.0164604
651.160	0.0163676
651.238	0.0162511
651.317	0.0164315
651.395	0.0166477
651.473	0.0164748
651.551	0.0164844
651.629	0.0165632
651.707	0.0163590
651.785	0.0164745
651.863	0.0165892
651.942	0.0165961
652.020	0.0166856
652.098	0.0166617
652.176	0.0164722
652.254	0.0165414
652.332	0.0166646
652.410	0.0164141
652.488	0.0163914
652.567	0.0164527
652.645	0.0164862
652.723	0.0164377
652.801	0.0165962
652.879	0.0162853
652.957	0.0164394
653.035	0.0165138
653.113	0.0163435
653.192	0.0164388
653.270	0.0164420
653.348	0.0164024
653.426	0.0164494
653.504	0.0164030
653.582	0.0164527
653.660	0.0164135
653.738	0.0165490
653.817	0.0164612
653.895	0.0164083
653.973	0.0164045
654.051	0.0163802
654.129	0.0164769
654.207	0.0163348
654.285	0.0163898
654.363	0.0163730
654.442	0.0163205
654.520	0.0163039
654.598	0.0165006
654.676	0.0166220
654.754	0.0165972
654.832	0.0167120
654.910	0.0169886
654.988	0.0169963
655.067	0.0170827
655.145	0.0172004
655.223	0.0172874
655.301	0.0172669
655.379	0.0171907
655.457	0.0173978
655.535	0.0172417
655.613	0.0168405
655.692	0.0168037
655.770	0.0165894
655.848	0.0164042
655.926	0.0163898
656.004	0.0160275
656.082	0.0158406
656.160	0.0157729
656.238	0.0155650
656.317	0.0154472
656.395	0.0152458
656.473	0.0154078
656.551	0.0154889
656.629	0.0156475
656.707	0.0155992
656.785	0.0159499
656.863	0.0161147
656.942	0.0162453
657.020	0.0165211
657.098	0.0166904
657.176	0.0169094
657.254	0.0170425
657.332	0.0174265
657.410	0.0175307
657.488	0.0176437
657.567	0.0176454
657.645	0.0176237
657.723	0.0177768
657.801	0.0176977
657.879	0.0176297
657.957	0.0174405
658.035	0.0172515
658.113	0.0169395
658.192	0.0168846
658.270	0.0167445
658.348	0.0163551
658.426	0.0161999
658.504	0.0159528
658.582	0.0158803
658.660	0.0155473
658.738	0.0154051
658.817	0.0152586
658.895	0.0152663
658.973	0.0153271
659.051	0.0151487
659.129	0.0151686
659.207	0.0152407
659.285	0.0155431
659.363	0.0155769
659.442	0.0157738
659.520	0.0159842
659.598	0.0162512
659.676	0.0165873
659.754	0.0168163
659.832	0.0169890
659.910	0.0173283
659.988	0.0176028
660.067	0.0177229
660.145	0.0177895
660.223	0.0178709
660.301	0.0177251
660.379	0.0177640
660.457	0.0175114
660.535	0.0171846
660.613	0.0171009
660.692	0.0169018
660.770	0.0165579
660.848	0.0162852
660.926	0.0162249
661.004	0.0160580
661.082	0.0160297
661.160	0.0159755
661.238	0.0161372
661.317	0.0160449
661.395	0.0161996
661.473	0.0163351
661.551	0.0165195
661.629	0.0167669
661.707	0.0168806
661.785	0.0171600
661.863	0.0171004
661.942	0.0170754
662.020	0.0169289
662.098	0.0171249
662.176	0.0170118
662.254	0.0168492
662.332	0.0166899
662.410	0.0165842
662.488	0.0162994
662.567	0.0161362
662.645	0.0160738
662.723	0.0158463
662.801	0.0157833
662.879	0.0155914
662.957	0.0154790
663.035	0.0155122
663.113	0.0153938
663.192	0.0155343
663.270	0.0154044
663.348	0.0154138
663.426	0.0154268
663.504	0.0155576
663.582	0.0156194
663.660	0.0158351
663.738	0.0158819
663.817	0.0159911
663.895	0.0160796
663.973	0.0163297
664.051	0.0165534
664.129	0.0166006
664.207	0.0169582
664.285	0.0171323
664.363	0.0170962
664.442	0.0171001
664.520	0.0171973
664.598	0.0173577
664.676	0.0172460
664.754	0.0173335
664.832	0.0174472
664.910	0.0174116
664.988	0.0175403
665.067	0.0176369
665.145	0.0179326
665.223	0.0181081
665.301	0.0183054
665.379	0.0184592
665.457	0.0184864
665.535	0.0185275
665.613	0.0184843
665.692	0.0184113
665.770	0.0182164
665.848	0.0179800
665.926	0.0175910
666.004	0.0171516
666.082	0.0165692
666.160	0.0162355
666.238	0.0156452
666.317	0.0150562
666.395	0.0142950
666.473	0.0140555
666.551	0.0136023
666.629	0.0132933
666.707	0.0129019
666.785	0.0127988
666.863	0.0127200
666.942	0.0126065
667.020	0.0128391
667.098	0.0130605
667.176	0.0132607
667.254	0.0136760
667.332	0.0142034
667.410	0.0147697
667.488	0.0153716
667.567	0.0159962
667.645	0.0165723
667.723	0.0172810
667.801	0.0179188
667.879	0.0183922
667.957	0.0189022
668.035	0.0194111
668.113	0.0197360
668.192	0.0199445
668.270	0.0199682
668.348	0.0201413
668.426	0.0200241
668.504	0.0199705
668.582	0.0198164
668.660	0.0194547
668.738	0.0192315
668.817	0.0189397
668.895	0.0185146
668.973	0.0180412
669.051	0.0178672
669.129	0.0173985
669.207	0.0170844
669.285	0.0167464
669.363	0.0162707
669.442	0.0159940
669.520	0.0153279
669.598	0.0149291
669.676	0.0145879
669.754	0.0141430
669.832	0.0138068
669.910	0.0133189
669.988	0.0132423
670.067	0.0130332
670.145	0.0130036
670.223	0.0130443
670.301	0.0132236
670.379	0.0137642
670.457	0.0140926
670.535	0.0147257
670.613	0.0152779
670.692	0.0158624
670.770	0.0166093
670.848	0.0170406
670.926	0.0177473
671.004	0.0180701
671.082	0.0185822
671.160	0.0187505
671.238	0.0186722
671.317	0.0188343
671.395	0.0185972
671.473	0.0183326
671.551	0.0182819
671.629	0.0176502
671.707	0.0171872
671.785	0.0167675
671.863	0.0163468
671.942	0.0160278
672.020	0.0155911
672.098	0.0151083
672.176	0.0148380
672.254	0.0148824
672.332	0.0147333
672.410	0.0148603
672.488	0.0149371
672.567	0.0152319
672.645	0.0157486
672.723	0.0160741
672.801	0.0163869
672.879	0.0169597
672.957	0.0174064
673.035	0.0177837
673.113	0.0182740
673.192	0.0186095
673.270	0.0186806
673.348	0.0188222
673.426	0.0188920
673.504	0.0186579
673.582	0.0183745
673.660	0.0178637
673.738	0.0176817
673.817	0.0170612
673.895	0.0164517
673.973	0.0158488
674.051	0.0156072
674.129	0.0151888
674.207	0.0150013
674.285	0.0147775
674.363	0.0147642
674.442	0.0148556
674.520	0.0149974
674.598	0.0152135
674.676	0.0154678
674.754	0.0157977
674.832	0.0161173
674.910	0.0163091
674.988	0.0165133
675.067	0.0165241
675.145	0.0165678
675.223	0.0163709
675.301	0.0163764
675.379	0.0163071
675.457	0.0162743
675.535	0.0161016
675.613	0.0163245
675.692	0.0163821
675.770	0.0164707
675.848	0.0165139
675.926	0.0166723
676.004	0.0168425
676.082	0.0169968
676.160	0.0169928
676.238	0.0171134
676.317	0.0171474
676.395	0.0172058
676.473	0.0171698
676.551	0.0172641
676.629	0.0169506
676.707	0.0168839
676.785	0.0168506
676.863	0.0169138
676.942	0.0167966
677.020	0.0166188
677.098	0.0165559
677.176	0.0164218
677.254	0.0163046
677.332	0.0161252
677.410	0.0159489
677.488	0.0158001
677.567	0.0155731
677.645	0.0154409
677.723	0.0153997
677.801	0.0152577
677.879	0.0149164
677.957	0.0150403
678.035	0.0151059
678.113	0.0152586
678.192	0.0155935
678.270	0.0157365
678.348	0.0159990
678.426	0.0164095
678.504	0.0166396
678.582	0.0168719
678.660	0.0172537
678.738	0.0174516
678.817	0.0176105
678.895	0.0177557
678.973	0.0178012
679.051	0.0178511
679.129	0.0178536
679.207	0.0177715
679.285	0.0176102
679.363	0.0174071
679.442	0.0171331
679.520	0.0169153
679.598	0.0167097
679.676	0.0165055
679.754	0.0162835
679.832	0.0159438
679.910	0.0159522
679.988	0.0158022
680.067	0.0157186
680.145	0.0158687
680.223	0.0160769
680.301	0.0161996
680.379	0.0164842
680.457	0.0166183
680.535	0.0170119
680.613	0.0173359
680.692	0.0176541
680.770	0.0179971
680.848	0.0180786
680.926	0.0181989
681.004	0.0182260
681.082	0.0181441
681.160	0.0177078
681.238	0.0172841
681.317	0.0170089
681.395	0.0164587
681.473	0.0158392
681.551	0.0154256
681.629	0.0149283
681.707	0.0146983
681.785	0.0142599
681.863	0.0140095
681.942	0.0138152
682.020	0.0140461
682.098	0.0143083
682.176	0.0144408
682.254	0.0148041
682.332	0.0153510
682.410	0.0157262
682.488	0.0159778
682.567	0.0162993
682.645	0.0165269
682.723	0.0164430
682.801	0.0167305
682.879	0.0167646
682.957	0.0166315
683.035	0.0165080
683.113	0.0164640
683.192	0.0163977
683.270	0.0163177
683.348	0.0163439
683.426	0.0163038
683.504	0.0162917
683.582	0.0164935
683.660	0.0166993
683.738	0.0167249
683.817	0.0169817
683.895	0.0172311
683.973	0.0173564
684.051	0.0177103
684.129	0.0179080
684.207	0.0179928
684.285	0.0182214
684.363	0.0183212
684.442	0.0185005
684.520	0.0185033
684.598	0.0185160
684.676	0.0184631
684.754	0.0184195
684.832	0.0182415
684.910	0.0180483
684.988	0.0178142
685.067	0.0176225
685.145	0.0171952
685.223	0.0170552
685.301	0.0168064
685.379	0.0166117
685.457	0.0162881
685.535	0.0162085
685.613	0.0160144
685.692	0.0159318
685.770	0.0159638
685.848	0.0158485
685.926	0.0153653
686.004	0.0152342
686.082	0.0152892
686.160	0.0151995
686.238	0.0150475
686.317	0.0147906
686.395	0.0145457
686.473	0.0142949
686.551	0.0140765
686.629	0.0140746
686.707	0.0140136
686.785	0.0138656
686.863	0.0138400
686.942	0.0138850
687.020	0.0143351
687.098	0.0142039
687.176	0.0144229
687.254	0.0148003
687.332	0.0151620
687.410	0.0154804
687.488	0.0160236
687.567	0.0163531
687.645	0.0169432
687.723	0.0172364
687.801	0.0175425
687.879	0.0181165
687.957	0.0183627
688.035	0.0186944
688.113	0.0189165
688.192	0.0189354
688.270	0.0191417
688.348	0.0190633
688.426	0.0189841
688.504	0.0186658
688.582	0.0182653
688.660	0.0179119
688.738	0.0176450
688.817	0.0173964
688.895	0.0172475
688.973	0.0169322
689.051	0.0166568
689.129	0.0164702
689.207	0.0163811
689.285	0.0162024
689.363	0.0159982
689.442	0.0160687
689.520	0.0162070
689.598	0.0161304
689.676	0.0160715
689.754	0.0164034
689.832	0.0161706
689.910	0.0163152
689.988	0.0166054
690.067	0.0165453
690.145	0.0165591
690.223	0.0167748
690.301	0.0167947
690.379	0.0168429
690.457	0.0168279
690.535	0.0170370
690.613	0.0168839
690.692	0.0168528
690.770	0.0168375
690.848	0.0166572
690.926	0.0165277
691.004	0.0161096
691.082	0.0160720
691.160	0.0159240
691.238	0.0157047
691.317	0.0153121
691.395	0.0154366
691.473	0.0153001
691.551	0.0152834
691.629	0.0152332
691.707	0.0152926
691.785	0.0155097
691.863	0.0155987
691.942	0.0157797
692.020	0.0160568
692.098	0.0162234
692.176	0.0164481
692.254	0.0166147
692.332	0.0167220
692.410	0.0169491
692.488	0.0169731
692.567	0.0169405
692.645	0.0170931
692.723	0.0170061
692.801	0.0168472
692.879	0.0167291
692.957	0.0166958
693.035	0.0164397
693.113	0.0160689
693.192	0.0160007
693.270	0.0160007
693.348	0.0158153
693.426	0.0157607
693.504	0.0157590
693.582	0.0156147
693.660	0.0156725
693.738	0.0157452
693.817	0.0156036
693.895	0.0157677
693.973	0.0158681
694.051	0.0158718
694.129	0.0159801
694.207	0.0158880
694.285	0.0159389
694.363	0.0161501
694.442	0.0163000
694.520	0.0162109
694.598	0.0165022
694.676	0.0165307
694.754	0.0166995
694.832	0.0170499
694.910	0.0172825
694.988	0.0174001
695.067	0.0177212
695.145	0.0178377
695.223	0.0180182
695.301	0.0180624
695.379	0.0182604
695.457	0.0182735
695.535	0.0183609
695.613	0.0182784
695.692	0.0181611
695.770	0.0179628
695.848	0.0180770
695.926	0.0178388
696.004	0.0178073
696.082	0.0176939
696.160	0.0173821
696.238	0.0172728
696.317	0.0170750
696.395	0.0167730
696.473	0.0166689
696.551	0.0163154
696.629	0.0161681
696.707	0.0159017
696.785	0.0156234
696.863	0.0153144
696.942	0.0152567
697.020	0.0151438
697.098	0.0150434
697.176	0.0150201
697.254	0.0149266
697.332	0.0149488
697.410	0.0150014
697.488	0.0150270
697.567	0.0152789
697.645	0.0155751
697.723	0.0156429
697.801	0.0157166
697.879	0.0159624
697.957	0.0161002
698.035	0.0163947
698.113	0.0164757
698.192	0.0166143
698.270	0.0166369
698.348	0.0167756
698.426	0.0167488
698.504	0.0168447
698.582	0.0167845
698.660	0.0167248
698.738	0.0165623
698.817	0.0162917
698.895	0.0162083
698.973	0.0159491
699.051	0.0157781
699.129	0.0157556
699.207	0.0154177
699.285	0.0152191
699.363	0.0153935
699.442	0.0153224
699.520	0.0154336
699.598	0.0154607
699.676	0.0157301
699.754	0.0158562
699.832	0.0158572
699.910	0.0161840
699.988	0.0164243
700.067	0.0166253
700.145	0.0166220
700.223	0.0168068
700.301	0.0170975
700.379	0.0172166
700.457	0.0172916
700.535	0.0175578
700.613	0.0177637
700.692	0.0180937
700.770	0.0180551
700.848	0.0181399
700.926	0.0180674
701.004	0.0181420
701.082	0.0181883
701.160	0.0178897
701.238	0.0177023
701.317	0.0176350
701.395	0.0173389
701.473	0.0171265
701.551	0.0166789
701.629	0.0164201
701.707	0.0161271
701.785	0.0161833
701.863	0.0158423
701.942	0.0159763
702.020	0.0157120
702.098	0.0156255
702.176	0.0158224
702.254	0.0159708
702.332	0.0158952
702.410	0.0161253
702.488	0.0160462
702.567	0.0163095
702.645	0.0163603
702.723	0.0163857
702.801	0.0165102
702.879	0.0165569
702.957	0.0167426
703.035	0.0167023
703.113	0.0168103
703.192	0.0168354
703.270	0.0168186
703.348	0.0168657
703.426	0.0168936
703.504	0.0168867
703.582	0.0167594
703.660	0.0168857
703.738	0.0167604
703.817	0.0166776
703.895	0.0163139
703.973	0.0162907
704.051	0.0161349
704.129	0.0160154
704.207	0.0158213
704.285	0.0159888
704.363	0.0158497
704.442	0.0157740
704.520	0.0159740
704.598	0.0158627
704.676	0.0160799
704.754	0.0162659
704.832	0.0164021
704.910	0.0164507
704.988	0.0164590
705.067	0.0165810
705.145	0.0166287
705.223	0.0166143
705.301	0.0166508
705.379	0.0166914
705.457	0.0167330
705.535	0.0165427
705.613	0.0165025
705.692	0.0164868
705.770	0.0163667
705.848	0.0162666
705.926	0.0162380
706.004	0.0162393
706.082	0.0161147
706.160	0.0161772
706.238	0.0160475
706.317	0.0160753
706.395	0.0159826
706.473	0.0158843
706.551	0.0159317
706.629	0.0158038
706.707	0.0158804
706.785	0.0159431
706.863	0.0159329
706.942	0.0161015
707.020	0.0162022
707.098	0.0162497
707.176	0.0164391
707.254	0.0164147
707.332	0.0165911
707.410	0.0167018
707.488	0.0166608
707.567	0.0165497
707.645	0.0167489
707.723	0.0167136
707.801	0.0168481
707.879	0.0167670
707.957	0.0168396
708.035	0.0168598
708.113	0.0170715
708.192	0.0171098
708.270	0.0171968
708.348	0.0173759
708.426	0.0174227
708.504	0.0174871
708.582	0.0176438
708.660	0.0175810
708.738	0.0175633
708.817	0.0175772
708.895	0.0173517
708.973	0.0173601
709.051	0.0170737
709.129	0.0169810
709.207	0.0168374
709.285	0.0166930
709.363	0.0164309
709.442	0.0163755
709.520	0.0163200
709.598	0.0161067
709.676	0.0161406
709.754	0.0160526
709.832	0.0160881
709.910	0.0161025
709.988	0.0159933
710.067	0.0159687
710.145	0.0161469
710.223	0.0162032
710.301	0.0160139
710.379	0.0162426
710.457	0.0162856
710.535	0.0161804
710.613	0.0160167
710.692	0.0161476
710.770	0.0162342
710.848	0.0162352
710.926	0.0163581
711.004	0.0164991
711.082	0.0166003
711.160	0.0166896
711.238	0.0167549
711.317	0.0169379
711.395	0.0169507
711.473	0.0171685
711.551	0.0171724
711.629	0.0171162
711.707	0.0170747
711.785	0.0170124
711.863	0.0168605
711.942	0.0167468
712.020	0.0168439
712.098	0.0166783
712.176	0.0164946
712.254	0.0163127
712.332	0.0162074
712.410	0.0158675
712.488	0.0156591
712.567	0.0155694
712.645	0.0153229
712.723	0.0153529
712.801	0.0149274
712.879	0.0148930
712.957	0.0148994
713.035	0.0146803
713.113	0.0149570
713.192	0.0150042
713.270	0.0151135
713.348	0.0150088
713.426	0.0152852
713.504	0.0155917
713.582	0.0156588
713.660	0.0157945
713.738	0.0161288
713.817	0.0163008
713.895	0.0164719
713.973	0.0166942
714.051	0.0167836
714.129	0.0167526
714.207	0.0169723
714.285	0.0170340
714.363	0.0169643
714.442	0.0169546
714.520	0.0169518
714.598	0.0169383
714.676	0.0168275
714.754	0.0169397
714.832	0.0171152
714.910	0.0170119
714.988	0.0172620
715.067	0.0173843
715.145	0.0173567
715.223	0.0175307
715.301	0.0174802
715.379	0.0176849
715.457	0.0178458
715.535	0.0177789
715.613	0.0177694
715.692	0.0177030
715.770	0.0177149
715.848	0.0176181
715.926	0.0173145
716.004	0.0173000
716.082	0.0172645
716.160	0.0169939
716.238	0.0166862
716.317	0.0166245
716.395	0.0164798
716.473	0.0164330
716.551	0.0161533
716.629	0.0161372
716.707	0.0161625
716.785	0.0163389
716.863	0.0161944
716.942	0.0161733
717.020	0.0162006
717.098	0.0161732
717.176	0.0161103
717.254	0.0162399
717.332	0.0163439
717.410	0.0161756
717.488	0.0162506
717.567	0.0162191
717.645	0.0162330
717.723	0.0162452
717.801	0.0161088
717.879	0.0160688
717.957	0.0162220
718.035	0.0162135
718.113	0.0162933
718.192	0.0162738
718.270	0.0164067
718.348	0.0163937
718.426	0.0167435
718.504	0.0167807
718.582	0.0168735
718.660	0.0169299
718.738	0.0169147
718.817	0.0169604
718.895	0.0169753
718.973	0.0168483
719.051	0.0168161
719.129	0.0167271
719.207	0.0165692
719.285	0.0163982
719.363	0.0161813
719.442	0.0159816
719.520	0.0157184
719.598	0.0154130
719.676	0.0154211
719.754	0.0150941
719.832	0.0148612
719.910	0.0148625
719.988	0.0148339
720.067	0.0146465
720.145	0.0146745
720.223	0.0149413
720.301	0.0151347
720.379	0.0151434
720.457	0.0151661
720.535	0.0155415
720.613	0.0155682
720.692	0.0157379
720.770	0.0159940
720.848	0.0161644
720.926	0.0163242
721.004	0.0164324
721.082	0.0166929
721.160	0.0166213
721.238	0.0167471
721.317	0.0170195
721.395	0.0171817
721.473	0.0172514
721.551	0.0173846
721.629	0.0174340
721.707	0.0174281
721.785	0.0176947
721.863	0.0176999
721.942	0.0177333
722.020	0.0178729
722.098	0.0178883
722.176	0.0179468
722.254	0.0180206
722.332	0.0179836
722.410	0.0180131
722.488	0.0179339
722.567	0.0178046
722.645	0.0177630
722.723	0.0177596
722.801	0.0174530
722.879	0.0175076
722.957	0.0172762
723.035	0.0172903
723.113	0.0170026
723.192	0.0169241
723.270	0.0167624
723.348	0.0165540
723.426	0.0165788
723.504	0.0164226
723.582	0.0162782
723.660	0.0163586
723.738	0.0163824
723.817	0.0162775
723.895	0.0160632
723.973	0.0162933
724.051	0.0162506
724.129	0.0164143
724.207	0.0164030
724.285	0.0163890
724.363	0.0162557
724.442	0.0163694
724.520	0.0164927
724.598	0.0164432
724.676	0.0161734
724.754	0.0163142
724.832	0.0162045
724.910	0.0162953
724.988	0.0161499
725.067	0.0160630
725.145	0.0159539
725.223	0.0158210
725.301	0.0157436
725.379	0.0156246
725.457	0.0156123
725.535	0.0157539
725.613	0.0156511
725.692	0.0156277
725.770	0.0156857
725.848	0.0158042
725.926	0.0159406
726.004	0.0161714
726.082	0.0161909
726.160	0.0162937
726.238	0.0164682
726.317	0.0166111
726.395	0.0165762
726.473	0.0166388
726.551	0.0164794
726.629	0.0164554
726.707	0.0163713
726.785	0.0162759
726.863	0.0161117
726.942	0.0160000
727.020	0.0158555
727.098	0.0156026
727.176	0.0156441
727.254	0.0155360
727.332	0.0156101
727.410	0.0156641
727.488	0.0155572
727.567	0.0155446
727.645	0.0156007
727.723	0.0157938
727.801	0.0159911
727.879	0.0160854
727.957	0.0162553
728.035	0.0163519
728.113	0.0164368
728.192	0.0165062
728.270	0.0166102
728.348	0.0168273
728.426	0.0168815
728.504	0.0170849
728.582	0.0170512
728.660	0.0170388
728.738	0.0174220
728.817	0.0173215
728.895	0.0175192
728.973	0.0176418
729.051	0.0178419
729.129	0.0178895
729.207	0.0181548
729.285	0.0181863
729.363	0.0181484
729.442	0.0181441
729.520	0.0182496
729.598	0.0180919
729.676	0.0179148
729.754	0.0179171
729.832	0.0176663
729.910	0.0174721
729.988	0.0174053
730.067	0.0170602
730.145	0.0168473
730.223	0.0166257
730.301	0.0164185
730.379	0.0160284
730.457	0.0158398
730.535	0.0158058
730.613	0.0157661
730.692	0.0157207
730.770	0.0156146
730.848	0.0156084
730.926	0.0158234
731.004	0.0157818
731.082	0.0156836
731.160	0.0159206
731.238	0.0159541
731.317	0.0160373
731.395	0.0161342
731.473	0.0161255
731.551	0.0162445
731.629	0.0163371
731.707	0.0162028
731.785	0.0161955
731.863	0.0163653
731.942	0.0162733
732.020	0.0163237
732.098	0.0163214
732.176	0.0164440
732.254	0.0163789
732.332	0.0161610
732.410	0.0161128
732.488	0.0162706
732.567	0.0161716
732.645	0.0161469
732.723	0.0161142
732.801	0.0161362
732.879	0.0162047
732.957	0.0163232
733.035	0.0161326
733.113	0.0161994
733.192	0.0163433
733.270	0.0163727
733.348	0.0163550
733.426	0.0162988
733.504	0.0163821
733.582	0.0164027
733.660	0.0162663
733.738	0.0163323
733.817	0.0163243
733.895	0.0162736
733.973	0.0162508
734.051	0.0161649
734.129	0.0160999
734.207	0.0161127
734.285	0.0159391
734.363	0.0159459
734.442	0.0160388
734.520	0.0159952
734.598	0.0160094
734.676	0.0159674
734.754	0.0160120
734.832	0.0160960
734.910	0.0161887
734.988	0.0162396
735.067	0.0163506
735.145	0.0163778
735.223	0.0164661
735.301	0.0165089
735.379	0.0164349
735.457	0.0166274
735.535	0.0164854
735.613	0.0165459
735.692	0.0167742
735.770	0.0167626
735.848	0.0167903
735.926	0.0169018
736.004	0.0169663
736.082	0.0171142
736.160	0.0172619
736.238	0.0172557
736.317	0.0171771
736.395	0.0172553
736.473	0.0174406
736.551	0.0173659
736.629	0.0173802
736.707	0.0174653
736.785	0.0174549
736.863	0.0173183
736.942	0.0170763
737.020	0.0171681
737.098	0.0171046
737.176	0.0169523
737.254	0.0169583
737.332	0.0166029
737.410	0.0165467
737.488	0.0163943
737.567	0.0162959
737.645	0.0162952
737.723	0.0162350
737.801	0.0160467
737.879	0.0160426
737.957	0.0160703
738.035	0.0160864
738.113	0.0161030
738.192	0.0161449
738.270	0.0161562
738.348	0.0162751
738.426	0.0161931
738.504	0.0162447
738.582	0.0164046
738.660	0.0163110
738.738	0.0164730
738.817	0.0164751
738.895	0.0165055
738.973	0.0165774
739.051	0.0165559
739.129	0.0166711
739.207	0.0165752
739.285	0.0165797
739.363	0.0166422
739.442	0.0165598
739.520	0.0164570
739.598	0.0163959
739.676	0.0163418
739.754	0.0164797
739.832	0.0164711
739.910	0.0165500
739.988	0.0163948
740.067	0.0162854
740.145	0.0163605
740.223	0.0163902
740.301	0.0162267
740.379	0.0163608
740.457	0.0162494
740.535	0.0163219
740.613	0.0162413
740.692	0.0162716
740.770	0.0163239
740.848	0.0162760
740.926	0.0161868
741.004	0.0161505
741.082	0.0161206
741.160	0.0161025
741.238	0.0160929
741.317	0.0160142
741.395	0.0159692
741.473	0.0159100
741.551	0.0160126
741.629	0.0158318
741.707	0.0158407
741.785	0.0158067
741.863	0.0158620
741.942	0.0160593
742.020	0.0159615
742.098	0.0159392
742.176	0.0160881
742.254	0.0162067
742.332	0.0162082
742.410	0.0162489
742.488	0.0162681
742.567	0.0163614
742.645	0.0165478
742.723	0.0165495
742.801	0.0165746
742.879	0.0166190
742.957	0.0168034
743.035	0.0168279
743.113	0.0166547
743.192	0.0168821
743.270	0.0170168
743.348	0.0169957
743.426	0.0172473
743.504	0.0172702
743.582	0.0171681
743.660	0.0170570
743.738	0.0173408
743.817	0.0170110
743.895	0.0171378
743.973	0.0172260
744.051	0.0170960
744.129	0.0170505
744.207	0.0171279
744.285	0.0170930
744.363	0.0168564
744.442	0.0167453
744.520	0.0168020
744.598	0.0167001
744.676	0.0166412
744.754	0.0165123
744.832	0.0166504
744.910	0.0165149
744.988	0.0165412
745.067	0.0166284
745.145	0.0166571
745.223	0.0166412
745.301	0.0164751
745.379	0.0166674
745.457	0.0168443
745.535	0.0167068
745.613	0.0168849
745.692	0.0169069
745.770	0.0169219
745.848	0.0169785
745.926	0.0169762
746.004	0.0170284
746.082	0.0168868
746.160	0.0168246
746.238	0.0167867
746.317	0.0166383
746.395	0.0165675
746.473	0.0166626
746.551	0.0166087
746.629	0.0164163
746.707	0.0162759
746.785	0.0163713
746.863	0.0163383
746.942	0.0161893
747.020	0.0162553
747.098	0.0160952
747.176	0.0162244
747.254	0.0161917
747.332	0.0162371
747.410	0.0160736
747.488	0.0161707
747.567	0.0162404
747.645	0.0163578
747.723	0.0162507
747.801	0.0161655
747.879	0.0162303
747.957	0.0160390
748.035	0.0161546
748.113	0.0160622
748.192	0.0160234
748.270	0.0159344
748.348	0.0158700
748.426	0.0159355
748.504	0.0157938
748.582	0.0159109
748.660	0.0160245
748.738	0.0157055
748.817	0.0158141
748.895	0.0156915
748.973	0.0156229
749.051	0.0157836
749.129	0.0157539
749.207	0.0158649
749.285	0.0158109
749.363	0.0158162
749.442	0.0159143
749.520	0.0158061
749.598	0.0158871
749.676	0.0160387
749.754	0.0161794
749.832	0.0161314
749.910	0.0162168
749.988	0.0163793
750.067	0.0165652
750.145	0.0167915
750.223	0.0168646
750.301	0.0169186
750.379	0.0171159
750.457	0.0171553
750.535	0.0173306
750.613	0.0173534
750.692	0.0174883
750.770	0.0175162
750.848	0.0175801
750.926	0.0176124
751.004	0.0175523
751.082	0.0175271
751.160	0.0176085
751.238	0.0174665
751.317	0.0173821
751.395	0.0172759
751.473	0.0172852
751.551	0.0171854
751.629	0.0170692
751.707	0.0170060
751.785	0.0167338
751.863	0.0167274
751.942	0.0168542
752.020	0.0166666
752.098	0.0165777
752.176	0.0166166
752.254	0.0165964
752.332	0.0166776
752.410	0.0165860
752.488	0.0166758
752.567	0.0166897
752.645	0.0165236
752.723	0.0166711
752.801	0.0164523
752.879	0.0166556
752.957	0.0166135
753.035	0.0166106
753.113	0.0167503
753.192	0.0167853
753.270	0.0166469
753.348	0.0167647
753.426	0.0166949
753.504	0.0167334
753.582	0.0166209
753.660	0.0165690
753.738	0.0165372
753.817	0.0164186
753.895	0.0163878
753.973	0.0163533
754.051	0.0162026
754.129	0.0161124
754.207	0.0160640
754.285	0.0158790
754.363	0.0160719
754.442	0.0160189
754.520	0.0158921
754.598	0.0157986
754.676	0.0158371
754.754	0.0157742
754.832	0.0157836
754.910	0.0159497
754.988	0.0157641
755.067	0.0157269
755.145	0.0158341
755.223	0.0157977
755.301	0.0157083
755.379	0.0157419
755.457	0.0157931
755.535	0.0159684
755.613	0.0159772
755.692	0.0157390
755.770	0.0157700
755.848	0.0159055
755.926	0.0157950
756.004	0.0160046
756.082	0.0158825
756.160	0.0159489
756.238	0.0160494
756.317	0.0160375
756.395	0.0162323
756.473	0.0162216
756.551	0.0161334
756.629	0.0161706
756.707	0.0163060
756.785	0.0163614
756.863	0.0164663
756.942	0.0164644
757.020	0.0165238
757.098	0.0164848
757.176	0.0166007
757.254	0.0166257
757.332	0.0167432
757.410	0.0168737
757.488	0.0168028
757.567	0.0168672
757.645	0.0170633
757.723	0.0170993
757.801	0.0172018
757.879	0.0171889
757.957	0.0171714
758.035	0.0172365
758.113	0.0173409
758.192	0.0173574
758.270	0.0174336
758.348	0.0172192
758.426	0.0172276
758.504	0.0172522
758.582	0.0171715
758.660	0.0170776
758.738	0.0169659
758.817	0.0169192
758.895	0.0169106
758.973	0.0167953
759.051	0.0168056
759.129	0.0167696
759.207	0.0166864
759.285	0.0166492
759.363	0.0167177
759.442	0.0166808
759.520	0.0166750
759.598	0.0167137
759.676	0.0167080
759.754	0.0165626
759.832	0.0167052
759.910	0.0166815
759.988	0.0166055
760.067	0.0164479
760.145	0.0165695
760.223	0.0167422
760.301	0.0168000
760.379	0.0166593
760.457	0.0165576
760.535	0.0167944
760.613	0.0166151
760.692	0.0166380
760.770	0.0165374
760.848	0.0165107
760.926	0.0164193
761.004	0.0162444
761.082	0.0163519
761.160	0.0163750
761.238	0.0162185
761.317	0.0162025
761.395	0.0161204
761.473	0.0160205
761.551	0.0161395
761.629	0.0160934
761.707	0.0160485
761.785	0.0159989
761.863	0.0161356
761.942	0.0159980
762.020	0.0160451
762.098	0.0159700
762.176	0.0158517
762.254	0.0160371
762.332	0.0158412
762.410	0.0158550
762.488	0.0158395
762.567	0.0156643
762.645	0.0157942
762.723	0.0156757
762.801	0.0156851
762.879	0.0156030
762.957	0.0156480
763.035	0.0156753
763.113	0.0156145
763.192	0.0157611
763.270	0.0157220
763.348	0.0156712
763.426	0.0159812
763.504	0.0159056
763.582	0.0160078
763.660	0.0160123
763.738	0.0161241
763.817	0.0161647
763.895	0.0163780
763.973	0.0162848
764.051	0.0164713
764.129	0.0166521
764.207	0.0167460
764.285	0.0166754
764.363	0.0168951
764.442	0.0171237
764.520	0.0171622
764.598	0.0171266
764.676	0.0172597
764.754	0.0174444
764.832	0.0175050
764.910	0.0173775
764.988	0.0174086
765.067	0.0173526
765.145	0.0174718
765.223	0.0173980
765.301	0.0172819
765.379	0.0172900
765.457	0.0172462
765.535	0.0170953
765.613	0.0171416
765.692	0.0170712
765.770	0.0168716
765.848	0.0168319
765.926	0.0167919
766.004	0.0167584
766.082	0.0165076
766.160	0.0164253
766.238	0.0165548
766.317	0.0164528
766.395	0.0165947
766.473	0.0164922
766.551	0.0165163
766.629	0.0164421
766.707	0.0165346
766.785	0.0165573
766.863	0.0165176
766.942	0.0164411
767.020	0.0166299
767.098	0.0165374
767.176	0.0165560
767.254	0.0163964
767.332	0.0165523
767.410	0.0166445
767.488	0.0166604
767.567	0.0166900
767.645	0.0166642
767.723	0.0165981
767.801	0.0164853
767.879	0.0164497
767.957	0.0166310
768.035	0.0166078
768.113	0.0164662
768.192	0.0165270
768.270	0.0165416
768.348	0.0164010
768.426	0.0163240
768.504	0.0163501
768.582	0.0163853
768.660	0.0161407
768.738	0.0160778
768.817	0.0161355
768.895	0.0158730
768.973	0.0160160
769.051	0.0159776
769.129	0.0160038
769.207	0.0159951
769.285	0.0161623
769.363	0.0158816
769.442	0.0160356
769.520	0.0161628
769.598	0.0161360
769.676	0.0161967
769.754	0.0161498
769.832	0.0160897
769.910	0.0162552
769.988	0.0161031
770.067	0.0161520
770.145	0.0160822
770.223	0.0159201
770.301	0.0161533
770.379	0.0160720
770.457	0.0159930
770.535	0.0160262
770.613	0.0160468
770.692	0.0161432
770.770	0.0162154
770.848	0.0162785
770.926	0.0164288
771.004	0.0164034
771.082	0.0164563
771.160	0.0163845
771.238	0.0164334
771.317	0.0165001
771.395	0.0164847
771.473	0.0165007
771.551	0.0163947
771.629	0.0166788
771.707	0.0167538
771.785	0.0166337
771.863	0.0166939
771.942	0.0166916
772.020	0.0168216
772.098	0.0168700
772.176	0.0168913
772.254	0.0167771
772.332	0.0169176
772.410	0.0168620
772.488	0.0169957
772.567	0.0170594
772.645	0.0170273
772.723	0.0169337
772.801	0.0170621
772.879	0.0170632
772.957	0.0168581
773.035	0.0167640
773.113	0.0167943
773.192	0.0166357
773.270	0.0167056
773.348	0.0167597
773.426	0.0167225
773.504	0.0166872
773.582	0.0165470
773.660	0.0164744
773.738	0.0166005
773.817	0.0165365
773.895	0.0164995
773.973	0.0165176
774.051	0.0165553
774.129	0.0165633
774.207	0.0166628
774.285	0.0167032
774.363	0.0167007
774.442	0.0168602
774.520	0.0166528
774.598	0.0167396
774.676	0.0166766
774.754	0.0165082
774.832	0.0166531
774.910	0.0166544
774.988	0.0167051
775.067	0.0166837
775.145	0.0165520
775.223	0.0164822
775.301	0.0166203
775.379	0.0165885
775.457	0.0163586
775.535	0.0163876
775.613	0.0164629
775.692	0.0162897
775.770	0.0162489
775.848	0.0162442
775.926	0.0160593
776.004	0.0160677
776.082	0.0160664
776.160	0.0160603
776.238	0.0160786
776.317	0.0159273
776.395	0.0160336
776.473	0.0159470
776.551	0.0159297
776.629	0.0159138
776.707	0.0160258
776.785	0.0160072
776.863	0.0161682
776.942	0.0162821
777.020	0.0162211
777.098	0.0162460
777.176	0.0164252
777.254	0.0162167
777.332	0.0162588
777.410	0.0164326
777.488	0.0162054
777.567	0.0162995
777.645	0.0164672
777.723	0.0163017
777.801	0.0163632
777.879	0.0163392
777.957	0.0163029
778.035	0.0162600
778.113	0.0162640
778.192	0.0162158
778.270	0.0163306
778.348	0.0163142
778.426	0.0163888
778.504	0.0162530
778.582	0.0163431
778.660	0.0162845
778.738	0.0164510
778.817	0.0164497
778.895	0.0165772
778.973	0.0163686
779.051	0.0165635
779.129	0.0165932
779.207	0.0166859
779.285	0.0165535
779.363	0.0167305
779.442	0.0167407
779.520	0.0167517
779.598	0.0168548
779.676	0.0169078
779.754	0.0166893
779.832	0.0169432
779.910	0.0169174
779.988	0.0170749
780.067	0.0170502
780.145	0.0167928
780.223	0.0167928
780.301	0.0167649
780.379	0.0165484
780.457	0.0167226
780.535	0.0167096
780.613	0.0167447
780.692	0.0167403
780.770	0.0167071
780.848	0.0166193
780.926	0.0166482
781.004	0.0166928
781.082	0.0165040
781.160	0.0167333
781.238	0.0168756
781.317	0.0168712
781.395	0.0168944
781.473	0.0169909
781.551	0.0167804
781.629	0.0166141
781.707	0.0168346
781.785	0.0167011
781.863	0.0168416
781.942	0.0167038
782.020	0.0168607
782.098	0.0167623
782.176	0.0167207
782.254	0.0166212
782.332	0.0166773
782.410	0.0165715
782.488	0.0165948
782.567	0.0165749
782.645	0.0164360
782.723	0.0164468
782.801	0.0162157
782.879	0.0163131
782.957	0.0162469
783.035	0.0161510
783.113	0.0162025
783.192	0.0160676
783.270	0.0159799
783.348	0.0161730
783.426	0.0162383
783.504	0.0160636
783.582	0.0161500
783.660	0.0160059
783.738	0.0161608
783.817	0.0160868
783.895	0.0160188
783.973	0.0161926
784.051	0.0162482
784.129	0.0161185
784.207	0.0162315
784.285	0.0163507
784.363	0.0161427
784.442	0.0162941
784.520	0.0163107
784.598	0.0162372
784.676	0.0163647
784.754	0.0164001
784.832	0.0163163
784.910	0.0162799
784.988	0.0163618
785.067	0.0164911
785.145	0.0165283
785.223	0.0165051
785.301	0.0164445
785.379	0.0165099
785.457	0.0165512
785.535	0.0164458
785.613	0.0165094
785.692	0.0165436
785.770	0.0165668
785.848	0.0167357
785.926	0.0166281
786.004	0.0166451
786.082	0.0165101
786.160	0.0166418
786.238	0.0167271
786.317	0.0169402
786.395	0.0166180
786.473	0.0166738
786.551	0.0168033
786.629	0.0165418
786.707	0.0166158
786.785	0.0167633
786.863	0.0165680
786.942	0.0165964
787.020	0.0165826
787.098	0.0167545
787.176	0.0165480
787.254	0.0166005
787.332	0.0164842
787.410	0.0164161
787.488	0.0164408
787.567	0.0164959
787.645	0.0165124
787.723	0.0163843
787.801	0.0165253
787.879	0.0163833
787.957	0.0163678
788.035	0.0163929
788.113	0.0163703
788.192	0.0165295
788.270	0.0165669
788.348	0.0164924
788.426	0.0164702
788.504	0.0163779
788.582	0.0164684
788.660	0.0163959
788.738	0.0163175
788.817	0.0164155
788.895	0.0164333
788.973	0.0163621
789.051	0.0165513
789.129	0.0163979
789.207	0.0164075
789.285	0.0165132
789.363	0.0164923
789.442	0.0164487
789.520	0.0164179
789.598	0.0165483
789.676	0.0166415
789.754	0.0165154
789.832	0.0165205
789.910	0.0166687
789.988	0.0165588
790.067	0.0164527
790.145	0.0166061
790.223	0.0164799
790.301	0.0164890
790.379	0.0165638
790.457	0.0165429
790.535	0.0163791
790.613	0.0164519
790.692	0.0163287
790.770	0.0163935
790.848	0.0164198
790.926	0.0164983
791.004	0.0164961
791.082	0.0164527
791.160	0.0163425
791.238	0.0165291
791.317	0.0164990
791.395	0.0163878
791.473	0.0165736
791.551	0.0164367
791.629	0.0164580
791.707	0.0163798
791.785	0.0164969
791.863	0.0163953
791.942	0.0163096
792.020	0.0163181
792.098	0.0163916
792.176	0.0163262
792.254	0.0161990
792.332	0.0164120
792.410	0.0163298
792.488	0.0163226
792.567	0.0164695
792.645	0.0162663
792.723	0.0162503
792.801	0.0163049
792.879	0.0161729
792.957	0.0162493
793.035	0.0162386
793.113	0.0161776
793.192	0.0161852
793.270	0.0161478
793.348	0.0161787
793.426	0.0161779
793.504	0.0162029
793.582	0.0163425
793.660	0.0163506
793.738	0.0162775
793.817	0.0163400
793.895	0.0162061
793.973	0.0164352
794.051	0.0163674
794.129	0.0165320
794.207	0.0164616
794.285	0.0165649
794.363	0.0165240
794.442	0.0164063
794.520	0.0166111
794.598	0.0164566
794.676	0.0164973
794.754	0.0166393
794.832	0.0166205
794.910	0.0164962
794.988	0.0164963
795.067	0.0164241
795.145	0.0166430
795.223	0.0166595
795.301	0.0165639
795.379	0.0166157
795.457	0.0165076
795.535	0.0165524
795.613	0.0165096
795.692	0.0164456
795.770	0.0164696
795.848	0.0164886
795.926	0.0164664
796.004	0.0165305
796.082	0.0165808
796.160	0.0165832
796.238	0.0166779
796.317	0.0166651
796.395	0.0166455
796.473	0.0167759
796.551	0.0167082
796.629	0.0168188
796.707	0.0168015
796.785	0.0167507
796.863	0.0167901
796.942	0.0168341
797.020	0.0168353
797.098	0.0167547
797.176	0.0166804
797.254	0.0167364
797.332	0.0168988
797.410	0.0167854
797.488	0.0167435
797.567	0.0165906
797.645	0.0165858
797.723	0.0166095
797.801	0.0166247
797.879	0.0165172
797.957	0.0166331
798.035	0.0166113
798.113	0.0165591
798.192	0.0164957
798.270	0.0164320
798.348	0.0164045
798.426	0.0163740
798.504	0.0162167
798.582	0.0163454
798.660	0.0162877
798.738	0.0162875
798.817	0.0162969
798.895	0.0161868
798.973	0.0162975
799.051	0.0162377
799.129	0.0161950
799.207	0.0161116
799.285	0.0161974
799.363	0.0161864
799.442	0.0162005
799.520	0.0160632
799.598	0.0161513
799.676	0.0160394
799.754	0.0161520
799.832	0.0163161
799.910	0.0161261
799.988	0.0160848
800.067	0.0160602
800.145	0.0162120
800.223	0.0161509
800.301	0.0160911
800.379	0.0162699
800.457	0.0161462
800.535	0.0161969
800.613	0.0161769
800.692	0.0160413
800.770	0.0160522
800.848	0.0163541
800.926	0.0163470
801.004	0.0164421
801.082	0.0167049
801.160	0.0165499
801.238	0.0165213
801.317	0.0167220
801.395	0.0166513
801.473	0.0167334
801.551	0.0166894
801.629	0.0167191
801.707	0.0168665
801.785	0.0167737
801.863	0.0167332
801.942	0.0167165
802.020	0.0167480
802.098	0.0166564
802.176	0.0167799
802.254	0.0165850
802.332	0.0166483
802.410	0.0166731
802.488	0.0164698
802.567	0.0166972
802.645	0.0166651
802.723	0.0165827
802.801	0.0164743
802.879	0.0165328
802.957	0.0166159
803.035	0.0165373
803.113	0.0165981
803.192	0.0165530
803.270	0.0163570
803.348	0.0164085
803.426	0.0165002
803.504	0.0166132
803.582	0.0165375
803.660	0.0166000
803.738	0.0166908
803.817	0.0168875
803.895	0.0165725
803.973	0.0166553
804.051	0.0167030
804.129	0.0166953
804.207	0.0165814
804.285	0.0165649
804.363	0.0165400
804.442	0.0166506
804.520	0.0165607
804.598	0.0166228
804.676	0.0165329
804.754	0.0165282
804.832	0.0165262
804.910	0.0164474
804.988	0.0164586
805.067	0.0164964
805.145	0.0164182
805.223	0.0164835
805.301	0.0164027
805.379	0.0164611
805.457	0.0162650
805.535	0.0164548
805.613	0.0164380
805.692	0.0163082
805.770	0.0162550
805.848	0.0164342
805.926	0.0164625
806.004	0.0164472
806.082	0.0164337
806.160	0.0166554
806.238	0.0165350
806.317	0.0163980
806.395	0.0165325
806.473	0.0163683
806.551	0.0164357
806.629	0.0164523
806.707	0.0164172
806.785	0.0165087
806.863	0.0163956
806.942	0.0162748
807.020	0.0163757
807.098	0.0164867
807.176	0.0162548
807.254	0.0162042
807.332	0.0162633
807.410	0.0163190
807.488	0.0162362
807.567	0.0161474
807.645	0.0162859
807.723	0.0162862
807.801	0.0162904
807.879	0.0162541
807.957	0.0161932
808.035	0.0162958
808.113	0.0160561
808.192	0.0162093
808.270	0.0162666
808.348	0.0163257
808.426	0.0165580
808.504	0.0164461
808.582	0.0163315
808.660	0.0164878
808.738	0.0164838
808.817	0.0164580
808.895	0.0165183
808.973	0.0164807
809.051	0.0165904
809.129	0.0166061
809.207	0.0165156
809.285	0.0165672
809.363	0.0166541
809.442	0.0164902
809.520	0.0164549
809.598	0.0165951
809.676	0.0164664
809.754	0.0164229
809.832	0.0163303
809.910	0.0163844
809.988	0.0163524
810.067	0.0165517
810.145	0.0164735
810.223	0.0164259
810.301	0.0164587
810.379	0.0165091
810.457	0.0166390
810.535	0.0163820
810.613	0.0165549
810.692	0.0164868
810.770	0.0165414
810.848	0.0165574
810.926	0.0167552
811.004	0.0167106
811.082	0.0168176
811.160	0.0168123
811.238	0.0168380
811.317	0.0168032
811.395	0.0167131
811.473	0.0168703
811.551	0.0168801
811.629	0.0167664
811.707	0.0168626
811.785	0.0167680
811.863	0.0167578
811.942	0.0167417
812.020	0.0167901
812.098	0.0167294
812.176	0.0166515
812.254	0.0164967
812.332	0.0165743
812.410	0.0166678
812.488	0.0165276
812.567	0.0165176
812.645	0.0164908
812.723	0.0164894
812.801	0.0164564
812.879	0.0166158
812.957	0.0164973
813.035	0.0164751
813.113	0.0165282
813.192	0.0165495
813.270	0.0164328
813.348	0.0164440
813.426	0.0162699
813.504	0.0163079
813.582	0.0163673
813.660	0.0163396
813.738	0.0162547
813.817	0.0162446
813.895	0.0163132
813.973	0.0161917
814.051	0.0160349
814.129	0.0161675
814.207	0.0161196
814.285	0.0161860
814.363	0.0161713
814.442	0.0162016
814.520	0.0162527
814.598	0.0160558
814.676	0.0162128
814.754	0.0162695
814.832	0.0162774
814.910	0.0162588
814.988	0.0163390
815.067	0.0164236
815.145	0.0162776
815.223	0.0163416
815.301	0.0164049
815.379	0.0163237
815.457	0.0164854
815.535	0.0163624
815.613	0.0162909
815.692	0.0162251
815.770	0.0163007
815.848	0.0163515
815.926	0.0164097
816.004	0.0164644
816.082	0.0164499
816.160	0.0164275
816.238	0.0163779
816.317	0.0165326
816.395	0.0164806
816.473	0.0164420
816.551	0.0163950
816.629	0.0165295
816.707	0.0165098
816.785	0.0163763
816.863	0.0165030
816.942	0.0164159
817.020	0.0165910
817.098	0.0164868
817.176	0.0165293
817.254	0.0165050
817.332	0.0163622
817.410	0.0166111
817.488	0.0165394
817.567	0.0166293
817.645	0.0166290
817.723	0.0165554
817.801	0.0167600
817.879	0.0167370
817.957	0.0165948
818.035	0.0167341
818.113	0.0168402
818.192	0.0167170
818.270	0.0168694
818.348	0.0167582
818.426	0.0168020
818.504	0.0168355
818.582	0.0167458
818.660	0.0167986
818.738	0.0168690
818.817	0.0167592
818.895	0.0167682
818.973	0.0168526
819.051	0.0167670
819.129	0.0167764
819.207	0.0165114
819.285	0.0165652
819.363	0.0166020
819.442	0.0164426
819.520	0.0165585
819.598	0.0165577
819.676	0.0163404
819.754	0.0164420
819.832	0.0165578
819.910	0.0164983
819.988	0.0163799
820.067	0.0166214
820.145	0.0164888
820.223	0.0164257
820.301	0.0163429
820.379	0.0164333
820.457	0.0163944
820.535	0.0164875
820.613	0.0163666
820.692	0.0161276
820.770	0.0163400
820.848	0.0162178
820.926	0.0162445
821.004	0.0162138
821.082	0.0161376
821.160	0.0162308
821.238	0.0161124
821.317	0.0161931
821.395	0.0162521
821.473	0.0160997
821.551	0.0161935
821.629	0.0162415
821.707	0.0163110
821.785	0.0163811
821.863	0.0163835
821.942	0.0164339
822.020	0.0163939
822.098	0.0163759
822.176	0.0164749
822.254	0.0165034
822.332	0.0164606
822.410	0.0165678
822.488	0.0164742
822.567	0.0164489
822.645	0.0166876
822.723	0.0166420
822.801	0.0164380
822.879	0.0165010
822.957	0.0166431
823.035	0.0166686
823.113	0.0167334
823.192	0.0165866
823.270	0.0166272
823.348	0.0165211
823.426	0.0166639
823.504	0.0165723
823.582	0.0164822
823.660	0.0165920
823.738	0.0164819
823.817	0.0164975
823.895	0.0164738
823.973	0.0164880
824.051	0.0164906
824.129	0.0163888
824.207	0.0164645
824.285	0.0164650
824.363	0.0163502
824.442	0.0163462
824.520	0.0164182
824.598	0.0164711
824.676	0.0165166
824.754	0.0164755
824.832	0.0163914
824.910	0.0165543
824.988	0.0165345
825.067	0.0165647
825.145	0.0164513
825.223	0.0166121
825.301	0.0166827
825.379	0.0165133
825.457	0.0165535
825.535	0.0167358
825.613	0.0166386
825.692	0.0166593
825.770	0.0167984
825.848	0.0168012
825.926	0.0166657
826.004	0.0166947
826.082	0.0167303
826.160	0.0167542
826.238	0.0167998
826.317	0.0166459
826.395	0.0167297
826.473	0.0167695
826.551	0.0167929
826.629	0.0165490
826.707	0.0166588
826.785	0.0167318
826.863	0.0165566
826.942	0.0164986
827.020	0.0166651
827.098	0.0166252
827.176	0.0165620
827.254	0.0166386
827.332	0.0164709
827.410	0.0166123
827.488	0.0165979
827.567	0.0164854
827.645	0.0163867
827.723	0.0165049
827.801	0.0163723
827.879	0.0164309
827.957	0.0164203
828.035	0.0164527
828.113	0.0162793
828.192	0.0164455
828.270	0.0163769
828.348	0.0164735
828.426	0.0163516
828.504	0.0164040
828.582	0.0163786
828.660	0.0163663
828.738	0.0163067
828.817	0.0164592
828.895	0.0164867
828.973	0.0163615
829.051	0.0163625
829.129	0.0163118
829.207	0.0164104
829.285	0.0164591
829.363	0.0164362
829.442	0.0164065
829.520	0.0164391
829.598	0.0165282
829.676	0.0163831
829.754	0.0165024
829.832	0.0164643
829.910	0.0163525
829.988	0.0164252
830.067	0.0165080
830.145	0.0163905
830.223	0.0163876
830.301	0.0166252
830.379	0.0163284
830.457	0.0165440
830.535	0.0165426
830.613	0.0165250
830.692	0.0166383
830.770	0.0166211
830.848	0.0167403
830.926	0.0166798
831.004	0.0166013
831.082	0.0165905
831.160	0.0166228
831.238	0.0166317
831.317	0.0165628
831.395	0.0164837
831.473	0.0164900
831.551	0.0166236
831.629	0.0164948
831.707	0.0164904
831.785	0.0163000
831.863	0.0164474
831.942	0.0164618
832.020	0.0164327
832.098	0.0164347
832.176	0.0164522
832.254	0.0164027
832.332	0.0164397
832.410	0.0163443
832.488	0.0163641
832.567	0.0165019
832.645	0.0166225
832.723	0.0165634
832.801	0.0165421
832.879	0.0165277
832.957	0.0165314
833.035	0.0166040
833.113	0.0167369
833.192	0.0167776
833.270	0.0165912
833.348	0.0167141
833.426	0.0166793
833.504	0.0167702
833.582	0.0167570
833.660	0.0166005
833.738	0.0166055
833.817	0.0165308
833.895	0.0165677
833.973	0.0166003
834.051	0.0165826
834.129	0.0163771
834.207	0.0165168
834.285	0.0165627
834.363	0.0164368
834.442	0.0162007
834.520	0.0162606
834.598	0.0164104
834.676	0.0164812
834.754	0.0163390
834.832	0.0164747
834.910	0.0165024
834.988	0.0165485
835.067	0.0163314
835.145	0.0164733
835.223	0.0164126
835.301	0.0164319
835.379	0.0165933
835.457	0.0165585
835.535	0.0165034
835.613	0.0165456
835.692	0.0165856
835.770	0.0165011
835.848	0.0165029
835.926	0.0165438
836.004	0.0165701
836.082	0.0165458
836.160	0.0165001
836.238	0.0166357
836.317	0.0166960
836.395	0.0165330
836.473	0.0163960
836.551	0.0163843
836.629	0.0164478
836.707	0.0163516
836.785	0.0163302
836.863	0.0163790
836.942	0.0162204
837.020	0.0163478
837.098	0.0163098
837.176	0.0163052
837.254	0.0163094
837.332	0.0163034
837.410	0.0163715
837.488	0.0163284
837.567	0.0164335
837.645	0.0164114
837.723	0.0162907
837.801	0.0162773
837.879	0.0163113
837.957	0.0164796
838.035	0.0164695
838.113	0.0163808
838.192	0.0164395
838.270	0.0163963
838.348	0.0164211
838.426	0.0164064
838.504	0.0164114
838.582	0.0164288
838.660	0.0164773
838.738	0.0165764
838.817	0.0164523
838.895	0.0165195
838.973	0.0164682
839.051	0.0164827
839.129	0.0164827
839.207	0.0164162
839.285	0.0166748
839.363	0.0165193
839.442	0.0164717
839.520	0.0165826
839.598	0.0164001
839.676	0.0164420
839.754	0.0164887
839.832	0.0165161
839.910	0.0164442
839.988	0.0164301
840.067	0.0165956
840.145	0.0164651
840.223	0.0164127
840.301	0.0165256
840.379	0.0165714
840.457	0.0164140
840.535	0.0164346
840.613	0.0165263
840.692	0.0165905
840.770	0.0164020
840.848	0.0165395
840.926	0.0165739
841.004	0.0166203
841.082	0.0165811
841.160	0.0163792
841.238	0.0164195
841.317	0.0164733
841.395	0.0165066
841.473	0.0164391
841.551	0.0163696
841.629	0.0164935
841.707	0.0164935
841.785	0.0164729
841.863	0.0163485
841.942	0.0163386
842.020	0.0164742
842.098	0.0165529
842.176	0.0164201
842.254	0.0164825
842.332	0.0164944
842.410	0.0165359
842.488	0.0165323
842.567	0.0165080
842.645	0.0165723
842.723	0.0164795
842.801	0.0165137
842.879	0.0165919
842.957	0.0165227
843.035	0.0165731
843.113	0.0165646
843.192	0.0164262
843.270	0.0166084
843.348	0.0166734
843.426	0.0165475
843.504	0.0166106
843.582	0.0164384
843.660	0.0165656
843.738	0.0166682
843.817	0.0165347
843.895	0.0165215
843.973	0.0165696
844.051	0.0165194
844.129	0.0164714
844.207	0.0164783
844.285	0.0165083
844.363	0.0165590
844.442	0.0163762
844.520	0.0163783
844.598	0.0166470
844.676	0.0163976
844.754	0.0163548
844.832	0.0165238
844.910	0.0165878
844.988	0.0164071
845.067	0.0164635
845.145	0.0162885
845.223	0.0165358
845.301	0.0164428
845.379	0.0163701
845.457	0.0163352
845.535	0.0164825
845.613	0.0165557
845.692	0.0163741
845.770	0.0164330
845.848	0.0164501
845.926	0.0163516
846.004	0.0164013
846.082	0.0165723
846.160	0.0163661
846.238	0.0164621
846.317	0.0164023
846.395	0.0166099
846.473	0.0166715
846.551	0.0164635
846.629	0.0165118
846.707	0.0164406
846.785	0.0166032
846.863	0.0166153
846.942	0.0166513
847.020	0.0167635
847.098	0.0166360
847.176	0.0166807
847.254	0.0167408
847.332	0.0168347
847.410	0.0167513
847.488	0.0165412
847.567	0.0165498
847.645	0.0165407
847.723	0.0165129
847.801	0.0165737
847.879	0.0166068
847.957	0.0163056
848.035	0.0163618
848.113	0.0164567
848.192	0.0164241
848.270	0.0163566
848.348	0.0164064
848.426	0.0164402
848.504	0.0164841
848.582	0.0163975
848.660	0.0165736
848.738	0.0164906
848.817	0.0164548
848.895	0.0164958
848.973	0.0165062
849.051	0.0166016
849.129	0.0166022
849.207	0.0165234
849.285	0.0164796
849.363	0.0165322
849.442	0.0164678
849.520	0.0165462
849.598	0.0166079
849.676	0.0164372
849.754	0.0165775
849.832	0.0165426
849.910	0.0165201
849.988	0.0166132
850.067	0.0164668
850.145	0.0165642
850.223	0.0166344
850.301	0.0165628
850.379	0.0165404
850.457	0.0166322
850.535	0.0165945
850.613	0.0165771
850.692	0.0163636
850.770	0.0164804
850.848	0.0164977
850.926	0.0164516
851.004	0.0163201
851.082	0.0164527
851.160	0.0164500
851.238	0.0164467
851.317	0.0166034
851.395	0.0165444
851.473	0.0166137
851.551	0.0166000
851.629	0.0166173
851.707	0.0166819
851.785	0.0166456
851.863	0.0164732
851.942	0.0166675
852.020	0.0165853
852.098	0.0164919
852.176	0.0164144
852.254	0.0166216
852.332	0.0165596
852.410	0.0165083
852.488	0.0162618
852.567	0.0163439
852.645	0.0163247
852.723	0.0163088
852.801	0.0161989
852.879	0.0163170
852.957	0.0162133
853.035	0.0162999
853.113	0.0162578
853.192	0.0163909
853.270	0.0163513
853.348	0.0162948
853.426	0.0162934
853.504	0.0163951
853.582	0.0164714
853.660	0.0164566
853.738	0.0164444
853.817	0.0164334
853.895	0.0164538
853.973	0.0165355
854.051	0.0164065
854.129	0.0163709
854.207	0.0164164
854.285	0.0165585
854.363	0.0164934
854.442	0.0165618
854.520	0.0165505
854.598	0.0164487
854.676	0.0165145
854.754	0.0165692
854.832	0.0165934
854.910	0.0165298
854.988	0.0165788
855.067	0.0166169
855.145	0.0165002
855.223	0.0165408
855.301	0.0165383
855.379	0.0164433
855.457	0.0164066
855.535	0.0164828
855.613	0.0164678
855.692	0.0163261
855.770	0.0163884
855.848	0.0164311
855.926	0.0164700
856.004	0.0165680
856.082	0.0165008
856.160	0.0163774
856.238	0.0163983
856.317	0.0164098
856.395	0.0165067
856.473	0.0164548
856.551	0.0165380
856.629	0.0166535
856.707	0.0165092
856.785	0.0165015
856.863	0.0165831
856.942	0.0165828
857.020	0.0167267
857.098	0.0166304
857.176	0.0165684
857.254	0.0165284
857.332	0.0166074
857.410	0.0166470
857.488	0.0164324
857.567	0.0164361
857.645	0.0165742
857.723	0.0164020
857.801	0.0162260
857.879	0.0163474
857.957	0.0163144
858.035	0.0162003
858.113	0.0163198
858.192	0.0163210
858.270	0.0162785
858.348	0.0163171
858.426	0.0163555
858.504	0.0163866
858.582	0.0163075
858.660	0.0163651
858.738	0.0164310
858.817	0.0164038
858.895	0.0165699
858.973	0.0164571
859.051	0.0163380
859.129	0.0164440
859.207	0.0164307
859.285	0.0165609
859.363	0.0165064
859.442	0.0166460
859.520	0.0167027
859.598	0.0166989
859.676	0.0166078
859.754	0.0167541
859.832	0.0168142
859.910	0.0168733
859.988	0.0167479
860.067	0.0167834
860.145	0.0167706
860.223	0.0166846
860.301	0.0166441
860.379	0.0165639
860.457	0.0166116
860.535	0.0166226
860.613	0.0164144
860.692	0.0164098
860.770	0.0165577
860.848	0.0163363
860.926	0.0162691
861.004	0.0163023
861.082	0.0163770
861.160	0.0163000
861.238	0.0162877
861.317	0.0163335
861.395	0.0163042
861.473	0.0164139
861.551	0.0161911
861.629	0.0162811
861.707	0.0162297
861.785	0.0162731
861.863	0.0162391
861.942	0.0163041
862.020	0.0163463
862.098	0.0163964
862.176	0.0163749
862.254	0.0164439
862.332	0.0164840
862.410	0.0164243
862.488	0.0165683
862.567	0.0166709
862.645	0.0167310
862.723	0.0167884
862.801	0.0166885
862.879	0.0167110
862.957	0.0168156
863.035	0.0167479
863.113	0.0165543
863.192	0.0165131
863.270	0.0165192
863.348	0.0164629
863.426	0.0163001
863.504	0.0164633
863.582	0.0162977
863.660	0.0162245
863.738	0.0163205
863.817	0.0163128
863.895	0.0162610
863.973	0.0162369
864.051	0.0161958
864.129	0.0163538
864.207	0.0163439
864.285	0.0164236
864.363	0.0163129
864.442	0.0164992
864.520	0.0166100
864.598	0.0166991
864.676	0.0168148
864.754	0.0167535
864.832	0.0167775
864.910	0.0167881
864.988	0.0168392
865.067	0.0167194
865.145	0.0167935
865.223	0.0166531
865.301	0.0165128
865.379	0.0164968
865.457	0.0165611
865.535	0.0164137
865.613	0.0163011
865.692	0.0163557
865.770	0.0162083
865.848	0.0161015
865.926	0.0162927
866.004	0.0163079
866.082	0.0161888
866.160	0.0163369
866.238	0.0164308
866.317	0.0165955
866.395	0.0166039
866.473	0.0165730
866.551	0.0167075
866.629	0.0166737
866.707	0.0167053
866.785	0.0166865
866.863	0.0164912
866.942	0.0165438
867.020	0.0167378
867.098	0.0166854
867.176	0.0165583
867.254	0.0165533
867.332	0.0166431
867.410	0.0165021
867.488	0.0165444
867.567	0.0165911
867.645	0.0164775
867.723	0.0165095
867.801	0.0165772
867.879	0.0165553
867.957	0.0166069
868.035	0.0165556
868.113	0.0164072
868.192	0.0164404
868.270	0.0164231
868.348	0.0163084
868.426	0.0163632
868.504	0.0163630
868.582	0.0163989
868.660	0.0163126
868.738	0.0163472
868.817	0.0165028
868.895	0.0163345
868.973	0.0163089
869.051	0.0162911
869.129	0.0163226
869.207	0.0163551
869.285	0.0163087
869.363	0.0164835
869.442	0.0162164
869.520	0.0163574
869.598	0.0163013
869.676	0.0163528
869.754	0.0162999
869.832	0.0162912
869.910	0.0163389
869.988	0.0164042
870.067	0.0163405
870.145	0.0164505
870.223	0.0165104
870.301	0.0164585
870.379	0.0164342
870.457	0.0166072
870.535	0.0167043
870.613	0.0167085
870.692	0.0165520
870.770	0.0166905
870.848	0.0166796
870.926	0.0165971
871.004	0.0164554
871.082	0.0164487
871.160	0.0166772
871.238	0.0166532
871.317	0.0164664
871.395	0.0164737
871.473	0.0165368
871.551	0.0165214
871.629	0.0165383
871.707	0.0164912
871.785	0.0164655
871.863	0.0165202
871.942	0.0166836
872.020	0.0167161
872.098	0.0165862
872.176	0.0165477
872.254	0.0167506
872.332	0.0168786
872.410	0.0167137
872.488	0.0167903
872.567	0.0169020
872.645	0.0167130
872.723	0.0167231
872.801	0.0166347
872.879	0.0165473
872.957	0.0165307
873.035	0.0163959
873.113	0.0163963
873.192	0.0163610
873.270	0.0161459
873.348	0.0161591
873.426	0.0162373
873.504	0.0160395
873.582	0.0160681
873.660	0.0161755
873.738	0.0162899
873.817	0.0162212
873.895	0.0163395
873.973	0.0164268
874.051	0.0165516
874.129	0.0164534
874.207	0.0166217
874.285	0.0165554
874.363	0.0167377
874.442	0.0167866
874.520	0.0167470
874.598	0.0167342
874.676	0.0166499
874.754	0.0166412
874.832	0.0166361
874.910	0.0164192
874.988	0.0165215
875.067	0.0165479
875.145	0.0166271
875.223	0.0164745
875.301	0.0163953
875.379	0.0164495
875.457	0.0165213
875.535	0.0165411
875.613	0.0166689
875.692	0.0165673
875.770	0.0164529
875.848	0.0165736
875.926	0.0165223
876.004	0.0166992
876.082	0.0165875
876.160	0.0164283
876.238	0.0164355
876.317	0.0165008
876.395	0.0164130
876.473	0.0163321
876.551	0.0163311
876.629	0.0162572
876.707	0.0163090
876.785	0.0162594
876.863	0.0161535
876.942	0.0161302
877.020	0.0161338
877.098	0.0162158
877.176	0.0160870
877.254	0.0160488
877.332	0.0163181
877.410	0.0163223
877.488	0.0164100
877.567	0.0164824
877.645	0.0164030
877.723	0.0164270
877.801	0.0164357
877.879	0.0164761
877.957	0.0165243
878.035	0.0167596
878.113	0.0167294
878.192	0.0166642
878.270	0.0165725
878.348	0.0166910
878.426	0.0167656
878.504	0.0165435
878.582	0.0167326
878.660	0.0168188
878.738	0.0167753
878.817	0.0167690
878.895	0.0167388
878.973	0.0167131
879.051	0.0166565
879.129	0.0166200
879.207	0.0164207
879.285	0.0166225
879.363	0.0166583
879.442	0.0166401
879.520	0.0166731
879.598	0.0166335
879.676	0.0164299
879.754	0.0166504
879.832	0.0166250
879.910	0.0165112
879.988	0.0165745
880.067	0.0165077
880.145	0.0165328
880.223	0.0165452
880.301	0.0165009
880.379	0.0164832
880.457	0.0163804
880.535	0.0164404
880.613	0.0164809
880.692	0.0164835
880.770	0.0165557
880.848	0.0164189
880.926	0.0163452
881.004	0.0164248
881.082	0.0166570
881.160	0.0165018
881.238	0.0163774
881.317	0.0164770
881.395	0.0165316
881.473	0.0164633
881.551	0.0164301
881.629	0.0164484
881.707	0.0164333
881.785	0.0165939
881.863	0.0165315
881.942	0.0165330
882.020	0.0166034
882.098	0.0164420
882.176	0.0164442
882.254	0.0165340
882.332	0.0165651
882.410	0.0166324
882.488	0.0164790
882.567	0.0164301
882.645	0.0164698
882.723	0.0164418
882.801	0.0163644
882.879	0.0164130
882.957	0.0165075
883.035	0.0164169
883.113	0.0163589
883.192	0.0163625
883.270	0.0164930
883.348	0.0164683
883.426	0.0163892
883.504	0.0166037
883.582	0.0165266
883.660	0.0165706
883.738	0.0167097
883.817	0.0165076
883.895	0.0165791
883.973	0.0168233
884.051	0.0166658
884.129	0.0165688
884.207	0.0165662
884.285	0.0165369
884.363	0.0165450
884.442	0.0164163
884.520	0.0164247
884.598	0.0163273
884.676	0.0163290
884.754	0.0162008
884.832	0.0163014
884.910	0.0163151
884.988	0.0162975
885.067	0.0164004
885.145	0.0161913
885.223	0.0162600
885.301	0.0162170
885.379	0.0163547
885.457	0.0164803
885.535	0.0163865
885.613	0.0165443
885.692	0.0164344
885.770	0.0166423
885.848	0.0165746
885.926	0.0166640
886.004	0.0165923
886.082	0.0165799
886.160	0.0167058
886.238	0.0167509
886.317	0.0165950
886.395	0.0167029
886.473	0.0167538
886.551	0.0168060
886.629	0.0166832
886.707	0.0166074
886.785	0.0164664
886.863	0.0165558
886.942	0.0166188
887.020	0.0165161
887.098	0.0165443
887.176	0.0165704
887.254	0.0166473
887.332	0.0165723
887.410	0.0164418
887.488	0.0164231
887.567	0.0164997
887.645	0.0164838
887.723	0.0163677
887.801	0.0164682
887.879	0.0165052
887.957	0.0163543
888.035	0.0163484
888.113	0.0164078
888.192	0.0163829
888.270	0.0164992
888.348	0.0165810
888.426	0.0164439
888.504	0.0163360
888.582	0.0163731
888.660	0.0164341
888.738	0.0164407
888.817	0.0164664
888.895	0.0165285
888.973	0.0164900
889.051	0.0163961
889.129	0.0164525
889.207	0.0165845
889.285	0.0164977
889.363	0.0163039
889.442	0.0163631
889.520	0.0163957
889.598	0.0164236
889.676	0.0163777
889.754	0.0163103
889.832	0.0163258
889.910	0.0163487
889.988	0.0164806
890.067	0.0164091
890.145	0.0164265
890.223	0.0163641
890.301	0.0163816
890.379	0.0162602
890.457	0.0163737
890.535	0.0165382
890.613	0.0163935
890.692	0.0164810
890.770	0.0164126
890.848	0.0165012
890.926	0.0164293
891.004	0.0164555
891.082	0.0165651
891.160	0.0164169
891.238	0.0164674
891.317	0.0165533
891.395	0.0165383
891.473	0.0166085
891.551	0.0164383
891.629	0.0163589
891.707	0.0166087
891.785	0.0166103
891.863	0.0165159
891.942	0.0165459
892.020	0.0165668
892.098	0.0165176
892.176	0.0163874
892.254	0.0163563
892.332	0.0165963
892.410	0.0163998
892.488	0.0164183
892.567	0.0163621
892.645	0.0164172
892.723	0.0163797
892.801	0.0163671
892.879	0.0163297
892.957	0.0163921
893.035	0.0163287
893.113	0.0162940
893.192	0.0163120
893.270	0.0161413
893.348	0.0163367
893.426	0.0163541
893.504	0.0163809
893.582	0.0162592
893.660	0.0163457
893.738	0.0162482
893.817	0.0164637
893.895	0.0162913
893.973	0.0164586
894.051	0.0164301
894.129	0.0164788
894.207	0.0165709
894.285	0.0165231
894.363	0.0166003
894.442	0.0165065
894.520	0.0164809
894.598	0.0163817
894.676	0.0166321
894.754	0.0166717
894.832	0.0165973
894.910	0.0166514
894.988	0.0165331
895.067	0.0167613
895.145	0.0165753
895.223	0.0166153
895.301	0.0165333
895.379	0.0164922
895.457	0.0165588
895.535	0.0165461
895.613	0.0165752
895.692	0.0164483
895.770	0.0162880
895.848	0.0163721
895.926	0.0163374
896.004	0.0163100
896.082	0.0163161
896.160	0.0164939
896.238	0.0165373
896.317	0.0163562
896.395	0.0163555
896.473	0.0164552
896.551	0.0164994
896.629	0.0164892
896.707	0.0163816
896.785	0.0164814
896.863	0.0166045
896.942	0.0164960
897.020	0.0164663
897.098	0.0165498
897.176	0.0163562
897.254	0.0164957
897.332	0.0165843
897.410	0.0165252
897.488	0.0163493
897.567	0.0163460
897.645	0.0164873
897.723	0.0165228
897.801	0.0164818
897.879	0.0164389
897.957	0.0164593
898.035	0.0164204
898.113	0.0165584
898.192	0.0163728
898.270	0.0164204
898.348	0.0163976
898.426	0.0163165
898.504	0.0164449
898.582	0.0163851
898.660	0.0162337
898.738	0.0164000
898.817	0.0164662
898.895	0.0163549
898.973	0.0165005
899.051	0.0162921
899.129	0.0163631
899.207	0.0165057
899.285	0.0164404
899.363	0.0164861
899.442	0.0164571
899.520	0.0165331
899.598	0.0164410
899.676	0.0165069
899.754	0.0165617
899.832	0.0165409
899.910	0.0166606
899.988	0.0165829
900.067	0.0164453
900.145	0.0165817
900.223	0.0166214
900.301	0.0166357
900.379	0.0165795
900.457	0.0165607
900.535	0.0166547
900.613	0.0165193
900.692	0.0164575
900.770	0.0165431
900.848	0.0164712
900.926	0.0164939
901.004	0.0164898
901.082	0.0165425
901.160	0.0165886
901.238	0.0163696
901.317	0.0163309
901.395	0.0164001
901.473	0.0164295
901.551	0.0163617
901.629	0.0162331
901.707	0.0163819
901.785	0.0163901
901.863	0.0164423
901.942	0.0165337
902.020	0.0164085
902.098	0.0164997
902.176	0.0166165
902.254	0.0164552
902.332	0.0166299
902.410	0.0165599
902.488	0.0164566
902.567	0.0166997
902.645	0.0167408
902.723	0.0166122
902.801	0.0166305
902.879	0.0164928
902.957	0.0166566
903.035	0.0166540
903.113	0.0165858
903.192	0.0166508
903.270	0.0166838
903.348	0.0165236
903.426	0.0166352
903.504	0.0165416
903.582	0.0164154
903.660	0.0164183
903.738	0.0164291
903.817	0.0165189
903.895	0.0165162
903.973	0.0165584
904.051	0.0164466
904.129	0.0164335
904.207	0.0164804
904.285	0.0164889
904.363	0.0164430
904.442	0.0163499
904.520	0.0164266
904.598	0.0163662
904.676	0.0164707
904.754	0.0165257
904.832	0.0164816
904.910	0.0165018
904.988	0.0163931
905.067	0.0165327
905.145	0.0165485
905.223	0.0164019
905.301	0.0165005
905.379	0.0164571
905.457	0.0164226
905.535	0.0165473
905.613	0.0165456
905.692	0.0164245
905.770	0.0166046
905.848	0.0164481
905.926	0.0164472
906.004	0.0164861
906.082	0.0163776
906.160	0.0163998
906.238	0.0162576
906.317	0.0164506
906.395	0.0164195
906.473	0.0164511
906.551	0.0166106
906.629	0.0164479
906.707	0.0165086
906.785	0.0164944
906.863	0.0165028
906.942	0.0164664
907.020	0.0165501
907.098	0.0165051
907.176	0.0167457
907.254	0.0166249
907.332	0.0165929
907.410	0.0165911
907.488	0.0166846
907.567	0.0167870
907.645	0.0165513
907.723	0.0166384
907.801	0.0165773
907.879	0.0165321
907.957	0.0167043
908.035	0.0165218
908.113	0.0164846
908.192	0.0165005
908.270	0.0166084
908.348	0.0165661
908.426	0.0165266
908.504	0.0164848
908.582	0.0164500
908.660	0.0165148
908.738	0.0164716
908.817	0.0164990
908.895	0.0165181
908.973	0.0165489
909.051	0.0164538
909.129	0.0163554
909.207	0.0166315
909.285	0.0164750
909.363	0.0165111
909.442	0.0164503
909.520	0.0165396
909.598	0.0165904
909.676	0.0164895
909.754	0.0166381
909.832	0.0167036
909.910	0.0166431
909.988	0.0167673
910.067	0.0168110
910.145	0.0168537
910.223	0.0166623
910.301	0.0168365
910.379	0.0167256
910.457	0.0167713
910.535	0.0168445
910.613	0.0166911
910.692	0.0167005
910.770	0.0166197
910.848	0.0166338
910.926	0.0165586
911.004	0.0165710
911.082	0.0164509
911.160	0.0164771
911.238	0.0164061
911.317	0.0164777
911.395	0.0163889
911.473	0.0164241
911.551	0.0163586
911.629	0.0164145
911.707	0.0163890
911.785	0.0162639
911.863	0.0163275
911.942	0.0164214
912.020	0.0164944
912.098	0.0165128
912.176	0.0164047
912.254	0.0163728
912.332	0.0164455
912.410	0.0164021
912.488	0.0165287
912.567	0.0165175
912.645	0.0166776
912.723	0.0165678
912.801	0.0165788
912.879	0.0165295
912.957	0.0164560
913.035	0.0163843
913.113	0.0165745
913.192	0.0165757
913.270	0.0164674
913.348	0.0164461
913.426	0.0164108
913.504	0.0162585
913.582	0.0162948
913.660	0.0162437
913.738	0.0163268
913.817	0.0163910
913.895	0.0164803
913.973	0.0165421
914.051	0.0164374
914.129	0.0163170
914.207	0.0164139
914.285	0.0163441
914.363	0.0163882
914.442	0.0163303
914.520	0.0164282
914.598	0.0164142
914.676	0.0164706
914.754	0.0164649
914.832	0.0165888
914.910	0.0164664
914.988	0.0165154
915.067	0.0165926
915.145	0.0164867
915.223	0.0167162
915.301	0.0165960
915.379	0.0166492
915.457	0.0165753
915.535	0.0165271
915.613	0.0165681
915.692	0.0165976
915.770	0.0166799
915.848	0.0168184
915.926	0.0165510
916.004	0.0165852
916.082	0.0167345
916.160	0.0164263
916.238	0.0164393
916.317	0.0162422
916.395	0.0165184
916.473	0.0164323
916.551	0.0163551
916.629	0.0162296
916.707	0.0163684
916.785	0.0162471
916.863	0.0163957
916.942	0.0163435
917.020	0.0164942
917.098	0.0164628
917.176	0.0162766
917.254	0.0163567
917.332	0.0163409
917.410	0.0163584
917.488	0.0164104
917.567	0.0165051
917.645	0.0163210
917.723	0.0164633
917.801	0.0164875
917.879	0.0165652
917.957	0.0166748
918.035	0.0166081
918.113	0.0164814
918.192	0.0165895
918.270	0.0165514
918.348	0.0165007
918.426	0.0165260
918.504	0.0164322
918.582	0.0163367
918.660	0.0165844
918.738	0.0163190
918.817	0.0162907
918.895	0.0164056
918.973	0.0163493
919.051	0.0163734
919.129	0.0162347
919.207	0.0162577
919.285	0.0163168
919.363	0.0162762
919.442	0.0162402
919.520	0.0163923
919.598	0.0163940
919.676	0.0162740
919.754	0.0162434
919.832	0.0163792
919.910	0.0164424
