05/24/2022	20:28:45	Ver.	4.1	UNKNOWN
Optical Delay	599.988409	Delta X		0.078125	Sweeps	1	Scan Rate	0/0
Coordinates	Axis 1	NaN	Axis 2	NaN	Axis 3	NaN	Axis 4	NaN	Axis 5	NaN	Axis 6	0.000000
TX Power	0.000000	RX Power	0.000000

599.988	0.0156410
600.067	0.0156390
600.145	0.0156026
600.223	0.0157044
600.301	0.0155487
600.379	0.0156469
600.457	0.0156437
600.535	0.0155361
600.613	0.0155869
600.692	0.0157304
600.770	0.0155984
600.848	0.0155814
600.926	0.0157896
601.004	0.0156297
601.082	0.0156190
601.160	0.0156756
601.238	0.0157368
601.317	0.0156445
601.395	0.0156494
601.473	0.0156436
601.551	0.0155264
601.629	0.0156404
601.707	0.0157463
601.785	0.0155936
601.863	0.0156641
601.942	0.0156266
602.020	0.0155554
602.098	0.0155765
602.176	0.0157061
602.254	0.0156956
602.332	0.0157035
602.410	0.0157072
602.488	0.0157014
602.567	0.0157040
602.645	0.0156802
602.723	0.0156532
602.801	0.0157201
602.879	0.0157619
602.957	0.0156916
603.035	0.0157871
603.113	0.0156279
603.192	0.0155565
603.270	0.0155632
603.348	0.0156907
603.426	0.0157179
603.504	0.0155836
603.582	0.0157561
603.660	0.0156157
603.738	0.0156115
603.817	0.0156265
603.895	0.0156522
603.973	0.0158363
604.051	0.0156028
604.129	0.0155949
604.207	0.0157838
604.285	0.0154619
604.363	0.0157169
604.442	0.0156664
604.520	0.0155672
604.598	0.0155762
604.676	0.0155250
604.754	0.0156098
604.832	0.0156647
604.910	0.0156523
604.988	0.0157160
605.067	0.0156480
605.145	0.0154842
605.223	0.0157262
605.301	0.0157359
605.379	0.0156806
605.457	0.0156960
605.535	0.0157250
605.613	0.0156313
605.692	0.0155659
605.770	0.0157056
605.848	0.0157937
605.926	0.0156220
606.004	0.0157066
606.082	0.0156995
606.160	0.0156002
606.238	0.0155090
606.317	0.0156268
606.395	0.0157158
606.473	0.0155948
606.551	0.0156053
606.629	0.0156287
606.707	0.0155557
606.785	0.0156956
606.863	0.0155910
606.942	0.0156065
607.020	0.0156440
607.098	0.0156116
607.176	0.0156071
607.254	0.0156454
607.332	0.0155002
607.410	0.0156851
607.488	0.0156923
607.567	0.0157241
607.645	0.0155945
607.723	0.0156342
607.801	0.0155844
607.879	0.0156236
607.957	0.0156782
608.035	0.0156159
608.113	0.0155086
608.192	0.0155663
608.270	0.0154893
608.348	0.0155749
608.426	0.0157190
608.504	0.0156278
608.582	0.0156853
608.660	0.0155980
608.738	0.0156195
608.817	0.0156718
608.895	0.0157651
608.973	0.0157437
609.051	0.0155266
609.129	0.0155251
609.207	0.0156981
609.285	0.0156142
609.363	0.0156623
609.442	0.0155972
609.520	0.0156017
609.598	0.0156133
609.676	0.0156143
609.754	0.0156578
609.832	0.0156412
609.910	0.0156320
609.988	0.0155622
610.067	0.0155660
610.145	0.0157395
610.223	0.0157043
610.301	0.0154971
610.379	0.0156039
610.457	0.0157200
610.535	0.0156433
610.613	0.0156231
610.692	0.0155256
610.770	0.0157160
610.848	0.0156567
610.926	0.0156525
611.004	0.0155783
611.082	0.0155760
611.160	0.0156481
611.238	0.0156537
611.317	0.0156248
611.395	0.0155624
611.473	0.0155614
611.551	0.0157123
611.629	0.0156152
611.707	0.0157002
611.785	0.0156510
611.863	0.0156369
611.942	0.0156605
612.020	0.0156255
612.098	0.0156618
612.176	0.0156010
612.254	0.0157915
612.332	0.0156216
612.410	0.0156913
612.488	0.0155985
612.567	0.0157193
612.645	0.0156406
612.723	0.0156563
612.801	0.0155256
612.879	0.0157607
612.957	0.0156534
613.035	0.0156051
613.113	0.0155734
613.192	0.0155456
613.270	0.0155795
613.348	0.0155643
613.426	0.0155502
613.504	0.0155614
613.582	0.0155005
613.660	0.0154708
613.738	0.0154649
613.817	0.0155981
613.895	0.0155890
613.973	0.0154041
614.051	0.0155217
614.129	0.0155759
614.207	0.0155508
614.285	0.0155363
614.363	0.0155261
614.442	0.0156423
614.520	0.0156013
614.598	0.0156340
614.676	0.0155977
614.754	0.0157473
614.832	0.0156477
614.910	0.0157590
614.988	0.0157719
615.067	0.0157062
615.145	0.0156994
615.223	0.0158507
615.301	0.0158858
615.379	0.0157281
615.457	0.0157910
615.535	0.0156417
615.613	0.0157170
615.692	0.0155589
615.770	0.0154346
615.848	0.0153363
615.926	0.0154721
616.004	0.0153268
616.082	0.0154419
616.160	0.0153452
616.238	0.0152347
616.317	0.0152644
616.395	0.0153593
616.473	0.0152593
616.551	0.0152555
616.629	0.0152114
616.707	0.0152238
616.785	0.0152900
616.863	0.0153575
616.942	0.0152469
617.020	0.0153307
617.098	0.0155193
617.176	0.0154440
617.254	0.0156013
617.332	0.0156327
617.410	0.0157369
617.488	0.0158061
617.567	0.0157118
617.645	0.0159393
617.723	0.0158420
617.801	0.0158054
617.879	0.0159397
617.957	0.0158267
618.035	0.0158100
618.113	0.0158757
618.192	0.0158585
618.270	0.0158337
618.348	0.0158152
618.426	0.0158028
618.504	0.0157828
618.582	0.0156992
618.660	0.0157789
618.738	0.0156859
618.817	0.0154762
618.895	0.0153661
618.973	0.0155193
619.051	0.0154575
619.129	0.0154054
619.207	0.0153860
619.285	0.0154313
619.363	0.0154201
619.442	0.0153730
619.520	0.0153419
619.598	0.0154201
619.676	0.0153347
619.754	0.0153740
619.832	0.0153160
619.910	0.0153616
619.988	0.0151955
620.067	0.0154656
620.145	0.0152576
620.223	0.0153654
620.301	0.0153407
620.379	0.0156070
620.457	0.0153358
620.535	0.0153158
620.613	0.0154729
620.692	0.0156183
620.770	0.0155115
620.848	0.0156018
620.926	0.0156851
621.004	0.0157819
621.082	0.0157390
621.160	0.0157494
621.238	0.0158898
621.317	0.0158774
621.395	0.0158815
621.473	0.0158495
621.551	0.0159087
621.629	0.0159710
621.707	0.0158756
621.785	0.0160089
621.863	0.0159063
621.942	0.0158026
622.020	0.0159129
622.098	0.0159360
622.176	0.0158351
622.254	0.0158079
622.332	0.0157484
622.410	0.0157634
622.488	0.0157666
622.567	0.0155341
622.645	0.0156232
622.723	0.0156042
622.801	0.0154358
622.879	0.0154057
622.957	0.0155678
623.035	0.0153983
623.113	0.0151707
623.192	0.0153876
623.270	0.0152590
623.348	0.0151262
623.426	0.0151635
623.504	0.0151934
623.582	0.0150151
623.660	0.0152050
623.738	0.0151357
623.817	0.0151256
623.895	0.0153198
623.973	0.0152399
624.051	0.0153008
624.129	0.0154530
624.207	0.0155926
624.285	0.0155455
624.363	0.0157776
624.442	0.0157810
624.520	0.0158279
624.598	0.0159525
624.676	0.0159862
624.754	0.0159019
624.832	0.0162081
624.910	0.0161138
624.988	0.0161244
625.067	0.0161876
625.145	0.0163487
625.223	0.0162752
625.301	0.0163183
625.379	0.0161427
625.457	0.0161578
625.535	0.0161115
625.613	0.0161417
625.692	0.0159637
625.770	0.0160876
625.848	0.0157503
625.926	0.0157017
626.004	0.0155003
626.082	0.0155684
626.160	0.0153758
626.238	0.0153698
626.317	0.0152949
626.395	0.0153161
626.473	0.0152362
626.551	0.0151637
626.629	0.0150751
626.707	0.0149639
626.785	0.0150455
626.863	0.0150620
626.942	0.0150680
627.020	0.0151391
627.098	0.0152088
627.176	0.0151268
627.254	0.0151689
627.332	0.0151560
627.410	0.0153563
627.488	0.0153775
627.567	0.0153984
627.645	0.0156996
627.723	0.0157268
627.801	0.0156456
627.879	0.0159427
627.957	0.0159344
628.035	0.0159247
628.113	0.0160249
628.192	0.0159386
628.270	0.0161246
628.348	0.0159547
628.426	0.0159059
628.504	0.0160528
628.582	0.0159650
628.660	0.0160701
628.738	0.0158796
628.817	0.0159161
628.895	0.0159179
628.973	0.0159255
629.051	0.0158376
629.129	0.0158707
629.207	0.0156593
629.285	0.0155680
629.363	0.0156419
629.442	0.0157014
629.520	0.0156526
629.598	0.0154742
629.676	0.0155199
629.754	0.0155946
629.832	0.0156375
629.910	0.0154034
629.988	0.0154866
630.067	0.0155129
630.145	0.0154759
630.223	0.0153744
630.301	0.0153428
630.379	0.0153583
630.457	0.0153527
630.535	0.0152058
630.613	0.0153270
630.692	0.0153954
630.770	0.0152154
630.848	0.0153500
630.926	0.0153404
631.004	0.0152290
631.082	0.0152759
631.160	0.0153574
631.238	0.0154330
631.317	0.0152758
631.395	0.0152996
631.473	0.0154070
631.551	0.0155397
631.629	0.0155927
631.707	0.0155426
631.785	0.0157101
631.863	0.0157732
631.942	0.0158034
632.020	0.0157901
632.098	0.0159103
632.176	0.0158752
632.254	0.0159137
632.332	0.0159815
632.410	0.0160693
632.488	0.0160583
632.567	0.0160089
632.645	0.0160690
632.723	0.0159068
632.801	0.0157562
632.879	0.0157215
632.957	0.0157891
633.035	0.0157538
633.113	0.0156240
633.192	0.0154527
633.270	0.0153860
633.348	0.0154168
633.426	0.0153980
633.504	0.0152618
633.582	0.0153755
633.660	0.0153327
633.738	0.0152606
633.817	0.0152019
633.895	0.0152866
633.973	0.0152425
634.051	0.0154065
634.129	0.0153992
634.207	0.0154360
634.285	0.0154123
634.363	0.0153728
634.442	0.0155958
634.520	0.0154578
634.598	0.0156104
634.676	0.0156037
634.754	0.0155199
634.832	0.0156650
634.910	0.0156878
634.988	0.0156629
635.067	0.0156086
635.145	0.0156359
635.223	0.0156043
635.301	0.0155722
635.379	0.0155164
635.457	0.0155460
635.535	0.0155964
635.613	0.0155237
635.692	0.0155560
635.770	0.0154543
635.848	0.0154146
635.926	0.0155088
636.004	0.0155276
636.082	0.0155578
636.160	0.0155959
636.238	0.0155859
636.317	0.0156561
636.395	0.0155190
636.473	0.0158223
636.551	0.0157169
636.629	0.0157745
636.707	0.0157928
636.785	0.0157484
636.863	0.0158960
636.942	0.0158353
637.020	0.0157847
637.098	0.0157964
637.176	0.0157587
637.254	0.0157664
637.332	0.0158096
637.410	0.0157101
637.488	0.0156343
637.567	0.0157005
637.645	0.0155396
637.723	0.0155832
637.801	0.0155359
637.879	0.0153872
637.957	0.0153079
638.035	0.0154533
638.113	0.0152699
638.192	0.0154436
638.270	0.0153345
638.348	0.0152813
638.426	0.0153959
638.504	0.0153908
638.582	0.0153781
638.660	0.0154918
638.738	0.0155520
638.817	0.0154503
638.895	0.0155051
638.973	0.0156533
639.051	0.0155229
639.129	0.0156596
639.207	0.0157984
639.285	0.0157063
639.363	0.0158081
639.442	0.0157332
639.520	0.0156841
639.598	0.0157216
639.676	0.0158848
639.754	0.0159171
639.832	0.0155419
639.910	0.0156500
639.988	0.0155868
640.067	0.0156403
640.145	0.0157794
640.223	0.0155280
640.301	0.0156096
640.379	0.0155996
640.457	0.0154945
640.535	0.0155676
640.613	0.0157088
640.692	0.0155409
640.770	0.0155802
640.848	0.0154160
640.926	0.0154183
641.004	0.0154193
641.082	0.0155025
641.160	0.0154705
641.238	0.0155872
641.317	0.0153960
641.395	0.0155867
641.473	0.0155851
641.551	0.0154974
641.629	0.0157225
641.707	0.0156544
641.785	0.0155357
641.863	0.0156979
641.942	0.0156284
642.020	0.0155691
642.098	0.0156162
642.176	0.0155495
642.254	0.0156989
642.332	0.0156051
642.410	0.0155000
642.488	0.0156096
642.567	0.0154854
642.645	0.0155579
642.723	0.0155495
642.801	0.0154051
642.879	0.0155382
642.957	0.0156721
643.035	0.0157302
643.113	0.0153987
643.192	0.0154738
643.270	0.0155693
643.348	0.0155290
643.426	0.0155603
643.504	0.0155765
643.582	0.0154984
643.660	0.0155373
643.738	0.0156061
643.817	0.0157504
643.895	0.0156612
643.973	0.0157319
644.051	0.0156978
644.129	0.0157397
644.207	0.0155603
644.285	0.0155495
644.363	0.0156682
644.442	0.0156947
644.520	0.0156448
644.598	0.0156258
644.676	0.0155029
644.754	0.0155634
644.832	0.0153846
644.910	0.0154449
644.988	0.0155402
645.067	0.0155180
645.145	0.0154051
645.223	0.0155418
645.301	0.0154961
645.379	0.0154655
645.457	0.0155696
645.535	0.0156293
645.613	0.0155695
645.692	0.0156003
645.770	0.0155538
645.848	0.0155832
645.926	0.0157524
646.004	0.0157100
646.082	0.0157784
646.160	0.0156697
646.238	0.0156978
646.317	0.0157382
646.395	0.0156529
646.473	0.0155244
646.551	0.0157419
646.629	0.0156960
646.707	0.0157372
646.785	0.0155489
646.863	0.0154259
646.942	0.0155546
647.020	0.0155044
647.098	0.0155898
647.176	0.0156396
647.254	0.0155146
647.332	0.0156648
647.410	0.0154615
647.488	0.0154943
647.567	0.0155960
647.645	0.0155069
647.723	0.0156889
647.801	0.0157030
647.879	0.0157993
647.957	0.0158177
648.035	0.0155424
648.113	0.0156453
648.192	0.0156263
648.270	0.0156306
648.348	0.0156199
648.426	0.0157410
648.504	0.0154662
648.582	0.0156020
648.660	0.0154961
648.738	0.0153580
648.817	0.0153859
648.895	0.0154012
648.973	0.0153810
649.051	0.0152193
649.129	0.0152323
649.207	0.0154087
649.285	0.0153765
649.363	0.0154169
649.442	0.0154989
649.520	0.0156119
649.598	0.0156371
649.676	0.0158035
649.754	0.0158215
649.832	0.0158103
649.910	0.0158197
649.988	0.0159998
650.067	0.0159402
650.145	0.0159534
650.223	0.0159521
650.301	0.0159258
650.379	0.0159161
650.457	0.0158493
650.535	0.0157329
650.613	0.0157000
650.692	0.0154442
650.770	0.0153528
650.848	0.0153927
650.926	0.0152721
651.004	0.0153196
651.082	0.0152747
651.160	0.0152407
651.238	0.0152705
651.317	0.0152551
651.395	0.0154317
651.473	0.0155003
651.551	0.0156133
651.629	0.0157346
651.707	0.0158048
651.785	0.0159077
651.863	0.0160926
651.942	0.0161876
652.020	0.0160483
652.098	0.0161784
652.176	0.0160838
652.254	0.0159316
652.332	0.0159220
652.410	0.0158092
652.488	0.0156042
652.567	0.0155705
652.645	0.0155237
652.723	0.0152692
652.801	0.0150190
652.879	0.0149963
652.957	0.0147074
653.035	0.0147720
653.113	0.0146828
653.192	0.0146281
653.270	0.0146296
653.348	0.0147095
653.426	0.0147054
653.504	0.0147118
653.582	0.0150495
653.660	0.0151854
653.738	0.0153336
653.817	0.0157219
653.895	0.0159541
653.973	0.0161997
654.051	0.0163734
654.129	0.0166312
654.207	0.0168712
654.285	0.0169612
654.363	0.0172313
654.442	0.0171678
654.520	0.0170087
654.598	0.0170167
654.676	0.0169855
654.754	0.0166978
654.832	0.0164163
654.910	0.0160938
654.988	0.0158597
655.067	0.0155720
655.145	0.0152454
655.223	0.0147761
655.301	0.0144767
655.379	0.0141918
655.457	0.0140191
655.535	0.0138581
655.613	0.0137900
655.692	0.0137930
655.770	0.0137266
655.848	0.0139497
655.926	0.0139581
656.004	0.0139947
656.082	0.0144133
656.160	0.0146104
656.238	0.0149876
656.317	0.0154041
656.395	0.0156095
656.473	0.0158120
656.551	0.0161754
656.629	0.0163469
656.707	0.0165681
656.785	0.0169099
656.863	0.0169044
656.942	0.0170209
657.020	0.0170856
657.098	0.0169746
657.176	0.0169505
657.254	0.0168794
657.332	0.0166798
657.410	0.0165263
657.488	0.0164700
657.567	0.0161697
657.645	0.0160007
657.723	0.0158659
657.801	0.0157213
657.879	0.0156091
657.957	0.0153040
658.035	0.0152379
658.113	0.0151443
658.192	0.0149786
658.270	0.0149558
658.348	0.0149996
658.426	0.0147978
658.504	0.0149429
658.582	0.0148525
658.660	0.0149451
658.738	0.0148280
658.817	0.0147168
658.895	0.0148417
658.973	0.0148234
659.051	0.0149316
659.129	0.0150678
659.207	0.0151127
659.285	0.0150938
659.363	0.0151642
659.442	0.0152408
659.520	0.0154615
659.598	0.0155447
659.676	0.0155859
659.754	0.0156966
659.832	0.0159612
659.910	0.0160992
659.988	0.0162273
660.067	0.0162765
660.145	0.0164545
660.223	0.0165556
660.301	0.0164049
660.379	0.0163466
660.457	0.0164037
660.535	0.0163122
660.613	0.0160364
660.692	0.0158781
660.770	0.0156655
660.848	0.0151900
660.926	0.0150053
661.004	0.0146828
661.082	0.0144457
661.160	0.0143073
661.238	0.0141159
661.317	0.0140333
661.395	0.0140516
661.473	0.0141285
661.551	0.0141858
661.629	0.0145672
661.707	0.0150292
661.785	0.0153265
661.863	0.0159104
661.942	0.0162922
662.020	0.0167602
662.098	0.0171852
662.176	0.0176264
662.254	0.0180498
662.332	0.0182625
662.410	0.0184813
662.488	0.0184299
662.567	0.0183533
662.645	0.0180904
662.723	0.0179689
662.801	0.0175134
662.879	0.0170054
662.957	0.0166337
663.035	0.0160417
663.113	0.0155683
663.192	0.0151102
663.270	0.0145696
663.348	0.0140868
663.426	0.0136275
663.504	0.0133149
663.582	0.0130432
663.660	0.0126466
663.738	0.0124566
663.817	0.0122923
663.895	0.0122449
663.973	0.0123594
664.051	0.0124393
664.129	0.0126661
664.207	0.0128212
664.285	0.0130854
664.363	0.0134795
664.442	0.0138800
664.520	0.0143151
664.598	0.0148131
664.676	0.0152940
664.754	0.0156821
664.832	0.0161111
664.910	0.0165910
664.988	0.0170799
665.067	0.0176257
665.145	0.0179845
665.223	0.0184589
665.301	0.0187446
665.379	0.0190575
665.457	0.0194843
665.535	0.0196040
665.613	0.0195810
665.692	0.0197508
665.770	0.0196534
665.848	0.0191267
665.926	0.0188534
666.004	0.0183839
666.082	0.0176875
666.160	0.0172927
666.238	0.0165504
666.317	0.0159137
666.395	0.0152960
666.473	0.0148093
666.551	0.0144043
666.629	0.0140283
666.707	0.0136784
666.785	0.0134241
666.863	0.0132953
666.942	0.0133615
667.020	0.0130869
667.098	0.0129597
667.176	0.0129509
667.254	0.0130346
667.332	0.0128645
667.410	0.0127766
667.488	0.0129413
667.567	0.0129640
667.645	0.0128969
667.723	0.0131490
667.801	0.0133456
667.879	0.0135178
667.957	0.0138705
668.035	0.0141818
668.113	0.0147076
668.192	0.0151849
668.270	0.0155303
668.348	0.0160468
668.426	0.0164641
668.504	0.0167641
668.582	0.0170582
668.660	0.0171995
668.738	0.0173484
668.817	0.0174666
668.895	0.0174302
668.973	0.0176631
669.051	0.0175828
669.129	0.0176018
669.207	0.0177010
669.285	0.0176528
669.363	0.0177570
669.442	0.0175461
669.520	0.0173364
669.598	0.0173395
669.676	0.0170808
669.754	0.0170269
669.832	0.0167175
669.910	0.0162604
669.988	0.0161634
670.067	0.0155614
670.145	0.0152731
670.223	0.0150336
670.301	0.0148346
670.379	0.0147365
670.457	0.0146355
670.535	0.0145826
670.613	0.0145708
670.692	0.0146886
670.770	0.0148212
670.848	0.0151935
670.926	0.0152148
671.004	0.0152798
671.082	0.0155563
671.160	0.0155975
671.238	0.0156612
671.317	0.0158379
671.395	0.0157571
671.473	0.0156673
671.551	0.0157207
671.629	0.0156907
671.707	0.0155467
671.785	0.0153528
671.863	0.0153877
671.942	0.0150345
672.020	0.0148501
672.098	0.0144563
672.176	0.0143758
672.254	0.0142420
672.332	0.0138831
672.410	0.0135966
672.488	0.0133610
672.567	0.0135239
672.645	0.0133566
672.723	0.0134815
672.801	0.0136254
672.879	0.0139025
672.957	0.0142036
673.035	0.0146812
673.113	0.0150893
673.192	0.0154996
673.270	0.0160735
673.348	0.0164212
673.426	0.0169774
673.504	0.0172938
673.582	0.0176746
673.660	0.0179579
673.738	0.0180696
673.817	0.0183749
673.895	0.0184514
673.973	0.0184671
674.051	0.0183305
674.129	0.0181055
674.207	0.0178853
674.285	0.0177802
674.363	0.0174994
674.442	0.0170248
674.520	0.0166496
674.598	0.0162614
674.676	0.0159706
674.754	0.0154894
674.832	0.0151317
674.910	0.0148419
674.988	0.0143803
675.067	0.0141995
675.145	0.0138794
675.223	0.0135606
675.301	0.0134546
675.379	0.0133244
675.457	0.0132256
675.535	0.0133418
675.613	0.0134555
675.692	0.0136601
675.770	0.0139893
675.848	0.0142339
675.926	0.0144265
676.004	0.0149671
676.082	0.0152750
676.160	0.0156773
676.238	0.0159422
676.317	0.0163316
676.395	0.0164217
676.473	0.0167099
676.551	0.0167384
676.629	0.0166691
676.707	0.0167042
676.785	0.0165154
676.863	0.0162630
676.942	0.0163259
677.020	0.0160332
677.098	0.0157861
677.176	0.0157041
677.254	0.0155543
677.332	0.0154159
677.410	0.0152800
677.488	0.0152633
677.567	0.0153249
677.645	0.0152975
677.723	0.0156860
677.801	0.0155853
677.879	0.0157213
677.957	0.0161111
678.035	0.0160002
678.113	0.0160131
678.192	0.0162396
678.270	0.0163417
678.348	0.0163741
678.426	0.0163004
678.504	0.0162417
678.582	0.0162182
678.660	0.0160492
678.738	0.0160043
678.817	0.0159370
678.895	0.0158019
678.973	0.0157407
679.051	0.0156868
679.129	0.0157365
679.207	0.0156730
679.285	0.0156429
679.363	0.0155994
679.442	0.0153883
679.520	0.0151904
679.598	0.0152029
679.676	0.0150240
679.754	0.0149198
679.832	0.0146954
679.910	0.0145142
679.988	0.0141322
680.067	0.0141908
680.145	0.0139938
680.223	0.0138543
680.301	0.0135957
680.379	0.0135301
680.457	0.0135896
680.535	0.0136489
680.613	0.0137775
680.692	0.0138449
680.770	0.0141814
680.848	0.0143248
680.926	0.0144991
681.004	0.0148603
681.082	0.0152185
681.160	0.0156499
681.238	0.0161432
681.317	0.0165359
681.395	0.0170114
681.473	0.0174856
681.551	0.0179086
681.629	0.0182453
681.707	0.0186882
681.785	0.0190095
681.863	0.0191565
681.942	0.0190246
682.020	0.0193907
682.098	0.0193105
682.176	0.0189487
682.254	0.0187009
682.332	0.0183801
682.410	0.0181686
682.488	0.0175545
682.567	0.0170989
682.645	0.0165397
682.723	0.0160386
682.801	0.0154085
682.879	0.0150223
682.957	0.0143525
683.035	0.0139376
683.113	0.0135504
683.192	0.0131374
683.270	0.0128731
683.348	0.0126247
683.426	0.0125441
683.504	0.0123863
683.582	0.0121577
683.660	0.0118910
683.738	0.0120296
683.817	0.0121011
683.895	0.0122514
683.973	0.0124140
684.051	0.0126153
684.129	0.0128648
684.207	0.0133372
684.285	0.0137466
684.363	0.0143287
684.442	0.0150133
684.520	0.0154295
684.598	0.0161204
684.676	0.0166135
684.754	0.0173047
684.832	0.0176508
684.910	0.0181225
684.988	0.0181384
685.067	0.0182005
685.145	0.0183133
685.223	0.0179071
685.301	0.0178247
685.379	0.0174120
685.457	0.0168673
685.535	0.0166729
685.613	0.0161869
685.692	0.0156981
685.770	0.0154968
685.848	0.0153882
685.926	0.0152412
686.004	0.0151404
686.082	0.0152898
686.160	0.0153914
686.238	0.0156088
686.317	0.0158182
686.395	0.0159258
686.473	0.0162232
686.551	0.0163357
686.629	0.0164170
686.707	0.0164893
686.785	0.0164765
686.863	0.0164070
686.942	0.0161401
687.020	0.0160476
687.098	0.0159261
687.176	0.0158862
687.254	0.0158671
687.332	0.0159476
687.410	0.0158718
687.488	0.0158337
687.567	0.0159126
687.645	0.0160970
687.723	0.0162357
687.801	0.0161671
687.879	0.0161491
687.957	0.0162209
688.035	0.0163505
688.113	0.0161170
688.192	0.0160934
688.270	0.0158999
688.348	0.0156408
688.426	0.0154119
688.504	0.0151688
688.582	0.0147642
688.660	0.0144020
688.738	0.0141065
688.817	0.0138987
688.895	0.0134173
688.973	0.0134148
689.051	0.0133244
689.129	0.0131306
689.207	0.0131758
689.285	0.0132619
689.363	0.0133131
689.442	0.0134377
689.520	0.0137785
689.598	0.0140823
689.676	0.0143146
689.754	0.0147223
689.832	0.0149738
689.910	0.0153855
689.988	0.0157035
690.067	0.0160595
690.145	0.0161675
690.223	0.0163073
690.301	0.0167041
690.379	0.0168405
690.457	0.0168518
690.535	0.0168085
690.613	0.0168555
690.692	0.0170094
690.770	0.0169013
690.848	0.0166354
690.926	0.0165276
691.004	0.0164507
691.082	0.0161955
691.160	0.0160149
691.238	0.0160247
691.317	0.0160235
691.395	0.0159282
691.473	0.0159667
691.551	0.0159757
691.629	0.0160029
691.707	0.0162525
691.785	0.0162372
691.863	0.0161923
691.942	0.0163313
692.020	0.0163342
692.098	0.0163003
692.176	0.0162733
692.254	0.0162904
692.332	0.0161835
692.410	0.0159627
692.488	0.0158190
692.567	0.0158852
692.645	0.0158210
692.723	0.0157209
692.801	0.0155444
692.879	0.0156155
692.957	0.0156302
693.035	0.0155212
693.113	0.0153387
693.192	0.0154147
693.270	0.0154969
693.348	0.0155080
693.426	0.0155262
693.504	0.0156361
693.582	0.0156152
693.660	0.0156432
693.738	0.0158681
693.817	0.0156396
693.895	0.0155062
693.973	0.0155455
694.051	0.0154926
694.129	0.0152863
694.207	0.0151188
694.285	0.0149600
694.363	0.0147409
694.442	0.0145312
694.520	0.0143542
694.598	0.0144290
694.676	0.0142258
694.754	0.0141932
694.832	0.0144226
694.910	0.0144356
694.988	0.0145313
695.067	0.0146246
695.145	0.0146234
695.223	0.0149184
695.301	0.0149274
695.379	0.0150581
695.457	0.0151409
695.535	0.0151016
695.613	0.0151065
695.692	0.0153178
695.770	0.0151615
695.848	0.0152240
695.926	0.0152977
696.004	0.0153700
696.082	0.0154784
696.160	0.0155653
696.238	0.0156995
696.317	0.0159164
696.395	0.0160752
696.473	0.0160165
696.551	0.0161396
696.629	0.0161627
696.707	0.0163947
696.785	0.0165050
696.863	0.0163750
696.942	0.0164071
697.020	0.0164282
697.098	0.0162670
697.176	0.0162174
697.254	0.0160515
697.332	0.0159648
697.410	0.0159796
697.488	0.0159344
697.567	0.0157706
697.645	0.0157579
697.723	0.0156368
697.801	0.0159674
697.879	0.0158086
697.957	0.0159525
698.035	0.0161555
698.113	0.0162440
698.192	0.0163766
698.270	0.0164182
698.348	0.0164609
698.426	0.0166158
698.504	0.0165141
698.582	0.0167626
698.660	0.0165192
698.738	0.0164606
698.817	0.0163097
698.895	0.0162920
698.973	0.0163063
699.051	0.0159242
699.129	0.0157685
699.207	0.0156910
699.285	0.0154620
699.363	0.0153819
699.442	0.0150713
699.520	0.0150436
699.598	0.0149856
699.676	0.0147654
699.754	0.0147932
699.832	0.0147627
699.910	0.0146146
699.988	0.0148045
700.067	0.0148505
700.145	0.0146452
700.223	0.0147960
700.301	0.0147152
700.379	0.0147897
700.457	0.0149007
700.535	0.0149212
700.613	0.0149441
700.692	0.0149271
700.770	0.0150011
700.848	0.0151289
700.926	0.0149272
701.004	0.0149908
701.082	0.0151641
701.160	0.0152370
701.238	0.0152736
701.317	0.0155012
701.395	0.0155556
701.473	0.0156118
701.551	0.0155730
701.629	0.0157762
701.707	0.0157230
701.785	0.0159182
701.863	0.0157953
701.942	0.0157765
702.020	0.0155817
702.098	0.0155407
702.176	0.0155447
702.254	0.0154873
702.332	0.0152551
702.410	0.0151292
702.488	0.0151318
702.567	0.0150143
702.645	0.0150095
702.723	0.0149689
702.801	0.0149517
702.879	0.0150848
702.957	0.0150530
703.035	0.0151752
703.113	0.0153313
703.192	0.0156227
703.270	0.0157719
703.348	0.0160369
703.426	0.0160777
703.504	0.0161911
703.582	0.0163694
703.660	0.0164897
703.738	0.0165780
703.817	0.0165778
703.895	0.0164948
703.973	0.0166359
704.051	0.0164790
704.129	0.0165165
704.207	0.0165220
704.285	0.0165213
704.363	0.0162297
704.442	0.0161609
704.520	0.0162341
704.598	0.0161466
704.676	0.0161897
704.754	0.0160243
704.832	0.0161289
704.910	0.0161165
704.988	0.0159691
705.067	0.0159200
705.145	0.0159482
705.223	0.0157645
705.301	0.0157294
705.379	0.0157074
705.457	0.0155977
705.535	0.0155375
705.613	0.0153426
705.692	0.0153072
705.770	0.0151164
705.848	0.0150153
705.926	0.0149824
706.004	0.0147577
706.082	0.0146941
706.160	0.0146373
706.238	0.0144619
706.317	0.0144070
706.395	0.0144775
706.473	0.0144985
706.551	0.0144959
706.629	0.0147555
706.707	0.0148798
706.785	0.0151255
706.863	0.0152330
706.942	0.0155407
707.020	0.0156144
707.098	0.0158443
707.176	0.0161037
707.254	0.0161332
707.332	0.0160931
707.410	0.0161125
707.488	0.0161160
707.567	0.0161156
707.645	0.0160110
707.723	0.0158538
707.801	0.0155677
707.879	0.0155483
707.957	0.0154637
708.035	0.0153533
708.113	0.0151860
708.192	0.0150578
708.270	0.0149322
708.348	0.0150175
708.426	0.0151389
708.504	0.0152013
708.582	0.0151735
708.660	0.0153158
708.738	0.0152992
708.817	0.0153962
708.895	0.0154141
708.973	0.0153568
709.051	0.0156858
709.129	0.0156090
709.207	0.0154784
709.285	0.0154056
709.363	0.0152740
709.442	0.0154209
709.520	0.0154391
709.598	0.0154050
709.676	0.0154639
709.754	0.0153870
709.832	0.0154536
709.910	0.0156338
709.988	0.0156009
710.067	0.0156637
710.145	0.0156626
710.223	0.0157377
710.301	0.0157319
710.379	0.0158941
710.457	0.0159724
710.535	0.0159739
710.613	0.0159749
710.692	0.0160388
710.770	0.0159865
710.848	0.0160613
710.926	0.0160609
711.004	0.0159653
711.082	0.0159201
711.160	0.0157951
711.238	0.0158585
711.317	0.0158724
711.395	0.0158498
711.473	0.0157866
711.551	0.0157948
711.629	0.0158022
711.707	0.0157558
711.785	0.0157174
711.863	0.0158614
711.942	0.0158102
712.020	0.0157644
712.098	0.0158535
712.176	0.0157712
712.254	0.0158372
712.332	0.0158041
712.410	0.0157275
712.488	0.0158104
712.567	0.0157290
712.645	0.0155991
712.723	0.0156682
712.801	0.0156157
712.879	0.0156091
712.957	0.0155252
713.035	0.0154387
713.113	0.0153171
713.192	0.0154113
713.270	0.0152307
713.348	0.0154239
713.426	0.0153973
713.504	0.0153056
713.582	0.0153300
713.660	0.0151825
713.738	0.0152464
713.817	0.0152124
713.895	0.0151263
713.973	0.0150448
714.051	0.0148581
714.129	0.0150090
714.207	0.0150748
714.285	0.0151113
714.363	0.0151476
714.442	0.0151504
714.520	0.0152319
714.598	0.0151851
714.676	0.0154092
714.754	0.0156446
714.832	0.0156062
714.910	0.0156783
714.988	0.0159349
715.067	0.0158862
715.145	0.0158577
715.223	0.0158363
715.301	0.0158899
715.379	0.0159265
715.457	0.0158638
715.535	0.0157199
715.613	0.0157355
715.692	0.0156660
715.770	0.0157980
715.848	0.0155842
715.926	0.0155836
716.004	0.0156593
716.082	0.0155694
716.160	0.0154720
716.238	0.0154744
716.317	0.0154656
716.395	0.0153825
716.473	0.0152787
716.551	0.0151527
716.629	0.0152993
716.707	0.0151541
716.785	0.0151387
716.863	0.0151368
716.942	0.0150906
717.020	0.0151743
717.098	0.0153463
717.176	0.0154248
717.254	0.0153205
717.332	0.0154832
717.410	0.0156067
717.488	0.0156465
717.567	0.0157666
717.645	0.0158340
717.723	0.0158378
717.801	0.0159611
717.879	0.0158562
717.957	0.0159502
718.035	0.0161755
718.113	0.0161116
718.192	0.0160500
718.270	0.0160819
718.348	0.0161239
718.426	0.0162048
718.504	0.0160807
718.582	0.0161637
718.660	0.0161672
718.738	0.0160380
718.817	0.0161533
718.895	0.0159671
718.973	0.0158440
719.051	0.0158143
719.129	0.0158139
719.207	0.0157701
719.285	0.0157639
719.363	0.0156309
719.442	0.0155738
719.520	0.0155920
719.598	0.0153244
719.676	0.0153411
719.754	0.0153262
719.832	0.0153592
719.910	0.0154002
719.988	0.0152631
720.067	0.0151364
720.145	0.0151872
720.223	0.0151131
720.301	0.0153139
720.379	0.0152424
720.457	0.0151905
720.535	0.0153199
720.613	0.0154510
720.692	0.0153356
720.770	0.0153352
720.848	0.0154790
720.926	0.0155557
721.004	0.0155706
721.082	0.0154926
721.160	0.0156001
721.238	0.0158295
721.317	0.0157121
721.395	0.0155919
721.473	0.0156795
721.551	0.0157513
721.629	0.0157514
721.707	0.0158024
721.785	0.0157683
721.863	0.0157635
721.942	0.0156746
722.020	0.0159532
722.098	0.0159887
722.176	0.0159348
722.254	0.0159260
722.332	0.0159721
722.410	0.0159254
722.488	0.0159431
722.567	0.0159412
722.645	0.0158563
722.723	0.0156358
722.801	0.0156516
722.879	0.0155666
722.957	0.0154903
723.035	0.0152609
723.113	0.0153063
723.192	0.0154343
723.270	0.0152747
723.348	0.0150865
723.426	0.0150284
723.504	0.0150719
723.582	0.0148936
723.660	0.0149345
723.738	0.0149245
723.817	0.0149461
723.895	0.0148803
723.973	0.0147498
724.051	0.0148896
724.129	0.0148689
724.207	0.0147343
724.285	0.0148911
724.363	0.0149404
724.442	0.0151637
724.520	0.0150076
724.598	0.0152035
724.676	0.0151960
724.754	0.0153603
724.832	0.0153247
724.910	0.0156420
724.988	0.0158154
725.067	0.0156929
725.145	0.0159464
725.223	0.0161777
725.301	0.0161482
725.379	0.0162286
725.457	0.0163898
725.535	0.0164576
725.613	0.0164651
725.692	0.0164126
725.770	0.0164327
725.848	0.0163588
725.926	0.0164088
726.004	0.0164692
726.082	0.0164831
726.160	0.0163804
726.238	0.0163747
726.317	0.0165575
726.395	0.0162915
726.473	0.0162993
726.551	0.0163150
726.629	0.0161492
726.707	0.0160090
726.785	0.0161759
726.863	0.0159143
726.942	0.0158544
727.020	0.0158301
727.098	0.0156699
727.176	0.0155672
727.254	0.0156146
727.332	0.0156316
727.410	0.0155270
727.488	0.0155784
727.567	0.0155861
727.645	0.0157519
727.723	0.0156905
727.801	0.0156487
727.879	0.0155782
727.957	0.0157301
728.035	0.0156173
728.113	0.0157403
728.192	0.0155633
728.270	0.0155164
728.348	0.0154375
728.426	0.0154819
728.504	0.0152628
728.582	0.0152168
728.660	0.0151897
728.738	0.0151207
728.817	0.0151330
728.895	0.0149630
728.973	0.0150491
729.051	0.0151337
729.129	0.0150072
729.207	0.0152513
729.285	0.0151895
729.363	0.0152406
729.442	0.0153065
729.520	0.0154752
729.598	0.0155380
729.676	0.0155415
729.754	0.0156771
729.832	0.0157246
729.910	0.0155252
729.988	0.0153519
730.067	0.0152850
730.145	0.0153133
730.223	0.0151649
730.301	0.0152295
730.379	0.0151509
730.457	0.0149552
730.535	0.0149586
730.613	0.0148710
730.692	0.0148683
730.770	0.0150218
730.848	0.0150481
730.926	0.0149533
731.004	0.0150096
731.082	0.0152521
731.160	0.0152719
731.238	0.0153278
731.317	0.0154758
731.395	0.0154572
731.473	0.0155322
731.551	0.0155025
731.629	0.0155531
731.707	0.0155647
731.785	0.0155080
731.863	0.0157057
731.942	0.0156609
732.020	0.0156859
732.098	0.0158794
732.176	0.0158355
732.254	0.0159204
732.332	0.0159180
732.410	0.0160713
732.488	0.0162888
732.567	0.0163918
732.645	0.0163235
732.723	0.0165152
732.801	0.0164413
732.879	0.0164449
732.957	0.0164751
733.035	0.0165317
733.113	0.0164677
733.192	0.0162565
733.270	0.0162418
733.348	0.0163002
733.426	0.0162389
733.504	0.0161372
733.582	0.0160903
733.660	0.0159158
733.738	0.0158937
733.817	0.0160181
733.895	0.0159748
733.973	0.0157931
734.051	0.0158167
734.129	0.0158189
734.207	0.0157276
734.285	0.0157392
734.363	0.0156254
734.442	0.0155004
734.520	0.0156369
734.598	0.0155077
734.676	0.0154363
734.754	0.0155950
734.832	0.0155360
734.910	0.0154481
734.988	0.0152972
735.067	0.0153449
735.145	0.0154071
735.223	0.0153574
735.301	0.0154982
735.379	0.0153751
735.457	0.0153990
735.535	0.0153252
735.613	0.0153122
735.692	0.0152237
735.770	0.0152247
735.848	0.0152254
735.926	0.0150569
736.004	0.0151240
736.082	0.0151041
736.160	0.0151884
736.238	0.0149886
736.317	0.0149506
736.395	0.0150414
736.473	0.0149642
736.551	0.0151000
736.629	0.0152501
736.707	0.0152368
736.785	0.0152191
736.863	0.0152402
736.942	0.0153748
737.020	0.0154047
737.098	0.0155862
737.176	0.0154362
737.254	0.0153950
737.332	0.0154768
737.410	0.0155605
737.488	0.0153812
737.567	0.0153615
737.645	0.0153451
737.723	0.0153381
737.801	0.0152251
737.879	0.0153192
737.957	0.0152737
738.035	0.0152296
738.113	0.0152183
738.192	0.0151532
738.270	0.0151339
738.348	0.0150660
738.426	0.0151766
738.504	0.0153888
738.582	0.0154204
738.660	0.0154018
738.738	0.0155109
738.817	0.0154495
738.895	0.0156804
738.973	0.0155547
739.051	0.0156774
739.129	0.0157645
739.207	0.0159071
739.285	0.0159261
739.363	0.0161147
739.442	0.0161255
739.520	0.0161190
739.598	0.0163332
739.676	0.0163682
739.754	0.0164473
739.832	0.0165520
739.910	0.0164342
739.988	0.0163770
740.067	0.0165662
740.145	0.0166312
740.223	0.0163545
740.301	0.0164807
740.379	0.0163023
740.457	0.0162680
740.535	0.0162455
740.613	0.0161507
740.692	0.0161141
740.770	0.0158353
740.848	0.0158520
740.926	0.0157426
741.004	0.0157751
741.082	0.0157063
741.160	0.0156758
741.238	0.0156148
741.317	0.0156368
741.395	0.0155167
741.473	0.0156331
741.551	0.0154741
741.629	0.0154627
741.707	0.0154808
741.785	0.0154555
741.863	0.0154634
741.942	0.0154340
742.020	0.0154990
742.098	0.0155919
742.176	0.0153956
742.254	0.0153982
742.332	0.0153827
742.410	0.0153169
742.488	0.0154586
742.567	0.0155128
742.645	0.0154349
742.723	0.0154500
742.801	0.0152452
742.879	0.0152090
742.957	0.0151833
743.035	0.0152897
743.113	0.0149931
743.192	0.0150591
743.270	0.0151006
743.348	0.0151196
743.426	0.0151115
743.504	0.0148834
743.582	0.0150643
743.660	0.0150489
743.738	0.0151298
743.817	0.0151164
743.895	0.0152693
743.973	0.0153291
744.051	0.0153877
744.129	0.0155312
744.207	0.0156422
744.285	0.0156985
744.363	0.0157621
744.442	0.0158716
744.520	0.0157727
744.598	0.0157896
744.676	0.0159302
744.754	0.0158137
744.832	0.0159608
744.910	0.0158159
744.988	0.0157334
745.067	0.0156695
745.145	0.0155713
745.223	0.0156528
745.301	0.0155525
745.379	0.0155478
745.457	0.0155537
745.535	0.0155521
745.613	0.0154697
745.692	0.0154320
745.770	0.0153942
745.848	0.0153832
745.926	0.0154899
746.004	0.0155338
746.082	0.0154565
746.160	0.0153555
746.238	0.0154359
746.317	0.0154057
746.395	0.0154805
746.473	0.0155695
746.551	0.0158076
746.629	0.0156172
746.707	0.0157642
746.785	0.0158705
746.863	0.0158968
746.942	0.0159483
747.020	0.0161820
747.098	0.0162328
747.176	0.0164712
747.254	0.0163503
747.332	0.0163371
747.410	0.0162787
747.488	0.0164266
747.567	0.0164420
747.645	0.0162701
747.723	0.0161020
747.801	0.0160329
747.879	0.0159744
747.957	0.0159256
748.035	0.0157790
748.113	0.0156373
748.192	0.0155991
748.270	0.0156863
748.348	0.0155214
748.426	0.0153436
748.504	0.0154006
748.582	0.0154376
748.660	0.0151492
748.738	0.0153616
748.817	0.0152956
748.895	0.0153675
748.973	0.0152427
749.051	0.0151747
749.129	0.0152873
749.207	0.0151951
749.285	0.0152515
749.363	0.0154329
749.442	0.0154100
749.520	0.0153756
749.598	0.0154219
749.676	0.0155550
749.754	0.0154571
749.832	0.0155823
749.910	0.0156542
749.988	0.0157612
750.067	0.0157037
750.145	0.0157829
750.223	0.0157193
750.301	0.0158266
750.379	0.0155833
750.457	0.0157594
750.535	0.0155524
750.613	0.0154404
750.692	0.0154488
750.770	0.0152692
750.848	0.0152058
750.926	0.0151667
751.004	0.0151463
751.082	0.0152267
751.160	0.0151870
751.238	0.0149705
751.317	0.0150646
751.395	0.0152139
751.473	0.0152918
751.551	0.0152969
751.629	0.0152382
751.707	0.0153473
751.785	0.0154298
751.863	0.0153324
751.942	0.0154908
752.020	0.0155453
752.098	0.0154785
752.176	0.0155090
752.254	0.0153650
752.332	0.0154418
752.410	0.0154505
752.488	0.0155009
752.567	0.0155054
752.645	0.0154933
752.723	0.0155266
752.801	0.0155547
752.879	0.0155728
752.957	0.0154588
753.035	0.0156216
753.113	0.0156300
753.192	0.0156286
753.270	0.0155635
753.348	0.0156004
753.426	0.0156635
753.504	0.0156181
753.582	0.0155811
753.660	0.0157280
753.738	0.0156837
753.817	0.0157344
753.895	0.0157658
753.973	0.0157513
754.051	0.0159106
754.129	0.0158899
754.207	0.0159161
754.285	0.0160040
754.363	0.0158469
754.442	0.0159102
754.520	0.0159690
754.598	0.0160469
754.676	0.0161081
754.754	0.0162114
754.832	0.0159548
754.910	0.0159138
754.988	0.0159715
755.067	0.0158850
755.145	0.0158266
755.223	0.0157401
755.301	0.0158197
755.379	0.0156355
755.457	0.0155692
755.535	0.0156273
755.613	0.0154465
755.692	0.0154868
755.770	0.0154639
755.848	0.0154500
755.926	0.0154267
756.004	0.0153976
756.082	0.0153701
756.160	0.0154340
756.238	0.0153864
756.317	0.0153595
756.395	0.0154037
756.473	0.0153841
756.551	0.0153529
756.629	0.0155501
756.707	0.0157659
756.785	0.0155937
756.863	0.0155802
756.942	0.0155933
757.020	0.0157327
757.098	0.0157579
757.176	0.0157602
757.254	0.0156805
757.332	0.0156287
757.410	0.0157346
757.488	0.0156737
757.567	0.0155614
757.645	0.0155074
757.723	0.0155862
757.801	0.0154631
757.879	0.0155697
757.957	0.0155175
758.035	0.0154587
758.113	0.0153977
758.192	0.0154881
758.270	0.0154535
758.348	0.0154513
758.426	0.0155547
758.504	0.0155476
758.582	0.0156038
758.660	0.0154945
758.738	0.0155753
758.817	0.0156776
758.895	0.0156419
758.973	0.0156821
759.051	0.0155824
759.129	0.0156461
759.207	0.0155926
759.285	0.0155046
759.363	0.0154973
759.442	0.0154706
759.520	0.0153813
759.598	0.0155030
759.676	0.0152589
759.754	0.0152639
759.832	0.0152216
759.910	0.0150136
759.988	0.0149828
760.067	0.0151233
760.145	0.0150241
760.223	0.0148528
760.301	0.0149682
760.379	0.0149045
760.457	0.0150277
760.535	0.0150767
760.613	0.0151057
760.692	0.0151576
760.770	0.0151765
760.848	0.0153654
760.926	0.0154263
761.004	0.0153172
761.082	0.0154050
761.160	0.0155758
761.238	0.0156615
761.317	0.0156779
761.395	0.0157362
761.473	0.0160495
761.551	0.0160947
761.629	0.0161504
761.707	0.0162333
761.785	0.0162387
761.863	0.0162315
761.942	0.0162575
762.020	0.0163981
762.098	0.0163539
762.176	0.0162793
762.254	0.0162812
762.332	0.0162527
762.410	0.0161970
762.488	0.0162630
762.567	0.0159715
762.645	0.0160983
762.723	0.0159260
762.801	0.0160069
762.879	0.0160748
762.957	0.0158396
763.035	0.0157178
763.113	0.0158451
763.192	0.0156593
763.270	0.0156898
763.348	0.0156969
763.426	0.0156779
763.504	0.0155413
763.582	0.0155640
763.660	0.0154806
763.738	0.0153696
763.817	0.0153058
763.895	0.0153656
763.973	0.0154739
764.051	0.0153583
764.129	0.0155225
764.207	0.0153745
764.285	0.0154254
764.363	0.0155710
764.442	0.0155263
764.520	0.0156221
764.598	0.0156815
764.676	0.0156960
764.754	0.0155428
764.832	0.0157118
764.910	0.0156115
764.988	0.0156245
765.067	0.0155847
765.145	0.0157121
765.223	0.0155653
765.301	0.0155193
765.379	0.0154667
765.457	0.0155144
765.535	0.0154456
765.613	0.0154745
765.692	0.0154414
765.770	0.0155210
765.848	0.0155062
765.926	0.0154926
766.004	0.0154526
766.082	0.0154868
766.160	0.0155397
766.238	0.0153041
766.317	0.0155645
766.395	0.0154547
766.473	0.0154789
766.551	0.0154562
766.629	0.0153793
766.707	0.0153864
766.785	0.0154367
766.863	0.0152872
766.942	0.0153273
767.020	0.0152184
767.098	0.0152777
767.176	0.0152267
767.254	0.0152155
767.332	0.0150456
767.410	0.0152357
767.488	0.0152724
767.567	0.0151676
767.645	0.0151746
767.723	0.0150857
767.801	0.0151578
767.879	0.0152708
767.957	0.0151839
768.035	0.0150836
768.113	0.0153126
768.192	0.0153473
768.270	0.0151805
768.348	0.0152580
768.426	0.0152220
768.504	0.0153279
768.582	0.0153384
768.660	0.0154134
768.738	0.0154681
768.817	0.0155183
768.895	0.0155604
768.973	0.0156947
769.051	0.0157432
769.129	0.0158040
769.207	0.0159118
769.285	0.0159744
769.363	0.0160395
769.442	0.0160996
769.520	0.0162567
769.598	0.0161596
769.676	0.0161715
769.754	0.0162523
769.832	0.0160597
769.910	0.0161590
769.988	0.0161003
770.067	0.0159540
770.145	0.0160725
770.223	0.0160185
770.301	0.0160656
770.379	0.0158914
770.457	0.0158804
770.535	0.0160634
770.613	0.0159237
770.692	0.0159006
770.770	0.0158307
770.848	0.0159547
770.926	0.0158656
771.004	0.0157933
771.082	0.0159691
771.160	0.0159612
771.238	0.0158382
771.317	0.0157711
771.395	0.0157543
771.473	0.0157867
771.551	0.0156812
771.629	0.0157278
771.707	0.0157670
771.785	0.0156425
771.863	0.0157080
771.942	0.0156335
772.020	0.0156322
772.098	0.0156149
772.176	0.0155484
772.254	0.0156171
772.332	0.0155526
772.410	0.0153965
772.488	0.0153056
772.567	0.0152077
772.645	0.0153413
772.723	0.0152172
772.801	0.0150775
772.879	0.0150076
772.957	0.0150702
773.035	0.0150278
773.113	0.0151089
773.192	0.0150212
773.270	0.0150250
773.348	0.0151494
773.426	0.0151489
773.504	0.0150436
773.582	0.0151292
773.660	0.0151629
773.738	0.0153071
773.817	0.0152602
773.895	0.0153141
773.973	0.0154522
774.051	0.0153426
774.129	0.0154527
774.207	0.0153781
774.285	0.0153226
774.363	0.0154170
774.442	0.0155428
774.520	0.0155224
774.598	0.0155455
774.676	0.0154878
774.754	0.0155593
774.832	0.0154851
774.910	0.0155767
774.988	0.0154612
775.067	0.0153042
775.145	0.0154681
775.223	0.0155788
775.301	0.0154947
775.379	0.0154628
775.457	0.0154634
775.535	0.0155763
775.613	0.0155026
775.692	0.0154497
775.770	0.0155190
775.848	0.0155988
775.926	0.0155891
776.004	0.0156712
776.082	0.0155969
776.160	0.0157192
776.238	0.0157411
776.317	0.0157043
776.395	0.0157443
776.473	0.0157561
776.551	0.0158389
776.629	0.0159190
776.707	0.0158575
776.785	0.0159149
776.863	0.0158705
776.942	0.0158780
777.020	0.0161652
777.098	0.0160015
777.176	0.0161478
777.254	0.0160394
777.332	0.0159303
777.410	0.0160105
777.488	0.0159491
777.567	0.0160759
777.645	0.0160224
777.723	0.0159267
777.801	0.0159912
777.879	0.0159525
777.957	0.0160544
778.035	0.0159946
778.113	0.0159803
778.192	0.0159612
778.270	0.0159991
778.348	0.0158417
778.426	0.0159491
778.504	0.0159168
778.582	0.0157500
778.660	0.0157504
778.738	0.0158288
778.817	0.0157164
778.895	0.0156766
778.973	0.0156812
779.051	0.0158515
779.129	0.0156751
779.207	0.0156805
779.285	0.0155362
779.363	0.0155896
779.442	0.0156786
779.520	0.0156262
779.598	0.0154359
779.676	0.0154070
779.754	0.0152698
779.832	0.0152941
779.910	0.0152029
779.988	0.0152026
780.067	0.0151051
780.145	0.0151081
780.223	0.0150259
780.301	0.0150182
780.379	0.0150351
780.457	0.0149373
780.535	0.0149526
780.613	0.0149521
780.692	0.0151412
780.770	0.0150478
780.848	0.0150124
780.926	0.0152198
781.004	0.0153588
781.082	0.0153371
781.160	0.0152915
781.238	0.0154643
781.317	0.0155155
781.395	0.0154913
781.473	0.0154642
781.551	0.0155329
781.629	0.0153374
781.707	0.0154025
781.785	0.0154233
781.863	0.0153730
781.942	0.0153527
782.020	0.0154893
782.098	0.0154251
782.176	0.0154456
782.254	0.0154193
782.332	0.0154262
782.410	0.0154210
782.488	0.0155103
782.567	0.0154740
782.645	0.0156116
782.723	0.0157357
782.801	0.0156815
782.879	0.0156149
782.957	0.0156187
783.035	0.0157140
783.113	0.0159619
783.192	0.0158363
783.270	0.0159010
783.348	0.0159164
783.426	0.0160158
783.504	0.0159853
783.582	0.0159602
783.660	0.0159242
783.738	0.0161281
783.817	0.0160710
783.895	0.0158951
783.973	0.0160706
784.051	0.0160516
784.129	0.0159645
784.207	0.0158667
784.285	0.0159865
784.363	0.0161021
784.442	0.0159988
784.520	0.0159929
784.598	0.0158254
784.676	0.0158851
784.754	0.0157926
784.832	0.0157153
784.910	0.0157143
784.988	0.0156479
785.067	0.0156709
785.145	0.0156082
785.223	0.0156320
785.301	0.0154160
785.379	0.0154118
785.457	0.0155328
785.535	0.0152970
785.613	0.0154826
785.692	0.0154294
785.770	0.0155094
785.848	0.0154021
785.926	0.0153878
786.004	0.0153854
786.082	0.0154672
786.160	0.0153088
786.238	0.0153762
786.317	0.0154660
786.395	0.0156092
786.473	0.0154695
786.551	0.0156709
786.629	0.0154909
786.707	0.0154942
786.785	0.0156240
786.863	0.0155527
786.942	0.0155315
787.020	0.0157644
787.098	0.0156052
787.176	0.0155186
787.254	0.0154099
787.332	0.0154685
787.410	0.0153994
787.488	0.0154651
787.567	0.0153792
787.645	0.0155251
787.723	0.0154175
787.801	0.0153400
787.879	0.0153822
787.957	0.0152947
788.035	0.0154690
788.113	0.0154181
788.192	0.0153699
788.270	0.0154182
788.348	0.0154626
788.426	0.0154897
788.504	0.0154970
788.582	0.0156380
788.660	0.0156489
788.738	0.0157870
788.817	0.0157967
788.895	0.0153884
788.973	0.0155181
789.051	0.0155257
789.129	0.0155325
789.207	0.0155132
789.285	0.0154403
789.363	0.0153683
789.442	0.0152493
789.520	0.0153644
789.598	0.0152465
789.676	0.0153474
789.754	0.0152937
789.832	0.0153913
789.910	0.0153848
789.988	0.0155991
790.067	0.0152900
790.145	0.0153593
790.223	0.0155188
790.301	0.0155080
790.379	0.0154917
790.457	0.0154171
790.535	0.0156335
790.613	0.0155804
790.692	0.0156378
790.770	0.0154301
790.848	0.0157329
790.926	0.0156635
791.004	0.0155474
791.082	0.0156097
791.160	0.0156993
791.238	0.0158304
791.317	0.0157808
791.395	0.0158849
791.473	0.0159386
791.551	0.0159024
791.629	0.0158487
791.707	0.0158905
791.785	0.0159162
791.863	0.0158247
791.942	0.0159988
792.020	0.0158851
792.098	0.0157774
792.176	0.0158125
792.254	0.0158045
792.332	0.0157171
792.410	0.0156837
792.488	0.0157285
792.567	0.0154508
792.645	0.0155461
792.723	0.0154246
792.801	0.0155240
792.879	0.0155549
792.957	0.0155000
793.035	0.0154532
793.113	0.0154271
793.192	0.0155152
793.270	0.0153838
793.348	0.0154940
793.426	0.0154312
793.504	0.0154436
793.582	0.0153300
793.660	0.0155630
793.738	0.0155274
793.817	0.0156216
793.895	0.0156691
793.973	0.0156904
794.051	0.0155431
794.129	0.0158114
794.207	0.0158074
794.285	0.0157777
794.363	0.0158276
794.442	0.0157647
794.520	0.0157599
794.598	0.0156615
794.676	0.0157963
794.754	0.0157027
794.832	0.0156060
794.910	0.0157478
794.988	0.0155190
795.067	0.0155320
795.145	0.0157142
795.223	0.0155705
795.301	0.0156837
795.379	0.0153902
795.457	0.0155013
795.535	0.0154691
795.613	0.0154773
795.692	0.0153789
795.770	0.0154733
795.848	0.0154589
795.926	0.0152702
796.004	0.0153448
796.082	0.0153291
796.160	0.0151532
796.238	0.0153775
796.317	0.0152309
796.395	0.0152409
796.473	0.0151613
796.551	0.0151893
796.629	0.0152488
796.707	0.0152463
796.785	0.0152866
796.863	0.0152184
796.942	0.0152438
797.020	0.0152864
797.098	0.0154301
797.176	0.0154065
797.254	0.0154084
797.332	0.0153712
797.410	0.0154078
797.488	0.0154913
797.567	0.0155260
797.645	0.0155466
797.723	0.0154954
797.801	0.0155682
797.879	0.0154341
797.957	0.0156762
798.035	0.0156602
798.113	0.0155904
798.192	0.0156700
798.270	0.0157784
798.348	0.0158203
798.426	0.0157809
798.504	0.0158906
798.582	0.0158514
798.660	0.0158247
798.738	0.0158803
798.817	0.0158813
798.895	0.0158961
798.973	0.0158647
799.051	0.0159352
799.129	0.0158461
799.207	0.0158830
799.285	0.0159578
799.363	0.0159457
799.442	0.0159880
799.520	0.0159008
799.598	0.0157890
799.676	0.0157598
799.754	0.0158296
799.832	0.0158884
799.910	0.0157021
799.988	0.0156713
800.067	0.0157686
800.145	0.0155987
800.223	0.0156323
800.301	0.0156188
800.379	0.0156092
800.457	0.0156821
800.535	0.0156675
800.613	0.0155634
800.692	0.0156116
800.770	0.0158334
800.848	0.0158824
800.926	0.0156721
801.004	0.0157111
801.082	0.0156884
801.160	0.0159378
801.238	0.0159449
801.317	0.0158006
801.395	0.0157571
801.473	0.0158075
801.551	0.0156985
801.629	0.0156807
801.707	0.0156699
801.785	0.0157948
801.863	0.0156462
801.942	0.0156033
802.020	0.0154330
802.098	0.0153482
802.176	0.0154384
802.254	0.0153300
802.332	0.0151633
802.410	0.0153922
802.488	0.0153528
802.567	0.0152534
802.645	0.0151050
802.723	0.0152606
802.801	0.0154278
802.879	0.0152000
802.957	0.0152589
803.035	0.0154013
803.113	0.0153423
803.192	0.0155505
803.270	0.0154026
803.348	0.0154414
803.426	0.0156889
803.504	0.0157148
803.582	0.0154663
803.660	0.0156445
803.738	0.0157115
803.817	0.0157496
803.895	0.0156308
803.973	0.0155274
804.051	0.0156566
804.129	0.0154409
804.207	0.0155528
804.285	0.0155595
804.363	0.0154961
804.442	0.0156236
804.520	0.0153806
804.598	0.0154887
804.676	0.0156230
804.754	0.0155583
804.832	0.0157160
804.910	0.0155352
804.988	0.0155376
805.067	0.0154176
805.145	0.0154074
805.223	0.0155085
805.301	0.0155471
805.379	0.0156006
805.457	0.0157056
805.535	0.0155822
805.613	0.0157817
805.692	0.0156145
805.770	0.0156671
805.848	0.0155951
805.926	0.0156579
806.004	0.0157760
806.082	0.0157303
806.160	0.0158242
806.238	0.0158888
806.317	0.0157380
806.395	0.0158315
806.473	0.0158560
806.551	0.0158855
806.629	0.0159085
806.707	0.0158627
806.785	0.0158683
806.863	0.0156878
806.942	0.0158282
807.020	0.0158101
807.098	0.0158482
807.176	0.0157458
807.254	0.0158006
807.332	0.0157695
807.410	0.0156947
807.488	0.0156995
807.567	0.0157810
807.645	0.0157311
807.723	0.0158141
807.801	0.0156412
807.879	0.0156281
807.957	0.0158356
808.035	0.0157043
808.113	0.0156908
808.192	0.0156224
808.270	0.0157870
808.348	0.0157510
808.426	0.0157908
808.504	0.0156536
808.582	0.0157916
808.660	0.0156716
808.738	0.0157214
808.817	0.0157030
808.895	0.0158300
808.973	0.0157580
809.051	0.0156896
809.129	0.0157867
809.207	0.0157486
809.285	0.0156082
809.363	0.0155864
809.442	0.0156690
809.520	0.0155251
809.598	0.0154018
809.676	0.0154896
809.754	0.0155139
809.832	0.0153545
809.910	0.0153853
809.988	0.0153546
810.067	0.0154803
810.145	0.0153570
810.223	0.0152350
810.301	0.0152840
810.379	0.0153819
810.457	0.0153027
810.535	0.0153616
810.613	0.0153993
810.692	0.0155027
810.770	0.0154345
810.848	0.0153269
810.926	0.0153520
811.004	0.0153986
811.082	0.0154259
811.160	0.0153769
811.238	0.0152777
811.317	0.0154205
811.395	0.0156259
811.473	0.0154795
811.551	0.0154718
811.629	0.0155843
811.707	0.0155348
811.785	0.0154534
811.863	0.0155706
811.942	0.0156310
812.020	0.0155186
812.098	0.0154716
812.176	0.0155835
812.254	0.0155187
812.332	0.0155798
812.410	0.0154844
812.488	0.0154977
812.567	0.0156252
812.645	0.0155532
812.723	0.0155394
812.801	0.0156351
812.879	0.0156510
812.957	0.0155557
813.035	0.0155464
813.113	0.0154519
813.192	0.0156229
813.270	0.0156951
813.348	0.0156714
813.426	0.0155207
813.504	0.0156963
813.582	0.0157513
813.660	0.0157542
813.738	0.0155987
813.817	0.0156679
813.895	0.0155889
813.973	0.0157438
814.051	0.0157444
814.129	0.0156392
814.207	0.0156591
814.285	0.0157199
814.363	0.0157538
814.442	0.0155869
814.520	0.0157836
814.598	0.0157666
814.676	0.0157269
814.754	0.0156631
814.832	0.0157506
814.910	0.0157067
814.988	0.0157456
815.067	0.0158567
815.145	0.0157100
815.223	0.0157572
815.301	0.0157811
815.379	0.0156287
815.457	0.0156671
815.535	0.0156740
815.613	0.0157669
815.692	0.0158005
815.770	0.0157140
815.848	0.0156586
815.926	0.0157617
816.004	0.0158204
816.082	0.0157068
816.160	0.0158383
816.238	0.0156573
816.317	0.0157382
816.395	0.0157471
816.473	0.0156129
816.551	0.0155393
816.629	0.0155323
816.707	0.0155722
816.785	0.0155503
816.863	0.0156106
816.942	0.0154919
817.020	0.0153545
817.098	0.0153741
817.176	0.0154006
817.254	0.0152290
817.332	0.0152650
817.410	0.0151842
817.488	0.0152023
817.567	0.0150975
817.645	0.0152231
817.723	0.0151054
817.801	0.0152557
817.879	0.0150790
817.957	0.0150742
818.035	0.0151764
818.113	0.0152630
818.192	0.0153803
818.270	0.0154569
818.348	0.0153266
818.426	0.0155081
818.504	0.0153671
818.582	0.0152667
818.660	0.0154694
818.738	0.0155497
818.817	0.0155354
818.895	0.0155135
818.973	0.0155909
819.051	0.0155748
819.129	0.0155835
819.207	0.0156464
819.285	0.0156731
819.363	0.0156930
819.442	0.0157307
819.520	0.0157230
819.598	0.0156853
819.676	0.0155870
819.754	0.0157161
819.832	0.0157043
819.910	0.0155779
819.988	0.0156047
820.067	0.0156723
820.145	0.0156602
820.223	0.0156181
820.301	0.0156294
820.379	0.0157111
820.457	0.0156357
820.535	0.0157558
820.613	0.0155997
820.692	0.0155773
820.770	0.0156386
820.848	0.0157492
820.926	0.0155663
821.004	0.0156643
821.082	0.0158789
821.160	0.0156489
821.238	0.0156548
821.317	0.0157725
821.395	0.0157982
821.473	0.0157858
821.551	0.0157536
821.629	0.0157700
821.707	0.0155583
821.785	0.0157288
821.863	0.0156428
821.942	0.0156403
822.020	0.0157294
822.098	0.0157300
822.176	0.0157893
822.254	0.0157617
822.332	0.0155160
822.410	0.0156403
822.488	0.0154903
822.567	0.0155176
822.645	0.0155937
822.723	0.0155153
822.801	0.0156799
822.879	0.0156357
822.957	0.0156703
823.035	0.0155814
823.113	0.0156225
823.192	0.0157185
823.270	0.0156857
823.348	0.0157807
823.426	0.0157085
823.504	0.0157098
823.582	0.0158514
823.660	0.0157934
823.738	0.0157898
823.817	0.0158543
823.895	0.0157304
823.973	0.0157406
824.051	0.0157708
824.129	0.0157030
824.207	0.0157057
824.285	0.0156261
824.363	0.0156573
824.442	0.0155368
824.520	0.0154528
824.598	0.0154638
824.676	0.0154868
824.754	0.0153537
824.832	0.0154511
824.910	0.0153737
824.988	0.0154235
825.067	0.0154337
825.145	0.0153123
825.223	0.0152773
825.301	0.0152788
825.379	0.0152713
825.457	0.0154114
825.535	0.0153336
825.613	0.0154545
825.692	0.0154133
825.770	0.0154060
825.848	0.0153095
825.926	0.0154366
826.004	0.0154749
826.082	0.0154697
826.160	0.0156716
826.238	0.0156590
826.317	0.0154146
826.395	0.0155098
826.473	0.0155817
826.551	0.0155092
826.629	0.0154773
826.707	0.0154548
826.785	0.0155370
826.863	0.0154858
826.942	0.0153374
827.020	0.0153478
827.098	0.0152486
827.176	0.0152521
827.254	0.0153602
827.332	0.0154127
827.410	0.0154681
827.488	0.0153139
827.567	0.0152757
827.645	0.0153908
827.723	0.0154308
827.801	0.0154644
827.879	0.0154729
827.957	0.0155266
828.035	0.0156880
828.113	0.0157780
828.192	0.0158749
828.270	0.0158082
828.348	0.0159150
828.426	0.0160264
828.504	0.0159584
828.582	0.0159182
828.660	0.0159561
828.738	0.0160861
828.817	0.0159702
828.895	0.0159722
828.973	0.0160519
829.051	0.0160577
829.129	0.0159406
829.207	0.0159914
829.285	0.0161469
829.363	0.0160369
829.442	0.0158419
829.520	0.0158026
829.598	0.0157315
829.676	0.0158824
829.754	0.0158299
829.832	0.0156628
829.910	0.0156310
829.988	0.0156569
830.067	0.0155027
830.145	0.0154546
830.223	0.0156229
830.301	0.0155677
830.379	0.0156898
830.457	0.0156103
830.535	0.0157054
830.613	0.0155363
830.692	0.0155972
830.770	0.0157198
830.848	0.0155491
830.926	0.0154829
831.004	0.0155757
831.082	0.0155891
831.160	0.0155401
831.238	0.0156529
831.317	0.0157003
831.395	0.0154618
831.473	0.0154600
831.551	0.0155381
831.629	0.0155432
831.707	0.0154971
831.785	0.0154652
831.863	0.0154489
831.942	0.0154742
832.020	0.0154382
832.098	0.0152531
832.176	0.0152416
832.254	0.0153430
832.332	0.0153820
832.410	0.0154440
832.488	0.0153690
832.567	0.0151768
832.645	0.0153419
832.723	0.0153439
832.801	0.0153280
832.879	0.0152664
832.957	0.0154969
833.035	0.0152836
833.113	0.0152807
833.192	0.0155074
833.270	0.0154665
833.348	0.0154390
833.426	0.0155103
833.504	0.0154379
833.582	0.0155359
833.660	0.0155527
833.738	0.0154695
833.817	0.0154750
833.895	0.0155592
833.973	0.0156744
834.051	0.0157052
834.129	0.0155895
834.207	0.0155139
834.285	0.0154649
834.363	0.0156335
834.442	0.0155946
834.520	0.0155188
834.598	0.0156206
834.676	0.0156858
834.754	0.0154311
834.832	0.0154251
834.910	0.0154466
834.988	0.0156448
835.067	0.0155726
835.145	0.0156243
835.223	0.0155870
835.301	0.0156135
835.379	0.0156999
835.457	0.0156648
835.535	0.0156642
835.613	0.0157664
835.692	0.0158077
835.770	0.0157523
835.848	0.0159202
835.926	0.0158894
836.004	0.0159457
836.082	0.0159526
836.160	0.0160097
836.238	0.0158896
836.317	0.0159344
836.395	0.0159323
836.473	0.0158772
836.551	0.0159158
836.629	0.0160310
836.707	0.0158579
836.785	0.0159446
836.863	0.0160032
836.942	0.0158138
837.020	0.0158179
837.098	0.0159285
837.176	0.0157640
837.254	0.0158087
837.332	0.0155866
837.410	0.0156983
837.488	0.0157101
837.567	0.0155889
837.645	0.0157145
837.723	0.0154959
837.801	0.0156580
837.879	0.0156023
837.957	0.0156036
838.035	0.0154992
838.113	0.0155470
838.192	0.0155117
838.270	0.0155349
838.348	0.0155685
838.426	0.0155592
838.504	0.0156254
838.582	0.0155489
838.660	0.0154651
838.738	0.0155092
838.817	0.0155276
838.895	0.0154344
838.973	0.0153715
839.051	0.0154198
839.129	0.0153461
839.207	0.0152810
839.285	0.0154052
839.363	0.0154061
839.442	0.0152698
839.520	0.0154482
839.598	0.0153652
839.676	0.0152470
839.754	0.0153396
839.832	0.0152625
839.910	0.0153187
839.988	0.0153571
840.067	0.0153832
840.145	0.0153243
840.223	0.0153577
840.301	0.0154532
840.379	0.0153785
840.457	0.0153510
840.535	0.0153600
840.613	0.0153596
840.692	0.0154162
840.770	0.0153661
840.848	0.0154771
840.926	0.0154363
841.004	0.0153822
841.082	0.0155430
841.160	0.0156230
841.238	0.0153389
841.317	0.0153891
841.395	0.0155395
841.473	0.0156959
841.551	0.0155091
841.629	0.0155957
841.707	0.0155905
841.785	0.0155704
841.863	0.0155775
841.942	0.0156800
842.020	0.0156799
842.098	0.0156882
842.176	0.0155260
842.254	0.0156828
842.332	0.0157585
842.410	0.0156310
842.488	0.0156049
842.567	0.0157312
842.645	0.0156400
842.723	0.0156587
842.801	0.0156808
842.879	0.0156917
842.957	0.0156587
843.035	0.0156904
843.113	0.0157390
843.192	0.0158531
843.270	0.0158199
843.348	0.0158716
843.426	0.0157426
843.504	0.0156180
843.582	0.0157667
843.660	0.0158532
843.738	0.0157704
843.817	0.0158266
843.895	0.0157429
843.973	0.0158390
844.051	0.0158803
844.129	0.0158551
844.207	0.0156547
844.285	0.0155972
844.363	0.0157577
844.442	0.0157453
844.520	0.0157806
844.598	0.0157371
844.676	0.0156602
844.754	0.0155691
844.832	0.0155666
844.910	0.0155126
844.988	0.0154784
845.067	0.0154749
845.145	0.0157549
845.223	0.0155451
845.301	0.0154913
845.379	0.0155762
845.457	0.0155257
845.535	0.0155550
845.613	0.0156432
845.692	0.0156551
845.770	0.0155830
845.848	0.0156038
845.926	0.0155853
846.004	0.0155473
846.082	0.0155032
846.160	0.0155203
846.238	0.0156200
846.317	0.0156378
846.395	0.0155787
846.473	0.0154388
846.551	0.0152824
846.629	0.0155022
846.707	0.0155007
846.785	0.0154113
846.863	0.0153291
846.942	0.0152377
847.020	0.0152164
847.098	0.0153040
847.176	0.0153083
847.254	0.0154381
847.332	0.0152270
847.410	0.0152354
847.488	0.0153439
847.567	0.0154180
847.645	0.0153511
847.723	0.0154273
847.801	0.0154253
847.879	0.0154602
847.957	0.0154311
848.035	0.0154646
848.113	0.0156469
848.192	0.0155933
848.270	0.0155527
848.348	0.0155923
848.426	0.0156200
848.504	0.0156049
848.582	0.0155738
848.660	0.0156298
848.738	0.0156055
848.817	0.0155280
848.895	0.0156118
848.973	0.0155827
849.051	0.0156963
849.129	0.0155331
849.207	0.0154800
849.285	0.0156763
849.363	0.0154678
849.442	0.0154959
849.520	0.0155099
849.598	0.0155360
849.676	0.0155163
849.754	0.0154565
849.832	0.0155932
849.910	0.0156048
849.988	0.0155649
850.067	0.0156340
850.145	0.0157576
850.223	0.0155438
850.301	0.0157583
850.379	0.0156963
850.457	0.0157474
850.535	0.0157243
850.613	0.0156761
850.692	0.0157095
850.770	0.0157578
850.848	0.0158120
850.926	0.0158662
851.004	0.0157795
851.082	0.0157715
851.160	0.0158730
851.238	0.0159796
851.317	0.0158535
851.395	0.0157449
851.473	0.0158250
851.551	0.0158759
851.629	0.0158492
851.707	0.0157384
851.785	0.0157689
851.863	0.0160277
851.942	0.0158038
852.020	0.0158534
852.098	0.0158184
852.176	0.0157869
852.254	0.0156798
852.332	0.0156403
852.410	0.0157024
852.488	0.0156541
852.567	0.0155467
852.645	0.0154144
852.723	0.0155099
852.801	0.0155331
852.879	0.0155693
852.957	0.0154984
853.035	0.0154676
853.113	0.0155317
853.192	0.0155237
853.270	0.0155917
853.348	0.0156424
853.426	0.0157332
853.504	0.0156594
853.582	0.0158218
853.660	0.0158278
853.738	0.0156857
853.817	0.0157816
853.895	0.0158395
853.973	0.0156624
854.051	0.0156390
854.129	0.0156853
854.207	0.0156859
854.285	0.0155745
854.363	0.0155869
854.442	0.0155011
854.520	0.0153581
854.598	0.0153967
854.676	0.0152560
854.754	0.0152578
854.832	0.0153640
854.910	0.0152180
854.988	0.0153162
855.067	0.0150828
855.145	0.0152615
855.223	0.0153505
855.301	0.0153092
855.379	0.0153607
855.457	0.0152208
855.535	0.0153105
855.613	0.0152939
855.692	0.0154061
855.770	0.0155490
855.848	0.0154128
855.926	0.0153864
856.004	0.0156938
856.082	0.0155630
856.160	0.0155188
856.238	0.0155927
856.317	0.0156678
856.395	0.0156252
856.473	0.0158029
856.551	0.0156354
856.629	0.0157722
856.707	0.0158583
856.785	0.0158647
856.863	0.0157812
856.942	0.0159116
857.020	0.0157716
857.098	0.0158341
857.176	0.0158078
857.254	0.0158559
857.332	0.0158654
857.410	0.0158485
857.488	0.0157938
857.567	0.0158508
857.645	0.0156416
857.723	0.0157098
857.801	0.0155453
857.879	0.0156338
857.957	0.0156934
858.035	0.0155373
858.113	0.0157020
858.192	0.0157444
858.270	0.0157019
858.348	0.0154182
858.426	0.0154198
858.504	0.0156836
858.582	0.0155592
858.660	0.0156160
858.738	0.0155721
858.817	0.0155896
858.895	0.0156082
858.973	0.0157603
859.051	0.0157482
859.129	0.0157713
859.207	0.0157668
859.285	0.0157253
859.363	0.0157806
859.442	0.0157670
859.520	0.0156316
859.598	0.0157982
859.676	0.0158601
859.754	0.0159515
859.832	0.0158217
859.910	0.0159299
859.988	0.0159156
860.067	0.0158916
860.145	0.0158455
860.223	0.0158339
860.301	0.0157639
860.379	0.0157689
860.457	0.0157114
860.535	0.0157253
860.613	0.0156812
860.692	0.0157012
860.770	0.0156301
860.848	0.0156400
860.926	0.0155797
861.004	0.0156469
861.082	0.0156110
861.160	0.0155031
861.238	0.0155187
861.317	0.0154069
861.395	0.0155184
861.473	0.0155090
861.551	0.0155721
861.629	0.0154115
861.707	0.0152859
861.785	0.0153302
861.863	0.0153645
861.942	0.0152486
862.020	0.0152448
862.098	0.0153015
862.176	0.0151809
862.254	0.0151799
862.332	0.0153673
862.410	0.0154196
862.488	0.0154781
862.567	0.0154108
862.645	0.0153805
862.723	0.0155221
862.801	0.0155567
862.879	0.0155554
862.957	0.0155014
863.035	0.0157504
863.113	0.0156060
863.192	0.0154356
863.270	0.0155364
863.348	0.0156126
863.426	0.0155499
863.504	0.0155775
863.582	0.0154163
863.660	0.0155608
863.738	0.0154929
863.817	0.0153903
863.895	0.0154890
863.973	0.0154967
864.051	0.0156404
864.129	0.0156007
864.207	0.0154916
864.285	0.0155793
864.363	0.0157987
864.442	0.0157387
864.520	0.0156962
864.598	0.0158657
864.676	0.0156844
864.754	0.0158398
864.832	0.0158572
864.910	0.0157338
864.988	0.0157471
865.067	0.0157132
865.145	0.0158079
865.223	0.0158278
865.301	0.0157045
865.379	0.0156889
865.457	0.0158663
865.535	0.0157597
865.613	0.0158363
865.692	0.0158034
865.770	0.0157081
865.848	0.0157198
865.926	0.0158325
866.004	0.0156734
866.082	0.0156284
866.160	0.0157408
866.238	0.0155403
866.317	0.0156017
866.395	0.0156184
866.473	0.0156303
866.551	0.0155209
866.629	0.0154343
866.707	0.0156267
866.785	0.0155593
866.863	0.0153773
866.942	0.0153812
867.020	0.0154774
867.098	0.0155315
867.176	0.0154874
867.254	0.0155299
867.332	0.0156023
867.410	0.0156683
867.488	0.0156588
867.567	0.0155785
867.645	0.0158660
867.723	0.0156922
867.801	0.0157542
867.879	0.0158868
867.957	0.0158115
868.035	0.0157519
868.113	0.0156264
868.192	0.0157487
868.270	0.0156274
868.348	0.0157426
868.426	0.0156170
868.504	0.0155843
868.582	0.0156050
868.660	0.0153870
868.738	0.0154630
868.817	0.0151533
868.895	0.0153843
868.973	0.0152562
869.051	0.0151731
869.129	0.0153191
869.207	0.0151717
869.285	0.0151379
869.363	0.0154546
869.442	0.0153452
869.520	0.0153735
869.598	0.0154131
869.676	0.0154963
869.754	0.0156180
869.832	0.0153928
869.910	0.0155924
869.988	0.0156816
870.067	0.0156123
870.145	0.0156654
870.223	0.0156371
870.301	0.0154929
870.379	0.0156787
870.457	0.0156525
870.535	0.0155424
870.613	0.0155682
870.692	0.0155642
870.770	0.0154453
870.848	0.0154826
870.926	0.0154872
871.004	0.0155258
871.082	0.0155330
871.160	0.0155233
871.238	0.0156089
871.317	0.0154865
871.395	0.0154694
871.473	0.0154681
871.551	0.0154068
871.629	0.0155350
871.707	0.0154716
871.785	0.0155949
871.863	0.0155112
871.942	0.0155080
872.020	0.0155275
872.098	0.0156239
872.176	0.0155989
872.254	0.0158195
872.332	0.0156622
872.410	0.0157078
872.488	0.0157420
872.567	0.0157495
872.645	0.0159274
872.723	0.0157917
872.801	0.0158662
872.879	0.0157922
872.957	0.0158846
873.035	0.0160011
873.113	0.0159115
873.192	0.0159109
873.270	0.0160126
873.348	0.0158696
873.426	0.0158515
873.504	0.0159158
873.582	0.0159023
873.660	0.0158630
873.738	0.0158690
873.817	0.0159456
873.895	0.0158936
873.973	0.0158308
874.051	0.0158546
874.129	0.0158274
874.207	0.0157303
874.285	0.0157195
874.363	0.0156310
874.442	0.0158360
874.520	0.0156808
874.598	0.0155720
874.676	0.0157046
874.754	0.0157310
874.832	0.0155151
874.910	0.0154787
874.988	0.0156142
875.067	0.0154118
875.145	0.0153707
875.223	0.0153841
875.301	0.0152830
875.379	0.0153194
875.457	0.0154565
875.535	0.0153288
875.613	0.0153720
875.692	0.0154230
875.770	0.0154808
875.848	0.0153445
875.926	0.0154494
876.004	0.0154666
876.082	0.0154920
876.160	0.0155785
876.238	0.0158548
876.317	0.0156950
876.395	0.0158411
876.473	0.0158843
876.551	0.0158447
876.629	0.0159571
876.707	0.0157795
876.785	0.0159152
876.863	0.0157957
876.942	0.0156195
877.020	0.0155598
877.098	0.0156204
877.176	0.0153950
877.254	0.0153259
877.332	0.0153922
877.410	0.0153051
877.488	0.0152179
877.567	0.0151223
877.645	0.0152050
877.723	0.0151795
877.801	0.0152090
877.879	0.0154454
877.957	0.0154629
878.035	0.0154434
878.113	0.0155421
878.192	0.0155302
878.270	0.0154814
878.348	0.0154987
878.426	0.0155640
878.504	0.0156445
878.582	0.0155074
878.660	0.0157253
878.738	0.0156956
878.817	0.0157085
878.895	0.0155560
878.973	0.0158359
879.051	0.0157752
879.129	0.0157685
879.207	0.0158600
879.285	0.0158481
879.363	0.0157600
879.442	0.0158733
879.520	0.0159093
879.598	0.0158465
879.676	0.0159176
879.754	0.0156961
879.832	0.0158411
879.910	0.0157242
879.988	0.0157505
880.067	0.0155994
880.145	0.0156544
880.223	0.0156622
880.301	0.0157958
880.379	0.0157892
880.457	0.0156746
880.535	0.0157362
880.613	0.0158053
880.692	0.0158391
880.770	0.0156528
880.848	0.0156233
880.926	0.0158091
881.004	0.0158271
881.082	0.0157582
881.160	0.0157712
881.238	0.0158372
881.317	0.0158500
881.395	0.0158255
881.473	0.0158364
881.551	0.0157249
881.629	0.0158084
881.707	0.0158118
881.785	0.0157581
881.863	0.0158276
881.942	0.0158282
882.020	0.0157606
882.098	0.0157105
882.176	0.0156912
882.254	0.0157797
882.332	0.0155830
882.410	0.0155785
882.488	0.0155721
882.567	0.0154673
882.645	0.0155412
882.723	0.0155414
882.801	0.0155013
882.879	0.0155390
882.957	0.0154620
883.035	0.0154997
883.113	0.0155273
883.192	0.0155600
883.270	0.0156165
883.348	0.0156318
883.426	0.0155043
883.504	0.0157672
883.582	0.0157759
883.660	0.0157481
883.738	0.0155962
883.817	0.0156181
883.895	0.0156692
883.973	0.0157127
884.051	0.0154951
884.129	0.0154659
884.207	0.0155952
884.285	0.0155062
884.363	0.0155093
884.442	0.0155354
884.520	0.0154224
884.598	0.0154918
884.676	0.0155737
884.754	0.0153724
884.832	0.0154904
884.910	0.0155025
884.988	0.0154123
885.067	0.0154764
885.145	0.0153828
885.223	0.0154154
885.301	0.0154683
885.379	0.0155804
885.457	0.0154975
885.535	0.0155415
885.613	0.0154050
885.692	0.0154482
885.770	0.0156226
885.848	0.0154900
885.926	0.0154263
886.004	0.0156548
886.082	0.0154692
886.160	0.0155859
886.238	0.0155820
886.317	0.0157012
886.395	0.0157579
886.473	0.0156110
886.551	0.0157856
886.629	0.0158681
886.707	0.0157265
886.785	0.0157357
886.863	0.0157931
886.942	0.0157983
887.020	0.0158110
887.098	0.0159268
887.176	0.0158325
887.254	0.0156724
887.332	0.0157239
887.410	0.0158657
887.488	0.0157927
887.567	0.0157653
887.645	0.0157096
887.723	0.0157051
887.801	0.0156374
887.879	0.0156778
887.957	0.0156982
888.035	0.0157863
888.113	0.0157138
888.192	0.0157087
888.270	0.0157772
888.348	0.0156764
888.426	0.0157964
888.504	0.0157980
888.582	0.0158276
888.660	0.0157513
888.738	0.0158193
888.817	0.0158089
888.895	0.0157727
888.973	0.0157504
889.051	0.0155927
889.129	0.0157910
889.207	0.0156837
889.285	0.0156316
889.363	0.0155442
889.442	0.0154917
889.520	0.0156031
889.598	0.0155296
889.676	0.0156034
889.754	0.0155476
889.832	0.0155568
889.910	0.0154724
889.988	0.0154487
890.067	0.0154981
890.145	0.0153808
890.223	0.0154260
890.301	0.0154237
890.379	0.0153335
890.457	0.0154411
890.535	0.0155061
890.613	0.0153504
890.692	0.0154675
890.770	0.0155045
890.848	0.0154696
890.926	0.0153326
891.004	0.0153200
891.082	0.0155265
891.160	0.0153985
891.238	0.0154827
891.317	0.0155255
891.395	0.0154202
891.473	0.0153352
891.551	0.0155116
891.629	0.0154417
891.707	0.0156524
891.785	0.0154556
891.863	0.0154678
891.942	0.0154753
892.020	0.0155830
892.098	0.0155811
892.176	0.0155450
892.254	0.0155653
892.332	0.0155151
892.410	0.0155710
892.488	0.0155306
892.567	0.0155809
892.645	0.0156958
892.723	0.0155132
892.801	0.0155219
892.879	0.0155850
892.957	0.0154859
893.035	0.0155326
893.113	0.0155830
893.192	0.0155185
893.270	0.0155109
893.348	0.0154292
893.426	0.0155106
893.504	0.0154459
893.582	0.0155231
893.660	0.0155652
893.738	0.0154452
893.817	0.0154271
893.895	0.0154895
893.973	0.0154862
894.051	0.0155810
894.129	0.0155584
894.207	0.0155509
894.285	0.0154830
894.363	0.0156677
894.442	0.0155465
894.520	0.0156755
894.598	0.0157749
894.676	0.0157192
894.754	0.0157292
894.832	0.0156590
894.910	0.0157668
894.988	0.0157175
895.067	0.0158649
895.145	0.0158424
895.223	0.0157803
895.301	0.0159140
895.379	0.0158311
895.457	0.0158346
895.535	0.0158556
895.613	0.0158527
895.692	0.0160493
895.770	0.0159674
895.848	0.0157852
895.926	0.0156760
896.004	0.0157514
896.082	0.0157343
896.160	0.0157831
896.238	0.0156528
896.317	0.0155978
896.395	0.0156183
896.473	0.0156401
896.551	0.0155909
896.629	0.0155720
896.707	0.0155350
896.785	0.0153883
896.863	0.0154867
896.942	0.0156723
897.020	0.0156131
897.098	0.0155034
897.176	0.0154112
897.254	0.0154672
897.332	0.0153916
897.410	0.0155736
897.488	0.0155086
897.567	0.0155273
897.645	0.0155268
897.723	0.0153796
897.801	0.0152090
897.879	0.0153443
897.957	0.0153732
898.035	0.0155950
898.113	0.0154929
898.192	0.0155269
898.270	0.0155774
898.348	0.0154984
898.426	0.0155794
898.504	0.0156344
898.582	0.0155628
898.660	0.0155527
898.738	0.0154568
898.817	0.0156121
898.895	0.0155339
898.973	0.0156181
899.051	0.0156379
899.129	0.0155461
899.207	0.0154662
899.285	0.0155176
899.363	0.0155013
899.442	0.0154977
899.520	0.0154732
899.598	0.0155455
899.676	0.0153460
899.754	0.0154105
899.832	0.0154942
899.910	0.0154809
899.988	0.0154659
900.067	0.0155148
900.145	0.0156664
900.223	0.0156587
900.301	0.0155393
900.379	0.0156888
900.457	0.0157084
900.535	0.0157294
900.613	0.0156888
900.692	0.0157552
900.770	0.0156248
900.848	0.0158856
900.926	0.0156512
901.004	0.0157203
901.082	0.0157501
901.160	0.0157362
901.238	0.0157820
901.317	0.0157887
901.395	0.0158165
901.473	0.0157072
901.551	0.0157986
901.629	0.0158081
901.707	0.0158186
901.785	0.0157451
901.863	0.0156619
901.942	0.0156401
902.020	0.0157936
902.098	0.0157402
902.176	0.0155779
902.254	0.0156075
902.332	0.0157530
902.410	0.0155658
902.488	0.0156934
902.567	0.0156636
902.645	0.0156477
902.723	0.0156033
902.801	0.0157389
902.879	0.0155723
902.957	0.0155556
903.035	0.0155447
903.113	0.0155985
903.192	0.0156240
903.270	0.0156575
903.348	0.0156833
903.426	0.0157593
903.504	0.0157063
903.582	0.0158179
903.660	0.0157343
903.738	0.0159593
903.817	0.0159611
903.895	0.0158373
903.973	0.0157159
904.051	0.0158133
904.129	0.0157656
904.207	0.0158002
904.285	0.0157989
904.363	0.0156599
904.442	0.0158192
904.520	0.0156099
904.598	0.0157596
904.676	0.0155999
904.754	0.0156523
904.832	0.0155646
904.910	0.0155415
904.988	0.0156563
905.067	0.0155521
905.145	0.0156855
905.223	0.0155267
905.301	0.0155625
905.379	0.0156113
905.457	0.0156380
905.535	0.0154746
905.613	0.0153905
905.692	0.0154646
905.770	0.0153904
905.848	0.0153887
905.926	0.0154470
906.004	0.0154117
906.082	0.0154688
906.160	0.0153033
906.238	0.0154368
906.317	0.0154577
906.395	0.0155075
906.473	0.0156368
906.551	0.0155972
906.629	0.0157439
906.707	0.0155996
906.785	0.0156659
906.863	0.0157687
906.942	0.0156718
907.020	0.0157442
907.098	0.0157462
907.176	0.0158724
907.254	0.0157342
907.332	0.0156476
907.410	0.0157848
907.488	0.0157790
907.567	0.0156434
907.645	0.0158033
907.723	0.0157573
907.801	0.0156670
907.879	0.0154638
907.957	0.0155612
908.035	0.0155968
908.113	0.0155527
908.192	0.0155324
908.270	0.0155743
908.348	0.0155444
908.426	0.0155713
908.504	0.0155794
908.582	0.0155480
908.660	0.0155332
908.738	0.0156203
908.817	0.0156537
908.895	0.0156122
908.973	0.0155974
909.051	0.0157820
909.129	0.0157896
909.207	0.0158103
909.285	0.0157089
909.363	0.0157629
909.442	0.0158636
909.520	0.0158381
909.598	0.0157868
909.676	0.0158260
909.754	0.0156982
909.832	0.0158089
909.910	0.0158168
909.988	0.0158225
910.067	0.0156393
910.145	0.0156503
910.223	0.0157384
910.301	0.0156209
910.379	0.0156213
910.457	0.0154192
910.535	0.0154886
910.613	0.0153922
910.692	0.0155050
910.770	0.0154879
910.848	0.0154700
910.926	0.0154057
911.004	0.0154502
911.082	0.0153420
911.160	0.0154433
911.238	0.0155735
911.317	0.0155389
911.395	0.0154622
911.473	0.0155243
911.551	0.0155626
911.629	0.0156271
911.707	0.0155220
911.785	0.0155806
911.863	0.0155299
911.942	0.0156551
912.020	0.0156278
912.098	0.0156779
912.176	0.0155921
912.254	0.0156245
912.332	0.0156189
912.410	0.0155920
912.488	0.0157227
912.567	0.0157747
912.645	0.0156345
912.723	0.0156194
912.801	0.0155453
912.879	0.0156277
912.957	0.0155247
913.035	0.0156544
913.113	0.0156136
913.192	0.0155101
913.270	0.0155187
913.348	0.0156721
913.426	0.0156798
913.504	0.0156117
913.582	0.0155040
913.660	0.0157056
913.738	0.0156367
913.817	0.0156570
913.895	0.0155381
913.973	0.0155046
914.051	0.0155680
914.129	0.0153704
914.207	0.0155523
914.285	0.0155105
914.363	0.0154678
914.442	0.0154986
914.520	0.0154768
914.598	0.0154723
914.676	0.0154384
914.754	0.0153713
914.832	0.0154528
914.910	0.0154628
914.988	0.0153714
915.067	0.0156149
915.145	0.0154712
915.223	0.0154273
915.301	0.0154501
915.379	0.0153618
915.457	0.0154294
915.535	0.0154976
915.613	0.0156874
915.692	0.0155663
915.770	0.0157953
915.848	0.0156063
915.926	0.0155376
916.004	0.0156194
916.082	0.0155973
916.160	0.0156800
916.238	0.0157636
916.317	0.0157189
916.395	0.0157298
916.473	0.0157784
916.551	0.0157011
916.629	0.0158192
916.707	0.0158793
916.785	0.0158138
916.863	0.0157507
916.942	0.0157858
917.020	0.0158533
917.098	0.0157198
917.176	0.0157764
917.254	0.0158793
917.332	0.0157638
917.410	0.0158263
917.488	0.0156891
917.567	0.0156861
917.645	0.0156721
917.723	0.0156899
917.801	0.0157101
917.879	0.0156168
917.957	0.0155045
918.035	0.0154893
918.113	0.0155021
918.192	0.0155329
918.270	0.0155334
918.348	0.0154094
918.426	0.0153864
918.504	0.0155028
918.582	0.0155736
918.660	0.0153912
918.738	0.0153715
918.817	0.0154279
918.895	0.0153645
918.973	0.0153968
919.051	0.0153825
919.129	0.0153629
919.207	0.0153945
919.285	0.0154673
919.363	0.0153203
919.442	0.0154003
919.520	0.0154940
919.598	0.0153979
919.676	0.0155429
919.754	0.0155079
919.832	0.0155152
919.910	0.0155770
