05/24/2022	20:29:40	Ver.	4.1	UNKNOWN
Optical Delay	599.981738	Delta X		0.078125	Sweeps	1	Scan Rate	0/0
Coordinates	Axis 1	NaN	Axis 2	NaN	Axis 3	NaN	Axis 4	NaN	Axis 5	NaN	Axis 6	0.000000
TX Power	0.000000	RX Power	0.000000

599.982	0.0163535
600.060	0.0164131
600.138	0.0164535
600.216	0.0165049
600.294	0.0163450
600.372	0.0163927
600.450	0.0164233
600.529	0.0165038
600.607	0.0164157
600.685	0.0162839
600.763	0.0162392
600.841	0.0162832
600.919	0.0163705
600.997	0.0163696
601.075	0.0163787
601.154	0.0162866
601.232	0.0162692
601.310	0.0164060
601.388	0.0162412
601.466	0.0162425
601.544	0.0164283
601.622	0.0162985
601.700	0.0162370
601.779	0.0164099
601.857	0.0163755
601.935	0.0162978
602.013	0.0162634
602.091	0.0163483
602.169	0.0164148
602.247	0.0164066
602.325	0.0163731
602.404	0.0163153
602.482	0.0163283
602.560	0.0163598
602.638	0.0163660
602.716	0.0162490
602.794	0.0163089
602.872	0.0163166
602.950	0.0163334
603.029	0.0162328
603.107	0.0163120
603.185	0.0162802
603.263	0.0163197
603.341	0.0162423
603.419	0.0163646
603.497	0.0163815
603.575	0.0162158
603.654	0.0162089
603.732	0.0162349
603.810	0.0162216
603.888	0.0163204
603.966	0.0164938
604.044	0.0162009
604.122	0.0163480
604.200	0.0161982
604.279	0.0163048
604.357	0.0163989
604.435	0.0163066
604.513	0.0162328
604.591	0.0162993
604.669	0.0161787
604.747	0.0164268
604.825	0.0161937
604.904	0.0163301
604.982	0.0164806
605.060	0.0164222
605.138	0.0163572
605.216	0.0163579
605.294	0.0163374
605.372	0.0163065
605.450	0.0164211
605.529	0.0164335
605.607	0.0165145
605.685	0.0161918
605.763	0.0162669
605.841	0.0163876
605.919	0.0164405
605.997	0.0163229
606.075	0.0162909
606.154	0.0163534
606.232	0.0163594
606.310	0.0163963
606.388	0.0162172
606.466	0.0161555
606.544	0.0162384
606.622	0.0164281
606.700	0.0162428
606.779	0.0163478
606.857	0.0163226
606.935	0.0163144
607.013	0.0163120
607.091	0.0163706
607.169	0.0162454
607.247	0.0163606
607.325	0.0164192
607.404	0.0162695
607.482	0.0163407
607.560	0.0163745
607.638	0.0163473
607.716	0.0163118
607.794	0.0162863
607.872	0.0163645
607.950	0.0163324
608.029	0.0161533
608.107	0.0163343
608.185	0.0162332
608.263	0.0162506
608.341	0.0162612
608.419	0.0163616
608.497	0.0162845
608.575	0.0163577
608.654	0.0164515
608.732	0.0163828
608.810	0.0163715
608.888	0.0162968
608.966	0.0164870
609.044	0.0163461
609.122	0.0164796
609.200	0.0163840
609.279	0.0162740
609.357	0.0163038
609.435	0.0162798
609.513	0.0164000
609.591	0.0163670
609.669	0.0162611
609.747	0.0163421
609.825	0.0162854
609.904	0.0162952
609.982	0.0163573
610.060	0.0163110
610.138	0.0162022
610.216	0.0162187
610.294	0.0162529
610.372	0.0161385
610.450	0.0163065
610.529	0.0162656
610.607	0.0161476
610.685	0.0162247
610.763	0.0162502
610.841	0.0161445
610.919	0.0162636
610.997	0.0163225
611.075	0.0163622
611.154	0.0163214
611.232	0.0164251
611.310	0.0164581
611.388	0.0163560
611.466	0.0165331
611.544	0.0164943
611.622	0.0165624
611.700	0.0165747
611.779	0.0164323
611.857	0.0165907
611.935	0.0166061
612.013	0.0165415
612.091	0.0164679
612.169	0.0164064
612.247	0.0162190
612.325	0.0163770
612.404	0.0163210
612.482	0.0163595
612.560	0.0162903
612.638	0.0162241
612.716	0.0163089
612.794	0.0162019
612.872	0.0161102
612.950	0.0162672
613.029	0.0161470
613.107	0.0160590
613.185	0.0159682
613.263	0.0160028
613.341	0.0161097
613.419	0.0160880
613.497	0.0161044
613.575	0.0160990
613.654	0.0160793
613.732	0.0161745
613.810	0.0162348
613.888	0.0163166
613.966	0.0164320
614.044	0.0164365
614.122	0.0165498
614.200	0.0164700
614.279	0.0166225
614.357	0.0165868
614.435	0.0165361
614.513	0.0166928
614.591	0.0167297
614.669	0.0165755
614.747	0.0166489
614.825	0.0165916
614.904	0.0165636
614.982	0.0165003
615.060	0.0164660
615.138	0.0165023
615.216	0.0164116
615.294	0.0164170
615.372	0.0164443
615.450	0.0164096
615.529	0.0162395
615.607	0.0163617
615.685	0.0162826
615.763	0.0162315
615.841	0.0162151
615.919	0.0161183
615.997	0.0162897
616.075	0.0162234
616.154	0.0161971
616.232	0.0162569
616.310	0.0160969
616.388	0.0160888
616.466	0.0162630
616.544	0.0161153
616.622	0.0160565
616.700	0.0160043
616.779	0.0161892
616.857	0.0160152
616.935	0.0163109
617.013	0.0162647
617.091	0.0161083
617.169	0.0161855
617.247	0.0163180
617.325	0.0161116
617.404	0.0163477
617.482	0.0163071
617.560	0.0164680
617.638	0.0165499
617.716	0.0166325
617.794	0.0167018
617.872	0.0166096
617.950	0.0164262
618.029	0.0166015
618.107	0.0166650
618.185	0.0165865
618.263	0.0166155
618.341	0.0167578
618.419	0.0165981
618.497	0.0165992
618.575	0.0166752
618.654	0.0166367
618.732	0.0167929
618.810	0.0165805
618.888	0.0165338
618.966	0.0165378
619.044	0.0164319
619.122	0.0165160
619.200	0.0163614
619.279	0.0164109
619.357	0.0163479
619.435	0.0163019
619.513	0.0162849
619.591	0.0160880
619.669	0.0160819
619.747	0.0160597
619.825	0.0160620
619.904	0.0160534
619.982	0.0157767
620.060	0.0158517
620.138	0.0159680
620.216	0.0160596
620.294	0.0159409
620.372	0.0158748
620.450	0.0158280
620.529	0.0159810
620.607	0.0159749
620.685	0.0162153
620.763	0.0161438
620.841	0.0160854
620.919	0.0162334
620.997	0.0163573
621.075	0.0164333
621.154	0.0164772
621.232	0.0163266
621.310	0.0166376
621.388	0.0168513
621.466	0.0165963
621.544	0.0165926
621.622	0.0168113
621.700	0.0167795
621.779	0.0167886
621.857	0.0168845
621.935	0.0168820
622.013	0.0168487
622.091	0.0168472
622.169	0.0169067
622.247	0.0167017
622.325	0.0166695
622.404	0.0166458
622.482	0.0166577
622.560	0.0164478
622.638	0.0163721
622.716	0.0163337
622.794	0.0162227
622.872	0.0162046
622.950	0.0160728
623.029	0.0161102
623.107	0.0159462
623.185	0.0159992
623.263	0.0158550
623.341	0.0157667
623.419	0.0157831
623.497	0.0156752
623.575	0.0158566
623.654	0.0158622
623.732	0.0157922
623.810	0.0158479
623.888	0.0158044
623.966	0.0158440
624.044	0.0160371
624.122	0.0160001
624.200	0.0161601
624.279	0.0163316
624.357	0.0162905
624.435	0.0163879
624.513	0.0163331
624.591	0.0165848
624.669	0.0164503
624.747	0.0164397
624.825	0.0165756
624.904	0.0166128
624.982	0.0164757
625.060	0.0165801
625.138	0.0168699
625.216	0.0168361
625.294	0.0167920
625.372	0.0167050
625.450	0.0167091
625.529	0.0166259
625.607	0.0165518
625.685	0.0164837
625.763	0.0163405
625.841	0.0165056
625.919	0.0163769
625.997	0.0163010
626.075	0.0164172
626.154	0.0164230
626.232	0.0164633
626.310	0.0162978
626.388	0.0162896
626.466	0.0163431
626.544	0.0161357
626.622	0.0162221
626.700	0.0162498
626.779	0.0163155
626.857	0.0162965
626.935	0.0161316
627.013	0.0160877
627.091	0.0162175
627.169	0.0161603
627.247	0.0160619
627.325	0.0161061
627.404	0.0160928
627.482	0.0160748
627.560	0.0160921
627.638	0.0161275
627.716	0.0160579
627.794	0.0160008
627.872	0.0161866
627.950	0.0162254
628.029	0.0160407
628.107	0.0160479
628.185	0.0160682
628.263	0.0162142
628.341	0.0161644
628.419	0.0163775
628.497	0.0164240
628.575	0.0164942
628.654	0.0166380
628.732	0.0166387
628.810	0.0165482
628.888	0.0165996
628.966	0.0166237
629.044	0.0167304
629.122	0.0167051
629.200	0.0168004
629.279	0.0166541
629.357	0.0166685
629.435	0.0165003
629.513	0.0165134
629.591	0.0165134
629.669	0.0164059
629.747	0.0162522
629.825	0.0161130
629.904	0.0162340
629.982	0.0161845
630.060	0.0160580
630.138	0.0160529
630.216	0.0162679
630.294	0.0161816
630.372	0.0159844
630.450	0.0160670
630.529	0.0161696
630.607	0.0162400
630.685	0.0161704
630.763	0.0162610
630.841	0.0161523
630.919	0.0162193
630.997	0.0163293
631.075	0.0162008
631.154	0.0161993
631.232	0.0164319
631.310	0.0165508
631.388	0.0164902
631.466	0.0164465
631.544	0.0164511
631.622	0.0163699
631.700	0.0164407
631.779	0.0164372
631.857	0.0164732
631.935	0.0162430
632.013	0.0163118
632.091	0.0163716
632.169	0.0162371
632.247	0.0161628
632.325	0.0161555
632.404	0.0161887
632.482	0.0162476
632.560	0.0161159
632.638	0.0161529
632.716	0.0161652
632.794	0.0164564
632.872	0.0163918
632.950	0.0163059
633.029	0.0162854
633.107	0.0163609
633.185	0.0164200
633.263	0.0165640
633.341	0.0165483
633.419	0.0165731
633.497	0.0165483
633.575	0.0165922
633.654	0.0165245
633.732	0.0165813
633.810	0.0166257
633.888	0.0166264
633.966	0.0163840
634.044	0.0163589
634.122	0.0163584
634.200	0.0163858
634.279	0.0164521
634.357	0.0163287
634.435	0.0163177
634.513	0.0161923
634.591	0.0161174
634.669	0.0161610
634.747	0.0161042
634.825	0.0161243
634.904	0.0162313
634.982	0.0161171
635.060	0.0160676
635.138	0.0160767
635.216	0.0160300
635.294	0.0160954
635.372	0.0161420
635.450	0.0161255
635.529	0.0163206
635.607	0.0161856
635.685	0.0163659
635.763	0.0163525
635.841	0.0162672
635.919	0.0164278
635.997	0.0164756
636.075	0.0165867
636.154	0.0165437
636.232	0.0165270
636.310	0.0163876
636.388	0.0164146
636.466	0.0165249
636.544	0.0163490
636.622	0.0163148
636.700	0.0165187
636.779	0.0163428
636.857	0.0163093
636.935	0.0162830
637.013	0.0163770
637.091	0.0161703
637.169	0.0163966
637.247	0.0162514
637.325	0.0161493
637.404	0.0162720
637.482	0.0161926
637.560	0.0162495
637.638	0.0162603
637.716	0.0162332
637.794	0.0161375
637.872	0.0161998
637.950	0.0163747
638.029	0.0162615
638.107	0.0162434
638.185	0.0161485
638.263	0.0164485
638.341	0.0163490
638.419	0.0162071
638.497	0.0161989
638.575	0.0162865
638.654	0.0163273
638.732	0.0162865
638.810	0.0162919
638.888	0.0163557
638.966	0.0161786
639.044	0.0163338
639.122	0.0161667
639.200	0.0162486
639.279	0.0162730
639.357	0.0163297
639.435	0.0163593
639.513	0.0162017
639.591	0.0163049
639.669	0.0162330
639.747	0.0162749
639.825	0.0161809
639.904	0.0162743
639.982	0.0162818
640.060	0.0161951
640.138	0.0162696
640.216	0.0164563
640.294	0.0162007
640.372	0.0162518
640.450	0.0163229
640.529	0.0162872
640.607	0.0163371
640.685	0.0164977
640.763	0.0163103
640.841	0.0163813
640.919	0.0164375
640.997	0.0164843
641.075	0.0164705
641.154	0.0165216
641.232	0.0164072
641.310	0.0165300
641.388	0.0162706
641.466	0.0164851
641.544	0.0165053
641.622	0.0162923
641.700	0.0163100
641.779	0.0162656
641.857	0.0163240
641.935	0.0162485
642.013	0.0160488
642.091	0.0161382
642.169	0.0162743
642.247	0.0162503
642.325	0.0161594
642.404	0.0162486
642.482	0.0161093
642.560	0.0161864
642.638	0.0162039
642.716	0.0161790
642.794	0.0162119
642.872	0.0163777
642.950	0.0163808
643.029	0.0163486
643.107	0.0163610
643.185	0.0165285
643.263	0.0165759
643.341	0.0163993
643.419	0.0163963
643.497	0.0165318
643.575	0.0165087
643.654	0.0165052
643.732	0.0164844
643.810	0.0163834
643.888	0.0164358
643.966	0.0164499
644.044	0.0164433
644.122	0.0163903
644.200	0.0163602
644.279	0.0162553
644.357	0.0163925
644.435	0.0163147
644.513	0.0162556
644.591	0.0162971
644.669	0.0162848
644.747	0.0162737
644.825	0.0161777
644.904	0.0162510
644.982	0.0163337
645.060	0.0164493
645.138	0.0162576
645.216	0.0162949
645.294	0.0163138
645.372	0.0163596
645.450	0.0162963
645.529	0.0162585
645.607	0.0163517
645.685	0.0163564
645.763	0.0163918
645.841	0.0163624
645.919	0.0163274
645.997	0.0162558
646.075	0.0163255
646.154	0.0161495
646.232	0.0161203
646.310	0.0164416
646.388	0.0164293
646.466	0.0164177
646.544	0.0161942
646.622	0.0162823
646.700	0.0163666
646.779	0.0162389
646.857	0.0163494
646.935	0.0164387
647.013	0.0164072
647.091	0.0163830
647.169	0.0163456
647.247	0.0165332
647.325	0.0164653
647.404	0.0165044
647.482	0.0163770
647.560	0.0164687
647.638	0.0163539
647.716	0.0162643
647.794	0.0163548
647.872	0.0162830
647.950	0.0163542
648.029	0.0164069
648.107	0.0164048
648.185	0.0164141
648.263	0.0163767
648.341	0.0163551
648.419	0.0162770
648.497	0.0161919
648.575	0.0164630
648.654	0.0162885
648.732	0.0162341
648.810	0.0162085
648.888	0.0162278
648.966	0.0161697
649.044	0.0161360
649.122	0.0161935
649.200	0.0160099
649.279	0.0160320
649.357	0.0160088
649.435	0.0161095
649.513	0.0161724
649.591	0.0161205
649.669	0.0162254
649.747	0.0162075
649.825	0.0163297
649.904	0.0165132
649.982	0.0164838
650.060	0.0166465
650.138	0.0166209
650.216	0.0166675
650.294	0.0167960
650.372	0.0168718
650.450	0.0170187
650.529	0.0167844
650.607	0.0168862
650.685	0.0166413
650.763	0.0166766
650.841	0.0165297
650.919	0.0164263
650.997	0.0161890
651.075	0.0160633
651.154	0.0160094
651.232	0.0158761
651.310	0.0157288
651.388	0.0155597
651.466	0.0153625
651.544	0.0152348
651.622	0.0152837
651.700	0.0154120
651.779	0.0155956
651.857	0.0156342
651.935	0.0157539
652.013	0.0158843
652.091	0.0159889
652.169	0.0161936
652.247	0.0165209
652.325	0.0166886
652.404	0.0169739
652.482	0.0172208
652.560	0.0174104
652.638	0.0176079
652.716	0.0175587
652.794	0.0178323
652.872	0.0179340
652.950	0.0179456
653.029	0.0177638
653.107	0.0174166
653.185	0.0174673
653.263	0.0170923
653.341	0.0167917
653.419	0.0163451
653.497	0.0160075
653.575	0.0157359
653.654	0.0154578
653.732	0.0151127
653.810	0.0148940
653.888	0.0146611
653.966	0.0144905
654.044	0.0142759
654.122	0.0143116
654.200	0.0143450
654.279	0.0146588
654.357	0.0147255
654.435	0.0147974
654.513	0.0151704
654.591	0.0154531
654.669	0.0158064
654.747	0.0162060
654.825	0.0167384
654.904	0.0170387
654.982	0.0172978
655.060	0.0175186
655.138	0.0178609
655.216	0.0179270
655.294	0.0180191
655.372	0.0179013
655.450	0.0179972
655.529	0.0179341
655.607	0.0177962
655.685	0.0176533
655.763	0.0172407
655.841	0.0172298
655.919	0.0168860
655.997	0.0168098
656.075	0.0164671
656.154	0.0164405
656.232	0.0161456
656.310	0.0160017
656.388	0.0159667
656.466	0.0158035
656.544	0.0155678
656.622	0.0156207
656.700	0.0157240
656.779	0.0156460
656.857	0.0155554
656.935	0.0156161
657.013	0.0156532
657.091	0.0155276
657.169	0.0154318
657.247	0.0155235
657.325	0.0154939
657.404	0.0154976
657.482	0.0155103
657.560	0.0155759
657.638	0.0157069
657.716	0.0157500
657.794	0.0159237
657.872	0.0159823
657.950	0.0159077
658.029	0.0162708
658.107	0.0165114
658.185	0.0165575
658.263	0.0168262
658.341	0.0169271
658.419	0.0170536
658.497	0.0172214
658.575	0.0173745
658.654	0.0174796
658.732	0.0174854
658.810	0.0174953
658.888	0.0173821
658.966	0.0172546
659.044	0.0172545
659.122	0.0169045
659.200	0.0166451
659.279	0.0163235
659.357	0.0159868
659.435	0.0158058
659.513	0.0154012
659.591	0.0149648
659.669	0.0148224
659.747	0.0146394
659.825	0.0144210
659.904	0.0144521
659.982	0.0144097
660.060	0.0145992
660.138	0.0148230
660.216	0.0149871
660.294	0.0153851
660.372	0.0159180
660.450	0.0164868
660.529	0.0168852
660.607	0.0172673
660.685	0.0179419
660.763	0.0183800
660.841	0.0185371
660.919	0.0188480
660.997	0.0190370
661.075	0.0191071
661.154	0.0191763
661.232	0.0190150
661.310	0.0187302
661.388	0.0183591
661.466	0.0179996
661.544	0.0174339
661.622	0.0168975
661.700	0.0165240
661.779	0.0159660
661.857	0.0154847
661.935	0.0151514
662.013	0.0145516
662.091	0.0142189
662.169	0.0136967
662.247	0.0133443
662.325	0.0132189
662.404	0.0131583
662.482	0.0128418
662.560	0.0129408
662.638	0.0131109
662.716	0.0134342
662.794	0.0137806
662.872	0.0140511
662.950	0.0143706
663.029	0.0149652
663.107	0.0154266
663.185	0.0158793
663.263	0.0163454
663.341	0.0167663
663.419	0.0172447
663.497	0.0175748
663.575	0.0177947
663.654	0.0181274
663.732	0.0182060
663.810	0.0184885
663.888	0.0188008
663.966	0.0188023
664.044	0.0188145
664.122	0.0190636
664.200	0.0192458
664.279	0.0190855
664.357	0.0191631
664.435	0.0193384
664.513	0.0191264
664.591	0.0190113
664.669	0.0189193
664.747	0.0186028
664.825	0.0181483
664.904	0.0176646
664.982	0.0173398
665.060	0.0165742
665.138	0.0161421
665.216	0.0157288
665.294	0.0151445
665.372	0.0147655
665.450	0.0143980
665.529	0.0139786
665.607	0.0139529
665.685	0.0136699
665.763	0.0135335
665.841	0.0135201
665.919	0.0137044
665.997	0.0134983
666.075	0.0134948
666.154	0.0136616
666.232	0.0136555
666.310	0.0137708
666.388	0.0140215
666.466	0.0142345
666.544	0.0145058
666.622	0.0147459
666.700	0.0148975
666.779	0.0153088
666.857	0.0156619
666.935	0.0159341
667.013	0.0162210
667.091	0.0163914
667.169	0.0168298
667.247	0.0170753
667.325	0.0171410
667.404	0.0173840
667.482	0.0175288
667.560	0.0178052
667.638	0.0179250
667.716	0.0180976
667.794	0.0183239
667.872	0.0185877
667.950	0.0189561
668.029	0.0190816
668.107	0.0192889
668.185	0.0193340
668.263	0.0193698
668.341	0.0194465
668.419	0.0194705
668.497	0.0190615
668.575	0.0187519
668.654	0.0182544
668.732	0.0176861
668.810	0.0172079
668.888	0.0165981
668.966	0.0160487
669.044	0.0153915
669.122	0.0149979
669.200	0.0147523
669.279	0.0144053
669.357	0.0142329
669.435	0.0142341
669.513	0.0144884
669.591	0.0143568
669.669	0.0144893
669.747	0.0149068
669.825	0.0150220
669.904	0.0151029
669.982	0.0151222
670.060	0.0151807
670.138	0.0153091
670.216	0.0153271
670.294	0.0151715
670.372	0.0152628
670.450	0.0153697
670.529	0.0154131
670.607	0.0157137
670.685	0.0157574
670.763	0.0160865
670.841	0.0162122
670.919	0.0163358
670.997	0.0165643
671.075	0.0165870
671.154	0.0167085
671.232	0.0165937
671.310	0.0164849
671.388	0.0165448
671.466	0.0164720
671.544	0.0159090
671.622	0.0158366
671.700	0.0157351
671.779	0.0155836
671.857	0.0155870
671.935	0.0158643
672.013	0.0159966
672.091	0.0162204
672.169	0.0163387
672.247	0.0167239
672.325	0.0169351
672.404	0.0172984
672.482	0.0174825
672.560	0.0176087
672.638	0.0178648
672.716	0.0178974
672.794	0.0181219
672.872	0.0182980
672.950	0.0183829
673.029	0.0182922
673.107	0.0184489
673.185	0.0183128
673.263	0.0182581
673.341	0.0182504
673.419	0.0180807
673.497	0.0179318
673.575	0.0177395
673.654	0.0173162
673.732	0.0168868
673.810	0.0162890
673.888	0.0159561
673.966	0.0153081
674.044	0.0147763
674.122	0.0144686
674.200	0.0142004
674.279	0.0139105
674.357	0.0136292
674.435	0.0137254
674.513	0.0138009
674.591	0.0140979
674.669	0.0144887
674.747	0.0147726
674.825	0.0153645
674.904	0.0154832
674.982	0.0158992
675.060	0.0161502
675.138	0.0161584
675.216	0.0160990
675.294	0.0161245
675.372	0.0160616
675.450	0.0160331
675.529	0.0158499
675.607	0.0157063
675.685	0.0158303
675.763	0.0157763
675.841	0.0158633
675.919	0.0161485
675.997	0.0165765
676.075	0.0169363
676.154	0.0173304
676.232	0.0176820
676.310	0.0181044
676.388	0.0183212
676.466	0.0183816
676.544	0.0186054
676.622	0.0185741
676.700	0.0185710
676.779	0.0183612
676.857	0.0180190
676.935	0.0178784
677.013	0.0174066
677.091	0.0170582
677.169	0.0166957
677.247	0.0163039
677.325	0.0161694
677.404	0.0158652
677.482	0.0156242
677.560	0.0154247
677.638	0.0153444
677.716	0.0152234
677.794	0.0152081
677.872	0.0150697
677.950	0.0149344
678.029	0.0149452
678.107	0.0149275
678.185	0.0150211
678.263	0.0149146
678.341	0.0150797
678.419	0.0153168
678.497	0.0152995
678.575	0.0154341
678.654	0.0155387
678.732	0.0157730
678.810	0.0157782
678.888	0.0159786
678.966	0.0160454
679.044	0.0161661
679.122	0.0162319
679.200	0.0162244
679.279	0.0162338
679.357	0.0162322
679.435	0.0163076
679.513	0.0162990
679.591	0.0162518
679.669	0.0164014
679.747	0.0164774
679.825	0.0166005
679.904	0.0166592
679.982	0.0168758
680.060	0.0168911
680.138	0.0171800
680.216	0.0171671
680.294	0.0171738
680.372	0.0171591
680.450	0.0172286
680.529	0.0169875
680.607	0.0168697
680.685	0.0168594
680.763	0.0168520
680.841	0.0167963
680.919	0.0167596
680.997	0.0169235
681.075	0.0171462
681.154	0.0173621
681.232	0.0175232
681.310	0.0176477
681.388	0.0178589
681.466	0.0179463
681.544	0.0177921
681.622	0.0179758
681.700	0.0177943
681.779	0.0175385
681.857	0.0171971
681.935	0.0167338
682.013	0.0165147
682.091	0.0161009
682.169	0.0157122
682.247	0.0152757
682.325	0.0148303
682.404	0.0145252
682.482	0.0139164
682.560	0.0137061
682.638	0.0133169
682.716	0.0130845
682.794	0.0129514
682.872	0.0128250
682.950	0.0128854
683.029	0.0128266
683.107	0.0131099
683.185	0.0134094
683.263	0.0138152
683.341	0.0140406
683.419	0.0145477
683.497	0.0151567
683.575	0.0156274
683.654	0.0160959
683.732	0.0167161
683.810	0.0174413
683.888	0.0178241
683.966	0.0183285
684.044	0.0185352
684.122	0.0188628
684.200	0.0191877
684.279	0.0191938
684.357	0.0193144
684.435	0.0192353
684.513	0.0191161
684.591	0.0189422
684.669	0.0187123
684.747	0.0182243
684.825	0.0179485
684.904	0.0176940
684.982	0.0172615
685.060	0.0171316
685.138	0.0166984
685.216	0.0163129
685.294	0.0161537
685.372	0.0161100
685.450	0.0157827
685.529	0.0156781
685.607	0.0156136
685.685	0.0155634
685.763	0.0156608
685.841	0.0156345
685.919	0.0156695
685.997	0.0157728
686.075	0.0155991
686.154	0.0158090
686.232	0.0160027
686.310	0.0161470
686.388	0.0161054
686.466	0.0162367
686.544	0.0165609
686.622	0.0167446
686.700	0.0167413
686.779	0.0168320
686.857	0.0167316
686.935	0.0169049
687.013	0.0166721
687.091	0.0165111
687.169	0.0162868
687.247	0.0161848
687.325	0.0158659
687.404	0.0157941
687.482	0.0153728
687.560	0.0152313
687.638	0.0152451
687.716	0.0150860
687.794	0.0152961
687.872	0.0153237
687.950	0.0155186
688.029	0.0152676
688.107	0.0155144
688.185	0.0156814
688.263	0.0158842
688.341	0.0157215
688.419	0.0159077
688.497	0.0159489
688.575	0.0159451
688.654	0.0158841
688.732	0.0159062
688.810	0.0158968
688.888	0.0159769
688.966	0.0159845
689.044	0.0161294
689.122	0.0162225
689.200	0.0160597
689.279	0.0163521
689.357	0.0163963
689.435	0.0164273
689.513	0.0166241
689.591	0.0167495
689.669	0.0166877
689.747	0.0166735
689.825	0.0169262
689.904	0.0166561
689.982	0.0166713
690.060	0.0165559
690.138	0.0167266
690.216	0.0167256
690.294	0.0169426
690.372	0.0171223
690.450	0.0171613
690.529	0.0174039
690.607	0.0174922
690.685	0.0177608
690.763	0.0177568
690.841	0.0178413
690.919	0.0181129
690.997	0.0177782
691.075	0.0178005
691.154	0.0177081
691.232	0.0174802
691.310	0.0173073
691.388	0.0171346
691.466	0.0170145
691.544	0.0170219
691.622	0.0167557
691.700	0.0166504
691.779	0.0166431
691.857	0.0164840
691.935	0.0163728
692.013	0.0161703
692.091	0.0159388
692.169	0.0157634
692.247	0.0156833
692.325	0.0155723
692.404	0.0154044
692.482	0.0151230
692.560	0.0149867
692.638	0.0148341
692.716	0.0148988
692.794	0.0150349
692.872	0.0151008
692.950	0.0151949
693.029	0.0153559
693.107	0.0157266
693.185	0.0158184
693.263	0.0161336
693.341	0.0163195
693.419	0.0163356
693.497	0.0164686
693.575	0.0164622
693.654	0.0165331
693.732	0.0164407
693.810	0.0163609
693.888	0.0162941
693.966	0.0161156
694.044	0.0157926
694.122	0.0155761
694.200	0.0155795
694.279	0.0153502
694.357	0.0150515
694.435	0.0149145
694.513	0.0146954
694.591	0.0146480
694.669	0.0147338
694.747	0.0148425
694.825	0.0148175
694.904	0.0150974
694.982	0.0154080
695.060	0.0157430
695.138	0.0160546
695.216	0.0163149
695.294	0.0168306
695.372	0.0173138
695.450	0.0176464
695.529	0.0179193
695.607	0.0181355
695.685	0.0183811
695.763	0.0183574
695.841	0.0184386
695.919	0.0183834
695.997	0.0185558
696.075	0.0183732
696.154	0.0183964
696.232	0.0182239
696.310	0.0179352
696.388	0.0178210
696.466	0.0175011
696.544	0.0173931
696.622	0.0171191
696.700	0.0169169
696.779	0.0168127
696.857	0.0164482
696.935	0.0163540
697.013	0.0164246
697.091	0.0161142
697.169	0.0161724
697.247	0.0160493
697.325	0.0160262
697.404	0.0160628
697.482	0.0159686
697.560	0.0161121
697.638	0.0161413
697.716	0.0160664
697.794	0.0160773
697.872	0.0160754
697.950	0.0160146
698.029	0.0159961
698.107	0.0159313
698.185	0.0159246
698.263	0.0156826
698.341	0.0155998
698.419	0.0156722
698.497	0.0155005
698.575	0.0154913
698.654	0.0154801
698.732	0.0153979
698.810	0.0154005
698.888	0.0154175
698.966	0.0155324
699.044	0.0155257
699.122	0.0156486
699.200	0.0156129
699.279	0.0157554
699.357	0.0159349
699.435	0.0159291
699.513	0.0159557
699.591	0.0160288
699.669	0.0158216
699.747	0.0159724
699.825	0.0161022
699.904	0.0158670
699.982	0.0159594
700.060	0.0161173
700.138	0.0158382
700.216	0.0159967
700.294	0.0161507
700.372	0.0161493
700.450	0.0162135
700.529	0.0163230
700.607	0.0163374
700.685	0.0163365
700.763	0.0165012
700.841	0.0166710
700.919	0.0168033
700.997	0.0168267
701.075	0.0169083
701.154	0.0169144
701.232	0.0167754
701.310	0.0168364
701.388	0.0167233
701.466	0.0166610
701.544	0.0165448
701.622	0.0165255
701.700	0.0165551
701.779	0.0164995
701.857	0.0165768
701.935	0.0165469
702.013	0.0164962
702.091	0.0166505
702.169	0.0166776
702.247	0.0167965
702.325	0.0167439
702.404	0.0167665
702.482	0.0169048
702.560	0.0169383
702.638	0.0167774
702.716	0.0170093
702.794	0.0168362
702.872	0.0168029
702.950	0.0168525
703.029	0.0168443
703.107	0.0169322
703.185	0.0168580
703.263	0.0168920
703.341	0.0168414
703.419	0.0167879
703.497	0.0170421
703.575	0.0169850
703.654	0.0170131
703.732	0.0166741
703.810	0.0166462
703.888	0.0166110
703.966	0.0164820
704.044	0.0163641
704.122	0.0161844
704.200	0.0161433
704.279	0.0158471
704.357	0.0157246
704.435	0.0157345
704.513	0.0155328
704.591	0.0156809
704.669	0.0154800
704.747	0.0155261
704.825	0.0155666
704.904	0.0154564
704.982	0.0155122
705.060	0.0154089
705.138	0.0154939
705.216	0.0154579
705.294	0.0155538
705.372	0.0156614
705.450	0.0154858
705.529	0.0156389
705.607	0.0156575
705.685	0.0158256
705.763	0.0158788
705.841	0.0158295
705.919	0.0160267
705.997	0.0158986
706.075	0.0161400
706.154	0.0162698
706.232	0.0162109
706.310	0.0164304
706.388	0.0164774
706.466	0.0164016
706.544	0.0165987
706.622	0.0166716
706.700	0.0165981
706.779	0.0167596
706.857	0.0167960
706.935	0.0168194
707.013	0.0169592
707.091	0.0169361
707.169	0.0169258
707.247	0.0171030
707.325	0.0170065
707.404	0.0167801
707.482	0.0167649
707.560	0.0167476
707.638	0.0166705
707.716	0.0165236
707.794	0.0164697
707.872	0.0160960
707.950	0.0159367
708.029	0.0158045
708.107	0.0157412
708.185	0.0155755
708.263	0.0155577
708.341	0.0155854
708.419	0.0155398
708.497	0.0157878
708.575	0.0161639
708.654	0.0161523
708.732	0.0161762
708.810	0.0164236
708.888	0.0167632
708.966	0.0168145
709.044	0.0168586
709.122	0.0168539
709.200	0.0168977
709.279	0.0171464
709.357	0.0169624
709.435	0.0168729
709.513	0.0169223
709.591	0.0169483
709.669	0.0167439
709.747	0.0167528
709.825	0.0168217
709.904	0.0167390
709.982	0.0168552
710.060	0.0166869
710.138	0.0164734
710.216	0.0165585
710.294	0.0167444
710.372	0.0166248
710.450	0.0164313
710.529	0.0163628
710.607	0.0162965
710.685	0.0163886
710.763	0.0162357
710.841	0.0161343
710.919	0.0160349
710.997	0.0161042
711.075	0.0161252
711.154	0.0160896
711.232	0.0160048
711.310	0.0160047
711.388	0.0160955
711.466	0.0162120
711.544	0.0161485
711.622	0.0160086
711.700	0.0161870
711.779	0.0162856
711.857	0.0162549
711.935	0.0160497
712.013	0.0162781
712.091	0.0163069
712.169	0.0162041
712.247	0.0161158
712.325	0.0162138
712.404	0.0158920
712.482	0.0159981
712.560	0.0160020
712.638	0.0158958
712.716	0.0159195
712.794	0.0159095
712.872	0.0159811
712.950	0.0159723
713.029	0.0160102
713.107	0.0160219
713.185	0.0160137
713.263	0.0161761
713.341	0.0162876
713.419	0.0163897
713.497	0.0164637
713.575	0.0166019
713.654	0.0167162
713.732	0.0166180
713.810	0.0165881
713.888	0.0166611
713.966	0.0166049
714.044	0.0166708
714.122	0.0164558
714.200	0.0163232
714.279	0.0163042
714.357	0.0163004
714.435	0.0163004
714.513	0.0162299
714.591	0.0160832
714.669	0.0160905
714.747	0.0160371
714.825	0.0160584
714.904	0.0160719
714.982	0.0160754
715.060	0.0161907
715.138	0.0162064
715.216	0.0161832
715.294	0.0162286
715.372	0.0162998
715.450	0.0163768
715.529	0.0164308
715.607	0.0164052
715.685	0.0165215
715.763	0.0165756
715.841	0.0164249
715.919	0.0165777
715.997	0.0166273
716.075	0.0164791
716.154	0.0165461
716.232	0.0167147
716.310	0.0167635
716.388	0.0167162
716.466	0.0167065
716.544	0.0168127
716.622	0.0168647
716.700	0.0168999
716.779	0.0169550
716.857	0.0169741
716.935	0.0169826
717.013	0.0170819
717.091	0.0170943
717.169	0.0169659
717.247	0.0169488
717.325	0.0169997
717.404	0.0168512
717.482	0.0166988
717.560	0.0165453
717.638	0.0165685
717.716	0.0164105
717.794	0.0162829
717.872	0.0161677
717.950	0.0160227
718.029	0.0159896
718.107	0.0161462
718.185	0.0159946
718.263	0.0159497
718.341	0.0159155
718.419	0.0159605
718.497	0.0159434
718.575	0.0159576
718.654	0.0159796
718.732	0.0160383
718.810	0.0161472
718.888	0.0161928
718.966	0.0161057
719.044	0.0160748
719.122	0.0162204
719.200	0.0161398
719.279	0.0160890
719.357	0.0161285
719.435	0.0161711
719.513	0.0161095
719.591	0.0160289
719.669	0.0160062
719.747	0.0159995
719.825	0.0160011
719.904	0.0161340
719.982	0.0161227
720.060	0.0161753
720.138	0.0161533
720.216	0.0163345
720.294	0.0162106
720.372	0.0162887
720.450	0.0164690
720.529	0.0164030
720.607	0.0164096
720.685	0.0166199
720.763	0.0166206
720.841	0.0165961
720.919	0.0165578
720.997	0.0166699
721.075	0.0166692
721.154	0.0166585
721.232	0.0166680
721.310	0.0165430
721.388	0.0164331
721.466	0.0164245
721.544	0.0164948
721.622	0.0161282
721.700	0.0162943
721.779	0.0162573
721.857	0.0162503
721.935	0.0161233
722.013	0.0160759
722.091	0.0162361
722.169	0.0161842
722.247	0.0162032
722.325	0.0161390
722.404	0.0162513
722.482	0.0162127
722.560	0.0163405
722.638	0.0163161
722.716	0.0162067
722.794	0.0162336
722.872	0.0163174
722.950	0.0161681
723.029	0.0161340
723.107	0.0161653
723.185	0.0162719
723.263	0.0161781
723.341	0.0162254
723.419	0.0160872
723.497	0.0162002
723.575	0.0161884
723.654	0.0162539
723.732	0.0163058
723.810	0.0164398
723.888	0.0163720
723.966	0.0164207
724.044	0.0164857
724.122	0.0164516
724.200	0.0167190
724.279	0.0165707
724.357	0.0168114
724.435	0.0167908
724.513	0.0167626
724.591	0.0168166
724.669	0.0168287
724.747	0.0168171
724.825	0.0166978
724.904	0.0167059
724.982	0.0165532
725.060	0.0166040
725.138	0.0165070
725.216	0.0163164
725.294	0.0164249
725.372	0.0163570
725.450	0.0162203
725.529	0.0161278
725.607	0.0159400
725.685	0.0162134
725.763	0.0161112
725.841	0.0160120
725.919	0.0162387
725.997	0.0162083
726.075	0.0162247
726.154	0.0161871
726.232	0.0160657
726.310	0.0161428
726.388	0.0164517
726.466	0.0163577
726.544	0.0162517
726.622	0.0161513
726.700	0.0163572
726.779	0.0163325
726.857	0.0163621
726.935	0.0163416
727.013	0.0165139
727.091	0.0163323
727.169	0.0161864
727.247	0.0162888
727.325	0.0163148
727.404	0.0163554
727.482	0.0163428
727.560	0.0162714
727.638	0.0163990
727.716	0.0164159
727.794	0.0161447
727.872	0.0160886
727.950	0.0161248
728.029	0.0161547
728.107	0.0162715
728.185	0.0162294
728.263	0.0162325
728.341	0.0162194
728.419	0.0160759
728.497	0.0160897
728.575	0.0162371
728.654	0.0160342
728.732	0.0159337
728.810	0.0159337
728.888	0.0157970
728.966	0.0157538
729.044	0.0158234
729.122	0.0157360
729.200	0.0157057
729.279	0.0156506
729.357	0.0157620
729.435	0.0158146
729.513	0.0158549
729.591	0.0160220
729.669	0.0161227
729.747	0.0161394
729.825	0.0160827
729.904	0.0160577
729.982	0.0162726
730.060	0.0164842
730.138	0.0163296
730.216	0.0164355
730.294	0.0164796
730.372	0.0166183
730.450	0.0166309
730.529	0.0164985
730.607	0.0165267
730.685	0.0166592
730.763	0.0164221
730.841	0.0165337
730.919	0.0165711
730.997	0.0167335
731.075	0.0166941
731.154	0.0168066
731.232	0.0167818
731.310	0.0167954
731.388	0.0167796
731.466	0.0166757
731.544	0.0168538
731.622	0.0168305
731.700	0.0168859
731.779	0.0168494
731.857	0.0169284
731.935	0.0167574
732.013	0.0168680
732.091	0.0167527
732.169	0.0167905
732.247	0.0165267
732.325	0.0164127
732.404	0.0165290
732.482	0.0165251
732.560	0.0163936
732.638	0.0164231
732.716	0.0162997
732.794	0.0162474
732.872	0.0162891
732.950	0.0162832
733.029	0.0162642
733.107	0.0163018
733.185	0.0163647
733.263	0.0162362
733.341	0.0162551
733.419	0.0162368
733.497	0.0163531
733.575	0.0163720
733.654	0.0163498
733.732	0.0161975
733.810	0.0163267
733.888	0.0163416
733.966	0.0162764
734.044	0.0160702
734.122	0.0161025
734.200	0.0161373
734.279	0.0161996
734.357	0.0161971
734.435	0.0162395
734.513	0.0161183
734.591	0.0160674
734.669	0.0161691
734.747	0.0160781
734.825	0.0161854
734.904	0.0162218
734.982	0.0161954
735.060	0.0161400
735.138	0.0161484
735.216	0.0162088
735.294	0.0162705
735.372	0.0160683
735.450	0.0161189
735.529	0.0160987
735.607	0.0161468
735.685	0.0162405
735.763	0.0160417
735.841	0.0159193
735.919	0.0158612
735.997	0.0158787
736.075	0.0159009
736.154	0.0159971
736.232	0.0159326
736.310	0.0158190
736.388	0.0158892
736.466	0.0160368
736.544	0.0159357
736.622	0.0158871
736.700	0.0158958
736.779	0.0159453
736.857	0.0159689
736.935	0.0160227
737.013	0.0161024
737.091	0.0159909
737.169	0.0161312
737.247	0.0162845
737.325	0.0161382
737.404	0.0161890
737.482	0.0163345
737.560	0.0164760
737.638	0.0165926
737.716	0.0164950
737.794	0.0166102
737.872	0.0166977
737.950	0.0166879
738.029	0.0168977
738.107	0.0169917
738.185	0.0169476
738.263	0.0171127
738.341	0.0171890
738.419	0.0170391
738.497	0.0170026
738.575	0.0172044
738.654	0.0171498
738.732	0.0170374
738.810	0.0169955
738.888	0.0170015
738.966	0.0169078
739.044	0.0169234
739.122	0.0168575
739.200	0.0166825
739.279	0.0167564
739.357	0.0166701
739.435	0.0165546
739.513	0.0166628
739.591	0.0164961
739.669	0.0163846
739.747	0.0164384
739.825	0.0163977
739.904	0.0162929
739.982	0.0162495
740.060	0.0162485
740.138	0.0162386
740.216	0.0161192
740.294	0.0163114
740.372	0.0161496
740.450	0.0161927
740.529	0.0162906
740.607	0.0162563
740.685	0.0162874
740.763	0.0163155
740.841	0.0163043
740.919	0.0162399
740.997	0.0163000
741.075	0.0163634
741.154	0.0162283
741.232	0.0161041
741.310	0.0160216
741.388	0.0158749
741.466	0.0158710
741.544	0.0158828
741.622	0.0157997
741.700	0.0157839
741.779	0.0157717
741.857	0.0156312
741.935	0.0157233
742.013	0.0156975
742.091	0.0157590
742.169	0.0158002
742.247	0.0156986
742.325	0.0157890
742.404	0.0157246
742.482	0.0158492
742.560	0.0160070
742.638	0.0158928
742.716	0.0160162
742.794	0.0160213
742.872	0.0159861
742.950	0.0161536
743.029	0.0162945
743.107	0.0161863
743.185	0.0161285
743.263	0.0161336
743.341	0.0161904
743.419	0.0162592
743.497	0.0161961
743.575	0.0161006
743.654	0.0163037
743.732	0.0163243
743.810	0.0162581
743.888	0.0163643
743.966	0.0163551
744.044	0.0162864
744.122	0.0163506
744.200	0.0165477
744.279	0.0165562
744.357	0.0164066
744.435	0.0164886
744.513	0.0165582
744.591	0.0164179
744.669	0.0165007
744.747	0.0164160
744.825	0.0164936
744.904	0.0166896
744.982	0.0166530
745.060	0.0166441
745.138	0.0166200
745.216	0.0167080
745.294	0.0167439
745.372	0.0167989
745.450	0.0168408
745.529	0.0168921
745.607	0.0171128
745.685	0.0169411
745.763	0.0169828
745.841	0.0170116
745.919	0.0169665
745.997	0.0170258
746.075	0.0169463
746.154	0.0168558
746.232	0.0167486
746.310	0.0166803
746.388	0.0166067
746.466	0.0165028
746.544	0.0164685
746.622	0.0164092
746.700	0.0164462
746.779	0.0163448
746.857	0.0162452
746.935	0.0161667
747.013	0.0161736
747.091	0.0159991
747.169	0.0161083
747.247	0.0161532
747.325	0.0161504
747.404	0.0160748
747.482	0.0161311
747.560	0.0161514
747.638	0.0161369
747.716	0.0160207
747.794	0.0161288
747.872	0.0161662
747.950	0.0161379
748.029	0.0162124
748.107	0.0162010
748.185	0.0162521
748.263	0.0162599
748.341	0.0161404
748.419	0.0161475
748.497	0.0162401
748.575	0.0163241
748.654	0.0164689
748.732	0.0164980
748.810	0.0163618
748.888	0.0162430
748.966	0.0162345
749.044	0.0162992
749.122	0.0162753
749.200	0.0160259
749.279	0.0159445
749.357	0.0159808
749.435	0.0158405
749.513	0.0158638
749.591	0.0157245
749.669	0.0158294
749.747	0.0157315
749.825	0.0159665
749.904	0.0159978
749.982	0.0159621
750.060	0.0161692
750.138	0.0159623
750.216	0.0161749
750.294	0.0161442
750.372	0.0161848
750.450	0.0162777
750.529	0.0162166
750.607	0.0163432
750.685	0.0162617
750.763	0.0163203
750.841	0.0162683
750.919	0.0163497
750.997	0.0163681
751.075	0.0163521
751.154	0.0163537
751.232	0.0165582
751.310	0.0164260
751.388	0.0163951
751.466	0.0164323
751.544	0.0163761
751.622	0.0164973
751.700	0.0165003
751.779	0.0163676
751.857	0.0165662
751.935	0.0167054
752.013	0.0166209
752.091	0.0166237
752.169	0.0167204
752.247	0.0165727
752.325	0.0167386
752.404	0.0170012
752.482	0.0168568
752.560	0.0167762
752.638	0.0169287
752.716	0.0170651
752.794	0.0169024
752.872	0.0168670
752.950	0.0168202
753.029	0.0167675
753.107	0.0167819
753.185	0.0168993
753.263	0.0167809
753.341	0.0167587
753.419	0.0166976
753.497	0.0165320
753.575	0.0166196
753.654	0.0164367
753.732	0.0164577
753.810	0.0162943
753.888	0.0163983
753.966	0.0162910
754.044	0.0161849
754.122	0.0161009
754.200	0.0161154
754.279	0.0161678
754.357	0.0160963
754.435	0.0161343
754.513	0.0160348
754.591	0.0160538
754.669	0.0161029
754.747	0.0161094
754.825	0.0161382
754.904	0.0161191
754.982	0.0160165
755.060	0.0161000
755.138	0.0162981
755.216	0.0162423
755.294	0.0163254
755.372	0.0161742
755.450	0.0164028
755.529	0.0163486
755.607	0.0163185
755.685	0.0162264
755.763	0.0162544
755.841	0.0161375
755.919	0.0162710
755.997	0.0160358
756.075	0.0161163
756.154	0.0160023
756.232	0.0159986
756.310	0.0160732
756.388	0.0159682
756.466	0.0159278
756.544	0.0159812
756.622	0.0159836
756.700	0.0159563
756.779	0.0160161
756.857	0.0160839
756.935	0.0161177
757.013	0.0160483
757.091	0.0160276
757.169	0.0162421
757.247	0.0164484
757.325	0.0164233
757.404	0.0163935
757.482	0.0164325
757.560	0.0164956
757.638	0.0166045
757.716	0.0166451
757.794	0.0166695
757.872	0.0166461
757.950	0.0165129
758.029	0.0166883
758.107	0.0164401
758.185	0.0164839
758.263	0.0163921
758.341	0.0161466
758.419	0.0161488
758.497	0.0161879
758.575	0.0160432
758.654	0.0160065
758.732	0.0160233
758.810	0.0159091
758.888	0.0159177
758.966	0.0159014
759.044	0.0158543
759.122	0.0159430
759.200	0.0159969
759.279	0.0160613
759.357	0.0160922
759.435	0.0160422
759.513	0.0161787
759.591	0.0163676
759.669	0.0163520
759.747	0.0164560
759.825	0.0165189
759.904	0.0165865
759.982	0.0167201
760.060	0.0167043
760.138	0.0168501
760.216	0.0168231
760.294	0.0168507
760.372	0.0170111
760.450	0.0170647
760.529	0.0170425
760.607	0.0169205
760.685	0.0168999
760.763	0.0169627
760.841	0.0169741
760.919	0.0169903
760.997	0.0167025
761.075	0.0167831
761.154	0.0167687
761.232	0.0165508
761.310	0.0166424
761.388	0.0166420
761.466	0.0163054
761.544	0.0161958
761.622	0.0162615
761.700	0.0162844
761.779	0.0163120
761.857	0.0161324
761.935	0.0161831
762.013	0.0160315
762.091	0.0161469
762.169	0.0159676
762.247	0.0158839
762.325	0.0159083
762.404	0.0158452
762.482	0.0157793
762.560	0.0159008
762.638	0.0158775
762.716	0.0159467
762.794	0.0159964
762.872	0.0160017
762.950	0.0160146
763.029	0.0160515
763.107	0.0160970
763.185	0.0162344
763.263	0.0162624
763.341	0.0163678
763.419	0.0163848
763.497	0.0163977
763.575	0.0163146
763.654	0.0163255
763.732	0.0163305
763.810	0.0163532
763.888	0.0161832
763.966	0.0163022
764.044	0.0162079
764.122	0.0162370
764.200	0.0163313
764.279	0.0162885
764.357	0.0164074
764.435	0.0163400
764.513	0.0163262
764.591	0.0164802
764.669	0.0166517
764.747	0.0164496
764.825	0.0166029
764.904	0.0165337
764.982	0.0165911
765.060	0.0165499
765.138	0.0165488
765.216	0.0165445
765.294	0.0165492
765.372	0.0164297
765.450	0.0163434
765.529	0.0164040
765.607	0.0161821
765.685	0.0161799
765.763	0.0160929
765.841	0.0162845
765.919	0.0161605
765.997	0.0160743
766.075	0.0161354
766.154	0.0158629
766.232	0.0159223
766.310	0.0159119
766.388	0.0160223
766.466	0.0160413
766.544	0.0159897
766.622	0.0160329
766.700	0.0159617
766.779	0.0160471
766.857	0.0161613
766.935	0.0162302
767.013	0.0161916
767.091	0.0160911
767.169	0.0162615
767.247	0.0164590
767.325	0.0165678
767.404	0.0164603
767.482	0.0165644
767.560	0.0168787
767.638	0.0166332
767.716	0.0167312
767.794	0.0166668
767.872	0.0169155
767.950	0.0169387
768.029	0.0169102
768.107	0.0168452
768.185	0.0168220
768.263	0.0169760
768.341	0.0167447
768.419	0.0166006
768.497	0.0166928
768.575	0.0166000
768.654	0.0165240
768.732	0.0165795
768.810	0.0165404
768.888	0.0163584
768.966	0.0163355
769.044	0.0163479
769.122	0.0163892
769.200	0.0162758
769.279	0.0163522
769.357	0.0163010
769.435	0.0162938
769.513	0.0163601
769.591	0.0163800
769.669	0.0164071
769.747	0.0165689
769.825	0.0165992
769.904	0.0164051
769.982	0.0165419
770.060	0.0165656
770.138	0.0166334
770.216	0.0165512
770.294	0.0164062
770.372	0.0163773
770.450	0.0163165
770.529	0.0165060
770.607	0.0163220
770.685	0.0165163
770.763	0.0163509
770.841	0.0162972
770.919	0.0160760
770.997	0.0162637
771.075	0.0162917
771.154	0.0161140
771.232	0.0161659
771.310	0.0160764
771.388	0.0159673
771.466	0.0159711
771.544	0.0159876
771.622	0.0160014
771.700	0.0159193
771.779	0.0158002
771.857	0.0158871
771.935	0.0158849
772.013	0.0159284
772.091	0.0160212
772.169	0.0160866
772.247	0.0160412
772.325	0.0163455
772.404	0.0162630
772.482	0.0163400
772.560	0.0164075
772.638	0.0162877
772.716	0.0164776
772.794	0.0164497
772.872	0.0165095
772.950	0.0164042
773.029	0.0163139
773.107	0.0163544
773.185	0.0163490
773.263	0.0162440
773.341	0.0161745
773.419	0.0162494
773.497	0.0162897
773.575	0.0162228
773.654	0.0162528
773.732	0.0161803
773.810	0.0162984
773.888	0.0161272
773.966	0.0161282
774.044	0.0161754
774.122	0.0161876
774.200	0.0161389
774.279	0.0163590
774.357	0.0161341
774.435	0.0160424
774.513	0.0161797
774.591	0.0161731
774.669	0.0163033
774.747	0.0163908
774.825	0.0163630
774.904	0.0164967
774.982	0.0165327
775.060	0.0165309
775.138	0.0164342
775.216	0.0165969
775.294	0.0165562
775.372	0.0167841
775.450	0.0168358
775.529	0.0166799
775.607	0.0167952
775.685	0.0168227
775.763	0.0167780
775.841	0.0167007
775.919	0.0166495
775.997	0.0165998
776.075	0.0165739
776.154	0.0167007
776.232	0.0165691
776.310	0.0165627
776.388	0.0166862
776.466	0.0164473
776.544	0.0164458
776.622	0.0165236
776.700	0.0165469
776.779	0.0164349
776.857	0.0165368
776.935	0.0164800
777.013	0.0165873
777.091	0.0165683
777.169	0.0165138
777.247	0.0163937
777.325	0.0164962
777.404	0.0165276
777.482	0.0165892
777.560	0.0164159
777.638	0.0166065
777.716	0.0164316
777.794	0.0164678
777.872	0.0163815
777.950	0.0163988
778.029	0.0165015
778.107	0.0164356
778.185	0.0163436
778.263	0.0162945
778.341	0.0161861
778.419	0.0161437
778.497	0.0159679
778.575	0.0159644
778.654	0.0159022
778.732	0.0158656
778.810	0.0159090
778.888	0.0157967
778.966	0.0157935
779.044	0.0156553
779.122	0.0157732
779.200	0.0158946
779.279	0.0158474
779.357	0.0158834
779.435	0.0158895
779.513	0.0158488
779.591	0.0160184
779.669	0.0159737
779.747	0.0160425
779.825	0.0161209
779.904	0.0160949
779.982	0.0163547
780.060	0.0162921
780.138	0.0162229
780.216	0.0163030
780.294	0.0163148
780.372	0.0163297
780.450	0.0162943
780.529	0.0162457
780.607	0.0163544
780.685	0.0163289
780.763	0.0162119
780.841	0.0162595
780.919	0.0162709
780.997	0.0162519
781.075	0.0161602
781.154	0.0162638
781.232	0.0162882
781.310	0.0161984
781.388	0.0160650
781.466	0.0162302
781.544	0.0162988
781.622	0.0162125
781.700	0.0161919
781.779	0.0161794
781.857	0.0162723
781.935	0.0163752
782.013	0.0162408
782.091	0.0163986
782.169	0.0165266
782.247	0.0165095
782.325	0.0164649
782.404	0.0167211
782.482	0.0165987
782.560	0.0167143
782.638	0.0166654
782.716	0.0167173
782.794	0.0167559
782.872	0.0167495
782.950	0.0167840
783.029	0.0167160
783.107	0.0166758
783.185	0.0166723
783.263	0.0166332
783.341	0.0166669
783.419	0.0165977
783.497	0.0164464
783.575	0.0165607
783.654	0.0163017
783.732	0.0163661
783.810	0.0162792
783.888	0.0163228
783.966	0.0163145
784.044	0.0163223
784.122	0.0161591
784.200	0.0161456
784.279	0.0160844
784.357	0.0162614
784.435	0.0162604
784.513	0.0162386
784.591	0.0160806
784.669	0.0162770
784.747	0.0164111
784.825	0.0162988
784.904	0.0162674
784.982	0.0164506
785.060	0.0164285
785.138	0.0164671
785.216	0.0163560
785.294	0.0163360
785.372	0.0165312
785.450	0.0164330
785.529	0.0163779
785.607	0.0164740
785.685	0.0164446
785.763	0.0162674
785.841	0.0161946
785.919	0.0163109
785.997	0.0161644
786.075	0.0160821
786.154	0.0161625
786.232	0.0160391
786.310	0.0159717
786.388	0.0159285
786.466	0.0159362
786.544	0.0159789
786.622	0.0159033
786.700	0.0159970
786.779	0.0162696
786.857	0.0160741
786.935	0.0162132
787.013	0.0162891
787.091	0.0164388
787.169	0.0164121
787.247	0.0163644
787.325	0.0164689
787.404	0.0164894
787.482	0.0164463
787.560	0.0165450
787.638	0.0163050
787.716	0.0163490
787.794	0.0163086
787.872	0.0163293
787.950	0.0162225
788.029	0.0161407
788.107	0.0162485
788.185	0.0163752
788.263	0.0162908
788.341	0.0161084
788.419	0.0161543
788.497	0.0161513
788.575	0.0159942
788.654	0.0162787
788.732	0.0161287
788.810	0.0160806
788.888	0.0159930
788.966	0.0160996
789.044	0.0161192
789.122	0.0161055
789.200	0.0162113
789.279	0.0161816
789.357	0.0162361
789.435	0.0163439
789.513	0.0163881
789.591	0.0164378
789.669	0.0163737
789.747	0.0163648
789.825	0.0163509
789.904	0.0165613
789.982	0.0165057
790.060	0.0166186
790.138	0.0167093
790.216	0.0165034
790.294	0.0166459
790.372	0.0167191
790.450	0.0166035
790.529	0.0166587
790.607	0.0164899
790.685	0.0165400
790.763	0.0165889
790.841	0.0164877
790.919	0.0164809
790.997	0.0163908
791.075	0.0164149
791.154	0.0164008
791.232	0.0164470
791.310	0.0164251
791.388	0.0165468
791.466	0.0164692
791.544	0.0163766
791.622	0.0163995
791.700	0.0164594
791.779	0.0165073
791.857	0.0164885
791.935	0.0164664
792.013	0.0164368
792.091	0.0165094
792.169	0.0165058
792.247	0.0164323
792.325	0.0164609
792.404	0.0165253
792.482	0.0164965
792.560	0.0165518
792.638	0.0166055
792.716	0.0164796
792.794	0.0165377
792.872	0.0165859
792.950	0.0165405
793.029	0.0164581
793.107	0.0165874
793.185	0.0165023
793.263	0.0164684
793.341	0.0163721
793.419	0.0163290
793.497	0.0162843
793.575	0.0162517
793.654	0.0162897
793.732	0.0161921
793.810	0.0160934
793.888	0.0160349
793.966	0.0161674
794.044	0.0162930
794.122	0.0162401
794.200	0.0161889
794.279	0.0161812
794.357	0.0161834
794.435	0.0162034
794.513	0.0162976
794.591	0.0160518
794.669	0.0161392
794.747	0.0161921
794.825	0.0162627
794.904	0.0162460
794.982	0.0162440
795.060	0.0162453
795.138	0.0161503
795.216	0.0161434
795.294	0.0161340
795.372	0.0161161
795.450	0.0160666
795.529	0.0160431
795.607	0.0160653
795.685	0.0160596
795.763	0.0160536
795.841	0.0160563
795.919	0.0161224
795.997	0.0161238
796.075	0.0160114
796.154	0.0159003
796.232	0.0159403
796.310	0.0160307
796.388	0.0161889
796.466	0.0160911
796.544	0.0161617
796.622	0.0162418
796.700	0.0161829
796.779	0.0163189
796.857	0.0162729
796.935	0.0165609
797.013	0.0165276
797.091	0.0164639
797.169	0.0164997
797.247	0.0167595
797.325	0.0167067
797.404	0.0168152
797.482	0.0168108
797.560	0.0168630
797.638	0.0169156
797.716	0.0168895
797.794	0.0168848
797.872	0.0169042
797.950	0.0168246
798.029	0.0168089
798.107	0.0167500
798.185	0.0167511
798.263	0.0166432
798.341	0.0166702
798.419	0.0166505
798.497	0.0166607
798.575	0.0166428
798.654	0.0165344
798.732	0.0162662
798.810	0.0163863
798.888	0.0164682
798.966	0.0162083
799.044	0.0163522
799.122	0.0163397
799.200	0.0163847
799.279	0.0164423
799.357	0.0162891
799.435	0.0162154
799.513	0.0160907
799.591	0.0163146
799.669	0.0163412
799.747	0.0162172
799.825	0.0164279
799.904	0.0162896
799.982	0.0163731
800.060	0.0164922
800.138	0.0163136
800.216	0.0163405
800.294	0.0163322
800.372	0.0163233
800.450	0.0163187
800.529	0.0163404
800.607	0.0164018
800.685	0.0162444
800.763	0.0161822
800.841	0.0161322
800.919	0.0160059
800.997	0.0160984
801.075	0.0159850
801.154	0.0158800
801.232	0.0159056
801.310	0.0157838
801.388	0.0157971
801.466	0.0158509
801.544	0.0158955
801.622	0.0157972
801.700	0.0158003
801.779	0.0158929
801.857	0.0159270
801.935	0.0160960
802.013	0.0160860
802.091	0.0161192
802.169	0.0162454
802.247	0.0161227
802.325	0.0163741
802.404	0.0162711
802.482	0.0163338
802.560	0.0163714
802.638	0.0164612
802.716	0.0164417
802.794	0.0163464
802.872	0.0165296
802.950	0.0164660
803.029	0.0163635
803.107	0.0163303
803.185	0.0163683
803.263	0.0163571
803.341	0.0163123
803.419	0.0163190
803.497	0.0162106
803.575	0.0163406
803.654	0.0163329
803.732	0.0162993
803.810	0.0162681
803.888	0.0162234
803.966	0.0163193
804.044	0.0164955
804.122	0.0163127
804.200	0.0163059
804.279	0.0162480
804.357	0.0162222
804.435	0.0163537
804.513	0.0164587
804.591	0.0163610
804.669	0.0162918
804.747	0.0165257
804.825	0.0165293
804.904	0.0163678
804.982	0.0163949
805.060	0.0165513
805.138	0.0164584
805.216	0.0165078
805.294	0.0165176
805.372	0.0167207
805.450	0.0165385
805.529	0.0166362
805.607	0.0165118
805.685	0.0165852
805.763	0.0165899
805.841	0.0165696
805.919	0.0164640
805.997	0.0166041
806.075	0.0163923
806.154	0.0164321
806.232	0.0165597
806.310	0.0165324
806.388	0.0164808
806.466	0.0164930
806.544	0.0165578
806.622	0.0165974
806.700	0.0164799
806.779	0.0165119
806.857	0.0163613
806.935	0.0162457
807.013	0.0163567
807.091	0.0163870
807.169	0.0162978
807.247	0.0162466
807.325	0.0162965
807.404	0.0162622
807.482	0.0162024
807.560	0.0162977
807.638	0.0162086
807.716	0.0162940
807.794	0.0162335
807.872	0.0161678
807.950	0.0162790
808.029	0.0162131
808.107	0.0162188
808.185	0.0162556
808.263	0.0162527
808.341	0.0163059
808.419	0.0161753
808.497	0.0160861
808.575	0.0161549
808.654	0.0160647
808.732	0.0160374
808.810	0.0160542
808.888	0.0161071
808.966	0.0160331
809.044	0.0159942
809.122	0.0160731
809.200	0.0162091
809.279	0.0160782
809.357	0.0160881
809.435	0.0160400
809.513	0.0161882
809.591	0.0162907
809.669	0.0162961
809.747	0.0161576
809.825	0.0163069
809.904	0.0164985
809.982	0.0163808
810.060	0.0163049
810.138	0.0163548
810.216	0.0164539
810.294	0.0164872
810.372	0.0163502
810.450	0.0163505
810.529	0.0163806
810.607	0.0163490
810.685	0.0161502
810.763	0.0162343
810.841	0.0162481
810.919	0.0162637
810.997	0.0160951
811.075	0.0160760
811.154	0.0161668
811.232	0.0160706
811.310	0.0160631
811.388	0.0161581
811.466	0.0162122
811.544	0.0161959
811.622	0.0162999
811.700	0.0163424
811.779	0.0162755
811.857	0.0164255
811.935	0.0163264
812.013	0.0163301
812.091	0.0165771
812.169	0.0166300
812.247	0.0166259
812.325	0.0166190
812.404	0.0166118
812.482	0.0166847
812.560	0.0168183
812.638	0.0167345
812.716	0.0167513
812.794	0.0168037
812.872	0.0165508
812.950	0.0165589
813.029	0.0166646
813.107	0.0165616
813.185	0.0165316
813.263	0.0165868
813.341	0.0165185
813.419	0.0164489
813.497	0.0166317
813.575	0.0164330
813.654	0.0165179
813.732	0.0163907
813.810	0.0164491
813.888	0.0165460
813.966	0.0162994
814.044	0.0163976
814.122	0.0164340
814.200	0.0164513
814.279	0.0163948
814.357	0.0163686
814.435	0.0165671
814.513	0.0165186
814.591	0.0164054
814.669	0.0164124
814.747	0.0164832
814.825	0.0163436
814.904	0.0162517
814.982	0.0163112
815.060	0.0162777
815.138	0.0162777
815.216	0.0162018
815.294	0.0163087
815.372	0.0162783
815.450	0.0162194
815.529	0.0161966
815.607	0.0160719
815.685	0.0161762
815.763	0.0161975
815.841	0.0160846
815.919	0.0160020
815.997	0.0160004
816.075	0.0160398
816.154	0.0159331
816.232	0.0158527
816.310	0.0160617
816.388	0.0159667
816.466	0.0160384
816.544	0.0158439
816.622	0.0158363
816.700	0.0161781
816.779	0.0161965
816.857	0.0162437
816.935	0.0162185
817.013	0.0160847
817.091	0.0161518
817.169	0.0163145
817.247	0.0163394
817.325	0.0164581
817.404	0.0164169
817.482	0.0163805
817.560	0.0164394
817.638	0.0163651
817.716	0.0163562
817.794	0.0164733
817.872	0.0164036
817.950	0.0164423
818.029	0.0164610
818.107	0.0163603
818.185	0.0163457
818.263	0.0163679
818.341	0.0162865
818.419	0.0163797
818.497	0.0163153
818.575	0.0163339
818.654	0.0165238
818.732	0.0162749
818.810	0.0164436
818.888	0.0163122
818.966	0.0164610
819.044	0.0163528
819.122	0.0163969
819.200	0.0164783
819.279	0.0165224
819.357	0.0164082
819.435	0.0163580
819.513	0.0163731
819.591	0.0164008
819.669	0.0164685
819.747	0.0164614
819.825	0.0164816
819.904	0.0165904
819.982	0.0166164
820.060	0.0165868
820.138	0.0165783
820.216	0.0167012
820.294	0.0165706
820.372	0.0166132
820.450	0.0166972
820.529	0.0165512
820.607	0.0165717
820.685	0.0165100
820.763	0.0164970
820.841	0.0165399
820.919	0.0164278
820.997	0.0164524
821.075	0.0163876
821.154	0.0163136
821.232	0.0161269
821.310	0.0162221
821.388	0.0162767
821.466	0.0161027
821.544	0.0161688
821.622	0.0160855
821.700	0.0162274
821.779	0.0161289
821.857	0.0161970
821.935	0.0162302
822.013	0.0163125
822.091	0.0163013
822.169	0.0162747
822.247	0.0162534
822.325	0.0164132
822.404	0.0162663
822.482	0.0162532
822.560	0.0161593
822.638	0.0163617
822.716	0.0163995
822.794	0.0163342
822.872	0.0163165
822.950	0.0162983
823.029	0.0163191
823.107	0.0163687
823.185	0.0163342
823.263	0.0162645
823.341	0.0164001
823.419	0.0163203
823.497	0.0162716
823.575	0.0161494
823.654	0.0161769
823.732	0.0162386
823.810	0.0161398
823.888	0.0162716
823.966	0.0160468
824.044	0.0161050
824.122	0.0161430
824.200	0.0160032
824.279	0.0161430
824.357	0.0163366
824.435	0.0160794
824.513	0.0161765
824.591	0.0162499
824.669	0.0161370
824.747	0.0162644
824.825	0.0162914
824.904	0.0162666
824.982	0.0162874
825.060	0.0163230
825.138	0.0162978
825.216	0.0163538
825.294	0.0162806
825.372	0.0163327
825.450	0.0161856
825.529	0.0162456
825.607	0.0163293
825.685	0.0162270
825.763	0.0163100
825.841	0.0161488
825.919	0.0162604
825.997	0.0161880
826.075	0.0162043
826.154	0.0160227
826.232	0.0161015
826.310	0.0160858
826.388	0.0161234
826.466	0.0160568
826.544	0.0158959
826.622	0.0161778
826.700	0.0161627
826.779	0.0160748
826.857	0.0161752
826.935	0.0163117
827.013	0.0160654
827.091	0.0160576
827.169	0.0161810
827.247	0.0162994
827.325	0.0163611
827.404	0.0163787
827.482	0.0163503
827.560	0.0164368
827.638	0.0165343
827.716	0.0167397
827.794	0.0165631
827.872	0.0165837
827.950	0.0166982
828.029	0.0167387
828.107	0.0165802
828.185	0.0167442
828.263	0.0166817
828.341	0.0167948
828.419	0.0165901
828.497	0.0166962
828.575	0.0165645
828.654	0.0166563
828.732	0.0165307
828.810	0.0164831
828.888	0.0164709
828.966	0.0164332
829.044	0.0165265
829.122	0.0163983
829.200	0.0164264
829.279	0.0163025
829.357	0.0162949
829.435	0.0163206
829.513	0.0162267
829.591	0.0162654
829.669	0.0163615
829.747	0.0162782
829.825	0.0161530
829.904	0.0162594
829.982	0.0163176
830.060	0.0161638
830.138	0.0162574
830.216	0.0162810
830.294	0.0163123
830.372	0.0161487
830.450	0.0162453
830.529	0.0162825
830.607	0.0162099
830.685	0.0162148
830.763	0.0161155
830.841	0.0162476
830.919	0.0161818
830.997	0.0161424
831.075	0.0163763
831.154	0.0162424
831.232	0.0161604
831.310	0.0161738
831.388	0.0160531
831.466	0.0160835
831.544	0.0160270
831.622	0.0161127
831.700	0.0161670
831.779	0.0160916
831.857	0.0161562
831.935	0.0161016
832.013	0.0160650
832.091	0.0160777
832.169	0.0160976
832.247	0.0161169
832.325	0.0160210
832.404	0.0162819
832.482	0.0162251
832.560	0.0162177
832.638	0.0162344
832.716	0.0162514
832.794	0.0162086
832.872	0.0162428
832.950	0.0163242
833.029	0.0163985
833.107	0.0162348
833.185	0.0162770
833.263	0.0163514
833.341	0.0162694
833.419	0.0161593
833.497	0.0162987
833.575	0.0163090
833.654	0.0162483
833.732	0.0163436
833.810	0.0161485
833.888	0.0161675
833.966	0.0162143
834.044	0.0161948
834.122	0.0161977
834.200	0.0161797
834.279	0.0163434
834.357	0.0161954
834.435	0.0163622
834.513	0.0163462
834.591	0.0163789
834.669	0.0165843
834.747	0.0164838
834.825	0.0164738
834.904	0.0165946
834.982	0.0165724
835.060	0.0168232
835.138	0.0167841
835.216	0.0167831
835.294	0.0166604
835.372	0.0166992
835.450	0.0166763
835.529	0.0166991
835.607	0.0168491
835.685	0.0166278
835.763	0.0165722
835.841	0.0166338
835.919	0.0166522
835.997	0.0166093
836.075	0.0166208
836.154	0.0166185
836.232	0.0166444
836.310	0.0164836
836.388	0.0164196
836.466	0.0164538
836.544	0.0163802
836.622	0.0163000
836.700	0.0163535
836.779	0.0162445
836.857	0.0163544
836.935	0.0162388
837.013	0.0163755
837.091	0.0164538
837.169	0.0163493
837.247	0.0163517
837.325	0.0162553
837.404	0.0162512
837.482	0.0162174
837.560	0.0162261
837.638	0.0161973
837.716	0.0163260
837.794	0.0162623
837.872	0.0161142
837.950	0.0159861
838.029	0.0161713
838.107	0.0162160
838.185	0.0160905
838.263	0.0161642
838.341	0.0161699
838.419	0.0160400
838.497	0.0159303
838.575	0.0162766
838.654	0.0161337
838.732	0.0161908
838.810	0.0159996
838.888	0.0161211
838.966	0.0160009
839.044	0.0160120
839.122	0.0160499
839.200	0.0161970
839.279	0.0160767
839.357	0.0159832
839.435	0.0160200
839.513	0.0160881
839.591	0.0161172
839.669	0.0161096
839.747	0.0161874
839.825	0.0162057
839.904	0.0162257
839.982	0.0160643
840.060	0.0162701
840.138	0.0164577
840.216	0.0163010
840.294	0.0163798
840.372	0.0164602
840.450	0.0163475
840.529	0.0164094
840.607	0.0166406
840.685	0.0164458
840.763	0.0164205
840.841	0.0163702
840.919	0.0163110
840.997	0.0164746
841.075	0.0164567
841.154	0.0163185
841.232	0.0163985
841.310	0.0163570
841.388	0.0162682
841.466	0.0162071
841.544	0.0164220
841.622	0.0163290
841.700	0.0163789
841.779	0.0162987
841.857	0.0163760
841.935	0.0164525
842.013	0.0165143
842.091	0.0164468
842.169	0.0165492
842.247	0.0163852
842.325	0.0164744
842.404	0.0165543
842.482	0.0165438
842.560	0.0164848
842.638	0.0164035
842.716	0.0165331
842.794	0.0165794
842.872	0.0163976
842.950	0.0165047
843.029	0.0164479
843.107	0.0165749
843.185	0.0164879
843.263	0.0166251
843.341	0.0165208
843.419	0.0165727
843.497	0.0165884
843.575	0.0165648
843.654	0.0165891
843.732	0.0165453
843.810	0.0165924
843.888	0.0166124
843.966	0.0163507
844.044	0.0163992
844.122	0.0163600
844.200	0.0165321
844.279	0.0164565
844.357	0.0164122
844.435	0.0164543
844.513	0.0164328
844.591	0.0164709
844.669	0.0164297
844.747	0.0165538
844.825	0.0163434
844.904	0.0162922
844.982	0.0164415
845.060	0.0164157
845.138	0.0163963
845.216	0.0163774
845.294	0.0163402
845.372	0.0161933
845.450	0.0162878
845.529	0.0161413
845.607	0.0163640
845.685	0.0160471
845.763	0.0160951
845.841	0.0160251
845.919	0.0160921
845.997	0.0159868
846.075	0.0161517
846.154	0.0160479
846.232	0.0158866
846.310	0.0159918
846.388	0.0161318
846.466	0.0161703
846.544	0.0160780
846.622	0.0160436
846.700	0.0161144
846.779	0.0160464
846.857	0.0160786
846.935	0.0161354
847.013	0.0160065
847.091	0.0162131
847.169	0.0161899
847.247	0.0161430
847.325	0.0161600
847.404	0.0161138
847.482	0.0161836
847.560	0.0162767
847.638	0.0162604
847.716	0.0162502
847.794	0.0163103
847.872	0.0163030
847.950	0.0163602
848.029	0.0164075
848.107	0.0164359
848.185	0.0164634
848.263	0.0165702
848.341	0.0165261
848.419	0.0165517
848.497	0.0164539
848.575	0.0163769
848.654	0.0163084
848.732	0.0162692
848.810	0.0164089
848.888	0.0164285
848.966	0.0163612
849.044	0.0163792
849.122	0.0164508
849.200	0.0163223
849.279	0.0163223
849.357	0.0164404
849.435	0.0164757
849.513	0.0164687
849.591	0.0164299
849.669	0.0163396
849.747	0.0165961
849.825	0.0165024
849.904	0.0165433
849.982	0.0167342
850.060	0.0166527
850.138	0.0165794
850.216	0.0167246
850.294	0.0166365
850.372	0.0165619
850.450	0.0167047
850.529	0.0167056
850.607	0.0167426
850.685	0.0167303
850.763	0.0165742
850.841	0.0165430
850.919	0.0166475
850.997	0.0165305
851.075	0.0164023
851.154	0.0164491
851.232	0.0164812
851.310	0.0162800
851.388	0.0163677
851.466	0.0163790
851.544	0.0162110
851.622	0.0162725
851.700	0.0163276
851.779	0.0163074
851.857	0.0162704
851.935	0.0164014
852.013	0.0164648
852.091	0.0164575
852.169	0.0165010
852.247	0.0163776
852.325	0.0165844
852.404	0.0167283
852.482	0.0167136
852.560	0.0166209
852.638	0.0167159
852.716	0.0166645
852.794	0.0167355
852.872	0.0165265
852.950	0.0164536
853.029	0.0164629
853.107	0.0162448
853.185	0.0161865
853.263	0.0161668
853.341	0.0159595
853.419	0.0159499
853.497	0.0159811
853.575	0.0159545
853.654	0.0158623
853.732	0.0157168
853.810	0.0158613
853.888	0.0159576
853.966	0.0157883
854.044	0.0157751
854.122	0.0156699
854.200	0.0159058
854.279	0.0157990
854.357	0.0157434
854.435	0.0158779
854.513	0.0159226
854.591	0.0161045
854.669	0.0160503
854.747	0.0160954
854.825	0.0161036
854.904	0.0162102
854.982	0.0161889
855.060	0.0163395
855.138	0.0163434
855.216	0.0163273
855.294	0.0163459
855.372	0.0164715
855.450	0.0163741
855.529	0.0164758
855.607	0.0163783
855.685	0.0163852
855.763	0.0164185
855.841	0.0165053
855.919	0.0164538
855.997	0.0164340
856.075	0.0166074
856.154	0.0164404
856.232	0.0164731
856.310	0.0164388
856.388	0.0164143
856.466	0.0164809
856.544	0.0163812
856.622	0.0164474
856.700	0.0163700
856.779	0.0163485
856.857	0.0162907
856.935	0.0163169
857.013	0.0161874
857.091	0.0163200
857.169	0.0162344
857.247	0.0162812
857.325	0.0162037
857.404	0.0162389
857.482	0.0163283
857.560	0.0165349
857.638	0.0165372
857.716	0.0164607
857.794	0.0163463
857.872	0.0164272
857.950	0.0165395
858.029	0.0165523
858.107	0.0165253
858.185	0.0165529
858.263	0.0165264
858.341	0.0167503
858.419	0.0166272
858.497	0.0164819
858.575	0.0165947
858.654	0.0165002
858.732	0.0164237
858.810	0.0164695
858.888	0.0164173
858.966	0.0164214
859.044	0.0162753
859.122	0.0162284
859.200	0.0162421
859.279	0.0163577
859.357	0.0162074
859.435	0.0162738
859.513	0.0164252
859.591	0.0162107
859.669	0.0163489
859.747	0.0163844
859.825	0.0164329
859.904	0.0164040
859.982	0.0164250
860.060	0.0164429
860.138	0.0165508
860.216	0.0164201
860.294	0.0164513
860.372	0.0163087
860.450	0.0162511
860.529	0.0162199
860.607	0.0162014
860.685	0.0161780
860.763	0.0161240
860.841	0.0159974
860.919	0.0158383
860.997	0.0158800
861.075	0.0158914
861.154	0.0158878
861.232	0.0158775
861.310	0.0160275
861.388	0.0161150
861.466	0.0160221
861.544	0.0160284
861.622	0.0160252
861.700	0.0160690
861.779	0.0160728
861.857	0.0159850
861.935	0.0159050
862.013	0.0158789
862.091	0.0160310
862.169	0.0160779
862.247	0.0159489
862.325	0.0158964
862.404	0.0159279
862.482	0.0159946
862.560	0.0161639
862.638	0.0160122
862.716	0.0162117
862.794	0.0161888
862.872	0.0162572
862.950	0.0163594
863.029	0.0162431
863.107	0.0164854
863.185	0.0164356
863.263	0.0163834
863.341	0.0163982
863.419	0.0163859
863.497	0.0163847
863.575	0.0164611
863.654	0.0164613
863.732	0.0164293
863.810	0.0164883
863.888	0.0163971
863.966	0.0165292
864.044	0.0164598
864.122	0.0164783
864.200	0.0167078
864.279	0.0166656
864.357	0.0165983
864.435	0.0168176
864.513	0.0167413
864.591	0.0166804
864.669	0.0166747
864.747	0.0167528
864.825	0.0167088
864.904	0.0167225
864.982	0.0167219
865.060	0.0166978
865.138	0.0166061
865.216	0.0167172
865.294	0.0166518
865.372	0.0165382
865.450	0.0163901
865.529	0.0163413
865.607	0.0164067
865.685	0.0164402
865.763	0.0162132
865.841	0.0162912
865.919	0.0163055
865.997	0.0162947
866.075	0.0162313
866.154	0.0162727
866.232	0.0164079
866.310	0.0164223
866.388	0.0165315
866.466	0.0163990
866.544	0.0165294
866.622	0.0167136
866.700	0.0167381
866.779	0.0165699
866.857	0.0166634
866.935	0.0165939
867.013	0.0164636
867.091	0.0164458
867.169	0.0163350
867.247	0.0162279
867.325	0.0161619
867.404	0.0161443
867.482	0.0162345
867.560	0.0160364
867.638	0.0161054
867.716	0.0160788
867.794	0.0160652
867.872	0.0161092
867.950	0.0161879
868.029	0.0162450
868.107	0.0160973
868.185	0.0160654
868.263	0.0163456
868.341	0.0162163
868.419	0.0160966
868.497	0.0160944
868.575	0.0161095
868.654	0.0160592
868.732	0.0160530
868.810	0.0161917
868.888	0.0161906
868.966	0.0161486
869.044	0.0160505
869.122	0.0162268
869.200	0.0162688
869.279	0.0162061
869.357	0.0161034
869.435	0.0161856
869.513	0.0161630
869.591	0.0161054
869.669	0.0162705
869.747	0.0159732
869.825	0.0160157
869.904	0.0160390
869.982	0.0159562
870.060	0.0159415
870.138	0.0159252
870.216	0.0159786
870.294	0.0159573
870.372	0.0160063
870.450	0.0161491
870.529	0.0161661
870.607	0.0162207
870.685	0.0163343
870.763	0.0161531
870.841	0.0163132
870.919	0.0164444
870.997	0.0164111
871.075	0.0165102
871.154	0.0164425
871.232	0.0164400
871.310	0.0165706
871.388	0.0165784
871.466	0.0164999
871.544	0.0165009
871.622	0.0165729
871.700	0.0166483
871.779	0.0168191
871.857	0.0166816
871.935	0.0165952
872.013	0.0165721
872.091	0.0165749
872.169	0.0165996
872.247	0.0166492
872.325	0.0166483
872.404	0.0166689
872.482	0.0167034
872.560	0.0165187
872.638	0.0166872
872.716	0.0167058
872.794	0.0166161
872.872	0.0166552
872.950	0.0166821
873.029	0.0165604
873.107	0.0166446
873.185	0.0167457
873.263	0.0168136
873.341	0.0167632
873.419	0.0166937
873.497	0.0166418
873.575	0.0166044
873.654	0.0165881
873.732	0.0164503
873.810	0.0164325
873.888	0.0165533
873.966	0.0163740
874.044	0.0162875
874.122	0.0162494
874.200	0.0163396
874.279	0.0163327
874.357	0.0162791
874.435	0.0160219
874.513	0.0161144
874.591	0.0160901
874.669	0.0161173
874.747	0.0159645
874.825	0.0159837
874.904	0.0160395
874.982	0.0160920
875.060	0.0160947
875.138	0.0160720
875.216	0.0160935
875.294	0.0162397
875.372	0.0163039
875.450	0.0163074
875.529	0.0164497
875.607	0.0165475
875.685	0.0165736
875.763	0.0165354
875.841	0.0165292
875.919	0.0164295
875.997	0.0164846
876.075	0.0164703
876.154	0.0163206
876.232	0.0163455
876.310	0.0162408
876.388	0.0162031
876.466	0.0160844
876.544	0.0160277
876.622	0.0160824
876.700	0.0160931
876.779	0.0159822
876.857	0.0160851
876.935	0.0159872
877.013	0.0160577
877.091	0.0161053
877.169	0.0160028
877.247	0.0160158
877.325	0.0160377
877.404	0.0161150
877.482	0.0162536
877.560	0.0160685
877.638	0.0161641
877.716	0.0163401
877.794	0.0162839
877.872	0.0163265
877.950	0.0163695
878.029	0.0163458
878.107	0.0164332
878.185	0.0163198
878.263	0.0165514
878.341	0.0165665
878.419	0.0165136
878.497	0.0164102
878.575	0.0166636
878.654	0.0166201
878.732	0.0164478
878.810	0.0163928
878.888	0.0164426
878.966	0.0163754
879.044	0.0164675
879.122	0.0164166
879.200	0.0164056
879.279	0.0163600
879.357	0.0163876
879.435	0.0163548
879.513	0.0163787
879.591	0.0162688
879.669	0.0164907
879.747	0.0164969
879.825	0.0167107
879.904	0.0165726
879.982	0.0164344
880.060	0.0165293
880.138	0.0166133
880.216	0.0165768
880.294	0.0166566
880.372	0.0166520
880.450	0.0166508
880.529	0.0165191
880.607	0.0165474
880.685	0.0167403
880.763	0.0165742
880.841	0.0164713
880.919	0.0166833
880.997	0.0165644
881.075	0.0165813
881.154	0.0166213
881.232	0.0165799
881.310	0.0165115
881.388	0.0164893
881.466	0.0164846
881.544	0.0164041
881.622	0.0163706
881.700	0.0164722
881.779	0.0164268
881.857	0.0163917
881.935	0.0163365
882.013	0.0162629
882.091	0.0161766
882.169	0.0161809
882.247	0.0163025
882.325	0.0162670
882.404	0.0161616
882.482	0.0161391
882.560	0.0161097
882.638	0.0161315
882.716	0.0161123
882.794	0.0160461
882.872	0.0160815
882.950	0.0160233
883.029	0.0161086
883.107	0.0159618
883.185	0.0160503
883.263	0.0158474
883.341	0.0159464
883.419	0.0160954
883.497	0.0160111
883.575	0.0159579
883.654	0.0159972
883.732	0.0160155
883.810	0.0160231
883.888	0.0161433
883.966	0.0160260
884.044	0.0158874
884.122	0.0159853
884.200	0.0159848
884.279	0.0160184
884.357	0.0158755
884.435	0.0158935
884.513	0.0157619
884.591	0.0159877
884.669	0.0159415
884.747	0.0160303
884.825	0.0160241
884.904	0.0161128
884.982	0.0162040
885.060	0.0161781
885.138	0.0159511
885.216	0.0162307
885.294	0.0162721
885.372	0.0162872
885.450	0.0164639
885.529	0.0162959
885.607	0.0164235
885.685	0.0165069
885.763	0.0164705
885.841	0.0165014
885.919	0.0164050
885.997	0.0165549
886.075	0.0165279
886.154	0.0164787
886.232	0.0164672
886.310	0.0165865
886.388	0.0165052
886.466	0.0164488
886.544	0.0164528
886.622	0.0165311
886.700	0.0163817
886.779	0.0164748
886.857	0.0164616
886.935	0.0165285
887.013	0.0164520
887.091	0.0164030
887.169	0.0165237
887.247	0.0165238
887.325	0.0164234
887.404	0.0164526
887.482	0.0166289
887.560	0.0165441
887.638	0.0165085
887.716	0.0165630
887.794	0.0164459
887.872	0.0165871
887.950	0.0163974
888.029	0.0164659
888.107	0.0165829
888.185	0.0165064
888.263	0.0163721
888.341	0.0164491
888.419	0.0165289
888.497	0.0164738
888.575	0.0163789
888.654	0.0163238
888.732	0.0163404
888.810	0.0163694
888.888	0.0162873
888.966	0.0162115
889.044	0.0163049
889.122	0.0162946
889.200	0.0161319
889.279	0.0161591
889.357	0.0162085
889.435	0.0161608
889.513	0.0161168
889.591	0.0162583
889.669	0.0163290
889.747	0.0161771
889.825	0.0160866
889.904	0.0161491
889.982	0.0161144
890.060	0.0160835
890.138	0.0158671
890.216	0.0158627
890.294	0.0159515
890.372	0.0158968
890.450	0.0159557
890.529	0.0158824
890.607	0.0160297
890.685	0.0159240
890.763	0.0160180
890.841	0.0160435
890.919	0.0161021
890.997	0.0161000
891.075	0.0160998
891.154	0.0161659
891.232	0.0161686
891.310	0.0162387
891.388	0.0162234
891.466	0.0161662
891.544	0.0162755
891.622	0.0163227
891.700	0.0161863
891.779	0.0162538
891.857	0.0162389
891.935	0.0161633
892.013	0.0162189
892.091	0.0162931
892.169	0.0161901
892.247	0.0163307
892.325	0.0163117
892.404	0.0162382
892.482	0.0164689
892.560	0.0162762
892.638	0.0162491
892.716	0.0163345
892.794	0.0163073
892.872	0.0162395
892.950	0.0163153
893.029	0.0163480
893.107	0.0163115
893.185	0.0162795
893.263	0.0164685
893.341	0.0164059
893.419	0.0164371
893.497	0.0163556
893.575	0.0163542
893.654	0.0165051
893.732	0.0165131
893.810	0.0164291
893.888	0.0165221
893.966	0.0166121
894.044	0.0166668
894.122	0.0167228
894.200	0.0166681
894.279	0.0165755
894.357	0.0167057
894.435	0.0166444
894.513	0.0168153
894.591	0.0166889
894.669	0.0165417
894.747	0.0167277
894.825	0.0166722
894.904	0.0166132
894.982	0.0166306
895.060	0.0165630
895.138	0.0165444
895.216	0.0166344
895.294	0.0165987
895.372	0.0163823
895.450	0.0164365
895.529	0.0165091
895.607	0.0164721
895.685	0.0163065
895.763	0.0162730
895.841	0.0163758
895.919	0.0163835
895.997	0.0163553
896.075	0.0164643
896.154	0.0162933
896.232	0.0162579
896.310	0.0163837
896.388	0.0163230
896.466	0.0163799
896.544	0.0163401
896.622	0.0163246
896.700	0.0163654
896.779	0.0164793
896.857	0.0164590
896.935	0.0164058
897.013	0.0164605
897.091	0.0164948
897.169	0.0164333
897.247	0.0163403
897.325	0.0163943
897.404	0.0163862
897.482	0.0163422
897.560	0.0164144
897.638	0.0162063
897.716	0.0163314
897.794	0.0162096
897.872	0.0160246
897.950	0.0161453
898.029	0.0162070
898.107	0.0161679
898.185	0.0160330
898.263	0.0159797
898.341	0.0161117
898.419	0.0161132
898.497	0.0160699
898.575	0.0161689
898.654	0.0162301
898.732	0.0161810
898.810	0.0160261
898.888	0.0162160
898.966	0.0161127
899.044	0.0162735
899.122	0.0160458
899.200	0.0161330
899.279	0.0161597
899.357	0.0160887
899.435	0.0161463
899.513	0.0161839
899.591	0.0161760
899.669	0.0161542
899.747	0.0161110
899.825	0.0162503
899.904	0.0162772
899.982	0.0161887
900.060	0.0163374
900.138	0.0163387
900.216	0.0163881
900.294	0.0163791
900.372	0.0164329
900.450	0.0164664
900.529	0.0164840
900.607	0.0164707
900.685	0.0164342
900.763	0.0164674
900.841	0.0163919
900.919	0.0163464
900.997	0.0165427
901.075	0.0165182
901.154	0.0162988
901.232	0.0163286
901.310	0.0164896
901.388	0.0164371
901.466	0.0164421
901.544	0.0164275
901.622	0.0166143
901.700	0.0166062
901.779	0.0165273
901.857	0.0165133
901.935	0.0165224
902.013	0.0165469
902.091	0.0166727
902.169	0.0165453
902.247	0.0164922
902.325	0.0167124
902.404	0.0164127
902.482	0.0165230
902.560	0.0165334
902.638	0.0164338
902.716	0.0164777
902.794	0.0165842
902.872	0.0164820
902.950	0.0164378
903.029	0.0165117
903.107	0.0164019
903.185	0.0164464
903.263	0.0163042
903.341	0.0162098
903.419	0.0163356
903.497	0.0163129
903.575	0.0164449
903.654	0.0163072
903.732	0.0162959
903.810	0.0164023
903.888	0.0163280
903.966	0.0161688
904.044	0.0161379
904.122	0.0161977
904.200	0.0163399
904.279	0.0161369
904.357	0.0161388
904.435	0.0161593
904.513	0.0161691
904.591	0.0160361
904.669	0.0161503
904.747	0.0160376
904.825	0.0160903
904.904	0.0161391
904.982	0.0162082
905.060	0.0159756
905.138	0.0161500
905.216	0.0162459
905.294	0.0160861
905.372	0.0161594
905.450	0.0162087
905.529	0.0160772
905.607	0.0161507
905.685	0.0161619
905.763	0.0161511
905.841	0.0160491
905.919	0.0160352
905.997	0.0159898
906.075	0.0160117
906.154	0.0161130
906.232	0.0161012
906.310	0.0160487
906.388	0.0162444
906.466	0.0162386
906.544	0.0160976
906.622	0.0161305
906.700	0.0162578
906.779	0.0161395
906.857	0.0161554
906.935	0.0162498
907.013	0.0162455
907.091	0.0162595
907.169	0.0163369
907.247	0.0163064
907.325	0.0163309
907.404	0.0162160
907.482	0.0162863
907.560	0.0161895
907.638	0.0162395
907.716	0.0162772
907.794	0.0162481
907.872	0.0164494
907.950	0.0163762
908.029	0.0163937
908.107	0.0163148
908.185	0.0163876
908.263	0.0164445
908.341	0.0166496
908.419	0.0164796
908.497	0.0163879
908.575	0.0164695
908.654	0.0165183
908.732	0.0165659
908.810	0.0164916
908.888	0.0164655
908.966	0.0164700
909.044	0.0163969
909.122	0.0162974
909.200	0.0163724
909.279	0.0164362
909.357	0.0162231
909.435	0.0163373
909.513	0.0162238
909.591	0.0163044
909.669	0.0162671
909.747	0.0162007
909.825	0.0160818
909.904	0.0162148
909.982	0.0163955
910.060	0.0162360
910.138	0.0163556
910.216	0.0164131
910.294	0.0164068
910.372	0.0162557
910.450	0.0164309
910.529	0.0164062
910.607	0.0164907
910.685	0.0164462
910.763	0.0164697
910.841	0.0166032
910.919	0.0165704
910.997	0.0163968
911.075	0.0165004
911.154	0.0165110
911.232	0.0164052
911.310	0.0164581
911.388	0.0163835
911.466	0.0164279
911.544	0.0165033
911.622	0.0163377
911.700	0.0162872
911.779	0.0163017
911.857	0.0162929
911.935	0.0164083
912.013	0.0163562
912.091	0.0162905
912.169	0.0162415
912.247	0.0162948
912.325	0.0161346
912.404	0.0160931
912.482	0.0162518
912.560	0.0161814
912.638	0.0160815
912.716	0.0161403
912.794	0.0160754
912.872	0.0160909
912.950	0.0159896
913.029	0.0161006
913.107	0.0160961
913.185	0.0160543
913.263	0.0160633
913.341	0.0161632
913.419	0.0160836
913.497	0.0160376
913.575	0.0161725
913.654	0.0162081
913.732	0.0161663
913.810	0.0162498
913.888	0.0162099
913.966	0.0162392
914.044	0.0164034
914.122	0.0163690
914.200	0.0164973
914.279	0.0163888
914.357	0.0162981
914.435	0.0162296
914.513	0.0164500
914.591	0.0163041
914.669	0.0162723
914.747	0.0162711
914.825	0.0161453
914.904	0.0162144
914.982	0.0162003
915.060	0.0162130
915.138	0.0163245
915.216	0.0161680
915.294	0.0161880
915.372	0.0162299
915.450	0.0162566
915.529	0.0161980
915.607	0.0161842
915.685	0.0163146
915.763	0.0162723
915.841	0.0162954
915.919	0.0163512
915.997	0.0165141
916.075	0.0164780
916.154	0.0164515
916.232	0.0165662
916.310	0.0164909
916.388	0.0163957
916.466	0.0165361
916.544	0.0165150
916.622	0.0164376
916.700	0.0164059
916.779	0.0165214
916.857	0.0165509
916.935	0.0164851
917.013	0.0164568
917.091	0.0164488
917.169	0.0163331
917.247	0.0164269
917.325	0.0163874
917.404	0.0164243
917.482	0.0164961
917.560	0.0164159
917.638	0.0163793
917.716	0.0164262
917.794	0.0164520
917.872	0.0165846
917.950	0.0165588
918.029	0.0164887
918.107	0.0164732
918.185	0.0163592
918.263	0.0163144
918.341	0.0164177
918.419	0.0164159
918.497	0.0164180
918.575	0.0164262
918.654	0.0164331
918.732	0.0164311
918.810	0.0164067
918.888	0.0163245
918.966	0.0162330
919.044	0.0162340
919.122	0.0164442
919.200	0.0162840
919.279	0.0163264
919.357	0.0162442
919.435	0.0162523
919.513	0.0161754
919.591	0.0162215
919.669	0.0160290
919.747	0.0161729
919.825	0.0162183
919.904	0.0162609
