05/24/2022	20:32:20	Ver.	4.1	UNKNOWN
Optical Delay	599.981738	Delta X		0.078125	Sweeps	1	Scan Rate	0/0
Coordinates	Axis 1	NaN	Axis 2	NaN	Axis 3	NaN	Axis 4	NaN	Axis 5	NaN	Axis 6	0.000000
TX Power	0.000000	RX Power	0.000000

599.982	0.0164520
600.060	0.0162810
600.138	0.0163501
600.216	0.0163614
600.294	0.0164520
600.372	0.0163921
600.450	0.0162309
600.529	0.0162398
600.607	0.0162526
600.685	0.0162243
600.763	0.0162827
600.841	0.0161978
600.919	0.0162142
600.997	0.0163451
601.075	0.0163107
601.154	0.0163165
601.232	0.0163979
601.310	0.0164570
601.388	0.0164797
601.466	0.0164863
601.544	0.0166286
601.622	0.0165143
601.700	0.0165809
601.779	0.0166611
601.857	0.0166341
601.935	0.0165831
602.013	0.0165297
602.091	0.0166399
602.169	0.0165872
602.247	0.0166192
602.325	0.0164493
602.404	0.0165958
602.482	0.0165091
602.560	0.0164541
602.638	0.0164573
602.716	0.0164407
602.794	0.0164611
602.872	0.0164805
602.950	0.0164237
603.029	0.0163809
603.107	0.0163789
603.185	0.0164462
603.263	0.0163729
603.341	0.0164478
603.419	0.0163098
603.497	0.0164365
603.575	0.0163562
603.654	0.0162920
603.732	0.0163364
603.810	0.0162440
603.888	0.0164195
603.966	0.0163255
604.044	0.0162910
604.122	0.0162988
604.200	0.0163132
604.279	0.0162422
604.357	0.0162898
604.435	0.0163806
604.513	0.0163950
604.591	0.0163183
604.669	0.0162332
604.747	0.0163921
604.825	0.0164901
604.904	0.0165018
604.982	0.0165405
605.060	0.0164051
605.138	0.0164244
605.216	0.0166042
605.294	0.0166728
605.372	0.0165546
605.450	0.0166644
605.529	0.0166133
605.607	0.0165855
605.685	0.0167057
605.763	0.0166496
605.841	0.0166605
605.919	0.0165861
605.997	0.0167165
606.075	0.0166365
606.154	0.0166601
606.232	0.0166017
606.310	0.0165582
606.388	0.0166567
606.466	0.0165984
606.544	0.0163725
606.622	0.0164986
606.700	0.0165971
606.779	0.0163822
606.857	0.0165761
606.935	0.0164282
607.013	0.0163499
607.091	0.0162562
607.169	0.0162984
607.247	0.0161871
607.325	0.0160983
607.404	0.0162891
607.482	0.0160815
607.560	0.0162016
607.638	0.0160423
607.716	0.0161032
607.794	0.0161122
607.872	0.0162688
607.950	0.0161569
608.029	0.0162006
608.107	0.0160867
608.185	0.0162140
608.263	0.0163205
608.341	0.0164573
608.419	0.0163830
608.497	0.0162696
608.575	0.0164302
608.654	0.0165823
608.732	0.0165834
608.810	0.0165643
608.888	0.0165476
608.966	0.0166474
609.044	0.0168018
609.122	0.0167250
609.200	0.0167859
609.279	0.0168467
609.357	0.0167154
609.435	0.0167936
609.513	0.0167117
609.591	0.0167325
609.669	0.0167791
609.747	0.0168224
609.825	0.0166238
609.904	0.0166517
609.982	0.0166402
610.060	0.0166113
610.138	0.0163322
610.216	0.0163336
610.294	0.0164191
610.372	0.0162775
610.450	0.0161652
610.529	0.0163451
610.607	0.0163233
610.685	0.0161951
610.763	0.0159718
610.841	0.0162720
610.919	0.0161984
610.997	0.0161010
611.075	0.0161723
611.154	0.0163258
611.232	0.0160650
611.310	0.0160492
611.388	0.0161556
611.466	0.0162026
611.544	0.0163027
611.622	0.0163268
611.700	0.0163553
611.779	0.0164260
611.857	0.0164748
611.935	0.0164440
612.013	0.0165991
612.091	0.0165350
612.169	0.0165478
612.247	0.0164894
612.325	0.0165657
612.404	0.0165556
612.482	0.0166038
612.560	0.0167409
612.638	0.0165968
612.716	0.0167129
612.794	0.0166671
612.872	0.0166110
612.950	0.0165788
613.029	0.0165572
613.107	0.0164948
613.185	0.0165472
613.263	0.0166344
613.341	0.0165456
613.419	0.0164992
613.497	0.0164146
613.575	0.0165202
613.654	0.0165905
613.732	0.0165586
613.810	0.0165510
613.888	0.0164156
613.966	0.0163943
614.044	0.0163472
614.122	0.0164027
614.200	0.0165343
614.279	0.0163788
614.357	0.0165367
614.435	0.0163057
614.513	0.0162747
614.591	0.0163535
614.669	0.0163761
614.747	0.0164040
614.825	0.0162674
614.904	0.0163597
614.982	0.0161750
615.060	0.0161594
615.138	0.0162502
615.216	0.0162360
615.294	0.0164352
615.372	0.0162748
615.450	0.0161889
615.529	0.0161373
615.607	0.0164102
615.685	0.0164185
615.763	0.0164442
615.841	0.0164180
615.919	0.0165733
615.997	0.0165652
616.075	0.0165984
616.154	0.0167822
616.232	0.0167397
616.310	0.0166451
616.388	0.0168486
616.466	0.0169130
616.544	0.0168915
616.622	0.0167194
616.700	0.0165874
616.779	0.0167234
616.857	0.0165112
616.935	0.0166644
617.013	0.0166389
617.091	0.0165287
617.169	0.0163538
617.247	0.0163689
617.325	0.0163277
617.404	0.0163197
617.482	0.0162537
617.560	0.0161800
617.638	0.0162407
617.716	0.0161524
617.794	0.0161904
617.872	0.0163046
617.950	0.0162608
618.029	0.0162815
618.107	0.0162344
618.185	0.0162652
618.263	0.0162633
618.341	0.0162336
618.419	0.0164883
618.497	0.0164882
618.575	0.0166559
618.654	0.0164175
618.732	0.0164939
618.810	0.0165892
618.888	0.0167028
618.966	0.0166718
619.044	0.0164924
619.122	0.0164318
619.200	0.0166642
619.279	0.0166650
619.357	0.0165415
619.435	0.0165462
619.513	0.0163645
619.591	0.0164670
619.669	0.0162922
619.747	0.0164304
619.825	0.0163100
619.904	0.0163014
619.982	0.0162739
620.060	0.0162105
620.138	0.0162483
620.216	0.0164162
620.294	0.0162125
620.372	0.0162566
620.450	0.0162305
620.529	0.0163247
620.607	0.0164859
620.685	0.0164454
620.763	0.0164799
620.841	0.0165204
620.919	0.0165183
620.997	0.0165209
621.075	0.0165630
621.154	0.0166481
621.232	0.0165570
621.310	0.0166163
621.388	0.0166342
621.466	0.0165273
621.544	0.0166078
621.622	0.0166918
621.700	0.0164506
621.779	0.0164310
621.857	0.0164986
621.935	0.0163369
622.013	0.0161998
622.091	0.0162840
622.169	0.0161865
622.247	0.0162804
622.325	0.0161557
622.404	0.0161936
622.482	0.0161357
622.560	0.0162312
622.638	0.0162129
622.716	0.0161786
622.794	0.0164484
622.872	0.0163326
622.950	0.0163377
623.029	0.0164104
623.107	0.0163505
623.185	0.0164616
623.263	0.0164849
623.341	0.0163972
623.419	0.0164829
623.497	0.0166129
623.575	0.0165812
623.654	0.0164902
623.732	0.0164535
623.810	0.0165951
623.888	0.0166729
623.966	0.0166842
624.044	0.0165492
624.122	0.0166579
624.200	0.0165588
624.279	0.0165316
624.357	0.0164987
624.435	0.0165334
624.513	0.0164574
624.591	0.0164362
624.669	0.0164445
624.747	0.0164056
624.825	0.0164598
624.904	0.0164101
624.982	0.0163351
625.060	0.0163821
625.138	0.0162939
625.216	0.0163068
625.294	0.0163496
625.372	0.0163203
625.450	0.0163699
625.529	0.0163908
625.607	0.0163685
625.685	0.0164259
625.763	0.0164503
625.841	0.0164014
625.919	0.0164706
625.997	0.0165071
626.075	0.0165253
626.154	0.0165498
626.232	0.0164172
626.310	0.0164098
626.388	0.0164498
626.466	0.0164476
626.544	0.0163893
626.622	0.0164684
626.700	0.0165356
626.779	0.0163905
626.857	0.0162579
626.935	0.0163820
627.013	0.0164438
627.091	0.0163824
627.169	0.0163710
627.247	0.0164380
627.325	0.0164011
627.404	0.0163493
627.482	0.0163902
627.560	0.0164237
627.638	0.0165372
627.716	0.0164080
627.794	0.0163371
627.872	0.0165686
627.950	0.0164473
628.029	0.0164539
628.107	0.0164940
628.185	0.0164288
628.263	0.0164852
628.341	0.0163943
628.419	0.0164357
628.497	0.0166156
628.575	0.0164775
628.654	0.0163539
628.732	0.0165290
628.810	0.0164751
628.888	0.0164977
628.966	0.0163823
629.044	0.0164608
629.122	0.0165142
629.200	0.0164574
629.279	0.0164861
629.357	0.0164793
629.435	0.0163472
629.513	0.0163155
629.591	0.0164018
629.669	0.0162137
629.747	0.0163602
629.825	0.0162051
629.904	0.0162103
629.982	0.0162710
630.060	0.0163902
630.138	0.0163628
630.216	0.0164296
630.294	0.0164468
630.372	0.0164018
630.450	0.0162822
630.529	0.0163557
630.607	0.0165803
630.685	0.0166505
630.763	0.0164557
630.841	0.0165518
630.919	0.0166457
630.997	0.0166298
631.075	0.0166342
631.154	0.0166571
631.232	0.0166316
631.310	0.0167759
631.388	0.0167683
631.466	0.0167465
631.544	0.0168526
631.622	0.0166167
631.700	0.0166570
631.779	0.0165819
631.857	0.0166944
631.935	0.0166097
632.013	0.0164577
632.091	0.0163996
632.169	0.0164230
632.247	0.0163380
632.325	0.0163440
632.404	0.0162732
632.482	0.0163111
632.560	0.0163505
632.638	0.0161522
632.716	0.0162105
632.794	0.0162907
632.872	0.0162907
632.950	0.0162120
633.029	0.0165494
633.107	0.0163434
633.185	0.0164349
633.263	0.0165813
633.341	0.0164017
633.419	0.0164986
633.497	0.0167508
633.575	0.0166496
633.654	0.0166578
633.732	0.0167473
633.810	0.0165012
633.888	0.0164749
633.966	0.0166613
634.044	0.0165498
634.122	0.0166102
634.200	0.0165673
634.279	0.0165641
634.357	0.0165174
634.435	0.0165053
634.513	0.0164527
634.591	0.0165267
634.669	0.0163618
634.747	0.0164437
634.825	0.0165623
634.904	0.0163200
634.982	0.0165053
635.060	0.0165788
635.138	0.0165263
635.216	0.0165977
635.294	0.0166178
635.372	0.0164795
635.450	0.0165796
635.529	0.0165260
635.607	0.0166673
635.685	0.0165311
635.763	0.0164176
635.841	0.0164227
635.919	0.0166033
635.997	0.0166113
636.075	0.0165733
636.154	0.0164742
636.232	0.0164072
636.310	0.0163940
636.388	0.0164203
636.466	0.0163474
636.544	0.0162667
636.622	0.0164379
636.700	0.0164737
636.779	0.0163465
636.857	0.0163990
636.935	0.0165347
637.013	0.0163856
637.091	0.0163746
637.169	0.0164211
637.247	0.0163785
637.325	0.0165327
637.404	0.0164986
637.482	0.0165389
637.560	0.0164379
637.638	0.0165384
637.716	0.0165816
637.794	0.0164381
637.872	0.0164767
637.950	0.0165703
638.029	0.0166154
638.107	0.0165562
638.185	0.0165507
638.263	0.0163964
638.341	0.0165459
638.419	0.0165995
638.497	0.0164722
638.575	0.0164651
638.654	0.0166918
638.732	0.0163848
638.810	0.0164772
638.888	0.0164081
638.966	0.0163080
639.044	0.0163353
639.122	0.0164616
639.200	0.0162907
639.279	0.0164220
639.357	0.0162247
639.435	0.0163468
639.513	0.0162410
639.591	0.0162933
639.669	0.0164100
639.747	0.0163185
639.825	0.0163809
639.904	0.0163928
639.982	0.0165292
640.060	0.0164359
640.138	0.0164941
640.216	0.0165370
640.294	0.0165227
640.372	0.0163550
640.450	0.0164029
640.529	0.0164318
640.607	0.0163981
640.685	0.0163084
640.763	0.0164257
640.841	0.0163063
640.919	0.0164212
640.997	0.0164526
641.075	0.0164070
641.154	0.0164303
641.232	0.0163895
641.310	0.0165298
641.388	0.0163528
641.466	0.0163374
641.544	0.0164061
641.622	0.0165711
641.700	0.0164758
641.779	0.0165247
641.857	0.0164932
641.935	0.0164641
642.013	0.0164539
642.091	0.0165025
642.169	0.0165708
642.247	0.0164919
642.325	0.0164830
642.404	0.0164191
642.482	0.0163773
642.560	0.0164539
642.638	0.0164194
642.716	0.0163242
642.794	0.0163129
642.872	0.0161824
642.950	0.0163034
643.029	0.0163227
643.107	0.0161541
643.185	0.0161747
643.263	0.0162536
643.341	0.0160907
643.419	0.0160912
643.497	0.0161806
643.575	0.0161438
643.654	0.0162521
643.732	0.0164050
643.810	0.0162961
643.888	0.0164615
643.966	0.0164989
644.044	0.0165327
644.122	0.0167432
644.200	0.0167361
644.279	0.0169220
644.357	0.0168882
644.435	0.0168793
644.513	0.0169866
644.591	0.0169955
644.669	0.0168988
644.747	0.0169851
644.825	0.0168185
644.904	0.0168214
644.982	0.0168742
645.060	0.0168191
645.138	0.0165933
645.216	0.0166807
645.294	0.0164027
645.372	0.0162516
645.450	0.0161465
645.529	0.0160989
645.607	0.0158430
645.685	0.0156884
645.763	0.0156644
645.841	0.0156408
645.919	0.0155938
645.997	0.0157388
646.075	0.0157579
646.154	0.0160398
646.232	0.0159424
646.310	0.0161357
646.388	0.0162089
646.466	0.0164576
646.544	0.0165495
646.622	0.0167746
646.700	0.0170606
646.779	0.0170616
646.857	0.0173013
646.935	0.0173943
647.013	0.0175137
647.091	0.0177403
647.169	0.0176987
647.247	0.0175861
647.325	0.0176588
647.404	0.0175980
647.482	0.0174369
647.560	0.0172713
647.638	0.0172315
647.716	0.0168681
647.794	0.0164645
647.872	0.0162698
647.950	0.0158352
648.029	0.0155791
648.107	0.0154330
648.185	0.0151244
648.263	0.0148869
648.341	0.0148177
648.419	0.0148103
648.497	0.0147613
648.575	0.0145985
648.654	0.0147497
648.732	0.0147623
648.810	0.0149903
648.888	0.0151049
648.966	0.0155447
649.044	0.0157612
649.122	0.0160910
649.200	0.0165498
649.279	0.0167441
649.357	0.0171759
649.435	0.0174549
649.513	0.0177265
649.591	0.0181016
649.669	0.0182387
649.747	0.0183332
649.825	0.0185675
649.904	0.0185556
649.982	0.0187292
650.060	0.0185709
650.138	0.0183222
650.216	0.0182730
650.294	0.0179655
650.372	0.0177906
650.450	0.0174398
650.529	0.0170542
650.607	0.0168411
650.685	0.0165850
650.763	0.0162827
650.841	0.0159477
650.919	0.0156139
650.997	0.0153342
651.075	0.0152567
651.154	0.0151058
651.232	0.0148472
651.310	0.0148335
651.388	0.0147652
651.466	0.0146910
651.544	0.0146760
651.622	0.0146780
651.700	0.0146175
651.779	0.0148720
651.857	0.0149834
651.935	0.0150352
652.013	0.0153374
652.091	0.0153927
652.169	0.0156499
652.247	0.0159651
652.325	0.0161885
652.404	0.0164484
652.482	0.0166780
652.560	0.0170938
652.638	0.0171397
652.716	0.0176193
652.794	0.0177978
652.872	0.0180991
652.950	0.0180929
653.029	0.0181274
653.107	0.0183245
653.185	0.0183320
653.263	0.0183815
653.341	0.0183218
653.419	0.0183674
653.497	0.0181274
653.575	0.0179202
653.654	0.0177004
653.732	0.0174194
653.810	0.0173332
653.888	0.0169460
653.966	0.0166444
654.044	0.0164222
654.122	0.0161278
654.200	0.0156235
654.279	0.0154170
654.357	0.0151299
654.435	0.0148828
654.513	0.0146685
654.591	0.0146088
654.669	0.0146279
654.747	0.0143530
654.825	0.0143056
654.904	0.0145139
654.982	0.0146196
655.060	0.0148902
655.138	0.0150703
655.216	0.0153262
655.294	0.0157760
655.372	0.0161560
655.450	0.0165113
655.529	0.0169631
655.607	0.0172194
655.685	0.0176167
655.763	0.0178848
655.841	0.0180822
655.919	0.0182450
655.997	0.0183112
656.075	0.0180727
656.154	0.0179078
656.232	0.0180606
656.310	0.0177021
656.388	0.0175706
656.466	0.0172585
656.544	0.0171486
656.622	0.0169797
656.700	0.0166994
656.779	0.0165842
656.857	0.0163902
656.935	0.0161719
657.013	0.0159690
657.091	0.0159885
657.169	0.0158413
657.247	0.0157559
657.325	0.0156315
657.404	0.0153628
657.482	0.0151855
657.560	0.0151102
657.638	0.0150636
657.716	0.0149433
657.794	0.0148795
657.872	0.0148773
657.950	0.0149889
658.029	0.0150666
658.107	0.0152255
658.185	0.0152875
658.263	0.0154014
658.341	0.0157646
658.419	0.0160320
658.497	0.0163678
658.575	0.0166882
658.654	0.0169802
658.732	0.0172496
658.810	0.0175913
658.888	0.0180937
658.966	0.0181638
659.044	0.0185000
659.122	0.0188467
659.200	0.0189683
659.279	0.0189902
659.357	0.0192352
659.435	0.0191293
659.513	0.0191982
659.591	0.0189912
659.669	0.0188535
659.747	0.0185468
659.825	0.0182639
659.904	0.0179817
659.982	0.0175362
660.060	0.0171418
660.138	0.0165712
660.216	0.0161599
660.294	0.0156361
660.372	0.0153740
660.450	0.0148563
660.529	0.0143688
660.607	0.0143707
660.685	0.0138495
660.763	0.0137696
660.841	0.0136111
660.919	0.0134149
660.997	0.0134141
661.075	0.0131701
661.154	0.0133976
661.232	0.0134392
661.310	0.0135551
661.388	0.0136810
661.466	0.0138384
661.544	0.0142778
661.622	0.0146754
661.700	0.0149049
661.779	0.0152914
661.857	0.0156939
661.935	0.0160548
662.013	0.0164719
662.091	0.0169630
662.169	0.0174758
662.247	0.0177969
662.325	0.0180947
662.404	0.0184502
662.482	0.0186665
662.560	0.0190133
662.638	0.0191355
662.716	0.0192890
662.794	0.0192196
662.872	0.0192957
662.950	0.0191844
663.029	0.0190871
663.107	0.0190146
663.185	0.0186349
663.263	0.0184906
663.341	0.0183100
663.419	0.0179824
663.497	0.0179129
663.575	0.0176438
663.654	0.0173859
663.732	0.0170387
663.810	0.0169373
663.888	0.0167587
663.966	0.0166562
664.044	0.0163317
664.122	0.0162960
664.200	0.0161163
664.279	0.0157944
664.357	0.0158461
664.435	0.0157076
664.513	0.0157059
664.591	0.0153710
664.669	0.0153478
664.747	0.0151797
664.825	0.0151846
664.904	0.0150153
664.982	0.0147723
665.060	0.0146595
665.138	0.0144637
665.216	0.0144988
665.294	0.0145431
665.372	0.0144527
665.450	0.0145451
665.529	0.0145590
665.607	0.0146061
665.685	0.0146815
665.763	0.0148055
665.841	0.0149076
665.919	0.0149767
665.997	0.0150134
666.075	0.0151871
666.154	0.0153991
666.232	0.0154384
666.310	0.0156101
666.388	0.0155928
666.466	0.0158304
666.544	0.0161223
666.622	0.0162474
666.700	0.0165527
666.779	0.0167928
666.857	0.0170576
666.935	0.0174064
667.013	0.0177722
667.091	0.0181896
667.169	0.0184470
667.247	0.0188074
667.325	0.0189744
667.404	0.0193769
667.482	0.0196453
667.560	0.0197139
667.638	0.0197514
667.716	0.0198193
667.794	0.0198295
667.872	0.0197364
667.950	0.0195216
668.029	0.0192893
668.107	0.0190011
668.185	0.0185137
668.263	0.0180772
668.341	0.0174389
668.419	0.0169823
668.497	0.0163626
668.575	0.0156369
668.654	0.0150629
668.732	0.0146003
668.810	0.0139668
668.888	0.0135706
668.966	0.0133237
669.044	0.0134662
669.122	0.0133658
669.200	0.0134692
669.279	0.0137606
669.357	0.0141317
669.435	0.0144213
669.513	0.0148466
669.591	0.0153450
669.669	0.0156010
669.747	0.0159063
669.825	0.0159924
669.904	0.0161865
669.982	0.0161938
670.060	0.0164165
670.138	0.0163466
670.216	0.0162722
670.294	0.0162871
670.372	0.0163447
670.450	0.0164061
670.529	0.0163982
670.607	0.0164412
670.685	0.0164739
670.763	0.0164171
670.841	0.0166631
670.919	0.0167966
670.997	0.0168744
671.075	0.0168813
671.154	0.0168259
671.232	0.0169470
671.310	0.0169163
671.388	0.0169345
671.466	0.0167698
671.544	0.0166282
671.622	0.0163880
671.700	0.0160537
671.779	0.0160725
671.857	0.0158495
671.935	0.0157575
672.013	0.0157503
672.091	0.0157977
672.169	0.0156629
672.247	0.0157937
672.325	0.0159438
672.404	0.0163663
672.482	0.0164680
672.560	0.0169747
672.638	0.0173667
672.716	0.0175253
672.794	0.0179410
672.872	0.0182667
672.950	0.0184138
673.029	0.0186566
673.107	0.0188016
673.185	0.0188668
673.263	0.0188692
673.341	0.0188151
673.419	0.0186560
673.497	0.0185754
673.575	0.0183350
673.654	0.0179289
673.732	0.0175881
673.810	0.0173613
673.888	0.0169427
673.966	0.0165804
674.044	0.0162529
674.122	0.0157194
674.200	0.0154359
674.279	0.0148068
674.357	0.0145488
674.435	0.0144708
674.513	0.0140797
674.591	0.0138966
674.669	0.0136097
674.747	0.0136716
674.825	0.0137283
674.904	0.0136503
674.982	0.0138350
675.060	0.0139364
675.138	0.0141331
675.216	0.0143822
675.294	0.0145731
675.372	0.0149381
675.450	0.0152133
675.529	0.0156113
675.607	0.0157049
675.685	0.0161788
675.763	0.0165855
675.841	0.0168631
675.919	0.0170097
675.997	0.0175353
676.075	0.0179931
676.154	0.0180748
676.232	0.0184167
676.310	0.0186317
676.388	0.0188389
676.466	0.0190668
676.544	0.0189886
676.622	0.0188474
676.700	0.0188938
676.779	0.0186132
676.857	0.0183456
676.935	0.0179859
677.013	0.0173872
677.091	0.0169715
677.169	0.0165131
677.247	0.0162598
677.325	0.0157425
677.404	0.0152920
677.482	0.0151759
677.560	0.0149088
677.638	0.0146054
677.716	0.0146882
677.794	0.0147413
677.872	0.0146926
677.950	0.0147016
678.029	0.0149016
678.107	0.0149705
678.185	0.0152268
678.263	0.0155405
678.341	0.0157381
678.419	0.0159462
678.497	0.0163304
678.575	0.0165044
678.654	0.0168381
678.732	0.0170530
678.810	0.0174037
678.888	0.0176566
678.966	0.0177908
679.044	0.0180208
679.122	0.0181331
679.200	0.0180133
679.279	0.0181341
679.357	0.0179211
679.435	0.0176432
679.513	0.0176068
679.591	0.0173208
679.669	0.0168718
679.747	0.0166250
679.825	0.0163445
679.904	0.0161569
679.982	0.0156635
680.060	0.0157035
680.138	0.0153395
680.216	0.0152799
680.294	0.0152409
680.372	0.0152782
680.450	0.0154051
680.529	0.0154992
680.607	0.0154916
680.685	0.0157024
680.763	0.0161195
680.841	0.0163086
680.919	0.0164484
680.997	0.0166407
681.075	0.0169168
681.154	0.0170364
681.232	0.0171233
681.310	0.0173216
681.388	0.0172366
681.466	0.0173992
681.544	0.0172009
681.622	0.0170454
681.700	0.0168758
681.779	0.0166267
681.857	0.0163445
681.935	0.0159390
682.013	0.0157433
682.091	0.0156770
682.169	0.0153722
682.247	0.0152483
682.325	0.0150753
682.404	0.0149445
682.482	0.0150023
682.560	0.0151192
682.638	0.0150888
682.716	0.0154829
682.794	0.0157083
682.872	0.0158982
682.950	0.0163581
683.029	0.0167191
683.107	0.0169473
683.185	0.0173815
683.263	0.0177176
683.341	0.0179719
683.419	0.0181374
683.497	0.0182279
683.575	0.0185749
683.654	0.0182415
683.732	0.0180652
683.810	0.0181235
683.888	0.0178776
683.966	0.0174583
684.044	0.0171841
684.122	0.0168748
684.200	0.0167355
684.279	0.0163871
684.357	0.0161392
684.435	0.0159789
684.513	0.0154897
684.591	0.0154785
684.669	0.0152013
684.747	0.0152022
684.825	0.0150262
684.904	0.0150567
684.982	0.0149653
685.060	0.0150341
685.138	0.0149717
685.216	0.0149296
685.294	0.0151425
685.372	0.0152197
685.450	0.0154025
685.529	0.0155104
685.607	0.0157658
685.685	0.0159708
685.763	0.0163208
685.841	0.0165538
685.919	0.0167101
685.997	0.0170061
686.075	0.0172067
686.154	0.0174837
686.232	0.0176383
686.310	0.0177126
686.388	0.0179709
686.466	0.0181152
686.544	0.0180675
686.622	0.0181898
686.700	0.0180640
686.779	0.0179971
686.857	0.0178210
686.935	0.0175797
687.013	0.0173704
687.091	0.0171085
687.169	0.0167702
687.247	0.0162907
687.325	0.0160786
687.404	0.0158363
687.482	0.0154671
687.560	0.0153058
687.638	0.0153098
687.716	0.0150732
687.794	0.0149554
687.872	0.0150608
687.950	0.0151168
688.029	0.0154490
688.107	0.0155404
688.185	0.0157848
688.263	0.0160655
688.341	0.0161275
688.419	0.0165848
688.497	0.0169261
688.575	0.0170494
688.654	0.0170694
688.732	0.0172549
688.810	0.0172801
688.888	0.0172558
688.966	0.0171474
689.044	0.0172570
689.122	0.0171021
689.200	0.0169138
689.279	0.0167782
689.357	0.0165744
689.435	0.0165038
689.513	0.0162727
689.591	0.0162307
689.669	0.0161685
689.747	0.0158597
689.825	0.0159987
689.904	0.0157822
689.982	0.0157061
690.060	0.0157693
690.138	0.0155490
690.216	0.0154758
690.294	0.0154440
690.372	0.0154958
690.450	0.0154670
690.529	0.0154807
690.607	0.0156447
690.685	0.0158544
690.763	0.0160879
690.841	0.0160763
690.919	0.0162946
690.997	0.0165797
691.075	0.0166810
691.154	0.0167954
691.232	0.0168118
691.310	0.0170819
691.388	0.0171662
691.466	0.0170085
691.544	0.0170536
691.622	0.0169823
691.700	0.0169008
691.779	0.0167662
691.857	0.0167801
691.935	0.0168521
692.013	0.0167247
692.091	0.0167579
692.169	0.0166989
692.247	0.0167769
692.325	0.0170472
692.404	0.0170399
692.482	0.0170909
692.560	0.0172706
692.638	0.0174960
692.716	0.0176125
692.794	0.0175530
692.872	0.0173050
692.950	0.0173753
693.029	0.0173545
693.107	0.0170766
693.185	0.0169625
693.263	0.0168424
693.341	0.0167908
693.419	0.0166710
693.497	0.0165201
693.575	0.0163508
693.654	0.0164318
693.732	0.0163552
693.810	0.0164313
693.888	0.0163223
693.966	0.0162394
694.044	0.0161245
694.122	0.0161381
694.200	0.0159566
694.279	0.0158854
694.357	0.0157871
694.435	0.0157404
694.513	0.0155731
694.591	0.0155314
694.669	0.0153049
694.747	0.0153345
694.825	0.0153706
694.904	0.0153958
694.982	0.0153739
695.060	0.0153420
695.138	0.0153454
695.216	0.0153311
695.294	0.0152095
695.372	0.0153054
695.450	0.0153114
695.529	0.0153988
695.607	0.0154030
695.685	0.0154186
695.763	0.0155788
695.841	0.0155390
695.919	0.0156335
695.997	0.0156876
696.075	0.0158707
696.154	0.0160534
696.232	0.0162220
696.310	0.0164370
696.388	0.0166384
696.466	0.0168510
696.544	0.0167999
696.622	0.0171809
696.700	0.0175230
696.779	0.0175564
696.857	0.0176546
696.935	0.0178781
697.013	0.0178838
697.091	0.0180930
697.169	0.0182140
697.247	0.0181522
697.325	0.0182216
697.404	0.0182037
697.482	0.0179606
697.560	0.0179449
697.638	0.0177120
697.716	0.0175713
697.794	0.0173764
697.872	0.0172067
697.950	0.0170113
698.029	0.0167477
698.107	0.0165820
698.185	0.0164536
698.263	0.0162973
698.341	0.0162143
698.419	0.0162997
698.497	0.0162199
698.575	0.0161213
698.654	0.0161083
698.732	0.0161905
698.810	0.0162350
698.888	0.0162415
698.966	0.0162925
699.044	0.0163268
699.122	0.0164373
699.200	0.0165394
699.279	0.0165104
699.357	0.0162982
699.435	0.0163671
699.513	0.0164947
699.591	0.0161518
699.669	0.0161106
699.747	0.0161095
699.825	0.0160937
699.904	0.0158705
699.982	0.0157561
700.060	0.0155937
700.138	0.0153790
700.216	0.0154482
700.294	0.0153470
700.372	0.0151582
700.450	0.0149989
700.529	0.0150037
700.607	0.0151548
700.685	0.0151559
700.763	0.0151640
700.841	0.0151453
700.919	0.0153403
700.997	0.0152807
701.075	0.0154371
701.154	0.0155764
701.232	0.0156496
701.310	0.0156392
701.388	0.0158170
701.466	0.0159659
701.544	0.0160532
701.622	0.0161330
701.700	0.0162663
701.779	0.0164021
701.857	0.0166379
701.935	0.0168118
702.013	0.0168422
702.091	0.0171154
702.169	0.0171391
702.247	0.0174045
702.325	0.0174233
702.404	0.0175970
702.482	0.0175541
702.560	0.0177254
702.638	0.0177619
702.716	0.0175622
702.794	0.0175216
702.872	0.0177271
702.950	0.0176569
703.029	0.0177200
703.107	0.0175461
703.185	0.0174768
703.263	0.0175076
703.341	0.0175164
703.419	0.0173808
703.497	0.0172227
703.575	0.0171081
703.654	0.0169879
703.732	0.0168384
703.810	0.0167642
703.888	0.0167829
703.966	0.0166866
704.044	0.0165130
704.122	0.0166318
704.200	0.0165002
704.279	0.0164085
704.357	0.0164021
704.435	0.0163448
704.513	0.0162595
704.591	0.0163264
704.669	0.0163480
704.747	0.0161432
704.825	0.0162090
704.904	0.0162268
704.982	0.0161276
705.060	0.0160590
705.138	0.0158978
705.216	0.0158206
705.294	0.0156356
705.372	0.0157153
705.450	0.0155494
705.529	0.0155460
705.607	0.0155589
705.685	0.0155054
705.763	0.0155415
705.841	0.0154436
705.919	0.0155606
705.997	0.0155228
706.075	0.0155908
706.154	0.0157450
706.232	0.0158701
706.310	0.0157559
706.388	0.0157843
706.466	0.0159023
706.544	0.0159453
706.622	0.0161835
706.700	0.0161594
706.779	0.0162816
706.857	0.0163347
706.935	0.0166385
707.013	0.0166931
707.091	0.0166757
707.169	0.0168254
707.247	0.0168755
707.325	0.0168750
707.404	0.0169568
707.482	0.0170137
707.560	0.0169933
707.638	0.0169948
707.716	0.0168870
707.794	0.0168098
707.872	0.0166598
707.950	0.0166715
708.029	0.0166822
708.107	0.0166324
708.185	0.0164644
708.263	0.0164191
708.341	0.0163408
708.419	0.0163801
708.497	0.0166124
708.575	0.0165139
708.654	0.0164597
708.732	0.0165345
708.810	0.0164219
708.888	0.0164203
708.966	0.0164819
709.044	0.0163171
709.122	0.0165393
709.200	0.0165406
709.279	0.0165781
709.357	0.0167406
709.435	0.0166502
709.513	0.0167287
709.591	0.0169879
709.669	0.0170631
709.747	0.0170988
709.825	0.0171085
709.904	0.0172514
709.982	0.0172907
710.060	0.0172250
710.138	0.0172521
710.216	0.0172401
710.294	0.0171340
710.372	0.0171526
710.450	0.0169799
710.529	0.0167865
710.607	0.0166190
710.685	0.0165434
710.763	0.0165895
710.841	0.0164336
710.919	0.0162146
710.997	0.0161395
711.075	0.0159824
711.154	0.0161127
711.232	0.0160320
711.310	0.0160286
711.388	0.0160044
711.466	0.0160989
711.544	0.0160977
711.622	0.0161348
711.700	0.0161145
711.779	0.0162142
711.857	0.0162280
711.935	0.0162698
712.013	0.0162634
712.091	0.0162601
712.169	0.0163143
712.247	0.0161334
712.325	0.0161401
712.404	0.0161724
712.482	0.0161990
712.560	0.0162065
712.638	0.0161878
712.716	0.0161823
712.794	0.0159808
712.872	0.0159686
712.950	0.0160069
713.029	0.0160964
713.107	0.0159491
713.185	0.0161050
713.263	0.0159562
713.341	0.0160672
713.419	0.0161834
713.497	0.0161194
713.575	0.0161372
713.654	0.0162518
713.732	0.0165681
713.810	0.0165266
713.888	0.0164707
713.966	0.0166065
714.044	0.0166000
714.122	0.0165149
714.200	0.0165175
714.279	0.0167735
714.357	0.0166072
714.435	0.0165253
714.513	0.0166013
714.591	0.0164819
714.669	0.0164516
714.747	0.0164487
714.825	0.0165045
714.904	0.0164594
714.982	0.0163895
715.060	0.0165382
715.138	0.0164585
715.216	0.0165142
715.294	0.0165080
715.372	0.0165137
715.450	0.0165697
715.529	0.0163868
715.607	0.0166059
715.685	0.0167043
715.763	0.0165369
715.841	0.0163853
715.919	0.0163977
715.997	0.0163692
716.075	0.0164933
716.154	0.0163255
716.232	0.0162769
716.310	0.0164069
716.388	0.0163943
716.466	0.0164401
716.544	0.0164371
716.622	0.0165620
716.700	0.0164751
716.779	0.0165488
716.857	0.0166861
716.935	0.0166113
717.013	0.0167393
717.091	0.0166039
717.169	0.0166513
717.247	0.0168218
717.325	0.0166804
717.404	0.0166106
717.482	0.0166482
717.560	0.0167256
717.638	0.0166356
717.716	0.0165868
717.794	0.0165381
717.872	0.0165257
717.950	0.0165477
718.029	0.0164115
718.107	0.0164462
718.185	0.0162952
718.263	0.0163038
718.341	0.0164075
718.419	0.0163799
718.497	0.0162242
718.575	0.0161680
718.654	0.0163612
718.732	0.0163811
718.810	0.0161607
718.888	0.0162064
718.966	0.0162116
719.044	0.0160951
719.122	0.0160698
719.200	0.0160609
719.279	0.0160295
719.357	0.0159812
719.435	0.0160826
719.513	0.0160144
719.591	0.0159025
719.669	0.0159370
719.747	0.0161143
719.825	0.0158799
719.904	0.0160625
719.982	0.0161650
720.060	0.0161500
720.138	0.0162574
720.216	0.0163287
720.294	0.0163200
720.372	0.0163176
720.450	0.0163316
720.529	0.0163990
720.607	0.0164460
720.685	0.0163409
720.763	0.0165170
720.841	0.0162723
720.919	0.0163242
720.997	0.0164419
721.075	0.0164344
721.154	0.0163572
721.232	0.0162814
721.310	0.0163721
721.388	0.0164570
721.466	0.0163771
721.544	0.0164453
721.622	0.0164682
721.700	0.0164598
721.779	0.0164774
721.857	0.0164309
721.935	0.0165901
722.013	0.0165540
722.091	0.0164486
722.169	0.0166483
722.247	0.0167368
722.325	0.0167451
722.404	0.0166842
722.482	0.0168262
722.560	0.0167238
722.638	0.0168168
722.716	0.0167786
722.794	0.0166770
722.872	0.0167815
722.950	0.0167920
723.029	0.0167722
723.107	0.0164660
723.185	0.0165482
723.263	0.0165305
723.341	0.0164590
723.419	0.0165760
723.497	0.0165701
723.575	0.0164649
723.654	0.0165001
723.732	0.0164452
723.810	0.0165208
723.888	0.0165235
723.966	0.0165146
724.044	0.0164725
724.122	0.0164780
724.200	0.0166473
724.279	0.0164656
724.357	0.0163883
724.435	0.0163150
724.513	0.0163788
724.591	0.0164099
724.669	0.0164339
724.747	0.0164305
724.825	0.0162664
724.904	0.0164585
724.982	0.0164571
725.060	0.0165536
725.138	0.0165096
725.216	0.0166819
725.294	0.0165384
725.372	0.0165694
725.450	0.0166221
725.529	0.0166426
725.607	0.0165705
725.685	0.0165725
725.763	0.0164859
725.841	0.0165327
725.919	0.0164769
725.997	0.0163915
726.075	0.0164713
726.154	0.0163283
726.232	0.0164211
726.310	0.0162852
726.388	0.0163069
726.466	0.0162685
726.544	0.0162328
726.622	0.0162018
726.700	0.0161870
726.779	0.0160316
726.857	0.0159652
726.935	0.0160718
727.013	0.0161111
727.091	0.0159682
727.169	0.0161190
727.247	0.0161051
727.325	0.0161406
727.404	0.0162205
727.482	0.0163230
727.560	0.0163862
727.638	0.0164507
727.716	0.0166368
727.794	0.0166570
727.872	0.0166633
727.950	0.0167525
728.029	0.0167470
728.107	0.0168150
728.185	0.0167603
728.263	0.0168028
728.341	0.0168790
728.419	0.0167231
728.497	0.0167527
728.575	0.0166663
728.654	0.0167195
728.732	0.0167136
728.810	0.0166161
728.888	0.0165072
728.966	0.0165419
729.044	0.0166757
729.122	0.0166146
729.200	0.0164687
729.279	0.0165530
729.357	0.0165014
729.435	0.0163634
729.513	0.0164955
729.591	0.0166830
729.669	0.0165235
729.747	0.0163603
729.825	0.0163228
729.904	0.0165946
729.982	0.0164033
730.060	0.0163834
730.138	0.0163957
730.216	0.0161943
730.294	0.0162272
730.372	0.0161691
730.450	0.0162718
730.529	0.0161147
730.607	0.0161957
730.685	0.0163937
730.763	0.0164122
730.841	0.0164526
730.919	0.0164668
730.997	0.0165649
731.075	0.0165906
731.154	0.0166461
731.232	0.0167116
731.310	0.0167911
731.388	0.0168359
731.466	0.0167477
731.544	0.0167839
731.622	0.0166933
731.700	0.0167561
731.779	0.0167936
731.857	0.0167485
731.935	0.0167720
732.013	0.0166360
732.091	0.0166087
732.169	0.0166924
732.247	0.0164720
732.325	0.0165173
732.404	0.0166082
732.482	0.0164858
732.560	0.0166398
732.638	0.0164729
732.716	0.0165059
732.794	0.0166015
732.872	0.0166528
732.950	0.0167288
733.029	0.0166708
733.107	0.0166845
733.185	0.0167110
733.263	0.0166218
733.341	0.0165319
733.419	0.0164445
733.497	0.0163757
733.575	0.0163986
733.654	0.0164271
733.732	0.0162742
733.810	0.0161299
733.888	0.0162529
733.966	0.0162267
734.044	0.0161085
734.122	0.0160872
734.200	0.0161636
734.279	0.0161105
734.357	0.0161919
734.435	0.0162272
734.513	0.0161652
734.591	0.0162395
734.669	0.0162668
734.747	0.0161098
734.825	0.0161504
734.904	0.0163276
734.982	0.0162743
735.060	0.0162225
735.138	0.0162120
735.216	0.0162544
735.294	0.0162437
735.372	0.0162670
735.450	0.0163768
735.529	0.0163763
735.607	0.0164079
735.685	0.0165369
735.763	0.0165985
735.841	0.0165043
735.919	0.0167219
735.997	0.0167306
736.075	0.0166947
736.154	0.0165914
736.232	0.0168023
736.310	0.0166874
736.388	0.0167419
736.466	0.0165862
736.544	0.0165733
736.622	0.0166145
736.700	0.0167077
736.779	0.0164471
736.857	0.0164734
736.935	0.0164071
737.013	0.0164754
737.091	0.0163263
737.169	0.0163922
737.247	0.0162640
737.325	0.0164585
737.404	0.0161614
737.482	0.0160971
737.560	0.0162295
737.638	0.0162170
737.716	0.0164165
737.794	0.0163676
737.872	0.0163639
737.950	0.0164545
738.029	0.0165258
738.107	0.0165440
738.185	0.0165368
738.263	0.0165395
738.341	0.0164874
738.419	0.0165884
738.497	0.0166394
738.575	0.0166184
738.654	0.0166538
738.732	0.0167316
738.810	0.0167305
738.888	0.0166691
738.966	0.0166664
739.044	0.0165591
739.122	0.0165171
739.200	0.0164026
739.279	0.0166205
739.357	0.0165842
739.435	0.0165085
739.513	0.0164786
739.591	0.0164509
739.669	0.0165456
739.747	0.0165173
739.825	0.0163029
739.904	0.0163224
739.982	0.0164462
740.060	0.0164808
740.138	0.0164063
740.216	0.0163915
740.294	0.0162529
740.372	0.0164014
740.450	0.0163179
740.529	0.0163718
740.607	0.0164844
740.685	0.0162988
740.763	0.0163198
740.841	0.0164485
740.919	0.0163496
740.997	0.0163641
741.075	0.0164207
741.154	0.0164568
741.232	0.0162824
741.310	0.0163596
741.388	0.0162336
741.466	0.0162739
741.544	0.0162844
741.622	0.0163288
741.700	0.0161636
741.779	0.0161870
741.857	0.0162149
741.935	0.0161910
742.013	0.0161118
742.091	0.0160862
742.169	0.0161496
742.247	0.0161456
742.325	0.0162623
742.404	0.0163663
742.482	0.0163194
742.560	0.0163445
742.638	0.0165387
742.716	0.0165105
742.794	0.0165140
742.872	0.0165619
742.950	0.0166923
743.029	0.0166763
743.107	0.0166964
743.185	0.0166329
743.263	0.0167159
743.341	0.0166850
743.419	0.0166324
743.497	0.0164715
743.575	0.0166133
743.654	0.0165589
743.732	0.0165706
743.810	0.0165678
743.888	0.0164978
743.966	0.0164074
744.044	0.0163494
744.122	0.0163520
744.200	0.0162473
744.279	0.0162628
744.357	0.0161149
744.435	0.0163116
744.513	0.0161423
744.591	0.0161702
744.669	0.0162810
744.747	0.0161940
744.825	0.0162663
744.904	0.0162061
744.982	0.0162682
745.060	0.0163817
745.138	0.0162847
745.216	0.0162839
745.294	0.0164236
745.372	0.0164622
745.450	0.0164782
745.529	0.0164989
745.607	0.0165584
745.685	0.0165103
745.763	0.0165726
745.841	0.0165195
745.919	0.0165105
745.997	0.0165936
746.075	0.0166470
746.154	0.0165831
746.232	0.0164720
746.310	0.0166321
746.388	0.0167289
746.466	0.0165675
746.544	0.0166631
746.622	0.0166405
746.700	0.0166320
746.779	0.0166274
746.857	0.0165723
746.935	0.0167445
747.013	0.0166119
747.091	0.0165157
747.169	0.0165845
747.247	0.0166361
747.325	0.0166551
747.404	0.0165157
747.482	0.0164792
747.560	0.0165453
747.638	0.0164935
747.716	0.0165094
747.794	0.0164288
747.872	0.0162498
747.950	0.0164825
748.029	0.0164176
748.107	0.0163294
748.185	0.0164223
748.263	0.0162994
748.341	0.0162658
748.419	0.0162505
748.497	0.0162298
748.575	0.0162640
748.654	0.0163477
748.732	0.0163424
748.810	0.0163174
748.888	0.0164645
748.966	0.0164640
749.044	0.0163659
749.122	0.0165137
749.200	0.0164587
749.279	0.0164745
749.357	0.0165613
749.435	0.0166083
749.513	0.0165532
749.591	0.0165304
749.669	0.0164922
749.747	0.0166588
749.825	0.0165273
749.904	0.0166090
749.982	0.0166376
750.060	0.0166574
750.138	0.0164802
750.216	0.0166168
750.294	0.0165774
750.372	0.0164079
750.450	0.0164128
750.529	0.0164336
750.607	0.0163815
750.685	0.0163451
750.763	0.0161314
750.841	0.0160281
750.919	0.0160679
750.997	0.0159824
751.075	0.0160476
751.154	0.0161757
751.232	0.0161120
751.310	0.0162286
751.388	0.0160200
751.466	0.0161202
751.544	0.0163194
751.622	0.0162603
751.700	0.0163593
751.779	0.0164569
751.857	0.0164521
751.935	0.0164552
752.013	0.0165977
752.091	0.0167129
752.169	0.0166963
752.247	0.0165527
752.325	0.0167547
752.404	0.0164722
752.482	0.0165653
752.560	0.0167015
752.638	0.0165758
752.716	0.0164501
752.794	0.0164380
752.872	0.0165681
752.950	0.0164583
753.029	0.0164542
753.107	0.0163840
753.185	0.0165767
753.263	0.0165881
753.341	0.0164551
753.419	0.0165877
753.497	0.0166851
753.575	0.0166908
753.654	0.0165169
753.732	0.0165433
753.810	0.0165825
753.888	0.0165702
753.966	0.0165860
754.044	0.0166376
754.122	0.0166177
754.200	0.0165417
754.279	0.0166739
754.357	0.0166897
754.435	0.0165407
754.513	0.0165868
754.591	0.0165778
754.669	0.0165469
754.747	0.0164591
754.825	0.0166395
754.904	0.0165298
754.982	0.0165065
755.060	0.0166137
755.138	0.0166958
755.216	0.0166386
755.294	0.0166761
755.372	0.0166203
755.450	0.0165630
755.529	0.0167858
755.607	0.0167397
755.685	0.0168280
755.763	0.0168579
755.841	0.0167278
755.919	0.0167613
755.997	0.0168841
756.075	0.0167341
756.154	0.0166869
756.232	0.0165657
756.310	0.0164264
756.388	0.0164384
756.466	0.0163713
756.544	0.0163555
756.622	0.0163663
756.700	0.0162341
756.779	0.0161273
756.857	0.0162535
756.935	0.0161273
757.013	0.0160876
757.091	0.0160947
757.169	0.0160180
757.247	0.0161317
757.325	0.0160518
757.404	0.0160602
757.482	0.0160298
757.560	0.0160017
757.638	0.0161203
757.716	0.0159518
757.794	0.0160116
757.872	0.0160283
757.950	0.0160737
758.029	0.0161997
758.107	0.0161108
758.185	0.0161278
758.263	0.0163300
758.341	0.0162659
758.419	0.0161029
758.497	0.0163302
758.575	0.0164668
758.654	0.0165145
758.732	0.0166508
758.810	0.0165067
758.888	0.0166927
758.966	0.0166561
759.044	0.0166744
759.122	0.0167237
759.200	0.0166888
759.279	0.0166539
759.357	0.0167717
759.435	0.0168867
759.513	0.0167473
759.591	0.0167320
759.669	0.0168009
759.747	0.0167715
759.825	0.0166714
759.904	0.0166613
759.982	0.0166788
760.060	0.0165462
760.138	0.0165094
760.216	0.0165606
760.294	0.0166068
760.372	0.0165454
760.450	0.0166425
760.529	0.0165611
760.607	0.0165510
760.685	0.0165859
760.763	0.0164608
760.841	0.0164862
760.919	0.0164780
760.997	0.0162906
761.075	0.0163290
761.154	0.0164232
761.232	0.0162944
761.310	0.0162661
761.388	0.0163049
761.466	0.0162603
761.544	0.0162550
761.622	0.0162379
761.700	0.0163290
761.779	0.0162203
761.857	0.0164352
761.935	0.0164297
762.013	0.0163966
762.091	0.0162539
762.169	0.0164104
762.247	0.0164595
762.325	0.0164777
762.404	0.0164372
762.482	0.0163681
762.560	0.0163966
762.638	0.0165848
762.716	0.0165618
762.794	0.0164404
762.872	0.0164883
762.950	0.0164822
763.029	0.0165015
763.107	0.0167057
763.185	0.0164526
763.263	0.0164822
763.341	0.0165353
763.419	0.0164317
763.497	0.0164722
763.575	0.0165089
763.654	0.0164241
763.732	0.0164756
763.810	0.0165700
763.888	0.0163385
763.966	0.0165186
764.044	0.0164064
764.122	0.0163546
764.200	0.0164413
764.279	0.0165514
764.357	0.0165588
764.435	0.0165127
764.513	0.0165089
764.591	0.0165591
764.669	0.0164552
764.747	0.0163634
764.825	0.0163740
764.904	0.0163785
764.982	0.0163631
765.060	0.0162957
765.138	0.0162317
765.216	0.0162199
765.294	0.0158477
765.372	0.0159582
765.450	0.0159489
765.529	0.0159227
765.607	0.0159175
765.685	0.0159029
765.763	0.0159018
765.841	0.0158376
765.919	0.0160435
765.997	0.0159237
766.075	0.0159055
766.154	0.0160684
766.232	0.0160098
766.310	0.0161001
766.388	0.0158952
766.466	0.0160883
766.544	0.0159692
766.622	0.0161126
766.700	0.0161636
766.779	0.0162758
766.857	0.0161662
766.935	0.0163895
767.013	0.0163824
767.091	0.0163722
767.169	0.0164743
767.247	0.0163866
767.325	0.0163878
767.404	0.0164090
767.482	0.0165448
767.560	0.0164617
767.638	0.0164561
767.716	0.0165897
767.794	0.0164073
767.872	0.0164288
767.950	0.0166827
768.029	0.0165185
768.107	0.0164941
768.185	0.0164877
768.263	0.0166177
768.341	0.0167110
768.419	0.0166358
768.497	0.0165643
768.575	0.0165847
768.654	0.0166529
768.732	0.0167112
768.810	0.0166514
768.888	0.0166612
768.966	0.0168002
769.044	0.0167011
769.122	0.0166560
769.200	0.0167435
769.279	0.0167745
769.357	0.0166922
769.435	0.0167296
769.513	0.0168314
769.591	0.0169722
769.669	0.0166263
769.747	0.0165900
769.825	0.0165986
769.904	0.0166318
769.982	0.0166740
770.060	0.0166763
770.138	0.0165775
770.216	0.0167583
770.294	0.0165398
770.372	0.0165022
770.450	0.0164075
770.529	0.0164701
770.607	0.0165295
770.685	0.0163530
770.763	0.0163587
770.841	0.0162798
770.919	0.0163154
770.997	0.0163815
771.075	0.0163486
771.154	0.0162938
771.232	0.0162218
771.310	0.0162260
771.388	0.0161716
771.466	0.0162547
771.544	0.0163319
771.622	0.0161414
771.700	0.0161907
771.779	0.0161218
771.857	0.0164295
771.935	0.0161052
772.013	0.0162576
772.091	0.0163416
772.169	0.0164178
772.247	0.0162817
772.325	0.0162547
772.404	0.0164427
772.482	0.0163900
772.560	0.0164188
772.638	0.0164317
772.716	0.0165836
772.794	0.0164370
772.872	0.0164683
772.950	0.0165556
773.029	0.0165056
773.107	0.0164176
773.185	0.0164292
773.263	0.0164141
773.341	0.0163844
773.419	0.0163902
773.497	0.0163443
773.575	0.0162953
773.654	0.0163014
773.732	0.0162699
773.810	0.0163457
773.888	0.0162011
773.966	0.0163327
774.044	0.0163821
774.122	0.0162363
774.200	0.0163054
774.279	0.0162207
774.357	0.0163760
774.435	0.0163244
774.513	0.0163467
774.591	0.0164207
774.669	0.0163029
774.747	0.0162495
774.825	0.0163947
774.904	0.0164854
774.982	0.0165907
775.060	0.0165691
775.138	0.0164600
775.216	0.0164729
775.294	0.0166157
775.372	0.0165379
775.450	0.0164753
775.529	0.0166012
775.607	0.0166581
775.685	0.0165594
775.763	0.0167467
775.841	0.0166473
775.919	0.0167483
775.997	0.0165917
776.075	0.0166444
776.154	0.0167875
776.232	0.0166935
776.310	0.0167804
776.388	0.0166473
776.466	0.0167123
776.544	0.0166740
776.622	0.0166771
776.700	0.0167060
776.779	0.0166447
776.857	0.0166576
776.935	0.0166807
777.013	0.0165928
777.091	0.0165081
777.169	0.0164442
777.247	0.0165269
777.325	0.0165999
777.404	0.0164424
777.482	0.0164888
777.560	0.0164626
777.638	0.0164996
777.716	0.0164960
777.794	0.0165728
777.872	0.0166152
777.950	0.0165610
778.029	0.0164527
778.107	0.0164875
778.185	0.0163942
778.263	0.0163121
778.341	0.0163780
778.419	0.0163488
778.497	0.0163597
778.575	0.0163622
778.654	0.0163298
778.732	0.0161849
778.810	0.0163121
778.888	0.0163504
778.966	0.0162249
779.044	0.0162315
779.122	0.0161418
779.200	0.0161256
779.279	0.0162855
779.357	0.0163402
779.435	0.0161976
779.513	0.0163164
779.591	0.0162508
779.669	0.0163783
779.747	0.0164838
779.825	0.0162502
779.904	0.0164231
779.982	0.0165235
780.060	0.0164704
780.138	0.0164838
780.216	0.0164275
780.294	0.0163779
780.372	0.0164787
780.450	0.0165747
780.529	0.0164455
780.607	0.0164161
780.685	0.0164615
780.763	0.0163795
780.841	0.0162154
780.919	0.0161314
780.997	0.0162958
781.075	0.0162726
781.154	0.0161951
781.232	0.0160866
781.310	0.0162962
781.388	0.0162545
781.466	0.0163190
781.544	0.0161712
781.622	0.0162263
781.700	0.0163454
781.779	0.0161346
781.857	0.0163313
781.935	0.0162625
782.013	0.0164516
782.091	0.0164540
782.169	0.0162990
782.247	0.0165038
782.325	0.0163924
782.404	0.0164709
782.482	0.0164745
782.560	0.0165707
782.638	0.0166566
782.716	0.0165298
782.794	0.0166241
782.872	0.0165810
782.950	0.0164796
783.029	0.0165684
783.107	0.0164848
783.185	0.0165095
783.263	0.0165728
783.341	0.0164836
783.419	0.0166400
783.497	0.0165800
783.575	0.0163905
783.654	0.0164688
783.732	0.0164613
783.810	0.0164248
783.888	0.0164025
783.966	0.0165251
784.044	0.0164777
784.122	0.0165157
784.200	0.0165613
784.279	0.0164980
784.357	0.0166002
784.435	0.0166216
784.513	0.0167736
784.591	0.0166157
784.669	0.0167690
784.747	0.0167915
784.825	0.0168835
784.904	0.0167217
784.982	0.0167300
785.060	0.0167403
785.138	0.0167451
785.216	0.0168037
785.294	0.0167500
785.372	0.0166108
785.450	0.0166062
785.529	0.0166683
785.607	0.0165809
785.685	0.0166326
785.763	0.0163979
785.841	0.0164183
785.919	0.0164738
785.997	0.0163876
786.075	0.0163461
786.154	0.0162908
786.232	0.0163350
786.310	0.0163079
786.388	0.0162171
786.466	0.0162262
786.544	0.0160355
786.622	0.0161155
786.700	0.0160578
786.779	0.0160090
786.857	0.0158729
786.935	0.0157612
787.013	0.0159373
787.091	0.0159776
787.169	0.0159249
787.247	0.0158762
787.325	0.0159702
787.404	0.0160174
787.482	0.0158522
787.560	0.0160002
787.638	0.0161322
787.716	0.0160846
787.794	0.0159781
787.872	0.0162379
787.950	0.0161575
788.029	0.0161730
788.107	0.0163020
788.185	0.0162436
788.263	0.0163988
788.341	0.0162827
788.419	0.0162759
788.497	0.0164301
788.575	0.0165336
788.654	0.0166290
788.732	0.0163609
788.810	0.0164904
788.888	0.0165372
788.966	0.0165517
789.044	0.0166356
789.122	0.0165493
789.200	0.0166193
789.279	0.0167385
789.357	0.0166822
789.435	0.0164787
789.513	0.0164208
789.591	0.0164386
789.669	0.0164897
789.747	0.0165726
789.825	0.0166410
789.904	0.0166553
789.982	0.0165090
790.060	0.0164788
790.138	0.0165965
790.216	0.0164258
790.294	0.0164668
790.372	0.0166048
790.450	0.0164765
790.529	0.0164454
790.607	0.0164377
790.685	0.0163791
790.763	0.0163437
790.841	0.0164203
790.919	0.0164167
790.997	0.0163136
791.075	0.0163940
791.154	0.0164359
791.232	0.0164976
791.310	0.0163602
791.388	0.0163609
791.466	0.0164417
791.544	0.0163190
791.622	0.0164258
791.700	0.0164471
791.779	0.0164292
791.857	0.0163585
791.935	0.0164700
792.013	0.0165685
792.091	0.0163720
792.169	0.0163659
792.247	0.0164694
792.325	0.0163937
792.404	0.0164954
792.482	0.0164072
792.560	0.0164057
792.638	0.0163539
792.716	0.0164265
792.794	0.0164191
792.872	0.0163787
792.950	0.0164883
793.029	0.0163848
793.107	0.0163278
793.185	0.0164558
793.263	0.0164315
793.341	0.0163461
793.419	0.0163625
793.497	0.0163674
793.575	0.0164295
793.654	0.0164708
793.732	0.0162621
793.810	0.0163644
793.888	0.0162997
793.966	0.0165273
794.044	0.0163355
794.122	0.0165173
794.200	0.0165833
794.279	0.0165774
794.357	0.0165124
794.435	0.0164487
794.513	0.0164200
794.591	0.0165546
794.669	0.0165185
794.747	0.0163481
794.825	0.0164028
794.904	0.0164115
794.982	0.0165110
795.060	0.0164626
795.138	0.0162492
795.216	0.0163700
795.294	0.0163477
795.372	0.0164016
795.450	0.0163712
795.529	0.0163376
795.607	0.0164394
795.685	0.0163477
795.763	0.0164192
795.841	0.0164767
795.919	0.0164325
795.997	0.0164554
796.075	0.0165092
796.154	0.0164095
796.232	0.0163582
796.310	0.0163815
796.388	0.0162943
796.466	0.0163654
796.544	0.0163029
796.622	0.0163669
796.700	0.0163637
796.779	0.0163139
796.857	0.0161349
796.935	0.0163309
797.013	0.0162933
797.091	0.0161662
797.169	0.0161701
797.247	0.0162621
797.325	0.0163146
797.404	0.0162198
797.482	0.0162090
797.560	0.0162759
797.638	0.0163133
797.716	0.0163830
797.794	0.0164130
797.872	0.0163229
797.950	0.0164113
798.029	0.0165409
798.107	0.0164417
798.185	0.0164847
798.263	0.0166243
798.341	0.0164874
798.419	0.0166087
798.497	0.0164647
798.575	0.0165501
798.654	0.0165343
798.732	0.0165289
798.810	0.0165696
798.888	0.0165971
798.966	0.0166147
799.044	0.0166587
799.122	0.0166626
799.200	0.0166318
799.279	0.0167351
799.357	0.0166982
799.435	0.0167586
799.513	0.0165388
799.591	0.0166654
799.669	0.0167875
799.747	0.0167313
799.825	0.0168405
799.904	0.0167439
799.982	0.0167127
800.060	0.0167990
800.138	0.0167287
800.216	0.0166693
800.294	0.0167416
800.372	0.0166675
800.450	0.0167216
800.529	0.0166466
800.607	0.0165398
800.685	0.0165627
800.763	0.0165453
800.841	0.0164722
800.919	0.0164530
800.997	0.0164164
801.075	0.0163663
801.154	0.0163248
801.232	0.0163810
801.310	0.0164423
801.388	0.0161723
801.466	0.0161629
801.544	0.0162062
801.622	0.0163663
801.700	0.0162375
801.779	0.0161177
801.857	0.0162695
801.935	0.0162733
802.013	0.0162653
802.091	0.0161024
802.169	0.0161454
802.247	0.0161538
802.325	0.0161215
802.404	0.0160564
802.482	0.0161749
802.560	0.0161993
802.638	0.0160812
802.716	0.0161596
802.794	0.0161555
802.872	0.0161858
802.950	0.0161452
803.029	0.0160994
803.107	0.0161166
803.185	0.0162221
803.263	0.0163673
803.341	0.0162622
803.419	0.0162265
803.497	0.0162883
803.575	0.0162822
803.654	0.0163226
803.732	0.0163346
803.810	0.0163535
803.888	0.0164030
803.966	0.0164275
804.044	0.0165785
804.122	0.0164555
804.200	0.0166212
804.279	0.0165248
804.357	0.0165999
804.435	0.0165975
804.513	0.0166105
804.591	0.0166278
804.669	0.0166479
804.747	0.0165803
804.825	0.0167189
804.904	0.0167493
804.982	0.0166665
805.060	0.0166188
805.138	0.0166440
805.216	0.0166917
805.294	0.0166991
805.372	0.0166278
805.450	0.0166657
805.529	0.0168923
805.607	0.0166478
805.685	0.0168412
805.763	0.0166656
805.841	0.0165067
805.919	0.0167793
805.997	0.0167299
806.075	0.0167007
806.154	0.0167441
806.232	0.0167487
806.310	0.0167635
806.388	0.0166444
806.466	0.0167112
806.544	0.0165458
806.622	0.0164423
806.700	0.0165939
806.779	0.0165683
806.857	0.0164385
806.935	0.0165057
807.013	0.0166230
807.091	0.0165752
807.169	0.0163358
807.247	0.0163216
807.325	0.0163761
807.404	0.0163981
807.482	0.0163194
807.560	0.0163328
807.638	0.0164664
807.716	0.0163595
807.794	0.0164219
807.872	0.0163195
807.950	0.0164458
808.029	0.0163720
808.107	0.0161441
808.185	0.0162720
808.263	0.0162699
808.341	0.0162215
808.419	0.0163400
808.497	0.0163353
808.575	0.0163177
808.654	0.0162216
808.732	0.0162598
808.810	0.0161484
808.888	0.0163572
808.966	0.0164572
809.044	0.0162757
809.122	0.0162786
809.200	0.0163055
809.279	0.0163377
809.357	0.0164198
809.435	0.0162971
809.513	0.0163187
809.591	0.0163631
809.669	0.0163920
809.747	0.0162608
809.825	0.0164136
809.904	0.0164301
809.982	0.0164632
810.060	0.0165623
810.138	0.0164151
810.216	0.0163912
810.294	0.0165351
810.372	0.0163789
810.450	0.0164977
810.529	0.0164323
810.607	0.0164193
810.685	0.0166077
810.763	0.0164112
810.841	0.0164993
810.919	0.0163525
810.997	0.0162852
811.075	0.0164445
811.154	0.0163161
811.232	0.0164742
811.310	0.0163924
811.388	0.0164788
811.466	0.0164188
811.544	0.0163450
811.622	0.0164216
811.700	0.0164288
811.779	0.0163021
811.857	0.0164443
811.935	0.0163407
812.013	0.0164998
812.091	0.0165186
812.169	0.0163741
812.247	0.0164883
812.325	0.0164277
812.404	0.0165440
812.482	0.0164916
812.560	0.0167031
812.638	0.0165379
812.716	0.0167036
812.794	0.0166446
812.872	0.0165627
812.950	0.0167472
813.029	0.0164901
813.107	0.0165829
813.185	0.0165329
813.263	0.0164296
813.341	0.0163998
813.419	0.0165015
813.497	0.0164186
813.575	0.0164104
813.654	0.0164619
813.732	0.0165753
813.810	0.0164276
813.888	0.0163142
813.966	0.0163350
814.044	0.0163002
814.122	0.0163264
814.200	0.0165926
814.279	0.0164379
814.357	0.0163914
814.435	0.0163868
814.513	0.0165402
814.591	0.0165748
814.669	0.0164467
814.747	0.0165357
814.825	0.0167066
814.904	0.0164950
814.982	0.0163830
815.060	0.0165466
815.138	0.0166481
815.216	0.0163898
815.294	0.0166695
815.372	0.0164179
815.450	0.0165079
815.529	0.0162611
815.607	0.0163110
815.685	0.0163300
815.763	0.0163182
815.841	0.0163197
815.919	0.0163023
815.997	0.0163281
816.075	0.0163419
816.154	0.0162530
816.232	0.0163841
816.310	0.0162472
816.388	0.0161861
816.466	0.0161675
816.544	0.0161957
816.622	0.0162216
816.700	0.0163184
816.779	0.0162024
816.857	0.0162937
816.935	0.0162901
817.013	0.0162830
817.091	0.0162314
817.169	0.0162960
817.247	0.0161816
817.325	0.0162424
817.404	0.0163353
817.482	0.0162421
817.560	0.0163530
817.638	0.0163132
817.716	0.0161816
817.794	0.0163161
817.872	0.0163692
817.950	0.0163058
818.029	0.0162737
818.107	0.0163400
818.185	0.0164375
818.263	0.0163596
818.341	0.0163453
818.419	0.0164957
818.497	0.0162926
818.575	0.0163194
818.654	0.0163543
818.732	0.0163541
818.810	0.0162616
818.888	0.0165633
818.966	0.0165308
819.044	0.0164056
819.122	0.0165508
819.200	0.0163795
819.279	0.0164790
819.357	0.0164753
819.435	0.0166432
819.513	0.0163968
819.591	0.0163985
819.669	0.0165003
819.747	0.0164869
819.825	0.0164304
819.904	0.0164139
819.982	0.0164728
820.060	0.0164369
820.138	0.0164647
820.216	0.0166262
820.294	0.0165277
820.372	0.0165607
820.450	0.0165143
820.529	0.0164049
820.607	0.0165668
820.685	0.0165071
820.763	0.0164973
820.841	0.0164275
820.919	0.0164794
820.997	0.0163708
821.075	0.0162456
821.154	0.0164147
821.232	0.0163953
821.310	0.0162997
821.388	0.0164097
821.466	0.0163835
821.544	0.0164179
821.622	0.0164715
821.700	0.0163384
821.779	0.0163489
821.857	0.0162286
821.935	0.0165222
822.013	0.0164021
822.091	0.0164362
822.169	0.0162957
822.247	0.0163748
822.325	0.0164951
822.404	0.0165041
822.482	0.0165968
822.560	0.0164446
822.638	0.0165675
822.716	0.0165011
822.794	0.0165771
822.872	0.0165989
822.950	0.0163813
823.029	0.0165182
823.107	0.0165334
823.185	0.0164097
823.263	0.0165114
823.341	0.0163872
823.419	0.0164446
823.497	0.0164447
823.575	0.0163493
823.654	0.0165780
823.732	0.0164503
823.810	0.0164381
823.888	0.0164197
823.966	0.0165698
824.044	0.0164787
824.122	0.0165253
824.200	0.0165163
824.279	0.0165305
824.357	0.0165038
824.435	0.0165118
824.513	0.0165987
824.591	0.0166032
824.669	0.0165256
824.747	0.0165377
824.825	0.0163858
824.904	0.0164384
824.982	0.0164546
825.060	0.0164398
825.138	0.0163429
825.216	0.0165168
825.294	0.0164155
825.372	0.0163844
825.450	0.0164462
825.529	0.0164810
825.607	0.0163583
825.685	0.0164728
825.763	0.0165128
825.841	0.0163804
825.919	0.0164620
825.997	0.0164980
826.075	0.0164215
826.154	0.0165034
826.232	0.0163356
826.310	0.0163625
826.388	0.0164280
826.466	0.0164544
826.544	0.0164372
826.622	0.0164671
826.700	0.0165328
826.779	0.0164109
826.857	0.0164582
826.935	0.0165110
827.013	0.0165091
827.091	0.0165210
827.169	0.0165329
827.247	0.0165798
827.325	0.0166258
827.404	0.0165463
827.482	0.0166169
827.560	0.0165589
827.638	0.0165194
827.716	0.0165731
827.794	0.0165094
827.872	0.0164565
827.950	0.0163851
828.029	0.0163326
828.107	0.0163551
828.185	0.0163260
828.263	0.0163118
828.341	0.0164250
828.419	0.0164285
828.497	0.0164205
828.575	0.0162983
828.654	0.0163184
828.732	0.0164285
828.810	0.0163856
828.888	0.0163895
828.966	0.0162649
829.044	0.0163680
829.122	0.0164676
829.200	0.0163293
829.279	0.0163807
829.357	0.0166428
829.435	0.0164909
829.513	0.0165135
829.591	0.0165235
829.669	0.0165872
829.747	0.0165661
829.825	0.0166177
829.904	0.0167546
829.982	0.0165679
830.060	0.0165439
830.138	0.0165167
830.216	0.0167303
830.294	0.0167770
830.372	0.0165216
830.450	0.0165639
830.529	0.0165889
830.607	0.0165032
830.685	0.0166517
830.763	0.0164414
830.841	0.0164497
830.919	0.0164917
830.997	0.0164503
831.075	0.0165257
831.154	0.0163860
831.232	0.0163831
831.310	0.0165246
831.388	0.0165952
831.466	0.0165882
831.544	0.0164684
831.622	0.0164664
831.700	0.0164533
831.779	0.0165632
831.857	0.0165668
831.935	0.0165942
832.013	0.0165199
832.091	0.0166566
832.169	0.0166113
832.247	0.0166286
832.325	0.0166615
832.404	0.0164782
832.482	0.0163983
832.560	0.0165997
832.638	0.0165867
832.716	0.0166599
832.794	0.0165326
832.872	0.0163991
832.950	0.0165283
833.029	0.0165074
833.107	0.0165166
833.185	0.0164455
833.263	0.0163927
833.341	0.0163547
833.419	0.0163986
833.497	0.0162820
833.575	0.0164277
833.654	0.0164062
833.732	0.0164087
833.810	0.0162583
833.888	0.0163884
833.966	0.0164693
834.044	0.0164314
834.122	0.0163582
834.200	0.0163820
834.279	0.0165192
834.357	0.0164819
834.435	0.0164747
834.513	0.0164522
834.591	0.0165485
834.669	0.0164344
834.747	0.0163433
834.825	0.0165449
834.904	0.0166695
834.982	0.0165901
835.060	0.0165417
835.138	0.0164862
835.216	0.0164262
835.294	0.0164418
835.372	0.0165157
835.450	0.0165930
835.529	0.0165657
835.607	0.0164574
835.685	0.0164234
835.763	0.0165646
835.841	0.0165464
835.919	0.0164504
835.997	0.0165456
836.075	0.0165066
836.154	0.0165504
836.232	0.0164380
836.310	0.0164452
836.388	0.0163926
836.466	0.0164439
836.544	0.0164539
836.622	0.0163316
836.700	0.0164026
836.779	0.0165488
836.857	0.0163650
836.935	0.0163148
837.013	0.0163610
837.091	0.0163937
837.169	0.0164816
837.247	0.0163392
837.325	0.0164032
837.404	0.0163583
837.482	0.0163634
837.560	0.0165699
837.638	0.0164769
837.716	0.0163958
837.794	0.0164917
837.872	0.0165303
837.950	0.0163340
838.029	0.0165790
838.107	0.0165346
838.185	0.0165485
838.263	0.0166477
838.341	0.0165002
838.419	0.0164534
838.497	0.0165521
838.575	0.0165770
838.654	0.0165517
838.732	0.0164521
838.810	0.0165508
838.888	0.0166702
838.966	0.0165261
839.044	0.0165572
839.122	0.0165931
839.200	0.0164388
839.279	0.0165282
839.357	0.0165284
839.435	0.0164645
839.513	0.0163708
839.591	0.0164005
839.669	0.0164146
839.747	0.0163766
839.825	0.0164753
839.904	0.0163802
839.982	0.0163210
840.060	0.0164329
840.138	0.0163298
840.216	0.0163013
840.294	0.0163093
840.372	0.0164005
840.450	0.0165663
840.529	0.0166003
840.607	0.0165527
840.685	0.0165195
840.763	0.0165148
840.841	0.0165256
840.919	0.0166586
840.997	0.0166042
841.075	0.0166061
841.154	0.0166375
841.232	0.0166380
841.310	0.0165775
841.388	0.0165480
841.466	0.0164585
841.544	0.0164936
841.622	0.0164371
841.700	0.0164671
841.779	0.0162930
841.857	0.0163859
841.935	0.0163740
842.013	0.0162701
842.091	0.0162871
842.169	0.0163750
842.247	0.0162124
842.325	0.0162599
842.404	0.0161465
842.482	0.0161293
842.560	0.0159892
842.638	0.0162437
842.716	0.0163374
842.794	0.0161805
842.872	0.0160477
842.950	0.0162421
843.029	0.0162213
843.107	0.0160719
843.185	0.0161847
843.263	0.0162205
843.341	0.0163809
843.419	0.0162830
843.497	0.0163058
843.575	0.0163652
843.654	0.0162016
843.732	0.0163287
843.810	0.0162073
843.888	0.0161788
843.966	0.0162703
844.044	0.0164371
844.122	0.0162392
844.200	0.0164016
844.279	0.0164475
844.357	0.0164057
844.435	0.0163744
844.513	0.0162945
844.591	0.0164526
844.669	0.0165502
844.747	0.0163747
844.825	0.0163464
844.904	0.0164661
844.982	0.0163913
845.060	0.0162609
845.138	0.0164304
845.216	0.0164149
845.294	0.0164261
845.372	0.0164162
845.450	0.0162988
845.529	0.0163670
845.607	0.0163573
845.685	0.0163649
845.763	0.0164175
845.841	0.0163955
845.919	0.0162989
845.997	0.0162742
846.075	0.0164113
846.154	0.0163227
846.232	0.0161801
846.310	0.0163844
846.388	0.0162859
846.466	0.0163447
846.544	0.0163588
846.622	0.0163581
846.700	0.0163875
846.779	0.0164977
846.857	0.0165481
846.935	0.0164282
847.013	0.0164832
847.091	0.0166113
847.169	0.0166286
847.247	0.0165228
847.325	0.0164738
847.404	0.0165272
847.482	0.0166780
847.560	0.0166129
847.638	0.0165132
847.716	0.0166025
847.794	0.0166164
847.872	0.0165061
847.950	0.0166639
848.029	0.0164745
848.107	0.0164974
848.185	0.0166142
848.263	0.0164510
848.341	0.0164095
848.419	0.0163893
848.497	0.0164249
848.575	0.0164963
848.654	0.0164362
848.732	0.0165497
848.810	0.0163654
848.888	0.0163499
848.966	0.0162151
849.044	0.0161967
849.122	0.0161923
849.200	0.0163409
849.279	0.0161436
849.357	0.0161770
849.435	0.0162644
849.513	0.0160821
849.591	0.0161181
849.669	0.0162396
849.747	0.0161834
849.825	0.0162397
849.904	0.0161745
849.982	0.0162696
850.060	0.0161452
850.138	0.0162427
850.216	0.0162109
850.294	0.0163953
850.372	0.0162663
850.450	0.0163094
850.529	0.0162994
850.607	0.0162907
850.685	0.0163227
850.763	0.0164643
850.841	0.0163905
850.919	0.0163381
850.997	0.0164921
851.075	0.0165081
851.154	0.0165213
851.232	0.0165115
851.310	0.0164212
851.388	0.0162556
851.466	0.0164848
851.544	0.0164699
851.622	0.0163971
851.700	0.0163454
851.779	0.0162721
851.857	0.0163063
851.935	0.0164500
852.013	0.0162393
852.091	0.0162782
852.169	0.0162199
852.247	0.0162159
852.325	0.0161767
852.404	0.0162238
852.482	0.0162631
852.560	0.0163998
852.638	0.0164687
852.716	0.0164680
852.794	0.0164589
852.872	0.0165065
852.950	0.0166241
853.029	0.0165955
853.107	0.0165315
853.185	0.0167348
853.263	0.0166651
853.341	0.0167020
853.419	0.0166948
853.497	0.0166978
853.575	0.0167660
853.654	0.0166988
853.732	0.0167051
853.810	0.0167037
853.888	0.0168440
853.966	0.0167356
854.044	0.0167785
854.122	0.0167678
854.200	0.0166679
854.279	0.0165897
854.357	0.0167895
854.435	0.0166519
854.513	0.0166425
854.591	0.0165436
854.669	0.0165286
854.747	0.0165872
854.825	0.0166004
854.904	0.0166426
854.982	0.0166149
855.060	0.0165697
855.138	0.0166064
855.216	0.0166128
855.294	0.0163049
855.372	0.0165607
855.450	0.0166379
855.529	0.0166343
855.607	0.0165601
855.685	0.0166121
855.763	0.0164195
855.841	0.0163459
855.919	0.0165717
855.997	0.0165142
856.075	0.0163524
856.154	0.0164137
856.232	0.0165151
856.310	0.0163626
856.388	0.0162772
856.466	0.0162516
856.544	0.0163839
856.622	0.0162305
856.700	0.0163798
856.779	0.0162836
856.857	0.0163267
856.935	0.0164272
857.013	0.0164043
857.091	0.0164571
857.169	0.0163822
857.247	0.0163184
857.325	0.0163274
857.404	0.0163863
857.482	0.0163121
857.560	0.0163961
857.638	0.0165190
857.716	0.0163695
857.794	0.0163753
857.872	0.0164587
857.950	0.0162554
858.029	0.0162177
858.107	0.0163138
858.185	0.0163914
858.263	0.0162064
858.341	0.0162153
858.419	0.0162760
858.497	0.0163469
858.575	0.0162883
858.654	0.0163999
858.732	0.0164478
858.810	0.0163901
858.888	0.0164985
858.966	0.0167162
859.044	0.0165280
859.122	0.0166405
859.200	0.0166323
859.279	0.0166235
859.357	0.0165641
859.435	0.0167304
859.513	0.0165785
859.591	0.0166890
859.669	0.0166970
859.747	0.0166911
859.825	0.0166051
859.904	0.0165211
859.982	0.0163889
860.060	0.0164411
860.138	0.0163924
860.216	0.0163435
860.294	0.0162951
860.372	0.0161295
860.450	0.0162247
860.529	0.0162087
860.607	0.0160242
860.685	0.0160526
860.763	0.0162701
860.841	0.0161634
860.919	0.0163629
860.997	0.0161813
861.075	0.0164885
861.154	0.0164587
861.232	0.0164269
861.310	0.0165226
861.388	0.0165821
861.466	0.0166580
861.544	0.0166254
861.622	0.0166381
861.700	0.0165573
861.779	0.0167178
861.857	0.0165057
861.935	0.0164554
862.013	0.0164939
862.091	0.0165202
862.169	0.0164935
862.247	0.0165788
862.325	0.0166215
862.404	0.0163876
862.482	0.0164352
862.560	0.0165032
862.638	0.0165579
862.716	0.0163953
862.794	0.0163458
862.872	0.0166124
862.950	0.0165716
863.029	0.0164651
863.107	0.0165456
863.185	0.0164024
863.263	0.0164214
863.341	0.0164722
863.419	0.0165585
863.497	0.0164417
863.575	0.0165628
863.654	0.0165257
863.732	0.0164482
863.810	0.0164746
863.888	0.0165218
863.966	0.0164876
864.044	0.0164823
864.122	0.0165040
864.200	0.0166055
864.279	0.0164809
864.357	0.0165832
864.435	0.0165338
864.513	0.0165848
864.591	0.0165196
864.669	0.0164378
864.747	0.0164445
864.825	0.0165619
864.904	0.0166016
864.982	0.0164246
865.060	0.0163034
865.138	0.0163440
865.216	0.0163554
865.294	0.0163660
865.372	0.0161154
865.450	0.0160839
865.529	0.0162023
865.607	0.0160662
865.685	0.0160285
865.763	0.0160213
865.841	0.0160484
865.919	0.0160616
865.997	0.0159467
866.075	0.0161017
866.154	0.0160189
866.232	0.0159796
866.310	0.0161964
866.388	0.0161477
866.466	0.0163165
866.544	0.0162601
866.622	0.0163557
866.700	0.0164133
866.779	0.0164880
866.857	0.0166053
866.935	0.0167201
867.013	0.0166816
867.091	0.0166799
867.169	0.0166380
867.247	0.0166991
867.325	0.0166237
867.404	0.0166607
867.482	0.0166358
867.560	0.0167864
867.638	0.0166757
867.716	0.0166210
867.794	0.0166373
867.872	0.0166584
867.950	0.0164333
868.029	0.0164492
868.107	0.0165304
868.185	0.0166405
868.263	0.0165031
868.341	0.0165355
868.419	0.0164906
868.497	0.0163780
868.575	0.0164517
868.654	0.0163478
868.732	0.0164489
868.810	0.0163348
868.888	0.0162972
868.966	0.0163389
869.044	0.0164370
869.122	0.0164428
869.200	0.0163163
869.279	0.0163000
869.357	0.0164218
869.435	0.0163979
869.513	0.0164330
869.591	0.0164972
869.669	0.0165659
869.747	0.0165232
869.825	0.0165363
869.904	0.0165408
869.982	0.0164355
870.060	0.0165408
870.138	0.0166424
870.216	0.0163548
870.294	0.0163362
870.372	0.0165105
870.450	0.0164365
870.529	0.0165013
870.607	0.0165503
870.685	0.0165240
870.763	0.0165815
870.841	0.0166531
870.919	0.0165439
870.997	0.0166055
871.075	0.0163504
871.154	0.0165615
871.232	0.0164598
871.310	0.0164973
871.388	0.0163671
871.466	0.0164512
871.544	0.0163589
871.622	0.0164510
871.700	0.0164820
871.779	0.0163446
871.857	0.0162455
871.935	0.0162746
872.013	0.0161669
872.091	0.0162716
872.169	0.0162151
872.247	0.0163535
872.325	0.0163967
872.404	0.0163007
872.482	0.0162284
872.560	0.0163074
872.638	0.0164001
872.716	0.0162336
872.794	0.0163136
872.872	0.0163453
872.950	0.0162466
873.029	0.0161906
873.107	0.0164761
873.185	0.0163013
873.263	0.0163396
873.341	0.0163030
873.419	0.0161298
873.497	0.0161440
873.575	0.0161626
873.654	0.0161678
873.732	0.0160796
873.810	0.0159697
873.888	0.0159303
873.966	0.0160240
874.044	0.0159965
874.122	0.0160204
874.200	0.0161426
874.279	0.0163519
874.357	0.0161827
874.435	0.0163319
874.513	0.0162291
874.591	0.0163333
874.669	0.0164449
874.747	0.0164416
874.825	0.0166661
874.904	0.0167471
874.982	0.0167225
875.060	0.0166163
875.138	0.0167832
875.216	0.0167647
875.294	0.0167392
875.372	0.0168156
875.450	0.0168382
875.529	0.0167120
875.607	0.0166541
875.685	0.0165111
875.763	0.0166647
875.841	0.0164056
875.919	0.0164423
875.997	0.0164592
876.075	0.0164053
876.154	0.0163947
876.232	0.0164400
876.310	0.0164932
876.388	0.0163731
876.466	0.0164571
876.544	0.0165057
876.622	0.0163071
876.700	0.0165552
876.779	0.0164314
876.857	0.0165015
876.935	0.0165791
877.013	0.0164608
877.091	0.0163837
877.169	0.0165205
877.247	0.0165662
877.325	0.0164506
877.404	0.0164983
877.482	0.0165042
877.560	0.0164489
877.638	0.0165252
877.716	0.0165398
877.794	0.0164957
877.872	0.0165284
877.950	0.0165243
878.029	0.0165375
878.107	0.0165020
878.185	0.0165122
878.263	0.0163570
878.341	0.0165526
878.419	0.0165609
878.497	0.0164364
878.575	0.0164369
878.654	0.0165458
878.732	0.0165654
878.810	0.0162708
878.888	0.0164463
878.966	0.0164324
879.044	0.0163511
879.122	0.0165269
879.200	0.0162362
879.279	0.0162814
879.357	0.0163161
879.435	0.0164803
879.513	0.0163545
879.591	0.0164901
879.669	0.0163602
879.747	0.0163853
879.825	0.0164504
879.904	0.0165053
879.982	0.0164419
880.060	0.0164262
880.138	0.0162270
880.216	0.0163721
880.294	0.0163287
880.372	0.0162599
880.450	0.0161388
880.529	0.0162891
880.607	0.0162401
880.685	0.0161709
880.763	0.0161951
880.841	0.0161612
880.919	0.0162733
880.997	0.0161744
881.075	0.0163454
881.154	0.0162102
881.232	0.0161429
881.310	0.0162524
881.388	0.0162128
881.466	0.0162747
881.544	0.0162358
881.622	0.0162836
881.700	0.0164438
881.779	0.0163792
881.857	0.0164442
881.935	0.0164373
882.013	0.0163755
882.091	0.0163765
882.169	0.0164509
882.247	0.0164547
882.325	0.0164755
882.404	0.0166425
882.482	0.0165323
882.560	0.0165467
882.638	0.0165800
882.716	0.0166492
882.794	0.0165636
882.872	0.0165709
882.950	0.0166580
883.029	0.0166196
883.107	0.0166142
883.185	0.0164581
883.263	0.0165865
883.341	0.0165807
883.419	0.0165103
883.497	0.0165400
883.575	0.0165674
883.654	0.0161872
883.732	0.0163775
883.810	0.0164556
883.888	0.0164549
883.966	0.0165311
884.044	0.0165553
884.122	0.0165965
884.200	0.0165784
884.279	0.0166761
884.357	0.0167757
884.435	0.0167616
884.513	0.0167256
884.591	0.0167715
884.669	0.0167581
884.747	0.0166654
884.825	0.0165900
884.904	0.0166193
884.982	0.0166408
885.060	0.0166167
885.138	0.0166382
885.216	0.0164593
885.294	0.0165657
885.372	0.0165603
885.450	0.0164586
885.529	0.0165299
885.607	0.0165932
885.685	0.0164017
885.763	0.0164790
885.841	0.0165989
885.919	0.0164986
885.997	0.0163276
886.075	0.0164690
886.154	0.0164458
886.232	0.0164568
886.310	0.0163033
886.388	0.0164374
886.466	0.0164542
886.544	0.0163345
886.622	0.0165237
886.700	0.0163343
886.779	0.0163065
886.857	0.0165104
886.935	0.0163251
887.013	0.0163989
887.091	0.0163885
887.169	0.0162651
887.247	0.0163645
887.325	0.0161657
887.404	0.0161440
887.482	0.0161315
887.560	0.0161336
887.638	0.0161004
887.716	0.0162306
887.794	0.0160531
887.872	0.0163161
887.950	0.0161301
888.029	0.0161935
888.107	0.0162068
888.185	0.0162939
888.263	0.0163187
888.341	0.0163070
888.419	0.0163763
888.497	0.0163773
888.575	0.0164160
888.654	0.0165122
888.732	0.0166324
888.810	0.0166169
888.888	0.0166602
888.966	0.0166387
889.044	0.0166453
889.122	0.0167010
889.200	0.0166422
889.279	0.0166518
889.357	0.0165348
889.435	0.0164950
889.513	0.0165277
889.591	0.0164834
889.669	0.0163385
889.747	0.0162698
889.825	0.0163385
889.904	0.0161771
889.982	0.0162026
890.060	0.0161192
890.138	0.0161402
890.216	0.0161956
890.294	0.0163078
890.372	0.0162813
890.450	0.0163078
890.529	0.0163536
890.607	0.0163231
890.685	0.0163314
890.763	0.0164568
890.841	0.0164583
890.919	0.0164247
890.997	0.0164613
891.075	0.0163930
891.154	0.0165952
891.232	0.0166441
891.310	0.0164907
891.388	0.0164692
891.466	0.0166173
891.544	0.0166280
891.622	0.0166117
891.700	0.0166267
891.779	0.0166270
891.857	0.0166572
891.935	0.0165491
892.013	0.0165977
892.091	0.0164700
892.169	0.0165931
892.247	0.0166106
892.325	0.0165575
892.404	0.0166608
892.482	0.0166326
892.560	0.0167647
892.638	0.0166342
892.716	0.0165968
892.794	0.0167368
892.872	0.0164774
892.950	0.0165580
893.029	0.0165494
893.107	0.0166348
893.185	0.0165270
893.263	0.0165358
893.341	0.0164798
893.419	0.0164156
893.497	0.0163726
893.575	0.0165041
893.654	0.0165271
893.732	0.0163962
893.810	0.0165847
893.888	0.0165734
893.966	0.0164412
894.044	0.0167561
894.122	0.0166100
894.200	0.0165108
894.279	0.0165425
894.357	0.0165343
894.435	0.0165022
894.513	0.0164590
894.591	0.0164046
894.669	0.0164526
894.747	0.0164007
894.825	0.0163461
894.904	0.0163746
894.982	0.0163931
895.060	0.0162370
895.138	0.0162039
895.216	0.0161472
895.294	0.0162880
895.372	0.0161261
895.450	0.0160046
895.529	0.0160849
895.607	0.0160394
895.685	0.0161060
895.763	0.0160011
895.841	0.0159758
895.919	0.0160023
895.997	0.0161157
896.075	0.0160666
896.154	0.0160864
896.232	0.0161256
896.310	0.0162195
896.388	0.0160275
896.466	0.0162524
896.544	0.0162938
896.622	0.0162025
896.700	0.0162495
896.779	0.0162167
896.857	0.0163483
896.935	0.0162913
897.013	0.0165584
897.091	0.0164733
897.169	0.0165599
897.247	0.0164302
897.325	0.0166113
897.404	0.0164866
897.482	0.0166348
897.560	0.0165913
897.638	0.0165851
897.716	0.0166327
897.794	0.0165407
897.872	0.0165009
897.950	0.0165937
898.029	0.0164754
898.107	0.0165945
898.185	0.0165936
898.263	0.0164891
898.341	0.0165088
898.419	0.0163580
898.497	0.0164822
898.575	0.0166697
898.654	0.0165927
898.732	0.0164004
898.810	0.0163670
898.888	0.0164876
898.966	0.0165331
899.044	0.0165935
899.122	0.0165730
899.200	0.0166973
899.279	0.0166087
899.357	0.0165233
899.435	0.0166428
899.513	0.0166443
899.591	0.0166350
899.669	0.0167167
899.747	0.0166434
899.825	0.0167945
899.904	0.0166961
899.982	0.0166013
900.060	0.0166399
900.138	0.0165531
900.216	0.0165336
900.294	0.0166150
900.372	0.0165373
900.450	0.0165916
900.529	0.0167212
900.607	0.0163316
900.685	0.0165141
900.763	0.0164838
900.841	0.0163522
900.919	0.0166346
900.997	0.0166035
901.075	0.0163416
901.154	0.0164834
901.232	0.0164594
901.310	0.0164501
901.388	0.0163552
901.466	0.0164500
901.544	0.0165403
901.622	0.0165531
901.700	0.0164679
901.779	0.0164033
901.857	0.0164660
901.935	0.0165513
902.013	0.0164015
902.091	0.0164474
902.169	0.0166300
902.247	0.0164153
902.325	0.0164381
902.404	0.0163358
902.482	0.0163277
902.560	0.0162915
902.638	0.0163105
902.716	0.0162246
902.794	0.0161768
902.872	0.0163477
902.950	0.0162474
903.029	0.0161208
903.107	0.0162639
903.185	0.0164167
903.263	0.0161863
903.341	0.0161542
903.419	0.0160871
903.497	0.0162553
903.575	0.0162148
903.654	0.0161631
903.732	0.0163961
903.810	0.0163773
903.888	0.0162083
903.966	0.0162955
904.044	0.0162334
904.122	0.0161310
904.200	0.0162981
904.279	0.0162978
904.357	0.0162470
904.435	0.0162852
904.513	0.0162817
904.591	0.0163384
904.669	0.0162641
904.747	0.0160793
904.825	0.0162609
904.904	0.0163895
904.982	0.0163498
905.060	0.0162563
905.138	0.0163855
905.216	0.0164227
905.294	0.0164022
905.372	0.0162759
905.450	0.0164323
905.529	0.0164240
905.607	0.0164368
905.685	0.0165862
905.763	0.0164544
905.841	0.0165388
905.919	0.0166326
905.997	0.0166293
906.075	0.0164278
906.154	0.0166153
906.232	0.0166780
906.310	0.0166711
906.388	0.0165549
906.466	0.0165618
906.544	0.0166665
906.622	0.0166646
906.700	0.0168479
906.779	0.0167846
906.857	0.0167230
906.935	0.0167538
907.013	0.0166365
907.091	0.0166613
907.169	0.0167876
907.247	0.0167600
907.325	0.0166763
907.404	0.0167223
907.482	0.0166669
907.560	0.0167155
907.638	0.0166667
907.716	0.0167681
907.794	0.0165977
907.872	0.0165313
907.950	0.0166325
908.029	0.0165588
908.107	0.0165083
908.185	0.0165520
908.263	0.0164706
908.341	0.0167371
908.419	0.0166047
908.497	0.0166683
908.575	0.0166360
908.654	0.0165333
908.732	0.0165530
908.810	0.0167299
908.888	0.0165499
908.966	0.0166446
909.044	0.0165669
909.122	0.0165531
909.200	0.0164009
909.279	0.0165079
909.357	0.0163757
909.435	0.0164968
909.513	0.0165214
909.591	0.0164414
909.669	0.0163431
909.747	0.0163809
909.825	0.0164695
909.904	0.0163788
909.982	0.0163741
910.060	0.0163559
910.138	0.0163445
910.216	0.0163858
910.294	0.0162097
910.372	0.0163502
910.450	0.0162631
910.529	0.0162877
910.607	0.0162705
910.685	0.0161829
910.763	0.0161404
910.841	0.0161827
910.919	0.0161779
910.997	0.0161847
911.075	0.0162383
911.154	0.0162111
911.232	0.0162531
911.310	0.0162523
911.388	0.0161956
911.466	0.0163199
911.544	0.0161772
911.622	0.0162189
911.700	0.0162769
911.779	0.0162453
911.857	0.0161717
911.935	0.0161809
912.013	0.0162949
912.091	0.0162771
912.169	0.0163538
912.247	0.0162434
912.325	0.0164435
912.404	0.0165063
912.482	0.0164964
912.560	0.0164810
912.638	0.0165668
912.716	0.0166425
912.794	0.0164742
912.872	0.0165274
912.950	0.0167166
913.029	0.0166045
913.107	0.0164672
913.185	0.0165606
913.263	0.0166835
913.341	0.0166475
913.419	0.0165935
913.497	0.0165209
913.575	0.0166060
913.654	0.0165503
913.732	0.0164709
913.810	0.0165018
913.888	0.0165062
913.966	0.0164111
914.044	0.0165683
914.122	0.0165501
914.200	0.0164902
914.279	0.0165024
914.357	0.0166024
914.435	0.0166523
914.513	0.0166606
914.591	0.0166109
914.669	0.0165814
914.747	0.0165092
914.825	0.0166154
914.904	0.0165849
914.982	0.0166924
915.060	0.0166212
915.138	0.0165366
915.216	0.0164126
915.294	0.0166723
915.372	0.0165609
915.450	0.0165108
915.529	0.0165317
915.607	0.0166060
915.685	0.0164352
915.763	0.0166022
915.841	0.0165231
915.919	0.0165089
915.997	0.0165712
916.075	0.0164913
916.154	0.0164346
916.232	0.0164082
916.310	0.0166028
916.388	0.0165632
916.466	0.0165326
916.544	0.0165361
916.622	0.0164277
916.700	0.0166737
916.779	0.0166264
916.857	0.0164808
916.935	0.0165919
917.013	0.0166651
917.091	0.0166610
917.169	0.0166879
917.247	0.0166777
917.325	0.0166165
917.404	0.0165618
917.482	0.0165450
917.560	0.0164268
917.638	0.0165039
917.716	0.0164014
917.794	0.0164159
917.872	0.0164758
917.950	0.0163237
918.029	0.0163064
918.107	0.0163042
918.185	0.0163184
918.263	0.0162737
918.341	0.0160456
918.419	0.0163036
918.497	0.0161485
918.575	0.0161308
918.654	0.0160567
918.732	0.0160214
918.810	0.0161673
918.888	0.0162082
918.966	0.0161214
919.044	0.0161750
919.122	0.0161352
919.200	0.0161842
919.279	0.0161849
919.357	0.0162154
919.435	0.0162727
919.513	0.0161790
919.591	0.0162795
919.669	0.0163863
919.747	0.0165068
919.825	0.0163706
919.904	0.0165814
