05/24/2022	20:33:00	Ver.	4.1	UNKNOWN
Optical Delay	599.981738	Delta X		0.078125	Sweeps	1	Scan Rate	0/0
Coordinates	Axis 1	NaN	Axis 2	NaN	Axis 3	NaN	Axis 4	NaN	Axis 5	NaN	Axis 6	0.000000
TX Power	0.000000	RX Power	0.000000

599.982	0.0162489
600.060	0.0161412
600.138	0.0160654
600.216	0.0161629
600.294	0.0160310
600.372	0.0160215
600.450	0.0160640
600.529	0.0160194
600.607	0.0160850
600.685	0.0161597
600.763	0.0160135
600.841	0.0160758
600.919	0.0161948
600.997	0.0161777
601.075	0.0162477
601.154	0.0163635
601.232	0.0161655
601.310	0.0163814
601.388	0.0163419
601.466	0.0163480
601.544	0.0161965
601.622	0.0162412
601.700	0.0163733
601.779	0.0162750
601.857	0.0163536
601.935	0.0162312
602.013	0.0163631
602.091	0.0163477
602.169	0.0164586
602.247	0.0163361
602.325	0.0163140
602.404	0.0163928
602.482	0.0164418
602.560	0.0164024
602.638	0.0163445
602.716	0.0162238
602.794	0.0162904
602.872	0.0162516
602.950	0.0163303
603.029	0.0162254
603.107	0.0160994
603.185	0.0160770
603.263	0.0159863
603.341	0.0162286
603.419	0.0161161
603.497	0.0159988
603.575	0.0160955
603.654	0.0160281
603.732	0.0158832
603.810	0.0159553
603.888	0.0160218
603.966	0.0161263
604.044	0.0160964
604.122	0.0161446
604.200	0.0160130
604.279	0.0160937
604.357	0.0161082
604.435	0.0162410
604.513	0.0161393
604.591	0.0162534
604.669	0.0162222
604.747	0.0162554
604.825	0.0162254
604.904	0.0163485
604.982	0.0164543
605.060	0.0164064
605.138	0.0164563
605.216	0.0166391
605.294	0.0163868
605.372	0.0163687
605.450	0.0164381
605.529	0.0164825
605.607	0.0165654
605.685	0.0165014
605.763	0.0163950
605.841	0.0163603
605.919	0.0163593
605.997	0.0163004
606.075	0.0163519
606.154	0.0163410
606.232	0.0162984
606.310	0.0161564
606.388	0.0161304
606.466	0.0162428
606.544	0.0159410
606.622	0.0159463
606.700	0.0160022
606.779	0.0159837
606.857	0.0158489
606.935	0.0159770
607.013	0.0160446
607.091	0.0159468
607.169	0.0158622
607.247	0.0158797
607.325	0.0159746
607.404	0.0158839
607.482	0.0160661
607.560	0.0159862
607.638	0.0159144
607.716	0.0160289
607.794	0.0161308
607.872	0.0161779
607.950	0.0161866
608.029	0.0162416
608.107	0.0162370
608.185	0.0161657
608.263	0.0162253
608.341	0.0162370
608.419	0.0162666
608.497	0.0163346
608.575	0.0164198
608.654	0.0162291
608.732	0.0164256
608.810	0.0163338
608.888	0.0163517
608.966	0.0163661
609.044	0.0162643
609.122	0.0162775
609.200	0.0162692
609.279	0.0163365
609.357	0.0163250
609.435	0.0162032
609.513	0.0162009
609.591	0.0162096
609.669	0.0163066
609.747	0.0161388
609.825	0.0160772
609.904	0.0162391
609.982	0.0161317
610.060	0.0161238
610.138	0.0161145
610.216	0.0159850
610.294	0.0160397
610.372	0.0160809
610.450	0.0160828
610.529	0.0161640
610.607	0.0161411
610.685	0.0159197
610.763	0.0161787
610.841	0.0162727
610.919	0.0161135
610.997	0.0160457
611.075	0.0160232
611.154	0.0160283
611.232	0.0160014
611.310	0.0161076
611.388	0.0160834
611.466	0.0160596
611.544	0.0159507
611.622	0.0159573
611.700	0.0159266
611.779	0.0160546
611.857	0.0159322
611.935	0.0160062
612.013	0.0161424
612.091	0.0162300
612.169	0.0163307
612.247	0.0163464
612.325	0.0164202
612.404	0.0164100
612.482	0.0165145
612.560	0.0164555
612.638	0.0164500
612.716	0.0164993
612.794	0.0165813
612.872	0.0163865
612.950	0.0164988
613.029	0.0165337
613.107	0.0163611
613.185	0.0163779
613.263	0.0164233
613.341	0.0161773
613.419	0.0161951
613.497	0.0161843
613.575	0.0161158
613.654	0.0161654
613.732	0.0159799
613.810	0.0160426
613.888	0.0160233
613.966	0.0159831
614.044	0.0160006
614.122	0.0159818
614.200	0.0159813
614.279	0.0159547
614.357	0.0160542
614.435	0.0161352
614.513	0.0161215
614.591	0.0160869
614.669	0.0162034
614.747	0.0161800
614.825	0.0162653
614.904	0.0163145
614.982	0.0163557
615.060	0.0162810
615.138	0.0163153
615.216	0.0164276
615.294	0.0164641
615.372	0.0162964
615.450	0.0163446
615.529	0.0163963
615.607	0.0163437
615.685	0.0163973
615.763	0.0162374
615.841	0.0162286
615.919	0.0161952
615.997	0.0161355
616.075	0.0161747
616.154	0.0162965
616.232	0.0161293
616.310	0.0161527
616.388	0.0160059
616.466	0.0161850
616.544	0.0161658
616.622	0.0162104
616.700	0.0161475
616.779	0.0161980
616.857	0.0161980
616.935	0.0161933
617.013	0.0162717
617.091	0.0163058
617.169	0.0163347
617.247	0.0163094
617.325	0.0163480
617.404	0.0163457
617.482	0.0163551
617.560	0.0164114
617.638	0.0164095
617.716	0.0164603
617.794	0.0164915
617.872	0.0164587
617.950	0.0162456
618.029	0.0162361
618.107	0.0162378
618.185	0.0161528
618.263	0.0163220
618.341	0.0162711
618.419	0.0160240
618.497	0.0160772
618.575	0.0160522
618.654	0.0161403
618.732	0.0160806
618.810	0.0161371
618.888	0.0162018
618.966	0.0160390
619.044	0.0161475
619.122	0.0161714
619.200	0.0163993
619.279	0.0162611
619.357	0.0163302
619.435	0.0163349
619.513	0.0163376
619.591	0.0163802
619.669	0.0162155
619.747	0.0162374
619.825	0.0162872
619.904	0.0163485
619.982	0.0164243
620.060	0.0164489
620.138	0.0163039
620.216	0.0164022
620.294	0.0163386
620.372	0.0163110
620.450	0.0162526
620.529	0.0163531
620.607	0.0162424
620.685	0.0162460
620.763	0.0163530
620.841	0.0162239
620.919	0.0163155
620.997	0.0162634
621.075	0.0160682
621.154	0.0161716
621.232	0.0161253
621.310	0.0162318
621.388	0.0161004
621.466	0.0160636
621.544	0.0161665
621.622	0.0161372
621.700	0.0161363
621.779	0.0160693
621.857	0.0160597
621.935	0.0161403
622.013	0.0162729
622.091	0.0161911
622.169	0.0162908
622.247	0.0162645
622.325	0.0162827
622.404	0.0162183
622.482	0.0162526
622.560	0.0163173
622.638	0.0163357
622.716	0.0163309
622.794	0.0162195
622.872	0.0161241
622.950	0.0162872
623.029	0.0162109
623.107	0.0161926
623.185	0.0161089
623.263	0.0163045
623.341	0.0162038
623.419	0.0162608
623.497	0.0161457
623.575	0.0163053
623.654	0.0163138
623.732	0.0163143
623.810	0.0162768
623.888	0.0162883
623.966	0.0162962
624.044	0.0162191
624.122	0.0161502
624.200	0.0161926
624.279	0.0161844
624.357	0.0162350
624.435	0.0161633
624.513	0.0161771
624.591	0.0161501
624.669	0.0161348
624.747	0.0162538
624.825	0.0161752
624.904	0.0161671
624.982	0.0161063
625.060	0.0161303
625.138	0.0162786
625.216	0.0162656
625.294	0.0162260
625.372	0.0163320
625.450	0.0162757
625.529	0.0162122
625.607	0.0162490
625.685	0.0163599
625.763	0.0162490
625.841	0.0161564
625.919	0.0160528
625.997	0.0160364
626.075	0.0159490
626.154	0.0160120
626.232	0.0161196
626.310	0.0160155
626.388	0.0160811
626.466	0.0161740
626.544	0.0162527
626.622	0.0161280
626.700	0.0161497
626.779	0.0160728
626.857	0.0161472
626.935	0.0161771
627.013	0.0161076
627.091	0.0161769
627.169	0.0162180
627.247	0.0162090
627.325	0.0163246
627.404	0.0162525
627.482	0.0161848
627.560	0.0164027
627.638	0.0161935
627.716	0.0162836
627.794	0.0163245
627.872	0.0162790
627.950	0.0163483
628.029	0.0162604
628.107	0.0163257
628.185	0.0162652
628.263	0.0162271
628.341	0.0162562
628.419	0.0161746
628.497	0.0160154
628.575	0.0161442
628.654	0.0159782
628.732	0.0160526
628.810	0.0159914
628.888	0.0160997
628.966	0.0160385
629.044	0.0160852
629.122	0.0158675
629.200	0.0161340
629.279	0.0160075
629.357	0.0160526
629.435	0.0161136
629.513	0.0161511
629.591	0.0161664
629.669	0.0162298
629.747	0.0163304
629.825	0.0162781
629.904	0.0164472
629.982	0.0164254
630.060	0.0161523
630.138	0.0164157
630.216	0.0164716
630.294	0.0163759
630.372	0.0163488
630.450	0.0162880
630.529	0.0160886
630.607	0.0162944
630.685	0.0162193
630.763	0.0162287
630.841	0.0161332
630.919	0.0162370
630.997	0.0161744
631.075	0.0161231
631.154	0.0160844
631.232	0.0162132
631.310	0.0162136
631.388	0.0162715
631.466	0.0161608
631.544	0.0160361
631.622	0.0162080
631.700	0.0163799
631.779	0.0162230
631.857	0.0162257
631.935	0.0163453
632.013	0.0163358
632.091	0.0164130
632.169	0.0163185
632.247	0.0164252
632.325	0.0162140
632.404	0.0162553
632.482	0.0162580
632.560	0.0161604
632.638	0.0162917
632.716	0.0162952
632.794	0.0162678
632.872	0.0162793
632.950	0.0161357
633.029	0.0160880
633.107	0.0163025
633.185	0.0161514
633.263	0.0161581
633.341	0.0161549
633.419	0.0161361
633.497	0.0161886
633.575	0.0163997
633.654	0.0161102
633.732	0.0161499
633.810	0.0163055
633.888	0.0162870
633.966	0.0163710
634.044	0.0161596
634.122	0.0162019
634.200	0.0163570
634.279	0.0164443
634.357	0.0162342
634.435	0.0163535
634.513	0.0164826
634.591	0.0163480
634.669	0.0161991
634.747	0.0164056
634.825	0.0163032
634.904	0.0164426
634.982	0.0163559
635.060	0.0162956
635.138	0.0162367
635.216	0.0163043
635.294	0.0160757
635.372	0.0161869
635.450	0.0163060
635.529	0.0161143
635.607	0.0161713
635.685	0.0161902
635.763	0.0161829
635.841	0.0161706
635.919	0.0160440
635.997	0.0161674
636.075	0.0161437
636.154	0.0160954
636.232	0.0161377
636.310	0.0161874
636.388	0.0163401
636.466	0.0162296
636.544	0.0163242
636.622	0.0162953
636.700	0.0162183
636.779	0.0163873
636.857	0.0162622
636.935	0.0161806
637.013	0.0164739
637.091	0.0164071
637.169	0.0163118
637.247	0.0162821
637.325	0.0163727
637.404	0.0163509
637.482	0.0163682
637.560	0.0163393
637.638	0.0164109
637.716	0.0164483
637.794	0.0163688
637.872	0.0164192
637.950	0.0163445
638.029	0.0162186
638.107	0.0165467
638.185	0.0162478
638.263	0.0162392
638.341	0.0162675
638.419	0.0161719
638.497	0.0162084
638.575	0.0163810
638.654	0.0162989
638.732	0.0161734
638.810	0.0161476
638.888	0.0162283
638.966	0.0162405
639.044	0.0161527
639.122	0.0161488
639.200	0.0162275
639.279	0.0163163
639.357	0.0162756
639.435	0.0162682
639.513	0.0161692
639.591	0.0161789
639.669	0.0163498
639.747	0.0162637
639.825	0.0161235
639.904	0.0163169
639.982	0.0161724
640.060	0.0161620
640.138	0.0161235
640.216	0.0162281
640.294	0.0162468
640.372	0.0162342
640.450	0.0162679
640.529	0.0162044
640.607	0.0161919
640.685	0.0160808
640.763	0.0160753
640.841	0.0160915
640.919	0.0158558
640.997	0.0160195
641.075	0.0161990
641.154	0.0158692
641.232	0.0158793
641.310	0.0160279
641.388	0.0159660
641.466	0.0158813
641.544	0.0161362
641.622	0.0161132
641.700	0.0160507
641.779	0.0161060
641.857	0.0160934
641.935	0.0162482
642.013	0.0161044
642.091	0.0161932
642.169	0.0163329
642.247	0.0163921
642.325	0.0164825
642.404	0.0164317
642.482	0.0166093
642.560	0.0165818
642.638	0.0165940
642.716	0.0166396
642.794	0.0165196
642.872	0.0167314
642.950	0.0164695
643.029	0.0165416
643.107	0.0164752
643.185	0.0163039
643.263	0.0163444
643.341	0.0162848
643.419	0.0160915
643.497	0.0159080
643.575	0.0157657
643.654	0.0158082
643.732	0.0157906
643.810	0.0157553
643.888	0.0155181
643.966	0.0153794
644.044	0.0155542
644.122	0.0154468
644.200	0.0154022
644.279	0.0154684
644.357	0.0157039
644.435	0.0156474
644.513	0.0157294
644.591	0.0158967
644.669	0.0160999
644.747	0.0162663
644.825	0.0165563
644.904	0.0165083
644.982	0.0166904
645.060	0.0169360
645.138	0.0170444
645.216	0.0170895
645.294	0.0172041
645.372	0.0172166
645.450	0.0172997
645.529	0.0173363
645.607	0.0171868
645.685	0.0170806
645.763	0.0170748
645.841	0.0169025
645.919	0.0167310
645.997	0.0164923
646.075	0.0162197
646.154	0.0158807
646.232	0.0157462
646.310	0.0155036
646.388	0.0152489
646.466	0.0151321
646.544	0.0149345
646.622	0.0147515
646.700	0.0144908
646.779	0.0144782
646.857	0.0145946
646.935	0.0146323
647.013	0.0147386
647.091	0.0149263
647.169	0.0150198
647.247	0.0153727
647.325	0.0154529
647.404	0.0158866
647.482	0.0161947
647.560	0.0163087
647.638	0.0166256
647.716	0.0169283
647.794	0.0171484
647.872	0.0176471
647.950	0.0175494
648.029	0.0179028
648.107	0.0180178
648.185	0.0181301
648.263	0.0182026
648.341	0.0182813
648.419	0.0181933
648.497	0.0180553
648.575	0.0178580
648.654	0.0177800
648.732	0.0174058
648.810	0.0170678
648.888	0.0169241
648.966	0.0164336
649.044	0.0159790
649.122	0.0158087
649.200	0.0154895
649.279	0.0150985
649.357	0.0148508
649.435	0.0146783
649.513	0.0144405
649.591	0.0141985
649.669	0.0141106
649.747	0.0140768
649.825	0.0140945
649.904	0.0142401
649.982	0.0141853
650.060	0.0143130
650.138	0.0144457
650.216	0.0145577
650.294	0.0147820
650.372	0.0150953
650.450	0.0154928
650.529	0.0157489
650.607	0.0159368
650.685	0.0163699
650.763	0.0166888
650.841	0.0168578
650.919	0.0171658
650.997	0.0175081
651.075	0.0177638
651.154	0.0179178
651.232	0.0180060
651.310	0.0180865
651.388	0.0183836
651.466	0.0183183
651.544	0.0183093
651.622	0.0181633
651.700	0.0179575
651.779	0.0178284
651.857	0.0175894
651.935	0.0172445
652.013	0.0172598
652.091	0.0167780
652.169	0.0167818
652.247	0.0164242
652.325	0.0160738
652.404	0.0159273
652.482	0.0156897
652.560	0.0155187
652.638	0.0152067
652.716	0.0149924
652.794	0.0149146
652.872	0.0146880
652.950	0.0147065
653.029	0.0144750
653.107	0.0143944
653.185	0.0143137
653.263	0.0143790
653.341	0.0145853
653.419	0.0146973
653.497	0.0147939
653.575	0.0151227
653.654	0.0153746
653.732	0.0155756
653.810	0.0159089
653.888	0.0162959
653.966	0.0164694
654.044	0.0167735
654.122	0.0168940
654.200	0.0170145
654.279	0.0171150
654.357	0.0173392
654.435	0.0174776
654.513	0.0175150
654.591	0.0174573
654.669	0.0174509
654.747	0.0173940
654.825	0.0173622
654.904	0.0171938
654.982	0.0171986
655.060	0.0170817
655.138	0.0169034
655.216	0.0168415
655.294	0.0166962
655.372	0.0165546
655.450	0.0166866
655.529	0.0164401
655.607	0.0164050
655.685	0.0162572
655.763	0.0160638
655.841	0.0160686
655.919	0.0158701
655.997	0.0156976
656.075	0.0153584
656.154	0.0153075
656.232	0.0151075
656.310	0.0149996
656.388	0.0149023
656.466	0.0147012
656.544	0.0146595
656.622	0.0145369
656.700	0.0146788
656.779	0.0145699
656.857	0.0148293
656.935	0.0149823
657.013	0.0152493
657.091	0.0155688
657.169	0.0159447
657.247	0.0163156
657.325	0.0167199
657.404	0.0170277
657.482	0.0173990
657.560	0.0177914
657.638	0.0181924
657.716	0.0183990
657.794	0.0186421
657.872	0.0188107
657.950	0.0188960
658.029	0.0189736
658.107	0.0188622
658.185	0.0189030
658.263	0.0187325
658.341	0.0185184
658.419	0.0182108
658.497	0.0178138
658.575	0.0174075
658.654	0.0168465
658.732	0.0162897
658.810	0.0158192
658.888	0.0153184
658.966	0.0147635
659.044	0.0141675
659.122	0.0137838
659.200	0.0133861
659.279	0.0131406
659.357	0.0128291
659.435	0.0127547
659.513	0.0127257
659.591	0.0127013
659.669	0.0126972
659.747	0.0127456
659.825	0.0131350
659.904	0.0135506
659.982	0.0138231
660.060	0.0142599
660.138	0.0146764
660.216	0.0149738
660.294	0.0155295
660.372	0.0159061
660.450	0.0164211
660.529	0.0171192
660.607	0.0175423
660.685	0.0178158
660.763	0.0183574
660.841	0.0188234
660.919	0.0188642
660.997	0.0190443
661.075	0.0192025
661.154	0.0192667
661.232	0.0192826
661.310	0.0192136
661.388	0.0189526
661.466	0.0186654
661.544	0.0183324
661.622	0.0180789
661.700	0.0179259
661.779	0.0174393
661.857	0.0173306
661.935	0.0171989
662.013	0.0169908
662.091	0.0168478
662.169	0.0166089
662.247	0.0165189
662.325	0.0164742
662.404	0.0161915
662.482	0.0159644
662.560	0.0159858
662.638	0.0159129
662.716	0.0159333
662.794	0.0156548
662.872	0.0155723
662.950	0.0153790
663.029	0.0152814
663.107	0.0152029
663.185	0.0149306
663.263	0.0147849
663.341	0.0147312
663.419	0.0144187
663.497	0.0143581
663.575	0.0142057
663.654	0.0140405
663.732	0.0140955
663.810	0.0139765
663.888	0.0141163
663.966	0.0142635
664.044	0.0144509
664.122	0.0144826
664.200	0.0146211
664.279	0.0147933
664.357	0.0151598
664.435	0.0152625
664.513	0.0154840
664.591	0.0157298
664.669	0.0159895
664.747	0.0160288
664.825	0.0162533
664.904	0.0163102
664.982	0.0164056
665.060	0.0163983
665.138	0.0164698
665.216	0.0164870
665.294	0.0165091
665.372	0.0166599
665.450	0.0165713
665.529	0.0167686
665.607	0.0168996
665.685	0.0170515
665.763	0.0172384
665.841	0.0175343
665.919	0.0176279
665.997	0.0177027
666.075	0.0181033
666.154	0.0182529
666.232	0.0182816
666.310	0.0185293
666.388	0.0185939
666.466	0.0186180
666.544	0.0185656
666.622	0.0184409
666.700	0.0184264
666.779	0.0183953
666.857	0.0182253
666.935	0.0180193
667.013	0.0178495
667.091	0.0176195
667.169	0.0171872
667.247	0.0169354
667.325	0.0166951
667.404	0.0161519
667.482	0.0158333
667.560	0.0155740
667.638	0.0151805
667.716	0.0147892
667.794	0.0145528
667.872	0.0141857
667.950	0.0139136
668.029	0.0137055
668.107	0.0135586
668.185	0.0133317
668.263	0.0131019
668.341	0.0129593
668.419	0.0128120
668.497	0.0129496
668.575	0.0132594
668.654	0.0132948
668.732	0.0135284
668.810	0.0137495
668.888	0.0141932
668.966	0.0146139
669.044	0.0151585
669.122	0.0155890
669.200	0.0161327
669.279	0.0165611
669.357	0.0170215
669.435	0.0173643
669.513	0.0179710
669.591	0.0180696
669.669	0.0182888
669.747	0.0183327
669.825	0.0185732
669.904	0.0184164
669.982	0.0185110
670.060	0.0183643
670.138	0.0181524
670.216	0.0179629
670.294	0.0177634
670.372	0.0174867
670.450	0.0172241
670.529	0.0168408
670.607	0.0164249
670.685	0.0160560
670.763	0.0159579
670.841	0.0157961
670.919	0.0155293
670.997	0.0153242
671.075	0.0151706
671.154	0.0150661
671.232	0.0152498
671.310	0.0153413
671.388	0.0154118
671.466	0.0156535
671.544	0.0157158
671.622	0.0160242
671.700	0.0164426
671.779	0.0166973
671.857	0.0169498
671.935	0.0173475
672.013	0.0176131
672.091	0.0177737
672.169	0.0180309
672.247	0.0182278
672.325	0.0183154
672.404	0.0184753
672.482	0.0183621
672.560	0.0182617
672.638	0.0181187
672.716	0.0177857
672.794	0.0175794
672.872	0.0173405
672.950	0.0168997
673.029	0.0165919
673.107	0.0159524
673.185	0.0155397
673.263	0.0150285
673.341	0.0144140
673.419	0.0142744
673.497	0.0136411
673.575	0.0131477
673.654	0.0129491
673.732	0.0126386
673.810	0.0125557
673.888	0.0125371
673.966	0.0126103
674.044	0.0129298
674.122	0.0131669
674.200	0.0135841
674.279	0.0139616
674.357	0.0144676
674.435	0.0148485
674.513	0.0153184
674.591	0.0157299
674.669	0.0162040
674.747	0.0165990
674.825	0.0170033
674.904	0.0173533
674.982	0.0177592
675.060	0.0178679
675.138	0.0182341
675.216	0.0185122
675.294	0.0185248
675.372	0.0186818
675.450	0.0186916
675.529	0.0185824
675.607	0.0185600
675.685	0.0185170
675.763	0.0182506
675.841	0.0181617
675.919	0.0181524
675.997	0.0177885
676.075	0.0175921
676.154	0.0172002
676.232	0.0170770
676.310	0.0169528
676.388	0.0166116
676.466	0.0163635
676.544	0.0160934
676.622	0.0158947
676.700	0.0155748
676.779	0.0154319
676.857	0.0153140
676.935	0.0149377
677.013	0.0149570
677.091	0.0148377
677.169	0.0149199
677.247	0.0148171
677.325	0.0147323
677.404	0.0148763
677.482	0.0147658
677.560	0.0150620
677.638	0.0151849
677.716	0.0154781
677.794	0.0155785
677.872	0.0157362
677.950	0.0161481
678.029	0.0163529
678.107	0.0165814
678.185	0.0167394
678.263	0.0167107
678.341	0.0167561
678.419	0.0169939
678.497	0.0168902
678.575	0.0167812
678.654	0.0168385
678.732	0.0166314
678.810	0.0165275
678.888	0.0163686
678.966	0.0163068
679.044	0.0162679
679.122	0.0160860
679.200	0.0160806
679.279	0.0158788
679.357	0.0159689
679.435	0.0159485
679.513	0.0159374
679.591	0.0160283
679.669	0.0161252
679.747	0.0160543
679.825	0.0161046
679.904	0.0160896
679.982	0.0160741
680.060	0.0161450
680.138	0.0161224
680.216	0.0160677
680.294	0.0159814
680.372	0.0160358
680.450	0.0159732
680.529	0.0160390
680.607	0.0159537
680.685	0.0158513
680.763	0.0158662
680.841	0.0159229
680.919	0.0159624
680.997	0.0158059
681.075	0.0158292
681.154	0.0156503
681.232	0.0157568
681.310	0.0158556
681.388	0.0157540
681.466	0.0157323
681.544	0.0157146
681.622	0.0158616
681.700	0.0159534
681.779	0.0160144
681.857	0.0163231
681.935	0.0164700
682.013	0.0168519
682.091	0.0169659
682.169	0.0173672
682.247	0.0175468
682.325	0.0175585
682.404	0.0177544
682.482	0.0179872
682.560	0.0178669
682.638	0.0179099
682.716	0.0177470
682.794	0.0177671
682.872	0.0176477
682.950	0.0174146
683.029	0.0172425
683.107	0.0169411
683.185	0.0166477
683.263	0.0164149
683.341	0.0162148
683.419	0.0159901
683.497	0.0156879
683.575	0.0155670
683.654	0.0151602
683.732	0.0148872
683.810	0.0146888
683.888	0.0143540
683.966	0.0141423
684.044	0.0137737
684.122	0.0138497
684.200	0.0136408
684.279	0.0136626
684.357	0.0137575
684.435	0.0139764
684.513	0.0142815
684.591	0.0147610
684.669	0.0150237
684.747	0.0155799
684.825	0.0161232
684.904	0.0164732
684.982	0.0167532
685.060	0.0172319
685.138	0.0175153
685.216	0.0176731
685.294	0.0179166
685.372	0.0180492
685.450	0.0181209
685.529	0.0180234
685.607	0.0179309
685.685	0.0177880
685.763	0.0176679
685.841	0.0175580
685.919	0.0173154
685.997	0.0169764
686.075	0.0166920
686.154	0.0167732
686.232	0.0167030
686.310	0.0164320
686.388	0.0162504
686.466	0.0163632
686.544	0.0162494
686.622	0.0160064
686.700	0.0160113
686.779	0.0159711
686.857	0.0160041
686.935	0.0156833
687.013	0.0156785
687.091	0.0156817
687.169	0.0153766
687.247	0.0153232
687.325	0.0153123
687.404	0.0152076
687.482	0.0153323
687.560	0.0152293
687.638	0.0152048
687.716	0.0152479
687.794	0.0154317
687.872	0.0154532
687.950	0.0154946
688.029	0.0156696
688.107	0.0156959
688.185	0.0157916
688.263	0.0159145
688.341	0.0160720
688.419	0.0159369
688.497	0.0160532
688.575	0.0162741
688.654	0.0163127
688.732	0.0164252
688.810	0.0166414
688.888	0.0165900
688.966	0.0164670
689.044	0.0166572
689.122	0.0166458
689.200	0.0166100
689.279	0.0165664
689.357	0.0164978
689.435	0.0163619
689.513	0.0163528
689.591	0.0162293
689.669	0.0161127
689.747	0.0160796
689.825	0.0160943
689.904	0.0160686
689.982	0.0160530
690.060	0.0160506
690.138	0.0161810
690.216	0.0161666
690.294	0.0161960
690.372	0.0163485
690.450	0.0163416
690.529	0.0163762
690.607	0.0164135
690.685	0.0164523
690.763	0.0166219
690.841	0.0165043
690.919	0.0166018
690.997	0.0167602
691.075	0.0165937
691.154	0.0166087
691.232	0.0164092
691.310	0.0165150
691.388	0.0164315
691.466	0.0164081
691.544	0.0164051
691.622	0.0161852
691.700	0.0162634
691.779	0.0161710
691.857	0.0161564
691.935	0.0163366
692.013	0.0163010
692.091	0.0165263
692.169	0.0164764
692.247	0.0167229
692.325	0.0166872
692.404	0.0167158
692.482	0.0166157
692.560	0.0166246
692.638	0.0167604
692.716	0.0166521
692.794	0.0163753
692.872	0.0163027
692.950	0.0161901
693.029	0.0158601
693.107	0.0158305
693.185	0.0157656
693.263	0.0156213
693.341	0.0154687
693.419	0.0152433
693.497	0.0152349
693.575	0.0152404
693.654	0.0153722
693.732	0.0154553
693.810	0.0153753
693.888	0.0156625
693.966	0.0157016
694.044	0.0157179
694.122	0.0157769
694.200	0.0157825
694.279	0.0157911
694.357	0.0158328
694.435	0.0158917
694.513	0.0159448
694.591	0.0157969
694.669	0.0157889
694.747	0.0159943
694.825	0.0160198
694.904	0.0159322
694.982	0.0158929
695.060	0.0160542
695.138	0.0162200
695.216	0.0162502
695.294	0.0163988
695.372	0.0163212
695.450	0.0164355
695.529	0.0165289
695.607	0.0166728
695.685	0.0167308
695.763	0.0166807
695.841	0.0168547
695.919	0.0169100
695.997	0.0171098
696.075	0.0170402
696.154	0.0171274
696.232	0.0172387
696.310	0.0172593
696.388	0.0173034
696.466	0.0172460
696.544	0.0172079
696.622	0.0170497
696.700	0.0172958
696.779	0.0172321
696.857	0.0169948
696.935	0.0169994
697.013	0.0169604
697.091	0.0168615
697.169	0.0168204
697.247	0.0167293
697.325	0.0164430
697.404	0.0166116
697.482	0.0166547
697.560	0.0165430
697.638	0.0164320
697.716	0.0162709
697.794	0.0162406
697.872	0.0160910
697.950	0.0158527
698.029	0.0157719
698.107	0.0158261
698.185	0.0155234
698.263	0.0153281
698.341	0.0151437
698.419	0.0151054
698.497	0.0150275
698.575	0.0150526
698.654	0.0149992
698.732	0.0150738
698.810	0.0149810
698.888	0.0151889
698.966	0.0153333
699.044	0.0153952
699.122	0.0155878
699.200	0.0158348
699.279	0.0158044
699.357	0.0158539
699.435	0.0160071
699.513	0.0161198
699.591	0.0161019
699.669	0.0160257
699.747	0.0160976
699.825	0.0160995
699.904	0.0161469
699.982	0.0159903
700.060	0.0159254
700.138	0.0159879
700.216	0.0161414
700.294	0.0160465
700.372	0.0160748
700.450	0.0161116
700.529	0.0160562
700.607	0.0163419
700.685	0.0161130
700.763	0.0164843
700.841	0.0166185
700.919	0.0166245
700.997	0.0168011
701.075	0.0167944
701.154	0.0169380
701.232	0.0169803
701.310	0.0170011
701.388	0.0171507
701.466	0.0172600
701.544	0.0171513
701.622	0.0170669
701.700	0.0171523
701.779	0.0170590
701.857	0.0169902
701.935	0.0168967
702.013	0.0168974
702.091	0.0169248
702.169	0.0167414
702.247	0.0166013
702.325	0.0166800
702.404	0.0166734
702.482	0.0167252
702.560	0.0166911
702.638	0.0167620
702.716	0.0165892
702.794	0.0165453
702.872	0.0166893
702.950	0.0165918
703.029	0.0165984
703.107	0.0165411
703.185	0.0164060
703.263	0.0163839
703.341	0.0164795
703.419	0.0162429
703.497	0.0161226
703.575	0.0160281
703.654	0.0160093
703.732	0.0158500
703.810	0.0158710
703.888	0.0155802
703.966	0.0155167
704.044	0.0155870
704.122	0.0154688
704.200	0.0151926
704.279	0.0152998
704.357	0.0153709
704.435	0.0151054
704.513	0.0151259
704.591	0.0151288
704.669	0.0150236
704.747	0.0149516
704.825	0.0149499
704.904	0.0150307
704.982	0.0148867
705.060	0.0148994
705.138	0.0150015
705.216	0.0152560
705.294	0.0154061
705.372	0.0155762
705.450	0.0157280
705.529	0.0160828
705.607	0.0164125
705.685	0.0165149
705.763	0.0167600
705.841	0.0168154
705.919	0.0167999
705.997	0.0170310
706.075	0.0169758
706.154	0.0170753
706.232	0.0169739
706.310	0.0168250
706.388	0.0167916
706.466	0.0166549
706.544	0.0165347
706.622	0.0164301
706.700	0.0163192
706.779	0.0162881
706.857	0.0163389
706.935	0.0162006
707.013	0.0161002
707.091	0.0161332
707.169	0.0160811
707.247	0.0160561
707.325	0.0159878
707.404	0.0159527
707.482	0.0159248
707.560	0.0160064
707.638	0.0161173
707.716	0.0161718
707.794	0.0163051
707.872	0.0163592
707.950	0.0165187
708.029	0.0165347
708.107	0.0166343
708.185	0.0166523
708.263	0.0168169
708.341	0.0169542
708.419	0.0168861
708.497	0.0170854
708.575	0.0169580
708.654	0.0170255
708.732	0.0169738
708.810	0.0170577
708.888	0.0168903
708.966	0.0168062
709.044	0.0166220
709.122	0.0166667
709.200	0.0166361
709.279	0.0163661
709.357	0.0163284
709.435	0.0162334
709.513	0.0162852
709.591	0.0160442
709.669	0.0159014
709.747	0.0159502
709.825	0.0157891
709.904	0.0156841
709.982	0.0158982
710.060	0.0157155
710.138	0.0155984
710.216	0.0155004
710.294	0.0157468
710.372	0.0155861
710.450	0.0156572
710.529	0.0157314
710.607	0.0156497
710.685	0.0158749
710.763	0.0157314
710.841	0.0157964
710.919	0.0158747
710.997	0.0158573
711.075	0.0157837
711.154	0.0158488
711.232	0.0157188
711.310	0.0157771
711.388	0.0158086
711.466	0.0157241
711.544	0.0156362
711.622	0.0155556
711.700	0.0156779
711.779	0.0156566
711.857	0.0156038
711.935	0.0157153
712.013	0.0157732
712.091	0.0157355
712.169	0.0157014
712.247	0.0157817
712.325	0.0158100
712.404	0.0160313
712.482	0.0162525
712.560	0.0162223
712.638	0.0163207
712.716	0.0163081
712.794	0.0164019
712.872	0.0164116
712.950	0.0163994
713.029	0.0162876
713.107	0.0165331
713.185	0.0165201
713.263	0.0164536
713.341	0.0166416
713.419	0.0166399
713.497	0.0167087
713.575	0.0167731
713.654	0.0167329
713.732	0.0169329
713.810	0.0168446
713.888	0.0169901
713.966	0.0168238
714.044	0.0168200
714.122	0.0168678
714.200	0.0169662
714.279	0.0168428
714.357	0.0167465
714.435	0.0167333
714.513	0.0166606
714.591	0.0167352
714.669	0.0164946
714.747	0.0163253
714.825	0.0164368
714.904	0.0162757
714.982	0.0162341
715.060	0.0163045
715.138	0.0161105
715.216	0.0158394
715.294	0.0160354
715.372	0.0160802
715.450	0.0159972
715.529	0.0159119
715.607	0.0160145
715.685	0.0159882
715.763	0.0160309
715.841	0.0159885
715.919	0.0160796
715.997	0.0162749
716.075	0.0163255
716.154	0.0163103
716.232	0.0163184
716.310	0.0164578
716.388	0.0165271
716.466	0.0165490
716.544	0.0165592
716.622	0.0164966
716.700	0.0165038
716.779	0.0164198
716.857	0.0165020
716.935	0.0163341
717.013	0.0163216
717.091	0.0161897
717.169	0.0161127
717.247	0.0160206
717.325	0.0160007
717.404	0.0158424
717.482	0.0158196
717.560	0.0159531
717.638	0.0158752
717.716	0.0155988
717.794	0.0156802
717.872	0.0159038
717.950	0.0159149
718.029	0.0157990
718.107	0.0158273
718.185	0.0158819
718.263	0.0159865
718.341	0.0158910
718.419	0.0160233
718.497	0.0161978
718.575	0.0163089
718.654	0.0162807
718.732	0.0162033
718.810	0.0163585
718.888	0.0162936
718.966	0.0162392
719.044	0.0163227
719.122	0.0162085
719.200	0.0162727
719.279	0.0163730
719.357	0.0163854
719.435	0.0162211
719.513	0.0162064
719.591	0.0163387
719.669	0.0161892
719.747	0.0160462
719.825	0.0161042
719.904	0.0160549
719.982	0.0158875
720.060	0.0160336
720.138	0.0161551
720.216	0.0161350
720.294	0.0160332
720.372	0.0159258
720.450	0.0161349
720.529	0.0163632
720.607	0.0164559
720.685	0.0164122
720.763	0.0164497
720.841	0.0165472
720.919	0.0163575
720.997	0.0164223
721.075	0.0164746
721.154	0.0165520
721.232	0.0165174
721.310	0.0166193
721.388	0.0166664
721.466	0.0166000
721.544	0.0165458
721.622	0.0165388
721.700	0.0166444
721.779	0.0166492
721.857	0.0167444
721.935	0.0167139
722.013	0.0165626
722.091	0.0165915
722.169	0.0164777
722.247	0.0166193
722.325	0.0164794
722.404	0.0163694
722.482	0.0163190
722.560	0.0162966
722.638	0.0161387
722.716	0.0160485
722.794	0.0161697
722.872	0.0160957
722.950	0.0160103
723.029	0.0160616
723.107	0.0161298
723.185	0.0159695
723.263	0.0160594
723.341	0.0161025
723.419	0.0159828
723.497	0.0162270
723.575	0.0162379
723.654	0.0161781
723.732	0.0163408
723.810	0.0161384
723.888	0.0163326
723.966	0.0163394
724.044	0.0163232
724.122	0.0163605
724.200	0.0163090
724.279	0.0162647
724.357	0.0161552
724.435	0.0161923
724.513	0.0163520
724.591	0.0161933
724.669	0.0161911
724.747	0.0161434
724.825	0.0162085
724.904	0.0160541
724.982	0.0160197
725.060	0.0159623
725.138	0.0159494
725.216	0.0158434
725.294	0.0159388
725.372	0.0157772
725.450	0.0158573
725.529	0.0156545
725.607	0.0157689
725.685	0.0157298
725.763	0.0158125
725.841	0.0157211
725.919	0.0158907
725.997	0.0159408
726.075	0.0158667
726.154	0.0160238
726.232	0.0160345
726.310	0.0161158
726.388	0.0161509
726.466	0.0162232
726.544	0.0162061
726.622	0.0162816
726.700	0.0161941
726.779	0.0163120
726.857	0.0164176
726.935	0.0164505
727.013	0.0164248
727.091	0.0163382
727.169	0.0162551
727.247	0.0165598
727.325	0.0165504
727.404	0.0166989
727.482	0.0165678
727.560	0.0165782
727.638	0.0165629
727.716	0.0166575
727.794	0.0166239
727.872	0.0166715
727.950	0.0166324
728.029	0.0167270
728.107	0.0165351
728.185	0.0166711
728.263	0.0166455
728.341	0.0164877
728.419	0.0163528
728.497	0.0163512
728.575	0.0163826
728.654	0.0162641
728.732	0.0163258
728.810	0.0162179
728.888	0.0161139
728.966	0.0162440
729.044	0.0161539
729.122	0.0160995
729.200	0.0161938
729.279	0.0161456
729.357	0.0161202
729.435	0.0161205
729.513	0.0161115
729.591	0.0160455
729.669	0.0160976
729.747	0.0161219
729.825	0.0160170
729.904	0.0160985
729.982	0.0160933
730.060	0.0162619
730.138	0.0160371
730.216	0.0161343
730.294	0.0160217
730.372	0.0160157
730.450	0.0160787
730.529	0.0159201
730.607	0.0160141
730.685	0.0160518
730.763	0.0160249
730.841	0.0161086
730.919	0.0160918
730.997	0.0159184
731.075	0.0161222
731.154	0.0161034
731.232	0.0161493
731.310	0.0161555
731.388	0.0162209
731.466	0.0162629
731.544	0.0163116
731.622	0.0164173
731.700	0.0162701
731.779	0.0163454
731.857	0.0162739
731.935	0.0161884
732.013	0.0162874
732.091	0.0162797
732.169	0.0162073
732.247	0.0161472
732.325	0.0163969
732.404	0.0164289
732.482	0.0160655
732.560	0.0160966
732.638	0.0160681
732.716	0.0162571
732.794	0.0161923
732.872	0.0162183
732.950	0.0161425
733.029	0.0161996
733.107	0.0161865
733.185	0.0160934
733.263	0.0161631
733.341	0.0161545
733.419	0.0161288
733.497	0.0159966
733.575	0.0161732
733.654	0.0160112
733.732	0.0161057
733.810	0.0161789
733.888	0.0161058
733.966	0.0160944
734.044	0.0160636
734.122	0.0162490
734.200	0.0161865
734.279	0.0161323
734.357	0.0162754
734.435	0.0163850
734.513	0.0163728
734.591	0.0163813
734.669	0.0165659
734.747	0.0166080
734.825	0.0164468
734.904	0.0165839
734.982	0.0165615
735.060	0.0164377
735.138	0.0163664
735.216	0.0165332
735.294	0.0163560
735.372	0.0163422
735.450	0.0162051
735.529	0.0162601
735.607	0.0161981
735.685	0.0162113
735.763	0.0159599
735.841	0.0161613
735.919	0.0162050
735.997	0.0160447
736.075	0.0160263
736.154	0.0160329
736.232	0.0160733
736.310	0.0161385
736.388	0.0161320
736.466	0.0160081
736.544	0.0160689
736.622	0.0162099
736.700	0.0161393
736.779	0.0161879
736.857	0.0161201
736.935	0.0162325
737.013	0.0161369
737.091	0.0161417
737.169	0.0161784
737.247	0.0161673
737.325	0.0162463
737.404	0.0163754
737.482	0.0164226
737.560	0.0164358
737.638	0.0165588
737.716	0.0164820
737.794	0.0164898
737.872	0.0165292
737.950	0.0166071
738.029	0.0167207
738.107	0.0165908
738.185	0.0166247
738.263	0.0165764
738.341	0.0165561
738.419	0.0164980
738.497	0.0164827
738.575	0.0162991
738.654	0.0161325
738.732	0.0161788
738.810	0.0161504
738.888	0.0160548
738.966	0.0160670
739.044	0.0161036
739.122	0.0159323
739.200	0.0159810
739.279	0.0160154
739.357	0.0159466
739.435	0.0160020
739.513	0.0160557
739.591	0.0159541
739.669	0.0160533
739.747	0.0161050
739.825	0.0160983
739.904	0.0161105
739.982	0.0161392
740.060	0.0160458
740.138	0.0162275
740.216	0.0161211
740.294	0.0160713
740.372	0.0161129
740.450	0.0161537
740.529	0.0162025
740.607	0.0160283
740.685	0.0162637
740.763	0.0162444
740.841	0.0160775
740.919	0.0161572
740.997	0.0162225
741.075	0.0161823
741.154	0.0162479
741.232	0.0162066
741.310	0.0162228
741.388	0.0162702
741.466	0.0162637
741.544	0.0161881
741.622	0.0163245
741.700	0.0162793
741.779	0.0162814
741.857	0.0164133
741.935	0.0162272
742.013	0.0162941
742.091	0.0162860
742.169	0.0162786
742.247	0.0163905
742.325	0.0163530
742.404	0.0161934
742.482	0.0161829
742.560	0.0162408
742.638	0.0162287
742.716	0.0162491
742.794	0.0161182
742.872	0.0161231
742.950	0.0160859
743.029	0.0160929
743.107	0.0160947
743.185	0.0161095
743.263	0.0161440
743.341	0.0161259
743.419	0.0161908
743.497	0.0162069
743.575	0.0161326
743.654	0.0162364
743.732	0.0162106
743.810	0.0162801
743.888	0.0164879
743.966	0.0164008
744.044	0.0164336
744.122	0.0165350
744.200	0.0163973
744.279	0.0163400
744.357	0.0164955
744.435	0.0164697
744.513	0.0165173
744.591	0.0164898
744.669	0.0164422
744.747	0.0163080
744.825	0.0163344
744.904	0.0164785
744.982	0.0165916
745.060	0.0164931
745.138	0.0164639
745.216	0.0165925
745.294	0.0165579
745.372	0.0165704
745.450	0.0163743
745.529	0.0164571
745.607	0.0164220
745.685	0.0164447
745.763	0.0164514
745.841	0.0161076
745.919	0.0160626
745.997	0.0161576
746.075	0.0160952
746.154	0.0160274
746.232	0.0159576
746.310	0.0158598
746.388	0.0158714
746.466	0.0159274
746.544	0.0157191
746.622	0.0158235
746.700	0.0157536
746.779	0.0157182
746.857	0.0157140
746.935	0.0157515
747.013	0.0158161
747.091	0.0157745
747.169	0.0159418
747.247	0.0160938
747.325	0.0159100
747.404	0.0160800
747.482	0.0160636
747.560	0.0160838
747.638	0.0162159
747.716	0.0162420
747.794	0.0162248
747.872	0.0162878
747.950	0.0162608
748.029	0.0162326
748.107	0.0165337
748.185	0.0164313
748.263	0.0164803
748.341	0.0165464
748.419	0.0166063
748.497	0.0164826
748.575	0.0166517
748.654	0.0165144
748.732	0.0164771
748.810	0.0164925
748.888	0.0165060
748.966	0.0163011
749.044	0.0162578
749.122	0.0163158
749.200	0.0160712
749.279	0.0160365
749.357	0.0161214
749.435	0.0160701
749.513	0.0159410
749.591	0.0158755
749.669	0.0157311
749.747	0.0159671
749.825	0.0158099
749.904	0.0158765
749.982	0.0159946
750.060	0.0159982
750.138	0.0160006
750.216	0.0159376
750.294	0.0159689
750.372	0.0159232
750.450	0.0160323
750.529	0.0160995
750.607	0.0161549
750.685	0.0161408
750.763	0.0161084
750.841	0.0162730
750.919	0.0162640
750.997	0.0164130
751.075	0.0164233
751.154	0.0164642
751.232	0.0164032
751.310	0.0163910
751.388	0.0165685
751.466	0.0165129
751.544	0.0165582
751.622	0.0165470
751.700	0.0164429
751.779	0.0165204
751.857	0.0163956
751.935	0.0164136
752.013	0.0164299
752.091	0.0164577
752.169	0.0164061
752.247	0.0164867
752.325	0.0163686
752.404	0.0163177
752.482	0.0163287
752.560	0.0161557
752.638	0.0162577
752.716	0.0161442
752.794	0.0161032
752.872	0.0160818
752.950	0.0159052
753.029	0.0161806
753.107	0.0160131
753.185	0.0159487
753.263	0.0160484
753.341	0.0161337
753.419	0.0160480
753.497	0.0159572
753.575	0.0158659
753.654	0.0159550
753.732	0.0159922
753.810	0.0159644
753.888	0.0162408
753.966	0.0162037
754.044	0.0161557
754.122	0.0162193
754.200	0.0164215
754.279	0.0162580
754.357	0.0163308
754.435	0.0163745
754.513	0.0164106
754.591	0.0163232
754.669	0.0164299
754.747	0.0163799
754.825	0.0164668
754.904	0.0163651
754.982	0.0163334
755.060	0.0162860
755.138	0.0163039
755.216	0.0163384
755.294	0.0160946
755.372	0.0162257
755.450	0.0161126
755.529	0.0161590
755.607	0.0160905
755.685	0.0159940
755.763	0.0161886
755.841	0.0160659
755.919	0.0160709
755.997	0.0161431
756.075	0.0160233
756.154	0.0158715
756.232	0.0160462
756.310	0.0159440
756.388	0.0158689
756.466	0.0158099
756.544	0.0158659
756.622	0.0159327
756.700	0.0159696
756.779	0.0159826
756.857	0.0161771
756.935	0.0160365
757.013	0.0160815
757.091	0.0161448
757.169	0.0162699
757.247	0.0163910
757.325	0.0163490
757.404	0.0161144
757.482	0.0164050
757.560	0.0164857
757.638	0.0165785
757.716	0.0165612
757.794	0.0166519
757.872	0.0164482
757.950	0.0164716
758.029	0.0165364
758.107	0.0165761
758.185	0.0165408
758.263	0.0166013
758.341	0.0165881
758.419	0.0165288
758.497	0.0166521
758.575	0.0166249
758.654	0.0164445
758.732	0.0165626
758.810	0.0164567
758.888	0.0164336
758.966	0.0165060
759.044	0.0164989
759.122	0.0163730
759.200	0.0163024
759.279	0.0163345
759.357	0.0163650
759.435	0.0163936
759.513	0.0162792
759.591	0.0163373
759.669	0.0161742
759.747	0.0162509
759.825	0.0162998
759.904	0.0162288
759.982	0.0161747
760.060	0.0161443
760.138	0.0162748
760.216	0.0160909
760.294	0.0161992
760.372	0.0161577
760.450	0.0162195
760.529	0.0161208
760.607	0.0160331
760.685	0.0161955
760.763	0.0161632
760.841	0.0162391
760.919	0.0161127
760.997	0.0163483
761.075	0.0162985
761.154	0.0161022
761.232	0.0161514
761.310	0.0161900
761.388	0.0162550
761.466	0.0162737
761.544	0.0163956
761.622	0.0163174
761.700	0.0162186
761.779	0.0161921
761.857	0.0160821
761.935	0.0161275
762.013	0.0160324
762.091	0.0162453
762.169	0.0162366
762.247	0.0161859
762.325	0.0162387
762.404	0.0162232
762.482	0.0162137
762.560	0.0161909
762.638	0.0162081
762.716	0.0162486
762.794	0.0164422
762.872	0.0163526
762.950	0.0162954
763.029	0.0163396
763.107	0.0163604
763.185	0.0164843
763.263	0.0162121
763.341	0.0163860
763.419	0.0164192
763.497	0.0162344
763.575	0.0162897
763.654	0.0162740
763.732	0.0163649
763.810	0.0160326
763.888	0.0161351
763.966	0.0160527
764.044	0.0160854
764.122	0.0160537
764.200	0.0159808
764.279	0.0158915
764.357	0.0160339
764.435	0.0159763
764.513	0.0158374
764.591	0.0158278
764.669	0.0159165
764.747	0.0158942
764.825	0.0160170
764.904	0.0159474
764.982	0.0159915
765.060	0.0160153
765.138	0.0160212
765.216	0.0160536
765.294	0.0161401
765.372	0.0160796
765.450	0.0162473
765.529	0.0162373
765.607	0.0162630
765.685	0.0161275
765.763	0.0163342
765.841	0.0162597
765.919	0.0163273
765.997	0.0164025
766.075	0.0163756
766.154	0.0165914
766.232	0.0164600
766.310	0.0166004
766.388	0.0166079
766.466	0.0165272
766.544	0.0165763
766.622	0.0164815
766.700	0.0165482
766.779	0.0165044
766.857	0.0165571
766.935	0.0164879
767.013	0.0165094
767.091	0.0164146
767.169	0.0165424
767.247	0.0164360
767.325	0.0164380
767.404	0.0164754
767.482	0.0163263
767.560	0.0164401
767.638	0.0164558
767.716	0.0164010
767.794	0.0163414
767.872	0.0163242
767.950	0.0162366
768.029	0.0161626
768.107	0.0161722
768.185	0.0162926
768.263	0.0164372
768.341	0.0160828
768.419	0.0161842
768.497	0.0162106
768.575	0.0162838
768.654	0.0162691
768.732	0.0162543
768.810	0.0161144
768.888	0.0161532
768.966	0.0161955
769.044	0.0162126
769.122	0.0160978
769.200	0.0161827
769.279	0.0160708
769.357	0.0160261
769.435	0.0160016
769.513	0.0160700
769.591	0.0161793
769.669	0.0159842
769.747	0.0159986
769.825	0.0159831
769.904	0.0159854
769.982	0.0158984
770.060	0.0158447
770.138	0.0159173
770.216	0.0158692
770.294	0.0159616
770.372	0.0159921
770.450	0.0159436
770.529	0.0158768
770.607	0.0157355
770.685	0.0159711
770.763	0.0158498
770.841	0.0159505
770.919	0.0159832
770.997	0.0160317
771.075	0.0159309
771.154	0.0160624
771.232	0.0159966
771.310	0.0159412
771.388	0.0160854
771.466	0.0160064
771.544	0.0160995
771.622	0.0159857
771.700	0.0162811
771.779	0.0161517
771.857	0.0162325
771.935	0.0164223
772.013	0.0163193
772.091	0.0163410
772.169	0.0164089
772.247	0.0164623
772.325	0.0163916
772.404	0.0164491
772.482	0.0164549
772.560	0.0164563
772.638	0.0165353
772.716	0.0163818
772.794	0.0163081
772.872	0.0163573
772.950	0.0163728
773.029	0.0163921
773.107	0.0163985
773.185	0.0163066
773.263	0.0162630
773.341	0.0162030
773.419	0.0162051
773.497	0.0162560
773.575	0.0160390
773.654	0.0160835
773.732	0.0161184
773.810	0.0161158
773.888	0.0160218
773.966	0.0161080
774.044	0.0161678
774.122	0.0159776
774.200	0.0161874
774.279	0.0160577
774.357	0.0161548
774.435	0.0161340
774.513	0.0162341
774.591	0.0161445
774.669	0.0162482
774.747	0.0163630
774.825	0.0161349
774.904	0.0162325
774.982	0.0163987
775.060	0.0163284
775.138	0.0162115
775.216	0.0163280
775.294	0.0163625
775.372	0.0163028
775.450	0.0163814
775.529	0.0161726
775.607	0.0162579
775.685	0.0161988
775.763	0.0163216
775.841	0.0162778
775.919	0.0163474
775.997	0.0162841
776.075	0.0163488
776.154	0.0162225
776.232	0.0162607
776.310	0.0162523
776.388	0.0162489
776.466	0.0162070
776.544	0.0162144
776.622	0.0159567
776.700	0.0161176
776.779	0.0161232
776.857	0.0160796
776.935	0.0160246
777.013	0.0159472
777.091	0.0160123
777.169	0.0159974
777.247	0.0159702
777.325	0.0160246
777.404	0.0161214
777.482	0.0159216
777.560	0.0157910
777.638	0.0159066
777.716	0.0159447
777.794	0.0160397
777.872	0.0159330
777.950	0.0161787
778.029	0.0161986
778.107	0.0163047
778.185	0.0161737
778.263	0.0161090
778.341	0.0160241
778.419	0.0160696
778.497	0.0162207
778.575	0.0160992
778.654	0.0162844
778.732	0.0163517
778.810	0.0162671
778.888	0.0161385
778.966	0.0162718
779.044	0.0162089
779.122	0.0163313
779.200	0.0163139
779.279	0.0164344
779.357	0.0163760
779.435	0.0163295
779.513	0.0162991
779.591	0.0162650
779.669	0.0162881
779.747	0.0161902
779.825	0.0161829
779.904	0.0161305
779.982	0.0161667
780.060	0.0160088
780.138	0.0161206
780.216	0.0161786
780.294	0.0159715
780.372	0.0160300
780.450	0.0159442
780.529	0.0159085
780.607	0.0159835
780.685	0.0161172
780.763	0.0159900
780.841	0.0161491
780.919	0.0161282
780.997	0.0160653
781.075	0.0161751
781.154	0.0161900
781.232	0.0162482
781.310	0.0164078
781.388	0.0160664
781.466	0.0162163
781.544	0.0163242
781.622	0.0163244
781.700	0.0162683
781.779	0.0162494
781.857	0.0163568
781.935	0.0163153
782.013	0.0163966
782.091	0.0162067
782.169	0.0163692
782.247	0.0164475
782.325	0.0163818
782.404	0.0164307
782.482	0.0163422
782.560	0.0163760
782.638	0.0165050
782.716	0.0165047
782.794	0.0164352
782.872	0.0163561
782.950	0.0163741
783.029	0.0162901
783.107	0.0163509
783.185	0.0164062
783.263	0.0164410
783.341	0.0164198
783.419	0.0164008
783.497	0.0164336
783.575	0.0163419
783.654	0.0164033
783.732	0.0163010
783.810	0.0163591
783.888	0.0165472
783.966	0.0162764
784.044	0.0161665
784.122	0.0163283
784.200	0.0162542
784.279	0.0162358
784.357	0.0161500
784.435	0.0161523
784.513	0.0160780
784.591	0.0160937
784.669	0.0163084
784.747	0.0161511
784.825	0.0161141
784.904	0.0161346
784.982	0.0159752
785.060	0.0159416
785.138	0.0158894
785.216	0.0159158
785.294	0.0159684
785.372	0.0159493
785.450	0.0158346
785.529	0.0159206
785.607	0.0159075
785.685	0.0159631
785.763	0.0158678
785.841	0.0157812
785.919	0.0159431
785.997	0.0159328
786.075	0.0159010
786.154	0.0159412
786.232	0.0160896
786.310	0.0159563
786.388	0.0159470
786.466	0.0160024
786.544	0.0161063
786.622	0.0160914
786.700	0.0159959
786.779	0.0160470
786.857	0.0161580
786.935	0.0161054
787.013	0.0162985
787.091	0.0161893
787.169	0.0161169
787.247	0.0162815
787.325	0.0163528
787.404	0.0163333
787.482	0.0163190
787.560	0.0164249
787.638	0.0164236
787.716	0.0164733
787.794	0.0164179
787.872	0.0165495
787.950	0.0164884
788.029	0.0164936
788.107	0.0164507
788.185	0.0165484
788.263	0.0163754
788.341	0.0165310
788.419	0.0164892
788.497	0.0163136
788.575	0.0165416
788.654	0.0163984
788.732	0.0162894
788.810	0.0163022
788.888	0.0163684
788.966	0.0162407
789.044	0.0162525
789.122	0.0164437
789.200	0.0162534
789.279	0.0162379
789.357	0.0163368
789.435	0.0161935
789.513	0.0163039
789.591	0.0160900
789.669	0.0161445
789.747	0.0162712
789.825	0.0162362
789.904	0.0162234
789.982	0.0162830
790.060	0.0163183
790.138	0.0161671
790.216	0.0161835
790.294	0.0163877
790.372	0.0163929
790.450	0.0163216
790.529	0.0162947
790.607	0.0161880
790.685	0.0163077
790.763	0.0163810
790.841	0.0163404
790.919	0.0163330
790.997	0.0162999
791.075	0.0162344
791.154	0.0163188
791.232	0.0162075
791.310	0.0162347
791.388	0.0162770
791.466	0.0161224
791.544	0.0162406
791.622	0.0161979
791.700	0.0162963
791.779	0.0162539
791.857	0.0161219
791.935	0.0161359
792.013	0.0161480
792.091	0.0162562
792.169	0.0161461
792.247	0.0162146
792.325	0.0162408
792.404	0.0162474
792.482	0.0162138
792.560	0.0162261
792.638	0.0160878
792.716	0.0162374
792.794	0.0162849
792.872	0.0163346
792.950	0.0161568
793.029	0.0163197
793.107	0.0161586
793.185	0.0162662
793.263	0.0163163
793.341	0.0161964
793.419	0.0162623
793.497	0.0163055
793.575	0.0162540
793.654	0.0164119
793.732	0.0163463
793.810	0.0163940
793.888	0.0162772
793.966	0.0162917
794.044	0.0164282
794.122	0.0161909
794.200	0.0163288
794.279	0.0161882
794.357	0.0162366
794.435	0.0161910
794.513	0.0162231
794.591	0.0162074
794.669	0.0160746
794.747	0.0161898
794.825	0.0160462
794.904	0.0161206
794.982	0.0161329
795.060	0.0160480
795.138	0.0161531
795.216	0.0160410
795.294	0.0159946
795.372	0.0161455
795.450	0.0158656
795.529	0.0160130
795.607	0.0160384
795.685	0.0160462
795.763	0.0160978
795.841	0.0159857
795.919	0.0160246
795.997	0.0162850
796.075	0.0159669
796.154	0.0160925
796.232	0.0161589
796.310	0.0161813
796.388	0.0162452
796.466	0.0164010
796.544	0.0162531
796.622	0.0161860
796.700	0.0163087
796.779	0.0163503
796.857	0.0162168
796.935	0.0163528
797.013	0.0162297
797.091	0.0163119
797.169	0.0163268
797.247	0.0162408
797.325	0.0164363
797.404	0.0163943
797.482	0.0164021
797.560	0.0163165
797.638	0.0164961
797.716	0.0164977
797.794	0.0165936
797.872	0.0163973
797.950	0.0164822
798.029	0.0165069
798.107	0.0163898
798.185	0.0164621
798.263	0.0165097
798.341	0.0165322
798.419	0.0164355
798.497	0.0164705
798.575	0.0165208
798.654	0.0164714
798.732	0.0164433
798.810	0.0165083
798.888	0.0164564
798.966	0.0165160
799.044	0.0164630
799.122	0.0164980
799.200	0.0165144
799.279	0.0164120
799.357	0.0164105
799.435	0.0163412
799.513	0.0164189
799.591	0.0163407
799.669	0.0163107
799.747	0.0162525
799.825	0.0162927
799.904	0.0162421
799.982	0.0161220
800.060	0.0161584
800.138	0.0161835
800.216	0.0159737
800.294	0.0161118
800.372	0.0159461
800.450	0.0159129
800.529	0.0157635
800.607	0.0158112
800.685	0.0158917
800.763	0.0159359
800.841	0.0157742
800.919	0.0159069
800.997	0.0159850
801.075	0.0158103
801.154	0.0159327
801.232	0.0158862
801.310	0.0157618
801.388	0.0159309
801.466	0.0158440
801.544	0.0158826
801.622	0.0160608
801.700	0.0159806
801.779	0.0159375
801.857	0.0159797
801.935	0.0160715
802.013	0.0160053
802.091	0.0161193
802.169	0.0162242
802.247	0.0161777
802.325	0.0162113
802.404	0.0163942
802.482	0.0162976
802.560	0.0163520
802.638	0.0163207
802.716	0.0162767
802.794	0.0163417
802.872	0.0162287
802.950	0.0161285
803.029	0.0162077
803.107	0.0163254
803.185	0.0163754
803.263	0.0162112
803.341	0.0163351
803.419	0.0164725
803.497	0.0162402
803.575	0.0162681
803.654	0.0163228
803.732	0.0163215
803.810	0.0164189
803.888	0.0164427
803.966	0.0165198
804.044	0.0165270
804.122	0.0165311
804.200	0.0164680
804.279	0.0164469
804.357	0.0166254
804.435	0.0165453
804.513	0.0163875
804.591	0.0165812
804.669	0.0166689
804.747	0.0165760
804.825	0.0164462
804.904	0.0164828
804.982	0.0165167
805.060	0.0165951
805.138	0.0164059
805.216	0.0164971
805.294	0.0164629
805.372	0.0163962
805.450	0.0162474
805.529	0.0163036
805.607	0.0161938
805.685	0.0161769
805.763	0.0161845
805.841	0.0160808
805.919	0.0161873
805.997	0.0160387
806.075	0.0159258
806.154	0.0159404
806.232	0.0159264
806.310	0.0158723
806.388	0.0159365
806.466	0.0159253
806.544	0.0159756
806.622	0.0159186
806.700	0.0157667
806.779	0.0158694
806.857	0.0157892
806.935	0.0158478
807.013	0.0159290
807.091	0.0159262
807.169	0.0159719
807.247	0.0159156
807.325	0.0159529
807.404	0.0158723
807.482	0.0159821
807.560	0.0158802
807.638	0.0160130
807.716	0.0159579
807.794	0.0159227
807.872	0.0160040
807.950	0.0159769
808.029	0.0159110
808.107	0.0160264
808.185	0.0160540
808.263	0.0159524
808.341	0.0160034
808.419	0.0159806
808.497	0.0161928
808.575	0.0162237
808.654	0.0161176
808.732	0.0161275
808.810	0.0161967
808.888	0.0162704
808.966	0.0161866
809.044	0.0163940
809.122	0.0163241
809.200	0.0163022
809.279	0.0163632
809.357	0.0163097
809.435	0.0161787
809.513	0.0163716
809.591	0.0161645
809.669	0.0160226
809.747	0.0161852
809.825	0.0161946
809.904	0.0161020
809.982	0.0162348
810.060	0.0161800
810.138	0.0161952
810.216	0.0161237
810.294	0.0161288
810.372	0.0160779
810.450	0.0162033
810.529	0.0162303
810.607	0.0162222
810.685	0.0162724
810.763	0.0163486
810.841	0.0164472
810.919	0.0164030
810.997	0.0165343
811.075	0.0163673
811.154	0.0164851
811.232	0.0163725
811.310	0.0164748
811.388	0.0164364
811.466	0.0164344
811.544	0.0165533
811.622	0.0164940
811.700	0.0164867
811.779	0.0163728
811.857	0.0163733
811.935	0.0164155
812.013	0.0165242
812.091	0.0163609
812.169	0.0162948
812.247	0.0163497
812.325	0.0163962
812.404	0.0162917
812.482	0.0163195
812.560	0.0163385
812.638	0.0163405
812.716	0.0162260
812.794	0.0163564
812.872	0.0163919
812.950	0.0161885
813.029	0.0163349
813.107	0.0163596
813.185	0.0162666
813.263	0.0162543
813.341	0.0163146
813.419	0.0162431
813.497	0.0162572
813.575	0.0162177
813.654	0.0160703
813.732	0.0161855
813.810	0.0162917
813.888	0.0161963
813.966	0.0161883
814.044	0.0161488
814.122	0.0161766
814.200	0.0160433
814.279	0.0163044
814.357	0.0161348
814.435	0.0161280
814.513	0.0161650
814.591	0.0161403
814.669	0.0160886
814.747	0.0160553
814.825	0.0161541
814.904	0.0160657
814.982	0.0161785
815.060	0.0160809
815.138	0.0162591
815.216	0.0162255
815.294	0.0161877
815.372	0.0161617
815.450	0.0160889
815.529	0.0161199
815.607	0.0162237
815.685	0.0161677
815.763	0.0161313
815.841	0.0161536
815.919	0.0160277
815.997	0.0160332
816.075	0.0162464
816.154	0.0160699
816.232	0.0160355
816.310	0.0159906
816.388	0.0161145
816.466	0.0162224
816.544	0.0162077
816.622	0.0162491
816.700	0.0162850
816.779	0.0162820
816.857	0.0162504
816.935	0.0162704
817.013	0.0163831
817.091	0.0163512
817.169	0.0162411
817.247	0.0162165
817.325	0.0164259
817.404	0.0162946
817.482	0.0163303
817.560	0.0163414
817.638	0.0163744
817.716	0.0163566
817.794	0.0163670
817.872	0.0164893
817.950	0.0164584
818.029	0.0165878
818.107	0.0164870
818.185	0.0165783
818.263	0.0164478
818.341	0.0163919
818.419	0.0166122
818.497	0.0165523
818.575	0.0165109
818.654	0.0163055
818.732	0.0164964
818.810	0.0165794
818.888	0.0164825
818.966	0.0164142
819.044	0.0162628
819.122	0.0163460
819.200	0.0163232
819.279	0.0164000
819.357	0.0162382
819.435	0.0162341
819.513	0.0162851
819.591	0.0161529
819.669	0.0161710
819.747	0.0161248
819.825	0.0161600
819.904	0.0160020
819.982	0.0160981
820.060	0.0161700
820.138	0.0160880
820.216	0.0160954
820.294	0.0161044
820.372	0.0161994
820.450	0.0161544
820.529	0.0162398
820.607	0.0162323
820.685	0.0161941
820.763	0.0163031
820.841	0.0162338
820.919	0.0162862
820.997	0.0162015
821.075	0.0161819
821.154	0.0162125
821.232	0.0161335
821.310	0.0163310
821.388	0.0161443
821.466	0.0162614
821.544	0.0164648
821.622	0.0161423
821.700	0.0161382
821.779	0.0162195
821.857	0.0163274
821.935	0.0162675
822.013	0.0162602
822.091	0.0162111
822.169	0.0161284
822.247	0.0162302
822.325	0.0161230
822.404	0.0160574
822.482	0.0161452
822.560	0.0161343
822.638	0.0160437
822.716	0.0161936
822.794	0.0160929
822.872	0.0159887
822.950	0.0161610
823.029	0.0161442
823.107	0.0162108
823.185	0.0161738
823.263	0.0162270
823.341	0.0161326
823.419	0.0161909
823.497	0.0162729
823.575	0.0162928
823.654	0.0162553
823.732	0.0161920
823.810	0.0162684
823.888	0.0162193
823.966	0.0162117
824.044	0.0161518
824.122	0.0162526
824.200	0.0161776
824.279	0.0162058
824.357	0.0163123
824.435	0.0162071
824.513	0.0160974
824.591	0.0163348
824.669	0.0163080
824.747	0.0162099
824.825	0.0162424
824.904	0.0162547
824.982	0.0161926
825.060	0.0162677
825.138	0.0161802
825.216	0.0162851
825.294	0.0162698
825.372	0.0161720
825.450	0.0162772
825.529	0.0163309
825.607	0.0163048
825.685	0.0162505
825.763	0.0163934
825.841	0.0164035
825.919	0.0163201
825.997	0.0162466
826.075	0.0163876
826.154	0.0164153
826.232	0.0163478
826.310	0.0163112
826.388	0.0164077
826.466	0.0162495
826.544	0.0163611
826.622	0.0163947
826.700	0.0162988
826.779	0.0162373
826.857	0.0162212
826.935	0.0163626
827.013	0.0161106
827.091	0.0161682
827.169	0.0161881
827.247	0.0161481
827.325	0.0161390
827.404	0.0162590
827.482	0.0163395
827.560	0.0162901
827.638	0.0164008
827.716	0.0163007
827.794	0.0162939
827.872	0.0163354
827.950	0.0162779
828.029	0.0163861
828.107	0.0163668
828.185	0.0162013
828.263	0.0163876
828.341	0.0162956
828.419	0.0162086
828.497	0.0163470
828.575	0.0163673
828.654	0.0162476
828.732	0.0161296
828.810	0.0161407
828.888	0.0160959
828.966	0.0161736
829.044	0.0161189
829.122	0.0161673
829.200	0.0161838
829.279	0.0161272
829.357	0.0162611
829.435	0.0162178
829.513	0.0162562
829.591	0.0160627
829.669	0.0160889
829.747	0.0163023
829.825	0.0161766
829.904	0.0161972
829.982	0.0161488
830.060	0.0162733
830.138	0.0161647
830.216	0.0162144
830.294	0.0160989
830.372	0.0159833
830.450	0.0159958
830.529	0.0162493
830.607	0.0160516
830.685	0.0160758
830.763	0.0162988
830.841	0.0160666
830.919	0.0160594
830.997	0.0160272
831.075	0.0161287
831.154	0.0160231
831.232	0.0160120
831.310	0.0160799
831.388	0.0159992
831.466	0.0161465
831.544	0.0160517
831.622	0.0161024
831.700	0.0161053
831.779	0.0160851
831.857	0.0161327
831.935	0.0160137
832.013	0.0160658
832.091	0.0160648
832.169	0.0161699
832.247	0.0162892
832.325	0.0161378
832.404	0.0162126
832.482	0.0161175
832.560	0.0162164
832.638	0.0162109
832.716	0.0162426
832.794	0.0160863
832.872	0.0161170
832.950	0.0161836
833.029	0.0161752
833.107	0.0162332
833.185	0.0162771
833.263	0.0162014
833.341	0.0161473
833.419	0.0160862
833.497	0.0162238
833.575	0.0162152
833.654	0.0161650
833.732	0.0162888
833.810	0.0163224
833.888	0.0162373
833.966	0.0162466
834.044	0.0162347
834.122	0.0163363
834.200	0.0163718
834.279	0.0162820
834.357	0.0162990
834.435	0.0162061
834.513	0.0162743
834.591	0.0163982
834.669	0.0161635
834.747	0.0161608
834.825	0.0162334
834.904	0.0163567
834.982	0.0163261
835.060	0.0162675
835.138	0.0161280
835.216	0.0162957
835.294	0.0162819
835.372	0.0162682
835.450	0.0161728
835.529	0.0161539
835.607	0.0163533
835.685	0.0162415
835.763	0.0162431
835.841	0.0161471
835.919	0.0159483
835.997	0.0160448
836.075	0.0161375
836.154	0.0159570
836.232	0.0160860
836.310	0.0161683
836.388	0.0160189
836.466	0.0161255
836.544	0.0160252
836.622	0.0159835
836.700	0.0160474
836.779	0.0160867
836.857	0.0162347
836.935	0.0162296
837.013	0.0162556
837.091	0.0162135
837.169	0.0162252
837.247	0.0163070
837.325	0.0160391
837.404	0.0163258
837.482	0.0162637
837.560	0.0161761
837.638	0.0161578
837.716	0.0162382
837.794	0.0161845
837.872	0.0162417
837.950	0.0161687
838.029	0.0160575
838.107	0.0162856
838.185	0.0160368
838.263	0.0159560
838.341	0.0161542
838.419	0.0161753
838.497	0.0161371
838.575	0.0161085
838.654	0.0161031
838.732	0.0161273
838.810	0.0160965
838.888	0.0160986
838.966	0.0161517
839.044	0.0161359
839.122	0.0160545
839.200	0.0163131
839.279	0.0161604
839.357	0.0161145
839.435	0.0162400
839.513	0.0163238
839.591	0.0162630
839.669	0.0161797
839.747	0.0164525
839.825	0.0164583
839.904	0.0163358
839.982	0.0163832
840.060	0.0163894
840.138	0.0162224
840.216	0.0161934
840.294	0.0164378
840.372	0.0164420
840.450	0.0162029
840.529	0.0163461
840.607	0.0163326
840.685	0.0162592
840.763	0.0163497
840.841	0.0162920
840.919	0.0163338
840.997	0.0164421
841.075	0.0163988
841.154	0.0162783
841.232	0.0162690
841.310	0.0163237
841.388	0.0162897
841.466	0.0162397
841.544	0.0163874
841.622	0.0163848
841.700	0.0162816
841.779	0.0163535
841.857	0.0162540
841.935	0.0163010
842.013	0.0161758
842.091	0.0162698
842.169	0.0163654
842.247	0.0163543
842.325	0.0162216
842.404	0.0163739
842.482	0.0163858
842.560	0.0161943
842.638	0.0162703
842.716	0.0162775
842.794	0.0163116
842.872	0.0162711
842.950	0.0162206
843.029	0.0162032
843.107	0.0163317
843.185	0.0163826
843.263	0.0162371
843.341	0.0163070
843.419	0.0159862
843.497	0.0161627
843.575	0.0163181
843.654	0.0161799
843.732	0.0161251
843.810	0.0161520
843.888	0.0161210
843.966	0.0161156
844.044	0.0162075
844.122	0.0161387
844.200	0.0163056
844.279	0.0161677
844.357	0.0161613
844.435	0.0162215
844.513	0.0161707
844.591	0.0162861
844.669	0.0163126
844.747	0.0160583
844.825	0.0162806
844.904	0.0162639
844.982	0.0161555
845.060	0.0162511
845.138	0.0163039
845.216	0.0161807
845.294	0.0162891
845.372	0.0162518
845.450	0.0162405
845.529	0.0162663
845.607	0.0163702
845.685	0.0163271
845.763	0.0163368
845.841	0.0161506
845.919	0.0162852
845.997	0.0161945
846.075	0.0163387
846.154	0.0161232
846.232	0.0161687
846.310	0.0162556
846.388	0.0162921
846.466	0.0161859
846.544	0.0162537
846.622	0.0161851
846.700	0.0162170
846.779	0.0162433
846.857	0.0162000
846.935	0.0161564
847.013	0.0162199
847.091	0.0162228
847.169	0.0162057
847.247	0.0161796
847.325	0.0162074
847.404	0.0161876
847.482	0.0160775
847.560	0.0161591
847.638	0.0160995
847.716	0.0161942
847.794	0.0161447
847.872	0.0160500
847.950	0.0159470
848.029	0.0160239
848.107	0.0160962
848.185	0.0161591
848.263	0.0160962
848.341	0.0160284
848.419	0.0160808
848.497	0.0160025
848.575	0.0161319
848.654	0.0162556
848.732	0.0162718
848.810	0.0161693
848.888	0.0161430
848.966	0.0162299
849.044	0.0162698
849.122	0.0163309
849.200	0.0163539
849.279	0.0164747
849.357	0.0162428
849.435	0.0163731
849.513	0.0163027
849.591	0.0162649
849.669	0.0164780
849.747	0.0162211
849.825	0.0162846
849.904	0.0162178
849.982	0.0160976
850.060	0.0161404
850.138	0.0160305
850.216	0.0159924
850.294	0.0161681
850.372	0.0160532
850.450	0.0159444
850.529	0.0159731
850.607	0.0160622
850.685	0.0159623
850.763	0.0159396
850.841	0.0159438
850.919	0.0159702
850.997	0.0160738
851.075	0.0159798
851.154	0.0160822
851.232	0.0160953
851.310	0.0159966
851.388	0.0160792
851.466	0.0160098
851.544	0.0161775
851.622	0.0162642
851.700	0.0163278
851.779	0.0163937
851.857	0.0162979
851.935	0.0162740
852.013	0.0163267
852.091	0.0162447
852.169	0.0162886
852.247	0.0163726
852.325	0.0163804
852.404	0.0163584
852.482	0.0162836
852.560	0.0162847
852.638	0.0163911
852.716	0.0164744
852.794	0.0162943
852.872	0.0162748
852.950	0.0163187
853.029	0.0163142
853.107	0.0162336
853.185	0.0163312
853.263	0.0161763
853.341	0.0161684
853.419	0.0161159
853.497	0.0162258
853.575	0.0159712
853.654	0.0160078
853.732	0.0161438
853.810	0.0160404
853.888	0.0161662
853.966	0.0162649
854.044	0.0161041
854.122	0.0160389
854.200	0.0162592
854.279	0.0161868
854.357	0.0160257
854.435	0.0161699
854.513	0.0162628
854.591	0.0162059
854.669	0.0160663
854.747	0.0161232
854.825	0.0161444
854.904	0.0160544
854.982	0.0160725
855.060	0.0161488
855.138	0.0160371
855.216	0.0160680
855.294	0.0160674
855.372	0.0160549
855.450	0.0159406
855.529	0.0159508
855.607	0.0160078
855.685	0.0160505
855.763	0.0160705
855.841	0.0161381
855.919	0.0161407
855.997	0.0159315
856.075	0.0162363
856.154	0.0162594
856.232	0.0161866
856.310	0.0162600
856.388	0.0160871
856.466	0.0161425
856.544	0.0160823
856.622	0.0162304
856.700	0.0160760
856.779	0.0161295
856.857	0.0162968
856.935	0.0162385
857.013	0.0161878
857.091	0.0162539
857.169	0.0163560
857.247	0.0162701
857.325	0.0162965
857.404	0.0163255
857.482	0.0162741
857.560	0.0163209
857.638	0.0163864
857.716	0.0163599
857.794	0.0163315
857.872	0.0163564
857.950	0.0163777
858.029	0.0163860
858.107	0.0164084
858.185	0.0164138
858.263	0.0164326
858.341	0.0162644
858.419	0.0163517
858.497	0.0163810
858.575	0.0162126
858.654	0.0162649
858.732	0.0162673
858.810	0.0161040
858.888	0.0159660
858.966	0.0162299
859.044	0.0162308
859.122	0.0159727
859.200	0.0161785
859.279	0.0160770
859.357	0.0161794
859.435	0.0160526
859.513	0.0161196
859.591	0.0160545
859.669	0.0161147
859.747	0.0160775
859.825	0.0160408
859.904	0.0160158
859.982	0.0160545
860.060	0.0160639
860.138	0.0160940
860.216	0.0161185
860.294	0.0161433
860.372	0.0161001
860.450	0.0162171
860.529	0.0161721
860.607	0.0161206
860.685	0.0163048
860.763	0.0164285
860.841	0.0163665
860.919	0.0163554
860.997	0.0164930
861.075	0.0164517
861.154	0.0164853
861.232	0.0164178
861.310	0.0165979
861.388	0.0164127
861.466	0.0164599
861.544	0.0163714
861.622	0.0163211
861.700	0.0162119
861.779	0.0162699
861.857	0.0163363
861.935	0.0161755
862.013	0.0160813
862.091	0.0161134
862.169	0.0162187
862.247	0.0161797
862.325	0.0161217
862.404	0.0161249
862.482	0.0161289
862.560	0.0162035
862.638	0.0160994
862.716	0.0160965
862.794	0.0161370
862.872	0.0160399
862.950	0.0160409
863.029	0.0160067
863.107	0.0161057
863.185	0.0161343
863.263	0.0162216
863.341	0.0160999
863.419	0.0160838
863.497	0.0162791
863.575	0.0162844
863.654	0.0161317
863.732	0.0163215
863.810	0.0162773
863.888	0.0162474
863.966	0.0163692
864.044	0.0163658
864.122	0.0164269
864.200	0.0163897
864.279	0.0163770
864.357	0.0164166
864.435	0.0163374
864.513	0.0163651
864.591	0.0163791
864.669	0.0164349
864.747	0.0162387
864.825	0.0162585
864.904	0.0161539
864.982	0.0162760
865.060	0.0162366
865.138	0.0160788
865.216	0.0162173
865.294	0.0160175
865.372	0.0160104
865.450	0.0159911
865.529	0.0161209
865.607	0.0160608
865.685	0.0161843
865.763	0.0160751
865.841	0.0160976
865.919	0.0161696
865.997	0.0161699
866.075	0.0162140
866.154	0.0162251
866.232	0.0162983
866.310	0.0161092
866.388	0.0162804
866.466	0.0162866
866.544	0.0162767
866.622	0.0163033
866.700	0.0164819
866.779	0.0162869
866.857	0.0162502
866.935	0.0163856
867.013	0.0162575
867.091	0.0162901
867.169	0.0162089
867.247	0.0163074
867.325	0.0161534
867.404	0.0162219
867.482	0.0161983
867.560	0.0161339
867.638	0.0161751
867.716	0.0161790
867.794	0.0160941
867.872	0.0160319
867.950	0.0162142
868.029	0.0162099
868.107	0.0160210
868.185	0.0161109
868.263	0.0161762
868.341	0.0160722
868.419	0.0160151
868.497	0.0161562
868.575	0.0161259
868.654	0.0161010
868.732	0.0161182
868.810	0.0162126
868.888	0.0161123
868.966	0.0161499
869.044	0.0161137
869.122	0.0162009
869.200	0.0161600
869.279	0.0161776
869.357	0.0162286
869.435	0.0161765
869.513	0.0162978
869.591	0.0162874
869.669	0.0163486
869.747	0.0163706
869.825	0.0164430
869.904	0.0163609
869.982	0.0163327
870.060	0.0164230
870.138	0.0165639
870.216	0.0163965
870.294	0.0163403
870.372	0.0164786
870.450	0.0163152
870.529	0.0162798
870.607	0.0161699
870.685	0.0163359
870.763	0.0163319
870.841	0.0162876
870.919	0.0161394
870.997	0.0163083
871.075	0.0161509
871.154	0.0161380
871.232	0.0159962
871.310	0.0161512
871.388	0.0162501
871.466	0.0162447
871.544	0.0161996
871.622	0.0161861
871.700	0.0161790
871.779	0.0161849
871.857	0.0161990
871.935	0.0162187
872.013	0.0162791
872.091	0.0161501
872.169	0.0161496
872.247	0.0160863
872.325	0.0161912
872.404	0.0161169
872.482	0.0160751
872.560	0.0161785
872.638	0.0160366
872.716	0.0161999
872.794	0.0161123
872.872	0.0160873
872.950	0.0161135
873.029	0.0159833
873.107	0.0160384
873.185	0.0160573
873.263	0.0162069
873.341	0.0160553
873.419	0.0160488
873.497	0.0161468
873.575	0.0161774
873.654	0.0161668
873.732	0.0160876
873.810	0.0161179
873.888	0.0162943
873.966	0.0163264
874.044	0.0162952
874.122	0.0164076
874.200	0.0162929
874.279	0.0164429
874.357	0.0165110
874.435	0.0164366
874.513	0.0165491
874.591	0.0165588
874.669	0.0165395
874.747	0.0164412
874.825	0.0163569
874.904	0.0162953
874.982	0.0164114
875.060	0.0163987
875.138	0.0162489
875.216	0.0162923
875.294	0.0161152
875.372	0.0160231
875.450	0.0161067
875.529	0.0161224
875.607	0.0160227
875.685	0.0160117
875.763	0.0160233
875.841	0.0160638
875.919	0.0160342
875.997	0.0160180
876.075	0.0160960
876.154	0.0160004
876.232	0.0160545
876.310	0.0159758
876.388	0.0161231
876.466	0.0162505
876.544	0.0162432
876.622	0.0161620
876.700	0.0163231
876.779	0.0162379
876.857	0.0163189
876.935	0.0163139
877.013	0.0163229
877.091	0.0163408
877.169	0.0163454
877.247	0.0163337
877.325	0.0165070
877.404	0.0162957
877.482	0.0162113
877.560	0.0163573
877.638	0.0162239
877.716	0.0163672
877.794	0.0162089
877.872	0.0162598
877.950	0.0161955
878.029	0.0163320
878.107	0.0163034
878.185	0.0162557
878.263	0.0162861
878.341	0.0162202
878.419	0.0161767
878.497	0.0162470
878.575	0.0162397
878.654	0.0162287
878.732	0.0161456
878.810	0.0162846
878.888	0.0162047
878.966	0.0161503
879.044	0.0160914
879.122	0.0161140
879.200	0.0161024
879.279	0.0160189
879.357	0.0161159
879.435	0.0159666
879.513	0.0160174
879.591	0.0160745
879.669	0.0159417
879.747	0.0159551
879.825	0.0159679
879.904	0.0160643
879.982	0.0159933
880.060	0.0160236
880.138	0.0159642
880.216	0.0160719
880.294	0.0161199
880.372	0.0159034
880.450	0.0160005
880.529	0.0160884
880.607	0.0161043
880.685	0.0162624
880.763	0.0161580
880.841	0.0161375
880.919	0.0161788
880.997	0.0162465
881.075	0.0161155
881.154	0.0162175
881.232	0.0162435
881.310	0.0163899
881.388	0.0163312
881.466	0.0163093
881.544	0.0163424
881.622	0.0164011
881.700	0.0162981
881.779	0.0163477
881.857	0.0163171
881.935	0.0164481
882.013	0.0163461
882.091	0.0165530
882.169	0.0164706
882.247	0.0164329
882.325	0.0164933
882.404	0.0164996
882.482	0.0163892
882.560	0.0164273
882.638	0.0163849
882.716	0.0162719
882.794	0.0163568
882.872	0.0164395
882.950	0.0162865
883.029	0.0163583
883.107	0.0162739
883.185	0.0162334
883.263	0.0161613
883.341	0.0162314
883.419	0.0161575
883.497	0.0160400
883.575	0.0160802
883.654	0.0161652
883.732	0.0161104
883.810	0.0160235
883.888	0.0160567
883.966	0.0161078
884.044	0.0161680
884.122	0.0161720
884.200	0.0162968
884.279	0.0162215
884.357	0.0162851
884.435	0.0162676
884.513	0.0162016
884.591	0.0164381
884.669	0.0163368
884.747	0.0162362
884.825	0.0163071
884.904	0.0163190
884.982	0.0162873
885.060	0.0163766
885.138	0.0161266
885.216	0.0162630
885.294	0.0163560
885.372	0.0162350
885.450	0.0162560
885.529	0.0162681
885.607	0.0163358
885.685	0.0162802
885.763	0.0162749
885.841	0.0162839
885.919	0.0162246
885.997	0.0161589
886.075	0.0161335
886.154	0.0161274
886.232	0.0161806
886.310	0.0161066
886.388	0.0161829
886.466	0.0161063
886.544	0.0161742
886.622	0.0161796
886.700	0.0162199
886.779	0.0161629
886.857	0.0161926
886.935	0.0161526
887.013	0.0163773
887.091	0.0161288
887.169	0.0162546
887.247	0.0163200
887.325	0.0162356
887.404	0.0162965
887.482	0.0162649
887.560	0.0162859
887.638	0.0162990
887.716	0.0162778
887.794	0.0162012
887.872	0.0162096
887.950	0.0161749
888.029	0.0163276
888.107	0.0163195
888.185	0.0162845
888.263	0.0161926
888.341	0.0162177
888.419	0.0162640
888.497	0.0160616
888.575	0.0161002
888.654	0.0162058
888.732	0.0162378
888.810	0.0161378
888.888	0.0160078
888.966	0.0160733
889.044	0.0161754
889.122	0.0161694
889.200	0.0162218
889.279	0.0162508
889.357	0.0162789
889.435	0.0162675
889.513	0.0161085
889.591	0.0161662
889.669	0.0162263
889.747	0.0163296
889.825	0.0163652
889.904	0.0161726
889.982	0.0162049
890.060	0.0162231
890.138	0.0162402
890.216	0.0162741
890.294	0.0162713
890.372	0.0160952
890.450	0.0160313
890.529	0.0162346
890.607	0.0163444
890.685	0.0162461
890.763	0.0161604
890.841	0.0162066
890.919	0.0162777
890.997	0.0162505
891.075	0.0162891
891.154	0.0160932
891.232	0.0163424
891.310	0.0162517
891.388	0.0160600
891.466	0.0161043
891.544	0.0160974
891.622	0.0161959
891.700	0.0159793
891.779	0.0160719
891.857	0.0160856
891.935	0.0160847
892.013	0.0161897
892.091	0.0161681
892.169	0.0161525
892.247	0.0161434
892.325	0.0160715
892.404	0.0161866
892.482	0.0161167
892.560	0.0160332
892.638	0.0161886
892.716	0.0162057
892.794	0.0162621
892.872	0.0161855
892.950	0.0162780
893.029	0.0162965
893.107	0.0163737
893.185	0.0163240
893.263	0.0162963
893.341	0.0163177
893.419	0.0161398
893.497	0.0163298
893.575	0.0160838
893.654	0.0161906
893.732	0.0162592
893.810	0.0162850
893.888	0.0162725
893.966	0.0161514
894.044	0.0162209
894.122	0.0160260
894.200	0.0161121
894.279	0.0161400
894.357	0.0159262
894.435	0.0161124
894.513	0.0160204
894.591	0.0159119
894.669	0.0160209
894.747	0.0159830
894.825	0.0158849
894.904	0.0159503
894.982	0.0159783
895.060	0.0159698
895.138	0.0159609
895.216	0.0160585
895.294	0.0159820
895.372	0.0160671
895.450	0.0160617
895.529	0.0160474
895.607	0.0160480
895.685	0.0161848
895.763	0.0160983
895.841	0.0160857
895.919	0.0162962
895.997	0.0162157
896.075	0.0162683
896.154	0.0163499
896.232	0.0162858
896.310	0.0162865
896.388	0.0163357
896.466	0.0163754
896.544	0.0163252
896.622	0.0162074
896.700	0.0162924
896.779	0.0162719
896.857	0.0163214
896.935	0.0163043
897.013	0.0164354
897.091	0.0162960
897.169	0.0163977
897.247	0.0164254
897.325	0.0163416
897.404	0.0164041
897.482	0.0163183
897.560	0.0163496
897.638	0.0164027
897.716	0.0164429
897.794	0.0162363
897.872	0.0161532
897.950	0.0163575
898.029	0.0162936
898.107	0.0163468
898.185	0.0163255
898.263	0.0162717
898.341	0.0163731
898.419	0.0162425
898.497	0.0161905
898.575	0.0162789
898.654	0.0162309
898.732	0.0162455
898.810	0.0162875
898.888	0.0162824
898.966	0.0161427
899.044	0.0163092
899.122	0.0161125
899.200	0.0162613
899.279	0.0163411
899.357	0.0162481
899.435	0.0162099
899.513	0.0161800
899.591	0.0161217
899.669	0.0160713
899.747	0.0161628
899.825	0.0161240
899.904	0.0161988
899.982	0.0162627
900.060	0.0162791
900.138	0.0163465
900.216	0.0162514
900.294	0.0163509
900.372	0.0162434
900.450	0.0162352
900.529	0.0161509
900.607	0.0162187
900.685	0.0163252
900.763	0.0162392
900.841	0.0162521
900.919	0.0162851
900.997	0.0162170
901.075	0.0161793
901.154	0.0162606
901.232	0.0161623
901.310	0.0161062
901.388	0.0163611
901.466	0.0164285
901.544	0.0163113
901.622	0.0162363
901.700	0.0160229
901.779	0.0162558
901.857	0.0161552
901.935	0.0161435
902.013	0.0161390
902.091	0.0161540
902.169	0.0161413
902.247	0.0162137
902.325	0.0161500
902.404	0.0161869
902.482	0.0160792
902.560	0.0161108
902.638	0.0161557
902.716	0.0161273
902.794	0.0161502
902.872	0.0160449
902.950	0.0161693
903.029	0.0161643
903.107	0.0160914
903.185	0.0161285
903.263	0.0160953
903.341	0.0161769
903.419	0.0161703
903.497	0.0161203
903.575	0.0160838
903.654	0.0159793
903.732	0.0161399
903.810	0.0161833
903.888	0.0161209
903.966	0.0161478
904.044	0.0161509
904.122	0.0162077
904.200	0.0161372
904.279	0.0163545
904.357	0.0163943
904.435	0.0162959
904.513	0.0162991
904.591	0.0162762
904.669	0.0164286
904.747	0.0163329
904.825	0.0163329
904.904	0.0162540
904.982	0.0163741
905.060	0.0163598
905.138	0.0162782
905.216	0.0162514
905.294	0.0164152
905.372	0.0162711
905.450	0.0163075
905.529	0.0164870
905.607	0.0163053
905.685	0.0162369
905.763	0.0163084
905.841	0.0163631
905.919	0.0163204
905.997	0.0162630
906.075	0.0163069
906.154	0.0163742
906.232	0.0163058
906.310	0.0163985
906.388	0.0163072
906.466	0.0163046
906.544	0.0162598
906.622	0.0161694
906.700	0.0161829
906.779	0.0162710
906.857	0.0162132
906.935	0.0161155
907.013	0.0163029
907.091	0.0163176
907.169	0.0162061
907.247	0.0162314
907.325	0.0161855
907.404	0.0162592
907.482	0.0161895
907.560	0.0162055
907.638	0.0163506
907.716	0.0162994
907.794	0.0162047
907.872	0.0161634
907.950	0.0162521
908.029	0.0162305
908.107	0.0161527
908.185	0.0162134
908.263	0.0161870
908.341	0.0160702
908.419	0.0161337
908.497	0.0161171
908.575	0.0161379
908.654	0.0161396
908.732	0.0162560
908.810	0.0161799
908.888	0.0161218
908.966	0.0159666
909.044	0.0161850
909.122	0.0162360
909.200	0.0161546
909.279	0.0161396
909.357	0.0159385
909.435	0.0160159
909.513	0.0161574
909.591	0.0160462
909.669	0.0160871
909.747	0.0161220
909.825	0.0160503
909.904	0.0159338
909.982	0.0159610
910.060	0.0160759
910.138	0.0160900
910.216	0.0161220
910.294	0.0161904
910.372	0.0160298
910.450	0.0160552
910.529	0.0160975
910.607	0.0160793
910.685	0.0161358
910.763	0.0161561
910.841	0.0161961
910.919	0.0161336
910.997	0.0161182
911.075	0.0162965
911.154	0.0161581
911.232	0.0161650
911.310	0.0162199
911.388	0.0162417
911.466	0.0161880
911.544	0.0162215
911.622	0.0162010
911.700	0.0164512
911.779	0.0162796
911.857	0.0160929
911.935	0.0163173
912.013	0.0163569
912.091	0.0162928
912.169	0.0161533
912.247	0.0163253
912.325	0.0162758
912.404	0.0163145
912.482	0.0163812
912.560	0.0163543
912.638	0.0163464
912.716	0.0162972
912.794	0.0163383
912.872	0.0163344
912.950	0.0162648
913.029	0.0163140
913.107	0.0161754
913.185	0.0162264
913.263	0.0163915
913.341	0.0164619
913.419	0.0163785
913.497	0.0163358
913.575	0.0163264
913.654	0.0163688
913.732	0.0163953
913.810	0.0164984
913.888	0.0163734
913.966	0.0163652
914.044	0.0163655
914.122	0.0163652
914.200	0.0161468
914.279	0.0163433
914.357	0.0161709
914.435	0.0161680
914.513	0.0161739
914.591	0.0160747
914.669	0.0162431
914.747	0.0162619
914.825	0.0161820
914.904	0.0160726
914.982	0.0160118
915.060	0.0162298
915.138	0.0161525
915.216	0.0161612
915.294	0.0163093
915.372	0.0161782
915.450	0.0160493
915.529	0.0162151
915.607	0.0162727
915.685	0.0163627
915.763	0.0163842
915.841	0.0162108
915.919	0.0162390
915.997	0.0162167
916.075	0.0161624
916.154	0.0162368
916.232	0.0163422
916.310	0.0161991
916.388	0.0161679
916.466	0.0162894
916.544	0.0162265
916.622	0.0162330
916.700	0.0161286
916.779	0.0162096
916.857	0.0163132
916.935	0.0161532
917.013	0.0162583
917.091	0.0161700
917.169	0.0161595
917.247	0.0161153
917.325	0.0162120
917.404	0.0162791
917.482	0.0159789
917.560	0.0160792
917.638	0.0160677
917.716	0.0160921
917.794	0.0160274
917.872	0.0161353
917.950	0.0158961
918.029	0.0158976
918.107	0.0160641
918.185	0.0162145
918.263	0.0160815
918.341	0.0159129
918.419	0.0160497
918.497	0.0160777
918.575	0.0160191
918.654	0.0159658
918.732	0.0161043
918.810	0.0162328
918.888	0.0160981
918.966	0.0161873
919.044	0.0162448
919.122	0.0163123
919.200	0.0161494
919.279	0.0160835
919.357	0.0162115
919.435	0.0161684
919.513	0.0162280
919.591	0.0161864
919.669	0.0162947
919.747	0.0162045
919.825	0.0161667
919.904	0.0162817
