05/24/2022	20:35:51	Ver.	4.1	UNKNOWN
Optical Delay	599.981738	Delta X		0.078125	Sweeps	1	Scan Rate	0/0
Coordinates	Axis 1	NaN	Axis 2	NaN	Axis 3	NaN	Axis 4	NaN	Axis 5	NaN	Axis 6	0.000000
TX Power	0.000000	RX Power	0.000000

599.982	0.0163317
600.060	0.0165010
600.138	0.0163859
600.216	0.0164046
600.294	0.0164158
600.372	0.0165242
600.450	0.0164559
600.529	0.0163995
600.607	0.0165329
600.685	0.0163491
600.763	0.0163694
600.841	0.0162801
600.919	0.0162986
600.997	0.0163412
601.075	0.0162357
601.154	0.0162061
601.232	0.0162099
601.310	0.0161341
601.388	0.0161622
601.466	0.0161051
601.544	0.0161597
601.622	0.0161001
601.700	0.0161662
601.779	0.0161719
601.857	0.0161320
601.935	0.0161623
602.013	0.0161138
602.091	0.0161495
602.169	0.0161602
602.247	0.0161629
602.325	0.0161516
602.404	0.0161884
602.482	0.0163088
602.560	0.0163956
602.638	0.0161333
602.716	0.0161615
602.794	0.0164058
602.872	0.0163747
602.950	0.0161948
603.029	0.0163962
603.107	0.0164670
603.185	0.0162820
603.263	0.0164733
603.341	0.0163239
603.419	0.0161894
603.497	0.0163268
603.575	0.0163502
603.654	0.0162833
603.732	0.0162732
603.810	0.0163863
603.888	0.0162292
603.966	0.0162392
604.044	0.0162226
604.122	0.0162558
604.200	0.0163557
604.279	0.0160145
604.357	0.0162411
604.435	0.0163523
604.513	0.0161581
604.591	0.0161106
604.669	0.0163054
604.747	0.0163387
604.825	0.0162671
604.904	0.0163258
604.982	0.0164272
605.060	0.0162614
605.138	0.0164275
605.216	0.0163490
605.294	0.0164632
605.372	0.0163770
605.450	0.0162775
605.529	0.0164395
605.607	0.0163792
605.685	0.0164923
605.763	0.0164090
605.841	0.0163347
605.919	0.0162492
605.997	0.0162690
606.075	0.0162212
606.154	0.0161366
606.232	0.0161786
606.310	0.0162322
606.388	0.0159418
606.466	0.0159397
606.544	0.0160898
606.622	0.0160944
606.700	0.0161596
606.779	0.0161816
606.857	0.0161403
606.935	0.0162467
607.013	0.0164270
607.091	0.0161574
607.169	0.0162201
607.247	0.0163237
607.325	0.0164024
607.404	0.0163788
607.482	0.0162684
607.560	0.0161874
607.638	0.0161956
607.716	0.0163727
607.794	0.0162862
607.872	0.0162792
607.950	0.0161436
608.029	0.0163210
608.107	0.0162328
608.185	0.0161378
608.263	0.0161881
608.341	0.0160206
608.419	0.0161987
608.497	0.0161925
608.575	0.0163041
608.654	0.0162728
608.732	0.0163158
608.810	0.0163110
608.888	0.0162409
608.966	0.0164133
609.044	0.0162199
609.122	0.0161724
609.200	0.0162333
609.279	0.0161977
609.357	0.0160597
609.435	0.0161532
609.513	0.0162235
609.591	0.0161890
609.669	0.0161114
609.747	0.0161891
609.825	0.0161765
609.904	0.0161561
609.982	0.0162557
610.060	0.0161797
610.138	0.0163222
610.216	0.0163273
610.294	0.0163371
610.372	0.0162379
610.450	0.0163640
610.529	0.0162897
610.607	0.0163812
610.685	0.0162621
610.763	0.0162396
610.841	0.0162089
610.919	0.0163042
610.997	0.0162041
611.075	0.0162395
611.154	0.0162817
611.232	0.0162444
611.310	0.0161576
611.388	0.0163720
611.466	0.0161892
611.544	0.0162848
611.622	0.0162305
611.700	0.0162315
611.779	0.0161240
611.857	0.0162133
611.935	0.0162122
612.013	0.0161197
612.091	0.0160938
612.169	0.0162292
612.247	0.0161915
612.325	0.0162076
612.404	0.0162247
612.482	0.0160902
612.560	0.0162074
612.638	0.0162407
612.716	0.0161317
612.794	0.0161985
612.872	0.0161112
612.950	0.0163934
613.029	0.0163859
613.107	0.0162634
613.185	0.0162192
613.263	0.0164478
613.341	0.0161809
613.419	0.0161623
613.497	0.0162194
613.575	0.0164404
613.654	0.0163033
613.732	0.0161505
613.810	0.0163037
613.888	0.0162666
613.966	0.0161394
614.044	0.0161239
614.122	0.0162707
614.200	0.0163136
614.279	0.0163160
614.357	0.0163652
614.435	0.0161982
614.513	0.0162720
614.591	0.0162673
614.669	0.0162951
614.747	0.0163570
614.825	0.0163112
614.904	0.0163949
614.982	0.0164108
615.060	0.0164527
615.138	0.0165062
615.216	0.0163303
615.294	0.0166295
615.372	0.0162888
615.450	0.0164006
615.529	0.0164523
615.607	0.0164536
615.685	0.0164639
615.763	0.0164667
615.841	0.0164175
615.919	0.0164353
615.997	0.0164125
616.075	0.0163828
616.154	0.0164483
616.232	0.0163506
616.310	0.0162717
616.388	0.0163479
616.466	0.0162300
616.544	0.0163521
616.622	0.0163737
616.700	0.0161445
616.779	0.0161436
616.857	0.0161711
616.935	0.0164381
617.013	0.0163525
617.091	0.0163122
617.169	0.0162766
617.247	0.0163004
617.325	0.0164140
617.404	0.0163593
617.482	0.0164523
617.560	0.0165527
617.638	0.0164450
617.716	0.0165664
617.794	0.0165223
617.872	0.0165633
617.950	0.0166711
618.029	0.0166621
618.107	0.0166751
618.185	0.0166880
618.263	0.0165175
618.341	0.0166099
618.419	0.0165377
618.497	0.0165881
618.575	0.0164339
618.654	0.0164752
618.732	0.0164538
618.810	0.0163946
618.888	0.0162480
618.966	0.0163898
619.044	0.0163239
619.122	0.0163609
619.200	0.0163888
619.279	0.0162318
619.357	0.0163486
619.435	0.0164339
619.513	0.0164634
619.591	0.0164158
619.669	0.0165496
619.747	0.0164713
619.825	0.0164738
619.904	0.0165890
619.982	0.0166414
620.060	0.0166567
620.138	0.0165503
620.216	0.0165587
620.294	0.0166265
620.372	0.0164862
620.450	0.0164957
620.529	0.0163846
620.607	0.0163416
620.685	0.0164497
620.763	0.0164542
620.841	0.0163345
620.919	0.0164264
620.997	0.0163929
621.075	0.0163306
621.154	0.0162826
621.232	0.0162638
621.310	0.0163281
621.388	0.0163752
621.466	0.0164397
621.544	0.0164098
621.622	0.0163330
621.700	0.0163670
621.779	0.0163866
621.857	0.0163730
621.935	0.0164656
622.013	0.0165147
622.091	0.0164296
622.169	0.0166157
622.247	0.0166839
622.325	0.0166145
622.404	0.0165772
622.482	0.0165231
622.560	0.0166028
622.638	0.0164145
622.716	0.0165279
622.794	0.0165018
622.872	0.0163819
622.950	0.0163808
623.029	0.0164219
623.107	0.0162516
623.185	0.0162601
623.263	0.0161727
623.341	0.0161873
623.419	0.0161559
623.497	0.0162284
623.575	0.0162584
623.654	0.0160563
623.732	0.0162290
623.810	0.0162706
623.888	0.0162157
623.966	0.0161378
624.044	0.0161792
624.122	0.0162898
624.200	0.0163725
624.279	0.0164005
624.357	0.0163449
624.435	0.0163464
624.513	0.0163548
624.591	0.0162721
624.669	0.0162772
624.747	0.0162915
624.825	0.0163587
624.904	0.0162169
624.982	0.0163287
625.060	0.0162688
625.138	0.0162819
625.216	0.0162066
625.294	0.0160556
625.372	0.0161053
625.450	0.0161478
625.529	0.0161903
625.607	0.0162395
625.685	0.0162109
625.763	0.0162381
625.841	0.0163236
625.919	0.0161609
625.997	0.0163315
626.075	0.0162518
626.154	0.0162551
626.232	0.0161288
626.310	0.0161423
626.388	0.0161980
626.466	0.0161948
626.544	0.0160751
626.622	0.0161780
626.700	0.0161729
626.779	0.0161606
626.857	0.0161201
626.935	0.0161479
627.013	0.0161945
627.091	0.0160818
627.169	0.0161545
627.247	0.0161890
627.325	0.0160995
627.404	0.0161279
627.482	0.0160477
627.560	0.0162164
627.638	0.0162828
627.716	0.0160628
627.794	0.0160474
627.872	0.0161348
627.950	0.0160100
628.029	0.0160387
628.107	0.0160394
628.185	0.0160025
628.263	0.0160474
628.341	0.0161088
628.419	0.0159742
628.497	0.0161581
628.575	0.0161107
628.654	0.0161210
628.732	0.0159701
628.810	0.0160439
628.888	0.0160482
628.966	0.0159365
629.044	0.0160338
629.122	0.0159174
629.200	0.0161731
629.279	0.0160635
629.357	0.0161147
629.435	0.0160857
629.513	0.0160548
629.591	0.0161246
629.669	0.0162440
629.747	0.0163090
629.825	0.0163467
629.904	0.0162104
629.982	0.0163544
630.060	0.0161892
630.138	0.0163601
630.216	0.0162618
630.294	0.0163000
630.372	0.0163483
630.450	0.0161821
630.529	0.0160762
630.607	0.0159827
630.685	0.0160916
630.763	0.0161818
630.841	0.0159948
630.919	0.0160298
630.997	0.0160230
631.075	0.0160646
631.154	0.0159733
631.232	0.0159857
631.310	0.0160012
631.388	0.0160372
631.466	0.0160999
631.544	0.0160520
631.622	0.0160514
631.700	0.0161185
631.779	0.0161814
631.857	0.0161948
631.935	0.0161623
632.013	0.0160538
632.091	0.0161930
632.169	0.0162095
632.247	0.0161740
632.325	0.0161427
632.404	0.0161826
632.482	0.0161120
632.560	0.0161285
632.638	0.0163187
632.716	0.0161732
632.794	0.0161600
632.872	0.0161795
632.950	0.0162511
633.029	0.0160533
633.107	0.0160340
633.185	0.0161376
633.263	0.0160276
633.341	0.0161510
633.419	0.0161095
633.497	0.0159885
633.575	0.0162296
633.654	0.0161536
633.732	0.0161037
633.810	0.0161343
633.888	0.0161031
633.966	0.0161700
634.044	0.0162109
634.122	0.0161153
634.200	0.0162950
634.279	0.0161903
634.357	0.0162471
634.435	0.0162563
634.513	0.0162147
634.591	0.0160662
634.669	0.0162684
634.747	0.0162415
634.825	0.0161883
634.904	0.0163414
634.982	0.0163776
635.060	0.0163199
635.138	0.0162173
635.216	0.0162793
635.294	0.0163289
635.372	0.0164198
635.450	0.0162364
635.529	0.0162888
635.607	0.0162381
635.685	0.0162175
635.763	0.0161541
635.841	0.0160191
635.919	0.0160668
635.997	0.0162123
636.075	0.0160318
636.154	0.0159507
636.232	0.0161504
636.310	0.0161370
636.388	0.0162359
636.466	0.0161736
636.544	0.0161331
636.622	0.0161300
636.700	0.0161610
636.779	0.0161689
636.857	0.0162415
636.935	0.0162022
637.013	0.0161523
637.091	0.0162054
637.169	0.0161519
637.247	0.0163190
637.325	0.0162407
637.404	0.0162434
637.482	0.0163171
637.560	0.0162499
637.638	0.0162565
637.716	0.0161953
637.794	0.0162460
637.872	0.0160934
637.950	0.0162430
638.029	0.0160426
638.107	0.0160412
638.185	0.0159587
638.263	0.0158775
638.341	0.0159890
638.419	0.0158973
638.497	0.0158783
638.575	0.0156078
638.654	0.0158429
638.732	0.0158913
638.810	0.0158485
638.888	0.0160456
638.966	0.0161041
639.044	0.0162135
639.122	0.0163430
639.200	0.0164302
639.279	0.0164969
639.357	0.0166236
639.435	0.0168195
639.513	0.0168702
639.591	0.0169880
639.669	0.0170438
639.747	0.0171714
639.825	0.0170309
639.904	0.0172533
639.982	0.0171256
640.060	0.0171392
640.138	0.0171254
640.216	0.0169170
640.294	0.0168823
640.372	0.0166788
640.450	0.0166026
640.529	0.0165131
640.607	0.0164974
640.685	0.0160864
640.763	0.0160059
640.841	0.0158029
640.919	0.0153951
640.997	0.0153061
641.075	0.0153188
641.154	0.0151899
641.232	0.0149817
641.310	0.0149469
641.388	0.0148816
641.466	0.0150133
641.544	0.0149876
641.622	0.0150772
641.700	0.0151360
641.779	0.0153539
641.857	0.0155029
641.935	0.0157684
642.013	0.0159887
642.091	0.0161282
642.169	0.0165233
642.247	0.0166187
642.325	0.0168604
642.404	0.0171440
642.482	0.0172778
642.560	0.0174908
642.638	0.0176686
642.716	0.0178895
642.794	0.0179017
642.872	0.0180967
642.950	0.0179853
643.029	0.0179304
643.107	0.0179472
643.185	0.0179818
643.263	0.0177825
643.341	0.0175243
643.419	0.0175070
643.497	0.0171320
643.575	0.0167185
643.654	0.0163932
643.732	0.0160535
643.810	0.0158509
643.888	0.0153769
643.966	0.0150844
644.044	0.0147041
644.122	0.0144548
644.200	0.0142827
644.279	0.0139737
644.357	0.0139949
644.435	0.0139120
644.513	0.0138033
644.591	0.0139316
644.669	0.0139124
644.747	0.0141351
644.825	0.0141526
644.904	0.0146671
644.982	0.0147202
645.060	0.0150455
645.138	0.0155466
645.216	0.0157885
645.294	0.0162038
645.372	0.0166377
645.450	0.0169609
645.529	0.0174888
645.607	0.0179684
645.685	0.0181991
645.763	0.0184417
645.841	0.0187943
645.919	0.0190301
645.997	0.0190546
646.075	0.0194421
646.154	0.0193853
646.232	0.0191912
646.310	0.0189333
646.388	0.0187183
646.466	0.0185882
646.544	0.0183286
646.622	0.0178661
646.700	0.0174569
646.779	0.0170221
646.857	0.0166162
646.935	0.0161513
647.013	0.0159016
647.091	0.0156206
647.169	0.0152102
647.247	0.0147824
647.325	0.0143923
647.404	0.0142637
647.482	0.0140200
647.560	0.0139127
647.638	0.0138690
647.716	0.0139597
647.794	0.0139858
647.872	0.0141557
647.950	0.0141975
648.029	0.0144358
648.107	0.0146103
648.185	0.0147438
648.263	0.0149196
648.341	0.0150503
648.419	0.0151901
648.497	0.0156033
648.575	0.0157495
648.654	0.0159422
648.732	0.0160968
648.810	0.0161895
648.888	0.0165094
648.966	0.0166675
649.044	0.0166829
649.122	0.0168431
649.200	0.0169250
649.279	0.0171234
649.357	0.0172565
649.435	0.0172289
649.513	0.0173197
649.591	0.0174450
649.669	0.0174018
649.747	0.0176257
649.825	0.0174253
649.904	0.0175465
649.982	0.0176149
650.060	0.0176627
650.138	0.0177198
650.216	0.0175415
650.294	0.0175806
650.372	0.0173811
650.450	0.0173511
650.529	0.0170974
650.607	0.0169918
650.685	0.0168231
650.763	0.0166144
650.841	0.0164365
650.919	0.0162439
650.997	0.0157473
651.075	0.0155897
651.154	0.0154768
651.232	0.0152250
651.310	0.0149832
651.388	0.0148650
651.466	0.0146751
651.544	0.0144398
651.622	0.0143927
651.700	0.0144298
651.779	0.0145444
651.857	0.0144660
651.935	0.0143649
652.013	0.0144357
652.091	0.0146481
652.169	0.0149987
652.247	0.0150806
652.325	0.0154994
652.404	0.0156460
652.482	0.0159122
652.560	0.0161923
652.638	0.0165306
652.716	0.0166918
652.794	0.0170564
652.872	0.0173253
652.950	0.0173000
653.029	0.0174827
653.107	0.0175072
653.185	0.0177303
653.263	0.0177222
653.341	0.0175341
653.419	0.0174102
653.497	0.0175177
653.575	0.0173254
653.654	0.0170612
653.732	0.0169875
653.810	0.0167085
653.888	0.0165075
653.966	0.0162382
654.044	0.0160725
654.122	0.0162094
654.200	0.0157517
654.279	0.0156388
654.357	0.0154847
654.435	0.0154261
654.513	0.0153271
654.591	0.0151926
654.669	0.0151555
654.747	0.0151978
654.825	0.0150608
654.904	0.0152203
654.982	0.0152246
655.060	0.0151723
655.138	0.0153363
655.216	0.0154429
655.294	0.0153999
655.372	0.0154505
655.450	0.0155950
655.529	0.0154670
655.607	0.0153837
655.685	0.0156070
655.763	0.0155344
655.841	0.0153676
655.919	0.0155022
655.997	0.0156453
656.075	0.0156630
656.154	0.0157847
656.232	0.0160793
656.310	0.0160130
656.388	0.0163132
656.466	0.0166787
656.544	0.0168538
656.622	0.0170965
656.700	0.0174191
656.779	0.0177400
656.857	0.0180922
656.935	0.0182021
657.013	0.0184456
657.091	0.0184283
657.169	0.0186665
657.247	0.0185236
657.325	0.0182944
657.404	0.0184399
657.482	0.0181247
657.560	0.0177848
657.638	0.0174826
657.716	0.0171825
657.794	0.0167471
657.872	0.0160401
657.950	0.0155273
658.029	0.0149948
658.107	0.0147211
658.185	0.0142656
658.263	0.0136422
658.341	0.0134908
658.419	0.0131750
658.497	0.0129176
658.575	0.0128001
658.654	0.0127089
658.732	0.0128357
658.810	0.0129573
658.888	0.0132025
658.966	0.0135120
659.044	0.0138219
659.122	0.0142068
659.200	0.0146211
659.279	0.0149410
659.357	0.0154689
659.435	0.0158195
659.513	0.0163503
659.591	0.0169588
659.669	0.0172079
659.747	0.0176844
659.825	0.0179143
659.904	0.0182640
659.982	0.0185686
660.060	0.0187686
660.138	0.0188163
660.216	0.0188539
660.294	0.0189232
660.372	0.0188380
660.450	0.0186559
660.529	0.0182858
660.607	0.0181393
660.685	0.0175743
660.763	0.0173923
660.841	0.0171533
660.919	0.0167648
660.997	0.0165490
661.075	0.0161734
661.154	0.0160696
661.232	0.0161399
661.310	0.0158958
661.388	0.0156656
661.466	0.0157608
661.544	0.0156940
661.622	0.0157526
661.700	0.0158060
661.779	0.0157219
661.857	0.0157883
661.935	0.0160722
662.013	0.0161620
662.091	0.0161196
662.169	0.0163611
662.247	0.0164972
662.325	0.0165047
662.404	0.0168657
662.482	0.0169466
662.560	0.0169179
662.638	0.0169900
662.716	0.0169509
662.794	0.0168180
662.872	0.0167442
662.950	0.0166472
663.029	0.0164212
663.107	0.0163591
663.185	0.0165125
663.263	0.0163153
663.341	0.0162425
663.419	0.0162543
663.497	0.0162309
663.575	0.0161078
663.654	0.0160481
663.732	0.0159258
663.810	0.0159137
663.888	0.0158070
663.966	0.0155566
664.044	0.0153802
664.122	0.0151712
664.200	0.0148986
664.279	0.0147721
664.357	0.0145859
664.435	0.0145367
664.513	0.0144011
664.591	0.0143042
664.669	0.0142970
664.747	0.0143122
664.825	0.0145461
664.904	0.0146925
664.982	0.0148335
665.060	0.0148269
665.138	0.0150756
665.216	0.0151931
665.294	0.0153159
665.372	0.0153039
665.450	0.0155907
665.529	0.0156242
665.607	0.0159245
665.685	0.0160471
665.763	0.0164286
665.841	0.0168211
665.919	0.0169440
665.997	0.0172284
666.075	0.0176646
666.154	0.0181873
666.232	0.0185966
666.310	0.0190266
666.388	0.0194904
666.466	0.0200049
666.544	0.0203686
666.622	0.0207156
666.700	0.0209789
666.779	0.0211137
666.857	0.0212497
666.935	0.0212205
667.013	0.0210345
667.091	0.0208482
667.169	0.0203509
667.247	0.0200524
667.325	0.0193895
667.404	0.0188498
667.482	0.0181306
667.560	0.0174486
667.638	0.0166322
667.716	0.0158699
667.794	0.0151414
667.872	0.0144182
667.950	0.0136768
668.029	0.0132179
668.107	0.0126640
668.185	0.0119544
668.263	0.0117721
668.341	0.0112841
668.419	0.0111063
668.497	0.0109369
668.575	0.0107755
668.654	0.0109090
668.732	0.0110697
668.810	0.0113241
668.888	0.0115565
668.966	0.0120266
669.044	0.0126603
669.122	0.0132099
669.200	0.0137396
669.279	0.0143750
669.357	0.0150220
669.435	0.0157452
669.513	0.0161304
669.591	0.0166710
669.669	0.0172750
669.747	0.0175317
669.825	0.0178590
669.904	0.0182578
669.982	0.0182088
670.060	0.0184706
670.138	0.0187369
670.216	0.0187648
670.294	0.0188543
670.372	0.0187230
670.450	0.0187109
670.529	0.0186353
670.607	0.0186360
670.685	0.0184718
670.763	0.0184257
670.841	0.0181651
670.919	0.0179974
670.997	0.0177598
671.075	0.0176768
671.154	0.0174110
671.232	0.0172416
671.310	0.0170870
671.388	0.0168854
671.466	0.0167425
671.544	0.0165218
671.622	0.0164635
671.700	0.0163474
671.779	0.0160321
671.857	0.0160489
671.935	0.0158904
672.013	0.0157314
672.091	0.0156362
672.169	0.0155302
672.247	0.0155351
672.325	0.0154519
672.404	0.0153983
672.482	0.0153927
672.560	0.0156430
672.638	0.0157211
672.716	0.0157853
672.794	0.0158626
672.872	0.0160713
672.950	0.0163492
673.029	0.0166087
673.107	0.0166655
673.185	0.0167107
673.263	0.0168556
673.341	0.0169476
673.419	0.0170708
673.497	0.0169016
673.575	0.0168217
673.654	0.0166716
673.732	0.0165437
673.810	0.0161964
673.888	0.0159334
673.966	0.0157056
674.044	0.0153713
674.122	0.0150149
674.200	0.0148363
674.279	0.0145784
674.357	0.0141778
674.435	0.0140137
674.513	0.0138118
674.591	0.0138132
674.669	0.0137562
674.747	0.0137558
674.825	0.0138673
674.904	0.0139677
674.982	0.0140115
675.060	0.0143588
675.138	0.0144480
675.216	0.0148531
675.294	0.0151408
675.372	0.0154699
675.450	0.0156363
675.529	0.0159614
675.607	0.0161166
675.685	0.0166525
675.763	0.0170693
675.841	0.0172576
675.919	0.0174260
675.997	0.0178615
676.075	0.0180898
676.154	0.0184151
676.232	0.0186805
676.310	0.0186033
676.388	0.0187164
676.466	0.0187048
676.544	0.0188683
676.622	0.0187325
676.700	0.0186719
676.779	0.0184689
676.857	0.0181897
676.935	0.0180564
677.013	0.0178993
677.091	0.0175874
677.169	0.0174117
677.247	0.0169410
677.325	0.0169341
677.404	0.0167353
677.482	0.0165716
677.560	0.0164761
677.638	0.0162840
677.716	0.0160770
677.794	0.0160392
677.872	0.0159178
677.950	0.0159290
678.029	0.0160449
678.107	0.0157835
678.185	0.0157570
678.263	0.0156911
678.341	0.0155642
678.419	0.0155174
678.497	0.0155773
678.575	0.0156041
678.654	0.0154868
678.732	0.0156148
678.810	0.0154541
678.888	0.0155390
678.966	0.0155020
679.044	0.0155282
679.122	0.0153297
679.200	0.0152483
679.279	0.0154447
679.357	0.0153188
679.435	0.0155012
679.513	0.0153481
679.591	0.0152771
679.669	0.0154025
679.747	0.0153027
679.825	0.0154508
679.904	0.0153851
679.982	0.0155291
680.060	0.0155766
680.138	0.0156048
680.216	0.0157243
680.294	0.0157126
680.372	0.0156020
680.450	0.0157716
680.529	0.0158648
680.607	0.0159549
680.685	0.0159522
680.763	0.0161593
680.841	0.0163599
680.919	0.0164654
680.997	0.0166190
681.075	0.0165683
681.154	0.0169353
681.232	0.0171317
681.310	0.0173647
681.388	0.0174716
681.466	0.0175065
681.544	0.0174563
681.622	0.0175272
681.700	0.0175146
681.779	0.0175365
681.857	0.0176460
681.935	0.0174921
682.013	0.0172936
682.091	0.0173487
682.169	0.0173674
682.247	0.0171920
682.325	0.0171358
682.404	0.0170469
682.482	0.0168848
682.560	0.0168205
682.638	0.0167239
682.716	0.0166599
682.794	0.0164043
682.872	0.0164198
682.950	0.0163779
683.029	0.0163101
683.107	0.0160670
683.185	0.0161263
683.263	0.0162213
683.341	0.0162605
683.419	0.0163689
683.497	0.0163316
683.575	0.0164198
683.654	0.0165823
683.732	0.0165430
683.810	0.0166394
683.888	0.0166505
683.966	0.0165921
684.044	0.0165840
684.122	0.0165530
684.200	0.0163342
684.279	0.0162962
684.357	0.0161172
684.435	0.0161356
684.513	0.0160030
684.591	0.0158607
684.669	0.0158554
684.747	0.0159515
684.825	0.0160620
684.904	0.0160804
684.982	0.0162872
685.060	0.0163992
685.138	0.0164106
685.216	0.0165554
685.294	0.0166107
685.372	0.0165537
685.450	0.0166072
685.529	0.0166241
685.607	0.0166766
685.685	0.0167548
685.763	0.0166216
685.841	0.0165074
685.919	0.0166040
685.997	0.0162582
686.075	0.0161781
686.154	0.0163001
686.232	0.0161423
686.310	0.0161232
686.388	0.0161391
686.466	0.0159660
686.544	0.0158298
686.622	0.0158031
686.700	0.0157657
686.779	0.0158025
686.857	0.0158177
686.935	0.0158817
687.013	0.0159493
687.091	0.0162050
687.169	0.0162653
687.247	0.0162847
687.325	0.0164648
687.404	0.0167719
687.482	0.0169319
687.560	0.0170281
687.638	0.0170334
687.716	0.0171557
687.794	0.0169977
687.872	0.0169574
687.950	0.0170911
688.029	0.0169302
688.107	0.0166560
688.185	0.0168288
688.263	0.0166505
688.341	0.0163946
688.419	0.0164027
688.497	0.0163049
688.575	0.0161305
688.654	0.0160857
688.732	0.0160522
688.810	0.0158641
688.888	0.0158824
688.966	0.0157578
689.044	0.0157812
689.122	0.0158024
689.200	0.0157928
689.279	0.0158488
689.357	0.0158363
689.435	0.0161221
689.513	0.0162170
689.591	0.0161576
689.669	0.0163831
689.747	0.0165848
689.825	0.0166957
689.904	0.0168977
689.982	0.0169247
690.060	0.0170506
690.138	0.0171632
690.216	0.0172391
690.294	0.0172900
690.372	0.0173738
690.450	0.0174791
690.529	0.0173193
690.607	0.0171623
690.685	0.0173116
690.763	0.0170419
690.841	0.0170139
690.919	0.0168839
690.997	0.0166057
691.075	0.0165137
691.154	0.0161454
691.232	0.0160149
691.310	0.0158193
691.388	0.0155164
691.466	0.0155872
691.544	0.0153705
691.622	0.0153362
691.700	0.0154849
691.779	0.0152976
691.857	0.0152333
691.935	0.0152886
692.013	0.0154947
692.091	0.0155988
692.169	0.0156739
692.247	0.0155851
692.325	0.0157142
692.404	0.0157830
692.482	0.0157639
692.560	0.0157294
692.638	0.0157233
692.716	0.0159142
692.794	0.0159667
692.872	0.0159158
692.950	0.0158654
693.029	0.0159367
693.107	0.0159171
693.185	0.0159979
693.263	0.0160397
693.341	0.0161169
693.419	0.0161823
693.497	0.0160889
693.575	0.0162032
693.654	0.0161391
693.732	0.0161865
693.810	0.0162552
693.888	0.0161920
693.966	0.0162344
694.044	0.0162866
694.122	0.0163696
694.200	0.0164966
694.279	0.0165339
694.357	0.0165637
694.435	0.0166063
694.513	0.0165298
694.591	0.0165454
694.669	0.0163447
694.747	0.0166231
694.825	0.0166410
694.904	0.0167185
694.982	0.0165657
695.060	0.0165575
695.138	0.0166396
695.216	0.0166453
695.294	0.0168013
695.372	0.0169365
695.450	0.0167769
695.529	0.0168005
695.607	0.0170096
695.685	0.0169269
695.763	0.0168220
695.841	0.0167046
695.919	0.0166823
695.997	0.0165912
696.075	0.0164240
696.154	0.0164053
696.232	0.0162582
696.310	0.0164399
696.388	0.0164164
696.466	0.0161983
696.544	0.0162786
696.622	0.0164177
696.700	0.0161772
696.779	0.0162473
696.857	0.0162376
696.935	0.0162467
697.013	0.0163455
697.091	0.0161687
697.169	0.0161772
697.247	0.0161091
697.325	0.0160146
697.404	0.0158317
697.482	0.0158009
697.560	0.0157661
697.638	0.0157309
697.716	0.0156105
697.794	0.0155662
697.872	0.0156219
697.950	0.0155994
698.029	0.0154272
698.107	0.0155626
698.185	0.0156336
698.263	0.0157623
698.341	0.0157839
698.419	0.0157954
698.497	0.0160694
698.575	0.0162125
698.654	0.0162349
698.732	0.0164264
698.810	0.0164619
698.888	0.0167387
698.966	0.0167430
699.044	0.0168414
699.122	0.0168103
699.200	0.0167162
699.279	0.0165978
699.357	0.0165657
699.435	0.0165040
699.513	0.0163230
699.591	0.0161472
699.669	0.0158530
699.747	0.0158627
699.825	0.0159035
699.904	0.0157062
699.982	0.0156906
700.060	0.0157717
700.138	0.0158029
700.216	0.0158892
700.294	0.0159724
700.372	0.0161763
700.450	0.0162337
700.529	0.0164481
700.607	0.0164691
700.685	0.0167536
700.763	0.0168684
700.841	0.0170563
700.919	0.0171432
700.997	0.0170760
701.075	0.0171220
701.154	0.0171445
701.232	0.0171163
701.310	0.0170465
701.388	0.0170219
701.466	0.0168829
701.544	0.0167657
701.622	0.0167255
701.700	0.0167141
701.779	0.0163447
701.857	0.0163765
701.935	0.0162348
702.013	0.0161916
702.091	0.0161577
702.169	0.0160014
702.247	0.0160478
702.325	0.0160825
702.404	0.0159731
702.482	0.0158932
702.560	0.0159699
702.638	0.0159339
702.716	0.0159116
702.794	0.0157917
702.872	0.0158485
702.950	0.0157680
703.029	0.0158851
703.107	0.0156411
703.185	0.0155936
703.263	0.0158068
703.341	0.0157740
703.419	0.0160097
703.497	0.0161821
703.575	0.0161958
703.654	0.0163292
703.732	0.0163931
703.810	0.0165639
703.888	0.0165545
703.966	0.0167419
704.044	0.0167676
704.122	0.0167727
704.200	0.0166497
704.279	0.0166755
704.357	0.0165318
704.435	0.0164727
704.513	0.0164437
704.591	0.0163846
704.669	0.0164876
704.747	0.0163488
704.825	0.0163914
704.904	0.0161358
704.982	0.0164146
705.060	0.0163276
705.138	0.0163271
705.216	0.0163615
705.294	0.0165015
705.372	0.0166749
705.450	0.0167290
705.529	0.0166090
705.607	0.0166673
705.685	0.0167150
705.763	0.0167621
705.841	0.0167044
705.919	0.0167903
705.997	0.0166550
706.075	0.0165773
706.154	0.0164275
706.232	0.0163731
706.310	0.0163696
706.388	0.0161389
706.466	0.0159721
706.544	0.0159422
706.622	0.0160899
706.700	0.0161095
706.779	0.0161237
706.857	0.0160872
706.935	0.0159987
707.013	0.0160627
707.091	0.0161632
707.169	0.0163307
707.247	0.0163705
707.325	0.0162129
707.404	0.0164215
707.482	0.0164689
707.560	0.0162524
707.638	0.0161774
707.716	0.0162797
707.794	0.0163728
707.872	0.0163084
707.950	0.0161828
708.029	0.0163090
708.107	0.0161311
708.185	0.0159927
708.263	0.0161587
708.341	0.0160789
708.419	0.0157800
708.497	0.0158891
708.575	0.0159868
708.654	0.0158800
708.732	0.0158866
708.810	0.0161316
708.888	0.0161771
708.966	0.0161575
709.044	0.0163527
709.122	0.0165489
709.200	0.0164363
709.279	0.0165884
709.357	0.0165181
709.435	0.0165759
709.513	0.0165831
709.591	0.0165194
709.669	0.0166214
709.747	0.0166930
709.825	0.0165484
709.904	0.0164346
709.982	0.0161070
710.060	0.0162370
710.138	0.0161887
710.216	0.0161211
710.294	0.0160818
710.372	0.0160103
710.450	0.0157930
710.529	0.0159149
710.607	0.0159866
710.685	0.0158594
710.763	0.0158362
710.841	0.0160851
710.919	0.0160685
710.997	0.0161927
711.075	0.0162971
711.154	0.0164384
711.232	0.0164111
711.310	0.0165807
711.388	0.0165523
711.466	0.0165245
711.544	0.0166003
711.622	0.0166764
711.700	0.0165678
711.779	0.0164989
711.857	0.0165097
711.935	0.0164445
712.013	0.0163661
712.091	0.0163167
712.169	0.0161217
712.247	0.0162364
712.325	0.0162964
712.404	0.0162579
712.482	0.0161433
712.560	0.0160796
712.638	0.0158678
712.716	0.0161259
712.794	0.0160481
712.872	0.0160241
712.950	0.0159806
713.029	0.0160384
713.107	0.0161008
713.185	0.0160477
713.263	0.0160148
713.341	0.0159676
713.419	0.0160597
713.497	0.0160513
713.575	0.0159052
713.654	0.0160114
713.732	0.0160815
713.810	0.0160546
713.888	0.0159693
713.966	0.0159747
714.044	0.0160008
714.122	0.0161008
714.200	0.0159901
714.279	0.0160942
714.357	0.0161391
714.435	0.0160760
714.513	0.0160764
714.591	0.0161455
714.669	0.0162077
714.747	0.0160001
714.825	0.0162284
714.904	0.0161222
714.982	0.0161749
715.060	0.0163663
715.138	0.0161368
715.216	0.0161812
715.294	0.0159834
715.372	0.0160455
715.450	0.0160080
715.529	0.0159827
715.607	0.0160623
715.685	0.0160255
715.763	0.0159946
715.841	0.0161165
715.919	0.0160084
715.997	0.0161237
716.075	0.0160918
716.154	0.0161874
716.232	0.0163813
716.310	0.0164132
716.388	0.0164791
716.466	0.0164973
716.544	0.0166531
716.622	0.0165842
716.700	0.0165485
716.779	0.0165543
716.857	0.0166286
716.935	0.0164671
717.013	0.0164264
717.091	0.0164080
717.169	0.0163116
717.247	0.0162369
717.325	0.0162446
717.404	0.0161810
717.482	0.0161868
717.560	0.0162881
717.638	0.0161682
717.716	0.0161678
717.794	0.0161124
717.872	0.0160873
717.950	0.0162577
718.029	0.0163061
718.107	0.0162362
718.185	0.0162293
718.263	0.0162463
718.341	0.0162093
718.419	0.0162385
718.497	0.0162685
718.575	0.0162160
718.654	0.0160602
718.732	0.0160242
718.810	0.0159903
718.888	0.0160786
718.966	0.0160447
719.044	0.0160062
719.122	0.0161045
719.200	0.0160116
719.279	0.0160551
719.357	0.0161307
719.435	0.0161787
719.513	0.0161729
719.591	0.0161191
719.669	0.0161375
719.747	0.0161607
719.825	0.0160851
719.904	0.0161292
719.982	0.0161533
720.060	0.0162746
720.138	0.0162408
720.216	0.0161145
720.294	0.0160838
720.372	0.0161120
720.450	0.0160541
720.529	0.0161422
720.607	0.0160761
720.685	0.0159558
720.763	0.0160396
720.841	0.0161079
720.919	0.0159880
720.997	0.0161224
721.075	0.0160400
721.154	0.0161497
721.232	0.0162083
721.310	0.0160826
721.388	0.0161129
721.466	0.0160378
721.544	0.0160918
721.622	0.0161963
721.700	0.0161927
721.779	0.0160667
721.857	0.0162302
721.935	0.0162661
722.013	0.0162822
722.091	0.0161908
722.169	0.0162255
722.247	0.0163577
722.325	0.0164120
722.404	0.0163229
722.482	0.0162438
722.560	0.0162359
722.638	0.0161929
722.716	0.0164499
722.794	0.0163310
722.872	0.0162231
722.950	0.0160955
723.029	0.0162642
723.107	0.0162894
723.185	0.0163843
723.263	0.0162120
723.341	0.0162154
723.419	0.0163889
723.497	0.0164124
723.575	0.0163046
723.654	0.0163906
723.732	0.0163408
723.810	0.0163097
723.888	0.0162320
723.966	0.0162946
724.044	0.0163945
724.122	0.0164119
724.200	0.0163943
724.279	0.0165100
724.357	0.0163438
724.435	0.0165865
724.513	0.0165079
724.591	0.0165918
724.669	0.0165264
724.747	0.0166451
724.825	0.0166174
724.904	0.0165155
724.982	0.0165840
725.060	0.0165749
725.138	0.0166434
725.216	0.0165530
725.294	0.0164059
725.372	0.0166095
725.450	0.0164474
725.529	0.0163169
725.607	0.0163570
725.685	0.0164877
725.763	0.0163773
725.841	0.0162678
725.919	0.0163306
725.997	0.0162638
726.075	0.0161514
726.154	0.0162927
726.232	0.0163086
726.310	0.0161944
726.388	0.0162678
726.466	0.0162370
726.544	0.0162506
726.622	0.0162581
726.700	0.0161903
726.779	0.0161420
726.857	0.0161388
726.935	0.0161816
727.013	0.0161432
727.091	0.0161264
727.169	0.0162003
727.247	0.0160562
727.325	0.0161761
727.404	0.0162197
727.482	0.0160074
727.560	0.0159991
727.638	0.0162025
727.716	0.0162742
727.794	0.0161885
727.872	0.0161754
727.950	0.0162406
728.029	0.0162862
728.107	0.0162846
728.185	0.0162897
728.263	0.0163435
728.341	0.0163250
728.419	0.0163406
728.497	0.0164938
728.575	0.0164955
728.654	0.0163938
728.732	0.0163802
728.810	0.0164048
728.888	0.0164323
728.966	0.0165736
729.044	0.0166000
729.122	0.0165597
729.200	0.0164568
729.279	0.0164702
729.357	0.0165835
729.435	0.0166813
729.513	0.0165015
729.591	0.0166637
729.669	0.0166457
729.747	0.0165182
729.825	0.0167537
729.904	0.0165802
729.982	0.0165122
730.060	0.0165176
730.138	0.0164211
730.216	0.0164400
730.294	0.0164200
730.372	0.0165144
730.450	0.0165278
730.529	0.0163634
730.607	0.0164217
730.685	0.0165037
730.763	0.0163579
730.841	0.0162852
730.919	0.0162848
730.997	0.0162411
731.075	0.0161922
731.154	0.0161141
731.232	0.0162321
731.310	0.0160004
731.388	0.0161376
731.466	0.0159648
731.544	0.0159760
731.622	0.0161001
731.700	0.0159882
731.779	0.0159621
731.857	0.0159618
731.935	0.0162523
732.013	0.0160786
732.091	0.0160328
732.169	0.0162473
732.247	0.0162782
732.325	0.0162930
732.404	0.0162847
732.482	0.0162406
732.560	0.0163686
732.638	0.0164030
732.716	0.0163668
732.794	0.0163058
732.872	0.0162366
732.950	0.0162801
733.029	0.0161591
733.107	0.0161467
733.185	0.0161618
733.263	0.0160719
733.341	0.0161369
733.419	0.0162042
733.497	0.0162009
733.575	0.0161414
733.654	0.0160256
733.732	0.0160056
733.810	0.0159792
733.888	0.0159793
733.966	0.0158638
734.044	0.0157465
734.122	0.0157948
734.200	0.0158523
734.279	0.0156442
734.357	0.0156612
734.435	0.0156796
734.513	0.0156516
734.591	0.0157442
734.669	0.0156868
734.747	0.0157459
734.825	0.0159353
734.904	0.0158691
734.982	0.0160412
735.060	0.0159225
735.138	0.0161044
735.216	0.0161517
735.294	0.0160910
735.372	0.0162711
735.450	0.0162176
735.529	0.0164634
735.607	0.0162521
735.685	0.0163873
735.763	0.0163082
735.841	0.0162875
735.919	0.0163087
735.997	0.0162544
736.075	0.0163881
736.154	0.0162429
736.232	0.0162667
736.310	0.0163252
736.388	0.0162617
736.466	0.0162469
736.544	0.0163752
736.622	0.0164685
736.700	0.0163309
736.779	0.0165477
736.857	0.0164589
736.935	0.0163147
737.013	0.0163253
737.091	0.0163118
737.169	0.0163388
737.247	0.0163485
737.325	0.0162419
737.404	0.0163976
737.482	0.0163773
737.560	0.0162465
737.638	0.0162520
737.716	0.0161721
737.794	0.0161487
737.872	0.0161874
737.950	0.0161421
738.029	0.0161869
738.107	0.0161526
738.185	0.0160850
738.263	0.0160624
738.341	0.0159293
738.419	0.0160210
738.497	0.0159532
738.575	0.0161371
738.654	0.0159570
738.732	0.0161319
738.810	0.0159455
738.888	0.0158855
738.966	0.0160302
739.044	0.0161671
739.122	0.0160851
739.200	0.0161305
739.279	0.0161265
739.357	0.0161716
739.435	0.0160667
739.513	0.0161843
739.591	0.0161200
739.669	0.0160033
739.747	0.0162071
739.825	0.0161525
739.904	0.0161149
739.982	0.0160656
740.060	0.0159859
740.138	0.0160081
740.216	0.0162067
740.294	0.0159518
740.372	0.0159690
740.450	0.0159341
740.529	0.0158987
740.607	0.0157858
740.685	0.0157372
740.763	0.0157513
740.841	0.0156834
740.919	0.0155867
740.997	0.0156103
741.075	0.0156610
741.154	0.0155497
741.232	0.0155446
741.310	0.0156705
741.388	0.0156460
741.466	0.0157450
741.544	0.0157060
741.622	0.0157738
741.700	0.0159051
741.779	0.0158742
741.857	0.0159809
741.935	0.0160530
742.013	0.0162270
742.091	0.0163011
742.169	0.0164875
742.247	0.0164928
742.325	0.0165398
742.404	0.0165385
742.482	0.0169769
742.560	0.0168326
742.638	0.0167097
742.716	0.0166746
742.794	0.0167638
742.872	0.0167634
742.950	0.0168536
743.029	0.0167494
743.107	0.0167169
743.185	0.0166656
743.263	0.0165025
743.341	0.0165691
743.419	0.0166315
743.497	0.0164993
743.575	0.0163840
743.654	0.0166132
743.732	0.0165132
743.810	0.0164915
743.888	0.0164125
743.966	0.0163343
744.044	0.0164566
744.122	0.0162745
744.200	0.0164059
744.279	0.0164458
744.357	0.0163724
744.435	0.0162869
744.513	0.0163427
744.591	0.0163620
744.669	0.0162634
744.747	0.0162090
744.825	0.0162531
744.904	0.0161526
744.982	0.0162447
745.060	0.0163203
745.138	0.0162623
745.216	0.0164385
745.294	0.0164296
745.372	0.0163681
745.450	0.0162741
745.529	0.0164330
745.607	0.0164960
745.685	0.0166460
745.763	0.0165865
745.841	0.0165258
745.919	0.0164481
745.997	0.0166751
746.075	0.0166950
746.154	0.0165597
746.232	0.0166258
746.310	0.0167478
746.388	0.0165386
746.466	0.0165931
746.544	0.0166080
746.622	0.0165512
746.700	0.0165834
746.779	0.0164862
746.857	0.0165630
746.935	0.0164185
747.013	0.0164797
747.091	0.0163547
747.169	0.0163244
747.247	0.0163212
747.325	0.0163284
747.404	0.0162083
747.482	0.0161487
747.560	0.0160517
747.638	0.0159480
747.716	0.0160291
747.794	0.0159806
747.872	0.0158138
747.950	0.0160033
748.029	0.0159237
748.107	0.0159426
748.185	0.0160033
748.263	0.0160257
748.341	0.0160677
748.419	0.0160831
748.497	0.0159885
748.575	0.0160628
748.654	0.0160633
748.732	0.0161334
748.810	0.0161387
748.888	0.0162670
748.966	0.0161660
749.044	0.0161388
749.122	0.0163232
749.200	0.0162874
749.279	0.0163642
749.357	0.0164404
749.435	0.0162511
749.513	0.0162926
749.591	0.0163823
749.669	0.0163981
749.747	0.0163107
749.825	0.0163754
749.904	0.0164032
749.982	0.0163248
750.060	0.0164383
750.138	0.0162396
750.216	0.0162971
750.294	0.0163635
750.372	0.0161813
750.450	0.0163731
750.529	0.0163759
750.607	0.0162015
750.685	0.0161594
750.763	0.0163145
750.841	0.0162636
750.919	0.0163187
750.997	0.0161975
751.075	0.0162377
751.154	0.0164221
751.232	0.0163084
751.310	0.0161799
751.388	0.0163010
751.466	0.0163957
751.544	0.0163217
751.622	0.0162890
751.700	0.0162630
751.779	0.0163090
751.857	0.0164143
751.935	0.0161820
752.013	0.0164225
752.091	0.0163360
752.169	0.0162222
752.247	0.0161694
752.325	0.0162526
752.404	0.0164064
752.482	0.0162506
752.560	0.0162357
752.638	0.0164489
752.716	0.0163935
752.794	0.0163750
752.872	0.0164233
752.950	0.0164142
753.029	0.0164407
753.107	0.0165450
753.185	0.0164413
753.263	0.0165104
753.341	0.0167352
753.419	0.0167808
753.497	0.0166527
753.575	0.0165403
753.654	0.0167822
753.732	0.0166594
753.810	0.0165751
753.888	0.0164974
753.966	0.0167085
754.044	0.0166420
754.122	0.0164877
754.200	0.0165018
754.279	0.0164046
754.357	0.0162887
754.435	0.0163194
754.513	0.0163089
754.591	0.0161761
754.669	0.0162082
754.747	0.0161388
754.825	0.0159996
754.904	0.0159837
754.982	0.0159532
755.060	0.0159297
755.138	0.0159254
755.216	0.0159320
755.294	0.0159302
755.372	0.0160352
755.450	0.0160222
755.529	0.0160566
755.607	0.0160736
755.685	0.0161044
755.763	0.0162815
755.841	0.0162648
755.919	0.0162666
755.997	0.0164328
756.075	0.0165768
756.154	0.0164935
756.232	0.0164871
756.310	0.0164159
756.388	0.0165471
756.466	0.0165327
756.544	0.0164613
756.622	0.0164986
756.700	0.0166606
756.779	0.0164561
756.857	0.0164182
756.935	0.0163359
757.013	0.0164323
757.091	0.0163844
757.169	0.0164144
757.247	0.0162342
757.325	0.0163686
757.404	0.0163232
757.482	0.0161235
757.560	0.0161320
757.638	0.0160989
757.716	0.0162281
757.794	0.0160272
757.872	0.0161373
757.950	0.0161358
758.029	0.0160310
758.107	0.0160149
758.185	0.0160160
758.263	0.0159796
758.341	0.0160493
758.419	0.0162749
758.497	0.0162348
758.575	0.0162457
758.654	0.0162605
758.732	0.0163600
758.810	0.0165321
758.888	0.0164924
758.966	0.0165697
759.044	0.0165546
759.122	0.0165806
759.200	0.0167826
759.279	0.0167052
759.357	0.0165108
759.435	0.0166132
759.513	0.0166637
759.591	0.0163683
759.669	0.0166057
759.747	0.0166199
759.825	0.0165384
759.904	0.0164484
759.982	0.0163551
760.060	0.0163721
760.138	0.0163989
760.216	0.0163110
760.294	0.0162255
760.372	0.0161393
760.450	0.0162261
760.529	0.0162733
760.607	0.0160919
760.685	0.0160632
760.763	0.0161620
760.841	0.0160061
760.919	0.0158620
760.997	0.0160416
761.075	0.0158817
761.154	0.0158739
761.232	0.0161121
761.310	0.0158775
761.388	0.0159270
761.466	0.0158720
761.544	0.0158735
761.622	0.0158566
761.700	0.0160125
761.779	0.0160916
761.857	0.0160200
761.935	0.0160421
762.013	0.0158698
762.091	0.0162321
762.169	0.0161613
762.247	0.0160203
762.325	0.0162888
762.404	0.0161774
762.482	0.0161302
762.560	0.0162509
762.638	0.0164108
762.716	0.0163931
762.794	0.0163396
762.872	0.0165652
762.950	0.0164909
763.029	0.0164863
763.107	0.0166814
763.185	0.0166884
763.263	0.0167327
763.341	0.0166599
763.419	0.0164964
763.497	0.0166314
763.575	0.0166147
763.654	0.0165646
763.732	0.0165118
763.810	0.0165491
763.888	0.0165034
763.966	0.0163615
764.044	0.0163265
764.122	0.0163458
764.200	0.0162042
764.279	0.0160962
764.357	0.0161604
764.435	0.0160420
764.513	0.0159254
764.591	0.0158965
764.669	0.0158047
764.747	0.0157774
764.825	0.0158056
764.904	0.0156635
764.982	0.0157818
765.060	0.0155476
765.138	0.0157106
765.216	0.0156768
765.294	0.0156425
765.372	0.0157065
765.450	0.0157484
765.529	0.0158677
765.607	0.0159335
765.685	0.0160210
765.763	0.0159827
765.841	0.0160075
765.919	0.0159724
765.997	0.0161900
766.075	0.0163029
766.154	0.0163144
766.232	0.0164166
766.310	0.0165224
766.388	0.0165348
766.466	0.0166140
766.544	0.0166914
766.622	0.0164767
766.700	0.0166712
766.779	0.0167773
766.857	0.0167345
766.935	0.0166399
767.013	0.0167760
767.091	0.0165084
767.169	0.0166356
767.247	0.0166280
767.325	0.0165742
767.404	0.0164799
767.482	0.0164870
767.560	0.0164695
767.638	0.0165694
767.716	0.0165077
767.794	0.0163704
767.872	0.0163795
767.950	0.0162553
768.029	0.0162640
768.107	0.0162507
768.185	0.0162663
768.263	0.0162214
768.341	0.0162038
768.419	0.0161269
768.497	0.0161900
768.575	0.0161572
768.654	0.0160344
768.732	0.0163022
768.810	0.0161997
768.888	0.0160335
768.966	0.0160086
769.044	0.0161179
769.122	0.0162245
769.200	0.0163113
769.279	0.0162041
769.357	0.0161893
769.435	0.0163112
769.513	0.0162148
769.591	0.0163327
769.669	0.0163455
769.747	0.0163577
769.825	0.0162746
769.904	0.0162009
769.982	0.0162811
770.060	0.0162055
770.138	0.0161722
770.216	0.0161721
770.294	0.0161880
770.372	0.0161722
770.450	0.0160426
770.529	0.0161147
770.607	0.0160564
770.685	0.0161522
770.763	0.0159922
770.841	0.0159360
770.919	0.0161057
770.997	0.0159255
771.075	0.0158714
771.154	0.0158366
771.232	0.0158854
771.310	0.0159496
771.388	0.0159164
771.466	0.0158649
771.544	0.0158160
771.622	0.0157626
771.700	0.0159007
771.779	0.0158294
771.857	0.0158910
771.935	0.0159116
772.013	0.0160271
772.091	0.0160178
772.169	0.0161926
772.247	0.0161980
772.325	0.0161848
772.404	0.0163232
772.482	0.0162445
772.560	0.0164556
772.638	0.0163519
772.716	0.0165466
772.794	0.0166319
772.872	0.0164968
772.950	0.0166142
773.029	0.0164320
773.107	0.0165233
773.185	0.0166949
773.263	0.0165939
773.341	0.0165321
773.419	0.0166685
773.497	0.0166080
773.575	0.0165083
773.654	0.0165052
773.732	0.0164954
773.810	0.0164446
773.888	0.0164447
773.966	0.0164243
774.044	0.0163322
774.122	0.0163369
774.200	0.0162453
774.279	0.0163175
774.357	0.0164200
774.435	0.0164177
774.513	0.0161896
774.591	0.0162852
774.669	0.0162057
774.747	0.0162715
774.825	0.0162341
774.904	0.0163323
774.982	0.0162193
775.060	0.0161757
775.138	0.0163306
775.216	0.0164433
775.294	0.0162836
775.372	0.0161362
775.450	0.0162715
775.529	0.0162788
775.607	0.0162158
775.685	0.0161637
775.763	0.0162885
775.841	0.0162524
775.919	0.0161946
775.997	0.0162843
776.075	0.0163584
776.154	0.0161748
776.232	0.0162163
776.310	0.0162672
776.388	0.0162171
776.466	0.0161819
776.544	0.0164344
776.622	0.0163085
776.700	0.0162190
776.779	0.0162262
776.857	0.0162875
776.935	0.0162669
777.013	0.0163636
777.091	0.0162898
777.169	0.0163286
777.247	0.0164912
777.325	0.0163187
777.404	0.0163660
777.482	0.0163609
777.560	0.0165259
777.638	0.0164146
777.716	0.0165509
777.794	0.0165525
777.872	0.0165451
777.950	0.0165075
778.029	0.0166449
778.107	0.0165263
778.185	0.0166510
778.263	0.0166518
778.341	0.0166730
778.419	0.0165955
778.497	0.0166734
778.575	0.0167144
778.654	0.0166599
778.732	0.0165921
778.810	0.0166205
778.888	0.0165142
778.966	0.0165283
779.044	0.0165696
779.122	0.0165501
779.200	0.0165606
779.279	0.0165592
779.357	0.0163135
779.435	0.0165099
779.513	0.0166228
779.591	0.0163509
779.669	0.0164383
779.747	0.0165324
779.825	0.0164514
779.904	0.0164441
779.982	0.0163773
780.060	0.0164645
780.138	0.0163907
780.216	0.0161730
780.294	0.0163775
780.372	0.0162992
780.450	0.0162037
780.529	0.0163327
780.607	0.0162844
780.685	0.0162125
780.763	0.0160149
780.841	0.0161029
780.919	0.0162257
780.997	0.0161118
781.075	0.0160291
781.154	0.0160787
781.232	0.0159039
781.310	0.0159839
781.388	0.0161289
781.466	0.0160968
781.544	0.0162258
781.622	0.0161861
781.700	0.0160512
781.779	0.0161433
781.857	0.0161607
781.935	0.0161433
782.013	0.0163056
782.091	0.0163318
782.169	0.0161793
782.247	0.0161339
782.325	0.0162921
782.404	0.0162406
782.482	0.0161164
782.560	0.0163937
782.638	0.0163196
782.716	0.0163210
782.794	0.0163785
782.872	0.0163217
782.950	0.0163314
783.029	0.0162548
783.107	0.0162935
783.185	0.0164007
783.263	0.0163271
783.341	0.0165005
783.419	0.0163525
783.497	0.0162339
783.575	0.0163381
783.654	0.0164632
783.732	0.0164799
783.810	0.0165625
783.888	0.0163564
783.966	0.0165791
784.044	0.0165451
784.122	0.0165614
784.200	0.0166261
784.279	0.0166680
784.357	0.0165212
784.435	0.0165410
784.513	0.0166180
784.591	0.0166420
784.669	0.0163905
784.747	0.0164575
784.825	0.0166006
784.904	0.0166557
784.982	0.0164248
785.060	0.0163927
785.138	0.0164462
785.216	0.0162872
785.294	0.0163683
785.372	0.0163750
785.450	0.0164713
785.529	0.0163541
785.607	0.0161234
785.685	0.0163097
785.763	0.0164065
785.841	0.0164201
785.919	0.0162822
785.997	0.0162649
786.075	0.0162562
786.154	0.0162202
786.232	0.0162743
786.310	0.0162739
786.388	0.0161365
786.466	0.0163258
786.544	0.0163718
786.622	0.0162029
786.700	0.0163124
786.779	0.0162206
786.857	0.0162703
786.935	0.0163639
787.013	0.0163642
787.091	0.0162675
787.169	0.0162131
787.247	0.0163544
787.325	0.0163353
787.404	0.0164323
787.482	0.0163814
787.560	0.0163226
787.638	0.0164201
787.716	0.0162730
787.794	0.0164113
787.872	0.0165366
787.950	0.0164218
788.029	0.0164682
788.107	0.0163070
788.185	0.0164143
788.263	0.0163197
788.341	0.0163815
788.419	0.0165353
788.497	0.0164341
788.575	0.0165246
788.654	0.0163890
788.732	0.0164018
788.810	0.0165517
788.888	0.0164568
788.966	0.0164391
789.044	0.0165810
789.122	0.0164344
789.200	0.0164995
789.279	0.0162843
789.357	0.0164045
789.435	0.0164469
789.513	0.0163783
789.591	0.0163081
789.669	0.0162050
789.747	0.0160649
789.825	0.0161679
789.904	0.0162730
789.982	0.0162194
790.060	0.0161348
790.138	0.0161736
790.216	0.0160749
790.294	0.0160946
790.372	0.0160976
790.450	0.0159962
790.529	0.0159036
790.607	0.0159341
790.685	0.0159309
790.763	0.0159340
790.841	0.0158841
790.919	0.0160320
790.997	0.0159164
791.075	0.0158811
791.154	0.0159280
791.232	0.0160375
791.310	0.0158392
791.388	0.0159754
791.466	0.0159229
791.544	0.0160098
791.622	0.0160326
791.700	0.0160521
791.779	0.0160421
791.857	0.0161670
791.935	0.0161379
792.013	0.0160548
792.091	0.0160654
792.169	0.0160958
792.247	0.0162154
792.325	0.0160641
792.404	0.0161401
792.482	0.0161668
792.560	0.0160687
792.638	0.0160792
792.716	0.0160207
792.794	0.0159683
792.872	0.0161121
792.950	0.0160049
793.029	0.0160143
793.107	0.0160469
793.185	0.0160872
793.263	0.0159866
793.341	0.0159997
793.419	0.0159698
793.497	0.0160638
793.575	0.0161809
793.654	0.0160737
793.732	0.0161296
793.810	0.0161482
793.888	0.0161372
793.966	0.0159024
794.044	0.0161162
794.122	0.0161847
794.200	0.0162287
794.279	0.0161852
794.357	0.0161906
794.435	0.0162101
794.513	0.0162151
794.591	0.0161219
794.669	0.0161242
794.747	0.0161413
794.825	0.0160843
794.904	0.0161138
794.982	0.0162007
795.060	0.0160948
795.138	0.0160783
795.216	0.0161693
795.294	0.0162544
795.372	0.0160401
795.450	0.0158840
795.529	0.0159785
795.607	0.0159724
795.685	0.0159171
795.763	0.0159738
795.841	0.0161098
795.919	0.0159419
795.997	0.0159476
796.075	0.0160294
796.154	0.0159467
796.232	0.0160252
796.310	0.0160249
796.388	0.0160673
796.466	0.0160007
796.544	0.0161887
796.622	0.0161800
796.700	0.0161543
796.779	0.0162332
796.857	0.0161614
796.935	0.0161346
797.013	0.0161308
797.091	0.0160765
797.169	0.0161428
797.247	0.0161502
797.325	0.0160636
797.404	0.0159574
797.482	0.0160704
797.560	0.0159260
797.638	0.0159759
797.716	0.0159785
797.794	0.0160874
797.872	0.0160815
797.950	0.0160228
798.029	0.0161266
798.107	0.0161596
798.185	0.0162064
798.263	0.0161698
798.341	0.0162479
798.419	0.0163919
798.497	0.0163741
798.575	0.0162579
798.654	0.0164010
798.732	0.0165169
798.810	0.0163684
798.888	0.0164587
798.966	0.0164851
799.044	0.0165434
799.122	0.0165675
799.200	0.0165940
799.279	0.0165546
799.357	0.0163943
799.435	0.0164922
799.513	0.0165471
799.591	0.0166667
799.669	0.0165824
799.747	0.0165598
799.825	0.0165527
799.904	0.0164631
799.982	0.0165242
800.060	0.0163902
800.138	0.0164368
800.216	0.0165097
800.294	0.0164627
800.372	0.0164922
800.450	0.0163314
800.529	0.0163006
800.607	0.0163319
800.685	0.0162343
800.763	0.0163217
800.841	0.0163717
800.919	0.0162338
800.997	0.0161259
801.075	0.0161649
801.154	0.0161125
801.232	0.0162711
801.310	0.0160275
801.388	0.0161282
801.466	0.0161913
801.544	0.0160789
801.622	0.0160796
801.700	0.0160270
801.779	0.0161393
801.857	0.0161886
801.935	0.0161028
802.013	0.0161254
802.091	0.0161334
802.169	0.0161765
802.247	0.0162827
802.325	0.0161619
802.404	0.0163274
802.482	0.0162640
802.560	0.0163494
802.638	0.0165536
802.716	0.0164742
802.794	0.0163925
802.872	0.0164405
802.950	0.0165686
803.029	0.0164365
803.107	0.0165675
803.185	0.0164707
803.263	0.0165372
803.341	0.0164988
803.419	0.0164593
803.497	0.0164457
803.575	0.0164488
803.654	0.0164116
803.732	0.0164780
803.810	0.0163519
803.888	0.0163124
803.966	0.0162795
804.044	0.0163387
804.122	0.0161874
804.200	0.0162348
804.279	0.0162665
804.357	0.0162012
804.435	0.0161787
804.513	0.0162099
804.591	0.0161775
804.669	0.0161164
804.747	0.0161155
804.825	0.0162375
804.904	0.0161456
804.982	0.0161355
805.060	0.0162421
805.138	0.0162852
805.216	0.0162612
805.294	0.0161558
805.372	0.0162217
805.450	0.0163477
805.529	0.0163824
805.607	0.0161420
805.685	0.0162766
805.763	0.0162862
805.841	0.0162633
805.919	0.0163842
805.997	0.0164154
806.075	0.0162561
806.154	0.0162219
806.232	0.0162428
806.310	0.0162620
806.388	0.0162225
806.466	0.0163371
806.544	0.0161651
806.622	0.0163303
806.700	0.0163814
806.779	0.0162136
806.857	0.0160587
806.935	0.0161590
807.013	0.0162498
807.091	0.0162932
807.169	0.0163706
807.247	0.0163813
807.325	0.0162709
807.404	0.0162123
807.482	0.0163627
807.560	0.0163422
807.638	0.0162643
807.716	0.0163957
807.794	0.0164559
807.872	0.0164527
807.950	0.0163965
808.029	0.0165179
808.107	0.0165150
808.185	0.0164587
808.263	0.0165737
808.341	0.0167004
808.419	0.0167109
808.497	0.0164751
808.575	0.0166117
808.654	0.0166878
808.732	0.0166187
808.810	0.0164799
808.888	0.0166514
808.966	0.0165850
809.044	0.0165706
809.122	0.0165549
809.200	0.0167436
809.279	0.0166030
809.357	0.0165608
809.435	0.0165710
809.513	0.0165182
809.591	0.0164404
809.669	0.0164706
809.747	0.0164261
809.825	0.0162609
809.904	0.0165124
809.982	0.0163468
810.060	0.0162600
810.138	0.0162619
810.216	0.0162840
810.294	0.0161104
810.372	0.0161887
810.450	0.0160764
810.529	0.0162071
810.607	0.0161993
810.685	0.0162622
810.763	0.0161813
810.841	0.0161702
810.919	0.0161674
810.997	0.0161681
811.075	0.0160605
811.154	0.0162029
811.232	0.0162530
811.310	0.0160636
811.388	0.0161301
811.466	0.0161857
811.544	0.0161182
811.622	0.0160996
811.700	0.0161270
811.779	0.0161754
811.857	0.0160877
811.935	0.0160024
812.013	0.0159600
812.091	0.0160519
812.169	0.0161187
812.247	0.0161438
812.325	0.0161723
812.404	0.0159844
812.482	0.0159814
812.560	0.0159747
812.638	0.0160652
812.716	0.0161068
812.794	0.0160471
812.872	0.0161149
812.950	0.0162079
813.029	0.0162121
813.107	0.0161787
813.185	0.0163131
813.263	0.0162857
813.341	0.0163042
813.419	0.0162335
813.497	0.0163569
813.575	0.0164957
813.654	0.0164167
813.732	0.0162750
813.810	0.0164264
813.888	0.0163683
813.966	0.0163655
814.044	0.0163248
814.122	0.0164164
814.200	0.0163364
814.279	0.0161349
814.357	0.0161585
814.435	0.0162833
814.513	0.0162914
814.591	0.0162290
814.669	0.0163283
814.747	0.0162240
814.825	0.0162644
814.904	0.0161189
814.982	0.0162691
815.060	0.0163834
815.138	0.0163192
815.216	0.0163471
815.294	0.0164179
815.372	0.0162725
815.450	0.0163422
815.529	0.0162551
815.607	0.0162712
815.685	0.0163615
815.763	0.0164998
815.841	0.0162469
815.919	0.0163217
815.997	0.0163531
816.075	0.0163091
816.154	0.0163361
816.232	0.0163438
816.310	0.0162797
816.388	0.0162790
816.466	0.0163293
816.544	0.0161786
816.622	0.0162841
816.700	0.0161911
816.779	0.0159676
816.857	0.0161391
816.935	0.0160435
817.013	0.0160345
817.091	0.0160747
817.169	0.0160374
817.247	0.0160123
817.325	0.0161230
817.404	0.0160098
817.482	0.0158544
817.560	0.0157687
817.638	0.0159232
817.716	0.0159560
817.794	0.0160380
817.872	0.0158903
817.950	0.0158913
818.029	0.0159737
818.107	0.0160394
818.185	0.0159534
818.263	0.0157935
818.341	0.0158564
818.419	0.0160013
818.497	0.0159940
818.575	0.0159282
818.654	0.0160313
818.732	0.0160449
818.810	0.0159144
818.888	0.0160285
818.966	0.0159105
819.044	0.0159434
819.122	0.0161165
819.200	0.0160859
819.279	0.0160841
819.357	0.0159264
819.435	0.0161230
819.513	0.0161166
819.591	0.0161768
819.669	0.0161028
819.747	0.0160917
819.825	0.0161925
819.904	0.0162035
819.982	0.0161952
820.060	0.0162263
820.138	0.0162154
820.216	0.0162771
820.294	0.0162249
820.372	0.0163135
820.450	0.0163041
820.529	0.0162637
820.607	0.0162045
820.685	0.0163414
820.763	0.0162659
820.841	0.0161479
820.919	0.0163395
820.997	0.0163493
821.075	0.0162384
821.154	0.0160941
821.232	0.0161595
821.310	0.0163535
821.388	0.0162241
821.466	0.0161948
821.544	0.0161441
821.622	0.0162148
821.700	0.0161722
821.779	0.0162069
821.857	0.0162934
821.935	0.0161810
822.013	0.0161591
822.091	0.0162307
822.169	0.0162437
822.247	0.0162418
822.325	0.0162843
822.404	0.0162060
822.482	0.0163641
822.560	0.0163808
822.638	0.0164368
822.716	0.0162733
822.794	0.0163304
822.872	0.0162658
822.950	0.0163326
823.029	0.0163528
823.107	0.0162206
823.185	0.0163961
823.263	0.0164548
823.341	0.0162942
823.419	0.0162055
823.497	0.0162569
823.575	0.0161856
823.654	0.0159476
823.732	0.0161878
823.810	0.0162130
823.888	0.0161330
823.966	0.0161137
824.044	0.0161753
824.122	0.0160399
824.200	0.0160332
824.279	0.0159789
824.357	0.0161486
824.435	0.0162382
824.513	0.0161407
824.591	0.0161774
824.669	0.0159467
824.747	0.0162394
824.825	0.0162953
824.904	0.0163383
824.982	0.0162012
825.060	0.0162668
825.138	0.0161389
825.216	0.0163208
825.294	0.0162708
825.372	0.0162244
825.450	0.0162659
825.529	0.0162675
825.607	0.0161986
825.685	0.0161652
825.763	0.0162654
825.841	0.0163337
825.919	0.0163573
825.997	0.0163142
826.075	0.0163827
826.154	0.0161993
826.232	0.0162119
826.310	0.0161110
826.388	0.0162920
826.466	0.0161692
826.544	0.0161433
826.622	0.0162714
826.700	0.0162893
826.779	0.0162098
826.857	0.0162507
826.935	0.0161933
827.013	0.0161745
827.091	0.0161882
827.169	0.0161031
827.247	0.0161073
827.325	0.0160769
827.404	0.0160979
827.482	0.0160368
827.560	0.0160688
827.638	0.0161004
827.716	0.0161587
827.794	0.0161328
827.872	0.0160204
827.950	0.0160868
828.029	0.0160455
828.107	0.0161324
828.185	0.0159877
828.263	0.0161464
828.341	0.0162003
828.419	0.0161063
828.497	0.0162453
828.575	0.0162808
828.654	0.0162763
828.732	0.0161023
828.810	0.0162103
828.888	0.0162838
828.966	0.0163284
829.044	0.0161758
829.122	0.0162444
829.200	0.0162261
829.279	0.0161892
829.357	0.0162772
829.435	0.0162814
829.513	0.0163643
829.591	0.0162650
829.669	0.0161698
829.747	0.0163157
829.825	0.0162332
829.904	0.0160825
829.982	0.0162108
830.060	0.0161687
830.138	0.0162034
830.216	0.0161018
830.294	0.0161703
830.372	0.0162558
830.450	0.0161796
830.529	0.0162201
830.607	0.0162132
830.685	0.0161961
830.763	0.0162698
830.841	0.0164265
830.919	0.0162788
830.997	0.0162409
831.075	0.0162484
831.154	0.0163014
831.232	0.0162376
831.310	0.0163226
831.388	0.0164335
831.466	0.0164557
831.544	0.0162382
831.622	0.0164579
831.700	0.0165638
831.779	0.0164140
831.857	0.0165147
831.935	0.0164124
832.013	0.0164001
832.091	0.0162888
832.169	0.0164352
832.247	0.0164103
832.325	0.0163346
832.404	0.0162963
832.482	0.0162986
832.560	0.0164217
832.638	0.0163406
832.716	0.0163916
832.794	0.0163090
832.872	0.0162940
832.950	0.0163645
833.029	0.0165145
833.107	0.0163112
833.185	0.0162201
833.263	0.0164125
833.341	0.0163843
833.419	0.0163559
833.497	0.0164980
833.575	0.0162846
833.654	0.0163578
833.732	0.0163349
833.810	0.0163889
833.888	0.0163752
833.966	0.0163693
834.044	0.0164083
834.122	0.0162801
834.200	0.0165081
834.279	0.0164433
834.357	0.0162459
834.435	0.0163382
834.513	0.0165259
834.591	0.0164427
834.669	0.0164182
834.747	0.0163807
834.825	0.0164143
834.904	0.0163652
834.982	0.0163143
835.060	0.0163271
835.138	0.0162924
835.216	0.0162346
835.294	0.0163239
835.372	0.0162886
835.450	0.0162035
835.529	0.0163129
835.607	0.0162782
835.685	0.0162406
835.763	0.0161944
835.841	0.0161021
835.919	0.0161623
835.997	0.0161828
836.075	0.0161837
836.154	0.0162643
836.232	0.0161118
836.310	0.0160124
836.388	0.0162000
836.466	0.0161128
836.544	0.0161510
836.622	0.0162766
836.700	0.0162656
836.779	0.0161768
836.857	0.0161999
836.935	0.0162762
837.013	0.0163653
837.091	0.0164049
837.169	0.0164944
837.247	0.0164091
837.325	0.0165668
837.404	0.0165649
837.482	0.0164724
837.560	0.0164606
837.638	0.0165771
837.716	0.0164310
837.794	0.0164760
837.872	0.0165287
837.950	0.0164048
838.029	0.0163603
838.107	0.0163425
838.185	0.0162823
838.263	0.0162965
838.341	0.0162908
838.419	0.0161904
838.497	0.0160461
838.575	0.0159728
838.654	0.0160410
838.732	0.0160203
838.810	0.0160014
838.888	0.0158894
838.966	0.0158342
839.044	0.0157941
839.122	0.0158743
839.200	0.0160126
839.279	0.0159751
839.357	0.0158633
839.435	0.0158790
839.513	0.0160468
839.591	0.0159881
839.669	0.0159993
839.747	0.0160635
839.825	0.0159789
839.904	0.0159927
839.982	0.0161221
840.060	0.0161237
840.138	0.0162077
840.216	0.0160562
840.294	0.0161812
840.372	0.0161629
840.450	0.0161202
840.529	0.0161868
840.607	0.0162137
840.685	0.0160945
840.763	0.0162105
840.841	0.0163882
840.919	0.0161860
840.997	0.0161263
841.075	0.0160663
841.154	0.0162614
841.232	0.0162072
841.310	0.0162700
841.388	0.0162503
841.466	0.0161572
841.544	0.0161696
841.622	0.0163082
841.700	0.0161616
841.779	0.0161930
841.857	0.0162988
841.935	0.0162226
842.013	0.0163297
842.091	0.0163168
842.169	0.0162707
842.247	0.0163901
842.325	0.0163545
842.404	0.0162848
842.482	0.0164135
842.560	0.0163084
842.638	0.0162634
842.716	0.0164425
842.794	0.0163337
842.872	0.0162992
842.950	0.0164479
843.029	0.0163699
843.107	0.0164111
843.185	0.0162580
843.263	0.0162391
843.341	0.0163825
843.419	0.0163684
843.497	0.0162878
843.575	0.0163205
843.654	0.0162840
843.732	0.0162984
843.810	0.0163755
843.888	0.0163720
843.966	0.0163860
844.044	0.0164111
844.122	0.0164081
844.200	0.0164529
844.279	0.0164542
844.357	0.0165878
844.435	0.0163996
844.513	0.0164700
844.591	0.0165310
844.669	0.0163834
844.747	0.0163790
844.825	0.0164418
844.904	0.0165744
844.982	0.0165615
845.060	0.0164723
845.138	0.0164355
845.216	0.0165027
845.294	0.0165147
845.372	0.0164395
845.450	0.0164192
845.529	0.0165211
845.607	0.0164494
845.685	0.0165053
845.763	0.0163041
845.841	0.0164082
845.919	0.0164921
845.997	0.0163283
846.075	0.0164854
846.154	0.0163102
846.232	0.0164034
846.310	0.0163276
846.388	0.0164236
846.466	0.0163884
846.544	0.0164593
846.622	0.0163116
846.700	0.0164023
846.779	0.0163728
846.857	0.0163212
846.935	0.0162894
847.013	0.0164716
847.091	0.0165007
847.169	0.0163318
847.247	0.0162758
847.325	0.0164126
847.404	0.0162201
847.482	0.0163024
847.560	0.0161919
847.638	0.0162972
847.716	0.0162788
847.794	0.0162912
847.872	0.0163578
847.950	0.0162800
848.029	0.0163064
848.107	0.0160752
848.185	0.0163139
848.263	0.0164769
848.341	0.0163457
848.419	0.0164463
848.497	0.0162835
848.575	0.0163873
848.654	0.0163242
848.732	0.0163831
848.810	0.0162746
848.888	0.0162132
848.966	0.0164632
849.044	0.0161848
849.122	0.0162227
849.200	0.0163284
849.279	0.0161489
849.357	0.0160670
849.435	0.0162146
849.513	0.0159994
849.591	0.0160426
849.669	0.0160794
849.747	0.0159271
849.825	0.0159406
849.904	0.0158926
849.982	0.0159161
850.060	0.0159422
850.138	0.0159907
850.216	0.0160652
850.294	0.0160658
850.372	0.0160603
850.450	0.0161137
850.529	0.0161606
850.607	0.0161964
850.685	0.0161024
850.763	0.0162566
850.841	0.0161525
850.919	0.0161404
850.997	0.0162295
851.075	0.0164120
851.154	0.0162626
851.232	0.0163092
851.310	0.0162149
851.388	0.0162383
851.466	0.0162478
851.544	0.0163037
851.622	0.0162511
851.700	0.0163430
851.779	0.0163404
851.857	0.0164028
851.935	0.0163284
852.013	0.0163977
852.091	0.0163712
852.169	0.0163786
852.247	0.0162977
852.325	0.0162722
852.404	0.0161896
852.482	0.0162735
852.560	0.0161807
852.638	0.0160551
852.716	0.0160168
852.794	0.0161448
852.872	0.0161797
852.950	0.0160663
853.029	0.0161201
853.107	0.0162389
853.185	0.0162015
853.263	0.0160953
853.341	0.0161296
853.419	0.0161194
853.497	0.0161504
853.575	0.0161655
853.654	0.0162146
853.732	0.0162711
853.810	0.0162115
853.888	0.0162403
853.966	0.0161980
854.044	0.0162333
854.122	0.0163887
854.200	0.0161887
854.279	0.0162167
854.357	0.0161574
854.435	0.0162440
854.513	0.0162514
854.591	0.0163004
854.669	0.0164081
854.747	0.0161800
854.825	0.0161832
854.904	0.0161404
854.982	0.0162482
855.060	0.0160954
855.138	0.0163931
855.216	0.0163647
855.294	0.0162136
855.372	0.0162447
855.450	0.0162539
855.529	0.0161903
855.607	0.0162447
855.685	0.0162592
855.763	0.0163477
855.841	0.0162069
855.919	0.0163367
855.997	0.0163892
856.075	0.0162946
856.154	0.0163213
856.232	0.0162148
856.310	0.0161988
856.388	0.0163056
856.466	0.0162089
856.544	0.0162373
856.622	0.0162651
856.700	0.0161743
856.779	0.0160684
856.857	0.0161013
856.935	0.0161599
857.013	0.0159931
857.091	0.0160638
857.169	0.0160934
857.247	0.0161215
857.325	0.0162560
857.404	0.0161584
857.482	0.0162106
857.560	0.0162154
857.638	0.0161034
857.716	0.0162434
857.794	0.0162582
857.872	0.0162694
857.950	0.0162593
858.029	0.0163059
858.107	0.0164641
858.185	0.0163560
858.263	0.0163966
858.341	0.0165952
858.419	0.0166026
858.497	0.0166341
858.575	0.0166246
858.654	0.0166169
858.732	0.0165924
858.810	0.0167970
858.888	0.0167660
858.966	0.0166412
859.044	0.0166998
859.122	0.0164412
859.200	0.0164270
859.279	0.0165520
859.357	0.0163178
859.435	0.0162430
859.513	0.0164099
859.591	0.0161916
859.669	0.0160784
859.747	0.0160609
859.825	0.0162118
859.904	0.0160895
859.982	0.0159694
860.060	0.0161454
860.138	0.0161895
860.216	0.0161321
860.294	0.0159852
860.372	0.0161586
860.450	0.0162917
860.529	0.0163426
860.607	0.0161019
860.685	0.0163081
860.763	0.0163086
860.841	0.0163467
860.919	0.0164285
860.997	0.0165209
861.075	0.0165469
861.154	0.0164648
861.232	0.0166009
861.310	0.0165925
861.388	0.0165921
861.466	0.0165720
861.544	0.0166445
861.622	0.0166222
861.700	0.0164735
861.779	0.0165556
861.857	0.0165613
861.935	0.0166611
862.013	0.0165852
862.091	0.0165294
862.169	0.0163203
862.247	0.0163825
862.325	0.0163387
862.404	0.0163329
862.482	0.0163485
862.560	0.0162687
862.638	0.0162038
862.716	0.0162832
862.794	0.0162577
862.872	0.0161615
862.950	0.0161466
863.029	0.0162360
863.107	0.0160606
863.185	0.0162483
863.263	0.0162297
863.341	0.0160627
863.419	0.0160658
863.497	0.0161263
863.575	0.0161384
863.654	0.0161842
863.732	0.0162359
863.810	0.0161263
863.888	0.0161369
863.966	0.0161265
864.044	0.0160650
864.122	0.0161580
864.200	0.0161553
864.279	0.0161739
864.357	0.0162123
864.435	0.0162190
864.513	0.0161695
864.591	0.0160818
864.669	0.0160622
864.747	0.0162225
864.825	0.0163766
864.904	0.0165215
864.982	0.0163752
865.060	0.0164468
865.138	0.0165690
865.216	0.0165127
865.294	0.0166519
865.372	0.0164316
865.450	0.0167188
865.529	0.0165084
865.607	0.0165578
865.685	0.0164292
865.763	0.0165190
865.841	0.0165083
865.919	0.0164464
865.997	0.0164155
866.075	0.0164785
866.154	0.0163934
866.232	0.0164902
866.310	0.0165297
866.388	0.0164073
866.466	0.0162904
866.544	0.0164951
866.622	0.0163920
866.700	0.0165038
866.779	0.0164892
866.857	0.0164021
866.935	0.0165322
867.013	0.0164870
867.091	0.0166010
867.169	0.0164864
867.247	0.0164010
867.325	0.0165083
867.404	0.0165983
867.482	0.0164684
867.560	0.0166244
867.638	0.0164793
867.716	0.0165115
867.794	0.0165228
867.872	0.0165446
867.950	0.0164484
868.029	0.0163870
868.107	0.0163056
868.185	0.0163277
868.263	0.0163657
868.341	0.0162972
868.419	0.0161716
868.497	0.0164259
868.575	0.0162126
868.654	0.0162373
868.732	0.0163605
868.810	0.0160931
868.888	0.0162430
868.966	0.0160561
869.044	0.0161259
869.122	0.0162186
869.200	0.0161434
869.279	0.0163326
869.357	0.0163586
869.435	0.0164091
869.513	0.0162917
869.591	0.0164466
869.669	0.0163879
869.747	0.0164175
869.825	0.0163911
869.904	0.0163317
869.982	0.0163537
870.060	0.0162966
870.138	0.0163918
870.216	0.0164088
870.294	0.0165306
870.372	0.0163884
870.450	0.0163374
870.529	0.0163694
870.607	0.0162964
870.685	0.0163678
870.763	0.0163390
870.841	0.0162655
870.919	0.0160079
870.997	0.0161422
871.075	0.0161346
871.154	0.0159828
871.232	0.0160870
871.310	0.0160634
871.388	0.0160940
871.466	0.0160440
871.544	0.0160342
871.622	0.0161328
871.700	0.0160386
871.779	0.0161955
871.857	0.0160777
871.935	0.0163251
872.013	0.0162369
872.091	0.0163110
872.169	0.0162946
872.247	0.0163473
872.325	0.0163357
872.404	0.0164653
872.482	0.0164034
872.560	0.0163573
872.638	0.0163977
872.716	0.0164139
872.794	0.0164989
872.872	0.0165641
872.950	0.0165982
873.029	0.0164291
873.107	0.0166007
873.185	0.0165221
873.263	0.0164226
873.341	0.0165882
873.419	0.0164551
873.497	0.0163676
873.575	0.0165317
873.654	0.0163622
873.732	0.0162747
873.810	0.0162917
873.888	0.0163577
873.966	0.0162360
874.044	0.0162903
874.122	0.0162230
874.200	0.0162209
874.279	0.0163299
874.357	0.0162024
874.435	0.0162640
874.513	0.0162247
874.591	0.0161325
874.669	0.0161282
874.747	0.0162527
874.825	0.0161203
874.904	0.0162776
874.982	0.0161689
875.060	0.0160297
875.138	0.0159931
875.216	0.0161999
875.294	0.0163290
875.372	0.0161118
875.450	0.0162444
875.529	0.0161064
875.607	0.0160405
875.685	0.0162474
875.763	0.0162505
875.841	0.0161790
875.919	0.0162479
875.997	0.0162158
876.075	0.0163515
876.154	0.0162541
876.232	0.0161514
876.310	0.0162740
876.388	0.0164403
876.466	0.0162898
876.544	0.0163687
876.622	0.0164355
876.700	0.0163671
876.779	0.0162926
876.857	0.0163813
876.935	0.0165234
877.013	0.0164984
877.091	0.0163542
877.169	0.0163519
877.247	0.0163476
877.325	0.0163156
877.404	0.0164079
877.482	0.0163998
877.560	0.0163802
877.638	0.0164421
877.716	0.0163459
877.794	0.0164020
877.872	0.0165784
877.950	0.0164922
878.029	0.0164362
878.107	0.0163890
878.185	0.0164125
878.263	0.0163816
878.341	0.0164086
878.419	0.0164413
878.497	0.0163844
878.575	0.0165661
878.654	0.0163818
878.732	0.0163516
878.810	0.0163330
878.888	0.0164870
878.966	0.0165382
879.044	0.0164354
879.122	0.0162805
879.200	0.0163865
879.279	0.0163466
879.357	0.0163767
879.435	0.0164318
879.513	0.0162523
879.591	0.0163330
879.669	0.0162363
879.747	0.0161819
879.825	0.0161108
879.904	0.0161731
879.982	0.0160229
880.060	0.0160391
880.138	0.0159976
880.216	0.0161009
880.294	0.0162357
880.372	0.0160349
880.450	0.0160008
880.529	0.0160393
880.607	0.0160531
880.685	0.0162019
880.763	0.0161758
880.841	0.0161652
880.919	0.0162801
880.997	0.0162119
881.075	0.0162045
881.154	0.0163864
881.232	0.0163210
881.310	0.0163229
881.388	0.0163275
881.466	0.0165086
881.544	0.0164998
881.622	0.0164327
881.700	0.0163778
881.779	0.0164350
881.857	0.0165105
881.935	0.0164104
882.013	0.0163056
882.091	0.0165148
882.169	0.0163767
882.247	0.0164104
882.325	0.0164964
882.404	0.0162958
882.482	0.0162801
882.560	0.0162424
882.638	0.0163182
882.716	0.0162750
882.794	0.0161742
882.872	0.0161442
882.950	0.0161436
883.029	0.0160425
883.107	0.0160381
883.185	0.0160000
883.263	0.0162357
883.341	0.0161814
883.419	0.0160847
883.497	0.0161787
883.575	0.0160825
883.654	0.0160755
883.732	0.0160808
883.810	0.0162965
883.888	0.0163278
883.966	0.0163113
884.044	0.0164080
884.122	0.0164381
884.200	0.0162856
884.279	0.0162488
884.357	0.0163203
884.435	0.0164101
884.513	0.0162685
884.591	0.0163076
884.669	0.0163156
884.747	0.0163239
884.825	0.0163763
884.904	0.0165281
884.982	0.0163063
885.060	0.0163721
885.138	0.0162658
885.216	0.0162187
885.294	0.0162662
885.372	0.0162923
885.450	0.0162337
885.529	0.0163250
885.607	0.0163408
885.685	0.0162235
885.763	0.0162029
885.841	0.0162653
885.919	0.0161478
885.997	0.0162452
886.075	0.0162801
886.154	0.0162128
886.232	0.0163214
886.310	0.0162370
886.388	0.0162033
886.466	0.0160786
886.544	0.0162423
886.622	0.0161989
886.700	0.0162061
886.779	0.0163245
886.857	0.0161469
886.935	0.0161931
887.013	0.0162834
887.091	0.0161936
887.169	0.0160316
887.247	0.0161328
887.325	0.0160995
887.404	0.0161854
887.482	0.0161372
887.560	0.0160140
887.638	0.0161285
887.716	0.0159264
887.794	0.0159389
887.872	0.0160239
887.950	0.0160175
888.029	0.0159813
888.107	0.0161916
888.185	0.0160971
888.263	0.0160632
888.341	0.0160757
888.419	0.0161340
888.497	0.0162759
888.575	0.0163132
888.654	0.0162743
888.732	0.0164658
888.810	0.0163155
888.888	0.0163540
888.966	0.0165242
889.044	0.0165470
889.122	0.0163927
889.200	0.0164716
889.279	0.0164334
889.357	0.0165038
889.435	0.0165298
889.513	0.0165817
889.591	0.0163596
889.669	0.0163437
889.747	0.0163602
889.825	0.0165151
889.904	0.0164516
889.982	0.0163256
890.060	0.0164046
890.138	0.0164206
890.216	0.0163579
890.294	0.0162646
890.372	0.0163582
890.450	0.0163421
890.529	0.0163808
890.607	0.0163743
890.685	0.0163857
890.763	0.0164275
890.841	0.0163538
890.919	0.0163974
890.997	0.0164539
891.075	0.0164581
891.154	0.0163931
891.232	0.0164289
891.310	0.0164067
891.388	0.0164574
891.466	0.0164219
891.544	0.0164274
891.622	0.0164484
891.700	0.0163348
891.779	0.0164323
891.857	0.0164410
891.935	0.0164071
892.013	0.0165304
892.091	0.0164822
892.169	0.0163980
892.247	0.0163718
892.325	0.0164974
892.404	0.0165398
892.482	0.0164993
892.560	0.0163730
892.638	0.0163130
892.716	0.0164165
892.794	0.0164490
892.872	0.0163563
892.950	0.0162822
893.029	0.0163393
893.107	0.0163190
893.185	0.0162317
893.263	0.0162320
893.341	0.0163340
893.419	0.0162687
893.497	0.0161903
893.575	0.0160103
893.654	0.0162272
893.732	0.0161521
893.810	0.0162134
893.888	0.0162072
893.966	0.0162154
894.044	0.0161335
894.122	0.0161850
894.200	0.0160861
894.279	0.0161620
894.357	0.0161462
894.435	0.0161141
894.513	0.0160909
894.591	0.0160887
894.669	0.0161095
894.747	0.0160439
894.825	0.0160300
894.904	0.0159836
894.982	0.0160696
895.060	0.0160796
895.138	0.0160914
895.216	0.0159942
895.294	0.0159982
895.372	0.0161123
895.450	0.0161716
895.529	0.0161633
895.607	0.0161359
895.685	0.0161260
895.763	0.0162449
895.841	0.0161964
895.919	0.0160901
895.997	0.0162835
896.075	0.0161834
896.154	0.0161963
896.232	0.0162562
896.310	0.0161616
896.388	0.0163854
896.466	0.0162466
896.544	0.0163038
896.622	0.0163223
896.700	0.0164321
896.779	0.0162753
896.857	0.0162888
896.935	0.0163084
897.013	0.0163628
897.091	0.0163860
897.169	0.0164230
897.247	0.0164019
897.325	0.0161871
897.404	0.0162739
897.482	0.0163184
897.560	0.0162036
897.638	0.0161442
897.716	0.0160901
897.794	0.0160174
897.872	0.0160589
897.950	0.0159049
898.029	0.0159469
898.107	0.0159939
898.185	0.0159607
898.263	0.0160045
898.341	0.0160089
898.419	0.0161022
898.497	0.0159029
898.575	0.0159470
898.654	0.0162053
898.732	0.0160760
898.810	0.0161306
898.888	0.0160532
898.966	0.0160384
899.044	0.0160316
899.122	0.0160833
899.200	0.0161154
899.279	0.0160559
899.357	0.0159978
899.435	0.0161180
899.513	0.0160075
899.591	0.0161195
899.669	0.0160265
899.747	0.0161332
899.825	0.0161845
899.904	0.0161831
899.982	0.0162022
900.060	0.0163602
900.138	0.0162824
900.216	0.0162542
900.294	0.0161536
900.372	0.0163948
900.450	0.0162874
900.529	0.0164120
900.607	0.0163663
900.685	0.0164460
900.763	0.0163354
900.841	0.0163732
900.919	0.0163403
900.997	0.0163613
901.075	0.0164474
901.154	0.0162627
901.232	0.0163309
901.310	0.0162821
901.388	0.0162716
901.466	0.0162791
901.544	0.0162246
901.622	0.0161743
901.700	0.0161925
901.779	0.0161903
901.857	0.0161590
901.935	0.0160921
902.013	0.0162241
902.091	0.0161928
902.169	0.0162004
902.247	0.0162080
902.325	0.0160612
902.404	0.0160631
902.482	0.0161010
902.560	0.0160253
902.638	0.0160798
902.716	0.0161960
902.794	0.0162701
902.872	0.0161984
902.950	0.0162225
903.029	0.0162180
903.107	0.0162788
903.185	0.0162720
903.263	0.0162951
903.341	0.0164426
903.419	0.0162988
903.497	0.0163628
903.575	0.0163890
903.654	0.0163754
903.732	0.0162137
903.810	0.0162984
903.888	0.0162162
903.966	0.0162561
904.044	0.0162490
904.122	0.0162570
904.200	0.0162930
904.279	0.0162798
904.357	0.0162231
904.435	0.0164028
904.513	0.0162357
904.591	0.0161836
904.669	0.0163009
904.747	0.0162836
904.825	0.0162533
904.904	0.0161351
904.982	0.0161810
905.060	0.0162650
905.138	0.0161543
905.216	0.0162176
905.294	0.0162980
905.372	0.0161558
905.450	0.0162107
905.529	0.0162407
905.607	0.0161369
905.685	0.0162611
905.763	0.0163269
905.841	0.0161847
905.919	0.0162760
905.997	0.0161906
906.075	0.0160936
906.154	0.0163235
906.232	0.0164078
906.310	0.0163047
906.388	0.0162531
906.466	0.0162481
906.544	0.0163161
906.622	0.0161720
906.700	0.0161537
906.779	0.0163215
906.857	0.0163000
906.935	0.0161609
907.013	0.0160419
907.091	0.0161260
907.169	0.0161588
907.247	0.0160381
907.325	0.0159986
907.404	0.0159551
907.482	0.0159632
907.560	0.0160528
907.638	0.0160547
907.716	0.0159532
907.794	0.0160654
907.872	0.0161127
907.950	0.0161370
908.029	0.0161400
908.107	0.0161241
908.185	0.0160966
908.263	0.0161102
908.341	0.0160825
908.419	0.0159576
908.497	0.0161168
908.575	0.0161986
908.654	0.0161255
908.732	0.0159135
908.810	0.0159310
908.888	0.0160454
908.966	0.0160171
909.044	0.0159393
909.122	0.0158652
909.200	0.0159973
909.279	0.0160557
909.357	0.0159503
909.435	0.0159238
909.513	0.0159451
909.591	0.0160966
909.669	0.0161502
909.747	0.0159837
909.825	0.0160648
909.904	0.0161153
909.982	0.0161131
910.060	0.0160808
910.138	0.0160963
910.216	0.0160877
910.294	0.0161581
910.372	0.0160744
910.450	0.0161694
910.529	0.0162170
910.607	0.0161906
910.685	0.0161047
910.763	0.0162759
910.841	0.0163213
910.919	0.0162535
910.997	0.0163251
911.075	0.0164249
911.154	0.0164294
911.232	0.0163702
911.310	0.0163615
911.388	0.0165338
911.466	0.0164497
911.544	0.0164892
911.622	0.0164973
911.700	0.0164183
911.779	0.0165465
911.857	0.0163758
911.935	0.0164269
912.013	0.0163442
912.091	0.0163433
912.169	0.0166473
912.247	0.0165495
912.325	0.0163276
912.404	0.0163599
912.482	0.0163449
912.560	0.0165061
912.638	0.0164005
912.716	0.0163194
912.794	0.0163925
912.872	0.0164674
912.950	0.0164062
913.029	0.0164982
913.107	0.0163389
913.185	0.0163364
913.263	0.0163240
913.341	0.0163811
913.419	0.0164629
913.497	0.0164870
913.575	0.0163921
913.654	0.0163593
913.732	0.0164116
913.810	0.0162992
913.888	0.0163131
913.966	0.0163247
914.044	0.0163345
914.122	0.0162421
914.200	0.0161820
914.279	0.0162095
914.357	0.0161237
914.435	0.0162019
914.513	0.0161997
914.591	0.0161658
914.669	0.0160442
914.747	0.0160962
914.825	0.0162123
914.904	0.0162144
914.982	0.0161922
915.060	0.0162090
915.138	0.0161807
915.216	0.0161987
915.294	0.0161958
915.372	0.0163232
915.450	0.0162866
915.529	0.0161833
915.607	0.0162353
915.685	0.0162576
915.763	0.0163005
915.841	0.0162352
915.919	0.0164607
915.997	0.0163416
916.075	0.0163013
916.154	0.0163767
916.232	0.0163245
916.310	0.0162859
916.388	0.0163570
916.466	0.0163171
916.544	0.0164942
916.622	0.0163924
916.700	0.0163896
916.779	0.0165269
916.857	0.0163831
916.935	0.0163355
917.013	0.0162840
917.091	0.0165079
917.169	0.0164291
917.247	0.0163042
917.325	0.0163838
917.404	0.0163915
917.482	0.0163766
917.560	0.0163837
917.638	0.0163192
917.716	0.0162877
917.794	0.0164078
917.872	0.0163047
917.950	0.0162002
918.029	0.0161455
918.107	0.0163120
918.185	0.0162509
918.263	0.0161447
918.341	0.0161301
918.419	0.0161301
918.497	0.0161841
918.575	0.0160556
918.654	0.0161800
918.732	0.0162276
918.810	0.0163181
918.888	0.0162325
918.966	0.0163040
919.044	0.0162748
919.122	0.0163754
919.200	0.0162473
919.279	0.0163217
919.357	0.0164179
919.435	0.0163406
919.513	0.0164046
919.591	0.0162765
919.669	0.0164146
919.747	0.0163287
919.825	0.0163713
919.904	0.0163069
