05/24/2022	20:37:31	Ver.	4.1	UNKNOWN
Optical Delay	599.981738	Delta X		0.078125	Sweeps	1	Scan Rate	0/0
Coordinates	Axis 1	NaN	Axis 2	NaN	Axis 3	NaN	Axis 4	NaN	Axis 5	NaN	Axis 6	0.000000
TX Power	0.000000	RX Power	0.000000

599.982	0.0160829
600.060	0.0160928
600.138	0.0160949
600.216	0.0160184
600.294	0.0162258
600.372	0.0162017
600.450	0.0160748
600.529	0.0162335
600.607	0.0162045
600.685	0.0162504
600.763	0.0161989
600.841	0.0162321
600.919	0.0162667
600.997	0.0162563
601.075	0.0162434
601.154	0.0160178
601.232	0.0161316
601.310	0.0163822
601.388	0.0162337
601.466	0.0162317
601.544	0.0163610
601.622	0.0162754
601.700	0.0164204
601.779	0.0161576
601.857	0.0162475
601.935	0.0162293
602.013	0.0164143
602.091	0.0162161
602.169	0.0162730
602.247	0.0161137
602.325	0.0161810
602.404	0.0162402
602.482	0.0160715
602.560	0.0159840
602.638	0.0161064
602.716	0.0162093
602.794	0.0159418
602.872	0.0161316
602.950	0.0160902
603.029	0.0160399
603.107	0.0161324
603.185	0.0163096
603.263	0.0161770
603.341	0.0162254
603.419	0.0163328
603.497	0.0162311
603.575	0.0162915
603.654	0.0162330
603.732	0.0162358
603.810	0.0163383
603.888	0.0163449
603.966	0.0163925
604.044	0.0163546
604.122	0.0161509
604.200	0.0162813
604.279	0.0162668
604.357	0.0161953
604.435	0.0163177
604.513	0.0162011
604.591	0.0162788
604.669	0.0161929
604.747	0.0163799
604.825	0.0163502
604.904	0.0162444
604.982	0.0163126
605.060	0.0164519
605.138	0.0163983
605.216	0.0164517
605.294	0.0164600
605.372	0.0164392
605.450	0.0164095
605.529	0.0163673
605.607	0.0164312
605.685	0.0164506
605.763	0.0164776
605.841	0.0165261
605.919	0.0165914
605.997	0.0165921
606.075	0.0165187
606.154	0.0165902
606.232	0.0165321
606.310	0.0166302
606.388	0.0166150
606.466	0.0164522
606.544	0.0165691
606.622	0.0165696
606.700	0.0165967
606.779	0.0163943
606.857	0.0164275
606.935	0.0165199
607.013	0.0163896
607.091	0.0164101
607.169	0.0164686
607.247	0.0164831
607.325	0.0163844
607.404	0.0163729
607.482	0.0164874
607.560	0.0163903
607.638	0.0164980
607.716	0.0164750
607.794	0.0165086
607.872	0.0164692
607.950	0.0166004
608.029	0.0164746
608.107	0.0164700
608.185	0.0164000
608.263	0.0165536
608.341	0.0165666
608.419	0.0164399
608.497	0.0165172
608.575	0.0163584
608.654	0.0165145
608.732	0.0163301
608.810	0.0163774
608.888	0.0163785
608.966	0.0163668
609.044	0.0164029
609.122	0.0161196
609.200	0.0161729
609.279	0.0163780
609.357	0.0161320
609.435	0.0162666
609.513	0.0162784
609.591	0.0161643
609.669	0.0162576
609.747	0.0160814
609.825	0.0160254
609.904	0.0160828
609.982	0.0161588
610.060	0.0160876
610.138	0.0159576
610.216	0.0160918
610.294	0.0162013
610.372	0.0159872
610.450	0.0159852
610.529	0.0161933
610.607	0.0161111
610.685	0.0160623
610.763	0.0162065
610.841	0.0162363
610.919	0.0160671
610.997	0.0160808
611.075	0.0162846
611.154	0.0163262
611.232	0.0163151
611.310	0.0161537
611.388	0.0162508
611.466	0.0163659
611.544	0.0162219
611.622	0.0160426
611.700	0.0161193
611.779	0.0160357
611.857	0.0161458
611.935	0.0160327
612.013	0.0160548
612.091	0.0159217
612.169	0.0159125
612.247	0.0158767
612.325	0.0157693
612.404	0.0158905
612.482	0.0158711
612.560	0.0158697
612.638	0.0160468
612.716	0.0159500
612.794	0.0160709
612.872	0.0160760
612.950	0.0162315
613.029	0.0161089
613.107	0.0160745
613.185	0.0161471
613.263	0.0162181
613.341	0.0161359
613.419	0.0161374
613.497	0.0161403
613.575	0.0160863
613.654	0.0160699
613.732	0.0159872
613.810	0.0160925
613.888	0.0159954
613.966	0.0160603
614.044	0.0161149
614.122	0.0159713
614.200	0.0160161
614.279	0.0160541
614.357	0.0160266
614.435	0.0159515
614.513	0.0158223
614.591	0.0159586
614.669	0.0159269
614.747	0.0161209
614.825	0.0160358
614.904	0.0161694
614.982	0.0160841
615.060	0.0160495
615.138	0.0160984
615.216	0.0161333
615.294	0.0161991
615.372	0.0161987
615.450	0.0161369
615.529	0.0161949
615.607	0.0162356
615.685	0.0160603
615.763	0.0160776
615.841	0.0162187
615.919	0.0160664
615.997	0.0160582
616.075	0.0160961
616.154	0.0160984
616.232	0.0161113
616.310	0.0160274
616.388	0.0160397
616.466	0.0160439
616.544	0.0158389
616.622	0.0159504
616.700	0.0160731
616.779	0.0159419
616.857	0.0160017
616.935	0.0160043
617.013	0.0159136
617.091	0.0160847
617.169	0.0161121
617.247	0.0161169
617.325	0.0160757
617.404	0.0162385
617.482	0.0161006
617.560	0.0162011
617.638	0.0161404
617.716	0.0160985
617.794	0.0161635
617.872	0.0161862
617.950	0.0160104
618.029	0.0161680
618.107	0.0161841
618.185	0.0160747
618.263	0.0161728
618.341	0.0159967
618.419	0.0160725
618.497	0.0160800
618.575	0.0160557
618.654	0.0160674
618.732	0.0160091
618.810	0.0159947
618.888	0.0159460
618.966	0.0160620
619.044	0.0160027
619.122	0.0160363
619.200	0.0160453
619.279	0.0160198
619.357	0.0160188
619.435	0.0161025
619.513	0.0159700
619.591	0.0161216
619.669	0.0160255
619.747	0.0160342
619.825	0.0160446
619.904	0.0160726
619.982	0.0160048
620.060	0.0160605
620.138	0.0160238
620.216	0.0160233
620.294	0.0160878
620.372	0.0160717
620.450	0.0161027
620.529	0.0159846
620.607	0.0159630
620.685	0.0159882
620.763	0.0159850
620.841	0.0160802
620.919	0.0161024
620.997	0.0160069
621.075	0.0160575
621.154	0.0160443
621.232	0.0161073
621.310	0.0159531
621.388	0.0160567
621.466	0.0161365
621.544	0.0159297
621.622	0.0158977
621.700	0.0161065
621.779	0.0160934
621.857	0.0160033
621.935	0.0159139
622.013	0.0158713
622.091	0.0158702
622.169	0.0158882
622.247	0.0160044
622.325	0.0158434
622.404	0.0159759
622.482	0.0160819
622.560	0.0162104
622.638	0.0160497
622.716	0.0159593
622.794	0.0159196
622.872	0.0160567
622.950	0.0162057
623.029	0.0161395
623.107	0.0159817
623.185	0.0161471
623.263	0.0161385
623.341	0.0161111
623.419	0.0161391
623.497	0.0161725
623.575	0.0160954
623.654	0.0160516
623.732	0.0159418
623.810	0.0159180
623.888	0.0160126
623.966	0.0158160
624.044	0.0158800
624.122	0.0159395
624.200	0.0160194
624.279	0.0158639
624.357	0.0159677
624.435	0.0158375
624.513	0.0157141
624.591	0.0158931
624.669	0.0160967
624.747	0.0158331
624.825	0.0160509
624.904	0.0159995
624.982	0.0158811
625.060	0.0160442
625.138	0.0159720
625.216	0.0159492
625.294	0.0161102
625.372	0.0161645
625.450	0.0160705
625.529	0.0160687
625.607	0.0160748
625.685	0.0160844
625.763	0.0161627
625.841	0.0161661
625.919	0.0160538
625.997	0.0161122
626.075	0.0160538
626.154	0.0161452
626.232	0.0161829
626.310	0.0160928
626.388	0.0161162
626.466	0.0159994
626.544	0.0160738
626.622	0.0160388
626.700	0.0159939
626.779	0.0160652
626.857	0.0159612
626.935	0.0159561
627.013	0.0160349
627.091	0.0161175
627.169	0.0159837
627.247	0.0160597
627.325	0.0161809
627.404	0.0160356
627.482	0.0160275
627.560	0.0162251
627.638	0.0161160
627.716	0.0161086
627.794	0.0160426
627.872	0.0162870
627.950	0.0162625
628.029	0.0162682
628.107	0.0162489
628.185	0.0162027
628.263	0.0161692
628.341	0.0162900
628.419	0.0163143
628.497	0.0162168
628.575	0.0163319
628.654	0.0163313
628.732	0.0162489
628.810	0.0163937
628.888	0.0162817
628.966	0.0162761
629.044	0.0162072
629.122	0.0161813
629.200	0.0161678
629.279	0.0162775
629.357	0.0162337
629.435	0.0160577
629.513	0.0159934
629.591	0.0162877
629.669	0.0161449
629.747	0.0162447
629.825	0.0162140
629.904	0.0162920
629.982	0.0161457
630.060	0.0162083
630.138	0.0162656
630.216	0.0162997
630.294	0.0164570
630.372	0.0163003
630.450	0.0162684
630.529	0.0162772
630.607	0.0164176
630.685	0.0164098
630.763	0.0163173
630.841	0.0164777
630.919	0.0161632
630.997	0.0165047
631.075	0.0162460
631.154	0.0164777
631.232	0.0164697
631.310	0.0162964
631.388	0.0163541
631.466	0.0164125
631.544	0.0163829
631.622	0.0164477
631.700	0.0164257
631.779	0.0164850
631.857	0.0165026
631.935	0.0163553
632.013	0.0163007
632.091	0.0163166
632.169	0.0161686
632.247	0.0161067
632.325	0.0161660
632.404	0.0162917
632.482	0.0161086
632.560	0.0161478
632.638	0.0159605
632.716	0.0160062
632.794	0.0160210
632.872	0.0162690
632.950	0.0161346
633.029	0.0162036
633.107	0.0161878
633.185	0.0161648
633.263	0.0162188
633.341	0.0162669
633.419	0.0163029
633.497	0.0162340
633.575	0.0162389
633.654	0.0163414
633.732	0.0164129
633.810	0.0162160
633.888	0.0161915
633.966	0.0162915
634.044	0.0162540
634.122	0.0162479
634.200	0.0163590
634.279	0.0164068
634.357	0.0162670
634.435	0.0161841
634.513	0.0163227
634.591	0.0163805
634.669	0.0160979
634.747	0.0160188
634.825	0.0160297
634.904	0.0160688
634.982	0.0160264
635.060	0.0159949
635.138	0.0157875
635.216	0.0159276
635.294	0.0159262
635.372	0.0158164
635.450	0.0158173
635.529	0.0159258
635.607	0.0159166
635.685	0.0160368
635.763	0.0161006
635.841	0.0162023
635.919	0.0162103
635.997	0.0162991
636.075	0.0163741
636.154	0.0166316
636.232	0.0165890
636.310	0.0165851
636.388	0.0168497
636.466	0.0167065
636.544	0.0166636
636.622	0.0166672
636.700	0.0166547
636.779	0.0167258
636.857	0.0165298
636.935	0.0164761
637.013	0.0163297
637.091	0.0163363
637.169	0.0162150
637.247	0.0161469
637.325	0.0159044
637.404	0.0156866
637.482	0.0156664
637.560	0.0157488
637.638	0.0155681
637.716	0.0153564
637.794	0.0152200
637.872	0.0154166
637.950	0.0152813
638.029	0.0150707
638.107	0.0151032
638.185	0.0151226
638.263	0.0152457
638.341	0.0152593
638.419	0.0151932
638.497	0.0152900
638.575	0.0153433
638.654	0.0154591
638.732	0.0155400
638.810	0.0158277
638.888	0.0159057
638.966	0.0160965
639.044	0.0164201
639.122	0.0164761
639.200	0.0165711
639.279	0.0168941
639.357	0.0171419
639.435	0.0172768
639.513	0.0175477
639.591	0.0175634
639.669	0.0177637
639.747	0.0176336
639.825	0.0176227
639.904	0.0177232
639.982	0.0177673
640.060	0.0175603
640.138	0.0174925
640.216	0.0173969
640.294	0.0171033
640.372	0.0170258
640.450	0.0166372
640.529	0.0164883
640.607	0.0160754
640.685	0.0159152
640.763	0.0156701
640.841	0.0151645
640.919	0.0149946
640.997	0.0146747
641.075	0.0143533
641.154	0.0140786
641.232	0.0139089
641.310	0.0137098
641.388	0.0136488
641.466	0.0135625
641.544	0.0134182
641.622	0.0136049
641.700	0.0137833
641.779	0.0141066
641.857	0.0142635
641.935	0.0143458
642.013	0.0146409
642.091	0.0151125
642.169	0.0154824
642.247	0.0157277
642.325	0.0161240
642.404	0.0165862
642.482	0.0169324
642.560	0.0172102
642.638	0.0176051
642.716	0.0180433
642.794	0.0183588
642.872	0.0187762
642.950	0.0187713
643.029	0.0190430
643.107	0.0190797
643.185	0.0191856
643.263	0.0190214
643.341	0.0188292
643.419	0.0185490
643.497	0.0180334
643.575	0.0178674
643.654	0.0173621
643.732	0.0170261
643.810	0.0167001
643.888	0.0161286
643.966	0.0156219
644.044	0.0152801
644.122	0.0147878
644.200	0.0145258
644.279	0.0141084
644.357	0.0138146
644.435	0.0135683
644.513	0.0133794
644.591	0.0132944
644.669	0.0131270
644.747	0.0130594
644.825	0.0131704
644.904	0.0132584
644.982	0.0133338
645.060	0.0134592
645.138	0.0138364
645.216	0.0141341
645.294	0.0144267
645.372	0.0148279
645.450	0.0152116
645.529	0.0154246
645.607	0.0158398
645.685	0.0161283
645.763	0.0163879
645.841	0.0166981
645.919	0.0169182
645.997	0.0172356
646.075	0.0173173
646.154	0.0174921
646.232	0.0175752
646.310	0.0177389
646.388	0.0176793
646.466	0.0177475
646.544	0.0177574
646.622	0.0178474
646.700	0.0178625
646.779	0.0177797
646.857	0.0176954
646.935	0.0175894
647.013	0.0174647
647.091	0.0172752
647.169	0.0172273
647.247	0.0169862
647.325	0.0170319
647.404	0.0167286
647.482	0.0164433
647.560	0.0164221
647.638	0.0163738
647.716	0.0160210
647.794	0.0157877
647.872	0.0157118
647.950	0.0157868
648.029	0.0154412
648.107	0.0152094
648.185	0.0152637
648.263	0.0150552
648.341	0.0149544
648.419	0.0148723
648.497	0.0149084
648.575	0.0148917
648.654	0.0148117
648.732	0.0147170
648.810	0.0147807
648.888	0.0150037
648.966	0.0150722
649.044	0.0151189
649.122	0.0153055
649.200	0.0154043
649.279	0.0155540
649.357	0.0157671
649.435	0.0161392
649.513	0.0161030
649.591	0.0163357
649.669	0.0165536
649.747	0.0167512
649.825	0.0169250
649.904	0.0170599
649.982	0.0172906
650.060	0.0173480
650.138	0.0175149
650.216	0.0175999
650.294	0.0175414
650.372	0.0174108
650.450	0.0173976
650.529	0.0173942
650.607	0.0172016
650.685	0.0172758
650.763	0.0169650
650.841	0.0171103
650.919	0.0168932
650.997	0.0170278
651.075	0.0170509
651.154	0.0168974
651.232	0.0169894
651.310	0.0169255
651.388	0.0169524
651.466	0.0169562
651.544	0.0169540
651.622	0.0169268
651.700	0.0168501
651.779	0.0168082
651.857	0.0168085
651.935	0.0167027
652.013	0.0168050
652.091	0.0164771
652.169	0.0164889
652.247	0.0162906
652.325	0.0162187
652.404	0.0160951
652.482	0.0159077
652.560	0.0156787
652.638	0.0155130
652.716	0.0151354
652.794	0.0149937
652.872	0.0147296
652.950	0.0144229
653.029	0.0143890
653.107	0.0141414
653.185	0.0142149
653.263	0.0141183
653.341	0.0140615
653.419	0.0142289
653.497	0.0144020
653.575	0.0145613
653.654	0.0147144
653.732	0.0150278
653.810	0.0154197
653.888	0.0155080
653.966	0.0158373
654.044	0.0162094
654.122	0.0164020
654.200	0.0167955
654.279	0.0170442
654.357	0.0172224
654.435	0.0176990
654.513	0.0179507
654.591	0.0181736
654.669	0.0184238
654.747	0.0186630
654.825	0.0187859
654.904	0.0187962
654.982	0.0188345
655.060	0.0184515
655.138	0.0183328
655.216	0.0179771
655.294	0.0175632
655.372	0.0170156
655.450	0.0164896
655.529	0.0159688
655.607	0.0152934
655.685	0.0147701
655.763	0.0143989
655.841	0.0138998
655.919	0.0136187
655.997	0.0133080
656.075	0.0130960
656.154	0.0131442
656.232	0.0133700
656.310	0.0133760
656.388	0.0134806
656.466	0.0137643
656.544	0.0140411
656.622	0.0144591
656.700	0.0148463
656.779	0.0151281
656.857	0.0155243
656.935	0.0160374
657.013	0.0162826
657.091	0.0167074
657.169	0.0172028
657.247	0.0174285
657.325	0.0176643
657.404	0.0179443
657.482	0.0181754
657.560	0.0183578
657.638	0.0183082
657.716	0.0183926
657.794	0.0183656
657.872	0.0182040
657.950	0.0180564
658.029	0.0176584
658.107	0.0174225
658.185	0.0172960
658.263	0.0171980
658.341	0.0168816
658.419	0.0166505
658.497	0.0164407
658.575	0.0162908
658.654	0.0161927
658.732	0.0159299
658.810	0.0157610
658.888	0.0156726
658.966	0.0155945
659.044	0.0152774
659.122	0.0151584
659.200	0.0151270
659.279	0.0151760
659.357	0.0152134
659.435	0.0152063
659.513	0.0152790
659.591	0.0153920
659.669	0.0155239
659.747	0.0155169
659.825	0.0159311
659.904	0.0162012
659.982	0.0163688
660.060	0.0165040
660.138	0.0167530
660.216	0.0167879
660.294	0.0170853
660.372	0.0170323
660.450	0.0170998
660.529	0.0170430
660.607	0.0172105
660.685	0.0170520
660.763	0.0169741
660.841	0.0168995
660.919	0.0167310
660.997	0.0165202
661.075	0.0163398
661.154	0.0160837
661.232	0.0159409
661.310	0.0155460
661.388	0.0152201
661.466	0.0149704
661.544	0.0149509
661.622	0.0147234
661.700	0.0147149
661.779	0.0145557
661.857	0.0144505
661.935	0.0145457
662.013	0.0146079
662.091	0.0144944
662.169	0.0146751
662.247	0.0145670
662.325	0.0147242
662.404	0.0146625
662.482	0.0149298
662.560	0.0150652
662.638	0.0152541
662.716	0.0155467
662.794	0.0157054
662.872	0.0159237
662.950	0.0162217
663.029	0.0167577
663.107	0.0170541
663.185	0.0170133
663.263	0.0176199
663.341	0.0180398
663.419	0.0182212
663.497	0.0183764
663.575	0.0187737
663.654	0.0190332
663.732	0.0190886
663.810	0.0192904
663.888	0.0193202
663.966	0.0193448
664.044	0.0194419
664.122	0.0194251
664.200	0.0192356
664.279	0.0190497
664.357	0.0187337
664.435	0.0184812
664.513	0.0182724
664.591	0.0177446
664.669	0.0174641
664.747	0.0169565
664.825	0.0165676
664.904	0.0162106
664.982	0.0158926
665.060	0.0155862
665.138	0.0152901
665.216	0.0153112
665.294	0.0151540
665.372	0.0149100
665.450	0.0146803
665.529	0.0147362
665.607	0.0145470
665.685	0.0143490
665.763	0.0142472
665.841	0.0141668
665.919	0.0139231
665.997	0.0138874
666.075	0.0138021
666.154	0.0138211
666.232	0.0136079
666.310	0.0137239
666.388	0.0135458
666.466	0.0137677
666.544	0.0136065
666.622	0.0136531
666.700	0.0136291
666.779	0.0136185
666.857	0.0137380
666.935	0.0139509
667.013	0.0141045
667.091	0.0139576
667.169	0.0141671
667.247	0.0144976
667.325	0.0147704
667.404	0.0152283
667.482	0.0156833
667.560	0.0161592
667.638	0.0167906
667.716	0.0172764
667.794	0.0176604
667.872	0.0182509
667.950	0.0188120
668.029	0.0192794
668.107	0.0196352
668.185	0.0200735
668.263	0.0204346
668.341	0.0206871
668.419	0.0207308
668.497	0.0210224
668.575	0.0210025
668.654	0.0210280
668.732	0.0210163
668.810	0.0207334
668.888	0.0205314
668.966	0.0203295
669.044	0.0200483
669.122	0.0194611
669.200	0.0189592
669.279	0.0183507
669.357	0.0177348
669.435	0.0170896
669.513	0.0164519
669.591	0.0158237
669.669	0.0150967
669.747	0.0145261
669.825	0.0139965
669.904	0.0135089
669.982	0.0130807
670.060	0.0128699
670.138	0.0125835
670.216	0.0123362
670.294	0.0123903
670.372	0.0122039
670.450	0.0122496
670.529	0.0124155
670.607	0.0126241
670.685	0.0128042
670.763	0.0131009
670.841	0.0134454
670.919	0.0139396
670.997	0.0142512
671.075	0.0146243
671.154	0.0151069
671.232	0.0155269
671.310	0.0158246
671.388	0.0163220
671.466	0.0166728
671.544	0.0169263
671.622	0.0170954
671.700	0.0173019
671.779	0.0173339
671.857	0.0175243
671.935	0.0175507
672.013	0.0176838
672.091	0.0177298
672.169	0.0175975
672.247	0.0174509
672.325	0.0173286
672.404	0.0172102
672.482	0.0169913
672.560	0.0169289
672.638	0.0167011
672.716	0.0162455
672.794	0.0161638
672.872	0.0160290
672.950	0.0156146
673.029	0.0156343
673.107	0.0153433
673.185	0.0151725
673.263	0.0150949
673.341	0.0149721
673.419	0.0149723
673.497	0.0151876
673.575	0.0153566
673.654	0.0154203
673.732	0.0156171
673.810	0.0160728
673.888	0.0161465
673.966	0.0164880
674.044	0.0166512
674.122	0.0169971
674.200	0.0173347
674.279	0.0177261
674.357	0.0179685
674.435	0.0181661
674.513	0.0184719
674.591	0.0185191
674.669	0.0186099
674.747	0.0187672
674.825	0.0185655
674.904	0.0187298
674.982	0.0186238
675.060	0.0182952
675.138	0.0181562
675.216	0.0177355
675.294	0.0173326
675.372	0.0170578
675.450	0.0166214
675.529	0.0163856
675.607	0.0159438
675.685	0.0156000
675.763	0.0153420
675.841	0.0150436
675.919	0.0149277
675.997	0.0146222
676.075	0.0144429
676.154	0.0144819
676.232	0.0143150
676.310	0.0142751
676.388	0.0142449
676.466	0.0142422
676.544	0.0143777
676.622	0.0143874
676.700	0.0145645
676.779	0.0144395
676.857	0.0144024
676.935	0.0145598
677.013	0.0147055
677.091	0.0146871
677.169	0.0147572
677.247	0.0148575
677.325	0.0148104
677.404	0.0149465
677.482	0.0150578
677.560	0.0151450
677.638	0.0152808
677.716	0.0153716
677.794	0.0154730
677.872	0.0156746
677.950	0.0157997
678.029	0.0159113
678.107	0.0160649
678.185	0.0161279
678.263	0.0165923
678.341	0.0167654
678.419	0.0168327
678.497	0.0171605
678.575	0.0171725
678.654	0.0172324
678.732	0.0175893
678.810	0.0174345
678.888	0.0176658
678.966	0.0177599
679.044	0.0175183
679.122	0.0177040
679.200	0.0176220
679.279	0.0176430
679.357	0.0174586
679.435	0.0172392
679.513	0.0172237
679.591	0.0169836
679.669	0.0169387
679.747	0.0167884
679.825	0.0166791
679.904	0.0164133
679.982	0.0163441
680.060	0.0163093
680.138	0.0161275
680.216	0.0161098
680.294	0.0162741
680.372	0.0162333
680.450	0.0161792
680.529	0.0163647
680.607	0.0166031
680.685	0.0165736
680.763	0.0167786
680.841	0.0168931
680.919	0.0169274
680.997	0.0170019
681.075	0.0170253
681.154	0.0170646
681.232	0.0169542
681.310	0.0168722
681.388	0.0167670
681.466	0.0164901
681.544	0.0162418
681.622	0.0161577
681.700	0.0159675
681.779	0.0157413
681.857	0.0156441
681.935	0.0152183
682.013	0.0153813
682.091	0.0152319
682.169	0.0150328
682.247	0.0149261
682.325	0.0148727
682.404	0.0148392
682.482	0.0146256
682.560	0.0147202
682.638	0.0145436
682.716	0.0145905
682.794	0.0145645
682.872	0.0146630
682.950	0.0147493
683.029	0.0150874
683.107	0.0150797
683.185	0.0154250
683.263	0.0156162
683.341	0.0157365
683.419	0.0162045
683.497	0.0163086
683.575	0.0165601
683.654	0.0165456
683.732	0.0167306
683.810	0.0168895
683.888	0.0170065
683.966	0.0171550
684.044	0.0171497
684.122	0.0170918
684.200	0.0173813
684.279	0.0173862
684.357	0.0172780
684.435	0.0172102
684.513	0.0173626
684.591	0.0172100
684.669	0.0172360
684.747	0.0172922
684.825	0.0171228
684.904	0.0169980
684.982	0.0168855
685.060	0.0167998
685.138	0.0165214
685.216	0.0165952
685.294	0.0164198
685.372	0.0163381
685.450	0.0163012
685.529	0.0161453
685.607	0.0160555
685.685	0.0159074
685.763	0.0159516
685.841	0.0157136
685.919	0.0157861
685.997	0.0157132
686.075	0.0156266
686.154	0.0156624
686.232	0.0155325
686.310	0.0156612
686.388	0.0157436
686.466	0.0157059
686.544	0.0158496
686.622	0.0160448
686.700	0.0161838
686.779	0.0162077
686.857	0.0162378
686.935	0.0165404
687.013	0.0165022
687.091	0.0167256
687.169	0.0167376
687.247	0.0168935
687.325	0.0169106
687.404	0.0171156
687.482	0.0171459
687.560	0.0170210
687.638	0.0170425
687.716	0.0170225
687.794	0.0170555
687.872	0.0168476
687.950	0.0167541
688.029	0.0166822
688.107	0.0165457
688.185	0.0164388
688.263	0.0164314
688.341	0.0162865
688.419	0.0162466
688.497	0.0161259
688.575	0.0159113
688.654	0.0159174
688.732	0.0159839
688.810	0.0159035
688.888	0.0157352
688.966	0.0157919
689.044	0.0155020
689.122	0.0156893
689.200	0.0155762
689.279	0.0156227
689.357	0.0155267
689.435	0.0154247
689.513	0.0154655
689.591	0.0154326
689.669	0.0155845
689.747	0.0155585
689.825	0.0156094
689.904	0.0155288
689.982	0.0153398
690.060	0.0156006
690.138	0.0156381
690.216	0.0156275
690.294	0.0154724
690.372	0.0155027
690.450	0.0156890
690.529	0.0157737
690.607	0.0157993
690.685	0.0159470
690.763	0.0161021
690.841	0.0162740
690.919	0.0162075
690.997	0.0162693
691.075	0.0163132
691.154	0.0164275
691.232	0.0166301
691.310	0.0165752
691.388	0.0166916
691.466	0.0168438
691.544	0.0166158
691.622	0.0166005
691.700	0.0166441
691.779	0.0166286
691.857	0.0165167
691.935	0.0163336
692.013	0.0165071
692.091	0.0164730
692.169	0.0162890
692.247	0.0162767
692.325	0.0162646
692.404	0.0165740
692.482	0.0164268
692.560	0.0164670
692.638	0.0163889
692.716	0.0164793
692.794	0.0166394
692.872	0.0164020
692.950	0.0163767
693.029	0.0165149
693.107	0.0164677
693.185	0.0163970
693.263	0.0163524
693.341	0.0166121
693.419	0.0165142
693.497	0.0166869
693.575	0.0166740
693.654	0.0167129
693.732	0.0166319
693.810	0.0165726
693.888	0.0164681
693.966	0.0166016
694.044	0.0165190
694.122	0.0165268
694.200	0.0163863
694.279	0.0162426
694.357	0.0162335
694.435	0.0161272
694.513	0.0159991
694.591	0.0156554
694.669	0.0155433
694.747	0.0153140
694.825	0.0152398
694.904	0.0150393
694.982	0.0149738
695.060	0.0148591
695.138	0.0146179
695.216	0.0145766
695.294	0.0147235
695.372	0.0146606
695.450	0.0145917
695.529	0.0149018
695.607	0.0150404
695.685	0.0151633
695.763	0.0152580
695.841	0.0153812
695.919	0.0153622
695.997	0.0157160
696.075	0.0159093
696.154	0.0158510
696.232	0.0161398
696.310	0.0161206
696.388	0.0162252
696.466	0.0163379
696.544	0.0163649
696.622	0.0164683
696.700	0.0164622
696.779	0.0166641
696.857	0.0168094
696.935	0.0168050
697.013	0.0167979
697.091	0.0169588
697.169	0.0169312
697.247	0.0169035
697.325	0.0170362
697.404	0.0170065
697.482	0.0171056
697.560	0.0168761
697.638	0.0167365
697.716	0.0167538
697.794	0.0167217
697.872	0.0167008
697.950	0.0166731
698.029	0.0165382
698.107	0.0163783
698.185	0.0163800
698.263	0.0162488
698.341	0.0162806
698.419	0.0160493
698.497	0.0158786
698.575	0.0157731
698.654	0.0156438
698.732	0.0156393
698.810	0.0156557
698.888	0.0155765
698.966	0.0156422
699.044	0.0154469
699.122	0.0157452
699.200	0.0157977
699.279	0.0157292
699.357	0.0157608
699.435	0.0158247
699.513	0.0159979
699.591	0.0159615
699.669	0.0161046
699.747	0.0161127
699.825	0.0161761
699.904	0.0160898
699.982	0.0161691
700.060	0.0161974
700.138	0.0161344
700.216	0.0161320
700.294	0.0163245
700.372	0.0165870
700.450	0.0165636
700.529	0.0164708
700.607	0.0166411
700.685	0.0165331
700.763	0.0163837
700.841	0.0166233
700.919	0.0165112
700.997	0.0164103
701.075	0.0162422
701.154	0.0161901
701.232	0.0161425
701.310	0.0158862
701.388	0.0156703
701.466	0.0153895
701.544	0.0154430
701.622	0.0152258
701.700	0.0151515
701.779	0.0152119
701.857	0.0152312
701.935	0.0151262
702.013	0.0150538
702.091	0.0151814
702.169	0.0153677
702.247	0.0155930
702.325	0.0157176
702.404	0.0158527
702.482	0.0159650
702.560	0.0160052
702.638	0.0162606
702.716	0.0164079
702.794	0.0165468
702.872	0.0164532
702.950	0.0164868
703.029	0.0164465
703.107	0.0165322
703.185	0.0164948
703.263	0.0165419
703.341	0.0163423
703.419	0.0161497
703.497	0.0161292
703.575	0.0159988
703.654	0.0159772
703.732	0.0160451
703.810	0.0160731
703.888	0.0160742
703.966	0.0162518
704.044	0.0163477
704.122	0.0165251
704.200	0.0167963
704.279	0.0168464
704.357	0.0169450
704.435	0.0170973
704.513	0.0172376
704.591	0.0171783
704.669	0.0173558
704.747	0.0171136
704.825	0.0170515
704.904	0.0169527
704.982	0.0168659
705.060	0.0168632
705.138	0.0167527
705.216	0.0166434
705.294	0.0164848
705.372	0.0163043
705.450	0.0163461
705.529	0.0160933
705.607	0.0159758
705.685	0.0159950
705.763	0.0158754
705.841	0.0157441
705.919	0.0157250
705.997	0.0157356
706.075	0.0155325
706.154	0.0155582
706.232	0.0155478
706.310	0.0154630
706.388	0.0155862
706.466	0.0155834
706.544	0.0154745
706.622	0.0155662
706.700	0.0156007
706.779	0.0155859
706.857	0.0156156
706.935	0.0156707
707.013	0.0158253
707.091	0.0158128
707.169	0.0159338
707.247	0.0159651
707.325	0.0160913
707.404	0.0163029
707.482	0.0164814
707.560	0.0164079
707.638	0.0165203
707.716	0.0165687
707.794	0.0166103
707.872	0.0166702
707.950	0.0167288
708.029	0.0168781
708.107	0.0167894
708.185	0.0166510
708.263	0.0166275
708.341	0.0166170
708.419	0.0164347
708.497	0.0163242
708.575	0.0163508
708.654	0.0162128
708.732	0.0162072
708.810	0.0162621
708.888	0.0159660
708.966	0.0159258
709.044	0.0158526
709.122	0.0157964
709.200	0.0156973
709.279	0.0158353
709.357	0.0159885
709.435	0.0159030
709.513	0.0160201
709.591	0.0160933
709.669	0.0160868
709.747	0.0161649
709.825	0.0162517
709.904	0.0161551
709.982	0.0160823
710.060	0.0162142
710.138	0.0162941
710.216	0.0162329
710.294	0.0162563
710.372	0.0161305
710.450	0.0161135
710.529	0.0162479
710.607	0.0161378
710.685	0.0161679
710.763	0.0161543
710.841	0.0161864
710.919	0.0160630
710.997	0.0161671
711.075	0.0162217
711.154	0.0162551
711.232	0.0161306
711.310	0.0161698
711.388	0.0161282
711.466	0.0161390
711.544	0.0162585
711.622	0.0162038
711.700	0.0160532
711.779	0.0161644
711.857	0.0161039
711.935	0.0161098
712.013	0.0162173
712.091	0.0161304
712.169	0.0162305
712.247	0.0161423
712.325	0.0159543
712.404	0.0159975
712.482	0.0160184
712.560	0.0160056
712.638	0.0159986
712.716	0.0159353
712.794	0.0159600
712.872	0.0161173
712.950	0.0161013
713.029	0.0159894
713.107	0.0161028
713.185	0.0161029
713.263	0.0161159
713.341	0.0161518
713.419	0.0161848
713.497	0.0160152
713.575	0.0160718
713.654	0.0160456
713.732	0.0158665
713.810	0.0157703
713.888	0.0158420
713.966	0.0158987
714.044	0.0157961
714.122	0.0157348
714.200	0.0159889
714.279	0.0158818
714.357	0.0158809
714.435	0.0158550
714.513	0.0160146
714.591	0.0162062
714.669	0.0160165
714.747	0.0161113
714.825	0.0162904
714.904	0.0162070
714.982	0.0164501
715.060	0.0163239
715.138	0.0163989
715.216	0.0165698
715.294	0.0164114
715.372	0.0165018
715.450	0.0165866
715.529	0.0166267
715.607	0.0164893
715.685	0.0165704
715.763	0.0164824
715.841	0.0166490
715.919	0.0165343
715.997	0.0163812
716.075	0.0164859
716.154	0.0163520
716.232	0.0163849
716.310	0.0163459
716.388	0.0161906
716.466	0.0162541
716.544	0.0161245
716.622	0.0161668
716.700	0.0160091
716.779	0.0161261
716.857	0.0159957
716.935	0.0159254
717.013	0.0161228
717.091	0.0159209
717.169	0.0159908
717.247	0.0159645
717.325	0.0159271
717.404	0.0158600
717.482	0.0158278
717.560	0.0158052
717.638	0.0158630
717.716	0.0158670
717.794	0.0159331
717.872	0.0159677
717.950	0.0159212
718.029	0.0160013
718.107	0.0160077
718.185	0.0160435
718.263	0.0161250
718.341	0.0161369
718.419	0.0161774
718.497	0.0162254
718.575	0.0161253
718.654	0.0162590
718.732	0.0162337
718.810	0.0161176
718.888	0.0161040
718.966	0.0160612
719.044	0.0161439
719.122	0.0160847
719.200	0.0160494
719.279	0.0158708
719.357	0.0157804
719.435	0.0157954
719.513	0.0156952
719.591	0.0157235
719.669	0.0155353
719.747	0.0159941
719.825	0.0157597
719.904	0.0157127
719.982	0.0157923
720.060	0.0158519
720.138	0.0158867
720.216	0.0159497
720.294	0.0160376
720.372	0.0160471
720.450	0.0160919
720.529	0.0161275
720.607	0.0161220
720.685	0.0162096
720.763	0.0161005
720.841	0.0159734
720.919	0.0160181
720.997	0.0160645
721.075	0.0160325
721.154	0.0161522
721.232	0.0161321
721.310	0.0161917
721.388	0.0161798
721.466	0.0162946
721.544	0.0162594
721.622	0.0162542
721.700	0.0164632
721.779	0.0164320
721.857	0.0163496
721.935	0.0164601
722.013	0.0164699
722.091	0.0164284
722.169	0.0164798
722.247	0.0164537
722.325	0.0164813
722.404	0.0164064
722.482	0.0162511
722.560	0.0162923
722.638	0.0162881
722.716	0.0163496
722.794	0.0161649
722.872	0.0162553
722.950	0.0161706
723.029	0.0161565
723.107	0.0161489
723.185	0.0161964
723.263	0.0160931
723.341	0.0161041
723.419	0.0161051
723.497	0.0162360
723.575	0.0160802
723.654	0.0159607
723.732	0.0159673
723.810	0.0159860
723.888	0.0158108
723.966	0.0158106
724.044	0.0158961
724.122	0.0157283
724.200	0.0157796
724.279	0.0158682
724.357	0.0157658
724.435	0.0157358
724.513	0.0156086
724.591	0.0156358
724.669	0.0157256
724.747	0.0155788
724.825	0.0157937
724.904	0.0158781
724.982	0.0159676
725.060	0.0160105
725.138	0.0159889
725.216	0.0160774
725.294	0.0160246
725.372	0.0160706
725.450	0.0162202
725.529	0.0162073
725.607	0.0163172
725.685	0.0163721
725.763	0.0165434
725.841	0.0164571
725.919	0.0163766
725.997	0.0165675
726.075	0.0167046
726.154	0.0167281
726.232	0.0166268
726.310	0.0165839
726.388	0.0164378
726.466	0.0165955
726.544	0.0165755
726.622	0.0164956
726.700	0.0165374
726.779	0.0163945
726.857	0.0163459
726.935	0.0163988
727.013	0.0162592
727.091	0.0162025
727.169	0.0163210
727.247	0.0162927
727.325	0.0164151
727.404	0.0162730
727.482	0.0162820
727.560	0.0163061
727.638	0.0162966
727.716	0.0163269
727.794	0.0163342
727.872	0.0164044
727.950	0.0164558
728.029	0.0162688
728.107	0.0162749
728.185	0.0162688
728.263	0.0162188
728.341	0.0160821
728.419	0.0162255
728.497	0.0160854
728.575	0.0160335
728.654	0.0161008
728.732	0.0161120
728.810	0.0160747
728.888	0.0159686
728.966	0.0161293
729.044	0.0161201
729.122	0.0160698
729.200	0.0160918
729.279	0.0161713
729.357	0.0162670
729.435	0.0164059
729.513	0.0163698
729.591	0.0162794
729.669	0.0163451
729.747	0.0164036
729.825	0.0162799
729.904	0.0162754
729.982	0.0163740
730.060	0.0161440
730.138	0.0161711
730.216	0.0163133
730.294	0.0162971
730.372	0.0163772
730.450	0.0164890
730.529	0.0162911
730.607	0.0163233
730.685	0.0163137
730.763	0.0163152
730.841	0.0163774
730.919	0.0163235
730.997	0.0162054
731.075	0.0161968
731.154	0.0163654
731.232	0.0162424
731.310	0.0162093
731.388	0.0161400
731.466	0.0161800
731.544	0.0161459
731.622	0.0160072
731.700	0.0160435
731.779	0.0161147
731.857	0.0161157
731.935	0.0159058
732.013	0.0159866
732.091	0.0160214
732.169	0.0158967
732.247	0.0159071
732.325	0.0160347
732.404	0.0160231
732.482	0.0159340
732.560	0.0159464
732.638	0.0159415
732.716	0.0160014
732.794	0.0160155
732.872	0.0160567
732.950	0.0161057
733.029	0.0161221
733.107	0.0160953
733.185	0.0162164
733.263	0.0161465
733.341	0.0162543
733.419	0.0161929
733.497	0.0162556
733.575	0.0164276
733.654	0.0163435
733.732	0.0164570
733.810	0.0165742
733.888	0.0163754
733.966	0.0163947
734.044	0.0164255
734.122	0.0163889
734.200	0.0163951
734.279	0.0162780
734.357	0.0163025
734.435	0.0163583
734.513	0.0161034
734.591	0.0162206
734.669	0.0163574
734.747	0.0163078
734.825	0.0162938
734.904	0.0163076
734.982	0.0162540
735.060	0.0162981
735.138	0.0163254
735.216	0.0161941
735.294	0.0163589
735.372	0.0162198
735.450	0.0163287
735.529	0.0163877
735.607	0.0164246
735.685	0.0165611
735.763	0.0164741
735.841	0.0164690
735.919	0.0163493
735.997	0.0165695
736.075	0.0165676
736.154	0.0165440
736.232	0.0165851
736.310	0.0166090
736.388	0.0164686
736.466	0.0164656
736.544	0.0164936
736.622	0.0165302
736.700	0.0164282
736.779	0.0164309
736.857	0.0163232
736.935	0.0162375
737.013	0.0161841
737.091	0.0161349
737.169	0.0161207
737.247	0.0161172
737.325	0.0160299
737.404	0.0159268
737.482	0.0159124
737.560	0.0158602
737.638	0.0159187
737.716	0.0159306
737.794	0.0158421
737.872	0.0159172
737.950	0.0159523
738.029	0.0159184
738.107	0.0157594
738.185	0.0159509
738.263	0.0158133
738.341	0.0158215
738.419	0.0158579
738.497	0.0159779
738.575	0.0159490
738.654	0.0160799
738.732	0.0160632
738.810	0.0161449
738.888	0.0161996
738.966	0.0161385
739.044	0.0161222
739.122	0.0160812
739.200	0.0163244
739.279	0.0163666
739.357	0.0162405
739.435	0.0164761
739.513	0.0165228
739.591	0.0163514
739.669	0.0163130
739.747	0.0163356
739.825	0.0163309
739.904	0.0163938
739.982	0.0164107
740.060	0.0164198
740.138	0.0162149
740.216	0.0162994
740.294	0.0162414
740.372	0.0162145
740.450	0.0161921
740.529	0.0162437
740.607	0.0162631
740.685	0.0160674
740.763	0.0161289
740.841	0.0161797
740.919	0.0161452
740.997	0.0161539
741.075	0.0158788
741.154	0.0160902
741.232	0.0160501
741.310	0.0160062
741.388	0.0159321
741.466	0.0160244
741.544	0.0160957
741.622	0.0160557
741.700	0.0160391
741.779	0.0161237
741.857	0.0162144
741.935	0.0162186
742.013	0.0161770
742.091	0.0161193
742.169	0.0162378
742.247	0.0163636
742.325	0.0162687
742.404	0.0162848
742.482	0.0163125
742.560	0.0163493
742.638	0.0163635
742.716	0.0164448
742.794	0.0163809
742.872	0.0163567
742.950	0.0164902
743.029	0.0165945
743.107	0.0165147
743.185	0.0164476
743.263	0.0165197
743.341	0.0165305
743.419	0.0166433
743.497	0.0164321
743.575	0.0165469
743.654	0.0164138
743.732	0.0164728
743.810	0.0165154
743.888	0.0164384
743.966	0.0164653
744.044	0.0166100
744.122	0.0163731
744.200	0.0162972
744.279	0.0163187
744.357	0.0161439
744.435	0.0161642
744.513	0.0160693
744.591	0.0160677
744.669	0.0160989
744.747	0.0161308
744.825	0.0161202
744.904	0.0161299
744.982	0.0159357
745.060	0.0159430
745.138	0.0159280
745.216	0.0158848
745.294	0.0157217
745.372	0.0157953
745.450	0.0158713
745.529	0.0159004
745.607	0.0158529
745.685	0.0157103
745.763	0.0156763
745.841	0.0156224
745.919	0.0156744
745.997	0.0157898
746.075	0.0158046
746.154	0.0157889
746.232	0.0157733
746.310	0.0157115
746.388	0.0157231
746.466	0.0158584
746.544	0.0160069
746.622	0.0159059
746.700	0.0159827
746.779	0.0159467
746.857	0.0161533
746.935	0.0159705
747.013	0.0161468
747.091	0.0160812
747.169	0.0161581
747.247	0.0160764
747.325	0.0160825
747.404	0.0161165
747.482	0.0161723
747.560	0.0161323
747.638	0.0162289
747.716	0.0162001
747.794	0.0163513
747.872	0.0162661
747.950	0.0162237
748.029	0.0163340
748.107	0.0163273
748.185	0.0163139
748.263	0.0163206
748.341	0.0163385
748.419	0.0163876
748.497	0.0163412
748.575	0.0164517
748.654	0.0163977
748.732	0.0162139
748.810	0.0162597
748.888	0.0162813
748.966	0.0163688
749.044	0.0162734
749.122	0.0163379
749.200	0.0161530
749.279	0.0161729
749.357	0.0160410
749.435	0.0162292
749.513	0.0161753
749.591	0.0161567
749.669	0.0162371
749.747	0.0161413
749.825	0.0162196
749.904	0.0160900
749.982	0.0160155
750.060	0.0160620
750.138	0.0160962
750.216	0.0159756
750.294	0.0160133
750.372	0.0159018
750.450	0.0161705
750.529	0.0160741
750.607	0.0160327
750.685	0.0161234
750.763	0.0161586
750.841	0.0161996
750.919	0.0161828
750.997	0.0161714
751.075	0.0163860
751.154	0.0162909
751.232	0.0161382
751.310	0.0162743
751.388	0.0162743
751.466	0.0162542
751.544	0.0163444
751.622	0.0161055
751.700	0.0160603
751.779	0.0160255
751.857	0.0160989
751.935	0.0161161
752.013	0.0160514
752.091	0.0161226
752.169	0.0161108
752.247	0.0160805
752.325	0.0157994
752.404	0.0158530
752.482	0.0159634
752.560	0.0158255
752.638	0.0157568
752.716	0.0159615
752.794	0.0158012
752.872	0.0159234
752.950	0.0158508
753.029	0.0158626
753.107	0.0158803
753.185	0.0158293
753.263	0.0159336
753.341	0.0160788
753.419	0.0159949
753.497	0.0161467
753.575	0.0162199
753.654	0.0161618
753.732	0.0163597
753.810	0.0163539
753.888	0.0162598
753.966	0.0162677
754.044	0.0163205
754.122	0.0163808
754.200	0.0163885
754.279	0.0165168
754.357	0.0164213
754.435	0.0162793
754.513	0.0163571
754.591	0.0164098
754.669	0.0162746
754.747	0.0161797
754.825	0.0162504
754.904	0.0162042
754.982	0.0161651
755.060	0.0163102
755.138	0.0162395
755.216	0.0162261
755.294	0.0162266
755.372	0.0161343
755.450	0.0161826
755.529	0.0161298
755.607	0.0162299
755.685	0.0162688
755.763	0.0161073
755.841	0.0162017
755.919	0.0163178
755.997	0.0161546
756.075	0.0161585
756.154	0.0161874
756.232	0.0161769
756.310	0.0162729
756.388	0.0161710
756.466	0.0161031
756.544	0.0161676
756.622	0.0162551
756.700	0.0162548
756.779	0.0163025
756.857	0.0162794
756.935	0.0162183
757.013	0.0161717
757.091	0.0162687
757.169	0.0163959
757.247	0.0163541
757.325	0.0161573
757.404	0.0162168
757.482	0.0162760
757.560	0.0162574
757.638	0.0163443
757.716	0.0161874
757.794	0.0160878
757.872	0.0162617
757.950	0.0161782
758.029	0.0160965
758.107	0.0160198
758.185	0.0159621
758.263	0.0161449
758.341	0.0161579
758.419	0.0161982
758.497	0.0160370
758.575	0.0159323
758.654	0.0159619
758.732	0.0159222
758.810	0.0158849
758.888	0.0158932
758.966	0.0159261
759.044	0.0159776
759.122	0.0159624
759.200	0.0158588
759.279	0.0159500
759.357	0.0158898
759.435	0.0159587
759.513	0.0159965
759.591	0.0160366
759.669	0.0159950
759.747	0.0161599
759.825	0.0160815
759.904	0.0161649
759.982	0.0161581
760.060	0.0162728
760.138	0.0162417
760.216	0.0164804
760.294	0.0165149
760.372	0.0164387
760.450	0.0163524
760.529	0.0164574
760.607	0.0164468
760.685	0.0164270
760.763	0.0165197
760.841	0.0165061
760.919	0.0165040
760.997	0.0165591
761.075	0.0165885
761.154	0.0164953
761.232	0.0164001
761.310	0.0163535
761.388	0.0166262
761.466	0.0164568
761.544	0.0164787
761.622	0.0162611
761.700	0.0162073
761.779	0.0162507
761.857	0.0162109
761.935	0.0161696
762.013	0.0162098
762.091	0.0161126
762.169	0.0160332
762.247	0.0159742
762.325	0.0160171
762.404	0.0160214
762.482	0.0158809
762.560	0.0159583
762.638	0.0159585
762.716	0.0159148
762.794	0.0161296
762.872	0.0160571
762.950	0.0160647
763.029	0.0160444
763.107	0.0161353
763.185	0.0161393
763.263	0.0162212
763.341	0.0161350
763.419	0.0162212
763.497	0.0162747
763.575	0.0161939
763.654	0.0162826
763.732	0.0164346
763.810	0.0164455
763.888	0.0164915
763.966	0.0165009
764.044	0.0165706
764.122	0.0166045
764.200	0.0168006
764.279	0.0167146
764.357	0.0167120
764.435	0.0167245
764.513	0.0169588
764.591	0.0168093
764.669	0.0168344
764.747	0.0169144
764.825	0.0168018
764.904	0.0168903
764.982	0.0167558
765.060	0.0166696
765.138	0.0168057
765.216	0.0166929
765.294	0.0165842
765.372	0.0166012
765.450	0.0165509
765.529	0.0165614
765.607	0.0164812
765.685	0.0162651
765.763	0.0163011
765.841	0.0164017
765.919	0.0163815
765.997	0.0161713
766.075	0.0160217
766.154	0.0159158
766.232	0.0159534
766.310	0.0158900
766.388	0.0158865
766.466	0.0159891
766.544	0.0157899
766.622	0.0157965
766.700	0.0156483
766.779	0.0157693
766.857	0.0157249
766.935	0.0155630
767.013	0.0156126
767.091	0.0157545
767.169	0.0155548
767.247	0.0156529
767.325	0.0156839
767.404	0.0157559
767.482	0.0156055
767.560	0.0157998
767.638	0.0158361
767.716	0.0157694
767.794	0.0159867
767.872	0.0158962
767.950	0.0159886
768.029	0.0159322
768.107	0.0160901
768.185	0.0160657
768.263	0.0160258
768.341	0.0162074
768.419	0.0161073
768.497	0.0160739
768.575	0.0161903
768.654	0.0161897
768.732	0.0162632
768.810	0.0162096
768.888	0.0161805
768.966	0.0160594
769.044	0.0161505
769.122	0.0162450
769.200	0.0163442
769.279	0.0162006
769.357	0.0161293
769.435	0.0160390
769.513	0.0162122
769.591	0.0163308
769.669	0.0161347
769.747	0.0162679
769.825	0.0162366
769.904	0.0162031
769.982	0.0162060
770.060	0.0162733
770.138	0.0163578
770.216	0.0164407
770.294	0.0164005
770.372	0.0164671
770.450	0.0164106
770.529	0.0165102
770.607	0.0163226
770.685	0.0164116
770.763	0.0163346
770.841	0.0165119
770.919	0.0163826
770.997	0.0162431
771.075	0.0164480
771.154	0.0163229
771.232	0.0162862
771.310	0.0164034
771.388	0.0163640
771.466	0.0162405
771.544	0.0164073
771.622	0.0163142
771.700	0.0162787
771.779	0.0163881
771.857	0.0162763
771.935	0.0162077
772.013	0.0162530
772.091	0.0161420
772.169	0.0161940
772.247	0.0162622
772.325	0.0163491
772.404	0.0161449
772.482	0.0159474
772.560	0.0160986
772.638	0.0162207
772.716	0.0160021
772.794	0.0159999
772.872	0.0159592
772.950	0.0160410
773.029	0.0160543
773.107	0.0160496
773.185	0.0159333
773.263	0.0158947
773.341	0.0159250
773.419	0.0160217
773.497	0.0159293
773.575	0.0158394
773.654	0.0159060
773.732	0.0157998
773.810	0.0158335
773.888	0.0157574
773.966	0.0157671
774.044	0.0159124
774.122	0.0158131
774.200	0.0159127
774.279	0.0159383
774.357	0.0157426
774.435	0.0158768
774.513	0.0160088
774.591	0.0158356
774.669	0.0159869
774.747	0.0160709
774.825	0.0160880
774.904	0.0161093
774.982	0.0162151
775.060	0.0161183
775.138	0.0162032
775.216	0.0162034
775.294	0.0162270
775.372	0.0162265
775.450	0.0162422
775.529	0.0163050
775.607	0.0163654
775.685	0.0162575
775.763	0.0162706
775.841	0.0161849
775.919	0.0160922
775.997	0.0162488
776.075	0.0162081
776.154	0.0163531
776.232	0.0160774
776.310	0.0162144
776.388	0.0162099
776.466	0.0160996
776.544	0.0161974
776.622	0.0162029
776.700	0.0162691
776.779	0.0162767
776.857	0.0161483
776.935	0.0161409
777.013	0.0161793
777.091	0.0162717
777.169	0.0162410
777.247	0.0161354
777.325	0.0161360
777.404	0.0163086
777.482	0.0161663
777.560	0.0160454
777.638	0.0161698
777.716	0.0161362
777.794	0.0162132
777.872	0.0160542
777.950	0.0160719
778.029	0.0161401
778.107	0.0161644
778.185	0.0161342
778.263	0.0159452
778.341	0.0160066
778.419	0.0159396
778.497	0.0159613
778.575	0.0160305
778.654	0.0159970
778.732	0.0157824
778.810	0.0158877
778.888	0.0159803
778.966	0.0159938
779.044	0.0159382
779.122	0.0159879
779.200	0.0158781
779.279	0.0160570
779.357	0.0158488
779.435	0.0158147
779.513	0.0159251
779.591	0.0159586
779.669	0.0160284
779.747	0.0159482
779.825	0.0158804
779.904	0.0160511
779.982	0.0160724
780.060	0.0160545
780.138	0.0159490
780.216	0.0161227
780.294	0.0159857
780.372	0.0160197
780.450	0.0161386
780.529	0.0160619
780.607	0.0160564
780.685	0.0160067
780.763	0.0162096
780.841	0.0161504
780.919	0.0162054
780.997	0.0161224
781.075	0.0160976
781.154	0.0161636
781.232	0.0162033
781.310	0.0161017
781.388	0.0160914
781.466	0.0161772
781.544	0.0161127
781.622	0.0161826
781.700	0.0161325
781.779	0.0162356
781.857	0.0162061
781.935	0.0162410
782.013	0.0161673
782.091	0.0161462
782.169	0.0162162
782.247	0.0162436
782.325	0.0161848
782.404	0.0161430
782.482	0.0161445
782.560	0.0162184
782.638	0.0161526
782.716	0.0162265
782.794	0.0161876
782.872	0.0162154
782.950	0.0161724
783.029	0.0162592
783.107	0.0161612
783.185	0.0163064
783.263	0.0162949
783.341	0.0162221
783.419	0.0162424
783.497	0.0162769
783.575	0.0163000
783.654	0.0163985
783.732	0.0163046
783.810	0.0163099
783.888	0.0163923
783.966	0.0163993
784.044	0.0164185
784.122	0.0163009
784.200	0.0163176
784.279	0.0162242
784.357	0.0163320
784.435	0.0162688
784.513	0.0162474
784.591	0.0163823
784.669	0.0163059
784.747	0.0163490
784.825	0.0163850
784.904	0.0164410
784.982	0.0163522
785.060	0.0163577
785.138	0.0162989
785.216	0.0163660
785.294	0.0162548
785.372	0.0163207
785.450	0.0162804
785.529	0.0162774
785.607	0.0162281
785.685	0.0161044
785.763	0.0162683
785.841	0.0164117
785.919	0.0162148
785.997	0.0163077
786.075	0.0163011
786.154	0.0163821
786.232	0.0163297
786.310	0.0162809
786.388	0.0161864
786.466	0.0161266
786.544	0.0162045
786.622	0.0163149
786.700	0.0163493
786.779	0.0162162
786.857	0.0162973
786.935	0.0162572
787.013	0.0163379
787.091	0.0162662
787.169	0.0162867
787.247	0.0162997
787.325	0.0163637
787.404	0.0162304
787.482	0.0161707
787.560	0.0161204
787.638	0.0160597
787.716	0.0159976
787.794	0.0162780
787.872	0.0161005
787.950	0.0160228
788.029	0.0160471
788.107	0.0158649
788.185	0.0159726
788.263	0.0159761
788.341	0.0158371
788.419	0.0158290
788.497	0.0158568
788.575	0.0158622
788.654	0.0157965
788.732	0.0158199
788.810	0.0158595
788.888	0.0157602
788.966	0.0158199
789.044	0.0158371
789.122	0.0157962
789.200	0.0160275
789.279	0.0160360
789.357	0.0159943
789.435	0.0159915
789.513	0.0161292
789.591	0.0162644
789.669	0.0163543
789.747	0.0163110
789.825	0.0161414
789.904	0.0161816
789.982	0.0163214
790.060	0.0163093
790.138	0.0163438
790.216	0.0162576
790.294	0.0163202
790.372	0.0163487
790.450	0.0162469
790.529	0.0163530
790.607	0.0161476
790.685	0.0160337
790.763	0.0161329
790.841	0.0162542
790.919	0.0162019
790.997	0.0161775
791.075	0.0159332
791.154	0.0160106
791.232	0.0161790
791.310	0.0159109
791.388	0.0159350
791.466	0.0157771
791.544	0.0159030
791.622	0.0159507
791.700	0.0159727
791.779	0.0160619
791.857	0.0159035
791.935	0.0157646
792.013	0.0159395
792.091	0.0159481
792.169	0.0160622
792.247	0.0160940
792.325	0.0159162
792.404	0.0160590
792.482	0.0161047
792.560	0.0160220
792.638	0.0161492
792.716	0.0160797
792.794	0.0161301
792.872	0.0161807
792.950	0.0160623
793.029	0.0162614
793.107	0.0162019
793.185	0.0161816
793.263	0.0164320
793.341	0.0162505
793.419	0.0162777
793.497	0.0164384
793.575	0.0163618
793.654	0.0162507
793.732	0.0161975
793.810	0.0163273
793.888	0.0163047
793.966	0.0163806
794.044	0.0162405
794.122	0.0162947
794.200	0.0162848
794.279	0.0160977
794.357	0.0161684
794.435	0.0162885
794.513	0.0162446
794.591	0.0161479
794.669	0.0161686
794.747	0.0160309
794.825	0.0161655
794.904	0.0162383
794.982	0.0161844
795.060	0.0160382
795.138	0.0160692
795.216	0.0161315
795.294	0.0160546
795.372	0.0160390
795.450	0.0160976
795.529	0.0162458
795.607	0.0162400
795.685	0.0163168
795.763	0.0162006
795.841	0.0161703
795.919	0.0163068
795.997	0.0162869
796.075	0.0162583
796.154	0.0161415
796.232	0.0160619
796.310	0.0161911
796.388	0.0162431
796.466	0.0164352
796.544	0.0161021
796.622	0.0161311
796.700	0.0162419
796.779	0.0162603
796.857	0.0161808
796.935	0.0162962
797.013	0.0162804
797.091	0.0161670
797.169	0.0162557
797.247	0.0163299
797.325	0.0162702
797.404	0.0162288
797.482	0.0162283
797.560	0.0161819
797.638	0.0161582
797.716	0.0160326
797.794	0.0161220
797.872	0.0160538
797.950	0.0161349
798.029	0.0162723
798.107	0.0160429
798.185	0.0159927
798.263	0.0159810
798.341	0.0160408
798.419	0.0158854
798.497	0.0160062
798.575	0.0159210
798.654	0.0160058
798.732	0.0158024
798.810	0.0159269
798.888	0.0159931
798.966	0.0158186
799.044	0.0158459
799.122	0.0158316
799.200	0.0158160
799.279	0.0158735
799.357	0.0158634
799.435	0.0157223
799.513	0.0157968
799.591	0.0159924
799.669	0.0159988
799.747	0.0158480
799.825	0.0160225
799.904	0.0161185
799.982	0.0159702
800.060	0.0159113
800.138	0.0161633
800.216	0.0162155
800.294	0.0160898
800.372	0.0161781
800.450	0.0162499
800.529	0.0161535
800.607	0.0163655
800.685	0.0163659
800.763	0.0162428
800.841	0.0162273
800.919	0.0163047
800.997	0.0163850
801.075	0.0162985
801.154	0.0163491
801.232	0.0165099
801.310	0.0165083
801.388	0.0164118
801.466	0.0164230
801.544	0.0164491
801.622	0.0165372
801.700	0.0164078
801.779	0.0163985
801.857	0.0163428
801.935	0.0161621
802.013	0.0164107
802.091	0.0163258
802.169	0.0162482
802.247	0.0160989
802.325	0.0162405
802.404	0.0160623
802.482	0.0161738
802.560	0.0161157
802.638	0.0161212
802.716	0.0160278
802.794	0.0159415
802.872	0.0160065
802.950	0.0160732
803.029	0.0159763
803.107	0.0159049
803.185	0.0158409
803.263	0.0157017
803.341	0.0158434
803.419	0.0159484
803.497	0.0158229
803.575	0.0159013
803.654	0.0159744
803.732	0.0159686
803.810	0.0161019
803.888	0.0160641
803.966	0.0161879
804.044	0.0163242
804.122	0.0162440
804.200	0.0161666
804.279	0.0162857
804.357	0.0163867
804.435	0.0164436
804.513	0.0163073
804.591	0.0163916
804.669	0.0162581
804.747	0.0162537
804.825	0.0163807
804.904	0.0163248
804.982	0.0163916
805.060	0.0165186
805.138	0.0164077
805.216	0.0162314
805.294	0.0162704
805.372	0.0162378
805.450	0.0162323
805.529	0.0162718
805.607	0.0162550
805.685	0.0161936
805.763	0.0162274
805.841	0.0163660
805.919	0.0163498
805.997	0.0162695
806.075	0.0161941
806.154	0.0162289
806.232	0.0163271
806.310	0.0162578
806.388	0.0162791
806.466	0.0162183
806.544	0.0163171
806.622	0.0164816
806.700	0.0163637
806.779	0.0163541
806.857	0.0164081
806.935	0.0164366
807.013	0.0163924
807.091	0.0164322
807.169	0.0164250
807.247	0.0163601
807.325	0.0163646
807.404	0.0162728
807.482	0.0164280
807.560	0.0163187
807.638	0.0163881
807.716	0.0164727
807.794	0.0162850
807.872	0.0161550
807.950	0.0162211
808.029	0.0162902
808.107	0.0162041
808.185	0.0161691
808.263	0.0161250
808.341	0.0162061
808.419	0.0161600
808.497	0.0160242
808.575	0.0161262
808.654	0.0161752
808.732	0.0161174
808.810	0.0160248
808.888	0.0160410
808.966	0.0160697
809.044	0.0160990
809.122	0.0159747
809.200	0.0160862
809.279	0.0160326
809.357	0.0159798
809.435	0.0160187
809.513	0.0159721
809.591	0.0160139
809.669	0.0162252
809.747	0.0161217
809.825	0.0159879
809.904	0.0159894
809.982	0.0159257
810.060	0.0161234
810.138	0.0160699
810.216	0.0161776
810.294	0.0161073
810.372	0.0162220
810.450	0.0161604
810.529	0.0160693
810.607	0.0160988
810.685	0.0161263
810.763	0.0159937
810.841	0.0160519
810.919	0.0159885
810.997	0.0161079
811.075	0.0161725
811.154	0.0159135
811.232	0.0159534
811.310	0.0160369
811.388	0.0160104
811.466	0.0160663
811.544	0.0159976
811.622	0.0159045
811.700	0.0160335
811.779	0.0160276
811.857	0.0159434
811.935	0.0159882
812.013	0.0159887
812.091	0.0158336
812.169	0.0159797
812.247	0.0159677
812.325	0.0158745
812.404	0.0158907
812.482	0.0160203
812.560	0.0158520
812.638	0.0160123
812.716	0.0159236
812.794	0.0158692
812.872	0.0161411
812.950	0.0159064
813.029	0.0159745
813.107	0.0158750
813.185	0.0159310
813.263	0.0160420
813.341	0.0159645
813.419	0.0160191
813.497	0.0159560
813.575	0.0159122
813.654	0.0158421
813.732	0.0161530
813.810	0.0161474
813.888	0.0160067
813.966	0.0160799
814.044	0.0160699
814.122	0.0161564
814.200	0.0163171
814.279	0.0161662
814.357	0.0160697
814.435	0.0160947
814.513	0.0161522
814.591	0.0161633
814.669	0.0160913
814.747	0.0160453
814.825	0.0161668
814.904	0.0160153
814.982	0.0160929
815.060	0.0159904
815.138	0.0159798
815.216	0.0158650
815.294	0.0159542
815.372	0.0160268
815.450	0.0160372
815.529	0.0160689
815.607	0.0159724
815.685	0.0160358
815.763	0.0160876
815.841	0.0160588
815.919	0.0159775
815.997	0.0161025
816.075	0.0160441
816.154	0.0161337
816.232	0.0160254
816.310	0.0159377
816.388	0.0162894
816.466	0.0161576
816.544	0.0161945
816.622	0.0162208
816.700	0.0160992
816.779	0.0161021
816.857	0.0161937
816.935	0.0162300
817.013	0.0160446
817.091	0.0163421
817.169	0.0162787
817.247	0.0161657
817.325	0.0161726
817.404	0.0163510
817.482	0.0160897
817.560	0.0160504
817.638	0.0159462
817.716	0.0161403
817.794	0.0162057
817.872	0.0161490
817.950	0.0161828
818.029	0.0162070
818.107	0.0162813
818.185	0.0162758
818.263	0.0163870
818.341	0.0164111
818.419	0.0162573
818.497	0.0162541
818.575	0.0162020
818.654	0.0163619
818.732	0.0162273
818.810	0.0164977
818.888	0.0164311
818.966	0.0164778
819.044	0.0164005
819.122	0.0164076
819.200	0.0164671
819.279	0.0164651
819.357	0.0164868
819.435	0.0164130
819.513	0.0163080
819.591	0.0163863
819.669	0.0164330
819.747	0.0164205
819.825	0.0163316
819.904	0.0163166
819.982	0.0164265
820.060	0.0163095
820.138	0.0163326
820.216	0.0164136
820.294	0.0162967
820.372	0.0163495
820.450	0.0162791
820.529	0.0162115
820.607	0.0162583
820.685	0.0163918
820.763	0.0163246
820.841	0.0161124
820.919	0.0162129
820.997	0.0162469
821.075	0.0162154
821.154	0.0162921
821.232	0.0163415
821.310	0.0162738
821.388	0.0161468
821.466	0.0162039
821.544	0.0163060
821.622	0.0161299
821.700	0.0162545
821.779	0.0161216
821.857	0.0162793
821.935	0.0161930
822.013	0.0164430
822.091	0.0162134
822.169	0.0162386
822.247	0.0162122
822.325	0.0162842
822.404	0.0162251
822.482	0.0162752
822.560	0.0162632
822.638	0.0162162
822.716	0.0163020
822.794	0.0163085
822.872	0.0162888
822.950	0.0162490
823.029	0.0162718
823.107	0.0162347
823.185	0.0161533
823.263	0.0161459
823.341	0.0162127
823.419	0.0163106
823.497	0.0161274
823.575	0.0160944
823.654	0.0161378
823.732	0.0162373
823.810	0.0161759
823.888	0.0162953
823.966	0.0161038
824.044	0.0160654
824.122	0.0161121
824.200	0.0161073
824.279	0.0162389
824.357	0.0162796
824.435	0.0160815
824.513	0.0160503
824.591	0.0160248
824.669	0.0161454
824.747	0.0161163
824.825	0.0161507
824.904	0.0161214
824.982	0.0160757
825.060	0.0161182
825.138	0.0160515
825.216	0.0160095
825.294	0.0162728
825.372	0.0161279
825.450	0.0161170
825.529	0.0161710
825.607	0.0162198
825.685	0.0160960
825.763	0.0161439
825.841	0.0161567
825.919	0.0161597
825.997	0.0162897
826.075	0.0163086
826.154	0.0161671
826.232	0.0162450
826.310	0.0162574
826.388	0.0160440
826.466	0.0160981
826.544	0.0160879
826.622	0.0159004
826.700	0.0160326
826.779	0.0159087
826.857	0.0159870
826.935	0.0160214
827.013	0.0159927
827.091	0.0158953
827.169	0.0160514
827.247	0.0159267
827.325	0.0160365
827.404	0.0157522
827.482	0.0161346
827.560	0.0162222
827.638	0.0161629
827.716	0.0160981
827.794	0.0162237
827.872	0.0160967
827.950	0.0161718
828.029	0.0162706
828.107	0.0162556
828.185	0.0163364
828.263	0.0162024
828.341	0.0161517
828.419	0.0162695
828.497	0.0162624
828.575	0.0162006
828.654	0.0163091
828.732	0.0161965
828.810	0.0162021
828.888	0.0162570
828.966	0.0162251
829.044	0.0161638
829.122	0.0162347
829.200	0.0162119
829.279	0.0161391
829.357	0.0160981
829.435	0.0161793
829.513	0.0161217
829.591	0.0160760
829.669	0.0160236
829.747	0.0159821
829.825	0.0160985
829.904	0.0160059
829.982	0.0160593
830.060	0.0161167
830.138	0.0159999
830.216	0.0159302
830.294	0.0158871
830.372	0.0160384
830.450	0.0161618
830.529	0.0161391
830.607	0.0160435
830.685	0.0160707
830.763	0.0160661
830.841	0.0160994
830.919	0.0162527
830.997	0.0162006
831.075	0.0161205
831.154	0.0163451
831.232	0.0161581
831.310	0.0162222
831.388	0.0161864
831.466	0.0162019
831.544	0.0162720
831.622	0.0162264
831.700	0.0161352
831.779	0.0161494
831.857	0.0161625
831.935	0.0160520
832.013	0.0161208
832.091	0.0160708
832.169	0.0159324
832.247	0.0159312
832.325	0.0159013
832.404	0.0160183
832.482	0.0160310
832.560	0.0159528
832.638	0.0158777
832.716	0.0158430
832.794	0.0158961
832.872	0.0159985
832.950	0.0159336
833.029	0.0159431
833.107	0.0158247
833.185	0.0158608
833.263	0.0160730
833.341	0.0159809
833.419	0.0160712
833.497	0.0161287
833.575	0.0161172
833.654	0.0160387
833.732	0.0160725
833.810	0.0160800
833.888	0.0162180
833.966	0.0160358
834.044	0.0162217
834.122	0.0162410
834.200	0.0164043
834.279	0.0163841
834.357	0.0163468
834.435	0.0163020
834.513	0.0163000
834.591	0.0165134
834.669	0.0163981
834.747	0.0163789
834.825	0.0163686
834.904	0.0163868
834.982	0.0163920
835.060	0.0162608
835.138	0.0163766
835.216	0.0163789
835.294	0.0161884
835.372	0.0161454
835.450	0.0161881
835.529	0.0160527
835.607	0.0160424
835.685	0.0158555
835.763	0.0159013
835.841	0.0157671
835.919	0.0158691
835.997	0.0159189
836.075	0.0158387
836.154	0.0158021
836.232	0.0157915
836.310	0.0158619
836.388	0.0158224
836.466	0.0158693
836.544	0.0157607
836.622	0.0158899
836.700	0.0159097
836.779	0.0159439
836.857	0.0159702
836.935	0.0160641
837.013	0.0161625
837.091	0.0161144
837.169	0.0160658
837.247	0.0161176
837.325	0.0159792
837.404	0.0161205
837.482	0.0161375
837.560	0.0162872
837.638	0.0162386
837.716	0.0160188
837.794	0.0161242
837.872	0.0162646
837.950	0.0162718
838.029	0.0162338
838.107	0.0162154
838.185	0.0162281
838.263	0.0162183
838.341	0.0161179
838.419	0.0162093
838.497	0.0160642
838.575	0.0160705
838.654	0.0159259
838.732	0.0159911
838.810	0.0160484
838.888	0.0159000
838.966	0.0160072
839.044	0.0160443
839.122	0.0159270
839.200	0.0162200
839.279	0.0161930
839.357	0.0161540
839.435	0.0159141
839.513	0.0160695
839.591	0.0161884
839.669	0.0162220
839.747	0.0161864
839.825	0.0161213
839.904	0.0162581
839.982	0.0162182
840.060	0.0160792
840.138	0.0161559
840.216	0.0162517
840.294	0.0163000
840.372	0.0162914
840.450	0.0162439
840.529	0.0161689
840.607	0.0161514
840.685	0.0162348
840.763	0.0161749
840.841	0.0162610
840.919	0.0162073
840.997	0.0162273
841.075	0.0161477
841.154	0.0162195
841.232	0.0160803
841.310	0.0161845
841.388	0.0161124
841.466	0.0160574
841.544	0.0160763
841.622	0.0161622
841.700	0.0161401
841.779	0.0160199
841.857	0.0161417
841.935	0.0161710
842.013	0.0162508
842.091	0.0162462
842.169	0.0162189
842.247	0.0162057
842.325	0.0163123
842.404	0.0162469
842.482	0.0162383
842.560	0.0162383
842.638	0.0161577
842.716	0.0160739
842.794	0.0162778
842.872	0.0162611
842.950	0.0162572
843.029	0.0162433
843.107	0.0162260
843.185	0.0161781
843.263	0.0162591
843.341	0.0162629
843.419	0.0162671
843.497	0.0163797
843.575	0.0161559
843.654	0.0162064
843.732	0.0164301
843.810	0.0163467
843.888	0.0162691
843.966	0.0162260
844.044	0.0162422
844.122	0.0163301
844.200	0.0163731
844.279	0.0164135
844.357	0.0164644
844.435	0.0162856
844.513	0.0162685
844.591	0.0162948
844.669	0.0163351
844.747	0.0163844
844.825	0.0163660
844.904	0.0163498
844.982	0.0164196
845.060	0.0165018
845.138	0.0164003
845.216	0.0164699
845.294	0.0162651
845.372	0.0164272
845.450	0.0164680
845.529	0.0164485
845.607	0.0164565
845.685	0.0163094
845.763	0.0163144
845.841	0.0163889
845.919	0.0164392
845.997	0.0163880
846.075	0.0164415
846.154	0.0164155
846.232	0.0163542
846.310	0.0164024
846.388	0.0165148
846.466	0.0164185
846.544	0.0164765
846.622	0.0163506
846.700	0.0164678
846.779	0.0162739
846.857	0.0164159
846.935	0.0162949
847.013	0.0161327
847.091	0.0162682
847.169	0.0161102
847.247	0.0160889
847.325	0.0158880
847.404	0.0157957
847.482	0.0159007
847.560	0.0158080
847.638	0.0159404
847.716	0.0157252
847.794	0.0158954
847.872	0.0158587
847.950	0.0157959
848.029	0.0158065
848.107	0.0160116
848.185	0.0159944
848.263	0.0159563
848.341	0.0159381
848.419	0.0161224
848.497	0.0160474
848.575	0.0160793
848.654	0.0162062
848.732	0.0161838
848.810	0.0163566
848.888	0.0162051
848.966	0.0161753
849.044	0.0162801
849.122	0.0164153
849.200	0.0163852
849.279	0.0164339
849.357	0.0164975
849.435	0.0162432
849.513	0.0161768
849.591	0.0162392
849.669	0.0163563
849.747	0.0162601
849.825	0.0162238
849.904	0.0161645
849.982	0.0161707
850.060	0.0161215
850.138	0.0159992
850.216	0.0160789
850.294	0.0161022
850.372	0.0159948
850.450	0.0160390
850.529	0.0160611
850.607	0.0161761
850.685	0.0160317
850.763	0.0162025
850.841	0.0161071
850.919	0.0160509
850.997	0.0161722
851.075	0.0162231
851.154	0.0162347
851.232	0.0162157
851.310	0.0161869
851.388	0.0162486
851.466	0.0163251
851.544	0.0162872
851.622	0.0163776
851.700	0.0163744
851.779	0.0163354
851.857	0.0162568
851.935	0.0163673
852.013	0.0164619
852.091	0.0163099
852.169	0.0164092
852.247	0.0162753
852.325	0.0163908
852.404	0.0164420
852.482	0.0164324
852.560	0.0162890
852.638	0.0163931
852.716	0.0162405
852.794	0.0162225
852.872	0.0162021
852.950	0.0160569
853.029	0.0160173
853.107	0.0160397
853.185	0.0160663
853.263	0.0161476
853.341	0.0160405
853.419	0.0160205
853.497	0.0159786
853.575	0.0159232
853.654	0.0159728
853.732	0.0161079
853.810	0.0160269
853.888	0.0160033
853.966	0.0159348
854.044	0.0160391
854.122	0.0160488
854.200	0.0159823
854.279	0.0160372
854.357	0.0160886
854.435	0.0160692
854.513	0.0160840
854.591	0.0161171
854.669	0.0161051
854.747	0.0160672
854.825	0.0161761
854.904	0.0161460
854.982	0.0161292
855.060	0.0163068
855.138	0.0162796
855.216	0.0162128
855.294	0.0162954
855.372	0.0163541
855.450	0.0162798
855.529	0.0164135
855.607	0.0162991
855.685	0.0162212
855.763	0.0163876
855.841	0.0164799
855.919	0.0163370
855.997	0.0164082
856.075	0.0165049
856.154	0.0164683
856.232	0.0162476
856.310	0.0161629
856.388	0.0162122
856.466	0.0161830
856.544	0.0161797
856.622	0.0161621
856.700	0.0161801
856.779	0.0160548
856.857	0.0159505
856.935	0.0159899
857.013	0.0160746
857.091	0.0159628
857.169	0.0159644
857.247	0.0160066
857.325	0.0159688
857.404	0.0159049
857.482	0.0159850
857.560	0.0158810
857.638	0.0158210
857.716	0.0158727
857.794	0.0158559
857.872	0.0158405
857.950	0.0159206
858.029	0.0159027
858.107	0.0158521
858.185	0.0159373
858.263	0.0160164
858.341	0.0161365
858.419	0.0159715
858.497	0.0159725
858.575	0.0159440
858.654	0.0161080
858.732	0.0161318
858.810	0.0163562
858.888	0.0162375
858.966	0.0162067
859.044	0.0162708
859.122	0.0162132
859.200	0.0163445
859.279	0.0163985
859.357	0.0163560
859.435	0.0163316
859.513	0.0162304
859.591	0.0162035
859.669	0.0162267
859.747	0.0162788
859.825	0.0163062
859.904	0.0162823
859.982	0.0162167
860.060	0.0163142
860.138	0.0163156
860.216	0.0162745
860.294	0.0161946
860.372	0.0162574
860.450	0.0161685
860.529	0.0161532
860.607	0.0161805
860.685	0.0160919
860.763	0.0161398
860.841	0.0160951
860.919	0.0160325
860.997	0.0161107
861.075	0.0161439
861.154	0.0161636
861.232	0.0161461
861.310	0.0159840
861.388	0.0159720
861.466	0.0160715
861.544	0.0162060
861.622	0.0159842
861.700	0.0158949
861.779	0.0159512
861.857	0.0160474
861.935	0.0160207
862.013	0.0160904
862.091	0.0160207
862.169	0.0161220
862.247	0.0161963
862.325	0.0161180
862.404	0.0161661
862.482	0.0160993
862.560	0.0162204
862.638	0.0163100
862.716	0.0164515
862.794	0.0163958
862.872	0.0165370
862.950	0.0163684
863.029	0.0164771
863.107	0.0164456
863.185	0.0165305
863.263	0.0163841
863.341	0.0164496
863.419	0.0163565
863.497	0.0163578
863.575	0.0165002
863.654	0.0162336
863.732	0.0162804
863.810	0.0162904
863.888	0.0161349
863.966	0.0162033
864.044	0.0163171
864.122	0.0161275
864.200	0.0161300
864.279	0.0160102
864.357	0.0161636
864.435	0.0162606
864.513	0.0161723
864.591	0.0159763
864.669	0.0161449
864.747	0.0160232
864.825	0.0161314
864.904	0.0161306
864.982	0.0160674
865.060	0.0159766
865.138	0.0160721
865.216	0.0160780
865.294	0.0160656
865.372	0.0161371
865.450	0.0161718
865.529	0.0161443
865.607	0.0161355
865.685	0.0160474
865.763	0.0161549
865.841	0.0161517
865.919	0.0161507
865.997	0.0162350
866.075	0.0162999
866.154	0.0161601
866.232	0.0161217
866.310	0.0161311
866.388	0.0161101
866.466	0.0162103
866.544	0.0163601
866.622	0.0162682
866.700	0.0161957
866.779	0.0162450
866.857	0.0163310
866.935	0.0161205
867.013	0.0161848
867.091	0.0161676
867.169	0.0162347
867.247	0.0162599
867.325	0.0161225
867.404	0.0160597
867.482	0.0161222
867.560	0.0162892
867.638	0.0161737
867.716	0.0161595
867.794	0.0162500
867.872	0.0161281
867.950	0.0163448
868.029	0.0163207
868.107	0.0162221
868.185	0.0162749
868.263	0.0162783
868.341	0.0162951
868.419	0.0163622
868.497	0.0164217
868.575	0.0164891
868.654	0.0163579
868.732	0.0163016
868.810	0.0164008
868.888	0.0164476
868.966	0.0162936
869.044	0.0163574
869.122	0.0163647
869.200	0.0164478
869.279	0.0163516
869.357	0.0163863
869.435	0.0164069
869.513	0.0163107
869.591	0.0162715
869.669	0.0162917
869.747	0.0162794
869.825	0.0163271
869.904	0.0162044
869.982	0.0161484
870.060	0.0163744
870.138	0.0164401
870.216	0.0163665
870.294	0.0163316
870.372	0.0162759
870.450	0.0162360
870.529	0.0163579
870.607	0.0162489
870.685	0.0162762
870.763	0.0162407
870.841	0.0162263
870.919	0.0163277
870.997	0.0163481
871.075	0.0162112
871.154	0.0162061
871.232	0.0161996
871.310	0.0160256
871.388	0.0160211
871.466	0.0160862
871.544	0.0159568
871.622	0.0159707
871.700	0.0160956
871.779	0.0160223
871.857	0.0159998
871.935	0.0160078
872.013	0.0158444
872.091	0.0160209
872.169	0.0158633
872.247	0.0158147
872.325	0.0159590
872.404	0.0160886
872.482	0.0159756
872.560	0.0159196
872.638	0.0159729
872.716	0.0160127
872.794	0.0160440
872.872	0.0159531
872.950	0.0160051
873.029	0.0159959
873.107	0.0160612
873.185	0.0160104
873.263	0.0160101
873.341	0.0161540
873.419	0.0162559
873.497	0.0161920
873.575	0.0161852
873.654	0.0161928
873.732	0.0161563
873.810	0.0161137
873.888	0.0160036
873.966	0.0161914
874.044	0.0161726
874.122	0.0160735
874.200	0.0158710
874.279	0.0159890
874.357	0.0161147
874.435	0.0159824
874.513	0.0159485
874.591	0.0159210
874.669	0.0159093
874.747	0.0160599
874.825	0.0161041
874.904	0.0159611
874.982	0.0161093
875.060	0.0160753
875.138	0.0162405
875.216	0.0161353
875.294	0.0162029
875.372	0.0162341
875.450	0.0161664
875.529	0.0161640
875.607	0.0162741
875.685	0.0162533
875.763	0.0161924
875.841	0.0162115
875.919	0.0162958
875.997	0.0163065
876.075	0.0162349
876.154	0.0162995
876.232	0.0161090
876.310	0.0162219
876.388	0.0163414
876.466	0.0162667
876.544	0.0161201
876.622	0.0163202
876.700	0.0161671
876.779	0.0161569
876.857	0.0160363
876.935	0.0161709
877.013	0.0159762
877.091	0.0159466
877.169	0.0161443
877.247	0.0160921
877.325	0.0160221
877.404	0.0160654
877.482	0.0160600
877.560	0.0160381
877.638	0.0160275
877.716	0.0160700
877.794	0.0160156
877.872	0.0160413
877.950	0.0158478
878.029	0.0159655
878.107	0.0160181
878.185	0.0161029
878.263	0.0160207
878.341	0.0161617
878.419	0.0159669
878.497	0.0160680
878.575	0.0161949
878.654	0.0162531
878.732	0.0161568
878.810	0.0161537
878.888	0.0161743
878.966	0.0163383
879.044	0.0161706
879.122	0.0161681
879.200	0.0160584
879.279	0.0161996
879.357	0.0160754
879.435	0.0162112
879.513	0.0160948
879.591	0.0159986
879.669	0.0160233
879.747	0.0160777
879.825	0.0160370
879.904	0.0159838
879.982	0.0159615
880.060	0.0160950
880.138	0.0161127
880.216	0.0159968
880.294	0.0161855
880.372	0.0161089
880.450	0.0161217
880.529	0.0162507
880.607	0.0162592
880.685	0.0162730
880.763	0.0161749
880.841	0.0162354
880.919	0.0162334
880.997	0.0162708
881.075	0.0163205
881.154	0.0163594
881.232	0.0163245
881.310	0.0162299
881.388	0.0162818
881.466	0.0161682
881.544	0.0162642
881.622	0.0162102
881.700	0.0163129
881.779	0.0163108
881.857	0.0161857
881.935	0.0162082
882.013	0.0161151
882.091	0.0162032
882.169	0.0160442
882.247	0.0161498
882.325	0.0160651
882.404	0.0159829
882.482	0.0160431
882.560	0.0161353
882.638	0.0160465
882.716	0.0158961
882.794	0.0157777
882.872	0.0160159
882.950	0.0160593
883.029	0.0159546
883.107	0.0157987
883.185	0.0158681
883.263	0.0157814
883.341	0.0159138
883.419	0.0158062
883.497	0.0158620
883.575	0.0158935
883.654	0.0159587
883.732	0.0158137
883.810	0.0159943
883.888	0.0160537
883.966	0.0160474
884.044	0.0160619
884.122	0.0158850
884.200	0.0159511
884.279	0.0160068
884.357	0.0160875
884.435	0.0160783
884.513	0.0161713
884.591	0.0162395
884.669	0.0161331
884.747	0.0161195
884.825	0.0162318
884.904	0.0162053
884.982	0.0162554
885.060	0.0161485
885.138	0.0161777
885.216	0.0161387
885.294	0.0161495
885.372	0.0160706
885.450	0.0160645
885.529	0.0160350
885.607	0.0159151
885.685	0.0161673
885.763	0.0160320
885.841	0.0158758
885.919	0.0157787
885.997	0.0159060
886.075	0.0158855
886.154	0.0160551
886.232	0.0157583
886.310	0.0157151
886.388	0.0159264
886.466	0.0157863
886.544	0.0157176
886.622	0.0156753
886.700	0.0158336
886.779	0.0158320
886.857	0.0157041
886.935	0.0158556
887.013	0.0159254
887.091	0.0159227
887.169	0.0159503
887.247	0.0158332
887.325	0.0158047
887.404	0.0158721
887.482	0.0160710
887.560	0.0160414
887.638	0.0159978
887.716	0.0159399
887.794	0.0158721
887.872	0.0158514
887.950	0.0160767
888.029	0.0160352
888.107	0.0159653
888.185	0.0158808
888.263	0.0160181
888.341	0.0160342
888.419	0.0160107
888.497	0.0158688
888.575	0.0160204
888.654	0.0160753
888.732	0.0158751
888.810	0.0158453
888.888	0.0160642
888.966	0.0160662
889.044	0.0161922
889.122	0.0160380
889.200	0.0160329
889.279	0.0158547
889.357	0.0161116
889.435	0.0161060
889.513	0.0160631
889.591	0.0159766
889.669	0.0159029
889.747	0.0159822
889.825	0.0160172
889.904	0.0159933
889.982	0.0160840
890.060	0.0159589
890.138	0.0160165
890.216	0.0161185
890.294	0.0160369
890.372	0.0162012
890.450	0.0161375
890.529	0.0160739
890.607	0.0160863
890.685	0.0160847
890.763	0.0162722
890.841	0.0161980
890.919	0.0162347
890.997	0.0162412
891.075	0.0161450
891.154	0.0160251
891.232	0.0162428
891.310	0.0161587
891.388	0.0161762
891.466	0.0161250
891.544	0.0160375
891.622	0.0160794
891.700	0.0161391
891.779	0.0160342
891.857	0.0160968
891.935	0.0161239
892.013	0.0161833
892.091	0.0161599
892.169	0.0162895
892.247	0.0162393
892.325	0.0162877
892.404	0.0163051
892.482	0.0162720
892.560	0.0162698
892.638	0.0161179
892.716	0.0161758
892.794	0.0164240
892.872	0.0163036
892.950	0.0163534
893.029	0.0163657
893.107	0.0161864
893.185	0.0162168
893.263	0.0161971
893.341	0.0161166
893.419	0.0162436
893.497	0.0160638
893.575	0.0161173
893.654	0.0160444
893.732	0.0160918
893.810	0.0160067
893.888	0.0160600
893.966	0.0159135
894.044	0.0159782
894.122	0.0159328
894.200	0.0158263
894.279	0.0158824
894.357	0.0158221
894.435	0.0159885
894.513	0.0158381
894.591	0.0157787
894.669	0.0158259
894.747	0.0158782
894.825	0.0159660
894.904	0.0158469
894.982	0.0157635
895.060	0.0157996
895.138	0.0158438
895.216	0.0159898
895.294	0.0158033
895.372	0.0158191
895.450	0.0159725
895.529	0.0159592
895.607	0.0159699
895.685	0.0160866
895.763	0.0158837
895.841	0.0159386
895.919	0.0159959
895.997	0.0161318
896.075	0.0160986
896.154	0.0160738
896.232	0.0161839
896.310	0.0161369
896.388	0.0161105
896.466	0.0162013
896.544	0.0161375
896.622	0.0160609
896.700	0.0161433
896.779	0.0160905
896.857	0.0161234
896.935	0.0161005
897.013	0.0161525
897.091	0.0161503
897.169	0.0161273
897.247	0.0161210
897.325	0.0160892
897.404	0.0161369
897.482	0.0160603
897.560	0.0161546
897.638	0.0163957
897.716	0.0162203
897.794	0.0161233
897.872	0.0162254
897.950	0.0162332
898.029	0.0163027
898.107	0.0163450
898.185	0.0163841
898.263	0.0163089
898.341	0.0163223
898.419	0.0164638
898.497	0.0163316
898.575	0.0163628
898.654	0.0162904
898.732	0.0164527
898.810	0.0162943
898.888	0.0163038
898.966	0.0163375
899.044	0.0163297
899.122	0.0162491
899.200	0.0164259
899.279	0.0162437
899.357	0.0164271
899.435	0.0162008
899.513	0.0162637
899.591	0.0162496
899.669	0.0161405
899.747	0.0161915
899.825	0.0161703
899.904	0.0161111
899.982	0.0160698
900.060	0.0160387
900.138	0.0160149
900.216	0.0159201
900.294	0.0160256
900.372	0.0159937
900.450	0.0159367
900.529	0.0159745
900.607	0.0158680
900.685	0.0160172
900.763	0.0160301
900.841	0.0160250
900.919	0.0161604
900.997	0.0161717
901.075	0.0162875
901.154	0.0161618
901.232	0.0162500
901.310	0.0162029
901.388	0.0160970
901.466	0.0161405
901.544	0.0162505
901.622	0.0163378
901.700	0.0163591
901.779	0.0162717
901.857	0.0162844
901.935	0.0163716
902.013	0.0163040
902.091	0.0161917
902.169	0.0161120
902.247	0.0161753
902.325	0.0161626
902.404	0.0161076
902.482	0.0160800
902.560	0.0160854
902.638	0.0161185
902.716	0.0160197
902.794	0.0160248
902.872	0.0160349
902.950	0.0160869
903.029	0.0160926
903.107	0.0159943
903.185	0.0159976
903.263	0.0161825
903.341	0.0160967
903.419	0.0162282
903.497	0.0162299
903.575	0.0162585
903.654	0.0162595
903.732	0.0164373
903.810	0.0164063
903.888	0.0163454
903.966	0.0163489
904.044	0.0163327
904.122	0.0163744
904.200	0.0164934
904.279	0.0165047
904.357	0.0164845
904.435	0.0163398
904.513	0.0164610
904.591	0.0165382
904.669	0.0165390
904.747	0.0165163
904.825	0.0163477
904.904	0.0161617
904.982	0.0162171
905.060	0.0162815
905.138	0.0162287
905.216	0.0161189
905.294	0.0161296
905.372	0.0160451
905.450	0.0160986
905.529	0.0160081
905.607	0.0159842
905.685	0.0158855
905.763	0.0158736
905.841	0.0158597
905.919	0.0159562
905.997	0.0159126
906.075	0.0158014
906.154	0.0158759
906.232	0.0158925
906.310	0.0158126
906.388	0.0157693
906.466	0.0159725
906.544	0.0159961
906.622	0.0160749
906.700	0.0161137
906.779	0.0159949
906.857	0.0161337
906.935	0.0161164
907.013	0.0161245
907.091	0.0161797
907.169	0.0161933
907.247	0.0161774
907.325	0.0161702
907.404	0.0164348
907.482	0.0162885
907.560	0.0163359
907.638	0.0163660
907.716	0.0162273
907.794	0.0164534
907.872	0.0163280
907.950	0.0163350
908.029	0.0163379
908.107	0.0162549
908.185	0.0164032
908.263	0.0163804
908.341	0.0163221
908.419	0.0163918
908.497	0.0161711
908.575	0.0161986
908.654	0.0162026
908.732	0.0163092
908.810	0.0162222
908.888	0.0161221
908.966	0.0161396
909.044	0.0161035
909.122	0.0161658
909.200	0.0161545
909.279	0.0160713
909.357	0.0161636
909.435	0.0160228
909.513	0.0160447
909.591	0.0160217
909.669	0.0159598
909.747	0.0159560
909.825	0.0159591
909.904	0.0159834
909.982	0.0160011
910.060	0.0158961
910.138	0.0159647
910.216	0.0159418
910.294	0.0160310
910.372	0.0159920
910.450	0.0160072
910.529	0.0161274
910.607	0.0160097
910.685	0.0159994
910.763	0.0160726
910.841	0.0161250
910.919	0.0159547
910.997	0.0159621
911.075	0.0162039
911.154	0.0160838
911.232	0.0161322
911.310	0.0160836
911.388	0.0161735
911.466	0.0160402
911.544	0.0162556
911.622	0.0161554
911.700	0.0160516
911.779	0.0161534
911.857	0.0162522
911.935	0.0162532
912.013	0.0162274
912.091	0.0162540
912.169	0.0162815
912.247	0.0162622
912.325	0.0162436
912.404	0.0163380
912.482	0.0162014
912.560	0.0163078
912.638	0.0161013
912.716	0.0161918
912.794	0.0160579
912.872	0.0160724
912.950	0.0161134
913.029	0.0160904
913.107	0.0159488
913.185	0.0160197
913.263	0.0159945
913.341	0.0160120
913.419	0.0160642
913.497	0.0159637
913.575	0.0161584
913.654	0.0161342
913.732	0.0161991
913.810	0.0160764
913.888	0.0161996
913.966	0.0160129
914.044	0.0161762
914.122	0.0160692
914.200	0.0161801
914.279	0.0161510
914.357	0.0160650
914.435	0.0161655
914.513	0.0161868
914.591	0.0160773
914.669	0.0161860
914.747	0.0163586
914.825	0.0160820
914.904	0.0160636
914.982	0.0161289
915.060	0.0161971
915.138	0.0160509
915.216	0.0161343
915.294	0.0160651
915.372	0.0160859
915.450	0.0160313
915.529	0.0159844
915.607	0.0161767
915.685	0.0160187
915.763	0.0160188
915.841	0.0159885
915.919	0.0161179
915.997	0.0161036
916.075	0.0160904
916.154	0.0160044
916.232	0.0159841
916.310	0.0160776
916.388	0.0161170
916.466	0.0160126
916.544	0.0161121
916.622	0.0160020
916.700	0.0159970
916.779	0.0160281
916.857	0.0160275
916.935	0.0161411
917.013	0.0160072
917.091	0.0160449
917.169	0.0159946
917.247	0.0160076
917.325	0.0161619
917.404	0.0161298
917.482	0.0160069
917.560	0.0162064
917.638	0.0161884
917.716	0.0162495
917.794	0.0162691
917.872	0.0161683
917.950	0.0161973
918.029	0.0161486
918.107	0.0163465
918.185	0.0164393
918.263	0.0163707
918.341	0.0164352
918.419	0.0165491
918.497	0.0162876
918.575	0.0164001
918.654	0.0164192
918.732	0.0163116
918.810	0.0164021
918.888	0.0163855
918.966	0.0163932
919.044	0.0164212
919.122	0.0162714
919.200	0.0164869
919.279	0.0164427
919.357	0.0163270
919.435	0.0164282
919.513	0.0164167
919.591	0.0163947
919.669	0.0163324
919.747	0.0162962
919.825	0.0163789
919.904	0.0162657
