05/27/2022	02:06:29	Ver.	4.1	UNKNOWN
Optical Delay	449.991307	Delta X		0.078125	Sweeps	1	Scan Rate	0/0
Coordinates	Axis 1	NaN	Axis 2	NaN	Axis 3	NaN	Axis 4	NaN	Axis 5	NaN	Axis 6	0.000000
TX Power	0.000000	RX Power	0.000000

449.991	0.0155426
450.069	0.0155975
450.148	0.0153847
450.226	0.0154823
450.304	0.0154976
450.382	0.0156113
450.460	0.0155621
450.538	0.0154560
450.616	0.0155979
450.694	0.0154968
450.773	0.0158619
450.851	0.0151844
450.929	0.0156403
451.007	0.0154533
451.085	0.0153645
451.163	0.0156235
451.241	0.0155785
451.319	0.0154537
451.398	0.0156223
451.476	0.0151707
451.554	0.0152477
451.632	0.0152279
451.710	0.0154133
451.788	0.0156883
451.866	0.0153938
451.944	0.0152210
452.023	0.0153252
452.101	0.0154758
452.179	0.0154884
452.257	0.0153915
452.335	0.0152618
452.413	0.0157387
452.491	0.0155750
452.569	0.0154015
452.648	0.0153027
452.726	0.0156044
452.804	0.0156086
452.882	0.0154663
452.960	0.0153606
453.038	0.0152283
453.116	0.0156887
453.194	0.0156471
453.273	0.0153175
453.351	0.0156212
453.429	0.0156532
453.507	0.0152813
453.585	0.0153999
453.663	0.0155529
453.741	0.0151985
453.819	0.0155773
453.898	0.0158260
453.976	0.0153069
454.054	0.0156418
454.132	0.0156136
454.210	0.0155445
454.288	0.0155464
454.366	0.0153965
454.444	0.0156471
454.523	0.0154816
454.601	0.0151184
454.679	0.0154633
454.757	0.0158806
454.835	0.0155281
454.913	0.0153915
454.991	0.0152096
455.069	0.0155449
455.148	0.0155102
455.226	0.0156254
455.304	0.0157185
455.382	0.0153111
455.460	0.0155079
455.538	0.0154232
455.616	0.0152405
455.694	0.0155991
455.773	0.0155575
455.851	0.0152721
455.929	0.0156391
456.007	0.0155903
456.085	0.0154057
456.163	0.0153877
456.241	0.0155766
456.319	0.0154411
456.398	0.0155811
456.476	0.0156246
456.554	0.0155243
456.632	0.0155815
456.710	0.0151730
456.788	0.0154335
456.866	0.0157890
456.944	0.0152988
457.023	0.0153347
457.101	0.0154053
457.179	0.0153324
457.257	0.0154472
457.335	0.0152199
457.413	0.0154274
457.491	0.0155998
457.569	0.0155018
457.648	0.0155003
457.726	0.0153500
457.804	0.0158035
457.882	0.0152264
457.960	0.0153004
458.038	0.0156090
458.116	0.0156528
458.194	0.0151653
458.273	0.0155518
458.351	0.0155392
458.429	0.0156452
458.507	0.0152245
458.585	0.0155434
458.663	0.0154610
458.741	0.0154110
458.819	0.0155704
458.898	0.0154362
458.976	0.0154297
459.054	0.0152721
459.132	0.0152569
459.210	0.0154213
459.288	0.0151028
459.366	0.0158447
459.444	0.0156612
459.523	0.0153389
459.601	0.0154526
459.679	0.0155922
459.757	0.0155354
459.835	0.0156715
459.913	0.0155697
459.991	0.0154999
460.069	0.0156792
460.148	0.0155788
460.226	0.0158707
460.304	0.0156334
460.382	0.0154045
460.460	0.0154533
460.538	0.0156120
460.616	0.0153965
460.694	0.0155827
460.773	0.0158447
460.851	0.0158512
460.929	0.0155888
461.007	0.0157490
461.085	0.0155094
461.163	0.0156200
461.241	0.0156563
461.319	0.0157021
461.398	0.0157207
461.476	0.0155437
461.554	0.0152805
461.632	0.0154339
461.710	0.0155098
461.788	0.0155769
461.866	0.0156586
461.944	0.0154240
462.023	0.0157150
462.101	0.0155331
462.179	0.0153427
462.257	0.0157490
462.335	0.0155853
462.413	0.0152481
462.491	0.0155838
462.569	0.0156197
462.648	0.0156410
462.726	0.0154766
462.804	0.0154163
462.882	0.0156231
462.960	0.0156437
463.038	0.0155575
463.116	0.0155682
463.194	0.0156002
463.273	0.0151951
463.351	0.0158615
463.429	0.0156361
463.507	0.0152233
463.585	0.0157444
463.663	0.0155693
463.741	0.0153667
463.819	0.0152473
463.898	0.0156681
463.976	0.0156147
464.054	0.0157166
464.132	0.0153065
464.210	0.0153717
464.288	0.0156437
464.366	0.0152813
464.444	0.0155140
464.523	0.0156807
464.601	0.0157845
464.679	0.0156788
464.757	0.0153374
464.835	0.0155704
464.913	0.0155972
464.991	0.0152470
465.069	0.0153637
465.148	0.0156532
465.226	0.0157623
465.304	0.0159161
465.382	0.0154144
465.460	0.0156815
465.538	0.0153740
465.616	0.0154175
465.694	0.0155739
465.773	0.0156818
465.851	0.0152435
465.929	0.0153866
466.007	0.0156120
466.085	0.0153862
466.163	0.0153893
466.241	0.0156498
466.319	0.0154575
466.398	0.0155884
466.476	0.0156967
466.554	0.0154305
466.632	0.0153599
466.710	0.0154366
466.788	0.0156162
466.866	0.0154121
466.944	0.0156296
467.023	0.0155151
467.101	0.0154007
467.179	0.0155994
467.257	0.0156860
467.335	0.0152000
467.413	0.0156616
467.491	0.0155167
467.569	0.0156132
467.648	0.0156651
467.726	0.0155415
467.804	0.0153446
467.882	0.0154804
467.960	0.0155552
468.038	0.0155991
468.116	0.0157921
468.194	0.0153774
468.273	0.0158100
468.351	0.0154629
468.429	0.0154202
468.507	0.0156162
468.585	0.0155529
468.663	0.0155285
468.741	0.0152821
468.819	0.0151867
468.898	0.0156933
468.976	0.0154823
469.054	0.0157589
469.132	0.0154606
469.210	0.0156151
469.288	0.0153843
469.366	0.0158867
469.444	0.0155727
469.523	0.0155491
469.601	0.0156223
469.679	0.0155735
469.757	0.0155899
469.835	0.0154682
469.913	0.0154533
469.991	0.0156357
470.069	0.0158028
470.148	0.0156357
470.226	0.0157589
470.304	0.0158443
470.382	0.0158150
470.460	0.0158543
470.538	0.0154984
470.616	0.0157463
470.694	0.0155857
470.773	0.0157719
470.851	0.0157181
470.929	0.0155685
471.007	0.0157803
471.085	0.0156162
471.163	0.0152802
471.241	0.0151829
471.319	0.0156567
471.398	0.0155064
471.476	0.0157150
471.554	0.0154797
471.632	0.0154881
471.710	0.0156300
471.788	0.0153282
471.866	0.0157188
471.944	0.0158325
472.023	0.0155041
472.101	0.0156105
472.179	0.0155613
472.257	0.0153931
472.335	0.0156490
472.413	0.0154617
472.491	0.0154446
472.569	0.0157490
472.648	0.0154804
472.726	0.0160271
472.804	0.0156643
472.882	0.0152397
472.960	0.0157570
473.038	0.0154331
473.116	0.0155354
473.194	0.0158550
473.273	0.0157818
473.351	0.0155602
473.429	0.0158268
473.507	0.0155167
473.585	0.0155037
473.663	0.0156982
473.741	0.0157005
473.819	0.0155643
473.898	0.0157177
473.976	0.0156700
474.054	0.0155766
474.132	0.0155910
474.210	0.0156601
474.288	0.0154774
474.366	0.0156906
474.444	0.0155415
474.523	0.0153637
474.601	0.0158016
474.679	0.0157646
474.757	0.0155674
474.835	0.0155712
474.913	0.0156540
474.991	0.0155529
475.069	0.0158344
475.148	0.0155952
475.226	0.0155861
475.304	0.0155933
475.382	0.0156307
475.460	0.0157528
475.538	0.0155533
475.616	0.0157722
475.694	0.0156090
475.773	0.0154533
475.851	0.0155834
475.929	0.0155254
476.007	0.0158047
476.085	0.0153812
476.163	0.0156025
476.241	0.0154743
476.319	0.0156151
476.398	0.0157188
476.476	0.0157368
476.554	0.0158215
476.632	0.0156914
476.710	0.0154057
476.788	0.0153976
476.866	0.0155987
476.944	0.0155739
477.023	0.0156322
477.101	0.0154003
477.179	0.0153152
477.257	0.0156849
477.335	0.0156994
477.413	0.0158333
477.491	0.0154087
477.569	0.0156570
477.648	0.0156628
477.726	0.0154408
477.804	0.0158070
477.882	0.0154697
477.960	0.0154408
478.038	0.0157402
478.116	0.0155655
478.194	0.0156208
478.273	0.0155388
478.351	0.0150448
478.429	0.0153965
478.507	0.0155472
478.585	0.0156143
478.663	0.0156982
478.741	0.0155621
478.819	0.0157337
478.898	0.0156616
478.976	0.0153343
479.054	0.0156349
479.132	0.0157146
479.210	0.0154678
479.288	0.0154678
479.366	0.0155178
479.444	0.0156288
479.523	0.0155781
479.601	0.0158375
479.679	0.0158627
479.757	0.0157562
479.835	0.0152500
479.913	0.0153065
479.991	0.0155609
480.069	0.0157768
480.148	0.0153755
480.226	0.0155594
480.304	0.0158512
480.382	0.0159019
480.460	0.0155819
480.538	0.0155804
480.616	0.0154305
480.694	0.0155773
480.773	0.0159801
480.851	0.0158295
480.929	0.0155663
481.007	0.0155640
481.085	0.0153786
481.163	0.0154465
481.241	0.0154213
481.319	0.0157345
481.398	0.0155628
481.476	0.0155846
481.554	0.0154900
481.632	0.0153992
481.710	0.0157814
481.788	0.0158463
481.866	0.0155453
481.944	0.0154236
482.023	0.0151566
482.101	0.0152321
482.179	0.0158394
482.257	0.0155300
482.335	0.0154491
482.413	0.0155479
482.491	0.0156544
482.569	0.0156166
482.648	0.0151905
482.726	0.0152813
482.804	0.0155968
482.882	0.0156647
482.960	0.0151138
483.038	0.0156406
483.116	0.0157188
483.194	0.0154861
483.273	0.0154247
483.351	0.0157150
483.429	0.0156612
483.507	0.0155590
483.585	0.0156590
483.663	0.0152412
483.741	0.0157078
483.819	0.0157261
483.898	0.0156857
483.976	0.0152386
484.054	0.0154037
484.132	0.0155045
484.210	0.0155224
484.288	0.0156559
484.366	0.0154621
484.444	0.0155506
484.523	0.0157574
484.601	0.0155048
484.679	0.0155388
484.757	0.0155182
484.835	0.0154697
484.913	0.0155838
484.991	0.0156078
485.069	0.0157215
485.148	0.0156551
485.226	0.0154308
485.304	0.0153526
485.382	0.0156433
485.460	0.0157234
485.538	0.0153748
485.616	0.0154728
485.694	0.0155903
485.773	0.0156975
485.851	0.0155659
485.929	0.0153828
486.007	0.0157486
486.085	0.0157299
486.163	0.0155762
486.241	0.0158970
486.319	0.0154739
486.398	0.0156139
486.476	0.0152222
486.554	0.0157028
486.632	0.0159752
486.710	0.0155544
486.788	0.0156868
486.866	0.0153576
486.944	0.0153458
487.023	0.0157509
487.101	0.0158047
487.179	0.0155991
487.257	0.0155792
487.335	0.0155060
487.413	0.0153561
487.491	0.0155190
487.569	0.0154877
487.648	0.0156689
487.726	0.0155273
487.804	0.0152275
487.882	0.0156841
487.960	0.0153931
488.038	0.0155521
488.116	0.0155449
488.194	0.0153191
488.273	0.0153091
488.351	0.0155956
488.429	0.0154469
488.507	0.0153976
488.585	0.0154354
488.663	0.0156410
488.741	0.0152874
488.819	0.0151592
488.898	0.0155907
488.976	0.0157719
489.054	0.0153919
489.132	0.0152962
489.210	0.0158054
489.288	0.0158890
489.366	0.0155285
489.444	0.0154312
489.523	0.0156670
489.601	0.0151581
489.679	0.0156590
489.757	0.0156704
489.835	0.0152756
489.913	0.0155750
489.991	0.0155704
490.069	0.0155293
490.148	0.0157833
490.226	0.0156445
490.304	0.0152962
490.382	0.0154163
490.460	0.0156914
490.538	0.0153336
490.616	0.0156544
490.694	0.0155979
490.773	0.0157558
490.851	0.0154583
490.929	0.0152607
491.007	0.0152756
491.085	0.0156456
491.163	0.0157158
491.241	0.0155655
491.319	0.0154709
491.398	0.0154484
491.476	0.0156883
491.554	0.0153595
491.632	0.0156246
491.710	0.0155670
491.788	0.0155560
491.866	0.0153408
491.944	0.0154305
492.023	0.0156639
492.101	0.0157166
492.179	0.0156441
492.257	0.0154358
492.335	0.0156353
492.413	0.0156879
492.491	0.0152611
492.569	0.0154072
492.648	0.0157528
492.726	0.0155785
492.804	0.0151112
492.882	0.0157925
492.960	0.0156391
493.038	0.0156693
493.116	0.0157883
493.194	0.0156170
493.273	0.0157539
493.351	0.0158184
493.429	0.0153294
493.507	0.0153709
493.585	0.0154758
493.663	0.0156185
493.741	0.0155693
493.819	0.0155266
493.898	0.0156494
493.976	0.0153896
494.054	0.0155151
494.132	0.0155472
494.210	0.0153698
494.288	0.0153019
494.366	0.0156284
494.444	0.0156174
494.523	0.0155804
494.601	0.0158794
494.679	0.0156303
494.757	0.0151051
494.835	0.0153545
494.913	0.0153851
494.991	0.0154259
495.069	0.0157562
495.148	0.0153568
495.226	0.0152283
495.304	0.0154808
495.382	0.0157253
495.460	0.0153744
495.538	0.0152851
495.616	0.0155273
495.694	0.0155418
495.773	0.0155243
495.851	0.0155109
495.929	0.0157539
496.007	0.0155457
496.085	0.0153519
496.163	0.0156780
496.241	0.0156620
496.319	0.0154545
496.398	0.0156250
496.476	0.0160404
496.554	0.0156082
496.632	0.0153454
496.710	0.0154568
496.788	0.0159744
496.866	0.0152534
496.944	0.0155064
497.023	0.0158047
497.101	0.0156689
497.179	0.0156792
497.257	0.0158203
497.335	0.0157288
497.413	0.0158039
497.491	0.0155636
497.569	0.0155151
497.648	0.0155720
497.726	0.0157413
497.804	0.0154205
497.882	0.0156815
497.960	0.0155499
498.038	0.0156002
498.116	0.0154076
498.194	0.0155354
498.273	0.0157372
498.351	0.0154037
498.429	0.0152088
498.507	0.0157417
498.585	0.0154339
498.663	0.0153641
498.741	0.0158501
498.819	0.0159142
498.898	0.0152878
498.976	0.0151131
499.054	0.0156872
499.132	0.0155651
499.210	0.0154419
499.288	0.0155010
499.366	0.0152821
499.444	0.0154408
499.523	0.0154629
499.601	0.0158146
499.679	0.0155704
499.757	0.0158119
499.835	0.0156391
499.913	0.0155361
499.991	0.0158867
500.069	0.0155602
500.148	0.0153629
500.226	0.0156937
500.304	0.0156872
500.382	0.0155926
500.460	0.0157642
500.538	0.0155823
500.616	0.0152878
500.694	0.0158546
500.773	0.0155594
500.851	0.0156517
500.929	0.0154137
501.007	0.0154415
501.085	0.0157379
501.163	0.0158756
501.241	0.0155155
501.319	0.0155045
501.398	0.0159164
501.476	0.0156200
501.554	0.0155453
501.632	0.0155693
501.710	0.0152473
501.788	0.0158276
501.866	0.0154839
501.944	0.0157227
502.023	0.0155117
502.101	0.0155571
502.179	0.0159698
502.257	0.0156094
502.335	0.0158543
502.413	0.0155430
502.491	0.0153606
502.569	0.0158291
502.648	0.0156162
502.726	0.0157257
502.804	0.0155552
502.882	0.0152878
502.960	0.0153915
503.038	0.0157230
503.116	0.0156250
503.194	0.0153961
503.273	0.0157223
503.351	0.0156059
503.429	0.0155144
503.507	0.0158459
503.585	0.0157372
503.663	0.0154449
503.741	0.0156506
503.819	0.0152046
503.898	0.0157127
503.976	0.0156254
504.054	0.0155926
504.132	0.0155994
504.210	0.0154720
504.288	0.0156673
504.366	0.0155540
504.444	0.0155567
504.523	0.0156452
504.601	0.0152794
504.679	0.0156242
504.757	0.0155556
504.835	0.0154701
504.913	0.0153954
504.991	0.0155602
505.069	0.0155109
505.148	0.0156799
505.226	0.0154545
505.304	0.0153927
505.382	0.0155926
505.460	0.0154415
505.538	0.0156532
505.616	0.0157139
505.694	0.0157223
505.773	0.0155815
505.851	0.0156052
505.929	0.0155399
506.007	0.0154648
506.085	0.0157322
506.163	0.0156178
506.241	0.0154743
506.319	0.0157841
506.398	0.0155022
506.476	0.0155201
506.554	0.0156853
506.632	0.0158119
506.710	0.0159004
506.788	0.0153904
506.866	0.0159199
506.944	0.0155380
507.023	0.0156807
507.101	0.0153221
507.179	0.0155048
507.257	0.0153118
507.335	0.0155346
507.413	0.0156227
507.491	0.0155140
507.569	0.0156147
507.648	0.0154823
507.726	0.0157383
507.804	0.0157391
507.882	0.0156322
507.960	0.0154144
508.038	0.0155758
508.116	0.0154236
508.194	0.0154308
508.273	0.0153915
508.351	0.0157818
508.429	0.0157112
508.507	0.0155743
508.585	0.0153095
508.663	0.0153271
508.741	0.0156342
508.819	0.0154274
508.898	0.0156487
508.976	0.0157005
509.054	0.0155121
509.132	0.0154034
509.210	0.0157364
509.288	0.0154697
509.366	0.0155533
509.444	0.0154926
509.523	0.0153847
509.601	0.0156944
509.679	0.0155464
509.757	0.0156178
509.835	0.0158005
509.913	0.0156055
509.991	0.0157318
510.069	0.0154938
510.148	0.0152565
510.226	0.0152046
510.304	0.0155422
510.382	0.0156811
510.460	0.0155060
510.538	0.0156082
510.616	0.0153625
510.694	0.0153954
510.773	0.0156376
510.851	0.0159130
510.929	0.0153637
511.007	0.0154488
511.085	0.0155636
511.163	0.0155331
511.241	0.0155083
511.319	0.0154095
511.398	0.0157246
511.476	0.0155739
511.554	0.0158768
511.632	0.0154461
511.710	0.0153843
511.788	0.0152290
511.866	0.0152710
511.944	0.0156166
512.023	0.0157074
512.101	0.0156490
512.179	0.0152752
512.257	0.0155239
512.335	0.0155254
512.413	0.0156364
512.491	0.0153221
512.569	0.0154869
512.648	0.0156025
512.726	0.0153774
512.804	0.0152241
512.882	0.0157711
512.960	0.0158257
513.038	0.0155376
513.116	0.0157429
513.194	0.0158024
513.273	0.0156372
513.351	0.0155975
513.429	0.0155525
513.507	0.0153835
513.585	0.0152905
513.663	0.0154675
513.741	0.0156319
513.819	0.0155014
513.898	0.0153919
513.976	0.0156811
514.054	0.0153488
514.132	0.0155220
514.210	0.0156460
514.288	0.0156910
514.366	0.0156025
514.444	0.0153572
514.523	0.0155087
514.601	0.0154629
514.679	0.0154522
514.757	0.0154358
514.835	0.0153790
514.913	0.0156937
514.991	0.0154907
515.069	0.0154106
515.148	0.0155796
515.226	0.0154289
515.304	0.0153553
515.382	0.0154736
515.460	0.0154423
515.538	0.0154087
515.616	0.0156673
515.694	0.0155521
515.773	0.0154751
515.851	0.0153965
515.929	0.0156021
516.007	0.0152626
516.085	0.0155449
516.163	0.0155891
516.241	0.0155125
516.319	0.0154785
516.398	0.0155865
516.476	0.0155582
516.554	0.0154770
516.632	0.0153431
516.710	0.0153912
516.788	0.0154049
516.866	0.0155090
516.944	0.0156391
517.023	0.0154404
517.101	0.0156502
517.179	0.0157154
517.257	0.0155186
517.335	0.0155376
517.413	0.0154114
517.491	0.0154247
517.569	0.0155693
517.648	0.0153770
517.726	0.0155434
517.804	0.0155296
517.882	0.0154236
517.960	0.0153431
518.038	0.0155998
518.116	0.0153313
518.194	0.0152546
518.273	0.0156540
518.351	0.0158981
518.429	0.0156364
518.507	0.0155296
518.585	0.0154873
518.663	0.0157017
518.741	0.0153740
518.819	0.0157150
518.898	0.0155537
518.976	0.0155430
519.054	0.0153831
519.132	0.0154869
519.210	0.0155788
519.288	0.0156704
519.366	0.0152302
519.444	0.0155853
519.523	0.0152901
519.601	0.0154167
519.679	0.0159481
519.757	0.0154545
519.835	0.0156559
519.913	0.0153427
519.991	0.0155724
520.069	0.0154255
520.148	0.0153954
520.226	0.0156315
520.304	0.0154778
520.382	0.0153690
520.460	0.0154491
520.538	0.0153591
520.616	0.0154194
520.694	0.0152775
520.773	0.0154015
520.851	0.0153866
520.929	0.0153736
521.007	0.0152664
521.085	0.0153030
521.163	0.0156013
521.241	0.0155876
521.319	0.0155106
521.398	0.0153599
521.476	0.0156013
521.554	0.0155861
521.632	0.0154350
521.710	0.0152054
521.788	0.0153942
521.866	0.0151737
521.944	0.0153118
522.023	0.0153374
522.101	0.0156700
522.179	0.0154007
522.257	0.0152836
522.335	0.0152138
522.413	0.0153667
522.491	0.0154427
522.569	0.0157936
522.648	0.0155861
522.726	0.0153454
522.804	0.0152035
522.882	0.0156261
522.960	0.0156147
523.038	0.0155838
523.116	0.0156544
523.194	0.0153423
523.273	0.0154438
523.351	0.0156673
523.429	0.0159443
523.507	0.0155811
523.585	0.0155994
523.663	0.0151775
523.741	0.0158287
523.819	0.0155693
523.898	0.0153622
523.976	0.0155643
524.054	0.0156502
524.132	0.0156410
524.210	0.0156300
524.288	0.0157162
524.366	0.0154842
524.444	0.0156918
524.523	0.0157391
524.601	0.0154690
524.679	0.0155117
524.757	0.0157120
524.835	0.0154331
524.913	0.0153675
524.991	0.0153416
525.069	0.0151413
525.148	0.0155483
525.226	0.0154881
525.304	0.0154346
525.382	0.0154243
525.460	0.0154415
525.538	0.0156883
525.616	0.0152763
525.694	0.0154495
525.773	0.0160862
525.851	0.0156960
525.929	0.0155361
526.007	0.0156597
526.085	0.0156109
526.163	0.0156273
526.241	0.0154835
526.319	0.0156158
526.398	0.0158405
526.476	0.0153282
526.554	0.0155537
526.632	0.0156414
526.710	0.0157539
526.788	0.0154205
526.866	0.0157852
526.944	0.0154987
527.023	0.0154984
527.101	0.0155884
527.179	0.0155952
527.257	0.0155022
527.335	0.0154736
527.413	0.0155087
527.491	0.0154766
527.569	0.0155037
527.648	0.0157169
527.726	0.0155209
527.804	0.0155319
527.882	0.0152664
527.960	0.0156792
528.038	0.0156631
528.116	0.0155731
528.194	0.0155758
528.273	0.0154518
528.351	0.0154602
528.429	0.0154510
528.507	0.0157417
528.585	0.0153179
528.663	0.0158401
528.741	0.0156029
528.819	0.0159340
528.898	0.0158817
528.976	0.0156048
529.054	0.0155903
529.132	0.0154533
529.210	0.0155838
529.288	0.0155869
529.366	0.0152096
529.444	0.0157253
529.523	0.0156284
529.601	0.0155766
529.679	0.0156174
529.757	0.0153828
529.835	0.0154984
529.913	0.0155926
529.991	0.0153126
530.069	0.0156921
530.148	0.0156376
530.226	0.0158764
530.304	0.0154427
530.382	0.0152092
530.460	0.0153996
530.538	0.0155697
530.616	0.0154972
530.694	0.0155190
530.773	0.0154408
530.851	0.0151402
530.929	0.0157360
531.007	0.0152931
531.085	0.0157375
531.163	0.0155106
531.241	0.0153275
531.319	0.0155869
531.398	0.0158352
531.476	0.0154545
531.554	0.0157604
531.632	0.0157318
531.710	0.0156773
531.788	0.0153095
531.866	0.0153164
531.944	0.0153915
532.023	0.0157394
532.101	0.0156029
532.179	0.0155392
532.257	0.0157005
532.335	0.0156055
532.413	0.0154270
532.491	0.0156834
532.569	0.0157597
532.648	0.0156086
532.726	0.0152794
532.804	0.0155006
532.882	0.0157978
532.960	0.0154827
533.038	0.0152237
533.116	0.0156948
533.194	0.0154354
533.273	0.0156082
533.351	0.0156624
533.429	0.0155132
533.507	0.0157131
533.585	0.0157238
533.663	0.0155212
533.741	0.0154877
533.819	0.0154827
533.898	0.0155327
533.976	0.0155605
534.054	0.0156349
534.132	0.0151764
534.210	0.0156727
534.288	0.0153824
534.366	0.0155903
534.444	0.0156948
534.523	0.0154320
534.601	0.0156757
534.679	0.0156944
534.757	0.0154842
534.835	0.0155342
534.913	0.0153023
534.991	0.0153397
535.069	0.0156673
535.148	0.0150269
535.226	0.0154343
535.304	0.0154144
535.382	0.0152405
535.460	0.0155277
535.538	0.0155464
535.616	0.0155918
535.694	0.0157562
535.773	0.0153248
535.851	0.0156116
535.929	0.0155907
536.007	0.0156006
536.085	0.0151859
536.163	0.0155693
536.241	0.0155655
536.319	0.0156754
536.398	0.0156075
536.476	0.0153652
536.554	0.0155754
536.632	0.0155697
536.710	0.0158951
536.788	0.0150738
536.866	0.0156563
536.944	0.0156155
537.023	0.0156265
537.101	0.0156361
537.179	0.0156780
537.257	0.0155350
537.335	0.0155502
537.413	0.0151413
537.491	0.0156429
537.569	0.0154602
537.648	0.0153568
537.726	0.0152863
537.804	0.0155594
537.882	0.0154312
537.960	0.0152889
538.038	0.0158279
538.116	0.0155506
538.194	0.0155678
538.273	0.0153652
538.351	0.0152687
538.429	0.0151028
538.507	0.0154003
538.585	0.0152592
538.663	0.0154568
538.741	0.0155773
538.819	0.0156113
538.898	0.0153137
538.976	0.0154926
539.054	0.0158424
539.132	0.0155094
539.210	0.0154716
539.288	0.0153515
539.366	0.0153774
539.444	0.0154293
539.523	0.0156036
539.601	0.0153679
539.679	0.0152687
539.757	0.0154976
539.835	0.0155052
539.913	0.0154049
539.991	0.0154457
540.069	0.0156578
540.148	0.0152149
540.226	0.0152325
540.304	0.0154213
540.382	0.0155487
540.460	0.0153755
540.538	0.0154617
540.616	0.0154488
540.694	0.0154179
540.773	0.0153191
540.851	0.0151676
540.929	0.0152004
541.007	0.0153831
541.085	0.0154343
541.163	0.0154327
541.241	0.0155727
541.319	0.0156872
541.398	0.0156895
541.476	0.0155987
541.554	0.0155193
541.632	0.0155842
541.710	0.0152775
541.788	0.0154186
541.866	0.0154446
541.944	0.0157310
542.023	0.0156235
542.101	0.0154266
542.179	0.0155014
542.257	0.0155937
542.335	0.0155895
542.413	0.0154785
542.491	0.0153591
542.569	0.0157833
542.648	0.0157852
542.726	0.0153606
542.804	0.0156700
542.882	0.0153942
542.960	0.0154987
543.038	0.0153713
543.116	0.0154079
543.194	0.0157372
543.273	0.0157509
543.351	0.0153667
543.429	0.0155296
543.507	0.0156433
543.585	0.0155907
543.663	0.0154045
543.741	0.0156673
543.819	0.0152721
543.898	0.0155277
543.976	0.0155140
544.054	0.0153759
544.132	0.0156487
544.210	0.0152977
544.288	0.0154686
544.366	0.0155464
544.444	0.0157368
544.523	0.0156319
544.601	0.0154507
544.679	0.0158325
544.757	0.0154636
544.835	0.0152885
544.913	0.0153400
544.991	0.0154758
545.069	0.0156734
545.148	0.0154949
545.226	0.0156219
545.304	0.0152317
545.382	0.0154053
545.460	0.0162018
545.538	0.0154675
545.616	0.0154278
545.694	0.0155697
545.773	0.0157280
545.851	0.0157257
545.929	0.0156101
546.007	0.0152954
546.085	0.0155983
546.163	0.0155426
546.241	0.0153713
546.319	0.0154972
546.398	0.0153652
546.476	0.0153099
546.554	0.0155804
546.632	0.0155987
546.710	0.0153919
546.788	0.0154152
546.866	0.0154156
546.944	0.0158833
547.023	0.0154644
547.101	0.0154751
547.179	0.0154861
547.257	0.0153927
547.335	0.0156399
547.413	0.0156212
547.491	0.0155869
547.569	0.0153942
547.648	0.0155716
547.726	0.0154835
547.804	0.0154877
547.882	0.0157917
547.960	0.0154392
548.038	0.0154522
548.116	0.0152672
548.194	0.0156330
548.273	0.0154930
548.351	0.0153938
548.429	0.0153683
548.507	0.0157059
548.585	0.0154808
548.663	0.0156773
548.741	0.0154339
548.819	0.0153427
548.898	0.0154461
548.976	0.0153603
549.054	0.0155151
549.132	0.0153168
549.210	0.0155392
549.288	0.0156235
549.366	0.0156277
549.444	0.0153400
549.523	0.0154385
549.601	0.0155430
549.679	0.0155441
549.757	0.0156784
549.835	0.0158527
549.913	0.0156132
549.991	0.0154755
550.069	0.0155476
550.148	0.0156479
550.226	0.0157291
550.304	0.0154163
550.382	0.0154514
550.460	0.0155678
550.538	0.0155174
550.616	0.0158436
550.694	0.0155804
550.773	0.0155430
550.851	0.0157104
550.929	0.0157909
551.007	0.0156002
551.085	0.0155502
551.163	0.0155830
551.241	0.0156727
551.319	0.0155270
551.398	0.0154011
551.476	0.0154644
551.554	0.0157001
551.632	0.0156471
551.710	0.0155762
551.788	0.0156357
551.866	0.0155994
551.944	0.0156513
552.023	0.0159977
552.101	0.0152233
552.179	0.0152760
552.257	0.0156002
552.335	0.0155521
552.413	0.0156864
552.491	0.0154144
552.569	0.0156956
552.648	0.0157333
552.726	0.0154354
552.804	0.0154278
552.882	0.0157280
552.960	0.0157360
553.038	0.0156288
553.116	0.0153831
553.194	0.0155041
553.273	0.0156384
553.351	0.0158279
553.429	0.0159184
553.507	0.0156223
553.585	0.0158775
553.663	0.0156441
553.741	0.0154881
553.819	0.0156708
553.898	0.0155903
553.976	0.0158916
554.054	0.0157608
554.132	0.0153999
554.210	0.0158867
554.288	0.0157742
554.366	0.0156200
554.444	0.0156036
554.523	0.0152695
554.601	0.0157623
554.679	0.0158058
554.757	0.0155544
554.835	0.0157425
554.913	0.0157677
554.991	0.0154224
555.069	0.0153690
555.148	0.0159161
555.226	0.0157082
555.304	0.0154510
555.382	0.0156887
555.460	0.0157688
555.538	0.0155014
555.616	0.0155361
555.694	0.0156933
555.773	0.0153042
555.851	0.0150932
555.929	0.0155754
556.007	0.0157448
556.085	0.0155487
556.163	0.0157307
556.241	0.0154987
556.319	0.0155704
556.398	0.0152042
556.476	0.0153202
556.554	0.0155800
556.632	0.0156849
556.710	0.0153454
556.788	0.0157902
556.866	0.0156021
556.944	0.0155830
557.023	0.0157627
557.101	0.0158508
557.179	0.0153896
557.257	0.0155205
557.335	0.0157166
557.413	0.0152775
557.491	0.0157181
557.569	0.0153381
557.648	0.0156284
557.726	0.0158138
557.804	0.0157314
557.882	0.0157631
557.960	0.0157059
558.038	0.0158264
558.116	0.0154789
558.194	0.0157646
558.273	0.0153194
558.351	0.0154526
558.429	0.0156570
558.507	0.0154129
558.585	0.0155949
558.663	0.0159317
558.741	0.0158043
558.819	0.0154045
558.898	0.0154675
558.976	0.0155228
559.054	0.0156982
559.132	0.0154156
559.210	0.0157234
559.288	0.0156750
559.366	0.0156746
559.444	0.0152306
559.523	0.0152370
559.601	0.0154629
559.679	0.0154255
559.757	0.0155071
559.835	0.0154484
559.913	0.0155262
559.991	0.0153828
560.069	0.0157204
560.148	0.0158470
560.226	0.0154514
560.304	0.0154503
560.382	0.0156960
560.460	0.0156162
560.538	0.0155872
560.616	0.0156887
560.694	0.0154186
560.773	0.0155464
560.851	0.0154327
560.929	0.0155724
561.007	0.0154705
561.085	0.0152832
561.163	0.0153629
561.241	0.0153969
561.319	0.0156681
561.398	0.0156734
561.476	0.0153744
561.554	0.0150654
561.632	0.0156185
561.710	0.0158108
561.788	0.0157406
561.866	0.0154915
561.944	0.0155170
562.023	0.0155502
562.101	0.0153648
562.179	0.0155025
562.257	0.0156044
562.335	0.0155178
562.413	0.0154125
562.491	0.0156246
562.569	0.0154251
562.648	0.0156914
562.726	0.0153969
562.804	0.0157856
562.882	0.0155945
562.960	0.0153389
563.038	0.0154648
563.116	0.0157246
563.194	0.0159492
563.273	0.0155792
563.351	0.0155186
563.429	0.0154888
563.507	0.0158108
563.585	0.0157852
563.663	0.0157658
563.741	0.0157333
563.819	0.0155132
563.898	0.0154625
563.976	0.0155647
564.054	0.0156990
564.132	0.0155472
564.210	0.0154930
564.288	0.0156540
564.366	0.0153717
564.444	0.0153427
564.523	0.0156773
564.601	0.0157570
564.679	0.0155518
564.757	0.0153679
564.835	0.0155849
564.913	0.0155045
564.991	0.0153950
565.069	0.0153732
565.148	0.0156456
565.226	0.0157612
565.304	0.0156288
565.382	0.0157570
565.460	0.0155827
565.538	0.0156750
565.616	0.0153145
565.694	0.0154072
565.773	0.0157837
565.851	0.0155689
565.929	0.0155018
566.007	0.0157505
566.085	0.0155769
566.163	0.0154438
566.241	0.0155746
566.319	0.0153667
566.398	0.0156666
566.476	0.0158001
566.554	0.0157009
566.632	0.0155865
566.710	0.0157494
566.788	0.0158489
566.866	0.0157001
566.944	0.0154022
567.023	0.0156345
567.101	0.0157772
567.179	0.0155998
567.257	0.0153305
567.335	0.0152287
567.413	0.0156338
567.491	0.0156334
567.569	0.0155251
567.648	0.0154064
567.726	0.0156063
567.804	0.0156464
567.882	0.0156193
567.960	0.0158298
568.038	0.0154556
568.116	0.0152920
568.194	0.0153748
568.273	0.0156292
568.351	0.0156723
568.429	0.0153732
568.507	0.0155720
568.585	0.0157951
568.663	0.0155781
568.741	0.0156467
568.819	0.0157959
568.898	0.0158176
568.976	0.0155937
569.054	0.0153950
569.132	0.0155273
569.210	0.0155968
569.288	0.0155029
569.366	0.0154648
569.444	0.0156425
569.523	0.0155590
569.601	0.0154949
569.679	0.0157158
569.757	0.0154282
569.835	0.0154057
569.913	0.0156265
569.991	0.0157673
570.069	0.0157410
570.148	0.0154587
570.226	0.0157276
570.304	0.0154507
570.382	0.0150913
570.460	0.0153961
570.538	0.0157570
570.616	0.0157616
570.694	0.0156242
570.773	0.0153851
570.851	0.0156887
570.929	0.0156204
571.007	0.0157661
571.085	0.0152988
571.163	0.0152115
571.241	0.0155796
571.319	0.0155476
571.398	0.0152775
571.476	0.0155170
571.554	0.0157314
571.632	0.0153027
571.710	0.0157593
571.788	0.0156242
571.866	0.0157764
571.944	0.0154892
572.023	0.0158928
572.101	0.0154526
572.179	0.0154839
572.257	0.0154842
572.335	0.0156219
572.413	0.0158501
572.491	0.0157028
572.569	0.0156303
572.648	0.0153881
572.726	0.0156322
572.804	0.0154861
572.882	0.0155159
572.960	0.0156567
573.038	0.0155373
573.116	0.0156734
573.194	0.0158051
573.273	0.0156628
573.351	0.0159184
573.429	0.0157799
573.507	0.0155628
573.585	0.0158535
573.663	0.0157215
573.741	0.0159740
573.819	0.0157528
573.898	0.0160267
573.976	0.0153248
574.054	0.0154758
574.132	0.0155357
574.210	0.0156761
574.288	0.0157505
574.366	0.0155708
574.444	0.0153904
574.523	0.0158371
574.601	0.0156681
574.679	0.0156479
574.757	0.0155685
574.835	0.0156502
574.913	0.0159027
574.991	0.0157063
575.069	0.0153522
575.148	0.0158489
575.226	0.0156059
575.304	0.0154968
575.382	0.0156357
575.460	0.0157352
575.538	0.0156277
575.616	0.0154678
575.694	0.0158951
575.773	0.0156879
575.851	0.0155670
575.929	0.0156353
576.007	0.0155586
576.085	0.0154549
576.163	0.0154644
576.241	0.0152565
576.319	0.0157959
576.398	0.0156933
576.476	0.0156036
576.554	0.0153255
576.632	0.0156601
576.710	0.0155891
576.788	0.0157425
576.866	0.0153343
576.944	0.0155689
577.023	0.0154312
577.101	0.0153782
577.179	0.0156128
577.257	0.0157036
577.335	0.0153889
577.413	0.0156601
577.491	0.0155884
577.569	0.0155445
577.648	0.0154583
577.726	0.0153309
577.804	0.0153904
577.882	0.0155701
577.960	0.0159512
578.038	0.0154270
578.116	0.0155426
578.194	0.0155910
578.273	0.0157391
578.351	0.0153530
578.429	0.0153538
578.507	0.0157299
578.585	0.0153915
578.663	0.0154369
578.741	0.0156170
578.819	0.0157692
578.898	0.0156544
578.976	0.0155853
579.054	0.0155918
579.132	0.0154568
579.210	0.0156609
579.288	0.0154160
579.366	0.0157612
579.444	0.0155376
579.523	0.0157658
579.601	0.0156464
579.679	0.0156441
579.757	0.0152775
579.835	0.0154423
579.913	0.0153358
579.991	0.0153675
580.069	0.0156796
580.148	0.0157570
580.226	0.0154613
580.304	0.0156979
580.382	0.0156124
580.460	0.0156670
580.538	0.0157562
580.616	0.0154285
580.694	0.0156811
580.773	0.0155464
580.851	0.0156212
580.929	0.0157120
581.007	0.0157581
581.085	0.0154861
581.163	0.0155399
581.241	0.0154179
581.319	0.0152996
581.398	0.0156490
581.476	0.0154713
581.554	0.0154522
581.632	0.0158253
581.710	0.0157738
581.788	0.0157104
581.866	0.0154579
581.944	0.0155155
582.023	0.0153137
582.101	0.0156174
582.179	0.0156326
582.257	0.0153450
582.335	0.0156380
582.413	0.0152832
582.491	0.0153378
582.569	0.0156372
582.648	0.0155018
582.726	0.0153580
582.804	0.0153500
582.882	0.0156242
582.960	0.0153549
583.038	0.0153793
583.116	0.0155441
583.194	0.0155746
583.273	0.0157192
583.351	0.0156326
583.429	0.0153141
583.507	0.0154659
583.585	0.0151508
583.663	0.0156574
583.741	0.0156425
583.819	0.0155624
583.898	0.0154709
583.976	0.0152309
584.054	0.0155968
584.132	0.0155472
584.210	0.0155964
584.288	0.0153690
584.366	0.0153309
584.444	0.0156990
584.523	0.0157021
584.601	0.0155602
584.679	0.0155445
584.757	0.0157249
584.835	0.0157475
584.913	0.0156796
584.991	0.0153881
585.069	0.0153820
585.148	0.0157009
585.226	0.0157246
585.304	0.0157825
585.382	0.0156635
585.460	0.0155052
585.538	0.0156033
585.616	0.0156807
585.694	0.0155907
585.773	0.0155689
585.851	0.0156197
585.929	0.0154785
586.007	0.0155106
586.085	0.0154934
586.163	0.0153362
586.241	0.0157448
586.319	0.0152534
586.398	0.0155186
586.476	0.0155926
586.554	0.0160179
586.632	0.0155670
586.710	0.0153751
586.788	0.0155033
586.866	0.0158237
586.944	0.0156830
587.023	0.0156475
587.101	0.0153366
587.179	0.0151741
587.257	0.0158787
587.335	0.0156975
587.413	0.0158199
587.491	0.0155384
587.569	0.0152637
587.648	0.0156189
587.726	0.0157433
587.804	0.0156647
587.882	0.0157959
587.960	0.0156590
588.038	0.0152672
588.116	0.0153496
588.194	0.0156242
588.273	0.0157043
588.351	0.0155476
588.429	0.0154041
588.507	0.0156235
588.585	0.0155682
588.663	0.0155983
588.741	0.0153881
588.819	0.0154041
588.898	0.0156837
588.976	0.0159271
589.054	0.0156963
589.132	0.0154560
589.210	0.0153877
589.288	0.0156231
589.366	0.0154728
589.444	0.0153950
589.523	0.0153477
589.601	0.0155273
589.679	0.0158009
589.757	0.0154770
589.835	0.0158215
589.913	0.0154041
589.991	0.0154243
590.069	0.0158016
590.148	0.0155533
590.226	0.0154461
590.304	0.0159748
590.382	0.0155197
590.460	0.0154602
590.538	0.0156704
590.616	0.0154083
590.694	0.0155956
590.773	0.0155312
590.851	0.0155865
590.929	0.0158745
591.007	0.0154778
591.085	0.0150944
591.163	0.0155407
591.241	0.0157814
591.319	0.0154987
591.398	0.0152992
591.476	0.0154358
591.554	0.0156239
591.632	0.0153557
591.710	0.0154972
591.788	0.0156620
591.866	0.0156204
591.944	0.0157360
592.023	0.0155499
592.101	0.0155510
592.179	0.0157589
592.257	0.0155930
592.335	0.0153225
592.413	0.0154255
592.491	0.0155827
592.569	0.0156689
592.648	0.0154011
592.726	0.0153599
592.804	0.0158031
592.882	0.0157730
592.960	0.0153984
593.038	0.0154972
593.116	0.0153702
593.194	0.0154316
593.273	0.0155338
593.351	0.0153072
593.429	0.0152576
593.507	0.0154976
593.585	0.0158127
593.663	0.0150894
593.741	0.0154438
593.819	0.0159374
593.898	0.0155594
593.976	0.0152416
594.054	0.0154610
594.132	0.0155895
594.210	0.0155510
594.288	0.0155594
594.366	0.0154640
594.444	0.0155136
594.523	0.0156528
594.601	0.0156693
594.679	0.0155178
594.757	0.0158661
594.835	0.0154930
594.913	0.0152557
594.991	0.0153156
595.069	0.0151363
595.148	0.0155697
595.226	0.0155525
595.304	0.0155479
595.382	0.0154312
595.460	0.0157784
595.538	0.0154972
595.616	0.0156189
595.694	0.0153328
595.773	0.0155113
595.851	0.0156258
595.929	0.0155914
596.007	0.0154881
596.085	0.0155930
596.163	0.0154202
596.241	0.0155048
596.319	0.0154507
596.398	0.0154186
596.476	0.0153839
596.554	0.0155678
596.632	0.0155079
596.710	0.0155682
596.788	0.0156643
596.866	0.0157001
596.944	0.0150005
597.023	0.0155163
597.101	0.0153790
597.179	0.0157494
597.257	0.0155479
597.335	0.0155853
597.413	0.0155502
597.491	0.0154411
597.569	0.0155499
597.648	0.0151890
597.726	0.0152576
597.804	0.0154022
597.882	0.0154415
597.960	0.0154881
598.038	0.0156609
598.116	0.0154682
598.194	0.0156643
598.273	0.0153698
598.351	0.0155754
598.429	0.0154736
598.507	0.0155190
598.585	0.0155151
598.663	0.0153278
598.741	0.0156685
598.819	0.0155293
598.898	0.0154266
598.976	0.0154896
599.054	0.0156601
599.132	0.0157082
599.210	0.0156166
599.288	0.0155556
599.366	0.0157608
599.444	0.0156010
599.523	0.0155067
599.601	0.0158104
599.679	0.0154995
599.757	0.0155132
599.835	0.0156311
599.913	0.0157059
599.991	0.0157822
600.069	0.0156242
600.148	0.0154842
600.226	0.0156075
600.304	0.0157711
600.382	0.0155689
600.460	0.0154003
600.538	0.0152966
600.616	0.0153847
600.694	0.0154900
600.773	0.0155304
600.851	0.0156338
600.929	0.0155159
601.007	0.0156296
601.085	0.0155491
601.163	0.0154266
601.241	0.0157173
601.319	0.0154678
601.398	0.0153065
601.476	0.0152431
601.554	0.0155296
601.632	0.0155647
601.710	0.0155560
601.788	0.0155468
601.866	0.0157581
601.944	0.0156727
602.023	0.0156422
602.101	0.0154675
602.179	0.0154011
602.257	0.0154232
602.335	0.0156353
602.413	0.0155052
602.491	0.0155815
602.569	0.0155209
602.648	0.0156693
602.726	0.0159882
602.804	0.0157124
602.882	0.0155872
602.960	0.0153187
603.038	0.0153587
603.116	0.0158154
603.194	0.0156914
603.273	0.0154671
603.351	0.0152790
603.429	0.0154255
603.507	0.0159451
603.585	0.0152592
603.663	0.0153458
603.741	0.0154247
603.819	0.0153851
603.898	0.0157604
603.976	0.0157158
604.054	0.0154442
604.132	0.0153641
604.210	0.0155643
604.288	0.0157234
604.366	0.0152508
604.444	0.0153469
604.523	0.0157219
604.601	0.0156063
604.679	0.0154812
604.757	0.0153389
604.835	0.0155628
604.913	0.0157013
604.991	0.0155403
605.069	0.0155060
605.148	0.0153458
605.226	0.0154697
605.304	0.0158291
605.382	0.0153946
605.460	0.0155689
605.538	0.0155071
605.616	0.0154099
605.694	0.0151958
605.773	0.0152241
605.851	0.0156525
605.929	0.0157337
606.007	0.0156380
606.085	0.0154922
606.163	0.0153378
606.241	0.0155960
606.319	0.0156494
606.398	0.0154392
606.476	0.0154461
606.554	0.0158138
606.632	0.0154408
606.710	0.0156509
606.788	0.0156673
606.866	0.0152592
606.944	0.0154316
607.023	0.0155739
607.101	0.0154697
607.179	0.0154095
607.257	0.0156303
607.335	0.0156155
607.413	0.0154572
607.491	0.0154354
607.569	0.0158058
607.648	0.0156563
607.726	0.0154167
607.804	0.0156742
607.882	0.0154514
607.960	0.0156403
608.038	0.0149448
608.116	0.0154228
608.194	0.0153370
608.273	0.0153664
608.351	0.0153282
608.429	0.0154160
608.507	0.0154858
608.585	0.0155487
608.663	0.0152359
608.741	0.0150719
608.819	0.0152565
608.898	0.0153351
608.976	0.0154823
609.054	0.0155476
609.132	0.0155830
609.210	0.0153938
609.288	0.0157860
609.366	0.0160740
609.444	0.0160206
609.523	0.0159184
609.601	0.0160313
609.679	0.0163918
609.757	0.0163200
609.835	0.0163616
609.913	0.0166927
609.991	0.0167915
610.069	0.0166420
610.148	0.0166695
610.226	0.0166607
610.304	0.0168373
610.382	0.0166325
610.460	0.0164669
610.538	0.0164024
610.616	0.0163563
610.694	0.0160439
610.773	0.0161190
610.851	0.0162880
610.929	0.0158611
611.007	0.0157391
611.085	0.0157902
611.163	0.0155235
611.241	0.0155415
611.319	0.0153378
611.398	0.0152599
611.476	0.0148670
611.554	0.0152489
611.632	0.0153843
611.710	0.0150845
611.788	0.0148151
611.866	0.0148216
611.944	0.0148682
612.023	0.0149323
612.101	0.0148438
612.179	0.0148716
612.257	0.0151474
612.335	0.0149010
612.413	0.0151730
612.491	0.0156029
612.569	0.0151379
612.648	0.0151089
612.726	0.0153271
612.804	0.0153839
612.882	0.0150528
612.960	0.0156403
613.038	0.0154655
613.116	0.0154488
613.194	0.0153591
613.273	0.0151154
613.351	0.0155418
613.429	0.0154266
613.507	0.0153111
613.585	0.0153805
613.663	0.0153545
613.741	0.0153221
613.819	0.0153069
613.898	0.0152840
613.976	0.0153061
614.054	0.0152081
614.132	0.0154545
614.210	0.0153755
614.288	0.0153461
614.366	0.0152866
614.444	0.0153938
614.523	0.0154251
614.601	0.0154205
614.679	0.0155556
614.757	0.0153435
614.835	0.0155792
614.913	0.0158333
614.991	0.0156296
615.069	0.0155495
615.148	0.0155609
615.226	0.0152771
615.304	0.0153080
615.382	0.0154942
615.460	0.0153076
615.538	0.0155125
615.616	0.0156822
615.694	0.0155807
615.773	0.0155327
615.851	0.0154606
615.929	0.0152481
616.007	0.0155457
616.085	0.0156776
616.163	0.0155762
616.241	0.0155998
616.319	0.0156345
616.398	0.0154900
616.476	0.0155815
616.554	0.0154263
616.632	0.0152897
616.710	0.0156967
616.788	0.0157772
616.866	0.0156410
616.944	0.0159004
617.023	0.0158161
617.101	0.0156937
617.179	0.0156334
617.257	0.0158134
617.335	0.0153931
617.413	0.0153572
617.491	0.0156830
617.569	0.0158089
617.648	0.0155491
617.726	0.0159012
617.804	0.0153423
617.882	0.0156826
617.960	0.0161037
618.038	0.0156086
618.116	0.0154186
618.194	0.0155468
618.273	0.0157684
618.351	0.0155586
618.429	0.0157230
618.507	0.0157078
618.585	0.0156933
618.663	0.0159027
618.741	0.0156818
618.819	0.0155888
618.898	0.0157131
618.976	0.0156345
619.054	0.0159233
619.132	0.0156448
619.210	0.0155228
619.288	0.0156776
619.366	0.0153324
619.444	0.0154961
619.523	0.0157471
619.601	0.0153854
619.679	0.0154850
619.757	0.0157040
619.835	0.0155014
619.913	0.0156193
619.991	0.0157764
620.069	0.0156582
620.148	0.0155506
620.226	0.0159187
620.304	0.0157150
620.382	0.0160484
620.460	0.0152943
620.538	0.0154888
620.616	0.0153397
620.694	0.0156139
620.773	0.0155540
620.851	0.0153423
620.929	0.0153755
621.007	0.0155289
621.085	0.0155846
621.163	0.0156582
621.241	0.0155510
621.319	0.0155281
621.398	0.0154743
621.476	0.0155033
621.554	0.0156361
621.632	0.0158127
621.710	0.0154808
621.788	0.0154354
621.866	0.0157158
621.944	0.0152897
622.023	0.0154362
622.101	0.0151836
622.179	0.0155281
622.257	0.0158100
622.335	0.0156796
622.413	0.0154049
622.491	0.0152660
622.569	0.0153934
622.648	0.0152935
622.726	0.0155022
622.804	0.0156364
622.882	0.0157124
622.960	0.0156353
623.038	0.0154087
623.116	0.0156052
623.194	0.0155510
623.273	0.0155464
623.351	0.0156773
623.429	0.0155201
623.507	0.0154720
623.585	0.0156067
623.663	0.0156322
623.741	0.0156349
623.819	0.0154583
623.898	0.0155174
623.976	0.0156700
624.054	0.0154751
624.132	0.0156754
624.210	0.0153709
624.288	0.0154675
624.366	0.0153732
624.444	0.0155674
624.523	0.0157883
624.601	0.0156307
624.679	0.0154415
624.757	0.0154324
624.835	0.0155651
624.913	0.0154964
624.991	0.0154446
625.069	0.0156799
625.148	0.0159584
625.226	0.0152821
625.304	0.0155376
625.382	0.0155224
625.460	0.0156395
625.538	0.0158581
625.616	0.0156597
625.694	0.0156189
625.773	0.0157211
625.851	0.0154552
625.929	0.0155930
626.007	0.0154442
626.085	0.0156670
626.163	0.0154194
626.241	0.0153603
626.319	0.0154064
626.398	0.0154728
626.476	0.0155170
626.554	0.0155346
626.632	0.0157566
626.710	0.0156151
626.788	0.0154457
626.866	0.0155941
626.944	0.0153881
627.023	0.0154560
627.101	0.0155872
627.179	0.0156338
627.257	0.0154789
627.335	0.0152714
627.413	0.0155357
627.491	0.0154003
627.569	0.0154423
627.648	0.0156857
627.726	0.0151489
627.804	0.0157310
627.882	0.0155716
627.960	0.0154480
628.038	0.0154797
628.116	0.0153801
628.194	0.0156792
628.273	0.0154697
628.351	0.0155838
628.429	0.0156670
628.507	0.0155598
628.585	0.0156456
628.663	0.0153759
628.741	0.0154331
628.819	0.0157711
628.898	0.0159828
628.976	0.0154884
629.054	0.0155468
629.132	0.0154343
629.210	0.0155762
629.288	0.0156631
629.366	0.0156101
629.444	0.0155857
629.523	0.0155468
629.601	0.0155434
629.679	0.0154034
629.757	0.0157631
629.835	0.0153835
629.913	0.0154472
629.991	0.0156105
630.069	0.0156681
630.148	0.0156605
630.226	0.0153999
630.304	0.0154297
630.382	0.0154694
630.460	0.0153042
630.538	0.0154125
630.616	0.0154751
630.694	0.0153709
630.773	0.0152988
630.851	0.0153370
630.929	0.0152622
631.007	0.0154263
631.085	0.0155418
631.163	0.0157825
631.241	0.0155361
631.319	0.0154949
631.398	0.0157162
631.476	0.0151566
631.554	0.0153172
631.632	0.0154842
631.710	0.0155590
631.788	0.0156769
631.866	0.0154610
631.944	0.0154709
632.023	0.0150532
632.101	0.0158745
632.179	0.0155350
632.257	0.0157269
632.335	0.0154045
632.413	0.0154907
632.491	0.0157761
632.569	0.0156433
632.648	0.0155907
632.726	0.0153461
632.804	0.0154484
632.882	0.0158035
632.960	0.0157032
633.038	0.0156769
633.116	0.0155567
633.194	0.0153145
633.273	0.0153454
633.351	0.0152397
633.429	0.0154720
633.507	0.0152458
633.585	0.0152191
633.663	0.0155594
633.741	0.0155323
633.819	0.0154060
633.898	0.0154854
633.976	0.0153652
634.054	0.0154160
634.132	0.0156460
634.210	0.0152428
634.288	0.0153625
634.366	0.0155746
634.444	0.0153244
634.523	0.0153767
634.601	0.0152802
634.679	0.0156460
634.757	0.0155697
634.835	0.0155190
634.913	0.0159569
634.991	0.0152336
635.069	0.0151878
635.148	0.0152374
635.226	0.0153900
635.304	0.0154881
635.382	0.0153015
635.460	0.0153862
635.538	0.0155338
635.616	0.0157425
635.694	0.0150856
635.773	0.0151722
635.851	0.0151695
635.929	0.0149574
636.007	0.0153538
636.085	0.0154469
636.163	0.0155033
636.241	0.0153278
636.319	0.0153725
636.398	0.0156586
636.476	0.0155682
636.554	0.0155273
636.632	0.0153976
636.710	0.0156464
636.788	0.0154831
636.866	0.0156742
636.944	0.0155376
637.023	0.0154102
637.101	0.0154060
637.179	0.0155144
637.257	0.0157078
637.335	0.0154339
637.413	0.0154934
637.491	0.0155796
637.569	0.0157104
637.648	0.0154278
637.726	0.0155304
637.804	0.0155197
637.882	0.0156857
637.960	0.0154774
638.038	0.0157215
638.116	0.0154972
638.194	0.0154766
638.273	0.0156483
638.351	0.0157043
638.429	0.0155025
638.507	0.0154121
638.585	0.0153961
638.663	0.0153355
638.741	0.0155853
638.819	0.0155060
638.898	0.0156525
638.976	0.0156372
639.054	0.0154461
639.132	0.0152809
639.210	0.0152260
639.288	0.0157146
639.366	0.0156311
639.444	0.0155323
639.523	0.0155346
639.601	0.0156933
639.679	0.0152061
639.757	0.0153667
639.835	0.0152241
639.913	0.0155891
639.991	0.0154606
640.069	0.0154076
640.148	0.0155334
640.226	0.0157104
640.304	0.0156353
640.382	0.0154144
640.460	0.0154053
640.538	0.0152550
640.616	0.0152641
640.694	0.0152935
640.773	0.0157925
640.851	0.0153564
640.929	0.0153011
641.007	0.0156593
641.085	0.0157200
641.163	0.0154545
641.241	0.0155403
641.319	0.0154709
641.398	0.0156879
641.476	0.0153347
641.554	0.0154762
641.632	0.0156071
641.710	0.0155693
641.788	0.0155239
641.866	0.0156345
641.944	0.0152458
642.023	0.0154396
642.101	0.0155838
642.179	0.0154510
642.257	0.0158146
642.335	0.0154228
642.413	0.0153301
642.491	0.0156597
642.569	0.0152721
642.648	0.0154472
642.726	0.0154465
642.804	0.0153885
642.882	0.0154678
642.960	0.0154728
643.038	0.0153328
643.116	0.0157322
643.194	0.0154678
643.273	0.0154194
643.351	0.0156921
643.429	0.0154541
643.507	0.0154198
643.585	0.0152851
643.663	0.0157486
643.741	0.0155403
643.819	0.0153336
643.898	0.0155674
643.976	0.0155098
644.054	0.0155380
644.132	0.0153625
644.210	0.0155727
644.288	0.0154060
644.366	0.0154423
644.444	0.0153004
644.523	0.0159775
644.601	0.0156479
644.679	0.0153091
644.757	0.0155163
644.835	0.0154854
644.913	0.0153019
644.991	0.0157730
645.069	0.0157505
645.148	0.0155590
645.226	0.0153915
645.304	0.0155224
645.382	0.0153946
645.460	0.0156868
645.538	0.0154831
645.616	0.0154819
645.694	0.0154694
645.773	0.0155144
645.851	0.0155140
645.929	0.0154881
646.007	0.0155231
646.085	0.0154377
646.163	0.0153614
646.241	0.0155998
646.319	0.0153770
646.398	0.0156506
646.476	0.0154202
646.554	0.0155510
646.632	0.0156300
646.710	0.0156204
646.788	0.0153706
646.866	0.0152805
646.944	0.0154865
647.023	0.0152519
647.101	0.0154396
647.179	0.0158077
647.257	0.0155022
647.335	0.0155266
647.413	0.0156319
647.491	0.0156609
647.569	0.0158169
647.648	0.0156036
647.726	0.0154373
647.804	0.0156120
647.882	0.0156372
647.960	0.0156208
648.038	0.0155861
648.116	0.0158401
648.194	0.0157345
648.273	0.0158360
648.351	0.0152798
648.429	0.0155800
648.507	0.0154606
648.585	0.0155609
648.663	0.0154606
648.741	0.0155743
648.819	0.0156487
648.898	0.0155071
648.976	0.0156261
649.054	0.0158230
649.132	0.0157082
649.210	0.0151421
649.288	0.0153252
649.366	0.0160423
649.444	0.0157318
649.523	0.0153748
649.601	0.0155842
649.679	0.0156109
649.757	0.0153889
649.835	0.0155251
649.913	0.0156311
649.991	0.0151291
650.069	0.0150764
650.148	0.0154827
650.226	0.0158348
650.304	0.0156723
650.382	0.0152668
650.460	0.0154816
650.538	0.0154537
650.616	0.0155468
650.694	0.0155773
650.773	0.0153996
650.851	0.0154301
650.929	0.0154213
651.007	0.0153286
651.085	0.0157528
651.163	0.0158009
651.241	0.0155445
651.319	0.0155159
651.398	0.0154900
651.476	0.0154884
651.554	0.0157555
651.632	0.0154675
651.710	0.0155434
651.788	0.0154892
651.866	0.0157383
651.944	0.0153179
652.023	0.0155708
652.101	0.0158424
652.179	0.0157223
652.257	0.0155659
652.335	0.0156960
652.413	0.0154312
652.491	0.0155975
652.569	0.0157246
652.648	0.0156307
652.726	0.0154842
652.804	0.0152306
652.882	0.0154484
652.960	0.0152122
653.038	0.0154972
653.116	0.0157784
653.194	0.0156075
653.273	0.0156792
653.351	0.0155209
653.429	0.0156757
653.507	0.0152443
653.585	0.0154564
653.663	0.0157619
653.741	0.0154697
653.819	0.0156403
653.898	0.0153454
653.976	0.0156948
654.054	0.0156952
654.132	0.0156746
654.210	0.0155254
654.288	0.0156055
654.366	0.0155319
654.444	0.0154774
654.523	0.0155293
654.601	0.0154362
654.679	0.0152035
654.757	0.0154835
654.835	0.0155720
654.913	0.0156013
654.991	0.0153439
655.069	0.0154068
655.148	0.0154663
655.226	0.0156311
655.304	0.0154633
655.382	0.0154984
655.460	0.0154366
655.538	0.0151657
655.616	0.0155670
655.694	0.0154594
655.773	0.0152042
655.851	0.0156185
655.929	0.0153706
656.007	0.0153072
656.085	0.0154976
656.163	0.0156208
656.241	0.0156803
656.319	0.0154953
656.398	0.0153240
656.476	0.0153030
656.554	0.0154083
656.632	0.0157127
656.710	0.0154972
656.788	0.0153858
656.866	0.0155396
656.944	0.0154297
657.023	0.0155876
657.101	0.0156151
657.179	0.0156738
657.257	0.0156967
657.335	0.0156460
657.413	0.0152340
657.491	0.0155998
657.569	0.0155479
657.648	0.0157131
657.726	0.0158184
657.804	0.0154903
657.882	0.0156822
657.960	0.0156612
658.038	0.0159534
658.116	0.0156223
658.194	0.0154606
658.273	0.0154362
658.351	0.0156113
658.429	0.0155708
658.507	0.0155888
658.585	0.0156281
658.663	0.0155273
658.741	0.0156265
658.819	0.0157421
658.898	0.0158371
658.976	0.0158306
659.054	0.0156376
659.132	0.0154984
659.210	0.0157738
659.288	0.0155910
659.366	0.0159859
659.444	0.0156345
659.523	0.0154430
659.601	0.0161194
659.679	0.0155689
659.757	0.0157028
659.835	0.0159515
659.913	0.0156258
659.991	0.0158421
660.069	0.0158775
660.148	0.0157749
660.226	0.0156544
660.304	0.0160671
660.382	0.0157162
660.460	0.0158054
660.538	0.0153454
660.616	0.0156151
660.694	0.0154270
660.773	0.0154617
660.851	0.0156841
660.929	0.0153042
661.007	0.0155041
661.085	0.0159973
661.163	0.0155552
661.241	0.0156597
661.319	0.0156116
661.398	0.0155655
661.476	0.0151974
661.554	0.0154552
661.632	0.0154011
661.710	0.0156212
661.788	0.0155239
661.866	0.0155739
661.944	0.0153095
662.023	0.0153099
662.101	0.0154476
662.179	0.0154472
662.257	0.0156124
662.335	0.0150497
662.413	0.0154312
662.491	0.0154648
662.569	0.0154278
662.648	0.0155445
662.726	0.0151489
662.804	0.0154285
662.882	0.0157276
662.960	0.0155071
663.038	0.0153603
663.116	0.0153019
663.194	0.0155991
663.273	0.0153770
663.351	0.0153526
663.429	0.0154942
663.507	0.0154114
663.585	0.0157043
663.663	0.0154011
663.741	0.0155857
663.819	0.0156246
663.898	0.0153881
663.976	0.0152504
664.054	0.0155785
664.132	0.0155132
664.210	0.0151730
664.288	0.0154690
664.366	0.0156879
664.444	0.0155422
664.523	0.0155869
664.601	0.0150829
664.679	0.0152729
664.757	0.0154556
664.835	0.0154720
664.913	0.0151249
664.991	0.0154240
665.069	0.0150955
665.148	0.0153320
665.226	0.0151817
665.304	0.0153820
665.382	0.0157486
665.460	0.0155636
665.538	0.0152920
665.616	0.0154129
665.694	0.0151657
665.773	0.0155056
665.851	0.0152981
665.929	0.0152832
666.007	0.0151394
666.085	0.0153446
666.163	0.0155022
666.241	0.0153229
666.319	0.0150818
666.398	0.0157490
666.476	0.0156963
666.554	0.0152637
666.632	0.0154987
666.710	0.0155621
666.788	0.0153782
666.866	0.0154778
666.944	0.0156483
667.023	0.0156197
667.101	0.0153801
667.179	0.0154072
667.257	0.0153717
667.335	0.0158619
667.413	0.0152405
667.491	0.0154625
667.569	0.0154488
667.648	0.0154930
667.726	0.0156532
667.804	0.0155949
667.882	0.0155956
667.960	0.0158176
668.038	0.0154892
668.116	0.0154606
668.194	0.0155510
668.273	0.0156765
668.351	0.0152210
668.429	0.0154697
668.507	0.0155655
668.585	0.0158104
668.663	0.0153954
668.741	0.0156418
668.819	0.0153534
668.898	0.0156685
668.976	0.0159607
669.054	0.0155941
669.132	0.0155605
669.210	0.0157978
669.288	0.0159492
669.366	0.0158566
669.444	0.0156937
669.523	0.0156044
669.601	0.0157654
669.679	0.0157642
669.757	0.0156223
669.835	0.0159443
669.913	0.0159836
669.991	0.0160103
670.069	0.0158203
670.148	0.0157139
670.226	0.0155659
670.304	0.0156849
670.382	0.0159229
670.460	0.0155640
670.538	0.0158764
670.616	0.0158638
670.694	0.0159702
670.773	0.0159782
670.851	0.0155838
670.929	0.0159706
671.007	0.0158398
671.085	0.0158375
671.163	0.0156246
671.241	0.0156067
671.319	0.0160053
671.398	0.0159565
671.476	0.0159554
671.554	0.0156651
671.632	0.0158909
671.710	0.0157768
671.788	0.0158504
671.866	0.0156021
671.944	0.0158474
672.023	0.0158817
672.101	0.0159164
672.179	0.0158749
672.257	0.0160156
672.335	0.0161854
672.413	0.0160381
672.491	0.0158085
672.569	0.0157848
672.648	0.0159416
672.726	0.0157604
672.804	0.0155605
672.882	0.0155827
672.960	0.0159019
673.038	0.0157272
673.116	0.0154812
673.194	0.0159756
673.273	0.0163143
673.351	0.0159443
673.429	0.0159222
673.507	0.0159504
673.585	0.0159790
673.663	0.0155903
673.741	0.0157646
673.819	0.0160019
673.898	0.0156963
673.976	0.0157890
674.054	0.0156460
674.132	0.0156811
674.210	0.0157738
674.288	0.0157013
674.366	0.0158981
674.444	0.0157871
674.523	0.0157715
674.601	0.0157063
674.679	0.0159016
674.757	0.0157749
674.835	0.0156059
674.913	0.0155586
674.991	0.0155605
675.069	0.0155678
675.148	0.0155487
675.226	0.0157017
675.304	0.0155750
675.382	0.0152760
675.460	0.0152615
675.538	0.0154476
675.616	0.0154488
675.694	0.0154011
675.773	0.0151749
675.851	0.0151405
675.929	0.0151493
676.007	0.0150631
676.085	0.0150677
676.163	0.0151108
676.241	0.0148464
676.319	0.0148605
676.398	0.0149284
676.476	0.0148209
676.554	0.0148560
676.632	0.0149162
676.710	0.0149170
676.788	0.0149628
676.866	0.0151909
676.944	0.0147053
677.023	0.0150536
677.101	0.0149624
677.179	0.0152966
677.257	0.0155216
677.335	0.0151615
677.413	0.0153328
677.491	0.0152905
677.569	0.0153477
677.648	0.0152164
677.726	0.0154449
677.804	0.0154770
677.882	0.0155865
677.960	0.0152203
678.038	0.0155792
678.116	0.0157349
678.194	0.0153824
678.273	0.0157257
678.351	0.0152023
678.429	0.0152126
678.507	0.0154114
678.585	0.0152752
678.663	0.0150631
678.741	0.0151051
678.819	0.0151413
678.898	0.0147171
678.976	0.0149158
679.054	0.0150837
679.132	0.0144341
679.210	0.0148079
679.288	0.0149769
679.366	0.0148521
679.444	0.0149124
679.523	0.0149307
679.601	0.0146900
679.679	0.0147545
679.757	0.0145462
679.835	0.0145767
679.913	0.0145931
679.991	0.0146313
680.069	0.0145702
680.148	0.0148041
680.226	0.0145515
680.304	0.0147156
680.382	0.0145454
680.460	0.0145844
680.538	0.0147442
680.616	0.0146904
680.694	0.0147850
680.773	0.0145729
680.851	0.0146954
680.929	0.0144863
681.007	0.0144665
681.085	0.0145718
681.163	0.0144249
681.241	0.0140965
681.319	0.0143520
681.398	0.0139942
681.476	0.0139851
681.554	0.0139191
681.632	0.0136723
681.710	0.0136871
681.788	0.0141819
681.866	0.0137180
681.944	0.0135426
682.023	0.0131985
682.101	0.0134720
682.179	0.0134670
682.257	0.0132305
682.335	0.0131577
682.413	0.0133926
682.491	0.0130028
682.569	0.0129971
682.648	0.0128910
682.726	0.0129845
682.804	0.0130074
682.882	0.0128849
682.960	0.0126434
683.038	0.0128494
683.116	0.0127560
683.194	0.0127968
683.273	0.0126900
683.351	0.0130459
683.429	0.0131134
683.507	0.0129425
683.585	0.0126732
683.663	0.0127335
683.741	0.0127316
683.819	0.0125996
683.898	0.0125469
683.976	0.0125923
684.054	0.0126080
684.132	0.0126114
684.210	0.0121582
684.288	0.0119801
684.366	0.0119907
684.444	0.0117973
684.523	0.0115955
684.601	0.0116890
684.679	0.0115730
684.757	0.0114651
684.835	0.0108196
684.913	0.0110283
684.991	0.0106972
685.069	0.0109947
685.148	0.0101498
685.226	0.00983658
685.304	0.00925674
685.382	0.00886688
685.460	0.00895576
685.538	0.00833969
685.616	0.00773048
685.694	0.00728951
685.773	0.00699310
685.851	0.00627708
685.929	0.00573578
686.007	0.00509338
686.085	0.00452461
686.163	0.00388641
686.241	0.00283546
686.319	0.00230980
686.398	0.00142365
686.476	0.000436783
686.554	-0.000415421
686.632	-0.00112915
686.710	-0.00204735
686.788	-0.00334167
686.866	-0.00469704
686.944	-0.00555305
687.023	-0.00670204
687.101	-0.00778732
687.179	-0.00874023
687.257	-0.0101799
687.335	-0.0109585
687.413	-0.0122181
687.491	-0.0135288
687.569	-0.0143589
687.648	-0.0159054
687.726	-0.0170868
687.804	-0.0184757
687.882	-0.0196678
687.960	-0.0202881
688.038	-0.0198483
688.116	-0.0186188
688.194	-0.0156334
688.273	-0.0107399
688.351	-0.00299492
688.429	0.00819740
688.507	0.0219025
688.585	0.0393463
688.663	0.0591919
688.741	0.0810143
688.819	0.104810
688.898	0.128960
688.976	0.153181
689.054	0.175567
689.132	0.195877
689.210	0.212864
689.288	0.226602
689.366	0.236013
689.444	0.241267
689.523	0.242318
689.601	0.238919
689.679	0.231625
689.757	0.220409
689.835	0.206203
689.913	0.189249
689.991	0.170480
690.069	0.149240
690.148	0.126513
690.226	0.102401
690.304	0.0776997
690.382	0.0524773
690.460	0.0268791
690.538	0.00142136
690.616	-0.0233089
690.694	-0.0458706
690.773	-0.0670376
690.851	-0.0857380
690.929	-0.101231
691.007	-0.113883
691.085	-0.122856
691.163	-0.128656
691.241	-0.130968
691.319	-0.130208
691.398	-0.127006
691.476	-0.120723
691.554	-0.113320
691.632	-0.104318
691.710	-0.0949974
691.788	-0.0852322
691.866	-0.0754791
691.944	-0.0658772
692.023	-0.0572811
692.101	-0.0502026
692.179	-0.0430912
692.257	-0.0369438
692.335	-0.0322182
692.413	-0.0280216
692.491	-0.0248741
692.569	-0.0221272
692.648	-0.0197277
692.726	-0.0180733
692.804	-0.0168835
692.882	-0.0164848
692.960	-0.0156635
693.038	-0.0153286
693.116	-0.0145878
693.194	-0.0143700
693.273	-0.0137928
693.351	-0.0130573
693.429	-0.0123425
693.507	-0.0118145
693.585	-0.0107719
693.663	-0.00999374
693.741	-0.00902252
693.819	-0.00677681
693.898	-0.00516510
693.976	-0.00343170
694.054	-0.00114670
694.132	0.000658035
694.210	0.00282326
694.288	0.00415230
694.366	0.00594025
694.444	0.00712433
694.523	0.00773163
694.601	0.00839157
694.679	0.00891685
694.757	0.00915070
694.835	0.00938377
694.913	0.00967484
694.991	0.00914879
695.069	0.00880966
695.148	0.00831604
695.226	0.00828934
695.304	0.00806122
695.382	0.00723267
695.460	0.00747490
695.538	0.00722008
695.616	0.00716934
695.694	0.00737381
695.773	0.00690079
695.851	0.00733757
695.929	0.00773621
696.007	0.00830040
696.085	0.00903473
696.163	0.00988922
696.241	0.0109886
696.319	0.0126320
696.398	0.0136272
696.476	0.0151020
696.554	0.0163040
696.632	0.0178326
696.710	0.0191666
696.788	0.0207672
696.866	0.0223278
696.944	0.0238228
697.023	0.0253883
697.101	0.0271343
697.179	0.0290607
697.257	0.0307026
697.335	0.0325264
697.413	0.0334759
697.491	0.0347462
697.569	0.0362690
697.648	0.0367626
697.726	0.0369656
697.804	0.0368862
697.882	0.0370209
697.960	0.0365753
698.038	0.0358620
698.116	0.0350582
698.194	0.0338223
698.273	0.0328011
698.351	0.0313057
698.429	0.0301506
698.507	0.0290691
698.585	0.0282772
698.663	0.0277298
698.741	0.0270554
698.819	0.0267067
698.898	0.0262371
698.976	0.0263725
699.054	0.0270885
699.132	0.0276905
699.210	0.0284931
699.288	0.0295765
699.366	0.0301956
699.444	0.0309917
699.523	0.0319714
699.601	0.0328918
699.679	0.0334187
699.757	0.0342564
699.835	0.0347248
699.913	0.0351555
699.991	0.0351032
700.069	0.0351189
700.148	0.0350761
700.226	0.0347366
700.304	0.0338959
700.382	0.0332684
700.460	0.0316967
700.538	0.0303703
700.616	0.0290497
700.694	0.0277260
700.773	0.0256836
700.851	0.0239681
700.929	0.0226299
701.007	0.0208355
701.085	0.0187550
701.163	0.0171989
701.241	0.0155544
701.319	0.0142490
701.398	0.0126354
701.476	0.0115524
701.554	0.0106377
701.632	0.00971870
701.710	0.00929146
701.788	0.00898857
701.866	0.00871201
701.944	0.00869560
702.023	0.00885696
702.101	0.00936241
702.179	0.00938454
702.257	0.00981140
702.335	0.0104519
702.413	0.0104740
702.491	0.0113071
702.569	0.0118420
702.648	0.0122547
702.726	0.0126675
702.804	0.0131107
702.882	0.0134792
702.960	0.0140217
703.038	0.0140343
703.116	0.0137596
703.194	0.0136333
703.273	0.0132809
703.351	0.0130943
703.429	0.0129356
703.507	0.0123249
703.585	0.0119267
703.663	0.0116150
703.741	0.0114536
703.819	0.0111576
703.898	0.0112190
703.976	0.0112385
704.054	0.0114006
704.132	0.0111767
704.210	0.0114338
704.288	0.0116528
704.366	0.0117840
704.444	0.0121445
704.523	0.0122421
704.601	0.0124203
704.679	0.0126873
704.757	0.0131012
704.835	0.0129078
704.913	0.0130516
704.991	0.0127792
705.069	0.0127724
705.148	0.0125145
705.226	0.0127899
705.304	0.0127876
705.382	0.0128368
705.460	0.0128677
705.538	0.0129745
705.616	0.0136375
705.694	0.0135612
705.773	0.0141373
705.851	0.0140961
705.929	0.0147011
706.007	0.0150452
706.085	0.0154064
706.163	0.0156998
706.241	0.0158184
706.319	0.0160946
706.398	0.0167797
706.476	0.0171375
706.554	0.0173424
706.632	0.0174316
706.710	0.0171909
706.788	0.0174599
706.866	0.0171471
706.944	0.0173122
707.023	0.0172825
707.101	0.0173866
707.179	0.0169788
707.257	0.0166676
707.335	0.0166191
707.413	0.0163422
707.491	0.0164085
707.569	0.0162956
707.648	0.0162518
707.726	0.0163368
707.804	0.0163998
707.882	0.0166950
707.960	0.0166801
708.038	0.0170113
708.116	0.0173428
708.194	0.0172905
708.273	0.0177708
708.351	0.0171650
708.429	0.0171421
708.507	0.0166409
708.585	0.0166058
708.663	0.0155819
708.741	0.0151768
708.819	0.0144577
708.898	0.0140495
708.976	0.0137112
709.054	0.0132484
709.132	0.0130157
709.210	0.0126797
709.288	0.0131248
709.366	0.0133137
709.444	0.0135429
709.523	0.0142200
709.601	0.0146786
709.679	0.0150723
709.757	0.0154377
709.835	0.0161217
709.913	0.0164490
709.991	0.0165466
710.069	0.0172760
710.148	0.0173916
710.226	0.0177242
710.304	0.0179066
710.382	0.0184727
710.460	0.0186852
710.538	0.0188972
710.616	0.0193550
710.694	0.0195961
710.773	0.0201054
710.851	0.0201565
710.929	0.0204834
711.007	0.0207870
711.085	0.0207973
711.163	0.0209946
711.241	0.0211769
711.319	0.0211620
711.398	0.0213425
711.476	0.0211262
711.554	0.0213669
711.632	0.0210602
711.710	0.0212673
711.788	0.0212585
711.866	0.0215290
711.944	0.0214291
712.023	0.0215656
712.101	0.0217514
712.179	0.0217499
712.257	0.0216770
712.335	0.0213020
712.413	0.0214958
712.491	0.0215351
712.569	0.0217136
712.648	0.0213902
712.726	0.0214241
712.804	0.0212852
712.882	0.0205601
712.960	0.0209595
713.038	0.0206841
713.116	0.0202339
713.194	0.0202873
713.273	0.0201183
713.351	0.0200897
713.429	0.0196205
713.507	0.0189053
713.585	0.0188202
713.663	0.0181335
713.741	0.0171143
713.819	0.0164047
713.898	0.0155609
713.976	0.0145847
714.054	0.0136639
714.132	0.0131348
714.210	0.0121330
714.288	0.0108456
714.366	0.0103394
714.444	0.00953064
714.523	0.00852928
714.601	0.00841675
714.679	0.00835457
714.757	0.00794029
714.835	0.00785332
714.913	0.00783310
714.991	0.00787773
715.069	0.00801926
715.148	0.00820541
715.226	0.00834312
715.304	0.00837479
715.382	0.00833321
715.460	0.00839348
715.538	0.00847397
715.616	0.00845108
715.694	0.00866661
715.773	0.00897255
715.851	0.00919495
715.929	0.00941734
716.007	0.00934372
716.085	0.00964508
716.163	0.0102173
716.241	0.0105011
716.319	0.0106239
716.398	0.0112247
716.476	0.0115448
716.554	0.0116238
716.632	0.0115944
716.710	0.0121422
716.788	0.0125584
716.866	0.0124741
716.944	0.0124504
717.023	0.0126896
717.101	0.0130013
717.179	0.0129848
717.257	0.0127163
717.335	0.0130379
717.413	0.0132816
717.491	0.0127773
717.569	0.0125263
717.648	0.0128532
717.726	0.0126186
717.804	0.0127640
717.882	0.0127586
717.960	0.0125538
718.038	0.0130577
718.116	0.0130585
718.194	0.0128586
718.273	0.0132771
718.351	0.0136120
718.429	0.0138409
718.507	0.0145546
718.585	0.0147141
718.663	0.0145996
718.741	0.0150314
718.819	0.0154514
718.898	0.0157093
718.976	0.0157402
719.054	0.0162529
719.132	0.0161308
719.210	0.0162209
719.288	0.0164188
719.366	0.0159477
719.444	0.0160713
719.523	0.0161518
719.601	0.0162571
719.679	0.0161385
719.757	0.0160172
719.835	0.0158787
719.913	0.0159107
719.991	0.0159161
720.069	0.0161957
720.148	0.0160763
720.226	0.0161270
720.304	0.0162342
720.382	0.0160664
720.460	0.0160900
720.538	0.0159363
720.616	0.0157631
720.694	0.0158604
720.773	0.0156204
720.851	0.0154358
720.929	0.0150158
721.007	0.0150452
721.085	0.0147091
721.163	0.0143852
721.241	0.0146069
721.319	0.0142216
721.398	0.0140236
721.476	0.0137848
721.554	0.0136288
721.632	0.0136322
721.710	0.0133499
721.788	0.0135826
721.866	0.0133034
721.944	0.0130058
722.023	0.0132511
722.101	0.0134075
722.179	0.0131874
722.257	0.0126827
722.335	0.0124718
722.413	0.0126194
722.491	0.0126366
722.569	0.0120403
722.648	0.0120338
722.726	0.0117016
722.804	0.0113056
722.882	0.0112331
722.960	0.0109535
723.038	0.0107559
723.116	0.0103725
723.194	0.0100349
723.273	0.0101849
723.351	0.00996628
723.429	0.00980873
723.507	0.00954208
723.585	0.00954094
723.663	0.00993385
723.741	0.0102417
723.819	0.0106174
723.898	0.0112701
723.976	0.0118610
724.054	0.0124523
724.132	0.0132137
724.210	0.0140949
724.288	0.0142948
724.366	0.0146259
724.444	0.0152325
724.523	0.0155575
724.601	0.0159393
724.679	0.0162056
724.757	0.0161533
724.835	0.0166962
724.913	0.0167126
724.991	0.0165901
725.069	0.0166992
725.148	0.0168888
725.226	0.0167656
725.304	0.0167843
725.382	0.0173256
725.460	0.0171890
725.538	0.0174496
725.616	0.0178116
725.694	0.0177956
725.773	0.0177113
725.851	0.0180336
725.929	0.0182117
726.007	0.0180313
726.085	0.0180408
726.163	0.0179073
726.241	0.0181702
726.319	0.0178490
726.398	0.0176098
726.476	0.0173851
726.554	0.0172791
726.632	0.0173916
726.710	0.0175686
726.788	0.0175621
726.866	0.0178783
726.944	0.0175587
727.023	0.0176945
727.101	0.0177895
727.179	0.0178455
727.257	0.0178307
727.335	0.0175781
727.413	0.0177959
727.491	0.0180538
727.569	0.0179192
727.648	0.0183029
727.726	0.0180031
727.804	0.0181034
727.882	0.0185402
727.960	0.0186359
728.038	0.0186138
728.116	0.0186245
728.194	0.0187428
728.273	0.0185856
728.351	0.0187309
728.429	0.0188107
728.507	0.0189747
728.585	0.0189529
728.663	0.0188534
728.741	0.0187263
728.819	0.0186672
728.898	0.0186245
728.976	0.0188271
729.054	0.0186337
729.132	0.0189316
729.210	0.0187984
729.288	0.0191784
729.366	0.0191322
729.444	0.0197479
729.523	0.0195583
729.601	0.0195583
729.679	0.0199238
729.757	0.0198158
729.835	0.0193573
729.913	0.0193783
729.991	0.0193535
730.069	0.0186359
730.148	0.0183773
730.226	0.0184124
730.304	0.0180500
730.382	0.0174282
730.460	0.0170753
730.538	0.0173851
730.616	0.0172520
730.694	0.0169682
730.773	0.0170753
730.851	0.0168858
730.929	0.0172176
731.007	0.0169056
731.085	0.0170052
731.163	0.0170883
731.241	0.0170734
731.319	0.0170177
731.398	0.0170074
731.476	0.0166843
731.554	0.0163280
731.632	0.0160183
731.710	0.0157288
731.788	0.0155457
731.866	0.0153187
731.944	0.0149158
732.023	0.0149990
732.101	0.0147224
732.179	0.0146423
732.257	0.0147038
732.335	0.0148819
732.413	0.0145763
732.491	0.0146194
732.569	0.0143932
732.648	0.0141979
732.726	0.0145164
732.804	0.0145412
732.882	0.0146255
732.960	0.0149555
733.038	0.0148914
733.116	0.0151981
733.194	0.0153336
733.273	0.0153210
733.351	0.0156334
733.429	0.0157875
733.507	0.0158657
733.585	0.0159122
733.663	0.0159267
733.741	0.0157169
733.819	0.0157757
733.898	0.0159580
733.976	0.0158936
734.054	0.0158344
734.132	0.0153084
734.210	0.0155510
734.288	0.0154598
734.366	0.0151371
734.444	0.0149765
734.523	0.0152584
734.601	0.0150002
734.679	0.0153885
734.757	0.0154594
734.835	0.0153358
734.913	0.0151657
734.991	0.0150047
735.069	0.0151901
735.148	0.0150871
735.226	0.0151718
735.304	0.0148830
735.382	0.0148800
735.460	0.0144485
735.538	0.0144291
735.616	0.0143581
735.694	0.0141655
735.773	0.0138241
735.851	0.0137135
735.929	0.0137375
736.007	0.0136406
736.085	0.0137085
736.163	0.0135910
736.241	0.0132915
736.319	0.0136772
736.398	0.0136005
736.476	0.0135540
736.554	0.0136074
736.632	0.0136429
736.710	0.0139343
736.788	0.0138500
736.866	0.0138340
736.944	0.0140549
737.023	0.0142460
737.101	0.0145176
737.179	0.0144787
737.257	0.0151031
737.335	0.0151752
737.413	0.0153736
737.491	0.0158489
737.569	0.0157825
737.648	0.0159748
737.726	0.0160332
737.804	0.0166340
737.882	0.0169083
737.960	0.0170609
738.038	0.0176079
738.116	0.0181778
738.194	0.0185772
738.273	0.0185177
738.351	0.0191322
738.429	0.0192307
738.507	0.0203728
738.585	0.0207825
738.663	0.0210369
738.741	0.0213219
738.819	0.0218029
738.898	0.0221931
738.976	0.0225307
739.054	0.0225956
739.132	0.0226307
739.210	0.0227352
739.288	0.0222832
739.366	0.0219727
739.444	0.0210194
739.523	0.0201523
739.601	0.0193516
739.679	0.0178658
739.757	0.0170063
739.835	0.0157887
739.913	0.0145638
739.991	0.0135326
740.069	0.0125160
740.148	0.0116917
740.226	0.0109646
740.304	0.0104679
740.382	0.00971146
740.460	0.00906029
740.538	0.00862122
740.616	0.00842209
740.694	0.00808334
740.773	0.00816727
740.851	0.00757790
740.929	0.00800362
741.007	0.00803223
741.085	0.00841217
741.163	0.00890388
741.241	0.00901909
741.319	0.00983925
741.398	0.0102215
741.476	0.0108501
741.554	0.0116257
741.632	0.0122028
741.710	0.0126011
741.788	0.0130890
741.866	0.0139229
741.944	0.0143269
742.023	0.0147602
742.101	0.0149628
742.179	0.0153080
742.257	0.0157818
742.335	0.0158566
742.413	0.0161484
742.491	0.0160641
742.569	0.0159302
742.648	0.0157585
742.726	0.0158974
742.804	0.0155407
742.882	0.0152821
742.960	0.0150894
743.038	0.0147560
743.116	0.0148457
743.194	0.0143082
743.273	0.0141300
743.351	0.0137665
743.429	0.0139946
743.507	0.0137463
743.585	0.0134987
743.663	0.0136589
743.741	0.0139881
743.819	0.0137100
743.898	0.0137848
743.976	0.0138386
744.054	0.0137199
744.132	0.0137920
744.210	0.0138836
744.288	0.0137638
744.366	0.0134796
744.444	0.0136887
744.523	0.0134258
744.601	0.0133522
744.679	0.0132595
744.757	0.0132866
744.835	0.0134342
744.913	0.0139339
744.991	0.0139969
745.069	0.0143116
745.148	0.0145115
745.226	0.0149643
745.304	0.0155521
745.382	0.0159462
745.460	0.0160149
745.538	0.0167053
745.616	0.0170368
745.694	0.0175083
745.773	0.0175999
745.851	0.0176514
745.929	0.0177441
746.007	0.0175339
746.085	0.0176311
746.163	0.0177773
746.241	0.0182339
746.319	0.0174351
746.398	0.0174927
746.476	0.0176369
746.554	0.0175297
746.632	0.0172523
746.710	0.0165855
746.788	0.0171761
746.866	0.0168987
746.944	0.0166149
747.023	0.0168449
747.101	0.0163696
747.179	0.0163834
747.257	0.0162086
747.335	0.0161991
747.413	0.0164425
747.491	0.0161304
747.569	0.0164532
747.648	0.0165146
747.726	0.0161438
747.804	0.0162125
747.882	0.0163567
747.960	0.0164585
748.038	0.0161518
748.116	0.0168465
748.194	0.0166210
748.273	0.0163967
748.351	0.0164822
748.429	0.0166687
748.507	0.0166504
748.585	0.0163307
748.663	0.0162907
748.741	0.0162910
748.819	0.0161312
748.898	0.0161457
748.976	0.0162617
749.054	0.0167442
749.132	0.0165668
749.210	0.0168472
749.288	0.0170101
749.366	0.0169582
749.444	0.0170322
749.523	0.0170132
749.601	0.0168865
749.679	0.0168182
749.757	0.0168591
749.835	0.0167564
749.913	0.0168659
749.991	0.0167652
750.069	0.0166271
750.148	0.0163536
750.226	0.0161846
750.304	0.0158997
750.382	0.0158939
750.460	0.0159363
750.538	0.0158531
750.616	0.0161701
750.694	0.0156765
750.773	0.0157547
750.851	0.0157772
750.929	0.0157391
751.007	0.0157772
751.085	0.0158142
751.163	0.0157078
751.241	0.0155087
751.319	0.0153301
751.398	0.0155231
751.476	0.0157616
751.554	0.0154655
751.632	0.0156258
751.710	0.0158817
751.788	0.0156578
751.866	0.0158806
751.944	0.0161690
752.023	0.0159588
752.101	0.0165325
752.179	0.0163086
752.257	0.0163586
752.335	0.0163284
752.413	0.0164181
752.491	0.0167038
752.569	0.0164890
752.648	0.0165482
752.726	0.0166660
752.804	0.0167881
752.882	0.0166092
752.960	0.0166245
753.038	0.0164177
753.116	0.0160381
753.194	0.0163132
753.273	0.0162998
753.351	0.0161388
753.429	0.0162895
753.507	0.0158863
753.585	0.0161430
753.663	0.0158047
753.741	0.0157223
753.819	0.0153294
753.898	0.0154221
753.976	0.0155319
754.054	0.0150177
754.132	0.0149078
754.210	0.0149532
754.288	0.0151089
754.366	0.0148212
754.444	0.0148315
754.523	0.0151245
754.601	0.0152302
754.679	0.0152496
754.757	0.0152145
754.835	0.0150848
754.913	0.0152298
754.991	0.0153286
755.069	0.0153687
755.148	0.0149513
755.226	0.0150227
755.304	0.0150547
755.382	0.0150677
755.460	0.0150017
755.538	0.0147404
755.616	0.0147152
755.694	0.0144379
755.773	0.0145920
755.851	0.0144260
755.929	0.0143345
756.007	0.0146950
756.085	0.0148209
756.163	0.0148109
756.241	0.0146542
756.319	0.0147499
756.398	0.0148582
756.476	0.0150410
756.554	0.0148354
756.632	0.0147327
756.710	0.0146072
756.788	0.0145851
756.866	0.0147617
756.944	0.0147141
757.023	0.0147495
757.101	0.0149403
757.179	0.0150242
757.257	0.0152225
757.335	0.0152786
757.413	0.0149757
757.491	0.0153286
757.569	0.0153446
757.648	0.0154156
757.726	0.0153709
757.804	0.0152382
757.882	0.0153214
757.960	0.0148151
758.038	0.0151783
758.116	0.0149578
758.194	0.0149590
758.273	0.0149651
758.351	0.0148861
758.429	0.0147060
758.507	0.0149086
758.585	0.0146015
758.663	0.0143696
758.741	0.0142670
758.819	0.0143204
758.898	0.0141876
758.976	0.0143478
759.054	0.0138550
759.132	0.0137104
759.210	0.0134476
759.288	0.0135075
759.366	0.0134327
759.444	0.0136230
759.523	0.0137051
759.601	0.0131187
759.679	0.0131878
759.757	0.0133060
759.835	0.0133114
759.913	0.0134632
759.991	0.0132683
760.069	0.0136402
760.148	0.0132637
760.226	0.0132908
760.304	0.0140114
760.382	0.0136002
760.460	0.0136265
760.538	0.0136406
760.616	0.0137318
760.694	0.0140060
760.773	0.0137203
760.851	0.0138771
760.929	0.0142624
761.007	0.0141602
761.085	0.0139660
761.163	0.0140774
761.241	0.0142494
761.319	0.0142109
761.398	0.0143482
761.476	0.0147633
761.554	0.0151318
761.632	0.0149654
761.710	0.0153084
761.788	0.0149204
761.866	0.0149151
761.944	0.0152672
762.023	0.0153614
762.101	0.0156521
762.179	0.0151703
762.257	0.0153557
762.335	0.0157795
762.413	0.0158531
762.491	0.0154839
762.569	0.0156864
762.648	0.0159943
762.726	0.0160995
762.804	0.0162159
762.882	0.0163132
762.960	0.0161449
763.038	0.0167664
763.116	0.0161270
763.194	0.0160728
763.273	0.0163502
763.351	0.0166882
763.429	0.0161831
763.507	0.0160172
763.585	0.0162449
763.663	0.0158398
763.741	0.0158401
763.819	0.0157810
763.898	0.0157379
763.976	0.0162899
764.054	0.0159843
764.132	0.0158707
764.210	0.0156582
764.288	0.0155796
764.366	0.0155521
764.444	0.0154205
764.523	0.0151443
764.601	0.0155521
764.679	0.0155910
764.757	0.0154354
764.835	0.0160740
764.913	0.0158749
764.991	0.0158623
765.069	0.0163177
765.148	0.0161861
765.226	0.0166183
765.304	0.0167942
765.382	0.0166672
765.460	0.0169453
765.538	0.0172100
765.616	0.0169899
765.694	0.0173359
765.773	0.0168819
765.851	0.0164513
765.929	0.0166901
766.007	0.0165672
766.085	0.0162788
766.163	0.0158112
766.241	0.0160263
766.319	0.0158566
766.398	0.0157177
766.476	0.0155979
766.554	0.0155212
766.632	0.0155914
766.710	0.0155312
766.788	0.0152576
766.866	0.0154110
766.944	0.0153210
767.023	0.0154640
767.101	0.0153717
767.179	0.0154419
767.257	0.0156162
767.335	0.0154877
767.413	0.0157272
767.491	0.0156109
767.569	0.0157467
767.648	0.0162003
767.726	0.0165649
767.804	0.0165920
767.882	0.0172195
767.960	0.0174160
768.038	0.0179302
768.116	0.0180801
768.194	0.0181606
768.273	0.0186245
768.351	0.0184315
768.429	0.0189823
768.507	0.0191170
768.585	0.0189751
768.663	0.0185501
768.741	0.0190945
768.819	0.0186485
768.898	0.0190331
768.976	0.0184830
769.054	0.0181438
769.132	0.0183708
769.210	0.0178425
769.288	0.0177219
769.366	0.0173107
769.444	0.0169685
769.523	0.0169418
769.601	0.0167435
769.679	0.0162434
769.757	0.0160374
769.835	0.0153141
769.913	0.0153679
