05/27/2022	02:06:55	Ver.	4.1	UNKNOWN
Optical Delay	449.991307	Delta X		0.078125	Sweeps	1	Scan Rate	0/0
Coordinates	Axis 1	NaN	Axis 2	NaN	Axis 3	NaN	Axis 4	NaN	Axis 5	NaN	Axis 6	0.000000
TX Power	0.000000	RX Power	0.000000

449.991	0.0164410
450.069	0.0165688
450.148	0.0166103
450.226	0.0164589
450.304	0.0163956
450.382	0.0162262
450.460	0.0166718
450.538	0.0164692
450.616	0.0163475
450.694	0.0164280
450.773	0.0161903
450.851	0.0164314
450.929	0.0167675
451.007	0.0165581
451.085	0.0164833
451.163	0.0163872
451.241	0.0164097
451.319	0.0167526
451.398	0.0164944
451.476	0.0168079
451.554	0.0164955
451.632	0.0161224
451.710	0.0163929
451.788	0.0166729
451.866	0.0165474
451.944	0.0163746
452.023	0.0163555
452.101	0.0164017
452.179	0.0162544
452.257	0.0167599
452.335	0.0161564
452.413	0.0164455
452.491	0.0166241
452.569	0.0164928
452.648	0.0165726
452.726	0.0165405
452.804	0.0164127
452.882	0.0163830
452.960	0.0160614
453.038	0.0163368
453.116	0.0165112
453.194	0.0167343
453.273	0.0161541
453.351	0.0166058
453.429	0.0162937
453.507	0.0164680
453.585	0.0162270
453.663	0.0159168
453.741	0.0164764
453.819	0.0162724
453.898	0.0165771
453.976	0.0166168
454.054	0.0165966
454.132	0.0162510
454.210	0.0165016
454.288	0.0164555
454.366	0.0164558
454.444	0.0164589
454.523	0.0163902
454.601	0.0164539
454.679	0.0162853
454.757	0.0165451
454.835	0.0166065
454.913	0.0165283
454.991	0.0167553
455.069	0.0165401
455.148	0.0161156
455.226	0.0162323
455.304	0.0164680
455.382	0.0166435
455.460	0.0161480
455.538	0.0166538
455.616	0.0165913
455.694	0.0165272
455.773	0.0161774
455.851	0.0163284
455.929	0.0165138
456.007	0.0166618
456.085	0.0164841
456.163	0.0165733
456.241	0.0164555
456.319	0.0164375
456.398	0.0163280
456.476	0.0162796
456.554	0.0162907
456.632	0.0161980
456.710	0.0164345
456.788	0.0162025
456.866	0.0162342
456.944	0.0164692
457.023	0.0165840
457.101	0.0162930
457.179	0.0162773
457.257	0.0166416
457.335	0.0163094
457.413	0.0161915
457.491	0.0161591
457.569	0.0164925
457.648	0.0169136
457.726	0.0162594
457.804	0.0165192
457.882	0.0166992
457.960	0.0165798
458.038	0.0164803
458.116	0.0161209
458.194	0.0163750
458.273	0.0165474
458.351	0.0164791
458.429	0.0165936
458.507	0.0162491
458.585	0.0164860
458.663	0.0163483
458.741	0.0162315
458.819	0.0166565
458.898	0.0164616
458.976	0.0165306
459.054	0.0165287
459.132	0.0164295
459.210	0.0162655
459.288	0.0162735
459.366	0.0162891
459.444	0.0163288
459.523	0.0167191
459.601	0.0165829
459.679	0.0161850
459.757	0.0165928
459.835	0.0163586
459.913	0.0165981
459.991	0.0164234
460.069	0.0164177
460.148	0.0165539
460.226	0.0164486
460.304	0.0164349
460.382	0.0163845
460.460	0.0163105
460.538	0.0167480
460.616	0.0165157
460.694	0.0164623
460.773	0.0163395
460.851	0.0162926
460.929	0.0163944
461.007	0.0164597
461.085	0.0166382
461.163	0.0162552
461.241	0.0163540
461.319	0.0165607
461.398	0.0163155
461.476	0.0162586
461.554	0.0163486
461.632	0.0163731
461.710	0.0168709
461.788	0.0168213
461.866	0.0165146
461.944	0.0163994
462.023	0.0164246
462.101	0.0163795
462.179	0.0163853
462.257	0.0161518
462.335	0.0166599
462.413	0.0165951
462.491	0.0165390
462.569	0.0165237
462.648	0.0163567
462.726	0.0164223
462.804	0.0164200
462.882	0.0165596
462.960	0.0165504
463.038	0.0167419
463.116	0.0163849
463.194	0.0163986
463.273	0.0164227
463.351	0.0164932
463.429	0.0166752
463.507	0.0163811
463.585	0.0164364
463.663	0.0164780
463.741	0.0164791
463.819	0.0165501
463.898	0.0164642
463.976	0.0165207
464.054	0.0165882
464.132	0.0163399
464.210	0.0164467
464.288	0.0166664
464.366	0.0166080
464.444	0.0163300
464.523	0.0163975
464.601	0.0164581
464.679	0.0163639
464.757	0.0164406
464.835	0.0161819
464.913	0.0164539
464.991	0.0161903
465.069	0.0163124
465.148	0.0161922
465.226	0.0163231
465.304	0.0163902
465.382	0.0166122
465.460	0.0164822
465.538	0.0163090
465.616	0.0161762
465.694	0.0164227
465.773	0.0163292
465.851	0.0164761
465.929	0.0167561
466.007	0.0163124
466.085	0.0161915
466.163	0.0162823
466.241	0.0166256
466.319	0.0162350
466.398	0.0164738
466.476	0.0160744
466.554	0.0162987
466.632	0.0164867
466.710	0.0163334
466.788	0.0162811
466.866	0.0162628
466.944	0.0164677
467.023	0.0164757
467.101	0.0165798
467.179	0.0165844
467.257	0.0162189
467.335	0.0165646
467.413	0.0167583
467.491	0.0166508
467.569	0.0162430
467.648	0.0164696
467.726	0.0167164
467.804	0.0165485
467.882	0.0165970
467.960	0.0163429
468.038	0.0165260
468.116	0.0164852
468.194	0.0164661
468.273	0.0165333
468.351	0.0166321
468.429	0.0165169
468.507	0.0166893
468.585	0.0165943
468.663	0.0160786
468.741	0.0165279
468.819	0.0165466
468.898	0.0164970
468.976	0.0163044
469.054	0.0166710
469.132	0.0165512
469.210	0.0162331
469.288	0.0165779
469.366	0.0164265
469.444	0.0162785
469.523	0.0162941
469.601	0.0164215
469.679	0.0165691
469.757	0.0162369
469.835	0.0164536
469.913	0.0163342
469.991	0.0166134
470.069	0.0163799
470.148	0.0166874
470.226	0.0166286
470.304	0.0164165
470.382	0.0162102
470.460	0.0165310
470.538	0.0165226
470.616	0.0165607
470.694	0.0167011
470.773	0.0162777
470.851	0.0163815
470.929	0.0167358
471.007	0.0166424
471.085	0.0166069
471.163	0.0165920
471.241	0.0163803
471.319	0.0162697
471.398	0.0165493
471.476	0.0164665
471.554	0.0162704
471.632	0.0164581
471.710	0.0165531
471.788	0.0165100
471.866	0.0164158
471.944	0.0161537
472.023	0.0163834
472.101	0.0164356
472.179	0.0169056
472.257	0.0166069
472.335	0.0164593
472.413	0.0162086
472.491	0.0163544
472.569	0.0166920
472.648	0.0165314
472.726	0.0164841
472.804	0.0163033
472.882	0.0165409
472.960	0.0165874
473.038	0.0165932
473.116	0.0166260
473.194	0.0162052
473.273	0.0164692
473.351	0.0167164
473.429	0.0165844
473.507	0.0167210
473.585	0.0163471
473.663	0.0163185
473.741	0.0165970
473.819	0.0164223
473.898	0.0163326
473.976	0.0166073
474.054	0.0164112
474.132	0.0162685
474.210	0.0163639
474.288	0.0165371
474.366	0.0165302
474.444	0.0167374
474.523	0.0164501
474.601	0.0162663
474.679	0.0164150
474.757	0.0162075
474.835	0.0167759
474.913	0.0165909
474.991	0.0167469
475.069	0.0163811
475.148	0.0162361
475.226	0.0162762
475.304	0.0164291
475.382	0.0162960
475.460	0.0165813
475.538	0.0166164
475.616	0.0165302
475.694	0.0163475
475.773	0.0166351
475.851	0.0164406
475.929	0.0163101
476.007	0.0164051
476.085	0.0163666
476.163	0.0166790
476.241	0.0164047
476.319	0.0162529
476.398	0.0164116
476.476	0.0160145
476.554	0.0165836
476.632	0.0166065
476.710	0.0163647
476.788	0.0165081
476.866	0.0165653
476.944	0.0167320
477.023	0.0164608
477.101	0.0163841
477.179	0.0165146
477.257	0.0163136
477.335	0.0163300
477.413	0.0161964
477.491	0.0164330
477.569	0.0163284
477.648	0.0167137
477.726	0.0164658
477.804	0.0164787
477.882	0.0164970
477.960	0.0166245
478.038	0.0164017
478.116	0.0162842
478.194	0.0162086
478.273	0.0163212
478.351	0.0163952
478.429	0.0162411
478.507	0.0164448
478.585	0.0164055
478.663	0.0164772
478.741	0.0165401
478.819	0.0167320
478.898	0.0164387
478.976	0.0164703
479.054	0.0165714
479.132	0.0166004
479.210	0.0166481
479.288	0.0165527
479.366	0.0164078
479.444	0.0165241
479.523	0.0166271
479.601	0.0165707
479.679	0.0164951
479.757	0.0164181
479.835	0.0161682
479.913	0.0163063
479.991	0.0163612
480.069	0.0168266
480.148	0.0165051
480.226	0.0163124
480.304	0.0163578
480.382	0.0163597
480.460	0.0165646
480.538	0.0165344
480.616	0.0163128
480.694	0.0165051
480.773	0.0164665
480.851	0.0163223
480.929	0.0165180
481.007	0.0167820
481.085	0.0161636
481.163	0.0162678
481.241	0.0166073
481.319	0.0163029
481.398	0.0164280
481.476	0.0166813
481.554	0.0164379
481.632	0.0167263
481.710	0.0164177
481.788	0.0166622
481.866	0.0166481
481.944	0.0164478
482.023	0.0165691
482.101	0.0163845
482.179	0.0165073
482.257	0.0167885
482.335	0.0162964
482.413	0.0163673
482.491	0.0165733
482.569	0.0163826
482.648	0.0166016
482.726	0.0163147
482.804	0.0161037
482.882	0.0165611
482.960	0.0164783
483.038	0.0164333
483.116	0.0163338
483.194	0.0165100
483.273	0.0163139
483.351	0.0165226
483.429	0.0160503
483.507	0.0164532
483.585	0.0162632
483.663	0.0160374
483.741	0.0165142
483.819	0.0165462
483.898	0.0164562
483.976	0.0164299
484.054	0.0162697
484.132	0.0163280
484.210	0.0162739
484.288	0.0163643
484.366	0.0158466
484.444	0.0164528
484.523	0.0165962
484.601	0.0159576
484.679	0.0163670
484.757	0.0167412
484.835	0.0165676
484.913	0.0165627
484.991	0.0160572
485.069	0.0161537
485.148	0.0162205
485.226	0.0166920
485.304	0.0168346
485.382	0.0164845
485.460	0.0168369
485.538	0.0165993
485.616	0.0164963
485.694	0.0164764
485.773	0.0162518
485.851	0.0165268
485.929	0.0164257
486.007	0.0166157
486.085	0.0164818
486.163	0.0166561
486.241	0.0168251
486.319	0.0166832
486.398	0.0160809
486.476	0.0166553
486.554	0.0165249
486.632	0.0164570
486.710	0.0164677
486.788	0.0164413
486.866	0.0168987
486.944	0.0165813
487.023	0.0165321
487.101	0.0161007
487.179	0.0164207
487.257	0.0163105
487.335	0.0164536
487.413	0.0164577
487.491	0.0166607
487.569	0.0165279
487.648	0.0162941
487.726	0.0165611
487.804	0.0164005
487.882	0.0165234
487.960	0.0164772
488.038	0.0163136
488.116	0.0162457
488.194	0.0164139
488.273	0.0168472
488.351	0.0165428
488.429	0.0163982
488.507	0.0164398
488.585	0.0161423
488.663	0.0162228
488.741	0.0163315
488.819	0.0161980
488.898	0.0162342
488.976	0.0161686
489.054	0.0162945
489.132	0.0164589
489.210	0.0159828
489.288	0.0159382
489.366	0.0159805
489.444	0.0161751
489.523	0.0164223
489.601	0.0163845
489.679	0.0160000
489.757	0.0160007
489.835	0.0159184
489.913	0.0159561
489.991	0.0164040
490.069	0.0163033
490.148	0.0164093
490.226	0.0163746
490.304	0.0162315
490.382	0.0164127
490.460	0.0163147
490.538	0.0168419
490.616	0.0163586
490.694	0.0162075
490.773	0.0167923
490.851	0.0163898
490.929	0.0166603
491.007	0.0164196
491.085	0.0164486
491.163	0.0163929
491.241	0.0163330
491.319	0.0166588
491.398	0.0166374
491.476	0.0165909
491.554	0.0163582
491.632	0.0167931
491.710	0.0164692
491.788	0.0162216
491.866	0.0165791
491.944	0.0164673
492.023	0.0162769
492.101	0.0165909
492.179	0.0166496
492.257	0.0166348
492.335	0.0164005
492.413	0.0164524
492.491	0.0162441
492.569	0.0165501
492.648	0.0165749
492.726	0.0165146
492.804	0.0163383
492.882	0.0166248
492.960	0.0168941
493.038	0.0166683
493.116	0.0165501
493.194	0.0163803
493.273	0.0163345
493.351	0.0163361
493.429	0.0164944
493.507	0.0162697
493.585	0.0162220
493.663	0.0166210
493.741	0.0165531
493.819	0.0164757
493.898	0.0163460
493.976	0.0163116
494.054	0.0166862
494.132	0.0164776
494.210	0.0163189
494.288	0.0162888
494.366	0.0161282
494.444	0.0164238
494.523	0.0165440
494.601	0.0163925
494.679	0.0163555
494.757	0.0164242
494.835	0.0166721
494.913	0.0166306
494.991	0.0163662
495.069	0.0164188
495.148	0.0165722
495.226	0.0162735
495.304	0.0163208
495.382	0.0164555
495.460	0.0163040
495.538	0.0162609
495.616	0.0164070
495.694	0.0164223
495.773	0.0165218
495.851	0.0164974
495.929	0.0164333
496.007	0.0165031
496.085	0.0164265
496.163	0.0166862
496.241	0.0160686
496.319	0.0162659
496.398	0.0163734
496.476	0.0166058
496.554	0.0165356
496.632	0.0164021
496.710	0.0162487
496.788	0.0164200
496.866	0.0165188
496.944	0.0163422
497.023	0.0161709
497.101	0.0163837
497.179	0.0168304
497.257	0.0162766
497.335	0.0162964
497.413	0.0161476
497.491	0.0164803
497.569	0.0166847
497.648	0.0165421
497.726	0.0164539
497.804	0.0164444
497.882	0.0164406
497.960	0.0161854
498.038	0.0163269
498.116	0.0165829
498.194	0.0167389
498.273	0.0164047
498.351	0.0162762
498.429	0.0167603
498.507	0.0163898
498.585	0.0163540
498.663	0.0163639
498.741	0.0163166
498.819	0.0163708
498.898	0.0162518
498.976	0.0168011
499.054	0.0163044
499.132	0.0161808
499.210	0.0163563
499.288	0.0164047
499.366	0.0165157
499.444	0.0165886
499.523	0.0163578
499.601	0.0162823
499.679	0.0164818
499.757	0.0164093
499.835	0.0164326
499.913	0.0162228
499.991	0.0164063
500.069	0.0165085
500.148	0.0164200
500.226	0.0166515
500.304	0.0162754
500.382	0.0161942
500.460	0.0165058
500.538	0.0161842
500.616	0.0160164
500.694	0.0166866
500.773	0.0163319
500.851	0.0163933
500.929	0.0165623
501.007	0.0168655
501.085	0.0165401
501.163	0.0163254
501.241	0.0165958
501.319	0.0164871
501.398	0.0165909
501.476	0.0160763
501.554	0.0163288
501.632	0.0166275
501.710	0.0164352
501.788	0.0163971
501.866	0.0165760
501.944	0.0160934
502.023	0.0164619
502.101	0.0167152
502.179	0.0168236
502.257	0.0166508
502.335	0.0164608
502.413	0.0162415
502.491	0.0164658
502.569	0.0164543
502.648	0.0168217
502.726	0.0163635
502.804	0.0164993
502.882	0.0164722
502.960	0.0165253
503.038	0.0164879
503.116	0.0163925
503.194	0.0163445
503.273	0.0166096
503.351	0.0166443
503.429	0.0165768
503.507	0.0163921
503.585	0.0165676
503.663	0.0164082
503.741	0.0166386
503.819	0.0168365
503.898	0.0164749
503.976	0.0164925
504.054	0.0164066
504.132	0.0164154
504.210	0.0168137
504.288	0.0165222
504.366	0.0161266
504.444	0.0166237
504.523	0.0165573
504.601	0.0164318
504.679	0.0165661
504.757	0.0165035
504.835	0.0166191
504.913	0.0163738
504.991	0.0161861
505.069	0.0166313
505.148	0.0161911
505.226	0.0165245
505.304	0.0164299
505.382	0.0164200
505.460	0.0163376
505.538	0.0167450
505.616	0.0164066
505.694	0.0160873
505.773	0.0165638
505.851	0.0166328
505.929	0.0163933
506.007	0.0161255
506.085	0.0165775
506.163	0.0165749
506.241	0.0165447
506.319	0.0165527
506.398	0.0164555
506.476	0.0163670
506.554	0.0164181
506.632	0.0166084
506.710	0.0166084
506.788	0.0163559
506.866	0.0166412
506.944	0.0164604
507.023	0.0165672
507.101	0.0161911
507.179	0.0164925
507.257	0.0162693
507.335	0.0164913
507.413	0.0164066
507.491	0.0163235
507.569	0.0164234
507.648	0.0163658
507.726	0.0164059
507.804	0.0166714
507.882	0.0165375
507.960	0.0164291
508.038	0.0164482
508.116	0.0162834
508.194	0.0162445
508.273	0.0163811
508.351	0.0163147
508.429	0.0166325
508.507	0.0165714
508.585	0.0163269
508.663	0.0163692
508.741	0.0165394
508.819	0.0163979
508.898	0.0160870
508.976	0.0164879
509.054	0.0165813
509.132	0.0164730
509.210	0.0165173
509.288	0.0164963
509.366	0.0162121
509.444	0.0164730
509.523	0.0162781
509.601	0.0163673
509.679	0.0163677
509.757	0.0163017
509.835	0.0162743
509.913	0.0162983
509.991	0.0162186
510.069	0.0166252
510.148	0.0164566
510.226	0.0164444
510.304	0.0167343
510.382	0.0164093
510.460	0.0164768
510.538	0.0162357
510.616	0.0168209
510.694	0.0166061
510.773	0.0162262
510.851	0.0164032
510.929	0.0162403
511.007	0.0165588
511.085	0.0164585
511.163	0.0162102
511.241	0.0163692
511.319	0.0165905
511.398	0.0158390
511.476	0.0164898
511.554	0.0163395
511.632	0.0163067
511.710	0.0163532
511.788	0.0164490
511.866	0.0164444
511.944	0.0168716
512.023	0.0166798
512.101	0.0163975
512.179	0.0162933
512.257	0.0161533
512.335	0.0166061
512.413	0.0168930
512.491	0.0163895
512.569	0.0164108
512.648	0.0164730
512.726	0.0162746
512.804	0.0162159
512.882	0.0162403
512.960	0.0162300
513.038	0.0162445
513.116	0.0164318
513.194	0.0164131
513.273	0.0164173
513.351	0.0164246
513.429	0.0165005
513.507	0.0163460
513.585	0.0163464
513.663	0.0164307
513.741	0.0162037
513.819	0.0162937
513.898	0.0165142
513.976	0.0169083
514.054	0.0165771
514.132	0.0165611
514.210	0.0162224
514.288	0.0163597
514.366	0.0164421
514.444	0.0164810
514.523	0.0163902
514.601	0.0164528
514.679	0.0162659
514.757	0.0166172
514.835	0.0164459
514.913	0.0166801
514.991	0.0164177
515.069	0.0165684
515.148	0.0164967
515.226	0.0163654
515.304	0.0166458
515.382	0.0164215
515.460	0.0166412
515.538	0.0163330
515.616	0.0163055
515.694	0.0166988
515.773	0.0164341
515.851	0.0161312
515.929	0.0163204
516.007	0.0163689
516.085	0.0166397
516.163	0.0163651
516.241	0.0164455
516.319	0.0163410
516.398	0.0163460
516.476	0.0166321
516.554	0.0165508
516.632	0.0162651
516.710	0.0163860
516.788	0.0164455
516.866	0.0162815
516.944	0.0167610
517.023	0.0165653
517.101	0.0162811
517.179	0.0163403
517.257	0.0164017
517.335	0.0163399
517.413	0.0163334
517.491	0.0162319
517.569	0.0165119
517.648	0.0163925
517.726	0.0163898
517.804	0.0163696
517.882	0.0164452
517.960	0.0162331
518.038	0.0162601
518.116	0.0165794
518.194	0.0164433
518.273	0.0163681
518.351	0.0165668
518.429	0.0165440
518.507	0.0164162
518.585	0.0161419
518.663	0.0162754
518.741	0.0164276
518.819	0.0164581
518.898	0.0164436
518.976	0.0164837
519.054	0.0165340
519.132	0.0165092
519.210	0.0164955
519.288	0.0166111
519.366	0.0164227
519.444	0.0163883
519.523	0.0164867
519.601	0.0166836
519.679	0.0166721
519.757	0.0162243
519.835	0.0165813
519.913	0.0164345
519.991	0.0163738
520.069	0.0163837
520.148	0.0165539
520.226	0.0163891
520.304	0.0164459
520.382	0.0162178
520.460	0.0162453
520.538	0.0161766
520.616	0.0163338
520.694	0.0165298
520.773	0.0160961
520.851	0.0165623
520.929	0.0162857
521.007	0.0163837
521.085	0.0165142
521.163	0.0166912
521.241	0.0166107
521.319	0.0163902
521.398	0.0163036
521.476	0.0164639
521.554	0.0163975
521.632	0.0163883
521.710	0.0164848
521.788	0.0163631
521.866	0.0164543
521.944	0.0163559
522.023	0.0164558
522.101	0.0165245
522.179	0.0162540
522.257	0.0162117
522.335	0.0164352
522.413	0.0164436
522.491	0.0162533
522.569	0.0164257
522.648	0.0164894
522.726	0.0169685
522.804	0.0163315
522.882	0.0164932
522.960	0.0166599
523.038	0.0163380
523.116	0.0163296
523.194	0.0163876
523.273	0.0165386
523.351	0.0165604
523.429	0.0164642
523.507	0.0164154
523.585	0.0164410
523.663	0.0163929
523.741	0.0163570
523.819	0.0162323
523.898	0.0163582
523.976	0.0166061
524.054	0.0166744
524.132	0.0164879
524.210	0.0165916
524.288	0.0163673
524.366	0.0164860
524.444	0.0166592
524.523	0.0165859
524.601	0.0163780
524.679	0.0167374
524.757	0.0165867
524.835	0.0161568
524.913	0.0163368
524.991	0.0163620
525.069	0.0165215
525.148	0.0165779
525.226	0.0164345
525.304	0.0160267
525.382	0.0165199
525.460	0.0163136
525.538	0.0164852
525.616	0.0165997
525.694	0.0163158
525.773	0.0162983
525.851	0.0164021
525.929	0.0165943
526.007	0.0164982
526.085	0.0163734
526.163	0.0165184
526.241	0.0166206
526.319	0.0166786
526.398	0.0164871
526.476	0.0163288
526.554	0.0164627
526.632	0.0168541
526.710	0.0165306
526.788	0.0165310
526.866	0.0165043
526.944	0.0164398
527.023	0.0165497
527.101	0.0164215
527.179	0.0162842
527.257	0.0163815
527.335	0.0165962
527.413	0.0165489
527.491	0.0163937
527.569	0.0167522
527.648	0.0161522
527.726	0.0165195
527.804	0.0164291
527.882	0.0163303
527.960	0.0162350
528.038	0.0163822
528.116	0.0168324
528.194	0.0163830
528.273	0.0161522
528.351	0.0164207
528.429	0.0165043
528.507	0.0164860
528.585	0.0164436
528.663	0.0165131
528.741	0.0165142
528.819	0.0163319
528.898	0.0162464
528.976	0.0161118
529.054	0.0162888
529.132	0.0164650
529.210	0.0166119
529.288	0.0163151
529.366	0.0161430
529.444	0.0165997
529.523	0.0164326
529.601	0.0164383
529.679	0.0165730
529.757	0.0163536
529.835	0.0161236
529.913	0.0164673
529.991	0.0164829
530.069	0.0167686
530.148	0.0165321
530.226	0.0165520
530.304	0.0163643
530.382	0.0162453
530.460	0.0165558
530.538	0.0163143
530.616	0.0163418
530.694	0.0165493
530.773	0.0164410
530.851	0.0162781
530.929	0.0163250
531.007	0.0166279
531.085	0.0163616
531.163	0.0165325
531.241	0.0167599
531.319	0.0164268
531.398	0.0162949
531.476	0.0165047
531.554	0.0163147
531.632	0.0162880
531.710	0.0164536
531.788	0.0162331
531.866	0.0164764
531.944	0.0165840
532.023	0.0163204
532.101	0.0162178
532.179	0.0165169
532.257	0.0162983
532.335	0.0165604
532.413	0.0166019
532.491	0.0165794
532.569	0.0164120
532.648	0.0163445
532.726	0.0163532
532.804	0.0165634
532.882	0.0162304
532.960	0.0163734
533.038	0.0165722
533.116	0.0165234
533.194	0.0165882
533.273	0.0160915
533.351	0.0163326
533.429	0.0164673
533.507	0.0164917
533.585	0.0165932
533.663	0.0165497
533.741	0.0165012
533.819	0.0168240
533.898	0.0165844
533.976	0.0161358
534.054	0.0163540
534.132	0.0163532
534.210	0.0164207
534.288	0.0165359
534.366	0.0166931
534.444	0.0165779
534.523	0.0163918
534.601	0.0166191
534.679	0.0165733
534.757	0.0163811
534.835	0.0164242
534.913	0.0167088
534.991	0.0164738
535.069	0.0163967
535.148	0.0167358
535.226	0.0164165
535.304	0.0163521
535.382	0.0164146
535.460	0.0165649
535.538	0.0164043
535.616	0.0166397
535.694	0.0164814
535.773	0.0163742
535.851	0.0162975
535.929	0.0164352
536.007	0.0168831
536.085	0.0165508
536.163	0.0163021
536.241	0.0163052
536.319	0.0163792
536.398	0.0164692
536.476	0.0165977
536.554	0.0165886
536.632	0.0164253
536.710	0.0161652
536.788	0.0167294
536.866	0.0162613
536.944	0.0167587
537.023	0.0163479
537.101	0.0162823
537.179	0.0164284
537.257	0.0162754
537.335	0.0165401
537.413	0.0163612
537.491	0.0165302
537.569	0.0163834
537.648	0.0162750
537.726	0.0163635
537.804	0.0164783
537.882	0.0163261
537.960	0.0163681
538.038	0.0162468
538.116	0.0166138
538.194	0.0165073
538.273	0.0163895
538.351	0.0166538
538.429	0.0169128
538.507	0.0163242
538.585	0.0162941
538.663	0.0164734
538.741	0.0163414
538.819	0.0161026
538.898	0.0167377
538.976	0.0164776
539.054	0.0165737
539.132	0.0164921
539.210	0.0162140
539.288	0.0160534
539.366	0.0161827
539.444	0.0162720
539.523	0.0164726
539.601	0.0166431
539.679	0.0165684
539.757	0.0165321
539.835	0.0162254
539.913	0.0164879
539.991	0.0164608
540.069	0.0164852
540.148	0.0166660
540.226	0.0162064
540.304	0.0162159
540.382	0.0163727
540.460	0.0165379
540.538	0.0163296
540.616	0.0164410
540.694	0.0163651
540.773	0.0165726
540.851	0.0163937
540.929	0.0163227
541.007	0.0164791
541.085	0.0163464
541.163	0.0162617
541.241	0.0165295
541.319	0.0165432
541.398	0.0163151
541.476	0.0162556
541.554	0.0164402
541.632	0.0167706
541.710	0.0167400
541.788	0.0161366
541.866	0.0162659
541.944	0.0165115
542.023	0.0164051
542.101	0.0164677
542.179	0.0162827
542.257	0.0163853
542.335	0.0165085
542.413	0.0163589
542.491	0.0165733
542.569	0.0164597
542.648	0.0160267
542.726	0.0165672
542.804	0.0164665
542.882	0.0163254
542.960	0.0164688
543.038	0.0164455
543.116	0.0165821
543.194	0.0160515
543.273	0.0166374
543.351	0.0165501
543.429	0.0165543
543.507	0.0165222
543.585	0.0163998
543.663	0.0163643
543.741	0.0162163
543.819	0.0166054
543.898	0.0165314
543.976	0.0165276
544.054	0.0165047
544.132	0.0164642
544.210	0.0161617
544.288	0.0164402
544.366	0.0163712
544.444	0.0165932
544.523	0.0164379
544.601	0.0164490
544.679	0.0164204
544.757	0.0165348
544.835	0.0163872
544.913	0.0161064
544.991	0.0164001
545.069	0.0163765
545.148	0.0165546
545.226	0.0163204
545.304	0.0163597
545.382	0.0164246
545.460	0.0167507
545.538	0.0162758
545.616	0.0166821
545.694	0.0162155
545.773	0.0164440
545.851	0.0162754
545.929	0.0166199
546.007	0.0166328
546.085	0.0164581
546.163	0.0163582
546.241	0.0163799
546.319	0.0164036
546.398	0.0160751
546.476	0.0165070
546.554	0.0161884
546.632	0.0164112
546.710	0.0169071
546.788	0.0165783
546.866	0.0164860
546.944	0.0166035
547.023	0.0164612
547.101	0.0163376
547.179	0.0164021
547.257	0.0166069
547.335	0.0163906
547.413	0.0164185
547.491	0.0165344
547.569	0.0163380
547.648	0.0162491
547.726	0.0163330
547.804	0.0165215
547.882	0.0164524
547.960	0.0164719
548.038	0.0162476
548.116	0.0163528
548.194	0.0163963
548.273	0.0161400
548.351	0.0163631
548.429	0.0168694
548.507	0.0163647
548.585	0.0162178
548.663	0.0167511
548.741	0.0167084
548.819	0.0164551
548.898	0.0162144
548.976	0.0166977
549.054	0.0163418
549.132	0.0165905
549.210	0.0163155
549.288	0.0164185
549.366	0.0166695
549.444	0.0160412
549.523	0.0163109
549.601	0.0163994
549.679	0.0166691
549.757	0.0167843
549.835	0.0166828
549.913	0.0163296
549.991	0.0167934
550.069	0.0165920
550.148	0.0166374
550.226	0.0167038
550.304	0.0161831
550.382	0.0164940
550.460	0.0164017
550.538	0.0166100
550.616	0.0165981
550.694	0.0163761
550.773	0.0165482
550.851	0.0165016
550.929	0.0165562
551.007	0.0166016
551.085	0.0164089
551.163	0.0164204
551.241	0.0164463
551.319	0.0164764
551.398	0.0164772
551.476	0.0167149
551.554	0.0164925
551.632	0.0166229
551.710	0.0165627
551.788	0.0166153
551.866	0.0166679
551.944	0.0164715
552.023	0.0164776
552.101	0.0166416
552.179	0.0165199
552.257	0.0163982
552.335	0.0163239
552.413	0.0165577
552.491	0.0166012
552.569	0.0167274
552.648	0.0165260
552.726	0.0168911
552.804	0.0162663
552.882	0.0164913
552.960	0.0165474
553.038	0.0165722
553.116	0.0164871
553.194	0.0161560
553.273	0.0167000
553.351	0.0166847
553.429	0.0167480
553.507	0.0163216
553.585	0.0167320
553.663	0.0165565
553.741	0.0162746
553.819	0.0163071
553.898	0.0164684
553.976	0.0163677
554.054	0.0166618
554.132	0.0165047
554.210	0.0165237
554.288	0.0169380
554.366	0.0167526
554.444	0.0166229
554.523	0.0163284
554.601	0.0161602
554.679	0.0164673
554.757	0.0162857
554.835	0.0162735
554.913	0.0166954
554.991	0.0168285
555.069	0.0164742
555.148	0.0163044
555.226	0.0164036
555.304	0.0163586
555.382	0.0164326
555.460	0.0166634
555.538	0.0167320
555.616	0.0163918
555.694	0.0161964
555.773	0.0164886
555.851	0.0166344
555.929	0.0163963
556.007	0.0167496
556.085	0.0167465
556.163	0.0166348
556.241	0.0164921
556.319	0.0164883
556.398	0.0164497
556.476	0.0164425
556.554	0.0164436
556.632	0.0165962
556.710	0.0166260
556.788	0.0167709
556.866	0.0164330
556.944	0.0163555
557.023	0.0166885
557.101	0.0167599
557.179	0.0162827
557.257	0.0166557
557.335	0.0168499
557.413	0.0166088
557.491	0.0164833
557.569	0.0168114
557.648	0.0165165
557.726	0.0165924
557.804	0.0164364
557.882	0.0167641
557.960	0.0165169
558.038	0.0167255
558.116	0.0165379
558.194	0.0166603
558.273	0.0167316
558.351	0.0166828
558.429	0.0165890
558.507	0.0165947
558.585	0.0164108
558.663	0.0165318
558.741	0.0168701
558.819	0.0163017
558.898	0.0163364
558.976	0.0162106
559.054	0.0164459
559.132	0.0166584
559.210	0.0166336
559.288	0.0164173
559.366	0.0164650
559.444	0.0161663
559.523	0.0165680
559.601	0.0162258
559.679	0.0165688
559.757	0.0165462
559.835	0.0166588
559.913	0.0164642
559.991	0.0166145
560.069	0.0164883
560.148	0.0162678
560.226	0.0164772
560.304	0.0163715
560.382	0.0165535
560.460	0.0163719
560.538	0.0161160
560.616	0.0163414
560.694	0.0164730
560.773	0.0164295
560.851	0.0164379
560.929	0.0164749
561.007	0.0165451
561.085	0.0164936
561.163	0.0161961
561.241	0.0164272
561.319	0.0164856
561.398	0.0166763
561.476	0.0162075
561.554	0.0163315
561.632	0.0163048
561.710	0.0162411
561.788	0.0161694
561.866	0.0162655
561.944	0.0161659
562.023	0.0165787
562.101	0.0162483
562.179	0.0164387
562.257	0.0166138
562.335	0.0166260
562.413	0.0164253
562.491	0.0162273
562.569	0.0164433
562.648	0.0165051
562.726	0.0164021
562.804	0.0164661
562.882	0.0164700
562.960	0.0166710
563.038	0.0165886
563.116	0.0166351
563.194	0.0165352
563.273	0.0164707
563.351	0.0161629
563.429	0.0165482
563.507	0.0163910
563.585	0.0164356
563.663	0.0164524
563.741	0.0165836
563.819	0.0166496
563.898	0.0164570
563.976	0.0166279
564.054	0.0164398
564.132	0.0165630
564.210	0.0166538
564.288	0.0162544
564.366	0.0161293
564.444	0.0164326
564.523	0.0162670
564.601	0.0167351
564.679	0.0168850
564.757	0.0166134
564.835	0.0166847
564.913	0.0166870
564.991	0.0168079
565.069	0.0163353
565.148	0.0162098
565.226	0.0165287
565.304	0.0165016
565.382	0.0162960
565.460	0.0163891
565.538	0.0164017
565.616	0.0162735
565.694	0.0164833
565.773	0.0163208
565.851	0.0163723
565.929	0.0164764
566.007	0.0165077
566.085	0.0164215
566.163	0.0162773
566.241	0.0165741
566.319	0.0166203
566.398	0.0166779
566.476	0.0163517
566.554	0.0165905
566.632	0.0163151
566.710	0.0165142
566.788	0.0166252
566.866	0.0164185
566.944	0.0161385
567.023	0.0165394
567.101	0.0164871
567.179	0.0162880
567.257	0.0163548
567.335	0.0160843
567.413	0.0166843
567.491	0.0163616
567.569	0.0160675
567.648	0.0163311
567.726	0.0165829
567.804	0.0164589
567.882	0.0165638
567.960	0.0162647
568.038	0.0166500
568.116	0.0163063
568.194	0.0163418
568.273	0.0165737
568.351	0.0165653
568.429	0.0165173
568.507	0.0165207
568.585	0.0166447
568.663	0.0162678
568.741	0.0161842
568.819	0.0164299
568.898	0.0164726
568.976	0.0165947
569.054	0.0161995
569.132	0.0163651
569.210	0.0164421
569.288	0.0163593
569.366	0.0164345
569.444	0.0165791
569.523	0.0166157
569.601	0.0164497
569.679	0.0166157
569.757	0.0163288
569.835	0.0165245
569.913	0.0164490
569.991	0.0164570
570.069	0.0167645
570.148	0.0164818
570.226	0.0166084
570.304	0.0164017
570.382	0.0163918
570.460	0.0163685
570.538	0.0166172
570.616	0.0164768
570.694	0.0163876
570.773	0.0164139
570.851	0.0165077
570.929	0.0165108
571.007	0.0163227
571.085	0.0164829
571.163	0.0164829
571.241	0.0165882
571.319	0.0165207
571.398	0.0161896
571.476	0.0164597
571.554	0.0165714
571.632	0.0168472
571.710	0.0165905
571.788	0.0164028
571.866	0.0165928
571.944	0.0167141
572.023	0.0162708
572.101	0.0165878
572.179	0.0163666
572.257	0.0164490
572.335	0.0165047
572.413	0.0164467
572.491	0.0166706
572.569	0.0165619
572.648	0.0166737
572.726	0.0164574
572.804	0.0163136
572.882	0.0167580
572.960	0.0167721
573.038	0.0165497
573.116	0.0165821
573.194	0.0165104
573.273	0.0163448
573.351	0.0162807
573.429	0.0165451
573.507	0.0165432
573.585	0.0165874
573.663	0.0160610
573.741	0.0167835
573.819	0.0166553
573.898	0.0163197
573.976	0.0165009
574.054	0.0166859
574.132	0.0162811
574.210	0.0163696
574.288	0.0166847
574.366	0.0166145
574.444	0.0163361
574.523	0.0166622
574.601	0.0166416
574.679	0.0163715
574.757	0.0165718
574.835	0.0166313
574.913	0.0161530
574.991	0.0163605
575.069	0.0164520
575.148	0.0164635
575.226	0.0160870
575.304	0.0164440
575.382	0.0167019
575.460	0.0162476
575.538	0.0162945
575.616	0.0163956
575.694	0.0167736
575.773	0.0164810
575.851	0.0165260
575.929	0.0164577
576.007	0.0166260
576.085	0.0164677
576.163	0.0165173
576.241	0.0167149
576.319	0.0164593
576.398	0.0162647
576.476	0.0164520
576.554	0.0164684
576.632	0.0163620
576.710	0.0166103
576.788	0.0163174
576.866	0.0167103
576.944	0.0162483
577.023	0.0162483
577.101	0.0163906
577.179	0.0166351
577.257	0.0165985
577.335	0.0164627
577.413	0.0163818
577.491	0.0164398
577.569	0.0164154
577.648	0.0165642
577.726	0.0162838
577.804	0.0163651
577.882	0.0165356
577.960	0.0163445
578.038	0.0168602
578.116	0.0166546
578.194	0.0164219
578.273	0.0163212
578.351	0.0160751
578.429	0.0164165
578.507	0.0164421
578.585	0.0166447
578.663	0.0164669
578.741	0.0161785
578.819	0.0165585
578.898	0.0164825
578.976	0.0164520
579.054	0.0164547
579.132	0.0164600
579.210	0.0165371
579.288	0.0165253
579.366	0.0163773
579.444	0.0163288
579.523	0.0164024
579.601	0.0163048
579.679	0.0165104
579.757	0.0165379
579.835	0.0163952
579.913	0.0164993
579.991	0.0164650
580.069	0.0167507
580.148	0.0164848
580.226	0.0164722
580.304	0.0168274
580.382	0.0167458
580.460	0.0166073
580.538	0.0165741
580.616	0.0165524
580.694	0.0163738
580.773	0.0163666
580.851	0.0165333
580.929	0.0165817
581.007	0.0165104
581.085	0.0165730
581.163	0.0165436
581.241	0.0163685
581.319	0.0164661
581.398	0.0164013
581.476	0.0163387
581.554	0.0164791
581.632	0.0166313
581.710	0.0165585
581.788	0.0164165
581.866	0.0163574
581.944	0.0163376
582.023	0.0165367
582.101	0.0165657
582.179	0.0166019
582.257	0.0163494
582.335	0.0164478
582.413	0.0163025
582.491	0.0163269
582.569	0.0167301
582.648	0.0166676
582.726	0.0162495
582.804	0.0164810
582.882	0.0165482
582.960	0.0160957
583.038	0.0166096
583.116	0.0164593
583.194	0.0166458
583.273	0.0165775
583.351	0.0162357
583.429	0.0165268
583.507	0.0168510
583.585	0.0166885
583.663	0.0163082
583.741	0.0167614
583.819	0.0164814
583.898	0.0162815
583.976	0.0165207
584.054	0.0165180
584.132	0.0163216
584.210	0.0166855
584.288	0.0162186
584.366	0.0164566
584.444	0.0166821
584.523	0.0163689
584.601	0.0163940
584.679	0.0166691
584.757	0.0165928
584.835	0.0162014
584.913	0.0165806
584.991	0.0164932
585.069	0.0165710
585.148	0.0164944
585.226	0.0164536
585.304	0.0165192
585.382	0.0164726
585.460	0.0163742
585.538	0.0166012
585.616	0.0165936
585.694	0.0167755
585.773	0.0162998
585.851	0.0165966
585.929	0.0166420
586.007	0.0161991
586.085	0.0162376
586.163	0.0165615
586.241	0.0164955
586.319	0.0166428
586.398	0.0165813
586.476	0.0164345
586.554	0.0166828
586.632	0.0170017
586.710	0.0166477
586.788	0.0162792
586.866	0.0163605
586.944	0.0168427
587.023	0.0167423
587.101	0.0164276
587.179	0.0166916
587.257	0.0165199
587.335	0.0165428
587.413	0.0165722
587.491	0.0166195
587.569	0.0167259
587.648	0.0165115
587.726	0.0164509
587.804	0.0164906
587.882	0.0166866
587.960	0.0164249
588.038	0.0162357
588.116	0.0166252
588.194	0.0167919
588.273	0.0164917
588.351	0.0164101
588.429	0.0165237
588.507	0.0163376
588.585	0.0164471
588.663	0.0165291
588.741	0.0168293
588.819	0.0166180
588.898	0.0164242
588.976	0.0164227
589.054	0.0162853
589.132	0.0163593
589.210	0.0166504
589.288	0.0161255
589.366	0.0164330
589.444	0.0163181
589.523	0.0166138
589.601	0.0159790
589.679	0.0165211
589.757	0.0165195
589.835	0.0167900
589.913	0.0165604
589.991	0.0165459
590.069	0.0163723
590.148	0.0161449
590.226	0.0167507
590.304	0.0165920
590.382	0.0166527
590.460	0.0165257
590.538	0.0164001
590.616	0.0164120
590.694	0.0165642
590.773	0.0162830
590.851	0.0163971
590.929	0.0163681
591.007	0.0163269
591.085	0.0163464
591.163	0.0167068
591.241	0.0166725
591.319	0.0161804
591.398	0.0161427
591.476	0.0165016
591.554	0.0164646
591.632	0.0163567
591.710	0.0161522
591.788	0.0162746
591.866	0.0163765
591.944	0.0163506
592.023	0.0165127
592.101	0.0165882
592.179	0.0163567
592.257	0.0165428
592.335	0.0162395
592.413	0.0161407
592.491	0.0164860
592.569	0.0164520
592.648	0.0166058
592.726	0.0167110
592.804	0.0163330
592.882	0.0165291
592.960	0.0164379
593.038	0.0163902
593.116	0.0163738
593.194	0.0166367
593.273	0.0163479
593.351	0.0162285
593.429	0.0163151
593.507	0.0164902
593.585	0.0164009
593.663	0.0164883
593.741	0.0164021
593.819	0.0163139
593.898	0.0163895
593.976	0.0165558
594.054	0.0161221
594.132	0.0165138
594.210	0.0166435
594.288	0.0163532
594.366	0.0164051
594.444	0.0162777
594.523	0.0166260
594.601	0.0164848
594.679	0.0164406
594.757	0.0162029
594.835	0.0160728
594.913	0.0162689
594.991	0.0165653
595.069	0.0166420
595.148	0.0164776
595.226	0.0161991
595.304	0.0162086
595.382	0.0166496
595.460	0.0166565
595.538	0.0167351
595.616	0.0165356
595.694	0.0166031
595.773	0.0161945
595.851	0.0164097
595.929	0.0166302
596.007	0.0163342
596.085	0.0164707
596.163	0.0166084
596.241	0.0163544
596.319	0.0167706
596.398	0.0164196
596.476	0.0168083
596.554	0.0166428
596.632	0.0163769
596.710	0.0165417
596.788	0.0164165
596.866	0.0163609
596.944	0.0164146
597.023	0.0164028
597.101	0.0164143
597.179	0.0165714
597.257	0.0162529
597.335	0.0164219
597.413	0.0165916
597.491	0.0164715
597.569	0.0169727
597.648	0.0163429
597.726	0.0163742
597.804	0.0166611
597.882	0.0165028
597.960	0.0164406
598.038	0.0165291
598.116	0.0166912
598.194	0.0160748
598.273	0.0166176
598.351	0.0165977
598.429	0.0163822
598.507	0.0163574
598.585	0.0165543
598.663	0.0164219
598.741	0.0166119
598.819	0.0163895
598.898	0.0168159
598.976	0.0166519
599.054	0.0164082
599.132	0.0163990
599.210	0.0166306
599.288	0.0164909
599.366	0.0163670
599.444	0.0165092
599.523	0.0166500
599.601	0.0165024
599.679	0.0166061
599.757	0.0166691
599.835	0.0164925
599.913	0.0162094
599.991	0.0165070
600.069	0.0165699
600.148	0.0165173
600.226	0.0164940
600.304	0.0165611
600.382	0.0165710
600.460	0.0165924
600.538	0.0165939
600.616	0.0161575
600.694	0.0167267
600.773	0.0168015
600.851	0.0163891
600.929	0.0165123
601.007	0.0165955
601.085	0.0166157
601.163	0.0167431
601.241	0.0165127
601.319	0.0165592
601.398	0.0164822
601.476	0.0165913
601.554	0.0167580
601.632	0.0165512
601.710	0.0167534
601.788	0.0165417
601.866	0.0164398
601.944	0.0168125
602.023	0.0166946
602.101	0.0165813
602.179	0.0164883
602.257	0.0165737
602.335	0.0167400
602.413	0.0166836
602.491	0.0164948
602.569	0.0163467
602.648	0.0164589
602.726	0.0166222
602.804	0.0162315
602.882	0.0168312
602.960	0.0164185
603.038	0.0165508
603.116	0.0164215
603.194	0.0166321
603.273	0.0165058
603.351	0.0164597
603.429	0.0164867
603.507	0.0167248
603.585	0.0167141
603.663	0.0162968
603.741	0.0163330
603.819	0.0170155
603.898	0.0164886
603.976	0.0163025
604.054	0.0164928
604.132	0.0162189
604.210	0.0164879
604.288	0.0163197
604.366	0.0164421
604.444	0.0163612
604.523	0.0163662
604.601	0.0166561
604.679	0.0162880
604.757	0.0162914
604.835	0.0164867
604.913	0.0166775
604.991	0.0166656
605.069	0.0163322
605.148	0.0164928
605.226	0.0167290
605.304	0.0164749
605.382	0.0165512
605.460	0.0165207
605.538	0.0166061
605.616	0.0165222
605.694	0.0163235
605.773	0.0164051
605.851	0.0167839
605.929	0.0164989
606.007	0.0164165
606.085	0.0164902
606.163	0.0167080
606.241	0.0166908
606.319	0.0163219
606.398	0.0162304
606.476	0.0168045
606.554	0.0163914
606.632	0.0163769
606.710	0.0166874
606.788	0.0163052
606.866	0.0161793
606.944	0.0164146
607.023	0.0163940
607.101	0.0163715
607.179	0.0163715
607.257	0.0163109
607.335	0.0162395
607.413	0.0165340
607.491	0.0165035
607.569	0.0164749
607.648	0.0161442
607.726	0.0164730
607.804	0.0165192
607.882	0.0165176
607.960	0.0164040
608.038	0.0162018
608.116	0.0165295
608.194	0.0162392
608.273	0.0162308
608.351	0.0165184
608.429	0.0158897
608.507	0.0163273
608.585	0.0161682
608.663	0.0161003
608.741	0.0161812
608.819	0.0162220
608.898	0.0162350
608.976	0.0162537
609.054	0.0163357
609.132	0.0166309
609.210	0.0166389
609.288	0.0165386
609.366	0.0166927
609.444	0.0166618
609.523	0.0165497
609.601	0.0170933
609.679	0.0169888
609.757	0.0172543
609.835	0.0171272
609.913	0.0172447
609.991	0.0176449
610.069	0.0177601
610.148	0.0175896
610.226	0.0176071
610.304	0.0174618
610.382	0.0175827
610.460	0.0174652
610.538	0.0172020
610.616	0.0172894
610.694	0.0171257
610.773	0.0172474
610.851	0.0170284
610.929	0.0169579
611.007	0.0164902
611.085	0.0168537
611.163	0.0165855
611.241	0.0166500
611.319	0.0161644
611.398	0.0163948
611.476	0.0163040
611.554	0.0164806
611.632	0.0160675
611.710	0.0157322
611.788	0.0157322
611.866	0.0159718
611.944	0.0159630
612.023	0.0159649
612.101	0.0161259
612.179	0.0159092
612.257	0.0160145
612.335	0.0159035
612.413	0.0162914
612.491	0.0160484
612.569	0.0161201
612.648	0.0160946
612.726	0.0161938
612.804	0.0164520
612.882	0.0163422
612.960	0.0163795
613.038	0.0163578
613.116	0.0162292
613.194	0.0162708
613.273	0.0161812
613.351	0.0161850
613.429	0.0161308
613.507	0.0162228
613.585	0.0165451
613.663	0.0162548
613.741	0.0160553
613.819	0.0163593
613.898	0.0162449
613.976	0.0160904
614.054	0.0160419
614.132	0.0163090
614.210	0.0161022
614.288	0.0160755
614.366	0.0161953
614.444	0.0163681
614.523	0.0164879
614.601	0.0162842
614.679	0.0164589
614.757	0.0161373
614.835	0.0164635
614.913	0.0162960
614.991	0.0162010
615.069	0.0164150
615.148	0.0164566
615.226	0.0165585
615.304	0.0166271
615.382	0.0163898
615.460	0.0161808
615.538	0.0163925
615.616	0.0166164
615.694	0.0162170
615.773	0.0163574
615.851	0.0163948
615.929	0.0162392
616.007	0.0163471
616.085	0.0165375
616.163	0.0164490
616.241	0.0165440
616.319	0.0163586
616.398	0.0165100
616.476	0.0163574
616.554	0.0163868
616.632	0.0164684
616.710	0.0161411
616.788	0.0161625
616.866	0.0166687
616.944	0.0166122
617.023	0.0163364
617.101	0.0166153
617.179	0.0164322
617.257	0.0161846
617.335	0.0164577
617.413	0.0164196
617.491	0.0163513
617.569	0.0164848
617.648	0.0168179
617.726	0.0162598
617.804	0.0165363
617.882	0.0164135
617.960	0.0162994
618.038	0.0164932
618.116	0.0166607
618.194	0.0164642
618.273	0.0167755
618.351	0.0167492
618.429	0.0164276
618.507	0.0167904
618.585	0.0162991
618.663	0.0164227
618.741	0.0165909
618.819	0.0165600
618.898	0.0167183
618.976	0.0164474
619.054	0.0164738
619.132	0.0164509
619.210	0.0163895
619.288	0.0166077
619.366	0.0164272
619.444	0.0165112
619.523	0.0166874
619.601	0.0165447
619.679	0.0166500
619.757	0.0165806
619.835	0.0165215
619.913	0.0164139
619.991	0.0166866
620.069	0.0166183
620.148	0.0163490
620.226	0.0166393
620.304	0.0167511
620.382	0.0164845
620.460	0.0167496
620.538	0.0167038
620.616	0.0166386
620.694	0.0163143
620.773	0.0164379
620.851	0.0165089
620.929	0.0164333
621.007	0.0163956
621.085	0.0168377
621.163	0.0166470
621.241	0.0167114
621.319	0.0166058
621.398	0.0165081
621.476	0.0166958
621.554	0.0164608
621.632	0.0161568
621.710	0.0163517
621.788	0.0162392
621.866	0.0165699
621.944	0.0163841
622.023	0.0163357
622.101	0.0161652
622.179	0.0164913
622.257	0.0164463
622.335	0.0163849
622.413	0.0164944
622.491	0.0160095
622.569	0.0162262
622.648	0.0167622
622.726	0.0164925
622.804	0.0166489
622.882	0.0164833
622.960	0.0164974
623.038	0.0166573
623.116	0.0164581
623.194	0.0162655
623.273	0.0164661
623.351	0.0166271
623.429	0.0164799
623.507	0.0164875
623.585	0.0165218
623.663	0.0164993
623.741	0.0165215
623.819	0.0162102
623.898	0.0163967
623.976	0.0164490
624.054	0.0163826
624.132	0.0164917
624.210	0.0166546
624.288	0.0168400
624.366	0.0164223
624.444	0.0167301
624.523	0.0164143
624.601	0.0162868
624.679	0.0165058
624.757	0.0162289
624.835	0.0164509
624.913	0.0167820
624.991	0.0163933
625.069	0.0168137
625.148	0.0162941
625.226	0.0164600
625.304	0.0162788
625.382	0.0162334
625.460	0.0165211
625.538	0.0166157
625.616	0.0163681
625.694	0.0163261
625.773	0.0165741
625.851	0.0162926
625.929	0.0165600
626.007	0.0167580
626.085	0.0163658
626.163	0.0162731
626.241	0.0164375
626.319	0.0163986
626.398	0.0164101
626.476	0.0162121
626.554	0.0164558
626.632	0.0163784
626.710	0.0164566
626.788	0.0162769
626.866	0.0165058
626.944	0.0164993
627.023	0.0164127
627.101	0.0165459
627.179	0.0168034
627.257	0.0165287
627.335	0.0163815
627.413	0.0164921
627.491	0.0163109
627.569	0.0166538
627.648	0.0166615
627.726	0.0163120
627.804	0.0162788
627.882	0.0160721
627.960	0.0163593
628.038	0.0165344
628.116	0.0163116
628.194	0.0163933
628.273	0.0164429
628.351	0.0162716
628.429	0.0165306
628.507	0.0165432
628.585	0.0162979
628.663	0.0165562
628.741	0.0164139
628.819	0.0163300
628.898	0.0166298
628.976	0.0165230
629.054	0.0161980
629.132	0.0163189
629.210	0.0163139
629.288	0.0163174
629.366	0.0165394
629.444	0.0163605
629.523	0.0164005
629.601	0.0161175
629.679	0.0163338
629.757	0.0165325
629.835	0.0162937
629.913	0.0163425
629.991	0.0164169
630.069	0.0162258
630.148	0.0161877
630.226	0.0162525
630.304	0.0162083
630.382	0.0165409
630.460	0.0164570
630.538	0.0163414
630.616	0.0165226
630.694	0.0163033
630.773	0.0161449
630.851	0.0162270
630.929	0.0164074
631.007	0.0167202
631.085	0.0163250
631.163	0.0164516
631.241	0.0165390
631.319	0.0164021
631.398	0.0162766
631.476	0.0161858
631.554	0.0162731
631.632	0.0165897
631.710	0.0164295
631.788	0.0162907
631.866	0.0165440
631.944	0.0163147
632.023	0.0166016
632.101	0.0163895
632.179	0.0164906
632.257	0.0162785
632.335	0.0163738
632.413	0.0166660
632.491	0.0165249
632.569	0.0164654
632.648	0.0163074
632.726	0.0165356
632.804	0.0164402
632.882	0.0166611
632.960	0.0164967
633.038	0.0167423
633.116	0.0166370
633.194	0.0165424
633.273	0.0163628
633.351	0.0165016
633.429	0.0160923
633.507	0.0161346
633.585	0.0164116
633.663	0.0165539
633.741	0.0163445
633.819	0.0161655
633.898	0.0164360
633.976	0.0163715
634.054	0.0163074
634.132	0.0165104
634.210	0.0164703
634.288	0.0164516
634.366	0.0162907
634.444	0.0164185
634.523	0.0160740
634.601	0.0162941
634.679	0.0163086
634.757	0.0163128
634.835	0.0163509
634.913	0.0163925
634.991	0.0161160
635.069	0.0163116
635.148	0.0162140
635.226	0.0164757
635.304	0.0164532
635.382	0.0163433
635.460	0.0160553
635.538	0.0161797
635.616	0.0163296
635.694	0.0165497
635.773	0.0164608
635.851	0.0160336
635.929	0.0163120
636.007	0.0161819
636.085	0.0161217
636.163	0.0163589
636.241	0.0160656
636.319	0.0162533
636.398	0.0170372
636.476	0.0164673
636.554	0.0162170
636.632	0.0161579
636.710	0.0161839
636.788	0.0165417
636.866	0.0165791
636.944	0.0165173
637.023	0.0165806
637.101	0.0163658
637.179	0.0162647
637.257	0.0164696
637.335	0.0164249
637.413	0.0164249
637.491	0.0163666
637.569	0.0162563
637.648	0.0165745
637.726	0.0164482
637.804	0.0164295
637.882	0.0164742
637.960	0.0164906
638.038	0.0166607
638.116	0.0166523
638.194	0.0163742
638.273	0.0162468
638.351	0.0165745
638.429	0.0160969
638.507	0.0162155
638.585	0.0166889
638.663	0.0167568
638.741	0.0165195
638.819	0.0161907
638.898	0.0163792
638.976	0.0162907
639.054	0.0166836
639.132	0.0164471
639.210	0.0165653
639.288	0.0162914
639.366	0.0164070
639.444	0.0165813
639.523	0.0162323
639.601	0.0165665
639.679	0.0167713
639.757	0.0166260
639.835	0.0164753
639.913	0.0169910
639.991	0.0166607
640.069	0.0168049
640.148	0.0165520
640.226	0.0164879
640.304	0.0166328
640.382	0.0165756
640.460	0.0163578
640.538	0.0160305
640.616	0.0166199
640.694	0.0165192
640.773	0.0166260
640.851	0.0163212
640.929	0.0163860
641.007	0.0166237
641.085	0.0166714
641.163	0.0162777
641.241	0.0164642
641.319	0.0164516
641.398	0.0164223
641.476	0.0162476
641.554	0.0163952
641.632	0.0163403
641.710	0.0165638
641.788	0.0162323
641.866	0.0163616
641.944	0.0166725
642.023	0.0164219
642.101	0.0164238
642.179	0.0162220
642.257	0.0164967
642.335	0.0164436
642.413	0.0162624
642.491	0.0162472
642.569	0.0164818
642.648	0.0165009
642.726	0.0162926
642.804	0.0163311
642.882	0.0161522
642.960	0.0162247
643.038	0.0161461
643.116	0.0163479
643.194	0.0165535
643.273	0.0165096
643.351	0.0163048
643.429	0.0164642
643.507	0.0162399
643.585	0.0164005
643.663	0.0163895
643.741	0.0165321
643.819	0.0162411
643.898	0.0164085
643.976	0.0161880
644.054	0.0164509
644.132	0.0164673
644.210	0.0164856
644.288	0.0162399
644.366	0.0162827
644.444	0.0164867
644.523	0.0163841
644.601	0.0161549
644.679	0.0165146
644.757	0.0160702
644.835	0.0160244
644.913	0.0164616
644.991	0.0161556
645.069	0.0163643
645.148	0.0161011
645.226	0.0161682
645.304	0.0160645
645.382	0.0162731
645.460	0.0164783
645.538	0.0161835
645.616	0.0162918
645.694	0.0163269
645.773	0.0162354
645.851	0.0163933
645.929	0.0164890
646.007	0.0162834
646.085	0.0166290
646.163	0.0163345
646.241	0.0165112
646.319	0.0163280
646.398	0.0164528
646.476	0.0164391
646.554	0.0164356
646.632	0.0163319
646.710	0.0163155
646.788	0.0162777
646.866	0.0164684
646.944	0.0164562
647.023	0.0164864
647.101	0.0164017
647.179	0.0165638
647.257	0.0162506
647.335	0.0163956
647.413	0.0165604
647.491	0.0167168
647.569	0.0165485
647.648	0.0164558
647.726	0.0163097
647.804	0.0160938
647.882	0.0165718
647.960	0.0167091
648.038	0.0164391
648.116	0.0161671
648.194	0.0164127
648.273	0.0164356
648.351	0.0162975
648.429	0.0162998
648.507	0.0164368
648.585	0.0165543
648.663	0.0163815
648.741	0.0164001
648.819	0.0167408
648.898	0.0164917
648.976	0.0164543
649.054	0.0162666
649.132	0.0163197
649.210	0.0163975
649.288	0.0163219
649.366	0.0165661
649.444	0.0164482
649.523	0.0163731
649.601	0.0163166
649.679	0.0166550
649.757	0.0167549
649.835	0.0161629
649.913	0.0163277
649.991	0.0164223
650.069	0.0164288
650.148	0.0167416
650.226	0.0164909
650.304	0.0163258
650.382	0.0163952
650.460	0.0162231
650.538	0.0164619
650.616	0.0167683
650.694	0.0161720
650.773	0.0164829
650.851	0.0166431
650.929	0.0163609
651.007	0.0165482
651.085	0.0163559
651.163	0.0165234
651.241	0.0165501
651.319	0.0165802
651.398	0.0163773
651.476	0.0165123
651.554	0.0165257
651.632	0.0163380
651.710	0.0164234
651.788	0.0161903
651.866	0.0161751
651.944	0.0162006
652.023	0.0163635
652.101	0.0165173
652.179	0.0166882
652.257	0.0164806
652.335	0.0161396
652.413	0.0164886
652.491	0.0165478
652.569	0.0164711
652.648	0.0166298
652.726	0.0164780
652.804	0.0166550
652.882	0.0166176
652.960	0.0167259
653.038	0.0166653
653.116	0.0160717
653.194	0.0163708
653.273	0.0161690
653.351	0.0164623
653.429	0.0166611
653.507	0.0165291
653.585	0.0161705
653.663	0.0164597
653.741	0.0164936
653.819	0.0163464
653.898	0.0162666
653.976	0.0163658
654.054	0.0163017
654.132	0.0165829
654.210	0.0166325
654.288	0.0161037
654.366	0.0165714
654.444	0.0164368
654.523	0.0162670
654.601	0.0163216
654.679	0.0165329
654.757	0.0165936
654.835	0.0164680
654.913	0.0164017
654.991	0.0165165
655.069	0.0165077
655.148	0.0163692
655.226	0.0164501
655.304	0.0165749
655.382	0.0163704
655.460	0.0165016
655.538	0.0165821
655.616	0.0167389
655.694	0.0165607
655.773	0.0164330
655.851	0.0161572
655.929	0.0163410
656.007	0.0164494
656.085	0.0164230
656.163	0.0162369
656.241	0.0164909
656.319	0.0162956
656.398	0.0165401
656.476	0.0163929
656.554	0.0165977
656.632	0.0163353
656.710	0.0162529
656.788	0.0163612
656.866	0.0165768
656.944	0.0163631
657.023	0.0163376
657.101	0.0165298
657.179	0.0166115
657.257	0.0164089
657.335	0.0166119
657.413	0.0163624
657.491	0.0162178
657.569	0.0163956
657.648	0.0168034
657.726	0.0165440
657.804	0.0161972
657.882	0.0164036
657.960	0.0163757
658.038	0.0165386
658.116	0.0164330
658.194	0.0165031
658.273	0.0165924
658.351	0.0164429
658.429	0.0164516
658.507	0.0166149
658.585	0.0164349
658.663	0.0165474
658.741	0.0166828
658.819	0.0164906
658.898	0.0165150
658.976	0.0165207
659.054	0.0164307
659.132	0.0166374
659.210	0.0167141
659.288	0.0166271
659.366	0.0164215
659.444	0.0167099
659.523	0.0168232
659.601	0.0167183
659.679	0.0169155
659.757	0.0164818
659.835	0.0167900
659.913	0.0171249
659.991	0.0165707
660.069	0.0164825
660.148	0.0167038
660.226	0.0168358
660.304	0.0164371
660.382	0.0167480
660.460	0.0166508
660.538	0.0165264
660.616	0.0167583
660.694	0.0163628
660.773	0.0165783
660.851	0.0165024
660.929	0.0168453
661.007	0.0167980
661.085	0.0165993
661.163	0.0167355
661.241	0.0164780
661.319	0.0164249
661.398	0.0161682
661.476	0.0163849
661.554	0.0162209
661.632	0.0165398
661.710	0.0164696
661.788	0.0168011
661.866	0.0161758
661.944	0.0164608
662.023	0.0164806
662.101	0.0164871
662.179	0.0162174
662.257	0.0159870
662.335	0.0164684
662.413	0.0162979
662.491	0.0162952
662.569	0.0162567
662.648	0.0164051
662.726	0.0161629
662.804	0.0161995
662.882	0.0163609
662.960	0.0166454
663.038	0.0162556
663.116	0.0164719
663.194	0.0163559
663.273	0.0162121
663.351	0.0161770
663.429	0.0161842
663.507	0.0160809
663.585	0.0162285
663.663	0.0164734
663.741	0.0164536
663.819	0.0163288
663.898	0.0163349
663.976	0.0162350
664.054	0.0163944
664.132	0.0160587
664.210	0.0164116
664.288	0.0163715
664.366	0.0160717
664.444	0.0162476
664.523	0.0160534
664.601	0.0164902
664.679	0.0162514
664.757	0.0162453
664.835	0.0160362
664.913	0.0162502
664.991	0.0165981
665.069	0.0163403
665.148	0.0164288
665.226	0.0163666
665.304	0.0159870
665.382	0.0161808
665.460	0.0161942
665.538	0.0160469
665.616	0.0162960
665.694	0.0163010
665.773	0.0159115
665.851	0.0162148
665.929	0.0160858
666.007	0.0164063
666.085	0.0165131
666.163	0.0161255
666.241	0.0163239
666.319	0.0165611
666.398	0.0162132
666.476	0.0162975
666.554	0.0163887
666.632	0.0163246
666.710	0.0164143
666.788	0.0162910
666.866	0.0162991
666.944	0.0165012
667.023	0.0162888
667.101	0.0163029
667.179	0.0163208
667.257	0.0163387
667.335	0.0162975
667.413	0.0162682
667.491	0.0165676
667.569	0.0162251
667.648	0.0160740
667.726	0.0165104
667.804	0.0163902
667.882	0.0161991
667.960	0.0162594
668.038	0.0162342
668.116	0.0164726
668.194	0.0163319
668.273	0.0165737
668.351	0.0162022
668.429	0.0167171
668.507	0.0166328
668.585	0.0164211
668.663	0.0164288
668.741	0.0165043
668.819	0.0166706
668.898	0.0163589
668.976	0.0166161
669.054	0.0165291
669.132	0.0164135
669.210	0.0165073
669.288	0.0168240
669.366	0.0165188
669.444	0.0166069
669.523	0.0167923
669.601	0.0168194
669.679	0.0166748
669.757	0.0167236
669.835	0.0161976
669.913	0.0168270
669.991	0.0166901
670.069	0.0168240
670.148	0.0166538
670.226	0.0166313
670.304	0.0166954
670.382	0.0165947
670.460	0.0166508
670.538	0.0167503
670.616	0.0166847
670.694	0.0166763
670.773	0.0167610
670.851	0.0166752
670.929	0.0167618
671.007	0.0167927
671.085	0.0168514
671.163	0.0171581
671.241	0.0166134
671.319	0.0166904
671.398	0.0167542
671.476	0.0166416
671.554	0.0168385
671.632	0.0168327
671.710	0.0169521
671.788	0.0169460
671.866	0.0166622
671.944	0.0168163
672.023	0.0167728
672.101	0.0169254
672.179	0.0168392
672.257	0.0172161
672.335	0.0169037
672.413	0.0167511
672.491	0.0166855
672.569	0.0169342
672.648	0.0168056
672.726	0.0166927
672.804	0.0167744
672.882	0.0168972
672.960	0.0165291
673.038	0.0165325
673.116	0.0170242
673.194	0.0167370
673.273	0.0166958
673.351	0.0166664
673.429	0.0167744
673.507	0.0165524
673.585	0.0170197
673.663	0.0169842
673.741	0.0166779
673.819	0.0168129
673.898	0.0168041
673.976	0.0167137
674.054	0.0167648
674.132	0.0167965
674.210	0.0168121
674.288	0.0164505
674.366	0.0165840
674.444	0.0164051
674.523	0.0169003
674.601	0.0165077
674.679	0.0167049
674.757	0.0165627
674.835	0.0165276
674.913	0.0166653
674.991	0.0165318
675.069	0.0166294
675.148	0.0164520
675.226	0.0163807
675.304	0.0166058
675.382	0.0163822
675.460	0.0164700
675.538	0.0162918
675.616	0.0160492
675.694	0.0165695
675.773	0.0165501
675.851	0.0164955
675.929	0.0159939
676.007	0.0162773
676.085	0.0163151
676.163	0.0159645
676.241	0.0159557
676.319	0.0159309
676.398	0.0158863
676.476	0.0158970
676.554	0.0158791
676.632	0.0155777
676.710	0.0157871
676.788	0.0160549
676.866	0.0161236
676.944	0.0160366
677.023	0.0158047
677.101	0.0158131
677.179	0.0159492
677.257	0.0163536
677.335	0.0158718
677.413	0.0161854
677.491	0.0163639
677.569	0.0164558
677.648	0.0162865
677.726	0.0161922
677.804	0.0164165
677.882	0.0165318
677.960	0.0162750
678.038	0.0167297
678.116	0.0163643
678.194	0.0162796
678.273	0.0164757
678.351	0.0161266
678.429	0.0162132
678.507	0.0164509
678.585	0.0161652
678.663	0.0160919
678.741	0.0162281
678.819	0.0163063
678.898	0.0157669
678.976	0.0159904
679.054	0.0159645
679.132	0.0158718
679.210	0.0157780
679.288	0.0159466
679.366	0.0156399
679.444	0.0153763
679.523	0.0154873
679.601	0.0157166
679.679	0.0155754
679.757	0.0153313
679.835	0.0156242
679.913	0.0153736
679.991	0.0154716
680.069	0.0156826
680.148	0.0157276
680.226	0.0152737
680.304	0.0156101
680.382	0.0155441
680.460	0.0155827
680.538	0.0156414
680.616	0.0158237
680.694	0.0155704
680.773	0.0152458
680.851	0.0154522
680.929	0.0157421
681.007	0.0154499
681.085	0.0153023
681.163	0.0152073
681.241	0.0153484
681.319	0.0154495
681.398	0.0149323
681.476	0.0150337
681.554	0.0150723
681.632	0.0150177
681.710	0.0148331
681.788	0.0146351
681.866	0.0145496
681.944	0.0143169
682.023	0.0148891
682.101	0.0144264
682.179	0.0140110
682.257	0.0147118
682.335	0.0144482
682.413	0.0144260
682.491	0.0142929
682.569	0.0142349
682.648	0.0139175
682.726	0.0141251
682.804	0.0142384
682.882	0.0138783
682.960	0.0140053
683.038	0.0138721
683.116	0.0139080
683.194	0.0139343
683.273	0.0140469
683.351	0.0140114
683.429	0.0139481
683.507	0.0137886
683.585	0.0136925
683.663	0.0138710
683.741	0.0134377
683.819	0.0135254
683.898	0.0136112
683.976	0.0137074
684.054	0.0138035
684.132	0.0132488
684.210	0.0135796
684.288	0.0133804
684.366	0.0131744
684.444	0.0129803
684.523	0.0127934
684.601	0.0127575
684.679	0.0125057
684.757	0.0122536
684.835	0.0121685
684.913	0.0118847
684.991	0.0117157
685.069	0.0111168
685.148	0.0109776
685.226	0.0107067
685.304	0.0105595
685.382	0.0103600
685.460	0.00985985
685.538	0.00935173
685.616	0.00907173
685.694	0.00872421
685.773	0.00799103
685.851	0.00764236
685.929	0.00695457
686.007	0.00646973
686.085	0.00588493
686.163	0.00529861
686.241	0.00450401
686.319	0.00375328
686.398	0.00306931
686.476	0.00237274
686.554	0.00135269
686.632	0.000609207
686.710	-0.000365829
686.788	-0.00153809
686.866	-0.00213623
686.944	-0.00354881
687.023	-0.00449257
687.101	-0.00515785
687.179	-0.00649529
687.257	-0.00750084
687.335	-0.00864182
687.413	-0.00951691
687.491	-0.0108288
687.569	-0.0120792
687.648	-0.0134583
687.726	-0.0146461
687.804	-0.0159042
687.882	-0.0169441
687.960	-0.0176365
688.038	-0.0174061
688.116	-0.0164673
688.194	-0.0139294
688.273	-0.00947227
688.351	-0.00262489
688.429	0.00674706
688.507	0.0191719
688.585	0.0343456
688.663	0.0514988
688.741	0.0716244
688.819	0.0923794
688.898	0.113872
688.976	0.135956
689.054	0.156923
689.132	0.176427
689.210	0.193554
689.288	0.207326
689.366	0.217910
689.444	0.225585
689.523	0.228741
689.601	0.227657
689.679	0.222846
689.757	0.214573
689.835	0.203248
689.913	0.188655
689.991	0.172200
690.069	0.153310
690.148	0.132745
690.226	0.110320
690.304	0.0871792
690.382	0.0632149
690.460	0.0395298
690.538	0.0157646
690.616	-0.00779266
690.694	-0.0292149
690.773	-0.0493439
690.851	-0.0669315
690.929	-0.0819023
691.007	-0.0943394
691.085	-0.103879
691.163	-0.109724
691.241	-0.113001
691.319	-0.113768
691.398	-0.111480
691.476	-0.107082
691.554	-0.101096
691.632	-0.0937611
691.710	-0.0856468
691.788	-0.0774651
691.866	-0.0686466
691.944	-0.0602356
692.023	-0.0526604
692.101	-0.0455696
692.179	-0.0395206
692.257	-0.0339821
692.335	-0.0297035
692.413	-0.0255791
692.491	-0.0230320
692.569	-0.0208015
692.648	-0.0191299
692.726	-0.0183613
692.804	-0.0175781
692.882	-0.0176449
692.960	-0.0176125
693.038	-0.0173847
693.116	-0.0175465
693.194	-0.0176800
693.273	-0.0173172
693.351	-0.0172867
693.429	-0.0171421
693.507	-0.0165390
693.585	-0.0159241
693.663	-0.0152710
693.741	-0.0138477
693.819	-0.0122337
693.898	-0.0103931
693.976	-0.00878487
694.054	-0.00652771
694.132	-0.00379829
694.210	-0.00146255
694.288	0.000364685
694.366	0.00242310
694.444	0.00460434
694.523	0.00618057
694.601	0.00743027
694.679	0.00898552
694.757	0.00980225
694.835	0.0103493
694.913	0.0108128
694.991	0.0111603
695.069	0.0112629
695.148	0.0109516
695.226	0.0102913
695.304	0.0104023
695.382	0.0101597
695.460	0.00956497
695.538	0.00948715
695.616	0.00908623
695.694	0.00908661
695.773	0.00894508
695.851	0.00886917
695.929	0.00873604
696.007	0.00979691
696.085	0.0102009
696.163	0.0105152
696.241	0.0116844
696.319	0.0130127
696.398	0.0137470
696.476	0.0145161
696.554	0.0161606
696.632	0.0173187
696.710	0.0184727
696.788	0.0198296
696.866	0.0212166
696.944	0.0228489
697.023	0.0236778
697.101	0.0255768
697.179	0.0269024
697.257	0.0286518
697.335	0.0300755
697.413	0.0316193
697.491	0.0328781
697.569	0.0337635
697.648	0.0345753
697.726	0.0354969
697.804	0.0359283
697.882	0.0357151
697.960	0.0360977
698.038	0.0355129
698.116	0.0350899
698.194	0.0344601
698.273	0.0335304
698.351	0.0323196
698.429	0.0313564
698.507	0.0305195
698.585	0.0297977
698.663	0.0292889
698.741	0.0286991
698.819	0.0286274
698.898	0.0285751
698.976	0.0285477
699.054	0.0288185
699.132	0.0295818
699.210	0.0301239
699.288	0.0307240
699.366	0.0310791
699.444	0.0325462
699.523	0.0334534
699.601	0.0341122
699.679	0.0349812
699.757	0.0354721
699.835	0.0358067
699.913	0.0361984
699.991	0.0365139
700.069	0.0367073
700.148	0.0364311
700.226	0.0357002
700.304	0.0354103
700.382	0.0348976
700.460	0.0334713
700.538	0.0320431
700.616	0.0307659
700.694	0.0293579
700.773	0.0277855
700.851	0.0258919
700.929	0.0241932
701.007	0.0226185
701.085	0.0205788
701.163	0.0189346
701.241	0.0172050
701.319	0.0157764
701.398	0.0144112
701.476	0.0133137
701.554	0.0125954
701.632	0.0112965
701.710	0.0107845
701.788	0.0104294
701.866	0.0104248
701.944	0.0100998
702.023	0.0101894
702.101	0.0103741
702.179	0.0110111
702.257	0.0110950
702.335	0.0114319
702.413	0.0119759
702.491	0.0127941
702.569	0.0130638
702.648	0.0138401
702.726	0.0142258
702.804	0.0146923
702.882	0.0154644
702.960	0.0157303
703.038	0.0157146
703.116	0.0157337
703.194	0.0153477
703.273	0.0152042
703.351	0.0150852
703.429	0.0143688
703.507	0.0140022
703.585	0.0136883
703.663	0.0135105
703.741	0.0130692
703.819	0.0127026
703.898	0.0126644
703.976	0.0123882
704.054	0.0124630
704.132	0.0118786
704.210	0.0118511
704.288	0.0121922
704.366	0.0124279
704.444	0.0125854
704.523	0.0128376
704.601	0.0129982
704.679	0.0131100
704.757	0.0135109
704.835	0.0132896
704.913	0.0133183
704.991	0.0134426
705.069	0.0131996
705.148	0.0131275
705.226	0.0132896
705.304	0.0130123
705.382	0.0135391
705.460	0.0136623
705.538	0.0136852
705.616	0.0142685
705.694	0.0144833
705.773	0.0144882
705.851	0.0150368
705.929	0.0151005
706.007	0.0154114
706.085	0.0159382
706.163	0.0164619
706.241	0.0170292
706.319	0.0170582
706.398	0.0177223
706.476	0.0179722
706.554	0.0180138
706.632	0.0182919
706.710	0.0180809
706.788	0.0181904
706.866	0.0183685
706.944	0.0181721
707.023	0.0180130
707.101	0.0178162
707.179	0.0177830
707.257	0.0174671
707.335	0.0175194
707.413	0.0171467
707.491	0.0171387
707.569	0.0166958
707.648	0.0168484
707.726	0.0168442
707.804	0.0170715
707.882	0.0171753
707.960	0.0174381
708.038	0.0176815
708.116	0.0178642
708.194	0.0179581
708.273	0.0180923
708.351	0.0179329
708.429	0.0177589
708.507	0.0177658
708.585	0.0171738
708.663	0.0165886
708.741	0.0165409
708.819	0.0161617
708.898	0.0157467
708.976	0.0150612
709.054	0.0148174
709.132	0.0148338
709.210	0.0145035
709.288	0.0144928
709.366	0.0143616
709.444	0.0146294
709.523	0.0152233
709.601	0.0154922
709.679	0.0158199
709.757	0.0161232
709.835	0.0166569
709.913	0.0174084
709.991	0.0178806
710.069	0.0179482
710.148	0.0181160
710.226	0.0186436
710.304	0.0189739
710.382	0.0192917
710.460	0.0192764
710.538	0.0193764
710.616	0.0194633
710.694	0.0195854
710.773	0.0203655
710.851	0.0206970
710.929	0.0205853
711.007	0.0212906
711.085	0.0213562
711.163	0.0213692
711.241	0.0217682
711.319	0.0215412
711.398	0.0216812
711.476	0.0219971
711.554	0.0218750
711.632	0.0220459
711.710	0.0218609
711.788	0.0221329
711.866	0.0221115
711.944	0.0224247
712.023	0.0224152
712.101	0.0224915
712.179	0.0223797
712.257	0.0224514
712.335	0.0229221
712.413	0.0224541
712.491	0.0225704
712.569	0.0224209
712.648	0.0224884
712.726	0.0221107
712.804	0.0220337
712.882	0.0215965
712.960	0.0214767
713.038	0.0217121
713.116	0.0213310
713.194	0.0211533
713.273	0.0209675
713.351	0.0211308
713.429	0.0204746
713.507	0.0199711
713.585	0.0199986
713.663	0.0195808
713.741	0.0187263
713.819	0.0180882
713.898	0.0176006
713.976	0.0165051
714.054	0.0157715
714.132	0.0144897
714.210	0.0136173
714.288	0.0128403
714.366	0.0120758
714.444	0.0115925
714.523	0.0108738
714.601	0.0104694
714.679	0.00985184
714.757	0.00963669
714.835	0.00943489
714.913	0.00934372
714.991	0.00930214
715.069	0.00931244
715.148	0.00935364
715.226	0.00982323
715.304	0.00988998
715.382	0.00965843
715.460	0.00951462
715.538	0.00978775
715.616	0.0101280
715.694	0.0102612
715.773	0.0105091
715.851	0.0105152
715.929	0.0104553
716.007	0.0106892
716.085	0.0111706
716.163	0.0112293
716.241	0.0113377
716.319	0.0116367
716.398	0.0120949
716.476	0.0124107
716.554	0.0128315
716.632	0.0126999
716.710	0.0128010
716.788	0.0131161
716.866	0.0133530
716.944	0.0137745
717.023	0.0133667
717.101	0.0135330
717.179	0.0136036
717.257	0.0138256
717.335	0.0136517
717.413	0.0139130
717.491	0.0136208
717.569	0.0134686
717.648	0.0136234
717.726	0.0137573
717.804	0.0137314
717.882	0.0133919
717.960	0.0135803
718.038	0.0137939
718.116	0.0136169
718.194	0.0138180
718.273	0.0139935
718.351	0.0144352
718.429	0.0149708
718.507	0.0148449
718.585	0.0149662
718.663	0.0155884
718.741	0.0157387
718.819	0.0159351
718.898	0.0161240
718.976	0.0163448
719.054	0.0165836
719.132	0.0166084
719.210	0.0170319
719.288	0.0170761
719.366	0.0169750
719.444	0.0168655
719.523	0.0169518
719.601	0.0170189
719.679	0.0168129
719.757	0.0166729
719.835	0.0166672
719.913	0.0170441
719.991	0.0167583
720.069	0.0168510
720.148	0.0169651
720.226	0.0169064
720.304	0.0168530
720.382	0.0174091
720.460	0.0170738
720.538	0.0171539
720.616	0.0167049
720.694	0.0165848
720.773	0.0167381
720.851	0.0160847
720.929	0.0160286
721.007	0.0161930
721.085	0.0155991
721.163	0.0157330
721.241	0.0157696
721.319	0.0154446
721.398	0.0154446
721.476	0.0147892
721.554	0.0148289
721.632	0.0146156
721.710	0.0145775
721.788	0.0142235
721.866	0.0144024
721.944	0.0140091
722.023	0.0140606
722.101	0.0139404
722.179	0.0140148
722.257	0.0135540
722.335	0.0136417
722.413	0.0136166
722.491	0.0136948
722.569	0.0132763
722.648	0.0127735
722.726	0.0126755
722.804	0.0128067
722.882	0.0127590
722.960	0.0123653
723.038	0.0117096
723.116	0.0117691
723.194	0.0114403
723.273	0.0112152
723.351	0.0110497
723.429	0.0109509
723.507	0.0110168
723.585	0.0109238
723.663	0.0109512
723.741	0.0112431
723.819	0.0116394
723.898	0.0118896
723.976	0.0126461
724.054	0.0133171
724.132	0.0134499
724.210	0.0143642
724.288	0.0150333
724.366	0.0154076
724.444	0.0157742
724.523	0.0163605
724.601	0.0165806
724.679	0.0167271
724.757	0.0168381
724.835	0.0169514
724.913	0.0168980
724.991	0.0174358
725.069	0.0173504
725.148	0.0173244
725.226	0.0174881
725.304	0.0173878
725.382	0.0179363
725.460	0.0180542
725.538	0.0181465
725.616	0.0183926
725.694	0.0183815
725.773	0.0183788
725.851	0.0185604
725.929	0.0185898
726.007	0.0187481
726.085	0.0187721
726.163	0.0186958
726.241	0.0186386
726.319	0.0184315
726.398	0.0186127
726.476	0.0185627
726.554	0.0183842
726.632	0.0182556
726.710	0.0184216
726.788	0.0185596
726.866	0.0186218
726.944	0.0185909
727.023	0.0182995
727.101	0.0186939
727.179	0.0187225
727.257	0.0187004
727.335	0.0187965
727.413	0.0187744
727.491	0.0188679
727.569	0.0189667
727.648	0.0188541
727.726	0.0190067
727.804	0.0190178
727.882	0.0193989
727.960	0.0195976
728.038	0.0193073
728.116	0.0194790
728.194	0.0197399
728.273	0.0196804
728.351	0.0198490
728.429	0.0198746
728.507	0.0198215
728.585	0.0195705
728.663	0.0195889
728.741	0.0197983
728.819	0.0197304
728.898	0.0196526
728.976	0.0199863
729.054	0.0198887
729.132	0.0200668
729.210	0.0202827
729.288	0.0203838
729.366	0.0200310
729.444	0.0203308
729.523	0.0205944
729.601	0.0203724
729.679	0.0203468
729.757	0.0206989
729.835	0.0203606
729.913	0.0204205
729.991	0.0201561
730.069	0.0199032
730.148	0.0199318
730.226	0.0190323
730.304	0.0188641
730.382	0.0189213
730.460	0.0187206
730.538	0.0185604
730.616	0.0181534
730.694	0.0180012
730.773	0.0180256
730.851	0.0178928
730.929	0.0182156
731.007	0.0180653
731.085	0.0178745
731.163	0.0178696
731.241	0.0181843
731.319	0.0181503
731.398	0.0181053
731.476	0.0177059
731.554	0.0175575
731.632	0.0170193
731.710	0.0168945
731.788	0.0168995
731.866	0.0166988
731.944	0.0162750
732.023	0.0162880
732.101	0.0160690
732.179	0.0157894
732.257	0.0158012
732.335	0.0154976
732.413	0.0154228
732.491	0.0155235
732.569	0.0151131
732.648	0.0154121
732.726	0.0153416
732.804	0.0152351
732.882	0.0155170
732.960	0.0154652
733.038	0.0160534
733.116	0.0157257
733.194	0.0161995
733.273	0.0161343
733.351	0.0160698
733.429	0.0164780
733.507	0.0165714
733.585	0.0170273
733.663	0.0165371
733.741	0.0167427
733.819	0.0169495
733.898	0.0169674
733.976	0.0167843
734.054	0.0167149
734.132	0.0166164
734.210	0.0165260
734.288	0.0166119
734.366	0.0162766
734.444	0.0160557
734.523	0.0159706
734.601	0.0161602
734.679	0.0157688
734.757	0.0160797
734.835	0.0162971
734.913	0.0162148
734.991	0.0161118
735.069	0.0160389
735.148	0.0161777
735.226	0.0160427
735.304	0.0158127
735.382	0.0158489
735.460	0.0154930
735.538	0.0154240
735.616	0.0155590
735.694	0.0155231
735.773	0.0153606
735.851	0.0153179
735.929	0.0147179
736.007	0.0148159
736.085	0.0149181
736.163	0.0148582
736.241	0.0143833
736.319	0.0146080
736.398	0.0145782
736.476	0.0144768
736.554	0.0147587
736.632	0.0145779
736.710	0.0145432
736.788	0.0149277
736.866	0.0148445
736.944	0.0148403
737.023	0.0150517
737.101	0.0153557
737.179	0.0153732
737.257	0.0156456
737.335	0.0157791
737.413	0.0160049
737.491	0.0163418
737.569	0.0163368
737.648	0.0167286
737.726	0.0168919
737.804	0.0175262
737.882	0.0180485
737.960	0.0178772
738.038	0.0182182
738.116	0.0185768
738.194	0.0190411
738.273	0.0195393
738.351	0.0197697
738.429	0.0201622
738.507	0.0206448
738.585	0.0211773
738.663	0.0218075
738.741	0.0218212
738.819	0.0223564
738.898	0.0227665
738.976	0.0229630
739.054	0.0232979
739.132	0.0230709
739.210	0.0230000
739.288	0.0226936
739.366	0.0226360
739.444	0.0221657
739.523	0.0209969
739.601	0.0201321
739.679	0.0191780
739.757	0.0181358
739.835	0.0171352
739.913	0.0160660
739.991	0.0148682
740.069	0.0141735
740.148	0.0132019
740.226	0.0124516
740.304	0.0113041
740.382	0.0107285
740.460	0.00995903
740.538	0.00952492
740.616	0.00933075
740.694	0.00915489
740.773	0.00889053
740.851	0.00881195
740.929	0.00885086
741.007	0.00912819
741.085	0.00904007
741.163	0.00955048
741.241	0.00987587
741.319	0.0103256
741.398	0.0107063
741.476	0.0115181
741.554	0.0119347
741.632	0.0126266
741.710	0.0134140
741.788	0.0137238
741.866	0.0145466
741.944	0.0147575
742.023	0.0152695
742.101	0.0158241
742.179	0.0162464
742.257	0.0167019
742.335	0.0163448
742.413	0.0166897
742.491	0.0165340
742.569	0.0168644
742.648	0.0168758
742.726	0.0167294
742.804	0.0163692
742.882	0.0161724
742.960	0.0160362
743.038	0.0156635
743.116	0.0156376
743.194	0.0155384
743.273	0.0152645
743.351	0.0151615
743.429	0.0150673
743.507	0.0149220
743.585	0.0147850
743.663	0.0146904
743.741	0.0147411
743.819	0.0148796
743.898	0.0146374
743.976	0.0146336
744.054	0.0148441
744.132	0.0149349
744.210	0.0148178
744.288	0.0147327
744.366	0.0148560
744.444	0.0145954
744.523	0.0147572
744.601	0.0148067
744.679	0.0146339
744.757	0.0146145
744.835	0.0147526
744.913	0.0146641
744.991	0.0153976
745.069	0.0155430
745.148	0.0154396
745.226	0.0160004
745.304	0.0163097
745.382	0.0165665
745.460	0.0169785
745.538	0.0169956
745.616	0.0174511
745.694	0.0178852
745.773	0.0180504
745.851	0.0182930
745.929	0.0183380
746.007	0.0185379
746.085	0.0186718
746.163	0.0185551
746.241	0.0188232
746.319	0.0185726
746.398	0.0186077
746.476	0.0185894
746.554	0.0183281
746.632	0.0181301
746.710	0.0181286
746.788	0.0179897
746.866	0.0173855
746.944	0.0175488
747.023	0.0177094
747.101	0.0173893
747.179	0.0171978
747.257	0.0170567
747.335	0.0172215
747.413	0.0170837
747.491	0.0169910
747.569	0.0173481
747.648	0.0173344
747.726	0.0174072
747.804	0.0178280
747.882	0.0176929
747.960	0.0175953
748.038	0.0176537
748.116	0.0179047
748.194	0.0176216
748.273	0.0174999
748.351	0.0176231
748.429	0.0179039
748.507	0.0176003
748.585	0.0176937
748.663	0.0176373
748.741	0.0175770
748.819	0.0174839
748.898	0.0177120
748.976	0.0172676
749.054	0.0174686
749.132	0.0175362
749.210	0.0177513
749.288	0.0178185
749.366	0.0177475
749.444	0.0178936
749.523	0.0181526
749.601	0.0178131
749.679	0.0178726
749.757	0.0176006
749.835	0.0176968
749.913	0.0176304
749.991	0.0175995
750.069	0.0173702
750.148	0.0171791
750.226	0.0169857
750.304	0.0168484
750.382	0.0166012
750.460	0.0170776
750.538	0.0163544
750.616	0.0164173
750.694	0.0163830
750.773	0.0164322
750.851	0.0163940
750.929	0.0161186
751.007	0.0164055
751.085	0.0163807
751.163	0.0164295
751.241	0.0164104
751.319	0.0166164
751.398	0.0165718
751.476	0.0165100
751.554	0.0164635
751.632	0.0162624
751.710	0.0166744
751.788	0.0167812
751.866	0.0166416
751.944	0.0166782
752.023	0.0170132
752.101	0.0169773
752.179	0.0170635
752.257	0.0172745
752.335	0.0173115
752.413	0.0177246
752.491	0.0176952
752.569	0.0176048
752.648	0.0173801
752.726	0.0176624
752.804	0.0178047
752.882	0.0175949
752.960	0.0175701
753.038	0.0177994
753.116	0.0175201
753.194	0.0175335
753.273	0.0174866
753.351	0.0174221
753.429	0.0173260
753.507	0.0166576
753.585	0.0168633
753.663	0.0167542
753.741	0.0164906
753.819	0.0168564
753.898	0.0165356
753.976	0.0162086
754.054	0.0160252
754.132	0.0161877
754.210	0.0162113
754.288	0.0162590
754.366	0.0159321
754.444	0.0158459
754.523	0.0157360
754.601	0.0162003
754.679	0.0163464
754.757	0.0162956
754.835	0.0164936
754.913	0.0162441
754.991	0.0161671
755.069	0.0165806
755.148	0.0162346
755.226	0.0160439
755.304	0.0164223
755.382	0.0161861
755.460	0.0154255
755.538	0.0155144
755.616	0.0155060
755.694	0.0155216
755.773	0.0156681
755.851	0.0157089
755.929	0.0152367
756.007	0.0152748
756.085	0.0151497
756.163	0.0155212
756.241	0.0153374
756.319	0.0154037
756.398	0.0153065
756.476	0.0158466
756.554	0.0153946
756.632	0.0156132
756.710	0.0153976
756.788	0.0154179
756.866	0.0156540
756.944	0.0157703
757.023	0.0157619
757.101	0.0155128
757.179	0.0159122
757.257	0.0161625
757.335	0.0159565
757.413	0.0156742
757.491	0.0158066
757.569	0.0162937
757.648	0.0161697
757.726	0.0162086
757.804	0.0158623
757.882	0.0160034
757.960	0.0161266
758.038	0.0160496
758.116	0.0160576
758.194	0.0159031
758.273	0.0159149
758.351	0.0155174
758.429	0.0154476
758.507	0.0158382
758.585	0.0156437
758.663	0.0155872
758.741	0.0154388
758.819	0.0152279
758.898	0.0153439
758.976	0.0154797
759.054	0.0152321
759.132	0.0146317
759.210	0.0147427
759.288	0.0144867
759.366	0.0144253
759.444	0.0144432
759.523	0.0144154
759.601	0.0143860
759.679	0.0144226
759.757	0.0144859
759.835	0.0147137
759.913	0.0145332
759.991	0.0145370
760.069	0.0142315
760.148	0.0146744
760.226	0.0148941
760.304	0.0145584
760.382	0.0143269
760.460	0.0145771
760.538	0.0146439
760.616	0.0146591
760.694	0.0148041
760.773	0.0150723
760.851	0.0148788
760.929	0.0148216
761.007	0.0150330
761.085	0.0153801
761.163	0.0155140
761.241	0.0157440
761.319	0.0155224
761.398	0.0152573
761.476	0.0156040
761.554	0.0158321
761.632	0.0160309
761.710	0.0157883
761.788	0.0161083
761.866	0.0156601
761.944	0.0159714
762.023	0.0161102
762.101	0.0164196
762.179	0.0162666
762.257	0.0162891
762.335	0.0166149
762.413	0.0165462
762.491	0.0163372
762.569	0.0166992
762.648	0.0165737
762.726	0.0168839
762.804	0.0171982
762.882	0.0170944
762.960	0.0168076
763.038	0.0170776
763.116	0.0169743
763.194	0.0170319
763.273	0.0172615
763.351	0.0172180
763.429	0.0168953
763.507	0.0169594
763.585	0.0167072
763.663	0.0168064
763.741	0.0170925
763.819	0.0171814
763.898	0.0166435
763.976	0.0168434
764.054	0.0168213
764.132	0.0166012
764.210	0.0167679
764.288	0.0166630
764.366	0.0167027
764.444	0.0165661
764.523	0.0163406
764.601	0.0166172
764.679	0.0164680
764.757	0.0167622
764.835	0.0168098
764.913	0.0167725
764.991	0.0171326
765.069	0.0172218
765.148	0.0170887
765.226	0.0169724
765.304	0.0175400
765.382	0.0179184
765.460	0.0177654
765.538	0.0179153
765.616	0.0180500
765.694	0.0179451
765.773	0.0178150
765.851	0.0177795
765.929	0.0177246
766.007	0.0173325
766.085	0.0171230
766.163	0.0173870
766.241	0.0171555
766.319	0.0169701
766.398	0.0168842
766.476	0.0167313
766.554	0.0167229
766.632	0.0166004
766.710	0.0163845
766.788	0.0165051
766.866	0.0165318
766.944	0.0163845
767.023	0.0164627
767.101	0.0166569
767.179	0.0167122
767.257	0.0166195
767.335	0.0166466
767.413	0.0166927
767.491	0.0168922
767.569	0.0170723
767.648	0.0171700
767.726	0.0174282
767.804	0.0177223
767.882	0.0177792
767.960	0.0183136
768.038	0.0185322
768.116	0.0187626
768.194	0.0191620
768.273	0.0192497
768.351	0.0198860
768.429	0.0197632
768.507	0.0197079
768.585	0.0196175
768.663	0.0201115
768.741	0.0199505
768.819	0.0199139
768.898	0.0196812
768.976	0.0193996
769.054	0.0194111
769.132	0.0192089
769.210	0.0192867
769.288	0.0188759
769.366	0.0187752
769.444	0.0180367
769.523	0.0181229
769.601	0.0176167
769.679	0.0172462
769.757	0.0170570
769.835	0.0166321
769.913	0.0165306
