05/28/2022	14:39:57	Ver.	4.1	UNKNOWN
Optical Delay	599.988409	Delta X		0.078125	Sweeps	1	Scan Rate	0/0
Coordinates	Axis 1	NaN	Axis 2	NaN	Axis 3	NaN	Axis 4	NaN	Axis 5	NaN	Axis 6	0.000000
TX Power	0.000000	RX Power	0.000000

599.988	0.0152589
600.067	0.0155367
600.145	0.0155165
600.223	0.0155895
600.301	0.0154805
600.379	0.0154983
600.457	0.0155449
600.535	0.0154467
600.613	0.0155096
600.692	0.0154063
600.770	0.0153533
600.848	0.0153870
600.926	0.0152833
601.004	0.0155878
601.082	0.0153751
601.160	0.0152562
601.238	0.0153608
601.317	0.0152588
601.395	0.0153162
601.473	0.0153348
601.551	0.0152493
601.629	0.0152753
601.707	0.0153419
601.785	0.0152758
601.863	0.0153104
601.942	0.0153104
602.020	0.0152582
602.098	0.0152284
602.176	0.0153490
602.254	0.0151418
602.332	0.0152576
602.410	0.0153427
602.488	0.0152461
602.567	0.0153220
602.645	0.0153361
602.723	0.0151305
602.801	0.0153410
602.879	0.0152997
602.957	0.0153545
603.035	0.0150696
603.113	0.0152239
603.192	0.0153210
603.270	0.0152567
603.348	0.0151492
603.426	0.0151221
603.504	0.0153516
603.582	0.0152866
603.660	0.0152864
603.738	0.0152891
603.817	0.0153290
603.895	0.0153370
603.973	0.0153618
604.051	0.0152655
604.129	0.0153452
604.207	0.0153571
604.285	0.0152119
604.363	0.0152572
604.442	0.0152536
604.520	0.0153362
604.598	0.0152756
604.676	0.0152301
604.754	0.0152509
604.832	0.0152740
604.910	0.0153281
604.988	0.0152732
605.067	0.0152464
605.145	0.0152896
605.223	0.0152123
605.301	0.0153728
605.379	0.0155131
605.457	0.0153045
605.535	0.0153696
605.613	0.0155090
605.692	0.0153450
605.770	0.0153519
605.848	0.0155772
605.926	0.0154795
606.004	0.0154331
606.082	0.0153690
606.160	0.0154889
606.238	0.0153416
606.317	0.0154882
606.395	0.0153831
606.473	0.0154435
606.551	0.0155360
606.629	0.0153869
606.707	0.0152992
606.785	0.0154454
606.863	0.0154606
606.942	0.0155872
607.020	0.0155784
607.098	0.0155561
607.176	0.0155375
607.254	0.0157030
607.332	0.0157389
607.410	0.0156373
607.488	0.0156539
607.567	0.0157902
607.645	0.0156989
607.723	0.0157880
607.801	0.0158114
607.879	0.0158515
607.957	0.0158497
608.035	0.0158926
608.113	0.0159747
608.192	0.0159261
608.270	0.0158621
608.348	0.0158862
608.426	0.0157955
608.504	0.0158583
608.582	0.0159593
608.660	0.0157838
608.738	0.0158960
608.817	0.0158234
608.895	0.0158234
608.973	0.0157144
609.051	0.0156580
609.129	0.0157108
609.207	0.0155253
609.285	0.0156253
609.363	0.0155460
609.442	0.0155138
609.520	0.0153777
609.598	0.0153893
609.676	0.0152940
609.754	0.0153737
609.832	0.0154116
609.910	0.0151992
609.988	0.0152747
610.067	0.0151670
610.145	0.0150546
610.223	0.0151465
610.301	0.0151199
610.379	0.0151647
610.457	0.0151176
610.535	0.0151715
610.613	0.0150340
610.692	0.0150680
610.770	0.0150542
610.848	0.0152070
610.926	0.0152168
611.004	0.0150173
611.082	0.0149643
611.160	0.0151695
611.238	0.0151485
611.317	0.0151828
611.395	0.0151954
611.473	0.0151945
611.551	0.0151353
611.629	0.0152283
611.707	0.0152921
611.785	0.0152296
611.863	0.0153154
611.942	0.0151793
612.020	0.0152158
612.098	0.0154000
612.176	0.0151865
612.254	0.0153402
612.332	0.0153537
612.410	0.0153212
612.488	0.0152560
612.567	0.0154529
612.645	0.0152958
612.723	0.0153312
612.801	0.0155016
612.879	0.0155122
612.957	0.0154322
613.035	0.0153370
613.113	0.0154639
613.192	0.0153701
613.270	0.0153793
613.348	0.0153838
613.426	0.0155277
613.504	0.0153785
613.582	0.0154375
613.660	0.0153215
613.738	0.0153235
613.817	0.0153841
613.895	0.0152336
613.973	0.0153069
614.051	0.0153551
614.129	0.0153300
614.207	0.0152345
614.285	0.0152294
614.363	0.0152433
614.442	0.0152698
614.520	0.0152542
614.598	0.0153091
614.676	0.0153441
614.754	0.0153061
614.832	0.0153507
614.910	0.0153934
614.988	0.0151557
615.067	0.0152920
615.145	0.0153839
615.223	0.0154988
615.301	0.0153065
615.379	0.0152727
615.457	0.0153764
615.535	0.0153192
615.613	0.0153439
615.692	0.0153712
615.770	0.0152360
615.848	0.0153974
615.926	0.0153525
616.004	0.0155341
616.082	0.0155373
616.160	0.0152956
616.238	0.0153120
616.317	0.0153941
616.395	0.0155518
616.473	0.0154572
616.551	0.0155852
616.629	0.0155962
616.707	0.0155093
616.785	0.0155833
616.863	0.0155260
616.942	0.0154691
617.020	0.0153777
617.098	0.0154765
617.176	0.0156466
617.254	0.0155688
617.332	0.0155601
617.410	0.0155396
617.488	0.0154681
617.567	0.0155116
617.645	0.0156177
617.723	0.0155108
617.801	0.0153502
617.879	0.0155024
617.957	0.0154772
618.035	0.0153496
618.113	0.0154506
618.192	0.0152990
618.270	0.0154083
618.348	0.0154753
618.426	0.0155060
618.504	0.0153938
618.582	0.0155361
618.660	0.0154631
618.738	0.0155439
618.817	0.0156085
618.895	0.0156451
618.973	0.0155122
619.051	0.0156000
619.129	0.0155929
619.207	0.0155272
619.285	0.0155358
619.363	0.0155142
619.442	0.0155759
619.520	0.0155714
619.598	0.0155244
619.676	0.0155510
619.754	0.0154630
619.832	0.0154548
619.910	0.0153623
619.988	0.0154181
620.067	0.0152636
620.145	0.0153203
620.223	0.0152466
620.301	0.0153929
620.379	0.0152571
620.457	0.0152712
620.535	0.0152990
620.613	0.0151750
620.692	0.0153370
620.770	0.0152399
620.848	0.0151257
620.926	0.0152097
621.004	0.0151902
621.082	0.0151805
621.160	0.0153000
621.238	0.0152757
621.317	0.0153711
621.395	0.0151797
621.473	0.0153756
621.551	0.0153604
621.629	0.0155499
621.707	0.0155038
621.785	0.0154713
621.863	0.0155139
621.942	0.0154857
622.020	0.0155418
622.098	0.0155742
622.176	0.0155472
622.254	0.0155987
622.332	0.0154333
622.410	0.0155289
622.488	0.0155322
622.567	0.0153982
622.645	0.0153831
622.723	0.0152757
622.801	0.0154288
622.879	0.0154649
622.957	0.0154313
623.035	0.0153594
623.113	0.0153194
623.192	0.0152736
623.270	0.0152399
623.348	0.0151978
623.426	0.0152052
623.504	0.0150554
623.582	0.0151299
623.660	0.0150714
623.738	0.0149071
623.817	0.0149420
623.895	0.0149542
623.973	0.0148277
624.051	0.0150329
624.129	0.0149197
624.207	0.0150394
624.285	0.0150648
624.363	0.0149247
624.442	0.0148999
624.520	0.0150793
624.598	0.0151880
624.676	0.0151477
624.754	0.0150216
624.832	0.0152612
624.910	0.0151546
624.988	0.0151007
625.067	0.0150587
625.145	0.0151579
625.223	0.0151836
625.301	0.0151911
625.379	0.0153238
625.457	0.0152769
625.535	0.0154440
625.613	0.0153720
625.692	0.0151637
625.770	0.0152040
625.848	0.0152402
625.926	0.0150569
626.004	0.0151324
626.082	0.0151904
626.160	0.0150652
626.238	0.0151817
626.317	0.0151114
626.395	0.0151644
626.473	0.0151811
626.551	0.0149399
626.629	0.0150919
626.707	0.0150935
626.785	0.0151718
626.863	0.0151857
626.942	0.0152969
627.020	0.0152704
627.098	0.0152898
627.176	0.0153173
627.254	0.0153636
627.332	0.0152479
627.410	0.0154334
627.488	0.0155205
627.567	0.0153957
627.645	0.0155314
627.723	0.0153935
627.801	0.0154647
627.879	0.0155508
627.957	0.0153124
628.035	0.0153692
628.113	0.0154826
628.192	0.0154985
628.270	0.0154742
628.348	0.0155257
628.426	0.0155343
628.504	0.0153242
628.582	0.0153730
628.660	0.0153608
628.738	0.0152415
628.817	0.0153354
628.895	0.0154917
628.973	0.0152004
629.051	0.0152916
629.129	0.0153650
629.207	0.0153230
629.285	0.0154295
629.363	0.0152912
629.442	0.0152486
629.520	0.0153990
629.598	0.0154607
629.676	0.0153732
629.754	0.0154310
629.832	0.0154401
629.910	0.0154414
629.988	0.0156113
630.067	0.0155232
630.145	0.0154881
630.223	0.0155627
630.301	0.0154057
630.379	0.0154742
630.457	0.0154579
630.535	0.0155634
630.613	0.0155119
630.692	0.0155836
630.770	0.0154278
630.848	0.0154707
630.926	0.0154029
631.004	0.0153645
631.082	0.0154404
631.160	0.0154056
631.238	0.0153246
631.317	0.0151945
631.395	0.0152480
631.473	0.0152551
631.551	0.0153107
631.629	0.0153674
631.707	0.0152124
631.785	0.0153132
631.863	0.0152390
631.942	0.0152179
632.020	0.0152481
632.098	0.0152533
632.176	0.0151954
632.254	0.0151836
632.332	0.0151551
632.410	0.0152266
632.488	0.0152250
632.567	0.0151223
632.645	0.0154268
632.723	0.0152058
632.801	0.0151827
632.879	0.0151765
632.957	0.0152467
633.035	0.0151434
633.113	0.0151141
633.192	0.0151681
633.270	0.0150864
633.348	0.0150246
633.426	0.0151170
633.504	0.0150070
633.582	0.0149730
633.660	0.0150065
633.738	0.0149681
633.817	0.0149000
633.895	0.0150633
633.973	0.0148763
634.051	0.0148814
634.129	0.0149556
634.207	0.0151154
634.285	0.0150699
634.363	0.0148450
634.442	0.0148248
634.520	0.0148904
634.598	0.0149592
634.676	0.0149981
634.754	0.0148602
634.832	0.0148436
634.910	0.0150362
634.988	0.0151878
635.067	0.0150410
635.145	0.0151694
635.223	0.0151974
635.301	0.0151196
635.379	0.0151310
635.457	0.0152182
635.535	0.0151482
635.613	0.0152493
635.692	0.0152444
635.770	0.0153396
635.848	0.0154980
635.926	0.0152744
636.004	0.0153489
636.082	0.0152733
636.160	0.0153699
636.238	0.0153987
636.317	0.0155005
636.395	0.0156026
636.473	0.0154996
636.551	0.0156542
636.629	0.0155264
636.707	0.0155228
636.785	0.0155754
636.863	0.0154908
636.942	0.0156385
637.020	0.0155363
637.098	0.0155608
637.176	0.0156556
637.254	0.0153891
637.332	0.0155066
637.410	0.0155643
637.488	0.0155638
637.567	0.0155742
637.645	0.0155161
637.723	0.0154272
637.801	0.0154058
637.879	0.0155244
637.957	0.0154709
638.035	0.0154794
638.113	0.0156044
638.192	0.0155598
638.270	0.0154848
638.348	0.0153525
638.426	0.0154917
638.504	0.0156591
638.582	0.0155154
638.660	0.0155775
638.738	0.0154456
638.817	0.0155171
638.895	0.0154537
638.973	0.0153515
639.051	0.0156035
639.129	0.0156403
639.207	0.0154804
639.285	0.0155395
639.363	0.0155854
639.442	0.0154517
639.520	0.0154163
639.598	0.0153928
639.676	0.0155956
639.754	0.0155695
639.832	0.0154517
639.910	0.0155219
639.988	0.0155815
640.067	0.0154515
640.145	0.0154790
640.223	0.0154363
640.301	0.0153735
640.379	0.0154922
640.457	0.0153967
640.535	0.0153603
640.613	0.0153293
640.692	0.0155222
640.770	0.0154248
640.848	0.0155051
640.926	0.0153468
641.004	0.0155340
641.082	0.0153638
641.160	0.0152065
641.238	0.0154565
641.317	0.0152356
641.395	0.0153516
641.473	0.0155935
641.551	0.0153603
641.629	0.0152594
641.707	0.0154153
641.785	0.0152841
641.863	0.0153173
641.942	0.0153137
642.020	0.0151364
642.098	0.0152824
642.176	0.0152533
642.254	0.0150900
642.332	0.0152092
642.410	0.0152728
642.488	0.0150508
642.567	0.0149777
642.645	0.0150055
642.723	0.0149679
642.801	0.0151929
642.879	0.0150169
642.957	0.0150144
643.035	0.0150677
643.113	0.0149953
643.192	0.0151151
643.270	0.0151052
643.348	0.0150767
643.426	0.0149942
643.504	0.0150120
643.582	0.0151734
643.660	0.0147996
643.738	0.0151736
643.817	0.0151405
643.895	0.0151775
643.973	0.0151865
644.051	0.0150892
644.129	0.0151861
644.207	0.0152129
644.285	0.0151075
644.363	0.0151291
644.442	0.0150967
644.520	0.0151727
644.598	0.0151617
644.676	0.0151666
644.754	0.0150921
644.832	0.0152187
644.910	0.0151205
644.988	0.0152380
645.067	0.0153711
645.145	0.0152135
645.223	0.0151783
645.301	0.0151720
645.379	0.0151170
645.457	0.0151877
645.535	0.0153235
645.613	0.0151357
645.692	0.0151647
645.770	0.0153994
645.848	0.0150471
645.926	0.0150770
646.004	0.0151875
646.082	0.0151294
646.160	0.0150353
646.238	0.0150019
646.317	0.0149678
646.395	0.0151007
646.473	0.0149428
646.551	0.0149426
646.629	0.0150731
646.707	0.0150494
646.785	0.0149252
646.863	0.0148381
646.942	0.0150589
647.020	0.0150444
647.098	0.0150851
647.176	0.0150031
647.254	0.0150526
647.332	0.0150788
647.410	0.0151404
647.488	0.0151447
647.567	0.0151061
647.645	0.0151617
647.723	0.0152376
647.801	0.0152183
647.879	0.0152457
647.957	0.0153250
648.035	0.0154014
648.113	0.0154688
648.192	0.0151945
648.270	0.0153789
648.348	0.0152879
648.426	0.0153899
648.504	0.0153304
648.582	0.0153441
648.660	0.0153951
648.738	0.0152924
648.817	0.0151897
648.895	0.0153661
648.973	0.0153329
649.051	0.0152060
649.129	0.0153185
649.207	0.0153549
649.285	0.0152972
649.363	0.0152437
649.442	0.0152225
649.520	0.0153966
649.598	0.0152935
649.676	0.0152921
649.754	0.0154358
649.832	0.0154762
649.910	0.0154164
649.988	0.0154955
650.067	0.0154105
650.145	0.0154208
650.223	0.0154451
650.301	0.0155350
650.379	0.0154107
650.457	0.0152977
650.535	0.0151917
650.613	0.0152847
650.692	0.0152953
650.770	0.0151807
650.848	0.0151817
650.926	0.0151035
651.004	0.0150432
651.082	0.0149606
651.160	0.0150153
651.238	0.0150294
651.317	0.0149161
651.395	0.0150078
651.473	0.0150716
651.551	0.0149624
651.629	0.0149484
651.707	0.0150586
651.785	0.0149289
651.863	0.0150272
651.942	0.0149809
652.020	0.0151693
652.098	0.0152367
652.176	0.0152428
652.254	0.0151665
652.332	0.0153205
652.410	0.0151244
652.488	0.0151638
652.567	0.0152702
652.645	0.0152850
652.723	0.0152309
652.801	0.0152272
652.879	0.0151731
652.957	0.0152426
653.035	0.0153699
653.113	0.0152828
653.192	0.0150797
653.270	0.0152464
653.348	0.0152746
653.426	0.0152615
653.504	0.0151906
653.582	0.0153491
653.660	0.0152322
653.738	0.0152089
653.817	0.0153317
653.895	0.0152666
653.973	0.0151302
654.051	0.0152155
654.129	0.0153254
654.207	0.0151795
654.285	0.0152603
654.363	0.0152414
654.442	0.0153052
654.520	0.0152421
654.598	0.0152005
654.676	0.0150893
654.754	0.0152383
654.832	0.0152001
654.910	0.0152273
654.988	0.0152511
655.067	0.0151594
655.145	0.0151018
655.223	0.0151283
655.301	0.0151227
655.379	0.0151974
655.457	0.0149679
655.535	0.0150358
655.613	0.0150592
655.692	0.0149671
655.770	0.0150423
655.848	0.0147850
655.926	0.0151468
656.004	0.0149662
656.082	0.0149673
656.160	0.0150156
656.238	0.0150608
656.317	0.0151283
656.395	0.0151244
656.473	0.0152116
656.551	0.0151645
656.629	0.0151125
656.707	0.0151846
656.785	0.0151055
656.863	0.0151568
656.942	0.0150715
657.020	0.0152370
657.098	0.0151228
657.176	0.0151947
657.254	0.0151448
657.332	0.0152917
657.410	0.0152670
657.488	0.0152999
657.567	0.0153525
657.645	0.0152967
657.723	0.0153180
657.801	0.0153760
657.879	0.0153943
657.957	0.0153924
658.035	0.0153951
658.113	0.0155273
658.192	0.0153828
658.270	0.0154866
658.348	0.0155016
658.426	0.0154022
658.504	0.0154413
658.582	0.0154328
658.660	0.0155242
658.738	0.0155291
658.817	0.0154874
658.895	0.0155799
658.973	0.0153863
659.051	0.0155378
659.129	0.0154140
659.207	0.0154233
659.285	0.0155666
659.363	0.0154879
659.442	0.0153516
659.520	0.0154638
659.598	0.0153317
659.676	0.0153445
659.754	0.0154624
659.832	0.0154459
659.910	0.0153016
659.988	0.0152683
660.067	0.0153848
660.145	0.0154052
660.223	0.0152159
660.301	0.0152981
660.379	0.0154360
660.457	0.0153644
660.535	0.0152434
660.613	0.0151796
660.692	0.0153555
660.770	0.0150593
660.848	0.0152823
660.926	0.0153628
661.004	0.0153439
661.082	0.0153579
661.160	0.0152864
661.238	0.0153554
661.317	0.0153131
661.395	0.0154314
661.473	0.0154947
661.551	0.0154189
661.629	0.0153972
661.707	0.0155237
661.785	0.0154647
661.863	0.0154739
661.942	0.0154858
662.020	0.0156189
662.098	0.0155961
662.176	0.0154708
662.254	0.0154841
662.332	0.0155239
662.410	0.0154605
662.488	0.0155393
662.567	0.0155353
662.645	0.0154232
662.723	0.0153262
662.801	0.0154022
662.879	0.0156287
662.957	0.0153365
663.035	0.0153539
663.113	0.0154422
663.192	0.0153851
663.270	0.0154360
663.348	0.0153173
663.426	0.0152617
663.504	0.0153266
663.582	0.0154202
663.660	0.0153664
663.738	0.0152593
663.817	0.0152833
663.895	0.0151887
663.973	0.0151661
664.051	0.0151009
664.129	0.0149818
664.207	0.0150155
664.285	0.0149760
664.363	0.0149527
664.442	0.0150998
664.520	0.0149770
664.598	0.0149051
664.676	0.0149918
664.754	0.0148978
664.832	0.0148378
664.910	0.0149092
664.988	0.0148621
665.067	0.0150146
665.145	0.0149469
665.223	0.0149266
665.301	0.0151198
665.379	0.0150712
665.457	0.0150566
665.535	0.0151426
665.613	0.0150294
665.692	0.0150229
665.770	0.0151891
665.848	0.0151736
665.926	0.0152811
666.004	0.0153308
666.082	0.0151369
666.160	0.0150166
666.238	0.0152457
666.317	0.0150549
666.395	0.0152068
666.473	0.0151408
666.551	0.0151630
666.629	0.0150780
666.707	0.0150269
666.785	0.0152158
666.863	0.0150867
666.942	0.0151593
667.020	0.0150637
667.098	0.0150394
667.176	0.0152062
667.254	0.0151660
667.332	0.0150793
667.410	0.0150806
667.488	0.0150862
667.567	0.0152815
667.645	0.0153480
667.723	0.0151423
667.801	0.0151542
667.879	0.0152251
667.957	0.0152270
668.035	0.0151559
668.113	0.0151614
668.192	0.0152055
668.270	0.0150846
668.348	0.0150961
668.426	0.0150778
668.504	0.0151318
668.582	0.0152758
668.660	0.0151931
668.738	0.0152925
668.817	0.0153922
668.895	0.0154501
668.973	0.0153291
669.051	0.0152708
669.129	0.0153059
669.207	0.0152531
669.285	0.0154039
669.363	0.0153599
669.442	0.0152930
669.520	0.0153479
669.598	0.0153229
669.676	0.0153573
669.754	0.0154575
669.832	0.0154678
669.910	0.0154412
669.988	0.0155281
670.067	0.0153696
670.145	0.0154654
670.223	0.0155335
670.301	0.0154279
670.379	0.0155345
670.457	0.0156454
670.535	0.0156050
670.613	0.0154417
670.692	0.0155070
670.770	0.0154774
670.848	0.0156165
670.926	0.0155768
671.004	0.0154764
671.082	0.0154314
671.160	0.0154833
671.238	0.0154493
671.317	0.0155602
671.395	0.0154545
671.473	0.0154758
671.551	0.0154763
671.629	0.0156120
671.707	0.0155788
671.785	0.0155658
671.863	0.0155273
671.942	0.0155077
672.020	0.0155072
672.098	0.0155390
672.176	0.0154765
672.254	0.0155344
672.332	0.0155865
672.410	0.0155508
672.488	0.0155640
672.567	0.0155896
672.645	0.0156232
672.723	0.0156931
672.801	0.0156100
672.879	0.0156840
672.957	0.0157123
673.035	0.0155360
673.113	0.0155363
673.192	0.0157226
673.270	0.0156620
673.348	0.0156604
673.426	0.0153806
673.504	0.0155610
673.582	0.0155611
673.660	0.0155035
673.738	0.0154169
673.817	0.0154037
673.895	0.0153759
673.973	0.0152832
674.051	0.0153536
674.129	0.0153237
674.207	0.0152248
674.285	0.0151502
674.363	0.0152016
674.442	0.0151868
674.520	0.0151555
674.598	0.0151603
674.676	0.0151743
674.754	0.0152067
674.832	0.0153008
674.910	0.0152064
674.988	0.0152624
675.067	0.0152536
675.145	0.0153929
675.223	0.0152811
675.301	0.0153126
675.379	0.0153643
675.457	0.0155257
675.535	0.0152928
675.613	0.0153539
675.692	0.0153278
675.770	0.0151656
675.848	0.0152435
675.926	0.0152849
676.004	0.0151566
676.082	0.0150060
676.160	0.0152419
676.238	0.0150828
676.317	0.0151617
676.395	0.0150741
676.473	0.0150275
676.551	0.0151749
676.629	0.0149393
676.707	0.0149821
676.785	0.0150928
676.863	0.0150474
676.942	0.0151775
677.020	0.0149752
677.098	0.0150045
677.176	0.0151213
677.254	0.0151790
677.332	0.0150629
677.410	0.0152245
677.488	0.0150554
677.567	0.0151832
677.645	0.0152353
677.723	0.0153345
677.801	0.0152355
677.879	0.0152185
677.957	0.0153249
678.035	0.0153607
678.113	0.0153523
678.192	0.0152633
678.270	0.0152543
678.348	0.0152570
678.426	0.0153421
678.504	0.0154511
678.582	0.0154485
678.660	0.0153462
678.738	0.0152781
678.817	0.0152776
678.895	0.0153584
678.973	0.0153091
679.051	0.0153760
679.129	0.0152674
679.207	0.0152001
679.285	0.0152038
679.363	0.0152980
679.442	0.0152246
679.520	0.0152231
679.598	0.0152847
679.676	0.0151400
679.754	0.0152677
679.832	0.0151572
679.910	0.0151700
679.988	0.0150921
680.067	0.0151601
680.145	0.0151409
680.223	0.0150816
680.301	0.0151941
680.379	0.0151495
680.457	0.0149496
680.535	0.0151276
680.613	0.0150428
680.692	0.0150027
680.770	0.0151864
680.848	0.0151783
680.926	0.0150810
681.004	0.0150129
681.082	0.0150446
681.160	0.0150670
681.238	0.0153260
681.317	0.0151716
681.395	0.0151194
681.473	0.0153420
681.551	0.0153420
681.629	0.0152858
681.707	0.0153162
681.785	0.0152909
681.863	0.0152672
681.942	0.0154462
682.020	0.0154899
682.098	0.0154627
682.176	0.0153669
682.254	0.0156096
682.332	0.0156708
682.410	0.0157265
682.488	0.0156609
682.567	0.0157349
682.645	0.0158189
682.723	0.0157187
682.801	0.0157929
682.879	0.0158702
682.957	0.0158468
683.035	0.0158522
683.113	0.0158598
683.192	0.0158024
683.270	0.0159570
683.348	0.0159808
683.426	0.0159643
683.504	0.0157653
683.582	0.0159546
683.660	0.0157977
683.738	0.0157768
683.817	0.0156709
683.895	0.0157566
683.973	0.0156367
684.051	0.0156790
684.129	0.0155933
684.207	0.0154218
684.285	0.0154132
684.363	0.0153082
684.442	0.0153312
684.520	0.0153668
684.598	0.0152440
684.676	0.0151433
684.754	0.0152411
684.832	0.0153413
684.910	0.0151098
684.988	0.0151973
685.067	0.0150386
685.145	0.0149419
685.223	0.0151498
685.301	0.0151044
685.379	0.0149125
685.457	0.0150505
685.535	0.0151845
685.613	0.0151894
685.692	0.0150226
685.770	0.0151075
685.848	0.0152890
685.926	0.0153162
686.004	0.0152800
686.082	0.0153519
686.160	0.0153038
686.238	0.0153127
686.317	0.0153794
686.395	0.0152528
686.473	0.0152550
686.551	0.0154436
686.629	0.0153857
686.707	0.0155214
686.785	0.0154008
686.863	0.0155083
686.942	0.0154685
687.020	0.0156676
687.098	0.0153995
687.176	0.0155388
687.254	0.0156644
687.332	0.0157187
687.410	0.0156441
687.488	0.0156473
687.567	0.0154687
687.645	0.0154893
687.723	0.0154125
687.801	0.0154333
687.879	0.0154474
687.957	0.0153928
688.035	0.0155093
688.113	0.0154008
688.192	0.0153648
688.270	0.0153743
688.348	0.0151868
688.426	0.0151331
688.504	0.0152019
688.582	0.0152029
688.660	0.0151001
688.738	0.0151288
688.817	0.0151305
688.895	0.0151159
688.973	0.0150630
689.051	0.0150724
689.129	0.0152409
689.207	0.0151100
689.285	0.0151255
689.363	0.0152252
689.442	0.0151705
689.520	0.0152445
689.598	0.0150475
689.676	0.0153182
689.754	0.0154355
689.832	0.0153584
689.910	0.0154287
689.988	0.0153638
690.067	0.0153516
690.145	0.0153722
690.223	0.0152927
690.301	0.0152982
690.379	0.0153307
690.457	0.0153107
690.535	0.0154445
690.613	0.0154208
690.692	0.0155250
690.770	0.0154012
690.848	0.0153870
690.926	0.0153264
691.004	0.0154630
691.082	0.0156052
691.160	0.0156110
691.238	0.0155325
691.317	0.0155733
691.395	0.0154124
691.473	0.0154456
691.551	0.0157043
691.629	0.0155663
691.707	0.0155534
691.785	0.0155288
691.863	0.0156249
691.942	0.0155854
692.020	0.0155650
692.098	0.0154458
692.176	0.0153997
692.254	0.0154298
692.332	0.0152658
692.410	0.0152451
692.488	0.0152959
692.567	0.0153098
692.645	0.0153275
692.723	0.0153173
692.801	0.0153481
692.879	0.0154422
692.957	0.0154517
693.035	0.0153880
693.113	0.0154546
693.192	0.0155258
693.270	0.0155732
693.348	0.0155692
693.426	0.0155894
693.504	0.0155430
693.582	0.0157205
693.660	0.0156659
693.738	0.0156834
693.817	0.0156557
693.895	0.0156301
693.973	0.0154313
694.051	0.0156822
694.129	0.0155511
694.207	0.0154536
694.285	0.0155954
694.363	0.0153542
694.442	0.0153489
694.520	0.0154948
694.598	0.0153399
694.676	0.0153973
694.754	0.0154607
694.832	0.0152914
694.910	0.0154764
694.988	0.0153777
695.067	0.0154130
695.145	0.0155296
695.223	0.0154561
695.301	0.0154830
695.379	0.0154585
695.457	0.0154890
695.535	0.0155527
695.613	0.0157089
695.692	0.0156364
695.770	0.0156176
695.848	0.0157345
695.926	0.0157320
696.004	0.0157746
696.082	0.0157008
696.160	0.0156216
696.238	0.0157401
696.317	0.0156611
696.395	0.0158177
696.473	0.0157080
696.551	0.0154826
696.629	0.0156091
696.707	0.0158393
696.785	0.0156139
696.863	0.0157311
696.942	0.0157122
697.020	0.0156769
697.098	0.0155068
697.176	0.0156480
697.254	0.0152936
697.332	0.0152926
697.410	0.0152662
697.488	0.0152973
697.567	0.0152079
697.645	0.0150945
697.723	0.0150497
697.801	0.0151457
697.879	0.0148820
697.957	0.0148857
698.035	0.0149615
698.113	0.0150208
698.192	0.0149841
698.270	0.0150658
698.348	0.0149354
698.426	0.0150172
698.504	0.0150392
698.582	0.0149886
698.660	0.0149290
698.738	0.0150587
698.817	0.0151582
698.895	0.0152058
698.973	0.0151958
699.051	0.0151295
699.129	0.0153074
699.207	0.0153606
699.285	0.0152718
699.363	0.0154236
699.442	0.0154691
699.520	0.0154093
699.598	0.0152962
699.676	0.0154203
699.754	0.0153960
699.832	0.0154587
699.910	0.0155639
699.988	0.0154791
700.067	0.0155000
700.145	0.0154941
700.223	0.0155533
700.301	0.0154684
700.379	0.0155009
700.457	0.0153449
700.535	0.0155025
700.613	0.0154565
700.692	0.0154720
700.770	0.0153936
700.848	0.0155369
700.926	0.0155701
701.004	0.0156107
701.082	0.0154978
701.160	0.0153407
701.238	0.0154127
701.317	0.0154771
701.395	0.0155881
701.473	0.0154594
701.551	0.0155461
701.629	0.0154115
701.707	0.0154953
701.785	0.0153772
701.863	0.0154813
701.942	0.0152694
702.020	0.0153481
702.098	0.0154518
702.176	0.0152879
702.254	0.0150761
702.332	0.0152079
702.410	0.0151773
702.488	0.0152232
702.567	0.0151056
702.645	0.0151840
702.723	0.0151857
702.801	0.0150711
702.879	0.0150210
702.957	0.0150883
703.035	0.0151252
703.113	0.0151579
703.192	0.0152269
703.270	0.0152023
703.348	0.0151952
703.426	0.0151217
703.504	0.0153550
703.582	0.0154798
703.660	0.0153707
703.738	0.0152473
703.817	0.0153793
703.895	0.0155561
703.973	0.0155035
704.051	0.0154166
704.129	0.0153994
704.207	0.0154942
704.285	0.0154588
704.363	0.0156252
704.442	0.0156311
704.520	0.0155328
704.598	0.0157700
704.676	0.0157510
704.754	0.0159148
704.832	0.0158039
704.910	0.0158705
704.988	0.0157840
705.067	0.0159318
705.145	0.0158561
705.223	0.0159562
705.301	0.0158833
705.379	0.0157953
705.457	0.0159203
705.535	0.0158185
705.613	0.0158188
705.692	0.0158339
705.770	0.0158631
705.848	0.0157378
705.926	0.0157518
706.004	0.0157662
706.082	0.0157199
706.160	0.0159112
706.238	0.0157815
706.317	0.0156037
706.395	0.0156887
706.473	0.0156111
706.551	0.0155951
706.629	0.0154542
706.707	0.0154160
706.785	0.0154055
706.863	0.0153430
706.942	0.0151563
707.020	0.0151662
707.098	0.0151839
707.176	0.0151995
707.254	0.0151827
707.332	0.0151974
707.410	0.0151315
707.488	0.0151193
707.567	0.0150891
707.645	0.0151031
707.723	0.0150578
707.801	0.0151592
707.879	0.0149632
707.957	0.0149424
708.035	0.0150359
708.113	0.0150562
708.192	0.0148982
708.270	0.0149129
708.348	0.0150110
708.426	0.0149948
708.504	0.0149696
708.582	0.0148856
708.660	0.0148428
708.738	0.0151101
708.817	0.0149553
708.895	0.0148683
708.973	0.0149638
709.051	0.0150422
709.129	0.0151292
709.207	0.0153030
709.285	0.0151978
709.363	0.0151341
709.442	0.0151111
709.520	0.0153438
709.598	0.0153619
709.676	0.0152824
709.754	0.0154063
709.832	0.0154792
709.910	0.0155398
709.988	0.0155744
710.067	0.0154045
710.145	0.0153768
710.223	0.0154749
710.301	0.0155615
710.379	0.0156001
710.457	0.0154859
710.535	0.0154488
710.613	0.0155902
710.692	0.0154314
710.770	0.0154165
710.848	0.0153319
710.926	0.0153703
711.004	0.0153905
711.082	0.0151878
711.160	0.0153249
711.238	0.0154924
711.317	0.0154070
711.395	0.0153151
711.473	0.0152232
711.551	0.0152818
711.629	0.0154685
711.707	0.0154507
711.785	0.0152935
711.863	0.0153793
711.942	0.0153548
712.020	0.0152732
712.098	0.0153465
712.176	0.0152658
712.254	0.0155358
712.332	0.0153090
712.410	0.0152950
712.488	0.0154119
712.567	0.0155234
712.645	0.0154228
712.723	0.0155304
712.801	0.0153420
712.879	0.0153876
712.957	0.0154177
713.035	0.0154758
713.113	0.0154368
713.192	0.0154963
713.270	0.0154298
713.348	0.0155068
713.426	0.0156406
713.504	0.0155300
713.582	0.0155796
713.660	0.0155035
713.738	0.0155332
713.817	0.0155573
713.895	0.0155735
713.973	0.0155812
714.051	0.0155797
714.129	0.0156843
714.207	0.0155550
714.285	0.0153513
714.363	0.0154197
714.442	0.0155582
714.520	0.0154749
714.598	0.0153625
714.676	0.0153394
714.754	0.0156300
714.832	0.0154930
714.910	0.0155183
714.988	0.0155257
715.067	0.0154701
715.145	0.0155677
715.223	0.0156562
715.301	0.0154702
715.379	0.0154594
715.457	0.0157200
715.535	0.0156156
715.613	0.0155835
715.692	0.0157121
715.770	0.0157514
715.848	0.0154656
715.926	0.0155646
716.004	0.0154861
716.082	0.0155444
716.160	0.0154253
716.238	0.0153653
716.317	0.0153091
716.395	0.0152332
716.473	0.0151294
716.551	0.0151994
716.629	0.0152489
716.707	0.0151543
716.785	0.0153065
716.863	0.0150595
716.942	0.0151144
717.020	0.0151005
717.098	0.0151680
717.176	0.0150615
717.254	0.0150922
717.332	0.0150667
717.410	0.0151440
717.488	0.0151345
717.567	0.0150513
717.645	0.0151572
717.723	0.0151367
717.801	0.0152990
717.879	0.0151885
717.957	0.0153402
718.035	0.0153495
718.113	0.0153131
718.192	0.0153037
718.270	0.0152123
718.348	0.0153905
718.426	0.0154160
718.504	0.0153696
718.582	0.0152061
718.660	0.0153891
718.738	0.0153044
718.817	0.0153807
718.895	0.0153640
718.973	0.0153533
719.051	0.0153687
719.129	0.0153218
719.207	0.0153922
719.285	0.0154276
719.363	0.0154581
719.442	0.0154862
719.520	0.0155491
719.598	0.0155486
719.676	0.0154266
719.754	0.0152991
719.832	0.0152367
719.910	0.0153245
719.988	0.0152622
720.067	0.0151627
720.145	0.0153727
720.223	0.0152819
720.301	0.0153482
720.379	0.0153326
720.457	0.0152737
720.535	0.0152763
720.613	0.0152455
720.692	0.0151189
720.770	0.0152039
720.848	0.0152593
720.926	0.0150526
721.004	0.0151477
721.082	0.0153410
721.160	0.0152165
721.238	0.0152900
721.317	0.0152663
721.395	0.0152380
721.473	0.0152841
721.551	0.0151768
721.629	0.0153081
721.707	0.0152907
721.785	0.0152486
721.863	0.0152526
721.942	0.0152001
722.020	0.0152193
722.098	0.0151415
722.176	0.0152003
722.254	0.0151003
722.332	0.0152102
722.410	0.0151175
722.488	0.0151304
722.567	0.0151904
722.645	0.0151352
722.723	0.0151050
722.801	0.0152489
722.879	0.0153156
722.957	0.0151923
723.035	0.0152181
723.113	0.0152594
723.192	0.0154253
723.270	0.0153134
723.348	0.0154574
723.426	0.0154695
723.504	0.0153036
723.582	0.0152781
723.660	0.0153130
723.738	0.0154073
723.817	0.0153606
723.895	0.0154471
723.973	0.0153412
724.051	0.0152731
724.129	0.0152980
724.207	0.0152779
724.285	0.0152558
724.363	0.0153602
724.442	0.0152242
724.520	0.0152573
724.598	0.0153800
724.676	0.0152696
724.754	0.0152043
724.832	0.0153458
724.910	0.0152499
724.988	0.0152333
725.067	0.0152267
725.145	0.0153941
725.223	0.0152232
725.301	0.0152337
725.379	0.0152940
725.457	0.0151429
725.535	0.0152238
725.613	0.0152304
725.692	0.0152464
725.770	0.0153185
725.848	0.0151192
725.926	0.0152842
726.004	0.0153864
726.082	0.0153452
726.160	0.0153324
726.238	0.0153133
726.317	0.0153164
726.395	0.0153327
726.473	0.0154085
726.551	0.0153546
726.629	0.0154315
726.707	0.0154493
726.785	0.0154513
726.863	0.0155003
726.942	0.0153956
727.020	0.0153370
727.098	0.0154695
727.176	0.0154944
727.254	0.0154379
727.332	0.0154291
727.410	0.0154092
727.488	0.0152757
727.567	0.0155194
727.645	0.0154812
727.723	0.0153141
727.801	0.0153109
727.879	0.0153467
727.957	0.0154445
728.035	0.0153190
728.113	0.0153625
728.192	0.0153422
728.270	0.0152915
728.348	0.0152236
728.426	0.0152037
728.504	0.0153243
728.582	0.0153136
728.660	0.0153177
728.738	0.0151712
728.817	0.0152160
728.895	0.0152985
728.973	0.0154270
729.051	0.0152391
729.129	0.0152029
729.207	0.0151845
729.285	0.0151305
729.363	0.0151594
729.442	0.0152566
729.520	0.0153123
729.598	0.0151234
729.676	0.0152022
729.754	0.0152192
729.832	0.0151211
729.910	0.0151135
729.988	0.0151356
730.067	0.0152388
730.145	0.0152325
730.223	0.0151294
730.301	0.0151774
730.379	0.0151600
730.457	0.0152914
730.535	0.0152774
730.613	0.0153861
730.692	0.0152443
730.770	0.0154202
730.848	0.0154301
730.926	0.0153545
731.004	0.0153360
731.082	0.0152902
731.160	0.0152790
731.238	0.0152335
731.317	0.0153709
731.395	0.0154320
731.473	0.0153168
731.551	0.0152725
731.629	0.0153880
731.707	0.0153523
731.785	0.0153853
731.863	0.0153804
731.942	0.0152125
732.020	0.0152669
732.098	0.0152742
732.176	0.0152943
732.254	0.0153190
732.332	0.0152711
732.410	0.0154988
732.488	0.0151691
732.567	0.0152448
732.645	0.0154153
732.723	0.0153954
732.801	0.0152956
732.879	0.0153614
732.957	0.0153655
733.035	0.0153896
733.113	0.0153268
733.192	0.0153654
733.270	0.0154493
733.348	0.0153053
733.426	0.0153924
733.504	0.0152136
733.582	0.0152600
733.660	0.0152258
733.738	0.0153300
733.817	0.0153214
733.895	0.0153696
733.973	0.0154321
734.051	0.0153362
734.129	0.0154213
734.207	0.0152784
734.285	0.0154307
734.363	0.0154031
734.442	0.0154191
734.520	0.0152734
734.598	0.0153770
734.676	0.0154843
734.754	0.0153974
734.832	0.0152208
734.910	0.0152956
734.988	0.0153372
735.067	0.0153022
735.145	0.0153906
735.223	0.0153165
735.301	0.0151434
735.379	0.0152260
735.457	0.0152261
735.535	0.0151352
735.613	0.0150998
735.692	0.0151862
735.770	0.0152026
735.848	0.0150862
735.926	0.0151009
736.004	0.0151876
736.082	0.0151107
736.160	0.0150646
736.238	0.0153406
736.317	0.0152126
736.395	0.0152494
736.473	0.0152124
736.551	0.0153103
736.629	0.0152814
736.707	0.0154082
736.785	0.0153882
736.863	0.0153905
736.942	0.0153720
737.020	0.0155508
737.098	0.0153491
737.176	0.0153628
737.254	0.0153465
737.332	0.0153367
737.410	0.0152945
737.488	0.0153270
737.567	0.0152455
737.645	0.0151894
737.723	0.0151893
737.801	0.0151625
737.879	0.0151698
737.957	0.0150913
738.035	0.0151624
738.113	0.0150657
738.192	0.0149818
738.270	0.0149674
738.348	0.0149733
738.426	0.0149897
738.504	0.0150744
738.582	0.0150743
738.660	0.0150623
738.738	0.0149218
738.817	0.0150462
738.895	0.0151751
738.973	0.0149674
739.051	0.0150398
739.129	0.0151134
739.207	0.0151508
739.285	0.0150356
739.363	0.0150782
739.442	0.0150751
739.520	0.0150064
739.598	0.0149982
739.676	0.0150586
739.754	0.0149940
739.832	0.0150621
739.910	0.0149124
739.988	0.0150697
740.067	0.0150671
740.145	0.0149895
740.223	0.0149816
740.301	0.0149618
740.379	0.0150249
740.457	0.0150493
740.535	0.0150749
740.613	0.0149335
740.692	0.0150571
740.770	0.0149931
740.848	0.0148695
740.926	0.0149274
741.004	0.0150695
741.082	0.0151384
741.160	0.0150856
741.238	0.0149864
741.317	0.0151517
741.395	0.0150989
741.473	0.0151608
741.551	0.0153522
741.629	0.0152470
741.707	0.0150785
741.785	0.0151809
741.863	0.0151336
741.942	0.0151392
742.020	0.0152639
742.098	0.0153226
742.176	0.0151875
742.254	0.0152326
742.332	0.0151405
742.410	0.0150045
742.488	0.0151465
742.567	0.0152586
742.645	0.0152350
742.723	0.0151968
742.801	0.0151307
742.879	0.0151377
742.957	0.0149462
743.035	0.0150991
743.113	0.0151970
743.192	0.0151568
743.270	0.0152554
743.348	0.0151311
743.426	0.0151232
743.504	0.0152327
743.582	0.0151518
743.660	0.0151064
743.738	0.0150909
743.817	0.0152505
743.895	0.0150903
743.973	0.0151951
744.051	0.0152862
744.129	0.0152436
744.207	0.0152533
744.285	0.0152155
744.363	0.0152666
744.442	0.0153734
744.520	0.0153909
744.598	0.0153626
744.676	0.0153790
744.754	0.0154543
744.832	0.0152486
744.910	0.0152650
744.988	0.0153598
745.067	0.0154240
745.145	0.0151566
745.223	0.0153677
745.301	0.0152412
745.379	0.0153160
745.457	0.0152819
745.535	0.0152535
745.613	0.0151659
745.692	0.0153524
745.770	0.0153643
745.848	0.0151124
745.926	0.0152321
746.004	0.0152181
746.082	0.0154443
746.160	0.0154314
746.238	0.0153966
746.317	0.0152530
746.395	0.0154095
746.473	0.0153526
746.551	0.0154850
746.629	0.0155184
746.707	0.0153690
746.785	0.0154770
746.863	0.0155507
746.942	0.0153149
747.020	0.0154841
747.098	0.0155849
747.176	0.0155585
747.254	0.0154423
747.332	0.0152930
747.410	0.0154773
747.488	0.0155058
747.567	0.0154979
747.645	0.0154906
747.723	0.0154291
747.801	0.0154395
747.879	0.0154575
747.957	0.0153704
748.035	0.0153455
748.113	0.0153174
748.192	0.0154473
748.270	0.0153915
748.348	0.0153033
748.426	0.0154291
748.504	0.0152198
748.582	0.0152480
748.660	0.0152392
748.738	0.0154130
748.817	0.0153162
748.895	0.0151766
748.973	0.0152644
749.051	0.0151482
749.129	0.0151208
749.207	0.0152169
749.285	0.0153321
749.363	0.0153934
749.442	0.0153186
749.520	0.0153230
749.598	0.0153153
749.676	0.0151804
749.754	0.0152338
749.832	0.0153650
749.910	0.0153591
749.988	0.0152814
750.067	0.0153051
750.145	0.0151917
750.223	0.0152332
750.301	0.0152459
750.379	0.0151850
750.457	0.0151241
750.535	0.0150536
750.613	0.0151691
750.692	0.0151718
750.770	0.0150882
750.848	0.0151556
750.926	0.0151826
751.004	0.0152081
751.082	0.0151868
751.160	0.0151877
751.238	0.0151513
751.317	0.0151150
751.395	0.0150816
751.473	0.0151319
751.551	0.0150570
751.629	0.0150228
751.707	0.0150520
751.785	0.0151151
751.863	0.0150670
751.942	0.0151846
752.020	0.0151465
752.098	0.0151202
752.176	0.0152054
752.254	0.0152233
752.332	0.0152515
752.410	0.0152425
752.488	0.0153292
752.567	0.0153682
752.645	0.0154577
752.723	0.0153619
752.801	0.0152844
752.879	0.0153340
752.957	0.0153661
753.035	0.0153354
753.113	0.0154355
753.192	0.0155783
753.270	0.0154623
753.348	0.0153575
753.426	0.0155585
753.504	0.0155123
753.582	0.0155433
753.660	0.0154797
753.738	0.0155363
753.817	0.0154163
753.895	0.0155003
753.973	0.0155130
754.051	0.0153666
754.129	0.0154636
754.207	0.0154333
754.285	0.0156294
754.363	0.0155781
754.442	0.0155450
754.520	0.0156087
754.598	0.0155536
754.676	0.0155661
754.754	0.0155563
754.832	0.0156019
754.910	0.0154011
754.988	0.0155515
755.067	0.0155143
755.145	0.0153539
755.223	0.0154237
755.301	0.0155652
755.379	0.0155814
755.457	0.0154530
755.535	0.0154856
755.613	0.0154477
755.692	0.0154362
755.770	0.0153276
755.848	0.0154505
755.926	0.0153571
756.004	0.0154210
756.082	0.0154498
756.160	0.0153180
756.238	0.0152516
756.317	0.0153454
756.395	0.0153857
756.473	0.0153947
756.551	0.0154005
756.629	0.0152193
756.707	0.0154442
756.785	0.0153891
756.863	0.0152728
756.942	0.0153860
757.020	0.0153606
757.098	0.0153964
757.176	0.0153304
757.254	0.0153962
757.332	0.0152603
757.410	0.0153141
757.488	0.0151862
757.567	0.0153362
757.645	0.0153672
757.723	0.0153273
757.801	0.0154987
757.879	0.0155123
757.957	0.0153345
758.035	0.0153719
758.113	0.0154324
758.192	0.0154289
758.270	0.0153687
758.348	0.0154043
758.426	0.0154613
758.504	0.0154231
758.582	0.0154639
758.660	0.0154565
758.738	0.0154655
758.817	0.0154372
758.895	0.0153909
758.973	0.0153613
759.051	0.0154301
759.129	0.0153207
759.207	0.0153384
759.285	0.0152878
759.363	0.0152388
759.442	0.0152426
759.520	0.0151951
759.598	0.0153312
759.676	0.0152641
759.754	0.0153960
759.832	0.0151744
759.910	0.0151976
759.988	0.0152784
760.067	0.0153391
760.145	0.0153307
760.223	0.0152176
760.301	0.0152248
760.379	0.0154385
760.457	0.0153661
760.535	0.0153283
760.613	0.0151896
760.692	0.0152821
760.770	0.0152708
760.848	0.0152915
760.926	0.0155023
761.004	0.0152666
761.082	0.0153558
761.160	0.0152454
761.238	0.0153577
761.317	0.0152332
761.395	0.0151097
761.473	0.0152290
761.551	0.0150296
761.629	0.0152870
761.707	0.0149826
761.785	0.0150002
761.863	0.0151163
761.942	0.0149966
762.020	0.0149313
762.098	0.0149422
762.176	0.0150240
762.254	0.0149665
762.332	0.0148932
762.410	0.0149395
762.488	0.0150938
762.567	0.0151740
762.645	0.0149069
762.723	0.0150208
762.801	0.0150665
762.879	0.0151172
762.957	0.0150253
763.035	0.0150479
763.113	0.0150391
763.192	0.0150567
763.270	0.0151945
763.348	0.0150946
763.426	0.0151495
763.504	0.0150549
763.582	0.0149932
763.660	0.0150989
763.738	0.0149802
763.817	0.0150114
763.895	0.0151022
763.973	0.0150979
764.051	0.0151715
764.129	0.0150536
764.207	0.0150863
764.285	0.0150063
764.363	0.0151524
764.442	0.0151170
764.520	0.0150777
764.598	0.0152354
764.676	0.0151571
764.754	0.0151357
764.832	0.0153134
764.910	0.0151709
764.988	0.0152341
765.067	0.0150639
765.145	0.0151203
765.223	0.0152486
765.301	0.0152594
765.379	0.0151583
765.457	0.0152719
765.535	0.0151888
765.613	0.0150401
765.692	0.0151199
765.770	0.0150967
765.848	0.0149879
765.926	0.0152712
766.004	0.0152362
766.082	0.0151711
766.160	0.0152144
766.238	0.0151951
766.317	0.0150822
766.395	0.0152779
766.473	0.0152920
766.551	0.0151778
766.629	0.0153467
766.707	0.0154053
766.785	0.0154076
766.863	0.0153650
766.942	0.0152995
767.020	0.0153497
767.098	0.0153014
767.176	0.0154516
767.254	0.0153591
767.332	0.0154294
767.410	0.0154244
767.488	0.0154691
767.567	0.0154203
767.645	0.0154447
767.723	0.0155077
767.801	0.0155087
767.879	0.0153670
767.957	0.0155398
768.035	0.0156073
768.113	0.0155914
768.192	0.0155234
768.270	0.0154592
768.348	0.0156226
768.426	0.0154697
768.504	0.0154855
768.582	0.0156531
768.660	0.0157424
768.738	0.0154891
768.817	0.0155643
768.895	0.0156524
768.973	0.0155011
769.051	0.0154711
769.129	0.0155071
769.207	0.0155965
769.285	0.0156033
769.363	0.0155945
769.442	0.0155637
769.520	0.0154896
769.598	0.0155364
769.676	0.0154668
769.754	0.0153701
769.832	0.0155602
769.910	0.0154250
769.988	0.0153888
770.067	0.0154980
770.145	0.0153896
770.223	0.0153879
770.301	0.0155014
770.379	0.0154477
770.457	0.0152907
770.535	0.0154286
770.613	0.0153687
770.692	0.0153083
770.770	0.0152891
770.848	0.0156236
770.926	0.0155363
771.004	0.0153689
771.082	0.0154125
771.160	0.0153427
771.238	0.0153565
771.317	0.0154137
771.395	0.0153822
771.473	0.0153893
771.551	0.0155090
771.629	0.0153288
771.707	0.0154980
771.785	0.0154517
771.863	0.0154821
771.942	0.0153523
772.020	0.0153836
772.098	0.0154198
772.176	0.0153166
772.254	0.0153027
772.332	0.0152990
772.410	0.0153021
772.488	0.0151960
772.567	0.0151427
772.645	0.0153000
772.723	0.0152844
772.801	0.0152540
772.879	0.0152534
772.957	0.0152116
773.035	0.0152647
773.113	0.0152650
773.192	0.0152180
773.270	0.0150384
773.348	0.0150748
773.426	0.0151390
773.504	0.0152136
773.582	0.0152979
773.660	0.0152257
773.738	0.0151308
773.817	0.0151443
773.895	0.0151714
773.973	0.0152932
774.051	0.0152976
774.129	0.0151169
774.207	0.0151473
774.285	0.0152716
774.363	0.0151990
774.442	0.0150797
774.520	0.0152402
774.598	0.0153278
774.676	0.0152926
774.754	0.0154251
774.832	0.0152624
774.910	0.0152881
774.988	0.0153185
775.067	0.0151405
775.145	0.0152449
775.223	0.0152505
775.301	0.0152247
775.379	0.0152641
775.457	0.0153607
775.535	0.0152393
775.613	0.0153002
775.692	0.0152747
775.770	0.0153211
775.848	0.0155574
775.926	0.0152655
776.004	0.0153227
776.082	0.0153942
776.160	0.0152225
776.238	0.0153185
776.317	0.0153602
776.395	0.0154890
776.473	0.0154388
776.551	0.0155743
776.629	0.0155116
776.707	0.0154980
776.785	0.0155112
776.863	0.0155013
776.942	0.0156383
777.020	0.0154417
777.098	0.0154350
777.176	0.0155748
777.254	0.0155309
777.332	0.0154764
777.410	0.0153555
777.488	0.0157313
777.567	0.0155505
777.645	0.0154621
777.723	0.0154303
777.801	0.0154053
777.879	0.0156765
777.957	0.0154132
778.035	0.0155949
778.113	0.0156976
778.192	0.0155622
778.270	0.0156467
778.348	0.0155357
778.426	0.0155894
778.504	0.0157149
778.582	0.0156509
778.660	0.0157003
778.738	0.0156345
778.817	0.0156071
778.895	0.0156826
778.973	0.0156575
779.051	0.0156160
779.129	0.0156046
779.207	0.0155917
779.285	0.0155151
779.363	0.0155930
779.442	0.0156470
779.520	0.0155818
779.598	0.0155156
779.676	0.0153851
779.754	0.0154553
779.832	0.0154142
779.910	0.0154421
779.988	0.0155601
780.067	0.0153755
780.145	0.0154044
780.223	0.0154834
780.301	0.0154231
780.379	0.0153910
780.457	0.0154028
780.535	0.0154307
780.613	0.0153077
780.692	0.0152422
780.770	0.0154961
780.848	0.0152594
780.926	0.0152778
781.004	0.0153493
781.082	0.0153819
781.160	0.0152975
781.238	0.0153308
781.317	0.0153869
781.395	0.0154583
781.473	0.0154156
781.551	0.0154462
781.629	0.0153968
781.707	0.0155154
781.785	0.0153728
781.863	0.0152555
781.942	0.0153278
782.020	0.0155007
782.098	0.0153756
782.176	0.0154045
782.254	0.0152852
782.332	0.0153279
782.410	0.0152924
782.488	0.0152725
782.567	0.0153033
782.645	0.0152230
782.723	0.0151032
782.801	0.0153130
782.879	0.0152094
782.957	0.0150613
783.035	0.0151036
783.113	0.0151811
783.192	0.0152537
783.270	0.0151307
783.348	0.0151177
783.426	0.0153085
783.504	0.0153163
783.582	0.0150520
783.660	0.0151955
783.738	0.0152628
783.817	0.0153726
783.895	0.0152335
783.973	0.0151777
784.051	0.0153177
784.129	0.0152599
784.207	0.0152953
784.285	0.0152423
784.363	0.0152793
784.442	0.0153652
784.520	0.0153860
784.598	0.0153644
784.676	0.0151738
784.754	0.0150443
784.832	0.0152578
784.910	0.0152013
784.988	0.0152454
785.067	0.0152512
785.145	0.0152719
785.223	0.0153105
785.301	0.0151685
785.379	0.0152940
785.457	0.0150599
785.535	0.0150791
785.613	0.0151192
785.692	0.0149681
785.770	0.0151133
785.848	0.0150947
785.926	0.0151060
786.004	0.0150528
786.082	0.0150653
786.160	0.0150665
786.238	0.0150974
786.317	0.0152092
786.395	0.0151221
786.473	0.0151375
786.551	0.0150018
786.629	0.0149926
786.707	0.0150099
786.785	0.0151297
786.863	0.0150835
786.942	0.0151819
787.020	0.0151920
787.098	0.0151373
787.176	0.0150220
787.254	0.0149934
787.332	0.0151183
787.410	0.0151505
787.488	0.0150007
787.567	0.0149834
787.645	0.0151400
787.723	0.0152344
787.801	0.0152026
787.879	0.0150735
787.957	0.0151936
788.035	0.0152693
788.113	0.0152183
788.192	0.0150890
788.270	0.0151444
788.348	0.0151669
788.426	0.0149960
788.504	0.0151180
788.582	0.0151308
788.660	0.0153063
788.738	0.0152428
788.817	0.0152538
788.895	0.0153816
788.973	0.0152015
789.051	0.0153904
789.129	0.0152812
789.207	0.0152968
789.285	0.0152798
789.363	0.0152621
789.442	0.0153956
789.520	0.0154005
789.598	0.0153599
789.676	0.0152696
789.754	0.0153004
789.832	0.0154087
789.910	0.0154466
789.988	0.0154350
790.067	0.0154245
790.145	0.0154389
790.223	0.0154029
790.301	0.0154300
790.379	0.0153997
790.457	0.0154920
790.535	0.0154662
790.613	0.0154762
790.692	0.0153497
790.770	0.0155766
790.848	0.0154585
790.926	0.0155267
791.004	0.0153822
791.082	0.0154836
791.160	0.0154176
791.238	0.0154152
791.317	0.0153053
791.395	0.0154001
791.473	0.0153482
791.551	0.0152536
791.629	0.0151353
791.707	0.0153977
791.785	0.0153322
791.863	0.0152634
791.942	0.0152783
792.020	0.0153738
792.098	0.0153770
792.176	0.0153172
792.254	0.0152449
792.332	0.0152508
792.410	0.0154104
792.488	0.0154082
792.567	0.0153266
792.645	0.0155632
792.723	0.0153806
792.801	0.0154456
792.879	0.0154393
792.957	0.0154278
793.035	0.0153463
793.113	0.0153280
793.192	0.0153923
793.270	0.0154502
793.348	0.0154910
793.426	0.0155625
793.504	0.0155602
793.582	0.0155164
793.660	0.0154384
793.738	0.0154111
793.817	0.0153800
793.895	0.0153793
793.973	0.0154362
794.051	0.0154077
794.129	0.0153609
794.207	0.0154223
794.285	0.0154067
794.363	0.0154756
794.442	0.0153332
794.520	0.0155482
794.598	0.0155099
794.676	0.0155070
794.754	0.0155740
794.832	0.0155461
794.910	0.0154530
794.988	0.0155109
795.067	0.0155305
795.145	0.0156147
795.223	0.0156674
795.301	0.0155978
795.379	0.0156370
795.457	0.0155274
795.535	0.0155312
795.613	0.0156835
795.692	0.0155511
795.770	0.0155798
795.848	0.0154984
795.926	0.0154718
796.004	0.0155371
796.082	0.0155123
796.160	0.0153859
796.238	0.0154549
796.317	0.0155305
796.395	0.0154755
796.473	0.0152789
796.551	0.0153534
796.629	0.0153654
796.707	0.0153558
796.785	0.0154603
796.863	0.0152758
796.942	0.0154459
797.020	0.0153197
797.098	0.0153329
797.176	0.0153265
797.254	0.0154516
797.332	0.0155606
797.410	0.0153407
797.488	0.0151485
797.567	0.0153770
797.645	0.0153598
797.723	0.0153300
797.801	0.0152296
797.879	0.0153128
797.957	0.0153988
798.035	0.0152879
798.113	0.0153595
798.192	0.0153168
798.270	0.0152243
798.348	0.0152822
798.426	0.0154272
798.504	0.0153461
798.582	0.0152390
798.660	0.0152757
798.738	0.0153424
798.817	0.0153697
798.895	0.0151904
798.973	0.0152100
799.051	0.0152914
799.129	0.0152713
799.207	0.0152032
799.285	0.0152879
799.363	0.0153151
799.442	0.0152164
799.520	0.0152748
799.598	0.0152447
799.676	0.0152043
799.754	0.0151936
799.832	0.0152372
799.910	0.0152789
799.988	0.0152477
800.067	0.0152110
800.145	0.0150967
800.223	0.0151205
800.301	0.0151604
800.379	0.0151857
800.457	0.0152588
800.535	0.0151320
800.613	0.0151831
800.692	0.0150906
800.770	0.0151472
800.848	0.0152528
800.926	0.0151697
801.004	0.0150967
801.082	0.0151273
801.160	0.0151821
801.238	0.0151382
801.317	0.0150242
801.395	0.0151053
801.473	0.0150080
801.551	0.0151163
801.629	0.0152350
801.707	0.0150784
801.785	0.0150410
801.863	0.0151024
801.942	0.0152097
802.020	0.0151181
802.098	0.0152295
802.176	0.0151647
802.254	0.0152429
802.332	0.0152317
802.410	0.0153109
802.488	0.0153719
802.567	0.0153984
802.645	0.0154568
802.723	0.0152863
802.801	0.0151807
802.879	0.0151877
802.957	0.0153505
803.035	0.0153406
803.113	0.0154146
803.192	0.0153421
803.270	0.0153759
803.348	0.0152976
803.426	0.0154063
803.504	0.0154004
803.582	0.0153358
803.660	0.0152960
803.738	0.0153438
803.817	0.0152419
803.895	0.0153397
803.973	0.0152709
804.051	0.0154229
804.129	0.0154404
804.207	0.0152039
804.285	0.0151720
804.363	0.0151720
804.442	0.0151804
804.520	0.0152347
804.598	0.0152189
804.676	0.0152587
804.754	0.0151689
804.832	0.0151036
804.910	0.0152495
804.988	0.0153226
805.067	0.0153416
805.145	0.0153656
805.223	0.0153542
805.301	0.0152743
805.379	0.0152757
805.457	0.0152328
805.535	0.0153100
805.613	0.0153654
805.692	0.0153568
805.770	0.0153940
805.848	0.0155596
805.926	0.0154572
806.004	0.0155426
806.082	0.0154751
806.160	0.0156203
806.238	0.0153963
806.317	0.0154077
806.395	0.0156896
806.473	0.0156001
806.551	0.0154625
806.629	0.0154573
806.707	0.0155813
806.785	0.0155310
806.863	0.0155306
806.942	0.0156344
807.020	0.0155189
807.098	0.0155489
807.176	0.0155283
807.254	0.0155593
807.332	0.0156973
807.410	0.0156147
807.488	0.0154588
807.567	0.0155357
807.645	0.0155363
807.723	0.0154506
807.801	0.0155707
807.879	0.0154163
807.957	0.0154980
808.035	0.0155056
808.113	0.0153269
808.192	0.0154511
808.270	0.0154012
808.348	0.0153403
808.426	0.0153024
808.504	0.0151542
808.582	0.0152863
808.660	0.0151806
808.738	0.0153047
808.817	0.0151964
808.895	0.0151114
808.973	0.0151347
809.051	0.0152931
809.129	0.0153120
809.207	0.0151685
809.285	0.0150526
809.363	0.0150886
809.442	0.0150901
809.520	0.0152432
809.598	0.0152026
809.676	0.0152655
809.754	0.0151595
809.832	0.0151267
809.910	0.0152499
809.988	0.0152604
810.067	0.0153462
810.145	0.0153526
810.223	0.0152773
810.301	0.0154366
810.379	0.0153851
810.457	0.0154787
810.535	0.0154365
810.613	0.0153918
810.692	0.0155027
810.770	0.0154546
810.848	0.0153728
810.926	0.0154981
811.004	0.0153986
811.082	0.0152568
811.160	0.0152689
811.238	0.0153242
811.317	0.0152225
811.395	0.0154135
811.473	0.0153496
811.551	0.0153352
811.629	0.0152117
811.707	0.0152944
811.785	0.0152937
811.863	0.0152390
811.942	0.0152995
812.020	0.0152590
812.098	0.0153612
812.176	0.0153965
812.254	0.0153992
812.332	0.0152905
812.410	0.0153043
812.488	0.0152158
812.567	0.0151701
812.645	0.0153344
812.723	0.0152282
812.801	0.0150779
812.879	0.0150659
812.957	0.0153921
813.035	0.0151481
813.113	0.0149936
813.192	0.0150999
813.270	0.0151346
813.348	0.0149338
813.426	0.0151939
813.504	0.0150494
813.582	0.0150904
813.660	0.0151192
813.738	0.0151390
813.817	0.0150443
813.895	0.0151208
813.973	0.0150555
814.051	0.0151067
814.129	0.0150030
814.207	0.0149924
814.285	0.0149828
814.363	0.0147572
814.442	0.0150415
814.520	0.0149214
814.598	0.0149043
814.676	0.0148896
814.754	0.0149172
814.832	0.0151595
814.910	0.0150455
814.988	0.0150053
815.067	0.0150775
815.145	0.0150468
815.223	0.0150642
815.301	0.0151296
815.379	0.0152734
815.457	0.0151240
815.535	0.0150537
815.613	0.0150836
815.692	0.0153050
815.770	0.0153026
815.848	0.0152516
815.926	0.0152673
816.004	0.0152644
816.082	0.0152677
816.160	0.0153637
816.238	0.0154393
816.317	0.0153340
816.395	0.0153164
816.473	0.0152536
816.551	0.0153643
816.629	0.0153417
816.707	0.0154362
816.785	0.0154179
816.863	0.0153138
816.942	0.0153461
817.020	0.0154028
817.098	0.0153706
817.176	0.0154614
817.254	0.0153054
817.332	0.0152866
817.410	0.0153952
817.488	0.0154480
817.567	0.0154221
817.645	0.0154969
817.723	0.0153423
817.801	0.0152827
817.879	0.0154894
817.957	0.0154279
818.035	0.0152464
818.113	0.0154077
818.192	0.0153300
818.270	0.0152878
818.348	0.0154834
818.426	0.0154663
818.504	0.0154246
818.582	0.0154948
818.660	0.0154019
818.738	0.0154213
818.817	0.0155208
818.895	0.0155378
818.973	0.0154881
819.051	0.0154328
819.129	0.0154604
819.207	0.0154717
819.285	0.0155263
819.363	0.0155852
819.442	0.0157004
819.520	0.0156461
819.598	0.0155587
819.676	0.0155027
819.754	0.0153856
819.832	0.0154192
819.910	0.0153623
819.988	0.0153308
820.067	0.0153808
820.145	0.0154682
820.223	0.0152486
820.301	0.0153059
820.379	0.0153318
820.457	0.0153993
820.535	0.0152496
820.613	0.0153036
820.692	0.0153258
820.770	0.0153486
820.848	0.0152985
820.926	0.0155319
821.004	0.0153397
821.082	0.0152234
821.160	0.0154297
821.238	0.0155646
821.317	0.0153082
821.395	0.0153031
821.473	0.0154103
821.551	0.0154538
821.629	0.0153138
821.707	0.0152674
821.785	0.0152492
821.863	0.0153053
821.942	0.0153290
822.020	0.0152115
822.098	0.0152104
822.176	0.0151698
822.254	0.0152097
822.332	0.0151414
822.410	0.0150830
822.488	0.0151539
822.567	0.0152328
822.645	0.0151066
822.723	0.0151019
822.801	0.0151517
822.879	0.0151302
822.957	0.0152209
823.035	0.0152029
823.113	0.0152635
823.192	0.0153529
823.270	0.0152818
823.348	0.0153233
823.426	0.0153688
823.504	0.0151303
823.582	0.0152324
823.660	0.0152226
823.738	0.0152769
823.817	0.0154516
823.895	0.0152882
823.973	0.0153629
824.051	0.0152583
824.129	0.0152551
824.207	0.0153276
824.285	0.0152036
824.363	0.0153076
824.442	0.0153461
824.520	0.0153105
824.598	0.0151232
824.676	0.0151221
824.754	0.0152901
824.832	0.0152321
824.910	0.0151864
824.988	0.0152116
825.067	0.0152908
825.145	0.0151733
825.223	0.0151566
825.301	0.0151662
825.379	0.0152720
825.457	0.0152701
825.535	0.0151753
825.613	0.0152258
825.692	0.0155025
825.770	0.0153918
825.848	0.0153841
825.926	0.0153226
826.004	0.0153153
826.082	0.0153975
826.160	0.0153232
826.238	0.0152499
826.317	0.0152557
826.395	0.0153603
826.473	0.0152409
826.551	0.0153260
826.629	0.0153937
826.707	0.0152393
826.785	0.0152335
826.863	0.0153793
826.942	0.0153381
827.020	0.0151955
827.098	0.0153033
827.176	0.0153909
827.254	0.0154607
827.332	0.0153509
827.410	0.0153756
827.488	0.0154350
827.567	0.0154235
827.645	0.0153049
827.723	0.0154133
827.801	0.0154834
827.879	0.0155230
827.957	0.0154482
828.035	0.0154172
828.113	0.0156280
828.192	0.0154393
828.270	0.0155454
828.348	0.0156268
828.426	0.0155627
828.504	0.0154875
828.582	0.0158247
828.660	0.0156196
828.738	0.0154900
828.817	0.0157368
828.895	0.0156487
828.973	0.0155130
829.051	0.0154999
829.129	0.0157286
829.207	0.0157571
829.285	0.0157008
829.363	0.0156158
829.442	0.0156762
829.520	0.0157236
829.598	0.0155387
829.676	0.0155225
829.754	0.0156511
829.832	0.0157410
829.910	0.0155476
829.988	0.0155587
830.067	0.0157350
830.145	0.0156492
830.223	0.0155961
830.301	0.0155089
830.379	0.0155377
830.457	0.0156950
830.535	0.0155912
830.613	0.0154082
830.692	0.0154134
830.770	0.0154092
830.848	0.0155534
830.926	0.0154842
831.004	0.0154958
831.082	0.0154266
831.160	0.0153632
831.238	0.0153412
831.317	0.0153883
831.395	0.0152362
831.473	0.0153696
831.551	0.0153784
831.629	0.0153784
831.707	0.0152647
831.785	0.0153584
831.863	0.0152384
831.942	0.0152288
832.020	0.0152003
832.098	0.0152460
832.176	0.0152645
832.254	0.0152489
832.332	0.0151609
832.410	0.0151998
832.488	0.0151539
832.567	0.0150690
832.645	0.0150352
832.723	0.0151685
832.801	0.0150885
832.879	0.0152265
832.957	0.0151405
833.035	0.0152380
833.113	0.0151423
833.192	0.0150705
833.270	0.0150626
833.348	0.0151846
833.426	0.0152389
833.504	0.0151453
833.582	0.0151730
833.660	0.0152180
833.738	0.0151827
833.817	0.0152585
833.895	0.0151958
833.973	0.0150385
834.051	0.0150525
834.129	0.0152013
834.207	0.0152145
834.285	0.0151988
834.363	0.0151380
834.442	0.0152412
834.520	0.0151696
834.598	0.0151900
834.676	0.0152515
834.754	0.0152853
834.832	0.0151871
834.910	0.0152486
834.988	0.0153974
835.067	0.0153614
835.145	0.0153327
835.223	0.0153095
835.301	0.0152896
835.379	0.0152667
835.457	0.0153828
835.535	0.0154695
835.613	0.0153835
835.692	0.0155074
835.770	0.0153539
835.848	0.0153101
835.926	0.0153072
836.004	0.0155161
836.082	0.0155431
836.160	0.0155276
836.238	0.0155332
836.317	0.0153305
836.395	0.0155398
836.473	0.0154543
836.551	0.0154925
836.629	0.0154995
836.707	0.0155209
836.785	0.0154866
836.863	0.0154296
836.942	0.0153322
837.020	0.0154299
837.098	0.0153464
837.176	0.0153802
837.254	0.0154209
837.332	0.0153191
837.410	0.0153053
837.488	0.0153595
837.567	0.0154861
837.645	0.0154553
837.723	0.0153079
837.801	0.0154132
837.879	0.0154848
837.957	0.0154139
838.035	0.0155688
838.113	0.0155318
838.192	0.0154357
838.270	0.0154009
838.348	0.0155023
838.426	0.0156318
838.504	0.0154318
838.582	0.0156775
838.660	0.0155667
838.738	0.0154315
838.817	0.0154362
838.895	0.0154869
838.973	0.0155286
839.051	0.0155576
839.129	0.0154293
839.207	0.0154567
839.285	0.0154380
839.363	0.0154959
839.442	0.0154186
839.520	0.0155347
839.598	0.0153030
839.676	0.0152791
839.754	0.0154115
839.832	0.0155695
839.910	0.0154510
839.988	0.0154412
840.067	0.0153991
840.145	0.0153421
840.223	0.0153951
840.301	0.0152734
840.379	0.0153156
840.457	0.0154201
840.535	0.0153326
840.613	0.0152475
840.692	0.0152634
840.770	0.0152914
840.848	0.0153033
840.926	0.0152119
841.004	0.0154385
841.082	0.0152632
841.160	0.0152530
841.238	0.0153317
841.317	0.0153807
841.395	0.0153841
841.473	0.0153882
841.551	0.0153603
841.629	0.0152989
841.707	0.0153049
841.785	0.0153079
841.863	0.0151373
841.942	0.0152950
842.020	0.0151889
842.098	0.0152333
842.176	0.0151559
842.254	0.0151745
842.332	0.0152324
842.410	0.0153105
842.488	0.0151927
842.567	0.0153077
842.645	0.0152185
842.723	0.0151044
842.801	0.0150856
842.879	0.0151701
842.957	0.0150798
843.035	0.0151105
843.113	0.0150029
843.192	0.0152540
843.270	0.0150403
843.348	0.0150653
843.426	0.0149237
843.504	0.0149632
843.582	0.0150840
843.660	0.0149750
843.738	0.0151339
843.817	0.0150027
843.895	0.0149762
843.973	0.0149545
844.051	0.0152299
844.129	0.0150014
844.207	0.0150147
844.285	0.0150694
844.363	0.0151953
844.442	0.0151234
844.520	0.0150679
844.598	0.0150654
844.676	0.0149697
844.754	0.0151638
844.832	0.0150523
844.910	0.0151350
844.988	0.0151495
845.067	0.0151453
845.145	0.0151895
845.223	0.0150988
845.301	0.0151040
845.379	0.0150689
845.457	0.0149889
845.535	0.0150850
845.613	0.0150590
845.692	0.0150909
845.770	0.0152208
845.848	0.0152578
845.926	0.0150799
846.004	0.0152540
846.082	0.0152782
846.160	0.0152961
846.238	0.0153345
846.317	0.0153426
846.395	0.0153477
846.473	0.0152974
846.551	0.0154043
846.629	0.0152576
846.707	0.0154279
846.785	0.0155463
846.863	0.0154891
846.942	0.0154398
847.020	0.0155200
847.098	0.0155996
847.176	0.0154163
847.254	0.0156069
847.332	0.0155827
847.410	0.0155833
847.488	0.0156186
847.567	0.0156371
847.645	0.0155000
847.723	0.0154371
847.801	0.0154750
847.879	0.0155250
847.957	0.0156157
848.035	0.0155984
848.113	0.0154743
848.192	0.0155019
848.270	0.0154669
848.348	0.0153239
848.426	0.0154523
848.504	0.0155181
848.582	0.0154538
848.660	0.0154464
848.738	0.0155227
848.817	0.0155299
848.895	0.0154929
848.973	0.0154073
849.051	0.0154968
849.129	0.0155724
849.207	0.0155794
849.285	0.0156243
849.363	0.0155654
849.442	0.0154756
849.520	0.0156547
849.598	0.0155568
849.676	0.0154256
849.754	0.0156059
849.832	0.0155695
849.910	0.0156356
849.988	0.0155584
850.067	0.0156621
850.145	0.0156010
850.223	0.0155365
850.301	0.0155776
850.379	0.0155492
850.457	0.0155285
850.535	0.0155144
850.613	0.0156555
850.692	0.0156819
850.770	0.0155042
850.848	0.0154612
850.926	0.0154687
851.004	0.0154617
851.082	0.0154778
851.160	0.0153586
851.238	0.0155164
851.317	0.0154243
851.395	0.0154239
851.473	0.0155279
851.551	0.0153327
851.629	0.0153524
851.707	0.0154740
851.785	0.0154076
851.863	0.0155739
851.942	0.0154704
852.020	0.0154647
852.098	0.0153796
852.176	0.0154507
852.254	0.0153574
852.332	0.0153668
852.410	0.0153947
852.488	0.0153446
852.567	0.0154550
852.645	0.0153270
852.723	0.0152317
852.801	0.0153077
852.879	0.0154482
852.957	0.0154193
853.035	0.0154548
853.113	0.0153233
853.192	0.0152390
853.270	0.0152909
853.348	0.0152809
853.426	0.0153463
853.504	0.0153290
853.582	0.0152827
853.660	0.0153168
853.738	0.0153306
853.817	0.0153891
853.895	0.0153223
853.973	0.0153539
854.051	0.0152954
854.129	0.0151729
854.207	0.0153265
854.285	0.0153465
854.363	0.0151705
854.442	0.0152374
854.520	0.0151215
854.598	0.0152075
854.676	0.0151009
854.754	0.0151980
854.832	0.0150392
854.910	0.0151215
854.988	0.0150357
855.067	0.0151306
855.145	0.0149910
855.223	0.0150584
855.301	0.0150599
855.379	0.0153313
855.457	0.0150452
855.535	0.0150558
855.613	0.0152332
855.692	0.0152190
855.770	0.0150694
855.848	0.0152392
855.926	0.0152552
856.004	0.0153316
856.082	0.0152445
856.160	0.0153265
856.238	0.0151964
856.317	0.0153451
856.395	0.0153303
856.473	0.0152898
856.551	0.0153019
856.629	0.0153110
856.707	0.0152993
856.785	0.0152637
856.863	0.0153587
856.942	0.0154037
857.020	0.0154763
857.098	0.0152876
857.176	0.0154204
857.254	0.0154773
857.332	0.0154719
857.410	0.0154613
857.488	0.0155169
857.567	0.0155352
857.645	0.0154992
857.723	0.0154816
857.801	0.0156271
857.879	0.0156017
857.957	0.0156664
858.035	0.0156582
858.113	0.0156940
858.192	0.0156611
858.270	0.0156678
858.348	0.0158128
858.426	0.0157989
858.504	0.0156635
858.582	0.0157220
858.660	0.0157606
858.738	0.0156209
858.817	0.0156700
858.895	0.0156040
858.973	0.0156344
859.051	0.0155324
859.129	0.0155759
859.207	0.0154931
859.285	0.0155428
859.363	0.0156342
859.442	0.0155608
859.520	0.0156818
859.598	0.0156692
859.676	0.0156336
859.754	0.0155478
859.832	0.0154710
859.910	0.0155558
859.988	0.0155620
860.067	0.0156561
860.145	0.0156728
860.223	0.0155376
860.301	0.0155161
860.379	0.0156341
860.457	0.0155680
860.535	0.0157462
860.613	0.0156686
860.692	0.0156295
860.770	0.0155813
860.848	0.0155528
860.926	0.0155791
861.004	0.0155869
861.082	0.0155064
861.160	0.0153414
861.238	0.0154630
861.317	0.0153407
861.395	0.0154010
861.473	0.0155626
861.551	0.0155124
861.629	0.0153635
861.707	0.0153719
861.785	0.0154354
861.863	0.0154107
861.942	0.0154174
862.020	0.0155036
862.098	0.0155444
862.176	0.0155269
862.254	0.0154556
862.332	0.0153255
862.410	0.0154414
862.488	0.0155839
862.567	0.0154763
862.645	0.0153738
862.723	0.0153243
862.801	0.0153078
862.879	0.0154005
862.957	0.0154671
863.035	0.0154076
863.113	0.0153161
863.192	0.0152406
863.270	0.0152145
863.348	0.0155490
863.426	0.0153720
863.504	0.0153524
863.582	0.0152461
863.660	0.0151685
863.738	0.0151842
863.817	0.0151946
863.895	0.0152268
863.973	0.0151938
864.051	0.0151726
864.129	0.0152413
864.207	0.0152438
864.285	0.0152111
864.363	0.0152531
864.442	0.0152636
864.520	0.0151395
864.598	0.0152296
864.676	0.0151065
864.754	0.0151264
864.832	0.0150373
864.910	0.0149156
864.988	0.0150003
865.067	0.0150088
865.145	0.0149715
865.223	0.0150036
865.301	0.0149832
865.379	0.0148708
865.457	0.0149413
865.535	0.0150330
865.613	0.0148145
865.692	0.0148193
865.770	0.0149929
865.848	0.0148802
865.926	0.0148579
866.004	0.0150266
866.082	0.0148985
866.160	0.0148785
866.238	0.0149478
866.317	0.0150630
866.395	0.0151714
866.473	0.0151417
866.551	0.0150446
866.629	0.0150700
866.707	0.0152325
866.785	0.0151730
866.863	0.0152081
866.942	0.0149990
867.020	0.0151818
867.098	0.0152307
867.176	0.0150838
867.254	0.0152019
867.332	0.0152364
867.410	0.0151860
867.488	0.0153391
867.567	0.0152523
867.645	0.0153191
867.723	0.0152583
867.801	0.0154080
867.879	0.0154922
867.957	0.0154214
868.035	0.0155211
868.113	0.0154071
868.192	0.0154085
868.270	0.0154490
868.348	0.0155298
868.426	0.0155099
868.504	0.0156203
868.582	0.0156473
868.660	0.0155962
868.738	0.0156309
868.817	0.0157298
868.895	0.0156893
868.973	0.0157514
869.051	0.0158055
869.129	0.0158043
869.207	0.0159095
869.285	0.0157612
869.363	0.0158194
869.442	0.0159870
869.520	0.0157780
869.598	0.0158964
869.676	0.0159233
869.754	0.0158921
869.832	0.0158371
869.910	0.0158467
869.988	0.0158607
870.067	0.0158324
870.145	0.0158187
870.223	0.0159099
870.301	0.0159362
870.379	0.0158618
870.457	0.0157970
870.535	0.0159177
870.613	0.0157224
870.692	0.0157965
870.770	0.0157931
870.848	0.0158476
870.926	0.0157774
871.004	0.0157530
871.082	0.0157736
871.160	0.0155994
871.238	0.0157339
871.317	0.0156774
871.395	0.0156181
871.473	0.0154964
871.551	0.0154430
871.629	0.0154713
871.707	0.0154454
871.785	0.0153142
871.863	0.0154247
871.942	0.0154720
872.020	0.0154053
872.098	0.0152724
872.176	0.0153037
872.254	0.0152356
872.332	0.0152517
872.410	0.0152898
872.488	0.0152320
872.567	0.0152359
872.645	0.0151445
872.723	0.0150835
872.801	0.0151600
872.879	0.0150473
872.957	0.0151463
873.035	0.0149521
873.113	0.0151234
873.192	0.0150831
873.270	0.0151100
873.348	0.0151161
873.426	0.0151485
873.504	0.0150430
873.582	0.0151323
873.660	0.0149563
873.738	0.0152314
873.817	0.0152409
873.895	0.0151922
873.973	0.0151344
874.051	0.0152525
874.129	0.0151153
874.207	0.0151350
874.285	0.0151545
874.363	0.0152096
874.442	0.0151487
874.520	0.0151188
874.598	0.0152255
874.676	0.0150222
874.754	0.0149806
874.832	0.0149673
874.910	0.0150029
874.988	0.0150391
875.067	0.0151456
875.145	0.0149488
875.223	0.0149243
875.301	0.0150374
875.379	0.0150718
875.457	0.0150083
875.535	0.0151034
875.613	0.0150098
875.692	0.0150636
875.770	0.0150735
875.848	0.0150942
875.926	0.0152039
876.004	0.0151154
876.082	0.0151414
876.160	0.0149123
876.238	0.0152432
876.317	0.0151244
876.395	0.0150217
876.473	0.0152291
876.551	0.0151237
876.629	0.0151438
876.707	0.0151848
876.785	0.0151437
876.863	0.0152329
876.942	0.0153284
877.020	0.0153117
877.098	0.0152268
877.176	0.0152734
877.254	0.0153443
877.332	0.0154063
877.410	0.0153783
877.488	0.0153873
877.567	0.0152696
877.645	0.0154745
877.723	0.0153915
877.801	0.0153411
877.879	0.0153666
877.957	0.0154848
878.035	0.0153819
878.113	0.0153534
878.192	0.0151929
878.270	0.0153242
878.348	0.0153259
878.426	0.0151870
878.504	0.0153216
878.582	0.0153979
878.660	0.0152232
878.738	0.0153420
878.817	0.0153658
878.895	0.0154630
878.973	0.0153347
879.051	0.0154167
879.129	0.0153085
879.207	0.0153457
879.285	0.0152451
879.363	0.0153669
879.442	0.0153844
879.520	0.0152036
879.598	0.0152934
879.676	0.0151706
879.754	0.0151604
879.832	0.0152696
879.910	0.0152202
879.988	0.0151823
880.067	0.0152460
880.145	0.0151177
880.223	0.0152042
880.301	0.0151316
880.379	0.0150291
880.457	0.0151500
880.535	0.0151054
880.613	0.0151368
880.692	0.0149731
880.770	0.0151253
880.848	0.0149935
880.926	0.0149805
881.004	0.0151721
881.082	0.0151329
881.160	0.0150722
881.238	0.0152518
881.317	0.0151363
881.395	0.0152247
881.473	0.0152945
881.551	0.0151989
881.629	0.0151870
881.707	0.0151285
881.785	0.0152054
881.863	0.0153419
881.942	0.0152392
882.020	0.0153510
882.098	0.0152364
882.176	0.0152682
882.254	0.0152256
882.332	0.0149405
882.410	0.0150446
882.488	0.0151689
882.567	0.0149883
882.645	0.0149957
882.723	0.0149591
882.801	0.0150512
882.879	0.0151241
882.957	0.0150867
883.035	0.0149952
883.113	0.0151776
883.192	0.0150783
883.270	0.0152277
883.348	0.0150899
883.426	0.0151250
883.504	0.0150906
883.582	0.0152100
883.660	0.0150978
883.738	0.0151435
883.817	0.0151562
883.895	0.0152099
883.973	0.0150962
884.051	0.0151850
884.129	0.0151820
884.207	0.0151595
884.285	0.0151194
884.363	0.0151923
884.442	0.0151766
884.520	0.0151683
884.598	0.0151610
884.676	0.0152075
884.754	0.0150697
884.832	0.0152219
884.910	0.0153004
884.988	0.0152145
885.067	0.0153106
885.145	0.0151794
885.223	0.0152619
885.301	0.0154019
885.379	0.0153867
885.457	0.0153904
885.535	0.0154855
885.613	0.0154517
885.692	0.0154583
885.770	0.0154809
885.848	0.0155422
885.926	0.0155083
886.004	0.0155483
886.082	0.0155189
886.160	0.0156031
886.238	0.0155418
886.317	0.0154174
886.395	0.0154787
886.473	0.0156203
886.551	0.0155037
886.629	0.0154779
886.707	0.0153731
886.785	0.0154562
886.863	0.0154625
886.942	0.0153584
887.020	0.0154400
887.098	0.0154392
887.176	0.0153465
887.254	0.0154072
887.332	0.0153519
887.410	0.0153843
887.488	0.0153094
887.567	0.0154324
887.645	0.0153743
887.723	0.0152736
887.801	0.0154018
887.879	0.0153019
887.957	0.0153077
888.035	0.0152889
888.113	0.0151376
888.192	0.0152645
888.270	0.0152997
888.348	0.0151967
888.426	0.0153148
888.504	0.0153059
888.582	0.0152055
888.660	0.0152158
888.738	0.0152674
888.817	0.0153793
888.895	0.0152243
888.973	0.0152696
889.051	0.0152882
889.129	0.0153603
889.207	0.0153109
889.285	0.0152591
889.363	0.0152920
889.442	0.0154343
889.520	0.0154503
889.598	0.0154939
889.676	0.0154492
889.754	0.0154040
889.832	0.0155057
889.910	0.0156637
889.988	0.0156844
890.067	0.0157938
890.145	0.0157265
890.223	0.0156147
890.301	0.0156187
890.379	0.0157266
890.457	0.0156559
890.535	0.0157168
890.613	0.0155766
890.692	0.0156915
890.770	0.0154514
890.848	0.0154922
890.926	0.0156561
891.004	0.0155273
891.082	0.0154965
891.160	0.0153700
891.238	0.0153926
891.317	0.0154601
891.395	0.0152799
891.473	0.0151875
891.551	0.0153303
891.629	0.0152148
891.707	0.0153349
891.785	0.0152795
891.863	0.0154038
891.942	0.0152855
892.020	0.0153616
892.098	0.0153442
892.176	0.0153493
892.254	0.0152579
892.332	0.0152785
892.410	0.0151790
892.488	0.0151952
892.567	0.0152816
892.645	0.0152886
892.723	0.0152329
892.801	0.0152830
892.879	0.0152351
892.957	0.0150546
893.035	0.0151118
893.113	0.0150918
893.192	0.0151076
893.270	0.0151237
893.348	0.0150814
893.426	0.0151482
893.504	0.0151266
893.582	0.0151139
893.660	0.0150446
893.738	0.0151629
893.817	0.0151204
893.895	0.0152097
893.973	0.0150991
894.051	0.0150727
894.129	0.0149512
894.207	0.0149915
894.285	0.0149766
894.363	0.0150121
894.442	0.0149550
894.520	0.0148885
894.598	0.0150220
894.676	0.0149477
894.754	0.0149950
894.832	0.0150874
894.910	0.0149013
894.988	0.0150211
895.067	0.0149252
895.145	0.0149529
895.223	0.0150081
895.301	0.0150489
895.379	0.0149931
895.457	0.0148520
895.535	0.0150064
895.613	0.0150064
895.692	0.0148888
895.770	0.0150589
895.848	0.0151630
895.926	0.0151287
896.004	0.0149979
896.082	0.0151782
896.160	0.0150158
896.238	0.0150940
896.317	0.0151269
896.395	0.0152507
896.473	0.0152096
896.551	0.0152967
896.629	0.0150930
896.707	0.0151791
896.785	0.0150669
896.863	0.0152100
896.942	0.0153416
897.020	0.0153371
897.098	0.0153667
897.176	0.0152851
897.254	0.0153519
897.332	0.0153429
897.410	0.0154298
897.488	0.0155133
897.567	0.0153317
897.645	0.0154433
897.723	0.0154697
897.801	0.0156021
897.879	0.0154443
897.957	0.0155148
898.035	0.0154868
898.113	0.0155514
898.192	0.0156731
898.270	0.0157217
898.348	0.0156464
898.426	0.0154535
898.504	0.0156329
898.582	0.0155526
898.660	0.0156007
898.738	0.0154842
898.817	0.0155353
898.895	0.0156698
898.973	0.0156770
899.051	0.0153995
899.129	0.0155646
899.207	0.0155427
899.285	0.0155087
899.363	0.0155202
899.442	0.0154967
899.520	0.0153145
899.598	0.0154092
899.676	0.0154998
899.754	0.0154289
899.832	0.0154647
899.910	0.0154513
899.988	0.0154765
900.067	0.0155025
900.145	0.0152349
900.223	0.0154429
900.301	0.0152799
900.379	0.0153458
900.457	0.0152910
900.535	0.0152614
900.613	0.0153040
900.692	0.0153214
900.770	0.0153591
900.848	0.0152344
900.926	0.0153500
901.004	0.0153455
901.082	0.0152972
901.160	0.0153912
901.238	0.0152511
901.317	0.0152882
901.395	0.0153449
901.473	0.0154007
901.551	0.0153600
901.629	0.0153255
901.707	0.0154724
901.785	0.0153215
901.863	0.0154802
901.942	0.0154150
902.020	0.0153601
902.098	0.0152683
902.176	0.0154907
902.254	0.0153276
902.332	0.0153095
902.410	0.0153493
902.488	0.0153486
902.567	0.0151630
902.645	0.0152274
902.723	0.0152084
902.801	0.0152273
902.879	0.0150867
902.957	0.0150511
903.035	0.0151308
903.113	0.0149609
903.192	0.0149715
903.270	0.0149472
903.348	0.0149202
903.426	0.0150293
903.504	0.0150229
903.582	0.0149678
903.660	0.0151836
903.738	0.0150993
903.817	0.0149710
903.895	0.0150623
903.973	0.0150858
904.051	0.0150021
904.129	0.0151385
904.207	0.0148853
904.285	0.0149562
904.363	0.0150047
904.442	0.0151373
904.520	0.0150056
904.598	0.0150299
904.676	0.0149892
904.754	0.0150671
904.832	0.0150452
904.910	0.0151011
904.988	0.0151343
905.067	0.0151910
905.145	0.0152741
905.223	0.0152455
905.301	0.0152728
905.379	0.0152171
905.457	0.0151022
905.535	0.0152611
905.613	0.0152640
905.692	0.0151535
905.770	0.0151774
905.848	0.0152487
905.926	0.0149404
906.004	0.0150917
906.082	0.0151808
906.160	0.0150300
906.238	0.0150053
906.317	0.0149126
906.395	0.0150391
906.473	0.0150877
906.551	0.0150043
906.629	0.0149761
906.707	0.0148667
906.785	0.0149712
906.863	0.0151781
906.942	0.0150474
907.020	0.0149589
907.098	0.0149851
907.176	0.0151503
907.254	0.0149368
907.332	0.0149198
907.410	0.0150536
907.488	0.0150338
907.567	0.0149537
907.645	0.0149722
907.723	0.0150401
907.801	0.0149341
907.879	0.0149337
907.957	0.0151562
908.035	0.0150372
908.113	0.0151176
908.192	0.0150597
908.270	0.0148913
908.348	0.0150266
908.426	0.0151670
908.504	0.0150977
908.582	0.0150643
908.660	0.0151442
908.738	0.0151684
908.817	0.0152436
908.895	0.0152326
908.973	0.0152615
909.051	0.0154161
909.129	0.0152657
909.207	0.0152229
909.285	0.0153226
909.363	0.0153213
909.442	0.0152330
909.520	0.0153325
909.598	0.0153333
909.676	0.0152517
909.754	0.0153309
909.832	0.0152805
909.910	0.0153020
909.988	0.0152570
910.067	0.0152490
910.145	0.0153278
910.223	0.0151902
910.301	0.0152341
910.379	0.0150937
910.457	0.0151773
910.535	0.0151495
910.613	0.0153093
910.692	0.0151113
910.770	0.0151297
910.848	0.0151871
910.926	0.0151644
911.004	0.0152480
911.082	0.0151273
911.160	0.0151546
911.238	0.0152135
911.317	0.0152385
911.395	0.0151968
911.473	0.0151538
911.551	0.0152150
911.629	0.0153264
911.707	0.0152600
911.785	0.0152478
911.863	0.0152672
911.942	0.0151973
912.020	0.0151625
912.098	0.0152599
912.176	0.0154118
912.254	0.0153799
912.332	0.0152527
912.410	0.0154852
912.488	0.0152953
912.567	0.0153942
912.645	0.0154636
912.723	0.0153707
912.801	0.0154488
912.879	0.0155518
912.957	0.0153308
913.035	0.0153761
913.113	0.0155551
913.192	0.0154367
913.270	0.0152782
913.348	0.0155325
913.426	0.0155247
913.504	0.0154504
913.582	0.0155154
913.660	0.0153348
913.738	0.0155080
913.817	0.0155375
913.895	0.0156185
913.973	0.0156929
914.051	0.0155038
914.129	0.0155755
914.207	0.0155006
914.285	0.0155093
914.363	0.0154663
914.442	0.0155228
914.520	0.0155507
914.598	0.0155613
914.676	0.0155556
914.754	0.0155009
914.832	0.0155936
914.910	0.0153523
914.988	0.0156552
915.067	0.0155636
915.145	0.0155644
915.223	0.0153938
915.301	0.0155428
915.379	0.0155719
915.457	0.0156527
915.535	0.0154928
915.613	0.0155066
915.692	0.0155084
915.770	0.0157260
915.848	0.0155802
915.926	0.0154414
916.004	0.0156049
916.082	0.0155854
916.160	0.0155632
916.238	0.0153958
916.317	0.0153725
916.395	0.0153651
916.473	0.0153344
916.551	0.0153329
916.629	0.0150985
916.707	0.0152336
916.785	0.0153009
916.863	0.0150598
916.942	0.0151398
917.020	0.0150829
917.098	0.0149970
917.176	0.0150737
917.254	0.0150757
917.332	0.0151461
917.410	0.0150539
917.488	0.0149683
917.567	0.0150633
917.645	0.0151472
917.723	0.0152179
917.801	0.0150586
917.879	0.0152559
917.957	0.0152647
918.035	0.0152284
918.113	0.0152390
918.192	0.0153313
918.270	0.0151691
918.348	0.0151886
918.426	0.0152242
918.504	0.0154533
918.582	0.0153874
918.660	0.0152589
918.738	0.0154157
918.817	0.0154940
918.895	0.0154227
918.973	0.0155115
919.051	0.0154890
919.129	0.0155092
919.207	0.0154261
919.285	0.0153393
919.363	0.0153619
919.442	0.0154164
919.520	0.0152438
919.598	0.0153565
919.676	0.0153107
919.754	0.0154581
919.832	0.0153677
919.910	0.0154572
