05/28/2022	14:41:52	Ver.	4.1	UNKNOWN
Optical Delay	559.987403	Delta X		0.078125	Sweeps	1	Scan Rate	0/0
Coordinates	Axis 1	NaN	Axis 2	NaN	Axis 3	NaN	Axis 4	NaN	Axis 5	NaN	Axis 6	0.000000
TX Power	0.000000	RX Power	0.000000

559.987	0.0146894
560.066	0.0148025
560.144	0.0148933
560.222	0.0147800
560.300	0.0147775
560.378	0.0149725
560.456	0.0149639
560.534	0.0147643
560.612	0.0149730
560.691	0.0149009
560.769	0.0149418
560.847	0.0148491
560.925	0.0148013
561.003	0.0149979
561.081	0.0151305
561.159	0.0149587
561.237	0.0149275
561.316	0.0149966
561.394	0.0148925
561.472	0.0150080
561.550	0.0151069
561.628	0.0150295
561.706	0.0150861
561.784	0.0150302
561.862	0.0151084
561.941	0.0150236
562.019	0.0150279
562.097	0.0150330
562.175	0.0151671
562.253	0.0150233
562.331	0.0152203
562.409	0.0151867
562.487	0.0151362
562.566	0.0152265
562.644	0.0152695
562.722	0.0149767
562.800	0.0153049
562.878	0.0151993
562.956	0.0153783
563.034	0.0153667
563.112	0.0152160
563.191	0.0153149
563.269	0.0153255
563.347	0.0152804
563.425	0.0152903
563.503	0.0152197
563.581	0.0152670
563.659	0.0153012
563.737	0.0153803
563.816	0.0153543
563.894	0.0152446
563.972	0.0152045
564.050	0.0153349
564.128	0.0151612
564.206	0.0154404
564.284	0.0154038
564.362	0.0152594
564.441	0.0152734
564.519	0.0151796
564.597	0.0152662
564.675	0.0151685
564.753	0.0153126
564.831	0.0153546
564.909	0.0153442
564.987	0.0153757
565.066	0.0153304
565.144	0.0153938
565.222	0.0155167
565.300	0.0152739
565.378	0.0152500
565.456	0.0153501
565.534	0.0153815
565.612	0.0152970
565.691	0.0152999
565.769	0.0153133
565.847	0.0153295
565.925	0.0153476
566.003	0.0154578
566.081	0.0153386
566.159	0.0153869
566.237	0.0154202
566.316	0.0154327
566.394	0.0154229
566.472	0.0152183
566.550	0.0152936
566.628	0.0153047
566.706	0.0151814
566.784	0.0152568
566.862	0.0150905
566.941	0.0152905
567.019	0.0152822
567.097	0.0152693
567.175	0.0152444
567.253	0.0151326
567.331	0.0150556
567.409	0.0151877
567.487	0.0153083
567.566	0.0150446
567.644	0.0150669
567.722	0.0151624
567.800	0.0150085
567.878	0.0150569
567.956	0.0150572
568.034	0.0150425
568.112	0.0151348
568.191	0.0149995
568.269	0.0150923
568.347	0.0150738
568.425	0.0150096
568.503	0.0150249
568.581	0.0151304
568.659	0.0149973
568.737	0.0150693
568.816	0.0151500
568.894	0.0150753
568.972	0.0150045
569.050	0.0148824
569.128	0.0150210
569.206	0.0149326
569.284	0.0150095
569.362	0.0151044
569.441	0.0150018
569.519	0.0149357
569.597	0.0148598
569.675	0.0150253
569.753	0.0148830
569.831	0.0149617
569.909	0.0149169
569.987	0.0147286
570.066	0.0150102
570.144	0.0148789
570.222	0.0148703
570.300	0.0148911
570.378	0.0149018
570.456	0.0149326
570.534	0.0149850
570.612	0.0149152
570.691	0.0148965
570.769	0.0150013
570.847	0.0150756
570.925	0.0149522
571.003	0.0148494
571.081	0.0149769
571.159	0.0150568
571.237	0.0150203
571.316	0.0150916
571.394	0.0150637
571.472	0.0150927
571.550	0.0150298
571.628	0.0150695
571.706	0.0150487
571.784	0.0150894
571.862	0.0151717
571.941	0.0151546
572.019	0.0150175
572.097	0.0152097
572.175	0.0151992
572.253	0.0152944
572.331	0.0152205
572.409	0.0151588
572.487	0.0152221
572.566	0.0151717
572.644	0.0153175
572.722	0.0152812
572.800	0.0152589
572.878	0.0152300
572.956	0.0152241
573.034	0.0152313
573.112	0.0151617
573.191	0.0151539
573.269	0.0153283
573.347	0.0152016
573.425	0.0150934
573.503	0.0152074
573.581	0.0152315
573.659	0.0152090
573.737	0.0152112
573.816	0.0150413
573.894	0.0150428
573.972	0.0150945
574.050	0.0151232
574.128	0.0151899
574.206	0.0150955
574.284	0.0150822
574.362	0.0150804
574.441	0.0151493
574.519	0.0150288
574.597	0.0151100
574.675	0.0151218
574.753	0.0151109
574.831	0.0150806
574.909	0.0152715
574.987	0.0151823
575.066	0.0152550
575.144	0.0151463
575.222	0.0152783
575.300	0.0153196
575.378	0.0153036
575.456	0.0152538
575.534	0.0152860
575.612	0.0152690
575.691	0.0153136
575.769	0.0152217
575.847	0.0152706
575.925	0.0152618
576.003	0.0153314
576.081	0.0152588
576.159	0.0153311
576.237	0.0153611
576.316	0.0153593
576.394	0.0152737
576.472	0.0153346
576.550	0.0153840
576.628	0.0152845
576.706	0.0153265
576.784	0.0153196
576.862	0.0152776
576.941	0.0153036
577.019	0.0153243
577.097	0.0153989
577.175	0.0153777
577.253	0.0154936
577.331	0.0153544
577.409	0.0153801
577.487	0.0153650
577.566	0.0154120
577.644	0.0154112
577.722	0.0152417
577.800	0.0154844
577.878	0.0154270
577.956	0.0152800
578.034	0.0153310
578.112	0.0153430
578.191	0.0153333
578.269	0.0153390
578.347	0.0152777
578.425	0.0152347
578.503	0.0151807
578.581	0.0152304
578.659	0.0152505
578.737	0.0151765
578.816	0.0152604
578.894	0.0151394
578.972	0.0151527
579.050	0.0150716
579.128	0.0150866
579.206	0.0151969
579.284	0.0150634
579.362	0.0149905
579.441	0.0148907
579.519	0.0150609
579.597	0.0148558
579.675	0.0149573
579.753	0.0149109
579.831	0.0150338
579.909	0.0148954
579.987	0.0149356
580.066	0.0149114
580.144	0.0149560
580.222	0.0147852
580.300	0.0150032
580.378	0.0149424
580.456	0.0148236
580.534	0.0147587
580.612	0.0148072
580.691	0.0148801
580.769	0.0149149
580.847	0.0146351
580.925	0.0148556
581.003	0.0150539
581.081	0.0149092
581.159	0.0147665
581.237	0.0148828
581.316	0.0147776
581.394	0.0147876
581.472	0.0148782
581.550	0.0148695
581.628	0.0148933
581.706	0.0148344
581.784	0.0148762
581.862	0.0148266
581.941	0.0148272
582.019	0.0149827
582.097	0.0149063
582.175	0.0149165
582.253	0.0149005
582.331	0.0148029
582.409	0.0150201
582.487	0.0149684
582.566	0.0148637
582.644	0.0149009
582.722	0.0149842
582.800	0.0149247
582.878	0.0149415
582.956	0.0149060
583.034	0.0150496
583.112	0.0149236
583.191	0.0148954
583.269	0.0149416
583.347	0.0147227
583.425	0.0148853
583.503	0.0150389
583.581	0.0148536
583.659	0.0149936
583.737	0.0148361
583.816	0.0150066
583.894	0.0150050
583.972	0.0148982
584.050	0.0147703
584.128	0.0148534
584.206	0.0148945
584.284	0.0148542
584.362	0.0147836
584.441	0.0150696
584.519	0.0149294
584.597	0.0149762
584.675	0.0148374
584.753	0.0149754
584.831	0.0149838
584.909	0.0150430
584.987	0.0150764
585.066	0.0149909
585.144	0.0150005
585.222	0.0148544
585.300	0.0149999
585.378	0.0150214
585.456	0.0150523
585.534	0.0151218
585.612	0.0149463
585.691	0.0150040
585.769	0.0149574
585.847	0.0151151
585.925	0.0150575
586.003	0.0150540
586.081	0.0151614
586.159	0.0150451
586.237	0.0150546
586.316	0.0150703
586.394	0.0150999
586.472	0.0150817
586.550	0.0148976
586.628	0.0151208
586.706	0.0150201
586.784	0.0150442
586.862	0.0150351
586.941	0.0150372
587.019	0.0150484
587.097	0.0151684
587.175	0.0150449
587.253	0.0150925
587.331	0.0150402
587.409	0.0151935
587.487	0.0151372
587.566	0.0151434
587.644	0.0151389
587.722	0.0152042
587.800	0.0152603
587.878	0.0152486
587.956	0.0152612
588.034	0.0151237
588.112	0.0152067
588.191	0.0153114
588.269	0.0151817
588.347	0.0153132
588.425	0.0152570
588.503	0.0152705
588.581	0.0152466
588.659	0.0152602
588.737	0.0150898
588.816	0.0151452
588.894	0.0151299
588.972	0.0154062
589.050	0.0152110
589.128	0.0151683
589.206	0.0151083
589.284	0.0152036
589.362	0.0153237
589.441	0.0153065
589.519	0.0152940
589.597	0.0152889
589.675	0.0151415
589.753	0.0152650
589.831	0.0153498
589.909	0.0151843
589.987	0.0153001
590.066	0.0152374
590.144	0.0151476
590.222	0.0152714
590.300	0.0151818
590.378	0.0151639
590.456	0.0150619
590.534	0.0151474
590.612	0.0152286
590.691	0.0151490
590.769	0.0150023
590.847	0.0151717
590.925	0.0152290
591.003	0.0151557
591.081	0.0150231
591.159	0.0149744
591.237	0.0152139
591.316	0.0151125
591.394	0.0151381
591.472	0.0150205
591.550	0.0150568
591.628	0.0150156
591.706	0.0148444
591.784	0.0150403
591.862	0.0149804
591.941	0.0150342
592.019	0.0149062
592.097	0.0148970
592.175	0.0149445
592.253	0.0149205
592.331	0.0149413
592.409	0.0149336
592.487	0.0148389
592.566	0.0149448
592.644	0.0147160
592.722	0.0148575
592.800	0.0148708
592.878	0.0147855
592.956	0.0149316
593.034	0.0148439
593.112	0.0149545
593.191	0.0149368
593.269	0.0149961
593.347	0.0149553
593.425	0.0149004
593.503	0.0150118
593.581	0.0151353
593.659	0.0150260
593.737	0.0151501
593.816	0.0150320
593.894	0.0150202
593.972	0.0149693
594.050	0.0149662
594.128	0.0149323
594.206	0.0149561
594.284	0.0149879
594.362	0.0149172
594.441	0.0149221
594.519	0.0150301
594.597	0.0148310
594.675	0.0148031
594.753	0.0147848
594.831	0.0149179
594.909	0.0148718
594.987	0.0150745
595.066	0.0149988
595.144	0.0148932
595.222	0.0149447
595.300	0.0150377
595.378	0.0151256
595.456	0.0150745
595.534	0.0149728
595.612	0.0150313
595.691	0.0150459
595.769	0.0151066
595.847	0.0151859
595.925	0.0151695
596.003	0.0151914
596.081	0.0150591
596.159	0.0150991
596.237	0.0150616
596.316	0.0150301
596.394	0.0150789
596.472	0.0149112
596.550	0.0151867
596.628	0.0151202
596.706	0.0149745
596.784	0.0151724
596.862	0.0150774
596.941	0.0150559
597.019	0.0151265
597.097	0.0149751
597.175	0.0150700
597.253	0.0150257
597.331	0.0151263
597.409	0.0151170
597.487	0.0150237
597.566	0.0151321
597.644	0.0153000
597.722	0.0151965
597.800	0.0150982
597.878	0.0152151
597.956	0.0152118
598.034	0.0153400
598.112	0.0151718
598.191	0.0153902
598.269	0.0153188
598.347	0.0152926
598.425	0.0152937
598.503	0.0153452
598.581	0.0153876
598.659	0.0153654
598.737	0.0152644
598.816	0.0152751
598.894	0.0152665
598.972	0.0152914
599.050	0.0153501
599.128	0.0153081
599.206	0.0152845
599.284	0.0152869
599.362	0.0153642
599.441	0.0153804
599.519	0.0153588
599.597	0.0152747
599.675	0.0153501
599.753	0.0153180
599.831	0.0152231
599.909	0.0152410
599.987	0.0152753
600.066	0.0152981
600.144	0.0152347
600.222	0.0152679
600.300	0.0152880
600.378	0.0151604
600.456	0.0151586
600.534	0.0151008
600.612	0.0151183
600.691	0.0152096
600.769	0.0151105
600.847	0.0150512
600.925	0.0151698
601.003	0.0151734
601.081	0.0150689
601.159	0.0150822
601.237	0.0150449
601.316	0.0150193
601.394	0.0151690
601.472	0.0153364
601.550	0.0149500
601.628	0.0151909
601.706	0.0150488
601.784	0.0150539
601.862	0.0151145
601.941	0.0150518
602.019	0.0149812
602.097	0.0149542
602.175	0.0148903
602.253	0.0149610
602.331	0.0148908
602.409	0.0147455
602.487	0.0148807
602.566	0.0146873
602.644	0.0147825
602.722	0.0147392
602.800	0.0148003
602.878	0.0147985
602.956	0.0147052
603.034	0.0146138
603.112	0.0147598
603.191	0.0148170
603.269	0.0146333
603.347	0.0148901
603.425	0.0148363
603.503	0.0146935
603.581	0.0146839
603.659	0.0146798
603.737	0.0148833
603.816	0.0148869
603.894	0.0147856
603.972	0.0148701
604.050	0.0149906
604.128	0.0149229
604.206	0.0149490
604.284	0.0149409
604.362	0.0150485
604.441	0.0150903
604.519	0.0149871
604.597	0.0150995
604.675	0.0151057
604.753	0.0150111
604.831	0.0149743
604.909	0.0151370
604.987	0.0151926
605.066	0.0151804
605.144	0.0151579
605.222	0.0151492
605.300	0.0151833
605.378	0.0152461
605.456	0.0150880
605.534	0.0152322
605.612	0.0152727
605.691	0.0150391
605.769	0.0151672
605.847	0.0152296
605.925	0.0152467
606.003	0.0152458
606.081	0.0151687
606.159	0.0152795
606.237	0.0154048
606.316	0.0154333
606.394	0.0151875
606.472	0.0152701
606.550	0.0152576
606.628	0.0151640
606.706	0.0152372
606.784	0.0152193
606.862	0.0152503
606.941	0.0153296
607.019	0.0152275
607.097	0.0152192
607.175	0.0153259
607.253	0.0153519
607.331	0.0152697
607.409	0.0151849
607.487	0.0152831
607.566	0.0152509
607.644	0.0152522
607.722	0.0152823
607.800	0.0152921
607.878	0.0152240
607.956	0.0151750
608.034	0.0153493
608.112	0.0152277
608.191	0.0152214
608.269	0.0152735
608.347	0.0152686
608.425	0.0153159
608.503	0.0151841
608.581	0.0152956
608.659	0.0153783
608.737	0.0151347
608.816	0.0152707
608.894	0.0152245
608.972	0.0152032
609.050	0.0152322
609.128	0.0151537
609.206	0.0152507
609.284	0.0151333
609.362	0.0150518
609.441	0.0151786
609.519	0.0151795
609.597	0.0150939
609.675	0.0150994
609.753	0.0152087
609.831	0.0150890
609.909	0.0149529
609.987	0.0149695
610.066	0.0148545
610.144	0.0149546
610.222	0.0150721
610.300	0.0150546
610.378	0.0151148
610.456	0.0149453
610.534	0.0151255
610.612	0.0148008
610.691	0.0149125
610.769	0.0149782
610.847	0.0149674
610.925	0.0150243
611.003	0.0150056
611.081	0.0149845
611.159	0.0148715
611.237	0.0149552
611.316	0.0149190
611.394	0.0148441
611.472	0.0149613
611.550	0.0150726
611.628	0.0149554
611.706	0.0149404
611.784	0.0148777
611.862	0.0149284
611.941	0.0151865
612.019	0.0149858
612.097	0.0149290
612.175	0.0150983
612.253	0.0149887
612.331	0.0149432
612.409	0.0149622
612.487	0.0149559
612.566	0.0150442
612.644	0.0150188
612.722	0.0149012
612.800	0.0148225
612.878	0.0149136
612.956	0.0149651
613.034	0.0148552
613.112	0.0148806
613.191	0.0147866
613.269	0.0148111
613.347	0.0149393
613.425	0.0148222
613.503	0.0148897
613.581	0.0147662
613.659	0.0147577
613.737	0.0148796
613.816	0.0148426
613.894	0.0148222
613.972	0.0148414
614.050	0.0149245
614.128	0.0147220
614.206	0.0147616
614.284	0.0147580
614.362	0.0147794
614.441	0.0147135
614.519	0.0148520
614.597	0.0147274
614.675	0.0148309
614.753	0.0148666
614.831	0.0148386
614.909	0.0147879
614.987	0.0148019
615.066	0.0148678
615.144	0.0147778
615.222	0.0147913
615.300	0.0148938
615.378	0.0148879
615.456	0.0149679
615.534	0.0150239
615.612	0.0150577
615.691	0.0149612
615.769	0.0149983
615.847	0.0149214
615.925	0.0149579
616.003	0.0150356
616.081	0.0149195
616.159	0.0150900
616.237	0.0150382
616.316	0.0150187
616.394	0.0150755
616.472	0.0149450
616.550	0.0150480
616.628	0.0150269
616.706	0.0151617
616.784	0.0150969
616.862	0.0151459
616.941	0.0149615
617.019	0.0150358
617.097	0.0149998
617.175	0.0150809
617.253	0.0150776
617.331	0.0150493
617.409	0.0149342
617.487	0.0149667
617.566	0.0151595
617.644	0.0150510
617.722	0.0149995
617.800	0.0149764
617.878	0.0150139
617.956	0.0150027
618.034	0.0149326
618.112	0.0150489
618.191	0.0151040
618.269	0.0150999
618.347	0.0148147
618.425	0.0147804
618.503	0.0149061
618.581	0.0150002
618.659	0.0149794
618.737	0.0148614
618.816	0.0148057
618.894	0.0148864
618.972	0.0148390
619.050	0.0148318
619.128	0.0148054
619.206	0.0147959
619.284	0.0148195
619.362	0.0147369
619.441	0.0148186
619.519	0.0148899
619.597	0.0148958
619.675	0.0148945
619.753	0.0148299
619.831	0.0149231
619.909	0.0150469
619.987	0.0148457
620.066	0.0148882
620.144	0.0150174
620.222	0.0150107
620.300	0.0150147
620.378	0.0149586
620.456	0.0149583
620.534	0.0149267
620.612	0.0149903
620.691	0.0150957
620.769	0.0150031
620.847	0.0151548
620.925	0.0150943
621.003	0.0153580
621.081	0.0151003
621.159	0.0150705
621.237	0.0151637
621.316	0.0152163
621.394	0.0152162
621.472	0.0150623
621.550	0.0151472
621.628	0.0152159
621.706	0.0149443
621.784	0.0149918
621.862	0.0151507
621.941	0.0149843
622.019	0.0150415
622.097	0.0150153
622.175	0.0149081
622.253	0.0149133
622.331	0.0148713
622.409	0.0151358
622.487	0.0150057
622.566	0.0149991
622.644	0.0148408
622.722	0.0150105
622.800	0.0150048
622.878	0.0149889
622.956	0.0150724
623.034	0.0150034
623.112	0.0149380
623.191	0.0148217
623.269	0.0150390
623.347	0.0150375
623.425	0.0150002
623.503	0.0147141
623.581	0.0148549
623.659	0.0147739
623.737	0.0148475
623.816	0.0146642
623.894	0.0146802
623.972	0.0147994
624.050	0.0148573
624.128	0.0148696
624.206	0.0148787
624.284	0.0148026
624.362	0.0148730
624.441	0.0148025
624.519	0.0147455
624.597	0.0149240
624.675	0.0148251
624.753	0.0147386
624.831	0.0148251
624.909	0.0147131
624.987	0.0147457
625.066	0.0146974
625.144	0.0147244
625.222	0.0146587
625.300	0.0147882
625.378	0.0147416
625.456	0.0148112
625.534	0.0147621
625.612	0.0148219
625.691	0.0147702
625.769	0.0148270
625.847	0.0148359
625.925	0.0147430
626.003	0.0149973
626.081	0.0150073
626.159	0.0149220
626.237	0.0149153
626.316	0.0149285
626.394	0.0150970
626.472	0.0149470
626.550	0.0150416
626.628	0.0151149
626.706	0.0150238
626.784	0.0150607
626.862	0.0150735
626.941	0.0150951
627.019	0.0151974
627.097	0.0152650
627.175	0.0150510
627.253	0.0152065
627.331	0.0151526
627.409	0.0151022
627.487	0.0151820
627.566	0.0152211
627.644	0.0151340
627.722	0.0150652
627.800	0.0151273
627.878	0.0151382
627.956	0.0151208
628.034	0.0152058
628.112	0.0151485
628.191	0.0153332
628.269	0.0153243
628.347	0.0153431
628.425	0.0151597
628.503	0.0151276
628.581	0.0153130
628.659	0.0152647
628.737	0.0152981
628.816	0.0152178
628.894	0.0153272
628.972	0.0153672
629.050	0.0154006
629.128	0.0152802
629.206	0.0153022
629.284	0.0152335
629.362	0.0152695
629.441	0.0153358
629.519	0.0154879
629.597	0.0153828
629.675	0.0152093
629.753	0.0151115
629.831	0.0151497
629.909	0.0152081
629.987	0.0151524
630.066	0.0151221
630.144	0.0149094
630.222	0.0150930
630.300	0.0149789
630.378	0.0149532
630.456	0.0149189
630.534	0.0150239
630.612	0.0148139
630.691	0.0147751
630.769	0.0147679
630.847	0.0147926
630.925	0.0147828
631.003	0.0148913
631.081	0.0148768
631.159	0.0148674
631.237	0.0148713
631.316	0.0149579
631.394	0.0149204
631.472	0.0148764
631.550	0.0150115
631.628	0.0149271
631.706	0.0149705
631.784	0.0149955
631.862	0.0148100
631.941	0.0149769
632.019	0.0148938
632.097	0.0148454
632.175	0.0148349
632.253	0.0149510
632.331	0.0148402
632.409	0.0149830
632.487	0.0150027
632.566	0.0147359
632.644	0.0147394
632.722	0.0148129
632.800	0.0147818
632.878	0.0149501
632.956	0.0148492
633.034	0.0147482
633.112	0.0147395
633.191	0.0148035
633.269	0.0149019
633.347	0.0149683
633.425	0.0150338
633.503	0.0150121
633.581	0.0149012
633.659	0.0149464
633.737	0.0149393
633.816	0.0148927
633.894	0.0149281
633.972	0.0150826
634.050	0.0150797
634.128	0.0149339
634.206	0.0149636
634.284	0.0151705
634.362	0.0150967
634.441	0.0150685
634.519	0.0150067
634.597	0.0149422
634.675	0.0150932
634.753	0.0150453
634.831	0.0149806
634.909	0.0151389
634.987	0.0150643
635.066	0.0150162
635.144	0.0151264
635.222	0.0152040
635.300	0.0150926
635.378	0.0151207
635.456	0.0148975
635.534	0.0150885
635.612	0.0149578
635.691	0.0151109
635.769	0.0149670
635.847	0.0151011
635.925	0.0152247
636.003	0.0150782
636.081	0.0150520
636.159	0.0150089
636.237	0.0150132
636.316	0.0149634
636.394	0.0149816
636.472	0.0150794
636.550	0.0151216
636.628	0.0150429
636.706	0.0149255
636.784	0.0149740
636.862	0.0149702
636.941	0.0149139
637.019	0.0149351
637.097	0.0149217
637.175	0.0149427
637.253	0.0148082
637.331	0.0148888
637.409	0.0149422
637.487	0.0149147
637.566	0.0149960
637.644	0.0147714
637.722	0.0148740
637.800	0.0149380
637.878	0.0148631
637.956	0.0149771
638.034	0.0150762
638.112	0.0150872
638.191	0.0150269
638.269	0.0149614
638.347	0.0150795
638.425	0.0149312
638.503	0.0149257
638.581	0.0150423
638.659	0.0150323
638.737	0.0150893
638.816	0.0150816
638.894	0.0149904
638.972	0.0151342
639.050	0.0150036
639.128	0.0150365
639.206	0.0151401
639.284	0.0151398
639.362	0.0150047
639.441	0.0150851
639.519	0.0152739
639.597	0.0150157
639.675	0.0149436
639.753	0.0152099
639.831	0.0150430
639.909	0.0150932
639.987	0.0149861
640.066	0.0149533
640.144	0.0150310
640.222	0.0150665
640.300	0.0150454
640.378	0.0150449
640.456	0.0151403
640.534	0.0150073
640.612	0.0148492
640.691	0.0148917
640.769	0.0148099
640.847	0.0148454
640.925	0.0149679
641.003	0.0149523
641.081	0.0148872
641.159	0.0149763
641.237	0.0148675
641.316	0.0148657
641.394	0.0149178
641.472	0.0150791
641.550	0.0149584
641.628	0.0148347
641.706	0.0148145
641.784	0.0149378
641.862	0.0148421
641.941	0.0148672
642.019	0.0147623
642.097	0.0147287
642.175	0.0147575
642.253	0.0147867
642.331	0.0147275
642.409	0.0147892
642.487	0.0147741
642.566	0.0146608
642.644	0.0146322
642.722	0.0146130
642.800	0.0147312
642.878	0.0146355
642.956	0.0147260
643.034	0.0149224
643.112	0.0148129
643.191	0.0148502
643.269	0.0150104
643.347	0.0150545
643.425	0.0149653
643.503	0.0149163
643.581	0.0150764
643.659	0.0150639
643.737	0.0152056
643.816	0.0149482
643.894	0.0149017
643.972	0.0150462
644.050	0.0151606
644.128	0.0150485
644.206	0.0150883
644.284	0.0149605
644.362	0.0149522
644.441	0.0149576
644.519	0.0149493
644.597	0.0151295
644.675	0.0150002
644.753	0.0151394
644.831	0.0149203
644.909	0.0149989
644.987	0.0149345
645.066	0.0150121
645.144	0.0149612
645.222	0.0149844
645.300	0.0149628
645.378	0.0150109
645.456	0.0149641
645.534	0.0148025
645.612	0.0149141
645.691	0.0148303
645.769	0.0148978
645.847	0.0147336
645.925	0.0148277
646.003	0.0148006
646.081	0.0147369
646.159	0.0148920
646.237	0.0148009
646.316	0.0147437
646.394	0.0148471
646.472	0.0148213
646.550	0.0149087
646.628	0.0149715
646.706	0.0147891
646.784	0.0150033
646.862	0.0149397
646.941	0.0150465
647.019	0.0151091
647.097	0.0150033
647.175	0.0150391
647.253	0.0151524
647.331	0.0152328
647.409	0.0150787
647.487	0.0149940
647.566	0.0150204
647.644	0.0151058
647.722	0.0149953
647.800	0.0150369
647.878	0.0150414
647.956	0.0151892
648.034	0.0150214
648.112	0.0152475
648.191	0.0150639
648.269	0.0149571
648.347	0.0150156
648.425	0.0151560
648.503	0.0152065
648.581	0.0150230
648.659	0.0151077
648.737	0.0152923
648.816	0.0152209
648.894	0.0151766
648.972	0.0152386
649.050	0.0153617
649.128	0.0154177
649.206	0.0153059
649.284	0.0153066
649.362	0.0152103
649.441	0.0152415
649.519	0.0154087
649.597	0.0153706
649.675	0.0153796
649.753	0.0155103
649.831	0.0154708
649.909	0.0153417
649.987	0.0154591
650.066	0.0153391
650.144	0.0154612
650.222	0.0152435
650.300	0.0152215
650.378	0.0154214
650.456	0.0152826
650.534	0.0151669
650.612	0.0151494
650.691	0.0151104
650.769	0.0151758
650.847	0.0151501
650.925	0.0151604
651.003	0.0150904
651.081	0.0150176
651.159	0.0149519
651.237	0.0150954
651.316	0.0149097
651.394	0.0149974
651.472	0.0150291
651.550	0.0149516
651.628	0.0150921
651.706	0.0149602
651.784	0.0150494
651.862	0.0150765
651.941	0.0151024
652.019	0.0151118
652.097	0.0150313
652.175	0.0151803
652.253	0.0151217
652.331	0.0149918
652.409	0.0150413
652.487	0.0150067
652.566	0.0150767
652.644	0.0148806
652.722	0.0150878
652.800	0.0148670
652.878	0.0148017
652.956	0.0148810
653.034	0.0149916
653.112	0.0148148
653.191	0.0147813
653.269	0.0149457
653.347	0.0148350
653.425	0.0147542
653.503	0.0149010
653.581	0.0147980
653.659	0.0148624
653.737	0.0147450
653.816	0.0148761
653.894	0.0148512
653.972	0.0148220
654.050	0.0147318
654.128	0.0148011
654.206	0.0148677
654.284	0.0147720
654.362	0.0147481
654.441	0.0148199
654.519	0.0149474
654.597	0.0147533
654.675	0.0147687
654.753	0.0148470
654.831	0.0148488
654.909	0.0150983
654.987	0.0148943
655.066	0.0149370
655.144	0.0149048
655.222	0.0149750
655.300	0.0148139
655.378	0.0147752
655.456	0.0150443
655.534	0.0149249
655.612	0.0149359
655.691	0.0149182
655.769	0.0148281
655.847	0.0147898
655.925	0.0148051
656.003	0.0148885
656.081	0.0148950
656.159	0.0149301
656.237	0.0147599
656.316	0.0147651
656.394	0.0149123
656.472	0.0148353
656.550	0.0149822
656.628	0.0149574
656.706	0.0150795
656.784	0.0151276
656.862	0.0151335
656.941	0.0151189
657.019	0.0152454
657.097	0.0152399
657.175	0.0152091
657.253	0.0152277
657.331	0.0153344
657.409	0.0152457
657.487	0.0153174
657.566	0.0152795
657.644	0.0154294
657.722	0.0153992
657.800	0.0151785
657.878	0.0151816
657.956	0.0153428
658.034	0.0153113
658.112	0.0153415
658.191	0.0153639
658.269	0.0152539
658.347	0.0151567
658.425	0.0151601
658.503	0.0151588
658.581	0.0151187
658.659	0.0151940
658.737	0.0151999
658.816	0.0151217
658.894	0.0150835
658.972	0.0150870
659.050	0.0150937
659.128	0.0150295
659.206	0.0149609
659.284	0.0149841
659.362	0.0150485
659.441	0.0150451
659.519	0.0150983
659.597	0.0150036
659.675	0.0150272
659.753	0.0150611
659.831	0.0149635
659.909	0.0150787
659.987	0.0150222
660.066	0.0150429
660.144	0.0149406
660.222	0.0149937
660.300	0.0150619
660.378	0.0150476
660.456	0.0150078
660.534	0.0150491
660.612	0.0150751
660.691	0.0150161
660.769	0.0148911
660.847	0.0148826
660.925	0.0149133
661.003	0.0151001
661.081	0.0151806
661.159	0.0150777
661.237	0.0150185
661.316	0.0149228
661.394	0.0152587
661.472	0.0152384
661.550	0.0151862
661.628	0.0152885
661.706	0.0152256
661.784	0.0153141
661.862	0.0152520
661.941	0.0152151
662.019	0.0154352
662.097	0.0151753
662.175	0.0154192
662.253	0.0153483
662.331	0.0152618
662.409	0.0152853
662.487	0.0153276
662.566	0.0152587
662.644	0.0152043
662.722	0.0151627
662.800	0.0151131
662.878	0.0151041
662.956	0.0152948
663.034	0.0151202
663.112	0.0151333
663.191	0.0151358
663.269	0.0150550
663.347	0.0151108
663.425	0.0151141
663.503	0.0150346
663.581	0.0150201
663.659	0.0152044
663.737	0.0150214
663.816	0.0150465
663.894	0.0149435
663.972	0.0150452
664.050	0.0149397
664.128	0.0148405
664.206	0.0149761
664.284	0.0149078
664.362	0.0150237
664.441	0.0149473
664.519	0.0148621
664.597	0.0149813
664.675	0.0150100
664.753	0.0149895
664.831	0.0148487
664.909	0.0150247
664.987	0.0149599
665.066	0.0150315
665.144	0.0149471
665.222	0.0148987
665.300	0.0151230
665.378	0.0151089
665.456	0.0148910
665.534	0.0150463
665.612	0.0150992
665.691	0.0151668
665.769	0.0151387
665.847	0.0150578
665.925	0.0150384
666.003	0.0150940
666.081	0.0152509
666.159	0.0151556
666.237	0.0149372
666.316	0.0150272
666.394	0.0150952
666.472	0.0150926
666.550	0.0151928
666.628	0.0150455
666.706	0.0150105
666.784	0.0149744
666.862	0.0150301
666.941	0.0150883
667.019	0.0150265
667.097	0.0150651
667.175	0.0150888
667.253	0.0150501
667.331	0.0150694
667.409	0.0152377
667.487	0.0150233
667.566	0.0149786
667.644	0.0152407
667.722	0.0152299
667.800	0.0151820
667.878	0.0151677
667.956	0.0152222
668.034	0.0151250
668.112	0.0149943
668.191	0.0150459
668.269	0.0148992
668.347	0.0148441
668.425	0.0150003
668.503	0.0151141
668.581	0.0149489
668.659	0.0148777
668.737	0.0149516
668.816	0.0149554
668.894	0.0150237
668.972	0.0149951
669.050	0.0150167
669.128	0.0150465
669.206	0.0151597
669.284	0.0150903
669.362	0.0151275
669.441	0.0151241
669.519	0.0152377
669.597	0.0152006
669.675	0.0152479
669.753	0.0151570
669.831	0.0151314
669.909	0.0150723
669.987	0.0151597
670.066	0.0150909
670.144	0.0151955
670.222	0.0151341
670.300	0.0151971
670.378	0.0151445
670.456	0.0152219
670.534	0.0151949
670.612	0.0150623
670.691	0.0151837
670.769	0.0151785
670.847	0.0150625
670.925	0.0149969
671.003	0.0148872
671.081	0.0151348
671.159	0.0151930
671.237	0.0150325
671.316	0.0151497
671.394	0.0152165
671.472	0.0152506
671.550	0.0150172
671.628	0.0149601
671.706	0.0150799
671.784	0.0151170
671.862	0.0152044
671.941	0.0149907
672.019	0.0149590
672.097	0.0148766
672.175	0.0149854
672.253	0.0149899
672.331	0.0149615
672.409	0.0148294
672.487	0.0149236
672.566	0.0149169
672.644	0.0148332
672.722	0.0148074
672.800	0.0147631
672.878	0.0146923
672.956	0.0147403
673.034	0.0147217
673.112	0.0148119
673.191	0.0147979
673.269	0.0147334
673.347	0.0147221
673.425	0.0147530
673.503	0.0148148
673.581	0.0149693
673.659	0.0148429
673.737	0.0149030
673.816	0.0151194
673.894	0.0148595
673.972	0.0147908
674.050	0.0148389
674.128	0.0150029
674.206	0.0149892
674.284	0.0149818
674.362	0.0149496
674.441	0.0148122
674.519	0.0146170
674.597	0.0147430
674.675	0.0148113
674.753	0.0147672
674.831	0.0149179
674.909	0.0147700
674.987	0.0148273
675.066	0.0147898
675.144	0.0149569
675.222	0.0149471
675.300	0.0149844
675.378	0.0150374
675.456	0.0150900
675.534	0.0151654
675.612	0.0152867
675.691	0.0152225
675.769	0.0152319
675.847	0.0154041
675.925	0.0154725
676.003	0.0155280
676.081	0.0155399
676.159	0.0156955
676.237	0.0154893
676.316	0.0155554
676.394	0.0155746
676.472	0.0156223
676.550	0.0155457
676.628	0.0154755
676.706	0.0154258
676.784	0.0154268
676.862	0.0153091
676.941	0.0154037
677.019	0.0151786
677.097	0.0151970
677.175	0.0151889
677.253	0.0151553
677.331	0.0150890
677.409	0.0151659
677.487	0.0151579
677.566	0.0151635
677.644	0.0152356
677.722	0.0151897
677.800	0.0150331
677.878	0.0151852
677.956	0.0153925
678.034	0.0151971
678.112	0.0152859
678.191	0.0152409
678.269	0.0153185
678.347	0.0153149
678.425	0.0152153
678.503	0.0151890
678.581	0.0152961
678.659	0.0155470
678.737	0.0153654
678.816	0.0153669
678.894	0.0153487
678.972	0.0153382
679.050	0.0152280
679.128	0.0153261
679.206	0.0151662
679.284	0.0150636
679.362	0.0150813
679.441	0.0151606
679.519	0.0151167
679.597	0.0152306
679.675	0.0151763
679.753	0.0151781
679.831	0.0152716
679.909	0.0152820
679.987	0.0151649
680.066	0.0152980
680.144	0.0153191
680.222	0.0153655
680.300	0.0151769
680.378	0.0151991
680.456	0.0152917
680.534	0.0152367
680.612	0.0153101
680.691	0.0152683
680.769	0.0152197
680.847	0.0153386
680.925	0.0152960
681.003	0.0153327
681.081	0.0151360
681.159	0.0153400
681.237	0.0152885
681.316	0.0152808
681.394	0.0152510
681.472	0.0154226
681.550	0.0151734
681.628	0.0151988
681.706	0.0151745
681.784	0.0152197
681.862	0.0150385
681.941	0.0149523
682.019	0.0152062
682.097	0.0150885
682.175	0.0151921
682.253	0.0150756
682.331	0.0150250
682.409	0.0150470
682.487	0.0150352
682.566	0.0149609
682.644	0.0151008
682.722	0.0149196
682.800	0.0149924
682.878	0.0150779
682.956	0.0151920
683.034	0.0151266
683.112	0.0151892
683.191	0.0152467
683.269	0.0152322
683.347	0.0151965
683.425	0.0151099
683.503	0.0152733
683.581	0.0152931
683.659	0.0153133
683.737	0.0152509
683.816	0.0153135
683.894	0.0152164
683.972	0.0152949
684.050	0.0152116
684.128	0.0153149
684.206	0.0152393
684.284	0.0152612
684.362	0.0150935
684.441	0.0151617
684.519	0.0150546
684.597	0.0150413
684.675	0.0149086
684.753	0.0148688
684.831	0.0148830
684.909	0.0148468
684.987	0.0148390
685.066	0.0147926
685.144	0.0148464
685.222	0.0148560
685.300	0.0149139
685.378	0.0146599
685.456	0.0147676
685.534	0.0149035
685.612	0.0148083
685.691	0.0149200
685.769	0.0150983
685.847	0.0150382
685.925	0.0150481
686.003	0.0150447
686.081	0.0150019
686.159	0.0150653
686.237	0.0152065
686.316	0.0151532
686.394	0.0151431
686.472	0.0151250
686.550	0.0151369
686.628	0.0152067
686.706	0.0151723
686.784	0.0150869
686.862	0.0152016
686.941	0.0153757
687.019	0.0152022
687.097	0.0152727
687.175	0.0152262
687.253	0.0153397
687.331	0.0152887
687.409	0.0152879
687.487	0.0153934
687.566	0.0154091
687.644	0.0154138
687.722	0.0153667
687.800	0.0154128
687.878	0.0154222
687.956	0.0155111
688.034	0.0154841
688.112	0.0154708
688.191	0.0154063
688.269	0.0153417
688.347	0.0154454
688.425	0.0152792
688.503	0.0154722
688.581	0.0155466
688.659	0.0154211
688.737	0.0152563
688.816	0.0153406
688.894	0.0154276
688.972	0.0153203
689.050	0.0151928
689.128	0.0152553
689.206	0.0152203
689.284	0.0152415
689.362	0.0150707
689.441	0.0151963
689.519	0.0151311
689.597	0.0151155
689.675	0.0150719
689.753	0.0150762
689.831	0.0150050
689.909	0.0150698
689.987	0.0151706
690.066	0.0151139
690.144	0.0150405
690.222	0.0149884
690.300	0.0150370
690.378	0.0151820
690.456	0.0150794
690.534	0.0148854
690.612	0.0150211
690.691	0.0150002
690.769	0.0151199
690.847	0.0151684
690.925	0.0149032
691.003	0.0150696
691.081	0.0150282
691.159	0.0149390
691.237	0.0148322
691.316	0.0148712
691.394	0.0149921
691.472	0.0149500
691.550	0.0148933
691.628	0.0150698
691.706	0.0150984
691.784	0.0151701
691.862	0.0151700
691.941	0.0152355
692.019	0.0152355
692.097	0.0153725
692.175	0.0153518
692.253	0.0151652
692.331	0.0152275
692.409	0.0153162
692.487	0.0153591
692.566	0.0153578
692.644	0.0152622
692.722	0.0151857
692.800	0.0153076
692.878	0.0152814
692.956	0.0153160
693.034	0.0152270
693.112	0.0151775
693.191	0.0151549
693.269	0.0151757
693.347	0.0150995
693.425	0.0151984
693.503	0.0152381
693.581	0.0151924
693.659	0.0151068
693.737	0.0151884
693.816	0.0151910
693.894	0.0150017
693.972	0.0150976
694.050	0.0150847
694.128	0.0150028
694.206	0.0149360
694.284	0.0150136
694.362	0.0148726
694.441	0.0148801
694.519	0.0149410
694.597	0.0149000
694.675	0.0147756
694.753	0.0149734
694.831	0.0148521
694.909	0.0148549
694.987	0.0147534
695.066	0.0148065
695.144	0.0147601
695.222	0.0147770
695.300	0.0147049
695.378	0.0147442
695.456	0.0147404
695.534	0.0147173
695.612	0.0146164
695.691	0.0146576
695.769	0.0146498
695.847	0.0146094
695.925	0.0147187
696.003	0.0147079
696.081	0.0148686
696.159	0.0148223
696.237	0.0148757
696.316	0.0149689
696.394	0.0147415
696.472	0.0148044
696.550	0.0148905
696.628	0.0149532
696.706	0.0148405
696.784	0.0149365
696.862	0.0147718
696.941	0.0151175
697.019	0.0150472
697.097	0.0149396
697.175	0.0149322
697.253	0.0150852
697.331	0.0149270
697.409	0.0149211
697.487	0.0150671
697.566	0.0150372
697.644	0.0151875
697.722	0.0150194
697.800	0.0151446
697.878	0.0152225
697.956	0.0151928
698.034	0.0151455
698.112	0.0151688
698.191	0.0152878
698.269	0.0151347
698.347	0.0151289
698.425	0.0151160
698.503	0.0150934
698.581	0.0149919
698.659	0.0150304
698.737	0.0150806
698.816	0.0149756
698.894	0.0150175
698.972	0.0148788
699.050	0.0149659
699.128	0.0148689
699.206	0.0150294
699.284	0.0149300
699.362	0.0149780
699.441	0.0149506
699.519	0.0151127
699.597	0.0150893
699.675	0.0150236
699.753	0.0150467
699.831	0.0149946
699.909	0.0149657
699.987	0.0150015
700.066	0.0151150
700.144	0.0150671
700.222	0.0152129
700.300	0.0151257
700.378	0.0151297
700.456	0.0150600
700.534	0.0152850
700.612	0.0151424
700.691	0.0150809
700.769	0.0151909
700.847	0.0151765
700.925	0.0150652
701.003	0.0152428
701.081	0.0151421
701.159	0.0150715
701.237	0.0150988
701.316	0.0150620
701.394	0.0153635
701.472	0.0151161
701.550	0.0150497
701.628	0.0151611
701.706	0.0151991
701.784	0.0151662
701.862	0.0151564
701.941	0.0151759
702.019	0.0152220
702.097	0.0153370
702.175	0.0151906
702.253	0.0152952
702.331	0.0151847
702.409	0.0153037
702.487	0.0151604
702.566	0.0152079
702.644	0.0151208
702.722	0.0151989
702.800	0.0151849
702.878	0.0151677
702.956	0.0150059
703.034	0.0150780
703.112	0.0150261
703.191	0.0150201
703.269	0.0149413
703.347	0.0148937
703.425	0.0148911
703.503	0.0148546
703.581	0.0148784
703.659	0.0149399
703.737	0.0149061
703.816	0.0148766
703.894	0.0147916
703.972	0.0149439
704.050	0.0148621
704.128	0.0149089
704.206	0.0149410
704.284	0.0150637
704.362	0.0149763
704.441	0.0150783
704.519	0.0152244
704.597	0.0151221
704.675	0.0151036
704.753	0.0150857
704.831	0.0152422
704.909	0.0151480
704.987	0.0151263
705.066	0.0152019
705.144	0.0152859
705.222	0.0151394
705.300	0.0151711
705.378	0.0153116
705.456	0.0151174
705.534	0.0152312
705.612	0.0151991
705.691	0.0153867
705.769	0.0152360
705.847	0.0152370
705.925	0.0152644
706.003	0.0153556
706.081	0.0152248
706.159	0.0153785
706.237	0.0152873
706.316	0.0152489
706.394	0.0152148
706.472	0.0152502
706.550	0.0153187
706.628	0.0151836
706.706	0.0152753
706.784	0.0152104
706.862	0.0152303
706.941	0.0151749
707.019	0.0150899
707.097	0.0152934
707.175	0.0152923
707.253	0.0151637
707.331	0.0151064
707.409	0.0150998
707.487	0.0150825
707.566	0.0150172
707.644	0.0149855
707.722	0.0150281
707.800	0.0149072
707.878	0.0150042
707.956	0.0149641
708.034	0.0149236
708.112	0.0149042
708.191	0.0150092
708.269	0.0150159
708.347	0.0148684
708.425	0.0149522
708.503	0.0150053
708.581	0.0148955
708.659	0.0149215
708.737	0.0148002
708.816	0.0149667
708.894	0.0148618
708.972	0.0149605
709.050	0.0149294
709.128	0.0149091
709.206	0.0149311
709.284	0.0150647
709.362	0.0151169
709.441	0.0149000
709.519	0.0150921
709.597	0.0150949
709.675	0.0151253
709.753	0.0150489
709.831	0.0151254
709.909	0.0151035
709.987	0.0150995
710.066	0.0151736
710.144	0.0152521
710.222	0.0151907
710.300	0.0150748
710.378	0.0151671
710.456	0.0152450
710.534	0.0151472
710.612	0.0151746
710.691	0.0152446
710.769	0.0151797
710.847	0.0150244
710.925	0.0151447
711.003	0.0151463
711.081	0.0150939
711.159	0.0151262
711.237	0.0150478
711.316	0.0151764
711.394	0.0149973
711.472	0.0151449
711.550	0.0150510
711.628	0.0150233
711.706	0.0151524
711.784	0.0151812
711.862	0.0152168
711.941	0.0150729
712.019	0.0152255
712.097	0.0150375
712.175	0.0150048
712.253	0.0151181
712.331	0.0150513
712.409	0.0150499
712.487	0.0150138
712.566	0.0150941
712.644	0.0149675
712.722	0.0149239
712.800	0.0150343
712.878	0.0149655
712.956	0.0149233
713.034	0.0150241
713.112	0.0149610
713.191	0.0149731
713.269	0.0150481
713.347	0.0150500
713.425	0.0149251
713.503	0.0150842
713.581	0.0150221
713.659	0.0148676
713.737	0.0150542
713.816	0.0149233
713.894	0.0150072
713.972	0.0150240
714.050	0.0150044
714.128	0.0150019
714.206	0.0151015
714.284	0.0150401
714.362	0.0150420
714.441	0.0149545
714.519	0.0149885
714.597	0.0151482
714.675	0.0150658
714.753	0.0150263
714.831	0.0151232
714.909	0.0150620
714.987	0.0150327
715.066	0.0150483
715.144	0.0151817
715.222	0.0151160
715.300	0.0151604
715.378	0.0151105
715.456	0.0150912
715.534	0.0149897
715.612	0.0150584
715.691	0.0151692
715.769	0.0148856
715.847	0.0148959
715.925	0.0149085
716.003	0.0150092
716.081	0.0149845
716.159	0.0147247
716.237	0.0147987
716.316	0.0149533
716.394	0.0149860
716.472	0.0150359
716.550	0.0149415
716.628	0.0148844
716.706	0.0147328
716.784	0.0148400
716.862	0.0146992
716.941	0.0148501
717.019	0.0148097
717.097	0.0150646
717.175	0.0149780
717.253	0.0148301
717.331	0.0148624
717.409	0.0149055
717.487	0.0148083
717.566	0.0147671
717.644	0.0148442
717.722	0.0150246
717.800	0.0150234
717.878	0.0149889
717.956	0.0150982
718.034	0.0150290
718.112	0.0149684
718.191	0.0151726
718.269	0.0152287
718.347	0.0151020
718.425	0.0151444
718.503	0.0151754
718.581	0.0151398
718.659	0.0151014
718.737	0.0151408
718.816	0.0151952
718.894	0.0150457
718.972	0.0149994
719.050	0.0151859
719.128	0.0150166
719.206	0.0149908
719.284	0.0150831
719.362	0.0150598
719.441	0.0150128
719.519	0.0150960
719.597	0.0151408
719.675	0.0150694
719.753	0.0150532
719.831	0.0149654
719.909	0.0151154
719.987	0.0151615
720.066	0.0152105
720.144	0.0150748
720.222	0.0150497
720.300	0.0152598
720.378	0.0153219
720.456	0.0151793
720.534	0.0150993
720.612	0.0151985
720.691	0.0152881
720.769	0.0151431
720.847	0.0152142
720.925	0.0150950
721.003	0.0151058
721.081	0.0150253
721.159	0.0150378
721.237	0.0149669
721.316	0.0150675
721.394	0.0148721
721.472	0.0150064
721.550	0.0151913
721.628	0.0150401
721.706	0.0150531
721.784	0.0150166
721.862	0.0150120
721.941	0.0150749
722.019	0.0150683
722.097	0.0151296
722.175	0.0149757
722.253	0.0149358
722.331	0.0150368
722.409	0.0149176
722.487	0.0149980
722.566	0.0150391
722.644	0.0150155
722.722	0.0150642
722.800	0.0149725
722.878	0.0149132
722.956	0.0149957
723.034	0.0149282
723.112	0.0149881
723.191	0.0150014
723.269	0.0149530
723.347	0.0151084
723.425	0.0149832
723.503	0.0149836
723.581	0.0151064
723.659	0.0150576
723.737	0.0150732
723.816	0.0151544
723.894	0.0149496
723.972	0.0150539
724.050	0.0150576
724.128	0.0149776
724.206	0.0148811
724.284	0.0149095
724.362	0.0150124
724.441	0.0149175
724.519	0.0147861
724.597	0.0147866
724.675	0.0147485
724.753	0.0147464
724.831	0.0148168
724.909	0.0148067
724.987	0.0148771
725.066	0.0148045
725.144	0.0148187
725.222	0.0147491
725.300	0.0147353
725.378	0.0148912
725.456	0.0148271
725.534	0.0148386
725.612	0.0147160
725.691	0.0147192
725.769	0.0147404
725.847	0.0148181
725.925	0.0146750
726.003	0.0147214
726.081	0.0149038
726.159	0.0148618
726.237	0.0146607
726.316	0.0146783
726.394	0.0148155
726.472	0.0148513
726.550	0.0147849
726.628	0.0148977
726.706	0.0147975
726.784	0.0149035
726.862	0.0149824
726.941	0.0149296
727.019	0.0149516
727.097	0.0150993
727.175	0.0150874
727.253	0.0149623
727.331	0.0150679
727.409	0.0150270
727.487	0.0151491
727.566	0.0153027
727.644	0.0150143
727.722	0.0152504
727.800	0.0152827
727.878	0.0151377
727.956	0.0152467
728.034	0.0152226
728.112	0.0151627
728.191	0.0153371
728.269	0.0151535
728.347	0.0151950
728.425	0.0151811
728.503	0.0150964
728.581	0.0152336
728.659	0.0152283
728.737	0.0150722
728.816	0.0151055
728.894	0.0151535
728.972	0.0151263
729.050	0.0150314
729.128	0.0150332
729.206	0.0149863
729.284	0.0148689
729.362	0.0149460
729.441	0.0149743
729.519	0.0149904
729.597	0.0148296
729.675	0.0149175
729.753	0.0150031
729.831	0.0147583
729.909	0.0148320
729.987	0.0147842
730.066	0.0149113
730.144	0.0148415
730.222	0.0147581
730.300	0.0147546
730.378	0.0149100
730.456	0.0148096
730.534	0.0148588
730.612	0.0147009
730.691	0.0148791
730.769	0.0147932
730.847	0.0148707
730.925	0.0148210
731.003	0.0146863
731.081	0.0148159
731.159	0.0147548
731.237	0.0148253
731.316	0.0147646
731.394	0.0148336
731.472	0.0147825
731.550	0.0147589
731.628	0.0148229
731.706	0.0148096
731.784	0.0149075
731.862	0.0148521
731.941	0.0148897
732.019	0.0149629
732.097	0.0148318
732.175	0.0148628
732.253	0.0148768
732.331	0.0148778
732.409	0.0146608
732.487	0.0148132
732.566	0.0148772
732.644	0.0148151
732.722	0.0147948
732.800	0.0149015
732.878	0.0147915
732.956	0.0148051
733.034	0.0146484
733.112	0.0147209
733.191	0.0147305
733.269	0.0147562
733.347	0.0148822
733.425	0.0147152
733.503	0.0146659
733.581	0.0148061
733.659	0.0149079
733.737	0.0148017
733.816	0.0149232
733.894	0.0148236
733.972	0.0148596
734.050	0.0149936
734.128	0.0149691
734.206	0.0149916
734.284	0.0151425
734.362	0.0150324
734.441	0.0149899
734.519	0.0149540
734.597	0.0150459
734.675	0.0149783
734.753	0.0151306
734.831	0.0150289
734.909	0.0150674
734.987	0.0150934
735.066	0.0151637
735.144	0.0151652
735.222	0.0151529
735.300	0.0151701
735.378	0.0150710
735.456	0.0151764
735.534	0.0149980
735.612	0.0151116
735.691	0.0150405
735.769	0.0150941
735.847	0.0151543
735.925	0.0150406
736.003	0.0151327
736.081	0.0150494
736.159	0.0150731
736.237	0.0151922
736.316	0.0150668
736.394	0.0151141
736.472	0.0150952
736.550	0.0150336
736.628	0.0150283
736.706	0.0151627
736.784	0.0149445
736.862	0.0151074
736.941	0.0150954
737.019	0.0149962
737.097	0.0151053
737.175	0.0150644
737.253	0.0151855
737.331	0.0151019
737.409	0.0150888
737.487	0.0151221
737.566	0.0151451
737.644	0.0150319
737.722	0.0150793
737.800	0.0152353
737.878	0.0151279
737.956	0.0151409
738.034	0.0150397
738.112	0.0150552
738.191	0.0151524
738.269	0.0152081
738.347	0.0152722
738.425	0.0151904
738.503	0.0151794
738.581	0.0152869
738.659	0.0153033
738.737	0.0153139
738.816	0.0153606
738.894	0.0152470
738.972	0.0153467
739.050	0.0153853
739.128	0.0152691
739.206	0.0152608
739.284	0.0153291
739.362	0.0153323
739.441	0.0154401
739.519	0.0152425
739.597	0.0152916
739.675	0.0153087
739.753	0.0153057
739.831	0.0153722
739.909	0.0153390
739.987	0.0152001
740.066	0.0151507
740.144	0.0153806
740.222	0.0150898
740.300	0.0152221
740.378	0.0151976
740.456	0.0151968
740.534	0.0150464
740.612	0.0152965
740.691	0.0152561
740.769	0.0152498
740.847	0.0151122
740.925	0.0152449
741.003	0.0151184
741.081	0.0151395
741.159	0.0150906
741.237	0.0150214
741.316	0.0150335
741.394	0.0151046
741.472	0.0149324
741.550	0.0150291
741.628	0.0149194
741.706	0.0148775
741.784	0.0149169
741.862	0.0148954
741.941	0.0148383
742.019	0.0148860
742.097	0.0149452
742.175	0.0149299
742.253	0.0148815
742.331	0.0148579
742.409	0.0149902
742.487	0.0149428
742.566	0.0148685
742.644	0.0149490
742.722	0.0148881
742.800	0.0148621
742.878	0.0148885
742.956	0.0150717
743.034	0.0149665
743.112	0.0148658
743.191	0.0149387
743.269	0.0149606
743.347	0.0149252
743.425	0.0150315
743.503	0.0149795
743.581	0.0149698
743.659	0.0149814
743.737	0.0148855
743.816	0.0149524
743.894	0.0150716
743.972	0.0150797
744.050	0.0150277
744.128	0.0150854
744.206	0.0149819
744.284	0.0150006
744.362	0.0149091
744.441	0.0150078
744.519	0.0150522
744.597	0.0150108
744.675	0.0149908
744.753	0.0149751
744.831	0.0150411
744.909	0.0149696
744.987	0.0149969
745.066	0.0150414
745.144	0.0151460
745.222	0.0151080
745.300	0.0150109
745.378	0.0149064
745.456	0.0149364
745.534	0.0151711
745.612	0.0151586
745.691	0.0150665
745.769	0.0151060
745.847	0.0151984
745.925	0.0150334
746.003	0.0151440
746.081	0.0150948
746.159	0.0150079
746.237	0.0150420
746.316	0.0150522
746.394	0.0153139
746.472	0.0152350
746.550	0.0150947
746.628	0.0152149
746.706	0.0153343
746.784	0.0151365
746.862	0.0153590
746.941	0.0152583
747.019	0.0151673
747.097	0.0152711
747.175	0.0151978
747.253	0.0151686
747.331	0.0152738
747.409	0.0151152
747.487	0.0151106
747.566	0.0152202
747.644	0.0151910
747.722	0.0152925
747.800	0.0151795
747.878	0.0151296
747.956	0.0150935
748.034	0.0151165
748.112	0.0151324
748.191	0.0151944
748.269	0.0151125
748.347	0.0150926
748.425	0.0152397
748.503	0.0151558
748.581	0.0151594
748.659	0.0151084
748.737	0.0151704
748.816	0.0151382
748.894	0.0151971
748.972	0.0151554
749.050	0.0150681
749.128	0.0152189
749.206	0.0151740
749.284	0.0150242
749.362	0.0149991
749.441	0.0150114
749.519	0.0149719
749.597	0.0149748
749.675	0.0149484
749.753	0.0150002
749.831	0.0151049
749.909	0.0151172
749.987	0.0150451
750.066	0.0149871
750.144	0.0151478
750.222	0.0151163
750.300	0.0150803
750.378	0.0151044
750.456	0.0151981
750.534	0.0151276
750.612	0.0151076
750.691	0.0151247
750.769	0.0151669
750.847	0.0151271
750.925	0.0150642
751.003	0.0152355
751.081	0.0150658
751.159	0.0150816
751.237	0.0151097
751.316	0.0148053
751.394	0.0149656
751.472	0.0150734
751.550	0.0150310
751.628	0.0149100
751.706	0.0149844
751.784	0.0148724
751.862	0.0149503
751.941	0.0149976
752.019	0.0149488
752.097	0.0148914
752.175	0.0150381
752.253	0.0148959
752.331	0.0147964
752.409	0.0147906
752.487	0.0149180
752.566	0.0147173
752.644	0.0147941
752.722	0.0150459
752.800	0.0149233
752.878	0.0148296
752.956	0.0149376
753.034	0.0148914
753.112	0.0147817
753.191	0.0147124
753.269	0.0148835
753.347	0.0149464
753.425	0.0149261
753.503	0.0149099
753.581	0.0150066
753.659	0.0149879
753.737	0.0150088
753.816	0.0149131
753.894	0.0149760
753.972	0.0149784
754.050	0.0149942
754.128	0.0150668
754.206	0.0148653
754.284	0.0149426
754.362	0.0149042
754.441	0.0150244
754.519	0.0148717
754.597	0.0149426
754.675	0.0149677
754.753	0.0150031
754.831	0.0149576
754.909	0.0150621
754.987	0.0151569
755.066	0.0150225
755.144	0.0149474
755.222	0.0150377
755.300	0.0150706
755.378	0.0150278
755.456	0.0150659
755.534	0.0150978
755.612	0.0150248
755.691	0.0150021
755.769	0.0149775
755.847	0.0149134
755.925	0.0150102
756.003	0.0150463
756.081	0.0151299
756.159	0.0149420
756.237	0.0149649
756.316	0.0149229
756.394	0.0147655
756.472	0.0148849
756.550	0.0148579
756.628	0.0149431
756.706	0.0147248
756.784	0.0148895
756.862	0.0149384
756.941	0.0149039
757.019	0.0149342
757.097	0.0149498
757.175	0.0149265
757.253	0.0148557
757.331	0.0149319
757.409	0.0148421
757.487	0.0150857
757.566	0.0149755
757.644	0.0151085
757.722	0.0149763
757.800	0.0150266
757.878	0.0151744
757.956	0.0150747
758.034	0.0151034
758.112	0.0149999
758.191	0.0150872
758.269	0.0151508
758.347	0.0150759
758.425	0.0151875
758.503	0.0151308
758.581	0.0150882
758.659	0.0149250
758.737	0.0151521
758.816	0.0152405
758.894	0.0152129
758.972	0.0150703
759.050	0.0150656
759.128	0.0151180
759.206	0.0150916
759.284	0.0151637
759.362	0.0151218
759.441	0.0152461
759.519	0.0151235
759.597	0.0151954
759.675	0.0150001
759.753	0.0150993
759.831	0.0150103
759.909	0.0150941
759.987	0.0150849
760.066	0.0150975
760.144	0.0151479
760.222	0.0152565
760.300	0.0153584
760.378	0.0150917
760.456	0.0150811
760.534	0.0151828
760.612	0.0151145
760.691	0.0151844
760.769	0.0151105
760.847	0.0152394
760.925	0.0152509
761.003	0.0151548
761.081	0.0151585
761.159	0.0151067
761.237	0.0150259
761.316	0.0150596
761.394	0.0151664
761.472	0.0151092
761.550	0.0151089
761.628	0.0151340
761.706	0.0151698
761.784	0.0150610
761.862	0.0153094
761.941	0.0152471
762.019	0.0152544
762.097	0.0152579
762.175	0.0151329
762.253	0.0152243
762.331	0.0153017
762.409	0.0153278
762.487	0.0152112
762.566	0.0151855
762.644	0.0154037
762.722	0.0153122
762.800	0.0153747
762.878	0.0154596
762.956	0.0154090
763.034	0.0154609
763.112	0.0152754
763.191	0.0153497
763.269	0.0153139
763.347	0.0154556
763.425	0.0153262
763.503	0.0151912
763.581	0.0153665
763.659	0.0152312
763.737	0.0153653
763.816	0.0151373
763.894	0.0150813
763.972	0.0151512
764.050	0.0152043
764.128	0.0151376
764.206	0.0151805
764.284	0.0150645
764.362	0.0152094
764.441	0.0150539
764.519	0.0150633
764.597	0.0150251
764.675	0.0149091
764.753	0.0150452
764.831	0.0150350
764.909	0.0150691
764.987	0.0150757
765.066	0.0150709
765.144	0.0150703
765.222	0.0150172
765.300	0.0149876
765.378	0.0150852
765.456	0.0152279
765.534	0.0150784
765.612	0.0149946
765.691	0.0151053
765.769	0.0151334
765.847	0.0150932
765.925	0.0150907
766.003	0.0150439
766.081	0.0150505
766.159	0.0150894
766.237	0.0150520
766.316	0.0151463
766.394	0.0150865
766.472	0.0151068
766.550	0.0151235
766.628	0.0151271
766.706	0.0150200
766.784	0.0150934
766.862	0.0152080
766.941	0.0149889
767.019	0.0150515
767.097	0.0151976
767.175	0.0152131
767.253	0.0151890
767.331	0.0150697
767.409	0.0152274
767.487	0.0151444
767.566	0.0151462
767.644	0.0151897
767.722	0.0152967
767.800	0.0153349
767.878	0.0153672
767.956	0.0153738
768.034	0.0151637
768.112	0.0153214
768.191	0.0152264
768.269	0.0153970
768.347	0.0153639
768.425	0.0151480
768.503	0.0152574
768.581	0.0152927
768.659	0.0153394
768.737	0.0153083
768.816	0.0152496
768.894	0.0152852
768.972	0.0153373
769.050	0.0152022
769.128	0.0150353
769.206	0.0151283
769.284	0.0151353
769.362	0.0150824
769.441	0.0150584
769.519	0.0151516
769.597	0.0150771
769.675	0.0150562
769.753	0.0149793
769.831	0.0150156
769.909	0.0150593
769.987	0.0150051
770.066	0.0150047
770.144	0.0150946
770.222	0.0151027
770.300	0.0151919
770.378	0.0150978
770.456	0.0149682
770.534	0.0151338
770.612	0.0150838
770.691	0.0151794
770.769	0.0152307
770.847	0.0151580
770.925	0.0151004
771.003	0.0152138
771.081	0.0151617
771.159	0.0152016
771.237	0.0151818
771.316	0.0152538
771.394	0.0152077
771.472	0.0151772
771.550	0.0152260
771.628	0.0151427
771.706	0.0152264
771.784	0.0153016
771.862	0.0153502
771.941	0.0152249
772.019	0.0153335
772.097	0.0153741
772.175	0.0152989
772.253	0.0153042
772.331	0.0153875
772.409	0.0151130
772.487	0.0152088
772.566	0.0152891
772.644	0.0152802
772.722	0.0152372
772.800	0.0151493
772.878	0.0151083
772.956	0.0152028
773.034	0.0151455
773.112	0.0151444
773.191	0.0150949
773.269	0.0150939
773.347	0.0150584
773.425	0.0149791
773.503	0.0150349
773.581	0.0150774
773.659	0.0150415
773.737	0.0151381
773.816	0.0151374
773.894	0.0151534
773.972	0.0150578
774.050	0.0150440
774.128	0.0150529
774.206	0.0151316
774.284	0.0151547
774.362	0.0151035
774.441	0.0151441
774.519	0.0150464
774.597	0.0150213
774.675	0.0150378
774.753	0.0148050
774.831	0.0149828
774.909	0.0151109
774.987	0.0151069
775.066	0.0149174
775.144	0.0149554
775.222	0.0149200
775.300	0.0148988
775.378	0.0149141
775.456	0.0148351
775.534	0.0148556
775.612	0.0148529
775.691	0.0148901
775.769	0.0149199
775.847	0.0149037
775.925	0.0149688
776.003	0.0149844
776.081	0.0149136
776.159	0.0149241
776.237	0.0148696
776.316	0.0149444
776.394	0.0149999
776.472	0.0149303
776.550	0.0150092
776.628	0.0147765
776.706	0.0148351
776.784	0.0148218
776.862	0.0147719
776.941	0.0148548
777.019	0.0148071
777.097	0.0146631
777.175	0.0149792
777.253	0.0149185
777.331	0.0147296
777.409	0.0147985
777.487	0.0149205
777.566	0.0149178
777.644	0.0148329
777.722	0.0150208
777.800	0.0147820
777.878	0.0148484
777.956	0.0148910
778.034	0.0148449
778.112	0.0147093
778.191	0.0148318
778.269	0.0149094
778.347	0.0147941
778.425	0.0148508
778.503	0.0149684
778.581	0.0148402
778.659	0.0148638
778.737	0.0148674
778.816	0.0149915
778.894	0.0149744
778.972	0.0148547
779.050	0.0150609
779.128	0.0150751
779.206	0.0151596
779.284	0.0150913
779.362	0.0149490
779.441	0.0149055
779.519	0.0150544
779.597	0.0150638
779.675	0.0149091
779.753	0.0150585
779.831	0.0150257
779.909	0.0149207
779.987	0.0150598
780.066	0.0150847
780.144	0.0149454
780.222	0.0149506
780.300	0.0150244
780.378	0.0148829
780.456	0.0148287
780.534	0.0149500
780.612	0.0149714
780.691	0.0150254
780.769	0.0149738
780.847	0.0150780
780.925	0.0151790
781.003	0.0150828
781.081	0.0149863
781.159	0.0150883
781.237	0.0150018
781.316	0.0151442
781.394	0.0150716
781.472	0.0150711
781.550	0.0150877
781.628	0.0152103
781.706	0.0149495
781.784	0.0149514
781.862	0.0150319
781.941	0.0148839
782.019	0.0148661
782.097	0.0148605
782.175	0.0148665
782.253	0.0149766
782.331	0.0149611
782.409	0.0150308
782.487	0.0149907
782.566	0.0150517
782.644	0.0149454
782.722	0.0149775
782.800	0.0150256
782.878	0.0150012
782.956	0.0149844
783.034	0.0151780
783.112	0.0149661
783.191	0.0150138
783.269	0.0151028
783.347	0.0151806
783.425	0.0152816
783.503	0.0151814
783.581	0.0151395
783.659	0.0153056
783.737	0.0152734
783.816	0.0152651
783.894	0.0151844
783.972	0.0151781
784.050	0.0151284
784.128	0.0151347
784.206	0.0150914
784.284	0.0151418
784.362	0.0150669
784.441	0.0151423
784.519	0.0151559
784.597	0.0151255
784.675	0.0152426
784.753	0.0151768
784.831	0.0154244
784.909	0.0151995
784.987	0.0151788
785.066	0.0152359
785.144	0.0152086
785.222	0.0152082
785.300	0.0152627
785.378	0.0152097
785.456	0.0151670
785.534	0.0152941
785.612	0.0153812
785.691	0.0153229
785.769	0.0153335
785.847	0.0152994
785.925	0.0154015
786.003	0.0152757
786.081	0.0153209
786.159	0.0154348
786.237	0.0154236
786.316	0.0153864
786.394	0.0153061
786.472	0.0153137
786.550	0.0152864
786.628	0.0153968
786.706	0.0152661
786.784	0.0150281
786.862	0.0153320
786.941	0.0151585
787.019	0.0153613
787.097	0.0153906
787.175	0.0152232
787.253	0.0151762
787.331	0.0153343
787.409	0.0152562
787.487	0.0152020
787.566	0.0151443
787.644	0.0150440
787.722	0.0150557
787.800	0.0150169
787.878	0.0150765
787.956	0.0151661
788.034	0.0150218
788.112	0.0150994
788.191	0.0149974
788.269	0.0150568
788.347	0.0149708
788.425	0.0149677
788.503	0.0148911
788.581	0.0150330
788.659	0.0148548
788.737	0.0148741
788.816	0.0148720
788.894	0.0149081
788.972	0.0149387
789.050	0.0149454
789.128	0.0150629
789.206	0.0149033
789.284	0.0149379
789.362	0.0149580
789.441	0.0151021
789.519	0.0148230
789.597	0.0149657
789.675	0.0150835
789.753	0.0147801
789.831	0.0149746
789.909	0.0149847
789.987	0.0148645
790.066	0.0148073
790.144	0.0149934
790.222	0.0149549
790.300	0.0150085
790.378	0.0149941
790.456	0.0149551
790.534	0.0150692
790.612	0.0149747
790.691	0.0150222
790.769	0.0151355
790.847	0.0150825
790.925	0.0151391
791.003	0.0152221
791.081	0.0151775
791.159	0.0151448
791.237	0.0151022
791.316	0.0153099
791.394	0.0151971
791.472	0.0151786
791.550	0.0150807
791.628	0.0152308
791.706	0.0152197
791.784	0.0152031
791.862	0.0150005
791.941	0.0150059
792.019	0.0150196
792.097	0.0150406
792.175	0.0150668
792.253	0.0151070
792.331	0.0149676
792.409	0.0150176
792.487	0.0150732
792.566	0.0149760
792.644	0.0150378
792.722	0.0151250
792.800	0.0149039
792.878	0.0149220
792.956	0.0150325
793.034	0.0149123
793.112	0.0148315
793.191	0.0149729
793.269	0.0148958
793.347	0.0149047
793.425	0.0149813
793.503	0.0148174
793.581	0.0149024
793.659	0.0147624
793.737	0.0148421
793.816	0.0147717
793.894	0.0148156
793.972	0.0147927
794.050	0.0148897
794.128	0.0148607
794.206	0.0148659
794.284	0.0148142
794.362	0.0149142
794.441	0.0149123
794.519	0.0150111
794.597	0.0148853
794.675	0.0149798
794.753	0.0148522
794.831	0.0150066
794.909	0.0150535
794.987	0.0149305
795.066	0.0148701
795.144	0.0149973
795.222	0.0150806
795.300	0.0150888
795.378	0.0152098
795.456	0.0150287
795.534	0.0150958
795.612	0.0150874
795.691	0.0150475
795.769	0.0150411
795.847	0.0149729
795.925	0.0150200
796.003	0.0151575
796.081	0.0152667
796.159	0.0151144
796.237	0.0151048
796.316	0.0150603
796.394	0.0151826
796.472	0.0151483
796.550	0.0150634
796.628	0.0151897
796.706	0.0151278
796.784	0.0151472
796.862	0.0150642
796.941	0.0149659
797.019	0.0150166
797.097	0.0149976
797.175	0.0150758
797.253	0.0151403
797.331	0.0150666
797.409	0.0150034
797.487	0.0150926
797.566	0.0151102
797.644	0.0150575
797.722	0.0151385
797.800	0.0151237
797.878	0.0150992
797.956	0.0152311
798.034	0.0153854
798.112	0.0151294
798.191	0.0152978
798.269	0.0151749
798.347	0.0152625
798.425	0.0151801
798.503	0.0152906
798.581	0.0152515
798.659	0.0153377
798.737	0.0154430
798.816	0.0153925
798.894	0.0153207
798.972	0.0153500
799.050	0.0154593
799.128	0.0152030
799.206	0.0152734
799.284	0.0153127
799.362	0.0153042
799.441	0.0152195
799.519	0.0153413
799.597	0.0152059
799.675	0.0151383
799.753	0.0151829
799.831	0.0153234
799.909	0.0152296
799.987	0.0151682
800.066	0.0151820
800.144	0.0151861
800.222	0.0151578
800.300	0.0150154
800.378	0.0151139
800.456	0.0150145
800.534	0.0149808
800.612	0.0149089
800.691	0.0149225
800.769	0.0149168
800.847	0.0149024
800.925	0.0147019
801.003	0.0149047
801.081	0.0149661
801.159	0.0148167
801.237	0.0147054
801.316	0.0149413
801.394	0.0148448
801.472	0.0148058
801.550	0.0149017
801.628	0.0147698
801.706	0.0147345
801.784	0.0146880
801.862	0.0147795
801.941	0.0147326
802.019	0.0148582
802.097	0.0148532
802.175	0.0148361
802.253	0.0146423
802.331	0.0147094
802.409	0.0147701
802.487	0.0148396
802.566	0.0148359
802.644	0.0149084
802.722	0.0149561
802.800	0.0147523
802.878	0.0147936
802.956	0.0149363
803.034	0.0149460
803.112	0.0149552
803.191	0.0148428
803.269	0.0149242
803.347	0.0149829
803.425	0.0149082
803.503	0.0149912
803.581	0.0150858
803.659	0.0150147
803.737	0.0150763
803.816	0.0149734
803.894	0.0150039
803.972	0.0150188
804.050	0.0150715
804.128	0.0150188
804.206	0.0150964
804.284	0.0151102
804.362	0.0148545
804.441	0.0149066
804.519	0.0151228
804.597	0.0151048
804.675	0.0149992
804.753	0.0150636
804.831	0.0151257
804.909	0.0150657
804.987	0.0150158
805.066	0.0150682
805.144	0.0150640
805.222	0.0149880
805.300	0.0149014
805.378	0.0150542
805.456	0.0150339
805.534	0.0150375
805.612	0.0151250
805.691	0.0149837
805.769	0.0152192
805.847	0.0150772
805.925	0.0150471
806.003	0.0150098
806.081	0.0150656
806.159	0.0151470
806.237	0.0152372
806.316	0.0151649
806.394	0.0150707
806.472	0.0153390
806.550	0.0150254
806.628	0.0151044
806.706	0.0151868
806.784	0.0152835
806.862	0.0150652
806.941	0.0150748
807.019	0.0151469
807.097	0.0150766
807.175	0.0150944
807.253	0.0151260
807.331	0.0151335
807.409	0.0150019
807.487	0.0151090
807.566	0.0150551
807.644	0.0150574
807.722	0.0149245
807.800	0.0149423
807.878	0.0151367
807.956	0.0149113
808.034	0.0149350
808.112	0.0150117
808.191	0.0151553
808.269	0.0148812
808.347	0.0150883
808.425	0.0150892
808.503	0.0151006
808.581	0.0151078
808.659	0.0149246
808.737	0.0149118
808.816	0.0152320
808.894	0.0152531
808.972	0.0149988
809.050	0.0150362
809.128	0.0150659
809.206	0.0150603
809.284	0.0149898
809.362	0.0150735
809.441	0.0150514
809.519	0.0150443
809.597	0.0150645
809.675	0.0150864
809.753	0.0150627
809.831	0.0148959
809.909	0.0149776
809.987	0.0151447
810.066	0.0150153
810.144	0.0149203
810.222	0.0149693
810.300	0.0148950
810.378	0.0150173
810.456	0.0149670
810.534	0.0150117
810.612	0.0148216
810.691	0.0149492
810.769	0.0149718
810.847	0.0148833
810.925	0.0149426
811.003	0.0150152
811.081	0.0149457
811.159	0.0148961
811.237	0.0150166
811.316	0.0149992
811.394	0.0151882
811.472	0.0150824
811.550	0.0150306
811.628	0.0150516
811.706	0.0150042
811.784	0.0149717
811.862	0.0150780
811.941	0.0149724
812.019	0.0149603
812.097	0.0151009
812.175	0.0150582
812.253	0.0150745
812.331	0.0150989
812.409	0.0151167
812.487	0.0149854
812.566	0.0150114
812.644	0.0148830
812.722	0.0151204
812.800	0.0151148
812.878	0.0150101
812.956	0.0149467
813.034	0.0149539
813.112	0.0149740
813.191	0.0150032
813.269	0.0150683
813.347	0.0149944
813.425	0.0148824
813.503	0.0150662
813.581	0.0149973
813.659	0.0149726
813.737	0.0149739
813.816	0.0150665
813.894	0.0151704
813.972	0.0150545
814.050	0.0150620
814.128	0.0150743
814.206	0.0150735
814.284	0.0150156
814.362	0.0150608
814.441	0.0150360
814.519	0.0150970
814.597	0.0150825
814.675	0.0150964
814.753	0.0150881
814.831	0.0151957
814.909	0.0151427
814.987	0.0150494
815.066	0.0150646
815.144	0.0150454
815.222	0.0151315
815.300	0.0151479
815.378	0.0151614
815.456	0.0152086
815.534	0.0150622
815.612	0.0150584
815.691	0.0150610
815.769	0.0152132
815.847	0.0151692
815.925	0.0151231
816.003	0.0152242
816.081	0.0152322
816.159	0.0150582
816.237	0.0151411
816.316	0.0151852
816.394	0.0152134
816.472	0.0151715
816.550	0.0150291
816.628	0.0151678
816.706	0.0152068
816.784	0.0151393
816.862	0.0151520
816.941	0.0151578
817.019	0.0151482
817.097	0.0152400
817.175	0.0151881
817.253	0.0152298
817.331	0.0152118
817.409	0.0151442
817.487	0.0151249
817.566	0.0150397
817.644	0.0151324
817.722	0.0151382
817.800	0.0149700
817.878	0.0150423
817.956	0.0151046
818.034	0.0150249
818.112	0.0150210
818.191	0.0150446
818.269	0.0150436
818.347	0.0149667
818.425	0.0149625
818.503	0.0148657
818.581	0.0150059
818.659	0.0150758
818.737	0.0151293
818.816	0.0151532
818.894	0.0149541
818.972	0.0149190
819.050	0.0148827
819.128	0.0149117
819.206	0.0150375
819.284	0.0150631
819.362	0.0149644
819.441	0.0150029
819.519	0.0150481
819.597	0.0151454
819.675	0.0151228
819.753	0.0149150
819.831	0.0149561
819.909	0.0150863
819.987	0.0149970
820.066	0.0149415
820.144	0.0149844
820.222	0.0149825
820.300	0.0149751
820.378	0.0150246
820.456	0.0150452
820.534	0.0150206
820.612	0.0149233
820.691	0.0149618
820.769	0.0149925
820.847	0.0150280
820.925	0.0150690
821.003	0.0150550
821.081	0.0149664
821.159	0.0149707
821.237	0.0151734
821.316	0.0150787
821.394	0.0150117
821.472	0.0151471
821.550	0.0151407
821.628	0.0151688
821.706	0.0150335
821.784	0.0151852
821.862	0.0151174
821.941	0.0151890
822.019	0.0151934
822.097	0.0152037
822.175	0.0152829
822.253	0.0153247
822.331	0.0153384
822.409	0.0152402
822.487	0.0153456
822.566	0.0154345
822.644	0.0154803
822.722	0.0152847
822.800	0.0153276
822.878	0.0154398
822.956	0.0153023
823.034	0.0153482
823.112	0.0153558
823.191	0.0153794
823.269	0.0152857
823.347	0.0154308
823.425	0.0152138
823.503	0.0151942
823.581	0.0152979
823.659	0.0152744
823.737	0.0151328
823.816	0.0153198
823.894	0.0152314
823.972	0.0152225
824.050	0.0151316
824.128	0.0152638
824.206	0.0153503
824.284	0.0152690
824.362	0.0153254
824.441	0.0153143
824.519	0.0151141
824.597	0.0152318
824.675	0.0152468
824.753	0.0152732
824.831	0.0152765
824.909	0.0151546
824.987	0.0152278
825.066	0.0152972
825.144	0.0152328
825.222	0.0152641
825.300	0.0150861
825.378	0.0150726
825.456	0.0153377
825.534	0.0151007
825.612	0.0152415
825.691	0.0152190
825.769	0.0150959
825.847	0.0150893
825.925	0.0151392
826.003	0.0151031
826.081	0.0150669
826.159	0.0151270
826.237	0.0150765
826.316	0.0149882
826.394	0.0151505
826.472	0.0150677
826.550	0.0151295
826.628	0.0150358
826.706	0.0150101
826.784	0.0151098
826.862	0.0150010
826.941	0.0150886
827.019	0.0150636
827.097	0.0151788
827.175	0.0150391
827.253	0.0150194
827.331	0.0149657
827.409	0.0150553
827.487	0.0149849
827.566	0.0150928
827.644	0.0148846
827.722	0.0148735
827.800	0.0149326
827.878	0.0148774
827.956	0.0148075
828.034	0.0148529
828.112	0.0149891
828.191	0.0148947
828.269	0.0148671
828.347	0.0148669
828.425	0.0149378
828.503	0.0149480
828.581	0.0150700
828.659	0.0149029
828.737	0.0149124
828.816	0.0149523
828.894	0.0150131
828.972	0.0150182
829.050	0.0150110
829.128	0.0149483
829.206	0.0150155
829.284	0.0150350
829.362	0.0150252
829.441	0.0150817
829.519	0.0149265
829.597	0.0151218
829.675	0.0150340
829.753	0.0149953
829.831	0.0149382
829.909	0.0148360
829.987	0.0149004
830.066	0.0148682
830.144	0.0149776
830.222	0.0149921
830.300	0.0148031
830.378	0.0150313
830.456	0.0149814
830.534	0.0148998
830.612	0.0149897
830.691	0.0149901
830.769	0.0150386
830.847	0.0151881
830.925	0.0148920
831.003	0.0151222
831.081	0.0149971
831.159	0.0150717
831.237	0.0150618
831.316	0.0151999
831.394	0.0149458
831.472	0.0152744
831.550	0.0152495
831.628	0.0151758
831.706	0.0152168
831.784	0.0151261
831.862	0.0151068
831.941	0.0151431
832.019	0.0150768
832.097	0.0152168
832.175	0.0152302
832.253	0.0150507
832.331	0.0150106
832.409	0.0151547
832.487	0.0151348
832.566	0.0150320
832.644	0.0151034
832.722	0.0150324
832.800	0.0150227
832.878	0.0150731
832.956	0.0149067
833.034	0.0149171
833.112	0.0148875
833.191	0.0150437
833.269	0.0149331
833.347	0.0148988
833.425	0.0147951
833.503	0.0149798
833.581	0.0148403
833.659	0.0149271
833.737	0.0150540
833.816	0.0148630
833.894	0.0148948
833.972	0.0150562
834.050	0.0149201
834.128	0.0148286
834.206	0.0149852
834.284	0.0149036
834.362	0.0148964
834.441	0.0150041
834.519	0.0149865
834.597	0.0150047
834.675	0.0151082
834.753	0.0149249
834.831	0.0150629
834.909	0.0150729
834.987	0.0150852
835.066	0.0149956
835.144	0.0149117
835.222	0.0151305
835.300	0.0148893
835.378	0.0150269
835.456	0.0151236
835.534	0.0149982
835.612	0.0149612
835.691	0.0150336
835.769	0.0149860
835.847	0.0150248
835.925	0.0151667
836.003	0.0152083
836.081	0.0150238
836.159	0.0150210
836.237	0.0151165
836.316	0.0150605
836.394	0.0151485
836.472	0.0151397
836.550	0.0152262
836.628	0.0152490
836.706	0.0152086
836.784	0.0153304
836.862	0.0150549
836.941	0.0153940
837.019	0.0152758
837.097	0.0152087
837.175	0.0152691
837.253	0.0151876
837.331	0.0152074
837.409	0.0151926
837.487	0.0152092
837.566	0.0152467
837.644	0.0151855
837.722	0.0152197
837.800	0.0152926
837.878	0.0153734
837.956	0.0151968
838.034	0.0151311
838.112	0.0151385
838.191	0.0150504
838.269	0.0150940
838.347	0.0150548
838.425	0.0150622
838.503	0.0149599
838.581	0.0151031
838.659	0.0150972
838.737	0.0151389
838.816	0.0149957
838.894	0.0150226
838.972	0.0150673
839.050	0.0150636
839.128	0.0152106
839.206	0.0150967
839.284	0.0149992
839.362	0.0152126
839.441	0.0152501
839.519	0.0151657
839.597	0.0150609
839.675	0.0151950
839.753	0.0153070
839.831	0.0151871
839.909	0.0150827
839.987	0.0152020
840.066	0.0153042
840.144	0.0152588
840.222	0.0154039
840.300	0.0152768
840.378	0.0152534
840.456	0.0152960
840.534	0.0152722
840.612	0.0152452
840.691	0.0152305
840.769	0.0152288
840.847	0.0151898
840.925	0.0152557
841.003	0.0152148
841.081	0.0150835
841.159	0.0150430
841.237	0.0152721
841.316	0.0151868
841.394	0.0152055
841.472	0.0150127
841.550	0.0148714
841.628	0.0149442
841.706	0.0149369
841.784	0.0148158
841.862	0.0149836
841.941	0.0150597
842.019	0.0148472
842.097	0.0149265
842.175	0.0149563
842.253	0.0149310
842.331	0.0150475
842.409	0.0149203
842.487	0.0148674
842.566	0.0147525
842.644	0.0148733
842.722	0.0148275
842.800	0.0148818
842.878	0.0149382
842.956	0.0148960
843.034	0.0148166
843.112	0.0148988
843.191	0.0148267
843.269	0.0148586
843.347	0.0148589
843.425	0.0149057
843.503	0.0148299
843.581	0.0150089
843.659	0.0149314
843.737	0.0148421
843.816	0.0148672
843.894	0.0148778
843.972	0.0151012
844.050	0.0150525
844.128	0.0150561
844.206	0.0149707
844.284	0.0149901
844.362	0.0149154
844.441	0.0150122
844.519	0.0150667
844.597	0.0151150
844.675	0.0152162
844.753	0.0151246
844.831	0.0151481
844.909	0.0151700
844.987	0.0152223
845.066	0.0152434
845.144	0.0152913
845.222	0.0151231
845.300	0.0152326
845.378	0.0153853
845.456	0.0152873
845.534	0.0152812
845.612	0.0151997
845.691	0.0152592
845.769	0.0153171
845.847	0.0152969
845.925	0.0152172
846.003	0.0151577
846.081	0.0152436
846.159	0.0152071
846.237	0.0153090
846.316	0.0152506
846.394	0.0152399
846.472	0.0151966
846.550	0.0152283
846.628	0.0153513
846.706	0.0153345
846.784	0.0153141
846.862	0.0152878
846.941	0.0152555
847.019	0.0152879
847.097	0.0153647
847.175	0.0154234
847.253	0.0153545
847.331	0.0154121
847.409	0.0153369
847.487	0.0155324
847.566	0.0153675
847.644	0.0153698
847.722	0.0153900
847.800	0.0153197
847.878	0.0153336
847.956	0.0155602
848.034	0.0153945
848.112	0.0153926
848.191	0.0153651
848.269	0.0154254
848.347	0.0154704
848.425	0.0154234
848.503	0.0153626
848.581	0.0153750
848.659	0.0153128
848.737	0.0151817
848.816	0.0151362
848.894	0.0152437
848.972	0.0151587
849.050	0.0152003
849.128	0.0150755
849.206	0.0151421
849.284	0.0151904
849.362	0.0151086
849.441	0.0151407
849.519	0.0150784
849.597	0.0151714
849.675	0.0153375
849.753	0.0154137
849.831	0.0152053
849.909	0.0152201
849.987	0.0151497
850.066	0.0153210
850.144	0.0154066
850.222	0.0153248
850.300	0.0153647
850.378	0.0153032
850.456	0.0153522
850.534	0.0150980
850.612	0.0151726
850.691	0.0152186
850.769	0.0151116
850.847	0.0151003
850.925	0.0152290
851.003	0.0152194
851.081	0.0151965
851.159	0.0149948
851.237	0.0150408
851.316	0.0150990
851.394	0.0150753
851.472	0.0149880
851.550	0.0149696
851.628	0.0148830
851.706	0.0149754
851.784	0.0149887
851.862	0.0150711
851.941	0.0150280
852.019	0.0150731
852.097	0.0149707
852.175	0.0148428
852.253	0.0148603
852.331	0.0149394
852.409	0.0148903
852.487	0.0148857
852.566	0.0148024
852.644	0.0148386
852.722	0.0147025
852.800	0.0148808
852.878	0.0148888
852.956	0.0148434
853.034	0.0148354
853.112	0.0148808
853.191	0.0149708
853.269	0.0149130
853.347	0.0150929
853.425	0.0149282
853.503	0.0151472
853.581	0.0150134
853.659	0.0150340
853.737	0.0150608
853.816	0.0149744
853.894	0.0150127
853.972	0.0150639
854.050	0.0149477
854.128	0.0150396
854.206	0.0149959
854.284	0.0149420
854.362	0.0149729
854.441	0.0149928
854.519	0.0150382
854.597	0.0150433
854.675	0.0149470
854.753	0.0148579
854.831	0.0150719
854.909	0.0148985
854.987	0.0149039
855.066	0.0148550
855.144	0.0149889
855.222	0.0149656
855.300	0.0148494
855.378	0.0148853
855.456	0.0148568
855.534	0.0148587
855.612	0.0149026
855.691	0.0148717
855.769	0.0148643
855.847	0.0148547
855.925	0.0148260
856.003	0.0148305
856.081	0.0148774
856.159	0.0149492
856.237	0.0150043
856.316	0.0148737
856.394	0.0148949
856.472	0.0148259
856.550	0.0149266
856.628	0.0150627
856.706	0.0150733
856.784	0.0150162
856.862	0.0150805
856.941	0.0151453
857.019	0.0150114
857.097	0.0150391
857.175	0.0151145
857.253	0.0151534
857.331	0.0151675
857.409	0.0150105
857.487	0.0152151
857.566	0.0152705
857.644	0.0150919
857.722	0.0152169
857.800	0.0152151
857.878	0.0152947
857.956	0.0152726
858.034	0.0152682
858.112	0.0152945
858.191	0.0152409
858.269	0.0154493
858.347	0.0153271
858.425	0.0153176
858.503	0.0154312
858.581	0.0153217
858.659	0.0153500
858.737	0.0152116
858.816	0.0152782
858.894	0.0152538
858.972	0.0151328
859.050	0.0152047
859.128	0.0151887
859.206	0.0151313
859.284	0.0149879
859.362	0.0151306
859.441	0.0151687
859.519	0.0151574
859.597	0.0150649
859.675	0.0150176
859.753	0.0151305
859.831	0.0152009
859.909	0.0150433
859.987	0.0151595
860.066	0.0150880
860.144	0.0152650
860.222	0.0152452
860.300	0.0152821
860.378	0.0151481
860.456	0.0150651
860.534	0.0151685
860.612	0.0150267
860.691	0.0150488
860.769	0.0150008
860.847	0.0151010
860.925	0.0152210
861.003	0.0151318
861.081	0.0150796
861.159	0.0150602
861.237	0.0150528
861.316	0.0150407
861.394	0.0150622
861.472	0.0150188
861.550	0.0149799
861.628	0.0149962
861.706	0.0149650
861.784	0.0150858
861.862	0.0149113
861.941	0.0148808
862.019	0.0147876
862.097	0.0148679
862.175	0.0148182
862.253	0.0148035
862.331	0.0148003
862.409	0.0146371
862.487	0.0146056
862.566	0.0147760
862.644	0.0147885
862.722	0.0147748
862.800	0.0147012
862.878	0.0147265
862.956	0.0150141
863.034	0.0149159
863.112	0.0150462
863.191	0.0148908
863.269	0.0147209
863.347	0.0148452
863.425	0.0149103
863.503	0.0148570
863.581	0.0149352
863.659	0.0149392
863.737	0.0150758
863.816	0.0149688
863.894	0.0148378
863.972	0.0148525
864.050	0.0148808
864.128	0.0147477
864.206	0.0148257
864.284	0.0149137
864.362	0.0147870
864.441	0.0148836
864.519	0.0148332
864.597	0.0148443
864.675	0.0149520
864.753	0.0148640
864.831	0.0149049
864.909	0.0149919
864.987	0.0148920
865.066	0.0148443
865.144	0.0150019
865.222	0.0148962
865.300	0.0147438
865.378	0.0148505
865.456	0.0150481
865.534	0.0149960
865.612	0.0148871
865.691	0.0150719
865.769	0.0149410
865.847	0.0149900
865.925	0.0150282
866.003	0.0149956
866.081	0.0150871
866.159	0.0148963
866.237	0.0150861
866.316	0.0150809
866.394	0.0149981
866.472	0.0151511
866.550	0.0152354
866.628	0.0150950
866.706	0.0151447
866.784	0.0152125
866.862	0.0152210
866.941	0.0151997
867.019	0.0151789
867.097	0.0152087
867.175	0.0151165
867.253	0.0152837
867.331	0.0152057
867.409	0.0150673
867.487	0.0152531
867.566	0.0150181
867.644	0.0151157
867.722	0.0149250
867.800	0.0149558
867.878	0.0149576
867.956	0.0150134
868.034	0.0150707
868.112	0.0149692
868.191	0.0149686
868.269	0.0149463
868.347	0.0150099
868.425	0.0150351
868.503	0.0149706
868.581	0.0149435
868.659	0.0148871
868.737	0.0149780
868.816	0.0149317
868.894	0.0148694
868.972	0.0149924
869.050	0.0150635
869.128	0.0150489
869.206	0.0149983
869.284	0.0150919
869.362	0.0149554
869.441	0.0148924
869.519	0.0149878
869.597	0.0147234
869.675	0.0148431
869.753	0.0148481
869.831	0.0147404
869.909	0.0148065
869.987	0.0149155
870.066	0.0147771
870.144	0.0146703
870.222	0.0148486
870.300	0.0148131
870.378	0.0148559
870.456	0.0148286
870.534	0.0148297
870.612	0.0149732
870.691	0.0148818
870.769	0.0148959
870.847	0.0149435
870.925	0.0148620
871.003	0.0149136
871.081	0.0149500
871.159	0.0148581
871.237	0.0148691
871.316	0.0150817
871.394	0.0150440
871.472	0.0150236
871.550	0.0149403
871.628	0.0150089
871.706	0.0150019
871.784	0.0150871
871.862	0.0150743
871.941	0.0150501
872.019	0.0149876
872.097	0.0149785
872.175	0.0150317
872.253	0.0149848
872.331	0.0149550
872.409	0.0149612
872.487	0.0149021
872.566	0.0150528
872.644	0.0149451
872.722	0.0148584
872.800	0.0148449
872.878	0.0147091
872.956	0.0148775
873.034	0.0148171
873.112	0.0148116
873.191	0.0146089
873.269	0.0146693
873.347	0.0147529
873.425	0.0147132
873.503	0.0145565
873.581	0.0145911
873.659	0.0147482
873.737	0.0146072
873.816	0.0145922
873.894	0.0147072
873.972	0.0147865
874.050	0.0146657
874.128	0.0147164
874.206	0.0147716
874.284	0.0148102
874.362	0.0147341
874.441	0.0148304
874.519	0.0147371
874.597	0.0147078
874.675	0.0147834
874.753	0.0148445
874.831	0.0147278
874.909	0.0147665
874.987	0.0147334
875.066	0.0148341
875.144	0.0148001
875.222	0.0147918
875.300	0.0148835
875.378	0.0147453
875.456	0.0149194
875.534	0.0148090
875.612	0.0148364
875.691	0.0149095
875.769	0.0148808
875.847	0.0150352
875.925	0.0150304
876.003	0.0150835
876.081	0.0149590
876.159	0.0151300
876.237	0.0150436
876.316	0.0151291
876.394	0.0149863
876.472	0.0150541
876.550	0.0150516
876.628	0.0151876
876.706	0.0151301
876.784	0.0152052
876.862	0.0151678
876.941	0.0152212
877.019	0.0152074
877.097	0.0151797
877.175	0.0152035
877.253	0.0151815
877.331	0.0152665
877.409	0.0153154
877.487	0.0153823
877.566	0.0153428
877.644	0.0154031
877.722	0.0152726
877.800	0.0153494
877.878	0.0152935
877.956	0.0152969
878.034	0.0152582
878.112	0.0153021
878.191	0.0151614
878.269	0.0152551
878.347	0.0152688
878.425	0.0150739
878.503	0.0152174
878.581	0.0152192
878.659	0.0152989
878.737	0.0151068
878.816	0.0151532
878.894	0.0151871
878.972	0.0151073
879.050	0.0152123
879.128	0.0151038
879.206	0.0151440
879.284	0.0151798
879.362	0.0151866
879.441	0.0150983
879.519	0.0150412
879.597	0.0151415
879.675	0.0150672
879.753	0.0152036
879.831	0.0152071
879.909	0.0153378
