05/28/2022	14:42:37	Ver.	4.1	UNKNOWN
Optical Delay	559.987403	Delta X		0.078125	Sweeps	1	Scan Rate	0/0
Coordinates	Axis 1	NaN	Axis 2	NaN	Axis 3	NaN	Axis 4	NaN	Axis 5	NaN	Axis 6	0.000000
TX Power	0.000000	RX Power	0.000000

559.987	0.0154601
560.066	0.0155132
560.144	0.0153787
560.222	0.0153062
560.300	0.0153851
560.378	0.0153461
560.456	0.0152160
560.534	0.0151276
560.612	0.0152438
560.691	0.0153244
560.769	0.0153314
560.847	0.0153759
560.925	0.0153707
561.003	0.0153095
561.081	0.0152023
561.159	0.0153022
561.237	0.0154019
561.316	0.0153363
561.394	0.0153334
561.472	0.0154491
561.550	0.0153695
561.628	0.0152271
561.706	0.0153629
561.784	0.0153250
561.862	0.0153912
561.941	0.0153238
562.019	0.0153396
562.097	0.0153841
562.175	0.0152322
562.253	0.0152153
562.331	0.0154496
562.409	0.0152764
562.487	0.0153111
562.566	0.0153573
562.644	0.0153696
562.722	0.0152509
562.800	0.0152005
562.878	0.0152416
562.956	0.0153680
563.034	0.0152431
563.112	0.0151875
563.191	0.0153223
563.269	0.0153714
563.347	0.0153188
563.425	0.0152283
563.503	0.0152113
563.581	0.0153858
563.659	0.0154520
563.737	0.0152012
563.816	0.0154071
563.894	0.0152952
563.972	0.0152036
564.050	0.0150948
564.128	0.0152168
564.206	0.0151954
564.284	0.0151498
564.362	0.0152496
564.441	0.0149693
564.519	0.0149512
564.597	0.0151492
564.675	0.0151988
564.753	0.0151189
564.831	0.0151614
564.909	0.0151236
564.987	0.0149952
565.066	0.0151470
565.144	0.0151312
565.222	0.0150762
565.300	0.0150866
565.378	0.0151854
565.456	0.0152407
565.534	0.0150698
565.612	0.0150370
565.691	0.0150220
565.769	0.0151370
565.847	0.0151329
565.925	0.0150555
566.003	0.0150683
566.081	0.0151518
566.159	0.0151360
566.237	0.0151215
566.316	0.0151800
566.394	0.0152083
566.472	0.0151540
566.550	0.0150175
566.628	0.0151339
566.706	0.0150999
566.784	0.0151757
566.862	0.0152840
566.941	0.0151717
567.019	0.0151767
567.097	0.0151561
567.175	0.0152500
567.253	0.0151617
567.331	0.0152621
567.409	0.0151571
567.487	0.0152642
567.566	0.0152319
567.644	0.0152374
567.722	0.0151850
567.800	0.0152493
567.878	0.0154000
567.956	0.0154639
568.034	0.0153809
568.112	0.0152262
568.191	0.0152792
568.269	0.0152901
568.347	0.0154000
568.425	0.0153401
568.503	0.0154838
568.581	0.0153611
568.659	0.0155484
568.737	0.0153828
568.816	0.0153747
568.894	0.0154007
568.972	0.0154861
569.050	0.0153391
569.128	0.0154153
569.206	0.0155418
569.284	0.0156179
569.362	0.0155227
569.441	0.0154980
569.519	0.0154839
569.597	0.0155444
569.675	0.0153928
569.753	0.0155222
569.831	0.0153866
569.909	0.0153227
569.987	0.0154094
570.066	0.0154089
570.144	0.0155297
570.222	0.0155003
570.300	0.0154904
570.378	0.0156125
570.456	0.0154375
570.534	0.0153663
570.612	0.0154642
570.691	0.0154356
570.769	0.0154269
570.847	0.0154285
570.925	0.0153468
571.003	0.0153134
571.081	0.0153668
571.159	0.0153572
571.237	0.0156158
571.316	0.0155495
571.394	0.0153093
571.472	0.0154208
571.550	0.0154536
571.628	0.0153804
571.706	0.0154165
571.784	0.0153671
571.862	0.0154380
571.941	0.0153647
572.019	0.0153741
572.097	0.0155097
572.175	0.0154810
572.253	0.0153957
572.331	0.0155870
572.409	0.0155973
572.487	0.0154189
572.566	0.0154642
572.644	0.0153776
572.722	0.0154933
572.800	0.0156012
572.878	0.0155837
572.956	0.0156377
573.034	0.0155948
573.112	0.0153896
573.191	0.0154646
573.269	0.0156493
573.347	0.0155561
573.425	0.0155866
573.503	0.0154694
573.581	0.0156113
573.659	0.0155023
573.737	0.0155103
573.816	0.0153268
573.894	0.0154987
573.972	0.0155869
574.050	0.0154803
574.128	0.0154739
574.206	0.0154593
574.284	0.0155693
574.362	0.0154465
574.441	0.0154369
574.519	0.0155589
574.597	0.0154865
574.675	0.0153629
574.753	0.0154051
574.831	0.0155138
574.909	0.0152943
574.987	0.0153319
575.066	0.0154179
575.144	0.0153981
575.222	0.0152911
575.300	0.0152185
575.378	0.0151900
575.456	0.0152745
575.534	0.0152514
575.612	0.0152627
575.691	0.0152549
575.769	0.0152627
575.847	0.0150798
575.925	0.0151145
576.003	0.0150715
576.081	0.0149224
576.159	0.0150533
576.237	0.0149961
576.316	0.0151340
576.394	0.0151003
576.472	0.0149825
576.550	0.0150404
576.628	0.0151224
576.706	0.0149714
576.784	0.0148997
576.862	0.0149823
576.941	0.0150390
577.019	0.0150084
577.097	0.0150517
577.175	0.0150004
577.253	0.0150343
577.331	0.0150406
577.409	0.0150705
577.487	0.0151740
577.566	0.0151542
577.644	0.0150037
577.722	0.0151241
577.800	0.0151249
577.878	0.0152027
577.956	0.0151466
578.034	0.0150836
578.112	0.0152740
578.191	0.0153553
578.269	0.0153928
578.347	0.0152525
578.425	0.0151910
578.503	0.0152231
578.581	0.0153692
578.659	0.0152402
578.737	0.0151849
578.816	0.0153674
578.894	0.0153765
578.972	0.0154171
579.050	0.0152822
579.128	0.0152047
579.206	0.0153449
579.284	0.0154211
579.362	0.0153359
579.441	0.0153261
579.519	0.0152076
579.597	0.0151824
579.675	0.0153971
579.753	0.0153796
579.831	0.0151707
579.909	0.0152746
579.987	0.0152307
580.066	0.0152142
580.144	0.0151806
580.222	0.0153016
580.300	0.0151939
580.378	0.0150600
580.456	0.0151245
580.534	0.0150593
580.612	0.0151369
580.691	0.0150895
580.769	0.0150612
580.847	0.0150230
580.925	0.0150488
581.003	0.0149828
581.081	0.0149243
581.159	0.0151218
581.237	0.0148943
581.316	0.0148383
581.394	0.0149505
581.472	0.0149285
581.550	0.0148567
581.628	0.0148392
581.706	0.0149276
581.784	0.0149684
581.862	0.0149019
581.941	0.0148806
582.019	0.0148629
582.097	0.0149491
582.175	0.0149161
582.253	0.0149773
582.331	0.0148259
582.409	0.0149029
582.487	0.0149359
582.566	0.0149020
582.644	0.0149738
582.722	0.0150388
582.800	0.0150196
582.878	0.0150932
582.956	0.0149545
583.034	0.0149128
583.112	0.0150185
583.191	0.0151584
583.269	0.0151320
583.347	0.0150498
583.425	0.0151558
583.503	0.0151624
583.581	0.0152182
583.659	0.0152559
583.737	0.0152061
583.816	0.0152525
583.894	0.0153448
583.972	0.0153486
584.050	0.0153142
584.128	0.0153999
584.206	0.0154772
584.284	0.0154555
584.362	0.0154029
584.441	0.0153423
584.519	0.0153944
584.597	0.0155033
584.675	0.0152894
584.753	0.0154421
584.831	0.0154208
584.909	0.0154427
584.987	0.0154973
585.066	0.0155472
585.144	0.0155785
585.222	0.0154646
585.300	0.0154958
585.378	0.0154647
585.456	0.0154251
585.534	0.0154949
585.612	0.0155273
585.691	0.0153771
585.769	0.0154072
585.847	0.0152905
585.925	0.0154083
586.003	0.0153929
586.081	0.0153283
586.159	0.0152028
586.237	0.0153936
586.316	0.0152271
586.394	0.0151736
586.472	0.0152584
586.550	0.0152193
586.628	0.0151421
586.706	0.0151327
586.784	0.0152654
586.862	0.0151585
586.941	0.0153205
587.019	0.0153606
587.097	0.0152761
587.175	0.0152145
587.253	0.0151850
587.331	0.0151524
587.409	0.0152747
587.487	0.0151920
587.566	0.0151292
587.644	0.0150489
587.722	0.0150869
587.800	0.0151867
587.878	0.0151008
587.956	0.0152956
588.034	0.0151304
588.112	0.0149791
588.191	0.0151208
588.269	0.0151091
588.347	0.0150743
588.425	0.0150845
588.503	0.0150725
588.581	0.0151213
588.659	0.0151611
588.737	0.0150070
588.816	0.0151595
588.894	0.0150440
588.972	0.0150261
589.050	0.0151207
589.128	0.0150486
589.206	0.0151318
589.284	0.0151391
589.362	0.0151772
589.441	0.0151668
589.519	0.0151727
589.597	0.0150183
589.675	0.0151904
589.753	0.0153447
589.831	0.0151508
589.909	0.0152303
589.987	0.0151396
590.066	0.0152750
590.144	0.0151149
590.222	0.0150670
590.300	0.0150991
590.378	0.0150161
590.456	0.0150900
590.534	0.0149555
590.612	0.0150708
590.691	0.0150049
590.769	0.0151530
590.847	0.0151587
590.925	0.0151105
591.003	0.0150449
591.081	0.0152325
591.159	0.0150697
591.237	0.0151159
591.316	0.0151178
591.394	0.0150975
591.472	0.0150524
591.550	0.0150999
591.628	0.0151577
591.706	0.0151897
591.784	0.0151368
591.862	0.0151346
591.941	0.0151814
592.019	0.0152202
592.097	0.0152926
592.175	0.0153102
592.253	0.0151895
592.331	0.0152462
592.409	0.0154285
592.487	0.0153593
592.566	0.0153323
592.644	0.0154030
592.722	0.0154524
592.800	0.0153994
592.878	0.0153763
592.956	0.0153954
593.034	0.0154866
593.112	0.0154052
593.191	0.0153590
593.269	0.0153935
593.347	0.0154050
593.425	0.0154125
593.503	0.0152472
593.581	0.0153401
593.659	0.0152792
593.737	0.0152642
593.816	0.0153310
593.894	0.0154162
593.972	0.0152702
594.050	0.0153024
594.128	0.0153825
594.206	0.0153949
594.284	0.0154217
594.362	0.0153015
594.441	0.0151530
594.519	0.0153164
594.597	0.0153889
594.675	0.0154446
594.753	0.0152601
594.831	0.0154587
594.909	0.0153848
594.987	0.0153673
595.066	0.0154077
595.144	0.0153516
595.222	0.0153564
595.300	0.0152714
595.378	0.0153051
595.456	0.0151831
595.534	0.0153333
595.612	0.0152224
595.691	0.0154285
595.769	0.0153728
595.847	0.0154613
595.925	0.0154796
596.003	0.0154788
596.081	0.0153152
596.159	0.0154188
596.237	0.0153661
596.316	0.0154035
596.394	0.0153865
596.472	0.0155392
596.550	0.0156213
596.628	0.0155780
596.706	0.0155315
596.784	0.0155789
596.862	0.0156039
596.941	0.0155637
597.019	0.0154814
597.097	0.0155350
597.175	0.0154936
597.253	0.0156120
597.331	0.0155551
597.409	0.0154413
597.487	0.0157397
597.566	0.0155814
597.644	0.0154719
597.722	0.0154091
597.800	0.0155035
597.878	0.0155334
597.956	0.0152754
598.034	0.0153817
598.112	0.0154253
598.191	0.0152010
598.269	0.0152233
598.347	0.0153381
598.425	0.0151709
598.503	0.0151787
598.581	0.0151691
598.659	0.0152214
598.737	0.0151899
598.816	0.0152003
598.894	0.0151494
598.972	0.0150512
599.050	0.0151376
599.128	0.0152767
599.206	0.0150827
599.284	0.0150371
599.362	0.0150645
599.441	0.0150275
599.519	0.0150010
599.597	0.0150041
599.675	0.0149979
599.753	0.0148776
599.831	0.0150114
599.909	0.0149371
599.987	0.0150571
600.066	0.0150709
600.144	0.0151215
600.222	0.0149899
600.300	0.0150224
600.378	0.0150799
600.456	0.0149744
600.534	0.0149673
600.612	0.0150725
600.691	0.0151033
600.769	0.0150541
600.847	0.0150877
600.925	0.0152770
601.003	0.0150985
601.081	0.0151572
601.159	0.0152129
601.237	0.0152457
601.316	0.0151089
601.394	0.0151730
601.472	0.0152583
601.550	0.0152404
601.628	0.0152240
601.706	0.0153459
601.784	0.0152406
601.862	0.0152523
601.941	0.0153905
602.019	0.0152573
602.097	0.0152860
602.175	0.0152159
602.253	0.0152717
602.331	0.0152839
602.409	0.0152505
602.487	0.0151243
602.566	0.0152895
602.644	0.0152430
602.722	0.0152271
602.800	0.0152606
602.878	0.0153240
602.956	0.0152285
603.034	0.0151545
603.112	0.0151750
603.191	0.0152592
603.269	0.0151310
603.347	0.0150769
603.425	0.0151582
603.503	0.0151693
603.581	0.0152946
603.659	0.0151875
603.737	0.0151761
603.816	0.0151895
603.894	0.0151035
603.972	0.0152354
604.050	0.0151562
604.128	0.0153365
604.206	0.0152845
604.284	0.0152546
604.362	0.0149928
604.441	0.0150520
604.519	0.0152524
604.597	0.0152261
604.675	0.0152035
604.753	0.0152525
604.831	0.0152662
604.909	0.0151921
604.987	0.0150821
605.066	0.0151042
605.144	0.0150694
605.222	0.0150511
605.300	0.0151694
605.378	0.0150257
605.456	0.0151855
605.534	0.0150169
605.612	0.0149570
605.691	0.0151330
605.769	0.0149409
605.847	0.0151268
605.925	0.0152351
606.003	0.0152108
606.081	0.0151372
606.159	0.0150534
606.237	0.0150883
606.316	0.0150830
606.394	0.0150476
606.472	0.0151066
606.550	0.0151888
606.628	0.0150031
606.706	0.0150941
606.784	0.0153136
606.862	0.0151736
606.941	0.0150469
607.019	0.0151481
607.097	0.0152722
607.175	0.0153752
607.253	0.0152408
607.331	0.0150830
607.409	0.0151324
607.487	0.0152425
607.566	0.0153255
607.644	0.0151849
607.722	0.0152696
607.800	0.0153647
607.878	0.0152429
607.956	0.0153383
608.034	0.0153724
608.112	0.0152388
608.191	0.0151238
608.269	0.0151752
608.347	0.0152862
608.425	0.0151541
608.503	0.0151373
608.581	0.0151038
608.659	0.0150477
608.737	0.0151443
608.816	0.0150677
608.894	0.0150771
608.972	0.0151797
609.050	0.0152312
609.128	0.0151085
609.206	0.0149892
609.284	0.0152241
609.362	0.0151005
609.441	0.0151068
609.519	0.0150427
609.597	0.0151494
609.675	0.0150296
609.753	0.0150362
609.831	0.0151106
609.909	0.0150723
609.987	0.0151278
610.066	0.0151509
610.144	0.0151452
610.222	0.0151352
610.300	0.0149152
610.378	0.0151364
610.456	0.0150529
610.534	0.0150069
610.612	0.0149714
610.691	0.0150072
610.769	0.0149851
610.847	0.0150750
610.925	0.0150442
611.003	0.0151546
611.081	0.0150834
611.159	0.0151402
611.237	0.0149553
611.316	0.0150029
611.394	0.0150772
611.472	0.0152437
611.550	0.0150905
611.628	0.0152001
611.706	0.0152628
611.784	0.0152423
611.862	0.0151839
611.941	0.0152491
612.019	0.0153378
612.097	0.0152517
612.175	0.0153117
612.253	0.0152969
612.331	0.0153149
612.409	0.0154317
612.487	0.0152487
612.566	0.0151882
612.644	0.0153207
612.722	0.0153086
612.800	0.0152557
612.878	0.0152503
612.956	0.0151078
613.034	0.0152973
613.112	0.0152399
613.191	0.0151746
613.269	0.0151851
613.347	0.0153352
613.425	0.0153300
613.503	0.0152781
613.581	0.0152314
613.659	0.0153117
613.737	0.0153191
613.816	0.0153445
613.894	0.0152560
613.972	0.0152552
614.050	0.0151395
614.128	0.0151545
614.206	0.0153088
614.284	0.0151929
614.362	0.0152704
614.441	0.0151144
614.519	0.0151089
614.597	0.0151623
614.675	0.0150777
614.753	0.0150431
614.831	0.0150967
614.909	0.0150613
614.987	0.0150826
615.066	0.0149194
615.144	0.0148781
615.222	0.0148493
615.300	0.0149118
615.378	0.0149459
615.456	0.0149058
615.534	0.0150084
615.612	0.0149891
615.691	0.0148855
615.769	0.0149652
615.847	0.0150986
615.925	0.0150699
616.003	0.0148466
616.081	0.0149583
616.159	0.0150322
616.237	0.0150256
616.316	0.0150778
616.394	0.0149872
616.472	0.0150423
616.550	0.0150220
616.628	0.0149930
616.706	0.0148694
616.784	0.0150607
616.862	0.0150935
616.941	0.0150079
617.019	0.0150034
617.097	0.0149099
617.175	0.0150262
617.253	0.0149530
617.331	0.0149460
617.409	0.0149564
617.487	0.0150283
617.566	0.0151138
617.644	0.0151111
617.722	0.0150697
617.800	0.0150916
617.878	0.0151467
617.956	0.0150315
618.034	0.0148893
618.112	0.0150777
618.191	0.0150693
618.269	0.0151390
618.347	0.0150435
618.425	0.0151771
618.503	0.0150842
618.581	0.0150704
618.659	0.0150562
618.737	0.0149888
618.816	0.0150521
618.894	0.0150960
618.972	0.0151698
619.050	0.0150980
619.128	0.0151796
619.206	0.0152283
619.284	0.0152494
619.362	0.0153424
619.441	0.0153065
619.519	0.0152258
619.597	0.0153307
619.675	0.0153906
619.753	0.0152911
619.831	0.0154044
619.909	0.0153996
619.987	0.0152264
620.066	0.0153557
620.144	0.0153696
620.222	0.0155152
620.300	0.0154596
620.378	0.0154848
620.456	0.0153819
620.534	0.0154450
620.612	0.0154543
620.691	0.0154023
620.769	0.0154316
620.847	0.0152457
620.925	0.0153391
621.003	0.0152675
621.081	0.0154469
621.159	0.0153825
621.237	0.0152453
621.316	0.0154818
621.394	0.0153731
621.472	0.0152920
621.550	0.0153946
621.628	0.0154852
621.706	0.0155292
621.784	0.0152929
621.862	0.0152032
621.941	0.0151274
622.019	0.0153338
622.097	0.0152480
622.175	0.0153441
622.253	0.0154097
622.331	0.0152280
622.409	0.0152467
622.487	0.0152771
622.566	0.0153194
622.644	0.0151612
622.722	0.0152234
622.800	0.0152213
622.878	0.0151171
622.956	0.0152246
623.034	0.0152225
623.112	0.0149295
623.191	0.0151806
623.269	0.0150663
623.347	0.0148983
623.425	0.0149805
623.503	0.0150450
623.581	0.0150307
623.659	0.0150497
623.737	0.0150119
623.816	0.0149342
623.894	0.0149413
623.972	0.0149967
624.050	0.0148940
624.128	0.0149130
624.206	0.0149460
624.284	0.0149352
624.362	0.0150252
624.441	0.0149988
624.519	0.0150442
624.597	0.0151130
624.675	0.0149880
624.753	0.0149502
624.831	0.0149029
624.909	0.0149163
624.987	0.0149425
625.066	0.0150982
625.144	0.0149604
625.222	0.0149780
625.300	0.0149627
625.378	0.0151481
625.456	0.0150378
625.534	0.0149711
625.612	0.0150978
625.691	0.0151379
625.769	0.0149368
625.847	0.0152494
625.925	0.0151970
626.003	0.0151059
626.081	0.0150174
626.159	0.0151277
626.237	0.0152657
626.316	0.0150985
626.394	0.0151035
626.472	0.0152206
626.550	0.0151787
626.628	0.0150732
626.706	0.0152142
626.784	0.0151498
626.862	0.0151585
626.941	0.0150446
627.019	0.0151920
627.097	0.0152264
627.175	0.0151617
627.253	0.0152068
627.331	0.0151126
627.409	0.0152158
627.487	0.0152124
627.566	0.0152463
627.644	0.0152102
627.722	0.0151667
627.800	0.0150772
627.878	0.0152181
627.956	0.0151265
628.034	0.0151163
628.112	0.0150767
628.191	0.0151397
628.269	0.0150951
628.347	0.0150575
628.425	0.0151357
628.503	0.0152172
628.581	0.0151305
628.659	0.0152155
628.737	0.0150979
628.816	0.0151896
628.894	0.0152463
628.972	0.0153359
629.050	0.0153298
629.128	0.0152002
629.206	0.0152407
629.284	0.0152596
629.362	0.0152628
629.441	0.0153337
629.519	0.0153042
629.597	0.0151292
629.675	0.0151073
629.753	0.0152964
629.831	0.0152218
629.909	0.0151010
629.987	0.0153139
630.066	0.0151929
630.144	0.0151482
630.222	0.0152256
630.300	0.0151009
630.378	0.0151331
630.456	0.0152326
630.534	0.0151426
630.612	0.0152584
630.691	0.0152827
630.769	0.0152014
630.847	0.0153090
630.925	0.0153393
631.003	0.0153666
631.081	0.0153564
631.159	0.0154646
631.237	0.0155167
631.316	0.0154823
631.394	0.0153629
631.472	0.0154782
631.550	0.0154417
631.628	0.0154243
631.706	0.0155294
631.784	0.0154738
631.862	0.0154166
631.941	0.0154661
632.019	0.0155548
632.097	0.0155990
632.175	0.0155198
632.253	0.0153834
632.331	0.0154630
632.409	0.0154061
632.487	0.0152785
632.566	0.0153402
632.644	0.0154863
632.722	0.0154286
632.800	0.0154416
632.878	0.0153798
632.956	0.0153227
633.034	0.0153691
633.112	0.0152663
633.191	0.0152892
633.269	0.0153711
633.347	0.0152827
633.425	0.0152194
633.503	0.0150789
633.581	0.0152699
633.659	0.0153337
633.737	0.0150618
633.816	0.0150291
633.894	0.0150659
633.972	0.0151183
634.050	0.0151172
634.128	0.0151503
634.206	0.0151604
634.284	0.0150117
634.362	0.0151546
634.441	0.0150765
634.519	0.0150027
634.597	0.0150595
634.675	0.0150204
634.753	0.0149493
634.831	0.0149670
634.909	0.0150279
634.987	0.0150563
635.066	0.0150715
635.144	0.0150990
635.222	0.0150549
635.300	0.0150407
635.378	0.0150214
635.456	0.0150299
635.534	0.0150201
635.612	0.0150314
635.691	0.0150042
635.769	0.0152134
635.847	0.0150964
635.925	0.0150986
636.003	0.0151064
636.081	0.0151884
636.159	0.0152289
636.237	0.0151546
636.316	0.0150407
636.394	0.0151160
636.472	0.0151894
636.550	0.0152444
636.628	0.0152332
636.706	0.0152904
636.784	0.0153711
636.862	0.0152552
636.941	0.0151401
637.019	0.0153924
637.097	0.0152595
637.175	0.0153001
637.253	0.0151492
637.331	0.0150994
637.409	0.0151286
637.487	0.0150552
637.566	0.0151950
637.644	0.0152296
637.722	0.0150861
637.800	0.0150397
637.878	0.0151195
637.956	0.0151755
638.034	0.0150716
638.112	0.0151187
638.191	0.0151415
638.269	0.0151984
638.347	0.0149128
638.425	0.0150071
638.503	0.0151799
638.581	0.0151291
638.659	0.0149554
638.737	0.0152158
638.816	0.0151797
638.894	0.0149806
638.972	0.0149034
639.050	0.0150082
639.128	0.0149806
639.206	0.0149388
639.284	0.0150191
639.362	0.0149023
639.441	0.0150611
639.519	0.0150830
639.597	0.0149234
639.675	0.0150324
639.753	0.0150454
639.831	0.0151331
639.909	0.0151633
639.987	0.0152334
640.066	0.0150861
640.144	0.0151752
640.222	0.0150771
640.300	0.0149525
640.378	0.0151692
640.456	0.0152039
640.534	0.0151231
640.612	0.0152306
640.691	0.0150246
640.769	0.0153226
640.847	0.0152400
640.925	0.0152383
641.003	0.0151068
641.081	0.0153163
641.159	0.0151382
641.237	0.0151556
641.316	0.0152850
641.394	0.0153587
641.472	0.0152652
641.550	0.0151537
641.628	0.0151377
641.706	0.0151052
641.784	0.0152917
641.862	0.0152998
641.941	0.0152953
642.019	0.0152002
642.097	0.0151717
642.175	0.0151697
642.253	0.0150729
642.331	0.0151273
642.409	0.0150649
642.487	0.0150752
642.566	0.0151358
642.644	0.0150490
642.722	0.0150375
642.800	0.0151141
642.878	0.0151894
642.956	0.0149802
643.034	0.0151868
643.112	0.0150518
643.191	0.0151598
643.269	0.0152701
643.347	0.0151188
643.425	0.0150629
643.503	0.0153526
643.581	0.0152867
643.659	0.0151940
643.737	0.0152429
643.816	0.0152640
643.894	0.0150925
643.972	0.0150577
644.050	0.0152223
644.128	0.0152441
644.206	0.0151531
644.284	0.0150665
644.362	0.0151199
644.441	0.0151684
644.519	0.0151771
644.597	0.0150403
644.675	0.0151876
644.753	0.0150132
644.831	0.0151263
644.909	0.0151232
644.987	0.0151688
645.066	0.0153491
645.144	0.0152515
645.222	0.0151814
645.300	0.0151881
645.378	0.0151418
645.456	0.0151119
645.534	0.0152046
645.612	0.0150719
645.691	0.0150378
645.769	0.0150284
645.847	0.0150357
645.925	0.0151434
646.003	0.0150875
646.081	0.0150845
646.159	0.0150249
646.237	0.0151964
646.316	0.0151056
646.394	0.0151716
646.472	0.0151127
646.550	0.0152242
646.628	0.0153237
646.706	0.0153211
646.784	0.0152227
646.862	0.0153598
646.941	0.0153139
647.019	0.0153949
647.097	0.0151469
647.175	0.0152508
647.253	0.0153529
647.331	0.0154218
647.409	0.0153704
647.487	0.0153833
647.566	0.0153967
647.644	0.0154283
647.722	0.0154444
647.800	0.0152739
647.878	0.0153051
647.956	0.0154089
648.034	0.0153712
648.112	0.0153455
648.191	0.0153321
648.269	0.0152183
648.347	0.0153851
648.425	0.0153804
648.503	0.0153151
648.581	0.0154256
648.659	0.0154502
648.737	0.0154803
648.816	0.0155311
648.894	0.0152703
648.972	0.0155103
649.050	0.0156705
649.128	0.0155040
649.206	0.0154266
649.284	0.0154399
649.362	0.0155148
649.441	0.0155570
649.519	0.0154652
649.597	0.0155231
649.675	0.0156679
649.753	0.0156049
649.831	0.0155366
649.909	0.0156238
649.987	0.0155054
650.066	0.0154558
650.144	0.0154044
650.222	0.0152876
650.300	0.0153285
650.378	0.0153914
650.456	0.0154791
650.534	0.0153502
650.612	0.0151559
650.691	0.0152367
650.769	0.0152742
650.847	0.0151827
650.925	0.0152419
651.003	0.0152508
651.081	0.0151192
651.159	0.0151373
651.237	0.0152221
651.316	0.0152046
651.394	0.0150936
651.472	0.0150871
651.550	0.0151408
651.628	0.0152376
651.706	0.0151587
651.784	0.0152505
651.862	0.0151314
651.941	0.0152354
652.019	0.0151170
652.097	0.0152811
652.175	0.0152470
652.253	0.0153848
652.331	0.0153484
652.409	0.0153276
652.487	0.0153720
652.566	0.0151231
652.644	0.0153727
652.722	0.0152357
652.800	0.0151028
652.878	0.0152541
652.956	0.0151878
653.034	0.0153030
653.112	0.0152976
653.191	0.0151855
653.269	0.0153407
653.347	0.0151971
653.425	0.0152972
653.503	0.0151419
653.581	0.0153892
653.659	0.0153339
653.737	0.0152536
653.816	0.0152767
653.894	0.0153176
653.972	0.0151475
654.050	0.0152201
654.128	0.0152113
654.206	0.0152171
654.284	0.0152735
654.362	0.0152844
654.441	0.0152808
654.519	0.0151757
654.597	0.0153308
654.675	0.0152769
654.753	0.0151888
654.831	0.0152322
654.909	0.0153315
654.987	0.0152715
655.066	0.0152737
655.144	0.0152100
655.222	0.0152066
655.300	0.0152277
655.378	0.0152355
655.456	0.0152059
655.534	0.0151453
655.612	0.0151071
655.691	0.0149564
655.769	0.0150653
655.847	0.0150180
655.925	0.0149394
656.003	0.0150847
656.081	0.0149193
656.159	0.0150754
656.237	0.0149881
656.316	0.0148975
656.394	0.0149989
656.472	0.0149434
656.550	0.0149349
656.628	0.0148965
656.706	0.0150251
656.784	0.0148812
656.862	0.0150359
656.941	0.0150344
657.019	0.0149776
657.097	0.0149910
657.175	0.0152702
657.253	0.0149777
657.331	0.0150590
657.409	0.0151563
657.487	0.0152206
657.566	0.0151336
657.644	0.0150864
657.722	0.0151369
657.800	0.0151772
657.878	0.0151395
657.956	0.0150396
658.034	0.0151644
658.112	0.0152032
658.191	0.0151041
658.269	0.0151434
658.347	0.0151777
658.425	0.0151762
658.503	0.0151481
658.581	0.0150832
658.659	0.0152065
658.737	0.0151642
658.816	0.0151391
658.894	0.0152963
658.972	0.0151189
659.050	0.0151700
659.128	0.0152537
659.206	0.0151610
659.284	0.0151318
659.362	0.0152227
659.441	0.0151940
659.519	0.0153793
659.597	0.0152647
659.675	0.0152900
659.753	0.0153518
659.831	0.0153292
659.909	0.0153751
659.987	0.0154652
660.066	0.0152765
660.144	0.0152879
660.222	0.0154106
660.300	0.0154189
660.378	0.0153366
660.456	0.0153002
660.534	0.0154186
660.612	0.0154533
660.691	0.0154989
660.769	0.0153612
660.847	0.0152818
660.925	0.0153720
661.003	0.0154328
661.081	0.0154997
661.159	0.0154794
661.237	0.0154714
661.316	0.0154103
661.394	0.0154791
661.472	0.0154914
661.550	0.0155618
661.628	0.0153833
661.706	0.0153307
661.784	0.0155449
661.862	0.0156160
661.941	0.0154447
662.019	0.0154900
662.097	0.0155325
662.175	0.0155363
662.253	0.0155863
662.331	0.0155605
662.409	0.0153708
662.487	0.0154198
662.566	0.0155710
662.644	0.0155011
662.722	0.0153802
662.800	0.0153977
662.878	0.0153948
662.956	0.0151306
663.034	0.0151999
663.112	0.0151669
663.191	0.0151924
663.269	0.0151430
663.347	0.0151861
663.425	0.0151231
663.503	0.0151149
663.581	0.0150455
663.659	0.0151005
663.737	0.0150320
663.816	0.0151727
663.894	0.0150613
663.972	0.0149661
664.050	0.0150664
664.128	0.0150134
664.206	0.0151003
664.284	0.0150687
664.362	0.0150277
664.441	0.0150034
664.519	0.0150336
664.597	0.0149992
664.675	0.0150559
664.753	0.0149423
664.831	0.0150101
664.909	0.0151635
664.987	0.0149432
665.066	0.0149097
665.144	0.0148835
665.222	0.0150090
665.300	0.0151483
665.378	0.0148874
665.456	0.0149734
665.534	0.0150232
665.612	0.0149822
665.691	0.0149754
665.769	0.0150626
665.847	0.0149849
665.925	0.0150722
666.003	0.0150293
666.081	0.0151321
666.159	0.0150822
666.237	0.0151424
666.316	0.0152069
666.394	0.0150300
666.472	0.0151038
666.550	0.0151884
666.628	0.0150742
666.706	0.0150774
666.784	0.0150906
666.862	0.0150108
666.941	0.0151218
667.019	0.0151608
667.097	0.0150236
667.175	0.0149429
667.253	0.0150861
667.331	0.0150777
667.409	0.0152440
667.487	0.0151575
667.566	0.0152780
667.644	0.0150989
667.722	0.0151213
667.800	0.0152091
667.878	0.0150923
667.956	0.0151702
668.034	0.0152117
668.112	0.0152427
668.191	0.0152359
668.269	0.0151739
668.347	0.0150469
668.425	0.0152325
668.503	0.0153153
668.581	0.0152020
668.659	0.0151602
668.737	0.0152123
668.816	0.0152572
668.894	0.0152547
668.972	0.0151524
669.050	0.0153608
669.128	0.0151748
669.206	0.0151943
669.284	0.0153284
669.362	0.0153276
669.441	0.0152471
669.519	0.0152513
669.597	0.0152567
669.675	0.0152648
669.753	0.0152864
669.831	0.0152834
669.909	0.0153237
669.987	0.0153329
670.066	0.0155335
670.144	0.0155127
670.222	0.0153671
670.300	0.0154041
670.378	0.0154708
670.456	0.0154139
670.534	0.0155903
670.612	0.0155077
670.691	0.0155034
670.769	0.0153857
670.847	0.0154354
670.925	0.0154478
671.003	0.0156266
671.081	0.0154854
671.159	0.0153310
671.237	0.0155515
671.316	0.0155426
671.394	0.0155038
671.472	0.0155870
671.550	0.0154426
671.628	0.0154011
671.706	0.0154207
671.784	0.0155343
671.862	0.0155124
671.941	0.0155746
672.019	0.0157359
672.097	0.0155440
672.175	0.0156045
672.253	0.0156436
672.331	0.0156242
672.409	0.0155721
672.487	0.0154865
672.566	0.0157100
672.644	0.0156992
672.722	0.0156204
672.800	0.0154449
672.878	0.0156208
672.956	0.0155840
673.034	0.0154851
673.112	0.0153816
673.191	0.0153992
673.269	0.0153703
673.347	0.0152698
673.425	0.0154321
673.503	0.0154267
673.581	0.0154023
673.659	0.0153815
673.737	0.0154150
673.816	0.0153627
673.894	0.0152946
673.972	0.0154513
674.050	0.0153750
674.128	0.0153934
674.206	0.0155854
674.284	0.0155682
674.362	0.0156045
674.441	0.0155627
674.519	0.0154242
674.597	0.0154164
674.675	0.0154333
674.753	0.0153835
674.831	0.0155724
674.909	0.0156068
674.987	0.0154797
675.066	0.0153413
675.144	0.0153578
675.222	0.0152979
675.300	0.0153465
675.378	0.0152296
675.456	0.0153561
675.534	0.0152926
675.612	0.0151569
675.691	0.0152630
675.769	0.0152937
675.847	0.0151638
675.925	0.0152254
676.003	0.0152474
676.081	0.0151830
676.159	0.0152520
676.237	0.0151936
676.316	0.0154465
676.394	0.0152197
676.472	0.0154418
676.550	0.0154131
676.628	0.0154417
676.706	0.0152769
676.784	0.0152377
676.862	0.0154017
676.941	0.0152637
677.019	0.0152196
677.097	0.0153250
677.175	0.0153130
677.253	0.0153513
677.331	0.0152103
677.409	0.0153159
677.487	0.0152247
677.566	0.0152331
677.644	0.0151706
677.722	0.0153179
677.800	0.0153757
677.878	0.0153084
677.956	0.0152313
678.034	0.0152479
678.112	0.0152583
678.191	0.0153291
678.269	0.0153362
678.347	0.0153243
678.425	0.0153072
678.503	0.0153606
678.581	0.0153484
678.659	0.0152437
678.737	0.0153225
678.816	0.0152904
678.894	0.0153486
678.972	0.0151677
679.050	0.0152970
679.128	0.0152351
679.206	0.0152785
679.284	0.0152599
679.362	0.0154151
679.441	0.0152145
679.519	0.0151579
679.597	0.0153722
679.675	0.0152403
679.753	0.0152307
679.831	0.0153111
679.909	0.0153807
679.987	0.0153680
680.066	0.0152342
680.144	0.0151814
680.222	0.0152985
680.300	0.0154041
680.378	0.0154276
680.456	0.0153828
680.534	0.0153738
680.612	0.0152854
680.691	0.0152658
680.769	0.0153295
680.847	0.0152581
680.925	0.0152058
681.003	0.0153845
681.081	0.0151522
681.159	0.0151702
681.237	0.0152020
681.316	0.0150746
681.394	0.0150536
681.472	0.0150900
681.550	0.0152696
681.628	0.0151548
681.706	0.0150555
681.784	0.0150661
681.862	0.0150140
681.941	0.0149876
682.019	0.0151587
682.097	0.0150556
682.175	0.0151313
682.253	0.0151147
682.331	0.0151288
682.409	0.0149471
682.487	0.0150509
682.566	0.0152185
682.644	0.0149603
682.722	0.0153053
682.800	0.0151503
682.878	0.0150789
682.956	0.0153414
683.034	0.0154121
683.112	0.0153147
683.191	0.0151505
683.269	0.0154696
683.347	0.0152599
683.425	0.0154655
683.503	0.0154792
683.581	0.0155294
683.659	0.0152799
683.737	0.0154613
683.816	0.0156152
683.894	0.0154397
683.972	0.0154407
684.050	0.0154618
684.128	0.0154758
684.206	0.0156673
684.284	0.0154346
684.362	0.0155281
684.441	0.0156554
684.519	0.0155994
684.597	0.0154971
684.675	0.0156093
684.753	0.0156411
684.831	0.0155927
684.909	0.0154303
684.987	0.0155431
685.066	0.0153785
685.144	0.0153658
685.222	0.0154847
685.300	0.0154456
685.378	0.0153036
685.456	0.0153471
685.534	0.0152876
685.612	0.0154126
685.691	0.0153363
685.769	0.0151499
685.847	0.0150813
685.925	0.0150900
686.003	0.0151839
686.081	0.0152215
686.159	0.0150759
686.237	0.0150139
686.316	0.0150522
686.394	0.0148907
686.472	0.0149407
686.550	0.0149532
686.628	0.0147341
686.706	0.0148878
686.784	0.0148294
686.862	0.0147549
686.941	0.0148740
687.019	0.0148575
687.097	0.0148112
687.175	0.0148943
687.253	0.0148879
687.331	0.0150490
687.409	0.0150630
687.487	0.0150003
687.566	0.0150446
687.644	0.0151798
687.722	0.0151912
687.800	0.0151926
687.878	0.0152644
687.956	0.0153741
688.034	0.0153382
688.112	0.0154202
688.191	0.0154405
688.269	0.0154175
688.347	0.0156596
688.425	0.0155876
688.503	0.0155287
688.581	0.0155892
688.659	0.0157201
688.737	0.0157140
688.816	0.0155892
688.894	0.0157182
688.972	0.0157157
689.050	0.0156636
689.128	0.0155937
689.206	0.0155614
689.284	0.0155781
689.362	0.0154974
689.441	0.0152949
689.519	0.0152999
689.597	0.0153136
689.675	0.0151810
689.753	0.0151986
689.831	0.0151206
689.909	0.0150330
689.987	0.0149519
690.066	0.0150826
690.144	0.0150893
690.222	0.0147887
690.300	0.0150154
690.378	0.0149683
690.456	0.0149110
690.534	0.0150312
690.612	0.0148550
690.691	0.0148312
690.769	0.0149855
690.847	0.0149447
690.925	0.0150243
691.003	0.0150542
691.081	0.0149746
691.159	0.0150912
691.237	0.0149965
691.316	0.0149678
691.394	0.0150557
691.472	0.0150676
691.550	0.0149577
691.628	0.0149001
691.706	0.0149200
691.784	0.0148627
691.862	0.0149367
691.941	0.0150364
692.019	0.0151394
692.097	0.0150339
692.175	0.0150981
692.253	0.0152440
692.331	0.0153853
692.409	0.0152584
692.487	0.0152094
692.566	0.0152546
692.644	0.0154037
692.722	0.0153461
692.800	0.0152770
692.878	0.0153924
692.956	0.0151697
693.034	0.0154503
693.112	0.0153049
693.191	0.0152670
693.269	0.0153886
693.347	0.0152482
693.425	0.0151301
693.503	0.0151835
693.581	0.0152141
693.659	0.0152719
693.737	0.0152238
693.816	0.0152421
693.894	0.0151372
693.972	0.0151259
694.050	0.0152223
694.128	0.0150140
694.206	0.0152092
694.284	0.0151141
694.362	0.0151090
694.441	0.0153562
694.519	0.0151910
694.597	0.0151850
694.675	0.0153055
694.753	0.0153179
694.831	0.0152461
694.909	0.0152149
694.987	0.0153577
695.066	0.0153546
695.144	0.0152876
695.222	0.0151643
695.300	0.0152428
695.378	0.0154253
695.456	0.0151373
695.534	0.0152500
695.612	0.0152560
695.691	0.0152784
695.769	0.0153622
695.847	0.0153402
695.925	0.0152720
696.003	0.0153862
696.081	0.0153439
696.159	0.0152581
696.237	0.0153740
696.316	0.0153381
696.394	0.0153625
696.472	0.0153837
696.550	0.0153654
696.628	0.0153098
696.706	0.0153062
696.784	0.0154176
696.862	0.0153127
696.941	0.0153142
697.019	0.0151842
697.097	0.0153089
697.175	0.0151743
697.253	0.0152596
697.331	0.0153395
697.409	0.0153909
697.487	0.0151882
697.566	0.0153839
697.644	0.0153742
697.722	0.0152885
697.800	0.0152958
697.878	0.0152100
697.956	0.0153623
698.034	0.0153023
698.112	0.0152531
698.191	0.0152433
698.269	0.0151804
698.347	0.0153526
698.425	0.0153233
698.503	0.0153866
698.581	0.0152593
698.659	0.0152417
698.737	0.0152636
698.816	0.0152848
698.894	0.0153719
698.972	0.0153088
699.050	0.0152592
699.128	0.0151994
699.206	0.0151263
699.284	0.0150803
699.362	0.0150661
699.441	0.0150733
699.519	0.0149201
699.597	0.0149942
699.675	0.0150789
699.753	0.0149847
699.831	0.0150864
699.909	0.0147874
699.987	0.0148215
700.066	0.0148685
700.144	0.0150197
700.222	0.0149716
700.300	0.0149326
700.378	0.0150634
700.456	0.0150435
700.534	0.0152771
700.612	0.0150514
700.691	0.0152806
700.769	0.0152818
700.847	0.0151511
700.925	0.0154712
701.003	0.0152837
701.081	0.0152051
701.159	0.0152927
701.237	0.0153176
701.316	0.0152839
701.394	0.0153756
701.472	0.0154630
701.550	0.0156190
701.628	0.0155907
701.706	0.0153989
701.784	0.0154479
701.862	0.0155984
701.941	0.0155614
702.019	0.0156333
702.097	0.0155648
702.175	0.0155733
702.253	0.0154906
702.331	0.0155674
702.409	0.0154500
702.487	0.0154771
702.566	0.0154275
702.644	0.0154964
702.722	0.0154935
702.800	0.0154713
702.878	0.0153841
702.956	0.0154047
703.034	0.0151789
703.112	0.0153066
703.191	0.0152921
703.269	0.0152961
703.347	0.0153263
703.425	0.0152842
703.503	0.0152821
703.581	0.0154587
703.659	0.0152905
703.737	0.0150885
703.816	0.0150906
703.894	0.0152532
703.972	0.0152997
704.050	0.0151183
704.128	0.0151533
704.206	0.0150524
704.284	0.0150666
704.362	0.0150117
704.441	0.0148215
704.519	0.0149309
704.597	0.0149473
704.675	0.0149883
704.753	0.0150843
704.831	0.0151516
704.909	0.0151110
704.987	0.0151369
705.066	0.0152945
705.144	0.0152261
705.222	0.0152913
705.300	0.0154800
705.378	0.0155910
705.456	0.0156219
705.534	0.0155535
705.612	0.0157578
705.691	0.0155523
705.769	0.0154000
705.847	0.0156913
705.925	0.0154368
706.003	0.0157011
706.081	0.0155566
706.159	0.0155695
706.237	0.0155251
706.316	0.0153426
706.394	0.0154700
706.472	0.0155009
706.550	0.0153656
706.628	0.0154088
706.706	0.0156113
706.784	0.0155769
706.862	0.0154768
706.941	0.0155338
707.019	0.0153808
707.097	0.0153070
707.175	0.0154514
707.253	0.0153217
707.331	0.0152412
707.409	0.0152206
707.487	0.0152639
707.566	0.0152995
707.644	0.0151659
707.722	0.0153773
707.800	0.0151955
707.878	0.0150537
707.956	0.0151477
708.034	0.0151365
708.112	0.0150195
708.191	0.0150630
708.269	0.0148805
708.347	0.0148730
708.425	0.0147892
708.503	0.0149263
708.581	0.0148817
708.659	0.0148454
708.737	0.0148808
708.816	0.0148612
708.894	0.0147748
708.972	0.0148753
709.050	0.0148880
709.128	0.0147919
709.206	0.0150383
709.284	0.0151310
709.362	0.0150402
709.441	0.0150263
709.519	0.0150665
709.597	0.0150586
709.675	0.0150825
709.753	0.0151374
709.831	0.0153112
709.909	0.0149976
709.987	0.0149410
710.066	0.0151528
710.144	0.0150618
710.222	0.0151389
710.300	0.0151321
710.378	0.0150793
710.456	0.0150600
710.534	0.0149226
710.612	0.0148121
710.691	0.0150930
710.769	0.0150349
710.847	0.0149941
710.925	0.0150489
711.003	0.0150945
711.081	0.0149963
711.159	0.0150701
711.237	0.0151373
711.316	0.0152048
711.394	0.0151463
711.472	0.0153813
711.550	0.0155168
711.628	0.0155301
711.706	0.0153995
711.784	0.0153496
711.862	0.0153416
711.941	0.0153892
712.019	0.0154217
712.097	0.0153829
712.175	0.0154736
712.253	0.0154388
712.331	0.0153312
712.409	0.0154197
712.487	0.0153983
712.566	0.0153222
712.644	0.0152760
712.722	0.0152660
712.800	0.0151196
712.878	0.0151757
712.956	0.0152387
713.034	0.0152189
713.112	0.0149931
713.191	0.0150251
713.269	0.0150449
713.347	0.0151225
713.425	0.0149042
713.503	0.0150227
713.581	0.0150094
713.659	0.0147849
713.737	0.0148518
713.816	0.0149343
713.894	0.0149770
713.972	0.0147486
714.050	0.0149955
714.128	0.0148991
714.206	0.0149472
714.284	0.0149144
714.362	0.0148254
714.441	0.0150427
714.519	0.0149358
714.597	0.0149308
714.675	0.0148868
714.753	0.0148928
714.831	0.0149734
714.909	0.0150304
714.987	0.0150635
715.066	0.0150230
715.144	0.0148790
715.222	0.0151551
715.300	0.0151307
715.378	0.0150992
715.456	0.0151381
715.534	0.0151465
715.612	0.0152959
715.691	0.0153798
715.769	0.0152872
715.847	0.0154026
715.925	0.0153362
716.003	0.0153188
716.081	0.0153388
716.159	0.0153638
716.237	0.0154866
716.316	0.0155406
716.394	0.0154742
716.472	0.0155511
716.550	0.0155093
716.628	0.0156180
716.706	0.0155033
716.784	0.0155284
716.862	0.0156090
716.941	0.0155445
717.019	0.0154598
717.097	0.0154659
717.175	0.0154950
717.253	0.0154246
717.331	0.0154487
717.409	0.0154938
717.487	0.0154181
717.566	0.0152397
717.644	0.0152068
717.722	0.0153017
717.800	0.0152747
717.878	0.0152068
717.956	0.0151094
718.034	0.0151021
718.112	0.0151411
718.191	0.0150570
718.269	0.0151418
718.347	0.0149220
718.425	0.0150625
718.503	0.0150056
718.581	0.0149427
718.659	0.0148888
718.737	0.0150593
718.816	0.0149905
718.894	0.0150390
718.972	0.0150009
719.050	0.0150721
719.128	0.0150474
719.206	0.0150579
719.284	0.0150962
719.362	0.0150253
719.441	0.0150683
719.519	0.0150903
719.597	0.0150513
719.675	0.0150431
719.753	0.0150658
719.831	0.0148948
719.909	0.0149606
719.987	0.0149531
720.066	0.0150033
720.144	0.0150087
720.222	0.0148569
720.300	0.0149130
720.378	0.0149177
720.456	0.0149370
720.534	0.0149298
720.612	0.0148600
720.691	0.0149273
720.769	0.0150055
720.847	0.0148286
720.925	0.0148277
721.003	0.0149514
721.081	0.0148584
721.159	0.0149748
721.237	0.0149828
721.316	0.0149699
721.394	0.0148620
721.472	0.0148077
721.550	0.0148798
721.628	0.0151067
721.706	0.0148776
721.784	0.0150086
721.862	0.0150185
721.941	0.0151112
722.019	0.0150817
722.097	0.0151276
722.175	0.0152113
722.253	0.0151662
722.331	0.0151066
722.409	0.0151608
722.487	0.0152042
722.566	0.0152065
722.644	0.0151468
722.722	0.0151794
722.800	0.0151483
722.878	0.0150988
722.956	0.0152646
723.034	0.0151254
723.112	0.0152248
723.191	0.0152920
723.269	0.0151089
723.347	0.0150652
723.425	0.0151826
723.503	0.0151199
723.581	0.0151520
723.659	0.0152097
723.737	0.0152298
723.816	0.0151069
723.894	0.0152100
723.972	0.0151936
724.050	0.0152285
724.128	0.0153085
724.206	0.0151405
724.284	0.0153082
724.362	0.0152930
724.441	0.0153220
724.519	0.0154072
724.597	0.0154057
724.675	0.0153426
724.753	0.0155578
724.831	0.0153249
724.909	0.0153641
724.987	0.0154205
725.066	0.0152739
725.144	0.0152426
725.222	0.0153080
725.300	0.0152842
725.378	0.0153145
725.456	0.0151788
725.534	0.0151509
725.612	0.0153268
725.691	0.0152648
725.769	0.0152819
725.847	0.0152561
725.925	0.0151886
726.003	0.0152653
726.081	0.0152785
726.159	0.0151720
726.237	0.0152578
726.316	0.0153339
726.394	0.0152284
726.472	0.0153358
726.550	0.0152982
726.628	0.0152575
726.706	0.0152699
726.784	0.0151991
726.862	0.0150580
726.941	0.0151266
727.019	0.0151379
727.097	0.0151660
727.175	0.0152225
727.253	0.0151708
727.331	0.0149711
727.409	0.0150548
727.487	0.0151958
727.566	0.0150040
727.644	0.0148988
727.722	0.0150433
727.800	0.0150630
727.878	0.0149779
727.956	0.0151443
728.034	0.0149669
728.112	0.0148948
728.191	0.0149249
728.269	0.0150878
728.347	0.0150630
728.425	0.0150119
728.503	0.0148522
728.581	0.0148914
728.659	0.0147406
728.737	0.0149762
728.816	0.0149203
728.894	0.0146843
728.972	0.0147736
729.050	0.0148206
729.128	0.0148059
729.206	0.0148009
729.284	0.0148143
729.362	0.0148765
729.441	0.0147310
729.519	0.0147316
729.597	0.0149042
729.675	0.0148672
729.753	0.0147076
729.831	0.0146865
729.909	0.0148708
729.987	0.0148750
730.066	0.0149252
730.144	0.0149270
730.222	0.0149829
730.300	0.0148038
730.378	0.0148537
730.456	0.0149270
730.534	0.0150408
730.612	0.0149538
730.691	0.0150512
730.769	0.0151145
730.847	0.0150363
730.925	0.0150774
731.003	0.0151117
731.081	0.0150430
731.159	0.0152436
731.237	0.0151528
731.316	0.0151682
731.394	0.0152676
731.472	0.0150681
731.550	0.0150986
731.628	0.0152603
731.706	0.0151143
731.784	0.0149780
731.862	0.0150479
731.941	0.0151604
732.019	0.0152955
732.097	0.0152741
732.175	0.0152841
732.253	0.0153613
732.331	0.0151981
732.409	0.0151889
732.487	0.0152931
732.566	0.0154536
732.644	0.0154408
732.722	0.0155536
732.800	0.0154631
732.878	0.0154216
732.956	0.0155132
733.034	0.0153423
733.112	0.0155114
733.191	0.0154787
733.269	0.0154590
733.347	0.0154202
733.425	0.0154137
733.503	0.0154236
733.581	0.0153153
733.659	0.0154168
733.737	0.0153945
733.816	0.0153489
733.894	0.0153349
733.972	0.0155627
734.050	0.0154407
734.128	0.0154641
734.206	0.0154020
734.284	0.0154472
734.362	0.0154421
734.441	0.0154936
734.519	0.0154841
734.597	0.0154282
734.675	0.0156123
734.753	0.0156054
734.831	0.0154828
734.909	0.0155977
734.987	0.0156548
735.066	0.0155725
735.144	0.0155267
735.222	0.0155116
735.300	0.0155511
735.378	0.0155042
735.456	0.0156384
735.534	0.0156444
735.612	0.0156306
735.691	0.0157274
735.769	0.0155305
735.847	0.0155515
735.925	0.0156431
736.003	0.0155064
736.081	0.0154851
736.159	0.0155318
736.237	0.0154816
736.316	0.0154474
736.394	0.0153828
736.472	0.0155265
736.550	0.0155300
736.628	0.0154769
736.706	0.0153667
736.784	0.0153452
736.862	0.0153756
736.941	0.0154025
737.019	0.0153780
737.097	0.0153816
737.175	0.0153886
737.253	0.0152284
737.331	0.0152296
737.409	0.0152891
737.487	0.0152256
737.566	0.0152550
737.644	0.0152447
737.722	0.0152061
737.800	0.0151645
737.878	0.0152444
737.956	0.0152563
738.034	0.0152409
738.112	0.0153785
738.191	0.0151836
738.269	0.0152362
738.347	0.0151511
738.425	0.0153146
738.503	0.0151670
738.581	0.0151788
738.659	0.0151764
738.737	0.0150468
738.816	0.0150301
738.894	0.0151476
738.972	0.0151286
739.050	0.0152092
739.128	0.0150527
739.206	0.0150922
739.284	0.0150758
739.362	0.0150913
739.441	0.0150734
739.519	0.0151569
739.597	0.0150436
739.675	0.0149844
739.753	0.0150218
739.831	0.0151028
739.909	0.0150742
739.987	0.0150249
740.066	0.0152661
740.144	0.0151212
740.222	0.0152307
740.300	0.0151810
740.378	0.0151552
740.456	0.0150684
740.534	0.0150882
740.612	0.0151087
740.691	0.0152164
740.769	0.0150982
740.847	0.0150300
740.925	0.0150471
741.003	0.0149873
741.081	0.0149529
741.159	0.0151142
741.237	0.0149652
741.316	0.0149612
741.394	0.0148332
741.472	0.0150481
741.550	0.0149244
741.628	0.0148363
741.706	0.0148811
741.784	0.0148804
741.862	0.0148715
741.941	0.0148647
742.019	0.0148160
742.097	0.0149664
742.175	0.0149447
742.253	0.0150098
742.331	0.0151021
742.409	0.0150842
742.487	0.0150668
742.566	0.0152099
742.644	0.0152067
742.722	0.0149434
742.800	0.0151081
742.878	0.0151448
742.956	0.0151555
743.034	0.0153222
743.112	0.0151572
743.191	0.0154205
743.269	0.0153611
743.347	0.0153593
743.425	0.0152411
743.503	0.0153606
743.581	0.0153779
743.659	0.0154423
743.737	0.0153226
743.816	0.0154262
743.894	0.0152320
743.972	0.0152319
744.050	0.0153211
744.128	0.0154074
744.206	0.0154932
744.284	0.0154277
744.362	0.0155009
744.441	0.0153735
744.519	0.0153029
744.597	0.0153330
744.675	0.0154002
744.753	0.0152804
744.831	0.0155213
744.909	0.0154786
744.987	0.0154497
745.066	0.0155245
745.144	0.0153288
745.222	0.0155370
745.300	0.0155587
745.378	0.0154874
745.456	0.0154823
745.534	0.0153691
745.612	0.0153391
745.691	0.0154192
745.769	0.0155746
745.847	0.0154202
745.925	0.0153436
746.003	0.0154742
746.081	0.0153635
746.159	0.0153379
746.237	0.0153246
746.316	0.0153374
746.394	0.0153531
746.472	0.0153249
746.550	0.0152544
746.628	0.0153179
746.706	0.0152823
746.784	0.0153010
746.862	0.0152384
746.941	0.0151874
747.019	0.0152550
747.097	0.0152969
747.175	0.0152428
747.253	0.0151808
747.331	0.0151590
747.409	0.0150875
747.487	0.0150993
747.566	0.0151318
747.644	0.0150899
747.722	0.0151200
747.800	0.0150039
747.878	0.0149905
747.956	0.0149808
748.034	0.0149880
748.112	0.0150330
748.191	0.0149613
748.269	0.0149883
748.347	0.0149659
748.425	0.0149468
748.503	0.0149887
748.581	0.0150510
748.659	0.0150640
748.737	0.0148267
748.816	0.0149427
748.894	0.0148885
748.972	0.0149214
749.050	0.0149043
749.128	0.0148042
749.206	0.0149444
749.284	0.0149905
749.362	0.0148088
749.441	0.0149384
749.519	0.0148216
749.597	0.0149220
749.675	0.0147762
749.753	0.0150029
749.831	0.0148813
749.909	0.0147235
749.987	0.0149134
750.066	0.0148544
750.144	0.0148808
750.222	0.0147989
750.300	0.0148475
750.378	0.0148719
750.456	0.0149756
750.534	0.0148904
750.612	0.0149522
750.691	0.0149031
750.769	0.0148759
750.847	0.0149942
750.925	0.0150735
751.003	0.0151711
751.081	0.0151060
751.159	0.0150787
751.237	0.0150306
751.316	0.0151900
751.394	0.0151416
751.472	0.0151694
751.550	0.0151338
751.628	0.0152568
751.706	0.0153009
751.784	0.0151344
751.862	0.0151604
751.941	0.0152876
752.019	0.0153242
752.097	0.0152000
752.175	0.0152322
752.253	0.0152105
752.331	0.0152927
752.409	0.0152909
752.487	0.0152738
752.566	0.0154106
752.644	0.0151991
752.722	0.0153969
752.800	0.0152271
752.878	0.0152299
752.956	0.0154115
753.034	0.0153833
753.112	0.0152135
753.191	0.0154722
753.269	0.0154173
753.347	0.0154420
753.425	0.0154012
753.503	0.0154524
753.581	0.0153734
753.659	0.0155342
753.737	0.0155330
753.816	0.0154492
753.894	0.0154588
753.972	0.0154070
754.050	0.0153390
754.128	0.0154263
754.206	0.0155907
754.284	0.0155311
754.362	0.0154430
754.441	0.0153565
754.519	0.0154167
754.597	0.0153735
754.675	0.0153993
754.753	0.0155183
754.831	0.0155350
754.909	0.0155164
754.987	0.0154338
755.066	0.0154112
755.144	0.0154097
755.222	0.0155601
755.300	0.0154726
755.378	0.0154605
755.456	0.0155382
755.534	0.0155092
755.612	0.0154477
755.691	0.0153754
755.769	0.0154909
755.847	0.0155296
755.925	0.0154970
756.003	0.0154176
756.081	0.0154617
756.159	0.0154212
756.237	0.0154269
756.316	0.0155312
756.394	0.0155186
756.472	0.0154087
756.550	0.0154939
756.628	0.0155155
756.706	0.0153925
756.784	0.0154202
756.862	0.0154959
756.941	0.0154592
757.019	0.0154018
757.097	0.0153755
757.175	0.0153655
757.253	0.0152963
757.331	0.0153285
757.409	0.0152996
757.487	0.0153300
757.566	0.0152207
757.644	0.0152268
757.722	0.0152470
757.800	0.0153621
757.878	0.0153396
757.956	0.0152251
758.034	0.0151876
758.112	0.0151941
758.191	0.0152573
758.269	0.0151881
758.347	0.0152410
758.425	0.0153204
758.503	0.0152763
758.581	0.0152482
758.659	0.0150890
758.737	0.0153188
758.816	0.0153191
758.894	0.0151867
758.972	0.0151745
759.050	0.0151116
759.128	0.0152887
759.206	0.0153313
759.284	0.0153247
759.362	0.0153283
759.441	0.0153177
759.519	0.0151007
759.597	0.0152576
759.675	0.0152516
759.753	0.0152085
759.831	0.0151752
759.909	0.0152700
759.987	0.0152185
760.066	0.0151618
760.144	0.0152228
760.222	0.0151874
760.300	0.0151868
760.378	0.0152106
760.456	0.0152370
760.534	0.0151857
760.612	0.0152557
760.691	0.0151282
760.769	0.0151715
760.847	0.0152142
760.925	0.0149969
761.003	0.0151143
761.081	0.0151218
761.159	0.0151481
761.237	0.0151850
761.316	0.0152092
761.394	0.0152105
761.472	0.0151327
761.550	0.0151234
761.628	0.0150618
761.706	0.0151293
761.784	0.0151931
761.862	0.0151753
761.941	0.0152895
762.019	0.0152684
762.097	0.0152283
762.175	0.0151138
762.253	0.0151708
762.331	0.0151783
762.409	0.0152530
762.487	0.0152701
762.566	0.0153883
762.644	0.0153622
762.722	0.0154187
762.800	0.0153777
762.878	0.0153066
762.956	0.0152827
763.034	0.0153404
763.112	0.0154713
763.191	0.0155234
763.269	0.0153820
763.347	0.0154945
763.425	0.0154550
763.503	0.0154150
763.581	0.0154297
763.659	0.0154553
763.737	0.0154700
763.816	0.0154601
763.894	0.0154749
763.972	0.0154577
764.050	0.0155410
764.128	0.0154481
764.206	0.0155450
764.284	0.0153838
764.362	0.0154694
764.441	0.0154261
764.519	0.0155241
764.597	0.0155012
764.675	0.0153444
764.753	0.0153808
764.831	0.0154081
764.909	0.0154919
764.987	0.0154566
765.066	0.0153392
765.144	0.0155518
765.222	0.0154837
765.300	0.0153686
765.378	0.0154362
765.456	0.0154333
765.534	0.0153099
765.612	0.0154540
765.691	0.0152518
765.769	0.0153601
765.847	0.0154361
765.925	0.0153255
766.003	0.0153991
766.081	0.0151904
766.159	0.0152686
766.237	0.0151519
766.316	0.0153210
766.394	0.0152178
766.472	0.0151517
766.550	0.0151252
766.628	0.0151513
766.706	0.0151244
766.784	0.0150580
766.862	0.0150791
766.941	0.0150343
767.019	0.0151014
767.097	0.0150288
767.175	0.0149845
767.253	0.0151499
767.331	0.0151767
767.409	0.0150642
767.487	0.0150869
767.566	0.0151074
767.644	0.0151848
767.722	0.0153082
767.800	0.0151370
767.878	0.0153211
767.956	0.0153162
768.034	0.0152662
768.112	0.0153295
768.191	0.0152448
768.269	0.0153260
768.347	0.0152562
768.425	0.0153252
768.503	0.0153629
768.581	0.0153614
768.659	0.0152461
768.737	0.0153206
768.816	0.0153819
768.894	0.0154420
768.972	0.0152553
769.050	0.0152954
769.128	0.0153160
769.206	0.0154792
769.284	0.0153003
769.362	0.0154181
769.441	0.0154785
769.519	0.0153654
769.597	0.0152632
769.675	0.0153264
769.753	0.0153143
769.831	0.0152229
769.909	0.0152993
769.987	0.0152255
770.066	0.0150736
770.144	0.0152278
770.222	0.0151854
770.300	0.0151900
770.378	0.0151856
770.456	0.0151888
770.534	0.0152042
770.612	0.0152039
770.691	0.0151628
770.769	0.0150993
770.847	0.0150827
770.925	0.0151911
771.003	0.0151743
771.081	0.0151228
771.159	0.0150237
771.237	0.0149974
771.316	0.0149727
771.394	0.0149026
771.472	0.0149908
771.550	0.0149847
771.628	0.0150062
771.706	0.0149657
771.784	0.0149883
771.862	0.0149407
771.941	0.0150221
772.019	0.0149722
772.097	0.0148492
772.175	0.0149784
772.253	0.0150999
772.331	0.0150429
772.409	0.0150203
772.487	0.0150867
772.566	0.0149037
772.644	0.0150340
772.722	0.0150895
772.800	0.0151131
772.878	0.0150817
772.956	0.0151933
773.034	0.0150807
773.112	0.0150067
773.191	0.0151060
773.269	0.0152139
773.347	0.0151395
773.425	0.0149690
773.503	0.0151499
773.581	0.0150388
773.659	0.0150031
773.737	0.0151843
773.816	0.0152627
773.894	0.0149979
773.972	0.0149139
774.050	0.0151522
774.128	0.0151188
774.206	0.0151533
774.284	0.0150029
774.362	0.0151167
774.441	0.0152514
774.519	0.0150912
774.597	0.0151713
774.675	0.0152790
774.753	0.0152915
774.831	0.0151392
774.909	0.0151859
774.987	0.0152299
775.066	0.0152589
775.144	0.0152491
775.222	0.0151123
775.300	0.0152470
775.378	0.0152649
775.456	0.0151653
775.534	0.0152113
775.612	0.0152374
775.691	0.0150311
775.769	0.0151963
775.847	0.0151697
775.925	0.0152069
776.003	0.0151224
776.081	0.0152641
776.159	0.0153583
776.237	0.0151314
776.316	0.0151221
776.394	0.0152916
776.472	0.0152834
776.550	0.0151902
776.628	0.0151888
776.706	0.0152852
776.784	0.0152862
776.862	0.0153087
776.941	0.0154099
777.019	0.0153956
777.097	0.0153481
777.175	0.0154041
777.253	0.0153123
777.331	0.0153500
777.409	0.0152366
777.487	0.0151781
777.566	0.0152736
777.644	0.0152579
777.722	0.0154135
777.800	0.0153196
777.878	0.0151811
777.956	0.0153615
778.034	0.0152819
778.112	0.0153758
778.191	0.0152834
778.269	0.0151863
778.347	0.0153401
778.425	0.0152606
778.503	0.0153870
778.581	0.0154418
778.659	0.0153082
778.737	0.0152441
778.816	0.0153735
778.894	0.0153828
778.972	0.0152258
779.050	0.0152895
779.128	0.0153594
779.206	0.0153561
779.284	0.0153895
779.362	0.0153362
779.441	0.0154031
779.519	0.0154124
779.597	0.0154003
779.675	0.0154893
779.753	0.0153378
779.831	0.0154414
779.909	0.0153336
779.987	0.0154605
780.066	0.0154148
780.144	0.0155052
780.222	0.0152592
780.300	0.0153551
780.378	0.0153911
780.456	0.0152850
780.534	0.0153240
780.612	0.0154679
780.691	0.0153903
780.769	0.0153220
780.847	0.0152972
780.925	0.0153322
781.003	0.0152946
781.081	0.0154277
781.159	0.0152970
781.237	0.0151682
781.316	0.0152294
781.394	0.0152074
781.472	0.0152525
781.550	0.0152217
781.628	0.0152586
781.706	0.0152159
781.784	0.0151419
781.862	0.0151170
781.941	0.0151654
782.019	0.0152299
782.097	0.0151762
782.175	0.0151852
782.253	0.0152402
782.331	0.0152412
782.409	0.0152513
782.487	0.0151867
782.566	0.0153227
782.644	0.0154510
782.722	0.0152686
782.800	0.0151850
782.878	0.0153562
782.956	0.0154474
783.034	0.0152451
783.112	0.0153042
783.191	0.0153669
783.269	0.0153349
783.347	0.0153562
783.425	0.0152953
783.503	0.0154306
783.581	0.0154080
783.659	0.0154134
783.737	0.0153285
783.816	0.0152216
783.894	0.0152047
783.972	0.0152896
784.050	0.0153671
784.128	0.0152539
784.206	0.0150970
784.284	0.0152040
784.362	0.0151621
784.441	0.0151823
784.519	0.0152113
784.597	0.0153035
784.675	0.0151708
784.753	0.0150950
784.831	0.0151514
784.909	0.0151530
784.987	0.0151201
785.066	0.0150852
785.144	0.0152679
785.222	0.0150675
785.300	0.0150807
785.378	0.0151302
785.456	0.0150641
785.534	0.0150220
785.612	0.0150793
785.691	0.0150217
785.769	0.0151753
785.847	0.0148920
785.925	0.0150150
786.003	0.0150307
786.081	0.0151067
786.159	0.0150436
786.237	0.0151419
786.316	0.0151046
786.394	0.0150543
786.472	0.0150935
786.550	0.0150163
786.628	0.0150296
786.706	0.0150596
786.784	0.0150726
786.862	0.0150041
786.941	0.0150587
787.019	0.0150286
787.097	0.0150533
787.175	0.0151078
787.253	0.0150049
787.331	0.0149763
787.409	0.0150600
787.487	0.0151675
787.566	0.0151078
787.644	0.0150812
787.722	0.0150887
787.800	0.0151868
787.878	0.0150819
787.956	0.0151321
788.034	0.0152712
788.112	0.0152636
788.191	0.0151514
788.269	0.0150992
788.347	0.0153009
788.425	0.0151643
788.503	0.0153929
788.581	0.0152569
788.659	0.0151918
788.737	0.0152255
788.816	0.0152866
788.894	0.0153380
788.972	0.0152997
789.050	0.0152072
789.128	0.0152971
789.206	0.0152357
789.284	0.0152715
789.362	0.0152274
789.441	0.0153404
789.519	0.0151761
789.597	0.0151345
789.675	0.0153304
789.753	0.0152779
789.831	0.0153150
789.909	0.0153923
789.987	0.0152274
790.066	0.0153718
790.144	0.0153445
790.222	0.0154448
790.300	0.0154555
790.378	0.0153257
790.456	0.0153066
790.534	0.0153051
790.612	0.0153790
790.691	0.0153758
790.769	0.0153580
790.847	0.0154172
790.925	0.0155460
791.003	0.0155600
791.081	0.0154881
791.159	0.0154041
791.237	0.0155586
791.316	0.0154476
791.394	0.0155403
791.472	0.0154879
791.550	0.0154995
791.628	0.0155673
791.706	0.0154929
791.784	0.0155141
791.862	0.0155232
791.941	0.0154955
792.019	0.0154610
792.097	0.0154649
792.175	0.0154627
792.253	0.0155074
792.331	0.0153728
792.409	0.0155296
792.487	0.0153372
792.566	0.0153611
792.644	0.0153952
792.722	0.0153655
792.800	0.0153973
792.878	0.0153263
792.956	0.0151791
793.034	0.0153670
793.112	0.0153357
793.191	0.0152173
793.269	0.0150991
793.347	0.0152100
793.425	0.0152006
793.503	0.0151413
793.581	0.0152762
793.659	0.0150542
793.737	0.0149992
793.816	0.0150607
793.894	0.0149345
793.972	0.0150665
794.050	0.0150552
794.128	0.0149857
794.206	0.0148677
794.284	0.0150411
794.362	0.0149680
794.441	0.0149413
794.519	0.0150184
794.597	0.0150616
794.675	0.0149736
794.753	0.0150275
794.831	0.0151052
794.909	0.0150748
794.987	0.0148914
795.066	0.0150159
795.144	0.0150777
795.222	0.0151867
795.300	0.0151790
795.378	0.0150824
795.456	0.0150413
795.534	0.0150904
795.612	0.0152534
795.691	0.0150654
795.769	0.0150977
795.847	0.0151313
795.925	0.0152136
796.003	0.0152596
796.081	0.0152277
796.159	0.0152441
796.237	0.0153192
796.316	0.0152699
796.394	0.0152448
796.472	0.0153431
796.550	0.0152133
796.628	0.0153222
796.706	0.0153490
796.784	0.0152745
796.862	0.0152631
796.941	0.0151586
797.019	0.0152808
797.097	0.0151257
797.175	0.0151782
797.253	0.0151292
797.331	0.0152113
797.409	0.0152737
797.487	0.0150372
797.566	0.0151363
797.644	0.0152162
797.722	0.0151555
797.800	0.0149886
797.878	0.0151253
797.956	0.0150437
798.034	0.0150367
798.112	0.0149005
798.191	0.0150550
798.269	0.0152102
798.347	0.0150450
798.425	0.0150294
798.503	0.0149688
798.581	0.0149695
798.659	0.0152383
798.737	0.0151977
798.816	0.0152164
798.894	0.0150665
798.972	0.0152170
799.050	0.0152439
799.128	0.0152233
799.206	0.0151630
799.284	0.0152139
799.362	0.0151557
799.441	0.0152771
799.519	0.0153625
799.597	0.0152518
799.675	0.0152675
799.753	0.0153264
799.831	0.0154231
799.909	0.0154272
799.987	0.0153990
800.066	0.0153367
800.144	0.0152954
800.222	0.0154905
800.300	0.0153735
800.378	0.0153656
800.456	0.0153423
800.534	0.0153920
800.612	0.0154697
800.691	0.0153315
800.769	0.0153803
800.847	0.0153388
800.925	0.0152985
801.003	0.0153727
801.081	0.0152390
801.159	0.0151295
801.237	0.0153322
801.316	0.0153268
801.394	0.0153031
801.472	0.0151837
801.550	0.0152161
801.628	0.0153439
801.706	0.0153162
801.784	0.0152817
801.862	0.0151340
801.941	0.0151796
802.019	0.0152262
802.097	0.0152486
802.175	0.0151200
802.253	0.0152188
802.331	0.0151620
802.409	0.0150883
802.487	0.0150962
802.566	0.0151633
802.644	0.0151761
802.722	0.0150542
802.800	0.0150168
802.878	0.0151968
802.956	0.0151627
803.034	0.0150381
803.112	0.0151812
803.191	0.0152293
803.269	0.0151247
803.347	0.0152090
803.425	0.0151347
803.503	0.0151887
803.581	0.0151745
803.659	0.0151716
803.737	0.0151363
803.816	0.0151408
803.894	0.0152299
803.972	0.0151300
804.050	0.0151351
804.128	0.0151637
804.206	0.0150854
804.284	0.0151514
804.362	0.0151905
804.441	0.0152121
804.519	0.0151712
804.597	0.0151927
804.675	0.0152225
804.753	0.0152726
804.831	0.0150669
804.909	0.0151115
804.987	0.0152983
805.066	0.0152972
805.144	0.0152287
805.222	0.0152340
805.300	0.0150865
805.378	0.0150237
805.456	0.0151524
805.534	0.0152437
805.612	0.0150925
805.691	0.0151111
805.769	0.0149475
805.847	0.0149729
805.925	0.0149983
806.003	0.0150455
806.081	0.0148962
806.159	0.0150243
806.237	0.0148970
806.316	0.0149894
806.394	0.0149457
806.472	0.0150028
806.550	0.0151292
806.628	0.0149807
806.706	0.0149500
806.784	0.0149844
806.862	0.0148760
806.941	0.0149649
807.019	0.0150951
807.097	0.0150594
807.175	0.0151701
807.253	0.0150984
807.331	0.0150289
807.409	0.0150686
807.487	0.0151279
807.566	0.0151159
807.644	0.0151413
807.722	0.0152154
807.800	0.0151987
807.878	0.0151643
807.956	0.0151986
808.034	0.0152959
808.112	0.0152695
808.191	0.0151823
808.269	0.0153378
808.347	0.0151629
808.425	0.0152312
808.503	0.0154020
808.581	0.0154314
808.659	0.0153051
808.737	0.0152460
808.816	0.0154438
808.894	0.0154266
808.972	0.0152792
809.050	0.0154263
809.128	0.0153884
809.206	0.0155698
809.284	0.0153529
809.362	0.0155193
809.441	0.0154415
809.519	0.0155338
809.597	0.0154494
809.675	0.0154399
809.753	0.0154096
809.831	0.0153928
809.909	0.0153773
809.987	0.0153251
810.066	0.0153947
810.144	0.0153429
810.222	0.0153249
810.300	0.0154323
810.378	0.0152670
810.456	0.0153891
810.534	0.0152544
810.612	0.0153907
810.691	0.0153390
810.769	0.0151795
810.847	0.0152738
810.925	0.0154170
811.003	0.0153448
811.081	0.0151794
811.159	0.0153989
811.237	0.0153856
811.316	0.0154051
811.394	0.0154155
811.472	0.0154164
811.550	0.0154770
811.628	0.0154189
811.706	0.0153686
811.784	0.0154002
811.862	0.0153590
811.941	0.0154288
812.019	0.0153707
812.097	0.0153434
812.175	0.0154067
812.253	0.0153698
812.331	0.0153845
812.409	0.0153277
812.487	0.0153699
812.566	0.0152890
812.644	0.0153831
812.722	0.0153828
812.800	0.0154430
812.878	0.0151471
812.956	0.0152946
813.034	0.0152444
813.112	0.0152503
813.191	0.0152796
813.269	0.0151819
813.347	0.0152803
813.425	0.0152200
813.503	0.0152716
813.581	0.0153018
813.659	0.0152314
813.737	0.0154003
813.816	0.0152918
813.894	0.0152371
813.972	0.0151517
814.050	0.0151809
814.128	0.0150715
814.206	0.0151576
814.284	0.0152450
814.362	0.0151691
814.441	0.0151431
814.519	0.0150476
814.597	0.0150648
814.675	0.0149373
814.753	0.0148788
814.831	0.0149249
814.909	0.0149117
814.987	0.0148227
815.066	0.0148432
815.144	0.0148566
815.222	0.0148843
815.300	0.0149319
815.378	0.0148739
815.456	0.0148328
815.534	0.0149039
815.612	0.0148850
815.691	0.0150145
815.769	0.0148696
815.847	0.0150735
815.925	0.0149400
816.003	0.0149216
816.081	0.0148941
816.159	0.0149084
816.237	0.0150327
816.316	0.0151093
816.394	0.0150806
816.472	0.0150410
816.550	0.0151025
816.628	0.0150601
816.706	0.0150480
816.784	0.0152566
816.862	0.0151490
816.941	0.0152598
817.019	0.0152309
817.097	0.0152337
817.175	0.0152955
817.253	0.0153736
817.331	0.0153014
817.409	0.0152972
817.487	0.0153680
817.566	0.0153483
817.644	0.0152882
817.722	0.0155322
817.800	0.0154961
817.878	0.0155571
817.956	0.0154932
818.034	0.0155432
818.112	0.0155495
818.191	0.0155786
818.269	0.0157101
818.347	0.0155626
818.425	0.0155689
818.503	0.0157517
818.581	0.0156603
818.659	0.0156034
818.737	0.0157243
818.816	0.0156100
818.894	0.0156865
818.972	0.0155951
819.050	0.0155440
819.128	0.0156136
819.206	0.0155053
819.284	0.0154527
819.362	0.0155649
819.441	0.0156071
819.519	0.0154868
819.597	0.0154834
819.675	0.0154617
819.753	0.0153892
819.831	0.0153844
819.909	0.0154289
819.987	0.0155470
820.066	0.0153718
820.144	0.0152379
820.222	0.0155270
820.300	0.0153157
820.378	0.0152416
820.456	0.0153409
820.534	0.0154075
820.612	0.0153300
820.691	0.0152696
820.769	0.0153514
820.847	0.0153281
820.925	0.0152326
821.003	0.0152668
821.081	0.0151785
821.159	0.0152863
821.237	0.0152473
821.316	0.0150880
821.394	0.0151959
821.472	0.0152839
821.550	0.0151346
821.628	0.0152643
821.706	0.0152101
821.784	0.0151084
821.862	0.0152960
821.941	0.0152855
822.019	0.0152982
822.097	0.0153584
822.175	0.0153554
822.253	0.0152805
822.331	0.0152265
822.409	0.0154701
822.487	0.0152441
822.566	0.0154673
822.644	0.0153541
822.722	0.0153687
822.800	0.0154584
822.878	0.0154402
822.956	0.0152866
823.034	0.0152753
823.112	0.0152605
823.191	0.0153030
823.269	0.0152122
823.347	0.0150882
823.425	0.0151534
823.503	0.0151150
823.581	0.0150861
823.659	0.0150238
823.737	0.0151066
823.816	0.0151523
823.894	0.0150875
823.972	0.0150049
824.050	0.0150197
824.128	0.0149338
824.206	0.0150046
824.284	0.0150491
824.362	0.0151354
824.441	0.0149686
824.519	0.0149515
824.597	0.0150629
824.675	0.0150103
824.753	0.0149589
824.831	0.0150546
824.909	0.0150394
824.987	0.0148734
825.066	0.0149606
825.144	0.0149265
825.222	0.0149338
825.300	0.0149147
825.378	0.0150160
825.456	0.0148824
825.534	0.0149702
825.612	0.0148830
825.691	0.0150478
825.769	0.0151138
825.847	0.0150139
825.925	0.0150557
826.003	0.0150230
826.081	0.0150834
826.159	0.0151078
826.237	0.0151585
826.316	0.0151465
826.394	0.0151321
826.472	0.0150900
826.550	0.0151224
826.628	0.0152608
826.706	0.0152176
826.784	0.0151957
826.862	0.0149849
826.941	0.0151833
827.019	0.0151711
827.097	0.0152014
827.175	0.0151688
827.253	0.0152657
827.331	0.0153754
827.409	0.0151975
827.487	0.0151215
827.566	0.0153645
827.644	0.0152652
827.722	0.0152583
827.800	0.0153585
827.878	0.0151888
827.956	0.0153143
828.034	0.0153922
828.112	0.0152629
828.191	0.0153315
828.269	0.0153664
828.347	0.0154138
828.425	0.0154498
828.503	0.0153349
828.581	0.0153210
828.659	0.0154077
828.737	0.0153544
828.816	0.0154320
828.894	0.0154637
828.972	0.0155364
829.050	0.0153501
829.128	0.0153416
829.206	0.0155289
829.284	0.0154118
829.362	0.0155280
829.441	0.0153487
829.519	0.0154603
829.597	0.0154176
829.675	0.0155278
829.753	0.0155553
829.831	0.0154487
829.909	0.0154472
829.987	0.0154600
830.066	0.0153183
830.144	0.0154176
830.222	0.0154543
830.300	0.0154242
830.378	0.0154014
830.456	0.0155035
830.534	0.0154684
830.612	0.0154537
830.691	0.0153477
830.769	0.0154424
830.847	0.0155020
830.925	0.0153140
831.003	0.0153265
831.081	0.0152589
831.159	0.0153923
831.237	0.0154044
831.316	0.0152190
831.394	0.0153329
831.472	0.0153188
831.550	0.0153059
831.628	0.0152624
831.706	0.0152312
831.784	0.0152575
831.862	0.0152643
831.941	0.0152677
832.019	0.0151560
832.097	0.0152921
832.175	0.0152226
832.253	0.0152000
832.331	0.0151704
832.409	0.0151736
832.487	0.0151836
832.566	0.0151731
832.644	0.0151741
832.722	0.0152901
832.800	0.0151766
832.878	0.0151833
832.956	0.0152134
833.034	0.0151728
833.112	0.0151152
833.191	0.0152627
833.269	0.0152482
833.347	0.0151439
833.425	0.0151772
833.503	0.0151110
833.581	0.0151865
833.659	0.0151897
833.737	0.0150522
833.816	0.0150435
833.894	0.0151602
833.972	0.0151328
834.050	0.0151829
834.128	0.0150677
834.206	0.0151665
834.284	0.0151419
834.362	0.0149027
834.441	0.0151871
834.519	0.0151366
834.597	0.0151130
834.675	0.0151833
834.753	0.0152410
834.831	0.0151726
834.909	0.0150532
834.987	0.0151008
835.066	0.0152258
835.144	0.0151139
835.222	0.0151301
835.300	0.0151111
835.378	0.0151303
835.456	0.0152950
835.534	0.0152260
835.612	0.0152644
835.691	0.0152610
835.769	0.0152161
835.847	0.0153065
835.925	0.0152917
836.003	0.0152582
836.081	0.0153288
836.159	0.0152692
836.237	0.0153146
836.316	0.0153431
836.394	0.0154111
836.472	0.0153068
836.550	0.0152225
836.628	0.0152612
836.706	0.0152917
836.784	0.0153299
836.862	0.0152652
836.941	0.0152334
837.019	0.0152301
837.097	0.0152772
837.175	0.0153278
837.253	0.0152287
837.331	0.0151045
837.409	0.0152888
837.487	0.0152454
837.566	0.0150543
837.644	0.0151369
837.722	0.0152680
837.800	0.0152692
837.878	0.0150021
837.956	0.0151609
838.034	0.0151571
838.112	0.0151588
838.191	0.0151131
838.269	0.0151428
838.347	0.0152779
838.425	0.0151566
838.503	0.0151177
838.581	0.0151838
838.659	0.0151157
838.737	0.0151614
838.816	0.0151364
838.894	0.0151710
838.972	0.0149709
839.050	0.0151073
839.128	0.0151901
839.206	0.0152470
839.284	0.0151197
839.362	0.0152527
839.441	0.0151195
839.519	0.0150800
839.597	0.0151151
839.675	0.0152117
839.753	0.0152683
839.831	0.0151899
839.909	0.0150272
839.987	0.0152846
840.066	0.0152141
840.144	0.0152335
840.222	0.0152216
840.300	0.0151288
840.378	0.0152133
840.456	0.0152903
840.534	0.0153323
840.612	0.0152598
840.691	0.0151565
840.769	0.0152777
840.847	0.0153568
840.925	0.0153120
841.003	0.0153242
841.081	0.0153543
841.159	0.0152833
841.237	0.0152512
841.316	0.0153838
841.394	0.0152120
841.472	0.0154881
841.550	0.0154495
841.628	0.0154118
841.706	0.0154160
841.784	0.0156059
841.862	0.0154955
841.941	0.0153441
842.019	0.0153823
842.097	0.0155530
842.175	0.0154448
842.253	0.0155264
842.331	0.0155651
842.409	0.0154992
842.487	0.0154662
842.566	0.0155498
842.644	0.0154541
842.722	0.0153948
842.800	0.0153631
842.878	0.0154154
842.956	0.0154273
843.034	0.0153748
843.112	0.0153822
843.191	0.0154202
843.269	0.0152683
843.347	0.0152300
843.425	0.0151962
843.503	0.0153015
843.581	0.0154256
843.659	0.0154081
843.737	0.0154168
843.816	0.0154351
843.894	0.0153744
843.972	0.0153518
844.050	0.0153135
844.128	0.0153725
844.206	0.0154882
844.284	0.0153133
844.362	0.0154510
844.441	0.0153587
844.519	0.0153349
844.597	0.0153799
844.675	0.0153485
844.753	0.0151627
844.831	0.0153054
844.909	0.0152227
844.987	0.0153644
845.066	0.0151615
845.144	0.0152082
845.222	0.0151033
845.300	0.0150517
845.378	0.0151012
845.456	0.0150735
845.534	0.0150433
845.612	0.0149796
845.691	0.0150430
845.769	0.0149331
845.847	0.0148409
845.925	0.0148254
846.003	0.0148939
846.081	0.0149008
846.159	0.0148836
846.237	0.0148594
846.316	0.0148897
846.394	0.0148650
846.472	0.0148994
846.550	0.0148151
846.628	0.0146858
846.706	0.0149037
846.784	0.0151226
846.862	0.0149956
846.941	0.0149211
847.019	0.0149356
847.097	0.0150024
847.175	0.0149993
847.253	0.0149782
847.331	0.0149834
847.409	0.0150114
847.487	0.0150121
847.566	0.0151482
847.644	0.0151455
847.722	0.0151313
847.800	0.0152176
847.878	0.0152349
847.956	0.0151766
848.034	0.0152116
848.112	0.0151687
848.191	0.0153273
848.269	0.0153362
848.347	0.0151725
848.425	0.0153021
848.503	0.0153101
848.581	0.0152012
848.659	0.0153907
848.737	0.0153466
848.816	0.0154412
848.894	0.0153267
848.972	0.0153638
849.050	0.0154078
849.128	0.0152787
849.206	0.0153342
849.284	0.0154246
849.362	0.0154055
849.441	0.0153827
849.519	0.0154260
849.597	0.0154155
849.675	0.0153387
849.753	0.0152993
849.831	0.0151878
849.909	0.0153030
849.987	0.0154297
850.066	0.0153008
850.144	0.0151989
850.222	0.0152988
850.300	0.0153188
850.378	0.0152287
850.456	0.0152469
850.534	0.0153391
850.612	0.0153315
850.691	0.0150258
850.769	0.0152853
850.847	0.0151924
850.925	0.0151552
851.003	0.0150558
851.081	0.0150098
851.159	0.0151443
851.237	0.0150388
851.316	0.0152191
851.394	0.0152135
851.472	0.0153536
851.550	0.0153083
851.628	0.0151562
851.706	0.0153057
851.784	0.0152556
851.862	0.0151850
851.941	0.0152026
852.019	0.0153597
852.097	0.0153303
852.175	0.0151807
852.253	0.0153463
852.331	0.0153564
852.409	0.0154420
852.487	0.0153349
852.566	0.0154634
852.644	0.0154465
852.722	0.0154635
852.800	0.0153796
852.878	0.0153650
852.956	0.0155531
853.034	0.0154323
853.112	0.0154400
853.191	0.0155326
853.269	0.0154282
853.347	0.0155099
853.425	0.0155588
853.503	0.0154525
853.581	0.0156182
853.659	0.0156047
853.737	0.0154641
853.816	0.0154905
853.894	0.0154802
853.972	0.0154344
854.050	0.0155267
854.128	0.0153239
854.206	0.0154156
854.284	0.0154159
854.362	0.0153423
854.441	0.0154084
854.519	0.0152007
854.597	0.0153225
854.675	0.0153116
854.753	0.0153555
854.831	0.0152838
854.909	0.0153357
854.987	0.0153165
855.066	0.0151838
855.144	0.0153407
855.222	0.0153120
855.300	0.0153386
855.378	0.0152286
855.456	0.0151583
855.534	0.0151970
855.612	0.0152398
855.691	0.0150457
855.769	0.0150671
855.847	0.0149339
855.925	0.0150203
856.003	0.0150022
856.081	0.0149938
856.159	0.0149654
856.237	0.0149837
856.316	0.0149390
856.394	0.0148827
856.472	0.0148898
856.550	0.0148892
856.628	0.0148395
856.706	0.0148721
856.784	0.0149020
856.862	0.0149135
856.941	0.0148891
857.019	0.0148095
857.097	0.0147948
857.175	0.0148963
857.253	0.0149364
857.331	0.0148446
857.409	0.0147761
857.487	0.0147832
857.566	0.0147627
857.644	0.0149339
857.722	0.0147318
857.800	0.0147942
857.878	0.0148984
857.956	0.0148650
858.034	0.0148618
858.112	0.0149322
858.191	0.0151734
858.269	0.0149610
858.347	0.0149592
858.425	0.0149076
858.503	0.0150698
858.581	0.0149534
858.659	0.0150266
858.737	0.0149181
858.816	0.0149802
858.894	0.0150007
858.972	0.0149548
859.050	0.0149550
859.128	0.0149322
859.206	0.0150121
859.284	0.0150149
859.362	0.0149866
859.441	0.0149756
859.519	0.0150043
859.597	0.0149629
859.675	0.0150367
859.753	0.0150581
859.831	0.0151189
859.909	0.0151653
859.987	0.0150999
860.066	0.0149751
860.144	0.0150734
860.222	0.0151157
860.300	0.0152005
860.378	0.0152705
860.456	0.0152520
860.534	0.0151583
860.612	0.0151217
860.691	0.0151791
860.769	0.0152808
860.847	0.0151408
860.925	0.0152020
861.003	0.0152170
861.081	0.0152184
861.159	0.0152331
861.237	0.0152844
861.316	0.0151643
861.394	0.0153490
861.472	0.0151352
861.550	0.0152213
861.628	0.0151143
861.706	0.0150329
861.784	0.0151743
861.862	0.0149825
861.941	0.0149432
862.019	0.0151028
862.097	0.0149359
862.175	0.0149532
862.253	0.0150765
862.331	0.0149358
862.409	0.0147756
862.487	0.0148293
862.566	0.0149909
862.644	0.0150353
862.722	0.0149169
862.800	0.0149458
862.878	0.0150164
862.956	0.0150726
863.034	0.0150894
863.112	0.0150147
863.191	0.0149320
863.269	0.0148823
863.347	0.0150072
863.425	0.0149168
863.503	0.0150563
863.581	0.0149714
863.659	0.0149629
863.737	0.0150938
863.816	0.0151586
863.894	0.0149880
863.972	0.0150479
864.050	0.0152071
864.128	0.0150331
864.206	0.0148370
864.284	0.0149564
864.362	0.0150350
864.441	0.0150063
864.519	0.0150776
864.597	0.0149686
864.675	0.0150885
864.753	0.0150586
864.831	0.0150120
864.909	0.0152146
864.987	0.0150326
865.066	0.0151318
865.144	0.0151102
865.222	0.0150928
865.300	0.0150032
865.378	0.0150540
865.456	0.0150845
865.534	0.0151443
865.612	0.0149953
865.691	0.0150775
865.769	0.0152000
865.847	0.0150871
865.925	0.0151921
866.003	0.0153358
866.081	0.0153259
866.159	0.0152599
866.237	0.0152883
866.316	0.0154099
866.394	0.0153588
866.472	0.0152777
866.550	0.0152781
866.628	0.0152835
866.706	0.0153613
866.784	0.0152170
866.862	0.0153195
866.941	0.0152433
867.019	0.0152902
867.097	0.0152326
867.175	0.0153262
867.253	0.0150586
867.331	0.0152155
867.409	0.0151273
867.487	0.0150587
867.566	0.0150638
867.644	0.0151736
867.722	0.0150343
867.800	0.0150789
867.878	0.0150919
867.956	0.0151323
868.034	0.0151871
868.112	0.0151060
868.191	0.0152269
868.269	0.0152960
868.347	0.0150896
868.425	0.0151405
868.503	0.0151405
868.581	0.0152454
868.659	0.0150967
868.737	0.0151871
868.816	0.0151218
868.894	0.0151112
868.972	0.0151369
869.050	0.0150429
869.128	0.0151402
869.206	0.0151750
869.284	0.0152177
869.362	0.0153910
869.441	0.0152518
869.519	0.0152087
869.597	0.0152911
869.675	0.0151388
869.753	0.0152845
869.831	0.0153141
869.909	0.0153356
869.987	0.0153183
870.066	0.0152737
870.144	0.0151474
870.222	0.0151727
870.300	0.0151929
870.378	0.0152364
870.456	0.0149648
870.534	0.0152428
870.612	0.0151622
870.691	0.0150323
870.769	0.0150824
870.847	0.0151168
870.925	0.0150519
871.003	0.0150439
871.081	0.0151647
871.159	0.0150912
871.237	0.0152826
871.316	0.0151981
871.394	0.0152560
871.472	0.0152485
871.550	0.0151841
871.628	0.0152660
871.706	0.0152576
871.784	0.0152651
871.862	0.0152708
871.941	0.0151968
872.019	0.0153745
872.097	0.0152927
872.175	0.0152425
872.253	0.0154272
872.331	0.0153466
872.409	0.0153111
872.487	0.0153612
872.566	0.0153290
872.644	0.0152934
872.722	0.0152242
872.800	0.0153716
872.878	0.0153065
872.956	0.0152494
873.034	0.0153778
873.112	0.0153143
873.191	0.0152662
873.269	0.0152730
873.347	0.0152287
873.425	0.0152077
873.503	0.0154112
873.581	0.0153534
873.659	0.0153363
873.737	0.0153545
873.816	0.0152864
873.894	0.0153714
873.972	0.0153419
874.050	0.0153421
874.128	0.0154525
874.206	0.0154787
874.284	0.0154855
874.362	0.0153413
874.441	0.0154375
874.519	0.0153637
874.597	0.0154545
874.675	0.0155293
874.753	0.0154215
874.831	0.0155886
874.909	0.0153683
874.987	0.0155363
875.066	0.0153288
875.144	0.0153506
875.222	0.0153181
875.300	0.0153878
875.378	0.0153396
875.456	0.0153513
875.534	0.0151151
875.612	0.0152316
875.691	0.0153075
875.769	0.0152957
875.847	0.0152149
875.925	0.0151707
876.003	0.0152041
876.081	0.0151817
876.159	0.0151592
876.237	0.0150583
876.316	0.0151244
876.394	0.0152983
876.472	0.0152133
876.550	0.0152310
876.628	0.0153355
876.706	0.0153627
876.784	0.0154441
876.862	0.0152629
876.941	0.0152360
877.019	0.0152975
877.097	0.0152565
877.175	0.0151272
877.253	0.0151518
877.331	0.0152896
877.409	0.0152628
877.487	0.0151176
877.566	0.0152094
877.644	0.0152375
877.722	0.0149804
877.800	0.0150722
877.878	0.0150499
877.956	0.0151769
878.034	0.0151015
878.112	0.0151768
878.191	0.0150680
878.269	0.0151067
878.347	0.0151192
878.425	0.0151924
878.503	0.0151229
878.581	0.0152459
878.659	0.0149835
878.737	0.0151357
878.816	0.0152619
878.894	0.0152586
878.972	0.0152617
879.050	0.0151683
879.128	0.0152145
879.206	0.0151883
879.284	0.0151467
879.362	0.0152888
879.441	0.0151393
879.519	0.0152435
879.597	0.0152880
879.675	0.0150857
879.753	0.0151543
879.831	0.0150826
879.909	0.0151127
