05/28/2022	14:44:18	Ver.	4.1	UNKNOWN
Optical Delay	559.987403	Delta X		0.078125	Sweeps	1	Scan Rate	0/0
Coordinates	Axis 1	NaN	Axis 2	NaN	Axis 3	NaN	Axis 4	NaN	Axis 5	NaN	Axis 6	0.000000
TX Power	0.000000	RX Power	0.000000

559.987	0.0153868
560.066	0.0153304
560.144	0.0154669
560.222	0.0153819
560.300	0.0152669
560.378	0.0151983
560.456	0.0152445
560.534	0.0152084
560.612	0.0152202
560.691	0.0152528
560.769	0.0151368
560.847	0.0152493
560.925	0.0152849
561.003	0.0151604
561.081	0.0151092
561.159	0.0151102
561.237	0.0150190
561.316	0.0151146
561.394	0.0148883
561.472	0.0149465
561.550	0.0149098
561.628	0.0148317
561.706	0.0148600
561.784	0.0147549
561.862	0.0148314
561.941	0.0146983
562.019	0.0147555
562.097	0.0148614
562.175	0.0147363
562.253	0.0147500
562.331	0.0147927
562.409	0.0148275
562.487	0.0147056
562.566	0.0149055
562.644	0.0149006
562.722	0.0149767
562.800	0.0150020
562.878	0.0147867
562.956	0.0149829
563.034	0.0149390
563.112	0.0148322
563.191	0.0149268
563.269	0.0149973
563.347	0.0149202
563.425	0.0149129
563.503	0.0148988
563.581	0.0150249
563.659	0.0150906
563.737	0.0151022
563.816	0.0149795
563.894	0.0151835
563.972	0.0152122
564.050	0.0151789
564.128	0.0152198
564.206	0.0152213
564.284	0.0152142
564.362	0.0151489
564.441	0.0152858
564.519	0.0154764
564.597	0.0154239
564.675	0.0153952
564.753	0.0153273
564.831	0.0152764
564.909	0.0153329
564.987	0.0152579
565.066	0.0153124
565.144	0.0154068
565.222	0.0153056
565.300	0.0152470
565.378	0.0152031
565.456	0.0153248
565.534	0.0152040
565.612	0.0151989
565.691	0.0151145
565.769	0.0152826
565.847	0.0151865
565.925	0.0152086
566.003	0.0151413
566.081	0.0151577
566.159	0.0151777
566.237	0.0152780
566.316	0.0151312
566.394	0.0151305
566.472	0.0150674
566.550	0.0151772
566.628	0.0150944
566.706	0.0152543
566.784	0.0151138
566.862	0.0150852
566.941	0.0150903
567.019	0.0149744
567.097	0.0150789
567.175	0.0150081
567.253	0.0151308
567.331	0.0150713
567.409	0.0151234
567.487	0.0150005
567.566	0.0152108
567.644	0.0150761
567.722	0.0149501
567.800	0.0151111
567.878	0.0150102
567.956	0.0150033
568.034	0.0150362
568.112	0.0149741
568.191	0.0149901
568.269	0.0149093
568.347	0.0148373
568.425	0.0146279
568.503	0.0149136
568.581	0.0147074
568.659	0.0147411
568.737	0.0148560
568.816	0.0149110
568.894	0.0147334
568.972	0.0147811
569.050	0.0147485
569.128	0.0146999
569.206	0.0148531
569.284	0.0148473
569.362	0.0148241
569.441	0.0148320
569.519	0.0148240
569.597	0.0149261
569.675	0.0150456
569.753	0.0149046
569.831	0.0149570
569.909	0.0148828
569.987	0.0149840
570.066	0.0149839
570.144	0.0149815
570.222	0.0149057
570.300	0.0148698
570.378	0.0149306
570.456	0.0149434
570.534	0.0150131
570.612	0.0149513
570.691	0.0148489
570.769	0.0147844
570.847	0.0148626
570.925	0.0149126
571.003	0.0147441
571.081	0.0148212
571.159	0.0146859
571.237	0.0146498
571.316	0.0147268
571.394	0.0146503
571.472	0.0146923
571.550	0.0147159
571.628	0.0146021
571.706	0.0146143
571.784	0.0146339
571.862	0.0147272
571.941	0.0147408
572.019	0.0147530
572.097	0.0146976
572.175	0.0148663
572.253	0.0148213
572.331	0.0148394
572.409	0.0148464
572.487	0.0150262
572.566	0.0149630
572.644	0.0149207
572.722	0.0150159
572.800	0.0150172
572.878	0.0152005
572.956	0.0150719
573.034	0.0150401
573.112	0.0152887
573.191	0.0151283
573.269	0.0150841
573.347	0.0151413
573.425	0.0150421
573.503	0.0149770
573.581	0.0151102
573.659	0.0150872
573.737	0.0151303
573.816	0.0151026
573.894	0.0151300
573.972	0.0151956
574.050	0.0152132
574.128	0.0153170
574.206	0.0152996
574.284	0.0153214
574.362	0.0154334
574.441	0.0153986
574.519	0.0153815
574.597	0.0155472
574.675	0.0155132
574.753	0.0154982
574.831	0.0156245
574.909	0.0155092
574.987	0.0155930
575.066	0.0155019
575.144	0.0156099
575.222	0.0155305
575.300	0.0155015
575.378	0.0154209
575.456	0.0154617
575.534	0.0154153
575.612	0.0153531
575.691	0.0155781
575.769	0.0154596
575.847	0.0153234
575.925	0.0153518
576.003	0.0153350
576.081	0.0151949
576.159	0.0152354
576.237	0.0151704
576.316	0.0151881
576.394	0.0150447
576.472	0.0149709
576.550	0.0151372
576.628	0.0151501
576.706	0.0149656
576.784	0.0149778
576.862	0.0148325
576.941	0.0148759
577.019	0.0149347
577.097	0.0149516
577.175	0.0147996
577.253	0.0148348
577.331	0.0148347
577.409	0.0148600
577.487	0.0148788
577.566	0.0149233
577.644	0.0148016
577.722	0.0146311
577.800	0.0147343
577.878	0.0146445
577.956	0.0145942
578.034	0.0147076
578.112	0.0148180
578.191	0.0146364
578.269	0.0146139
578.347	0.0146967
578.425	0.0146945
578.503	0.0147594
578.581	0.0147554
578.659	0.0147549
578.737	0.0147160
578.816	0.0147640
578.894	0.0148594
578.972	0.0148142
579.050	0.0147020
579.128	0.0147220
579.206	0.0147969
579.284	0.0147479
579.362	0.0149007
579.441	0.0148132
579.519	0.0148763
579.597	0.0148438
579.675	0.0148174
579.753	0.0150103
579.831	0.0149800
579.909	0.0149081
579.987	0.0150727
580.066	0.0150296
580.144	0.0151309
580.222	0.0151582
580.300	0.0152853
580.378	0.0150168
580.456	0.0152725
580.534	0.0152176
580.612	0.0153524
580.691	0.0152579
580.769	0.0153040
580.847	0.0153769
580.925	0.0152078
581.003	0.0151850
581.081	0.0151995
581.159	0.0151588
581.237	0.0150591
581.316	0.0151682
581.394	0.0151151
581.472	0.0150663
581.550	0.0149983
581.628	0.0148829
581.706	0.0149236
581.784	0.0150067
581.862	0.0148974
581.941	0.0149432
582.019	0.0149812
582.097	0.0147946
582.175	0.0149368
582.253	0.0148579
582.331	0.0151437
582.409	0.0149095
582.487	0.0149015
582.566	0.0148581
582.644	0.0148975
582.722	0.0147684
582.800	0.0148149
582.878	0.0147257
582.956	0.0147643
583.034	0.0147693
583.112	0.0146237
583.191	0.0148197
583.269	0.0147396
583.347	0.0146899
583.425	0.0146186
583.503	0.0145332
583.581	0.0143715
583.659	0.0145305
583.737	0.0144331
583.816	0.0144990
583.894	0.0144595
583.972	0.0145679
584.050	0.0145465
584.128	0.0145676
584.206	0.0144272
584.284	0.0146545
584.362	0.0147604
584.441	0.0147820
584.519	0.0148399
584.597	0.0147906
584.675	0.0148225
584.753	0.0148589
584.831	0.0149557
584.909	0.0149477
584.987	0.0149951
585.066	0.0149606
585.144	0.0149204
585.222	0.0147229
585.300	0.0147617
585.378	0.0149084
585.456	0.0148012
585.534	0.0147653
585.612	0.0147207
585.691	0.0149085
585.769	0.0148748
585.847	0.0149236
585.925	0.0148891
586.003	0.0148263
586.081	0.0150383
586.159	0.0150200
586.237	0.0150129
586.316	0.0150615
586.394	0.0150871
586.472	0.0153197
586.550	0.0152633
586.628	0.0151379
586.706	0.0151437
586.784	0.0153159
586.862	0.0154131
586.941	0.0154570
587.019	0.0153180
587.097	0.0154167
587.175	0.0152892
587.253	0.0153469
587.331	0.0155029
587.409	0.0154546
587.487	0.0153642
587.566	0.0155311
587.644	0.0154624
587.722	0.0153780
587.800	0.0154665
587.878	0.0153913
587.956	0.0152985
588.034	0.0152928
588.112	0.0153118
588.191	0.0152597
588.269	0.0151599
588.347	0.0151048
588.425	0.0152277
588.503	0.0151175
588.581	0.0150874
588.659	0.0152029
588.737	0.0151923
588.816	0.0151414
588.894	0.0150951
588.972	0.0151791
589.050	0.0151798
589.128	0.0149619
589.206	0.0150694
589.284	0.0149693
589.362	0.0150792
589.441	0.0151044
589.519	0.0150120
589.597	0.0149557
589.675	0.0150719
589.753	0.0149961
589.831	0.0148359
589.909	0.0148327
589.987	0.0148564
590.066	0.0148119
590.144	0.0147906
590.222	0.0147521
590.300	0.0149554
590.378	0.0149319
590.456	0.0146792
590.534	0.0147113
590.612	0.0148769
590.691	0.0148861
590.769	0.0148363
590.847	0.0149330
590.925	0.0148251
591.003	0.0148549
591.081	0.0148601
591.159	0.0148275
591.237	0.0150484
591.316	0.0149605
591.394	0.0149702
591.472	0.0148508
591.550	0.0150231
591.628	0.0150889
591.706	0.0149650
591.784	0.0148440
591.862	0.0148438
591.941	0.0149525
592.019	0.0150556
592.097	0.0148530
592.175	0.0148949
592.253	0.0148891
592.331	0.0149745
592.409	0.0149512
592.487	0.0148570
592.566	0.0149553
592.644	0.0149235
592.722	0.0149001
592.800	0.0149187
592.878	0.0148640
592.956	0.0148414
593.034	0.0148379
593.112	0.0149725
593.191	0.0149080
593.269	0.0148341
593.347	0.0148328
593.425	0.0149983
593.503	0.0148801
593.581	0.0149208
593.659	0.0149306
593.737	0.0149126
593.816	0.0146842
593.894	0.0149166
593.972	0.0148409
594.050	0.0147498
594.128	0.0148711
594.206	0.0148940
594.284	0.0148477
594.362	0.0149854
594.441	0.0150303
594.519	0.0150333
594.597	0.0149327
594.675	0.0148920
594.753	0.0149847
594.831	0.0148508
594.909	0.0149342
594.987	0.0149385
595.066	0.0149288
595.144	0.0148077
595.222	0.0147327
595.300	0.0149193
595.378	0.0147788
595.456	0.0148096
595.534	0.0149085
595.612	0.0148837
595.691	0.0147168
595.769	0.0146527
595.847	0.0146379
595.925	0.0149569
596.003	0.0149205
596.081	0.0148127
596.159	0.0149595
596.237	0.0149502
596.316	0.0149632
596.394	0.0150207
596.472	0.0150781
596.550	0.0150806
596.628	0.0150988
596.706	0.0151382
596.784	0.0151996
596.862	0.0151822
596.941	0.0152218
597.019	0.0152235
597.097	0.0152666
597.175	0.0151571
597.253	0.0151215
597.331	0.0152436
597.409	0.0152208
597.487	0.0151043
597.566	0.0152283
597.644	0.0151511
597.722	0.0151983
597.800	0.0152189
597.878	0.0152483
597.956	0.0150788
598.034	0.0150972
598.112	0.0151469
598.191	0.0150807
598.269	0.0150854
598.347	0.0151175
598.425	0.0150373
598.503	0.0151088
598.581	0.0150246
598.659	0.0149750
598.737	0.0148182
598.816	0.0149332
598.894	0.0149065
598.972	0.0148824
599.050	0.0150554
599.128	0.0149461
599.206	0.0148881
599.284	0.0149081
599.362	0.0149082
599.441	0.0150038
599.519	0.0148907
599.597	0.0150655
599.675	0.0149440
599.753	0.0149654
599.831	0.0151193
599.909	0.0150221
599.987	0.0149890
600.066	0.0151157
600.144	0.0151321
600.222	0.0151097
600.300	0.0150929
600.378	0.0151695
600.456	0.0151497
600.534	0.0150707
600.612	0.0150461
600.691	0.0151917
600.769	0.0152403
600.847	0.0149828
600.925	0.0150412
601.003	0.0151806
601.081	0.0152473
601.159	0.0151205
601.237	0.0152120
601.316	0.0151577
601.394	0.0152921
601.472	0.0152308
601.550	0.0150853
601.628	0.0152076
601.706	0.0151691
601.784	0.0152206
601.862	0.0153269
601.941	0.0152501
602.019	0.0152705
602.097	0.0151289
602.175	0.0151180
602.253	0.0152748
602.331	0.0152051
602.409	0.0151508
602.487	0.0151559
602.566	0.0151378
602.644	0.0152044
602.722	0.0153793
602.800	0.0152531
602.878	0.0152579
602.956	0.0152514
603.034	0.0153339
603.112	0.0153431
603.191	0.0154060
603.269	0.0153153
603.347	0.0152692
603.425	0.0152855
603.503	0.0153339
603.581	0.0152856
603.659	0.0151640
603.737	0.0153434
603.816	0.0151862
603.894	0.0151665
603.972	0.0153327
604.050	0.0153336
604.128	0.0150940
604.206	0.0151115
604.284	0.0151504
604.362	0.0150853
604.441	0.0151443
604.519	0.0152940
604.597	0.0151882
604.675	0.0150174
604.753	0.0150008
604.831	0.0149959
604.909	0.0150638
604.987	0.0150889
605.066	0.0150489
605.144	0.0150786
605.222	0.0149743
605.300	0.0149245
605.378	0.0150194
605.456	0.0149255
605.534	0.0149871
605.612	0.0149101
605.691	0.0147578
605.769	0.0150036
605.847	0.0147549
605.925	0.0147012
606.003	0.0146806
606.081	0.0148289
606.159	0.0147556
606.237	0.0144902
606.316	0.0145672
606.394	0.0145975
606.472	0.0144828
606.550	0.0143844
606.628	0.0144356
606.706	0.0144666
606.784	0.0145023
606.862	0.0144959
606.941	0.0144942
607.019	0.0145528
607.097	0.0146046
607.175	0.0146191
607.253	0.0147270
607.331	0.0146501
607.409	0.0148744
607.487	0.0150255
607.566	0.0148317
607.644	0.0150890
607.722	0.0150685
607.800	0.0150621
607.878	0.0150780
607.956	0.0152413
608.034	0.0152124
608.112	0.0152563
608.191	0.0151534
608.269	0.0152658
608.347	0.0151344
608.425	0.0152425
608.503	0.0150957
608.581	0.0150647
608.659	0.0152001
608.737	0.0152158
608.816	0.0152832
608.894	0.0152509
608.972	0.0152456
609.050	0.0152242
609.128	0.0153731
609.206	0.0153427
609.284	0.0153079
609.362	0.0154755
609.441	0.0154540
609.519	0.0155075
609.597	0.0154549
609.675	0.0153790
609.753	0.0153564
609.831	0.0154008
609.909	0.0154388
609.987	0.0154244
610.066	0.0154395
610.144	0.0152776
610.222	0.0153409
610.300	0.0152464
610.378	0.0152734
610.456	0.0152031
610.534	0.0152715
610.612	0.0151479
610.691	0.0150178
610.769	0.0150150
610.847	0.0150687
610.925	0.0152792
611.003	0.0150594
611.081	0.0149422
611.159	0.0152144
611.237	0.0152744
611.316	0.0151678
611.394	0.0152207
611.472	0.0151701
611.550	0.0152824
611.628	0.0151375
611.706	0.0151490
611.784	0.0151860
611.862	0.0150432
611.941	0.0149215
612.019	0.0152189
612.097	0.0150745
612.175	0.0148660
612.253	0.0150530
612.331	0.0150381
612.409	0.0151218
612.487	0.0149603
612.566	0.0150922
612.644	0.0150787
612.722	0.0149474
612.800	0.0149720
612.878	0.0150092
612.956	0.0149774
613.034	0.0150724
613.112	0.0149865
613.191	0.0149717
613.269	0.0148952
613.347	0.0150655
613.425	0.0150059
613.503	0.0150312
613.581	0.0149327
613.659	0.0150797
613.737	0.0150684
613.816	0.0149307
613.894	0.0150430
613.972	0.0151499
614.050	0.0150516
614.128	0.0151218
614.206	0.0152004
614.284	0.0150293
614.362	0.0151153
614.441	0.0152023
614.519	0.0151864
614.597	0.0149531
614.675	0.0151891
614.753	0.0151292
614.831	0.0149302
614.909	0.0149959
614.987	0.0150865
615.066	0.0149306
615.144	0.0149168
615.222	0.0148233
615.300	0.0149067
615.378	0.0149131
615.456	0.0148279
615.534	0.0147980
615.612	0.0146703
615.691	0.0147137
615.769	0.0146903
615.847	0.0147678
615.925	0.0148872
616.003	0.0147958
616.081	0.0147902
616.159	0.0149879
616.237	0.0148891
616.316	0.0149519
616.394	0.0150173
616.472	0.0150927
616.550	0.0150842
616.628	0.0151611
616.706	0.0151792
616.784	0.0150682
616.862	0.0151605
616.941	0.0152325
617.019	0.0149981
617.097	0.0151394
617.175	0.0152297
617.253	0.0151635
617.331	0.0150089
617.409	0.0151160
617.487	0.0150839
617.566	0.0150314
617.644	0.0150474
617.722	0.0151858
617.800	0.0150081
617.878	0.0150573
617.956	0.0150458
618.034	0.0150439
618.112	0.0151447
618.191	0.0151506
618.269	0.0152209
618.347	0.0151066
618.425	0.0151548
618.503	0.0152276
618.581	0.0152744
618.659	0.0153618
618.737	0.0152971
618.816	0.0153840
618.894	0.0154819
618.972	0.0153316
619.050	0.0153548
619.128	0.0154665
619.206	0.0154994
619.284	0.0154557
619.362	0.0154854
619.441	0.0155138
619.519	0.0154337
619.597	0.0154180
619.675	0.0154237
619.753	0.0152734
619.831	0.0152829
619.909	0.0151657
619.987	0.0153011
620.066	0.0152423
620.144	0.0151723
620.222	0.0152326
620.300	0.0151321
620.378	0.0151425
620.456	0.0151530
620.534	0.0150901
620.612	0.0150878
620.691	0.0151572
620.769	0.0153112
620.847	0.0151992
620.925	0.0151502
621.003	0.0151995
621.081	0.0153146
621.159	0.0153219
621.237	0.0154244
621.316	0.0154430
621.394	0.0154670
621.472	0.0154767
621.550	0.0153941
621.628	0.0152584
621.706	0.0154431
621.784	0.0153750
621.862	0.0154303
621.941	0.0153856
622.019	0.0153865
622.097	0.0154278
622.175	0.0152974
622.253	0.0153342
622.331	0.0152825
622.409	0.0152483
622.487	0.0152629
622.566	0.0152075
622.644	0.0152760
622.722	0.0152859
622.800	0.0151982
622.878	0.0151390
622.956	0.0151859
623.034	0.0150201
623.112	0.0150928
623.191	0.0150558
623.269	0.0150228
623.347	0.0148994
623.425	0.0149290
623.503	0.0148962
623.581	0.0149010
623.659	0.0150536
623.737	0.0149936
623.816	0.0147639
623.894	0.0147954
623.972	0.0149272
624.050	0.0148185
624.128	0.0148872
624.206	0.0149863
624.284	0.0147954
624.362	0.0149934
624.441	0.0149594
624.519	0.0150191
624.597	0.0150328
624.675	0.0150420
624.753	0.0150665
624.831	0.0150143
624.909	0.0149810
624.987	0.0151101
625.066	0.0150685
625.144	0.0150259
625.222	0.0151365
625.300	0.0151382
625.378	0.0151373
625.456	0.0151755
625.534	0.0151052
625.612	0.0152907
625.691	0.0151054
625.769	0.0150877
625.847	0.0152959
625.925	0.0150983
626.003	0.0150510
626.081	0.0151579
626.159	0.0152499
626.237	0.0152955
626.316	0.0151936
626.394	0.0152654
626.472	0.0154641
626.550	0.0154781
626.628	0.0153176
626.706	0.0155220
626.784	0.0154783
626.862	0.0155547
626.941	0.0155328
627.019	0.0155244
627.097	0.0156500
627.175	0.0155147
627.253	0.0156623
627.331	0.0157037
627.409	0.0156811
627.487	0.0156966
627.566	0.0156244
627.644	0.0156655
627.722	0.0155904
627.800	0.0155646
627.878	0.0154466
627.956	0.0155344
628.034	0.0155892
628.112	0.0156055
628.191	0.0154572
628.269	0.0156235
628.347	0.0154781
628.425	0.0154400
628.503	0.0155453
628.581	0.0154745
628.659	0.0154732
628.737	0.0154356
628.816	0.0154428
628.894	0.0153604
628.972	0.0153446
629.050	0.0153173
629.128	0.0153857
629.206	0.0154803
629.284	0.0153075
629.362	0.0153590
629.441	0.0152804
629.519	0.0152031
629.597	0.0154025
629.675	0.0152898
629.753	0.0152842
629.831	0.0154457
629.909	0.0153351
629.987	0.0153455
630.066	0.0153349
630.144	0.0152267
630.222	0.0154369
630.300	0.0153937
630.378	0.0153421
630.456	0.0152772
630.534	0.0153409
630.612	0.0153159
630.691	0.0151691
630.769	0.0150784
630.847	0.0152723
630.925	0.0151583
631.003	0.0151672
631.081	0.0152333
631.159	0.0151839
631.237	0.0152463
631.316	0.0152885
631.394	0.0153204
631.472	0.0152775
631.550	0.0151047
631.628	0.0150828
631.706	0.0151648
631.784	0.0152954
631.862	0.0151590
631.941	0.0151668
632.019	0.0150449
632.097	0.0148987
632.175	0.0151352
632.253	0.0148297
632.331	0.0149736
632.409	0.0150047
632.487	0.0150368
632.566	0.0150002
632.644	0.0148179
632.722	0.0149255
632.800	0.0150589
632.878	0.0150052
632.956	0.0149069
633.034	0.0150002
633.112	0.0150325
633.191	0.0148965
633.269	0.0148585
633.347	0.0150082
633.425	0.0149390
633.503	0.0150085
633.581	0.0149364
633.659	0.0150181
633.737	0.0148613
633.816	0.0149889
633.894	0.0149394
633.972	0.0147955
634.050	0.0148828
634.128	0.0149216
634.206	0.0148760
634.284	0.0148510
634.362	0.0146593
634.441	0.0146709
634.519	0.0147036
634.597	0.0146134
634.675	0.0147494
634.753	0.0146787
634.831	0.0146849
634.909	0.0146435
634.987	0.0146236
635.066	0.0145575
635.144	0.0146726
635.222	0.0146338
635.300	0.0145628
635.378	0.0147440
635.456	0.0148951
635.534	0.0146880
635.612	0.0147116
635.691	0.0147297
635.769	0.0148949
635.847	0.0149707
635.925	0.0147950
636.003	0.0149014
636.081	0.0150736
636.159	0.0149475
636.237	0.0151400
636.316	0.0149747
636.394	0.0150668
636.472	0.0151165
636.550	0.0152359
636.628	0.0151123
636.706	0.0150975
636.784	0.0150918
636.862	0.0149937
636.941	0.0150567
637.019	0.0150982
637.097	0.0152236
637.175	0.0149578
637.253	0.0150772
637.331	0.0150987
637.409	0.0150235
637.487	0.0150555
637.566	0.0152977
637.644	0.0152176
637.722	0.0153528
637.800	0.0153986
637.878	0.0153748
637.956	0.0152826
638.034	0.0153996
638.112	0.0152779
638.191	0.0153448
638.269	0.0155220
638.347	0.0154091
638.425	0.0153725
638.503	0.0153541
638.581	0.0153162
638.659	0.0151263
638.737	0.0151646
638.816	0.0151330
638.894	0.0151154
638.972	0.0151068
639.050	0.0151402
639.128	0.0153123
639.206	0.0153808
639.284	0.0153508
639.362	0.0153747
639.441	0.0153733
639.519	0.0153806
639.597	0.0155290
639.675	0.0153931
639.753	0.0153085
639.831	0.0152978
639.909	0.0154504
639.987	0.0153075
640.066	0.0153461
640.144	0.0154734
640.222	0.0153288
640.300	0.0152981
640.378	0.0152124
640.456	0.0151281
640.534	0.0150090
640.612	0.0150923
640.691	0.0149662
640.769	0.0149607
640.847	0.0148632
640.925	0.0148898
641.003	0.0149297
641.081	0.0149428
641.159	0.0149188
641.237	0.0149564
641.316	0.0150062
641.394	0.0150394
641.472	0.0151228
641.550	0.0149113
641.628	0.0149400
641.706	0.0150580
641.784	0.0151234
641.862	0.0151124
641.941	0.0151368
642.019	0.0151791
642.097	0.0152500
642.175	0.0153162
642.253	0.0150707
642.331	0.0151131
642.409	0.0150957
642.487	0.0152984
642.566	0.0152236
642.644	0.0149966
642.722	0.0150787
642.800	0.0150271
642.878	0.0151797
642.956	0.0151863
643.034	0.0151912
643.112	0.0152893
643.191	0.0152242
643.269	0.0151734
643.347	0.0152362
643.425	0.0151496
643.503	0.0152939
643.581	0.0153033
643.659	0.0152857
643.737	0.0153161
643.816	0.0154671
643.894	0.0153702
643.972	0.0153636
644.050	0.0152752
644.128	0.0154111
644.206	0.0153899
644.284	0.0153478
644.362	0.0153870
644.441	0.0153967
644.519	0.0154425
644.597	0.0153611
644.675	0.0153586
644.753	0.0153967
644.831	0.0152628
644.909	0.0153073
644.987	0.0153207
645.066	0.0150446
645.144	0.0152652
645.222	0.0152554
645.300	0.0151872
645.378	0.0151340
645.456	0.0151797
645.534	0.0152338
645.612	0.0151225
645.691	0.0152615
645.769	0.0151122
645.847	0.0152337
645.925	0.0151661
646.003	0.0153531
646.081	0.0152100
646.159	0.0152185
646.237	0.0152943
646.316	0.0152948
646.394	0.0151804
646.472	0.0153064
646.550	0.0152611
646.628	0.0154121
646.706	0.0154565
646.784	0.0152526
646.862	0.0153374
646.941	0.0154665
647.019	0.0152414
647.097	0.0153286
647.175	0.0152531
647.253	0.0153248
647.331	0.0151916
647.409	0.0151804
647.487	0.0151237
647.566	0.0150839
647.644	0.0149320
647.722	0.0149499
647.800	0.0149332
647.878	0.0148170
647.956	0.0149171
648.034	0.0149061
648.112	0.0148406
648.191	0.0147861
648.269	0.0147316
648.347	0.0148144
648.425	0.0148534
648.503	0.0148441
648.581	0.0148656
648.659	0.0147463
648.737	0.0148128
648.816	0.0146030
648.894	0.0149152
648.972	0.0148607
649.050	0.0147435
649.128	0.0145476
649.206	0.0147202
649.284	0.0148161
649.362	0.0147228
649.441	0.0147561
649.519	0.0146320
649.597	0.0145513
649.675	0.0147060
649.753	0.0144572
649.831	0.0144954
649.909	0.0144122
649.987	0.0144532
650.066	0.0145010
650.144	0.0143530
650.222	0.0144042
650.300	0.0144156
650.378	0.0144270
650.456	0.0144711
650.534	0.0145619
650.612	0.0145882
650.691	0.0145644
650.769	0.0144794
650.847	0.0145470
650.925	0.0145078
651.003	0.0146199
651.081	0.0145728
651.159	0.0145805
651.237	0.0145753
651.316	0.0146423
651.394	0.0146002
651.472	0.0145174
651.550	0.0146495
651.628	0.0147643
651.706	0.0146779
651.784	0.0147079
651.862	0.0147897
651.941	0.0147224
652.019	0.0147789
652.097	0.0149759
652.175	0.0149643
652.253	0.0149033
652.331	0.0149474
652.409	0.0148779
652.487	0.0147986
652.566	0.0147594
652.644	0.0149481
652.722	0.0149385
652.800	0.0149668
652.878	0.0149088
652.956	0.0149191
653.034	0.0150571
653.112	0.0149873
653.191	0.0150569
653.269	0.0149560
653.347	0.0149144
653.425	0.0150993
653.503	0.0151572
653.581	0.0151713
653.659	0.0151498
653.737	0.0151353
653.816	0.0150323
653.894	0.0151598
653.972	0.0152113
654.050	0.0151083
654.128	0.0152678
654.206	0.0152280
654.284	0.0152490
654.362	0.0152213
654.441	0.0153811
654.519	0.0154583
654.597	0.0154626
654.675	0.0155338
654.753	0.0154797
654.831	0.0153838
654.909	0.0154760
654.987	0.0155181
655.066	0.0153413
655.144	0.0155221
655.222	0.0154958
655.300	0.0154977
655.378	0.0155149
655.456	0.0155112
655.534	0.0155226
655.612	0.0154353
655.691	0.0154642
655.769	0.0154477
655.847	0.0154586
655.925	0.0155170
656.003	0.0154259
656.081	0.0154609
656.159	0.0153473
656.237	0.0154253
656.316	0.0154478
656.394	0.0154472
656.472	0.0154002
656.550	0.0154417
656.628	0.0154057
656.706	0.0154027
656.784	0.0154073
656.862	0.0152762
656.941	0.0154465
657.019	0.0153687
657.097	0.0154526
657.175	0.0154353
657.253	0.0153050
657.331	0.0153976
657.409	0.0153796
657.487	0.0153521
657.566	0.0154524
657.644	0.0152357
657.722	0.0153684
657.800	0.0152863
657.878	0.0152224
657.956	0.0152002
658.034	0.0151878
658.112	0.0151211
658.191	0.0149782
658.269	0.0150481
658.347	0.0150716
658.425	0.0150536
658.503	0.0151595
658.581	0.0151112
658.659	0.0149404
658.737	0.0150577
658.816	0.0149961
658.894	0.0149780
658.972	0.0149958
659.050	0.0148740
659.128	0.0148785
659.206	0.0148070
659.284	0.0148367
659.362	0.0148773
659.441	0.0146745
659.519	0.0146352
659.597	0.0146815
659.675	0.0148623
659.753	0.0148502
659.831	0.0146458
659.909	0.0147197
659.987	0.0148344
660.066	0.0147944
660.144	0.0148979
660.222	0.0148592
660.300	0.0148074
660.378	0.0147654
660.456	0.0148124
660.534	0.0148608
660.612	0.0148537
660.691	0.0147560
660.769	0.0148548
660.847	0.0148746
660.925	0.0147611
661.003	0.0148689
661.081	0.0147011
661.159	0.0147549
661.237	0.0148377
661.316	0.0148040
661.394	0.0148350
661.472	0.0148456
661.550	0.0148002
661.628	0.0147553
661.706	0.0146653
661.784	0.0147511
661.862	0.0148571
661.941	0.0150930
662.019	0.0148532
662.097	0.0150358
662.175	0.0150719
662.253	0.0150916
662.331	0.0150610
662.409	0.0151278
662.487	0.0151585
662.566	0.0150438
662.644	0.0152789
662.722	0.0151701
662.800	0.0151367
662.878	0.0151123
662.956	0.0151411
663.034	0.0150865
663.112	0.0150974
663.191	0.0152422
663.269	0.0151391
663.347	0.0150462
663.425	0.0151893
663.503	0.0151262
663.581	0.0151503
663.659	0.0150858
663.737	0.0149379
663.816	0.0151767
663.894	0.0151922
663.972	0.0151256
664.050	0.0151594
664.128	0.0151148
664.206	0.0151267
664.284	0.0152632
664.362	0.0151109
664.441	0.0154276
664.519	0.0153903
664.597	0.0152470
664.675	0.0151283
664.753	0.0152617
664.831	0.0152310
664.909	0.0151833
664.987	0.0154095
665.066	0.0151527
665.144	0.0149844
665.222	0.0152515
665.300	0.0149473
665.378	0.0152418
665.456	0.0150368
665.534	0.0151475
665.612	0.0151114
665.691	0.0151257
665.769	0.0151309
665.847	0.0151798
665.925	0.0151226
666.003	0.0150822
666.081	0.0152185
666.159	0.0151983
666.237	0.0151609
666.316	0.0151540
666.394	0.0150904
666.472	0.0152540
666.550	0.0151362
666.628	0.0150066
666.706	0.0150515
666.784	0.0149263
666.862	0.0149343
666.941	0.0149113
667.019	0.0150425
667.097	0.0150327
667.175	0.0149802
667.253	0.0150234
667.331	0.0149030
667.409	0.0151466
667.487	0.0152819
667.566	0.0149785
667.644	0.0152081
667.722	0.0153068
667.800	0.0153285
667.878	0.0153892
667.956	0.0152625
668.034	0.0152716
668.112	0.0153205
668.191	0.0152370
668.269	0.0152371
668.347	0.0150967
668.425	0.0150577
668.503	0.0149828
668.581	0.0151070
668.659	0.0150820
668.737	0.0148862
668.816	0.0148792
668.894	0.0149181
668.972	0.0148556
669.050	0.0148928
669.128	0.0148473
669.206	0.0149707
669.284	0.0149134
669.362	0.0149088
669.441	0.0150355
669.519	0.0151058
669.597	0.0148913
669.675	0.0149657
669.753	0.0150391
669.831	0.0149499
669.909	0.0148451
669.987	0.0147784
670.066	0.0147466
670.144	0.0146764
670.222	0.0147379
670.300	0.0148534
670.378	0.0145255
670.456	0.0146479
670.534	0.0145502
670.612	0.0146492
670.691	0.0148077
670.769	0.0147919
670.847	0.0147855
670.925	0.0149055
671.003	0.0149447
671.081	0.0150313
671.159	0.0150282
671.237	0.0149801
671.316	0.0150936
671.394	0.0152596
671.472	0.0151014
671.550	0.0151022
671.628	0.0152180
671.706	0.0151144
671.784	0.0151195
671.862	0.0149857
671.941	0.0149574
672.019	0.0148931
672.097	0.0149681
672.175	0.0150175
672.253	0.0149226
672.331	0.0150599
672.409	0.0150255
672.487	0.0150902
672.566	0.0150713
672.644	0.0149277
672.722	0.0150413
672.800	0.0150280
672.878	0.0151361
672.956	0.0152428
673.034	0.0152496
673.112	0.0151840
673.191	0.0151839
673.269	0.0151648
673.347	0.0152077
673.425	0.0152606
673.503	0.0153281
673.581	0.0152911
673.659	0.0152161
673.737	0.0151751
673.816	0.0151688
673.894	0.0151882
673.972	0.0152779
674.050	0.0152251
674.128	0.0152184
674.206	0.0152531
674.284	0.0149909
674.362	0.0151056
674.441	0.0152461
674.519	0.0150497
674.597	0.0150825
674.675	0.0151848
674.753	0.0151720
674.831	0.0151762
674.909	0.0151907
674.987	0.0149908
675.066	0.0150146
675.144	0.0150897
675.222	0.0150343
675.300	0.0151502
675.378	0.0151296
675.456	0.0151923
675.534	0.0150747
675.612	0.0150926
675.691	0.0151688
675.769	0.0150916
675.847	0.0149618
675.925	0.0150220
676.003	0.0148936
676.081	0.0150743
676.159	0.0148110
676.237	0.0148415
676.316	0.0147122
676.394	0.0147899
676.472	0.0147278
676.550	0.0145470
676.628	0.0145490
676.706	0.0145785
676.784	0.0145681
676.862	0.0144627
676.941	0.0144302
677.019	0.0144938
677.097	0.0145242
677.175	0.0146622
677.253	0.0146449
677.331	0.0146631
677.409	0.0148178
677.487	0.0148879
677.566	0.0149517
677.644	0.0149585
677.722	0.0150627
677.800	0.0151385
677.878	0.0152944
677.956	0.0152225
678.034	0.0153375
678.112	0.0152400
678.191	0.0152425
678.269	0.0153490
678.347	0.0153324
678.425	0.0152302
678.503	0.0152322
678.581	0.0154385
678.659	0.0152296
678.737	0.0151347
678.816	0.0151344
678.894	0.0151169
678.972	0.0151215
679.050	0.0149704
679.128	0.0148728
679.206	0.0150245
679.284	0.0149754
679.362	0.0149930
679.441	0.0148447
679.519	0.0150809
679.597	0.0151104
679.675	0.0150088
679.753	0.0151916
679.831	0.0151010
679.909	0.0151193
679.987	0.0153266
680.066	0.0152377
680.144	0.0152636
680.222	0.0152966
680.300	0.0153356
680.378	0.0154701
680.456	0.0154025
680.534	0.0154498
680.612	0.0155114
680.691	0.0154031
680.769	0.0154502
680.847	0.0152895
680.925	0.0154848
681.003	0.0153544
681.081	0.0153398
681.159	0.0153249
681.237	0.0153264
681.316	0.0151904
681.394	0.0153136
681.472	0.0153230
681.550	0.0152617
681.628	0.0152712
681.706	0.0151689
681.784	0.0152164
681.862	0.0152026
681.941	0.0151800
682.019	0.0150641
682.097	0.0151803
682.175	0.0151655
682.253	0.0151496
682.331	0.0151476
682.409	0.0149813
682.487	0.0150008
682.566	0.0149344
682.644	0.0149313
682.722	0.0148978
682.800	0.0149426
682.878	0.0149649
682.956	0.0149099
683.034	0.0149320
683.112	0.0149767
683.191	0.0148331
683.269	0.0148511
683.347	0.0148666
683.425	0.0148574
683.503	0.0148345
683.581	0.0150100
683.659	0.0149051
683.737	0.0146801
683.816	0.0147942
683.894	0.0148388
683.972	0.0147704
684.050	0.0148044
684.128	0.0149199
684.206	0.0148944
684.284	0.0148701
684.362	0.0146337
684.441	0.0148624
684.519	0.0148917
684.597	0.0148711
684.675	0.0148265
684.753	0.0150067
684.831	0.0150341
684.909	0.0150017
684.987	0.0151085
685.066	0.0151126
685.144	0.0149966
685.222	0.0149487
685.300	0.0150026
685.378	0.0150370
685.456	0.0152226
685.534	0.0152138
685.612	0.0149131
685.691	0.0149987
685.769	0.0149878
685.847	0.0149862
685.925	0.0149347
686.003	0.0149075
686.081	0.0148581
686.159	0.0149445
686.237	0.0149150
686.316	0.0148344
686.394	0.0148390
686.472	0.0148713
686.550	0.0148764
686.628	0.0148238
686.706	0.0148991
686.784	0.0148017
686.862	0.0147310
686.941	0.0149049
687.019	0.0149388
687.097	0.0150064
687.175	0.0148791
687.253	0.0148888
687.331	0.0150037
687.409	0.0149984
687.487	0.0151315
687.566	0.0151377
687.644	0.0151051
687.722	0.0150961
687.800	0.0150230
687.878	0.0151444
687.956	0.0152348
688.034	0.0152236
688.112	0.0153478
688.191	0.0153333
688.269	0.0152995
688.347	0.0155072
688.425	0.0152814
688.503	0.0152296
688.581	0.0151360
688.659	0.0152289
688.737	0.0153014
688.816	0.0153206
688.894	0.0152884
688.972	0.0151872
689.050	0.0152450
689.128	0.0152394
689.206	0.0151857
689.284	0.0152545
689.362	0.0152979
689.441	0.0153121
689.519	0.0153136
689.597	0.0153887
689.675	0.0154099
689.753	0.0154776
689.831	0.0155470
689.909	0.0155989
689.987	0.0155727
690.066	0.0154982
690.144	0.0154721
690.222	0.0156584
690.300	0.0156063
690.378	0.0155813
690.456	0.0156806
690.534	0.0155785
690.612	0.0155192
690.691	0.0152052
690.769	0.0152830
690.847	0.0152875
690.925	0.0152018
691.003	0.0152711
691.081	0.0151504
691.159	0.0151527
691.237	0.0151703
691.316	0.0150426
691.394	0.0149522
691.472	0.0149687
691.550	0.0150312
691.628	0.0149068
691.706	0.0150434
691.784	0.0150150
691.862	0.0150858
691.941	0.0150043
692.019	0.0150043
692.097	0.0150462
692.175	0.0150414
692.253	0.0152579
692.331	0.0151337
692.409	0.0152857
692.487	0.0153072
692.566	0.0151003
692.644	0.0152869
692.722	0.0152610
692.800	0.0150845
692.878	0.0151739
692.956	0.0152477
693.034	0.0151630
693.112	0.0151765
693.191	0.0152257
693.269	0.0151317
693.347	0.0150865
693.425	0.0151819
693.503	0.0152356
693.581	0.0150470
693.659	0.0151598
693.737	0.0151223
693.816	0.0151326
693.894	0.0151972
693.972	0.0150902
694.050	0.0150698
694.128	0.0150595
694.206	0.0151601
694.284	0.0151962
694.362	0.0150858
694.441	0.0151004
694.519	0.0150034
694.597	0.0150618
694.675	0.0150947
694.753	0.0151299
694.831	0.0150481
694.909	0.0150906
694.987	0.0150644
695.066	0.0150038
695.144	0.0150269
695.222	0.0151185
695.300	0.0149634
695.378	0.0152165
695.456	0.0151778
695.534	0.0150037
695.612	0.0151398
695.691	0.0150539
695.769	0.0152721
695.847	0.0153662
695.925	0.0153300
696.003	0.0152123
696.081	0.0151785
696.159	0.0152820
696.237	0.0153511
696.316	0.0153159
696.394	0.0151932
696.472	0.0152902
696.550	0.0150798
696.628	0.0149771
696.706	0.0150843
696.784	0.0150797
696.862	0.0148005
696.941	0.0147955
697.019	0.0150142
697.097	0.0148837
697.175	0.0150225
697.253	0.0150107
697.331	0.0150486
697.409	0.0150367
697.487	0.0150332
697.566	0.0151818
697.644	0.0151951
697.722	0.0151110
697.800	0.0152264
697.878	0.0151210
697.956	0.0151018
698.034	0.0151929
698.112	0.0151901
698.191	0.0151326
698.269	0.0152062
698.347	0.0151049
698.425	0.0151552
698.503	0.0153024
698.581	0.0152898
698.659	0.0153103
698.737	0.0153076
698.816	0.0152560
698.894	0.0151682
698.972	0.0152879
699.050	0.0152749
699.128	0.0152730
699.206	0.0153172
699.284	0.0152016
699.362	0.0152676
699.441	0.0152283
699.519	0.0153104
699.597	0.0151218
699.675	0.0151404
699.753	0.0151376
699.831	0.0151985
699.909	0.0152151
699.987	0.0153370
700.066	0.0153481
700.144	0.0151973
700.222	0.0153075
700.300	0.0152902
700.378	0.0152503
700.456	0.0152283
700.534	0.0152774
700.612	0.0152316
700.691	0.0153542
700.769	0.0151383
700.847	0.0152021
700.925	0.0152061
701.003	0.0152140
701.081	0.0151552
701.159	0.0151080
701.237	0.0152644
701.316	0.0152749
701.394	0.0152560
701.472	0.0153300
701.550	0.0152322
701.628	0.0152720
701.706	0.0153327
701.784	0.0153288
701.862	0.0154090
701.941	0.0152905
702.019	0.0154669
702.097	0.0154473
702.175	0.0153633
702.253	0.0153449
702.331	0.0152382
702.409	0.0153970
702.487	0.0154041
702.566	0.0153413
702.644	0.0153889
702.722	0.0155420
702.800	0.0153304
702.878	0.0152725
702.956	0.0152020
703.034	0.0154349
703.112	0.0154161
703.191	0.0153441
703.269	0.0153958
703.347	0.0153638
703.425	0.0154280
703.503	0.0153222
703.581	0.0153016
703.659	0.0153468
703.737	0.0153245
703.816	0.0154059
703.894	0.0152347
703.972	0.0151212
704.050	0.0151112
704.128	0.0152192
704.206	0.0152551
704.284	0.0151100
704.362	0.0148626
704.441	0.0148402
704.519	0.0150185
704.597	0.0149775
704.675	0.0149256
704.753	0.0147547
704.831	0.0149714
704.909	0.0149508
704.987	0.0149418
705.066	0.0150773
705.144	0.0148393
705.222	0.0149101
705.300	0.0149197
705.378	0.0149142
705.456	0.0148946
705.534	0.0148831
705.612	0.0148386
705.691	0.0149017
705.769	0.0148543
705.847	0.0148592
705.925	0.0148809
706.003	0.0148063
706.081	0.0147800
706.159	0.0148232
706.237	0.0148612
706.316	0.0147909
706.394	0.0147890
706.472	0.0147897
706.550	0.0147989
706.628	0.0147085
706.706	0.0146650
706.784	0.0147568
706.862	0.0147680
706.941	0.0147980
707.019	0.0147139
707.097	0.0146242
707.175	0.0148985
707.253	0.0147685
707.331	0.0147302
707.409	0.0149320
707.487	0.0147260
707.566	0.0149015
707.644	0.0147898
707.722	0.0149266
707.800	0.0149071
707.878	0.0149538
707.956	0.0148632
708.034	0.0148682
708.112	0.0148981
708.191	0.0147961
708.269	0.0147216
708.347	0.0145795
708.425	0.0146755
708.503	0.0145969
708.581	0.0145272
708.659	0.0144893
708.737	0.0145635
708.816	0.0146774
708.894	0.0146881
708.972	0.0146626
709.050	0.0146641
709.128	0.0147106
709.206	0.0149112
709.284	0.0149532
709.362	0.0150294
709.441	0.0151486
709.519	0.0152131
709.597	0.0151227
709.675	0.0151537
709.753	0.0153486
709.831	0.0151810
709.909	0.0151797
709.987	0.0152023
710.066	0.0151300
710.144	0.0150434
710.222	0.0150607
710.300	0.0149062
710.378	0.0147971
710.456	0.0148061
710.534	0.0146810
710.612	0.0146912
710.691	0.0147770
710.769	0.0148312
710.847	0.0149506
710.925	0.0148846
711.003	0.0149648
711.081	0.0149664
711.159	0.0149658
711.237	0.0151324
711.316	0.0152281
711.394	0.0152267
711.472	0.0154645
711.550	0.0153342
711.628	0.0153482
711.706	0.0152423
711.784	0.0154654
711.862	0.0155463
711.941	0.0155315
712.019	0.0156335
712.097	0.0156464
712.175	0.0157178
712.253	0.0157128
712.331	0.0157368
712.409	0.0157346
712.487	0.0155796
712.566	0.0155899
712.644	0.0155671
712.722	0.0156326
712.800	0.0155811
712.878	0.0155392
712.956	0.0156717
713.034	0.0155283
713.112	0.0155293
713.191	0.0154073
713.269	0.0154014
713.347	0.0154493
713.425	0.0152612
713.503	0.0152105
713.581	0.0151150
713.659	0.0149603
713.737	0.0149693
713.816	0.0148356
713.894	0.0148572
713.972	0.0151357
714.050	0.0149363
714.128	0.0153942
714.206	0.0154852
714.284	0.0153960
714.362	0.0156566
714.441	0.0157880
714.519	0.0158518
714.597	0.0159871
714.675	0.0160727
714.753	0.0161248
714.831	0.0161202
714.909	0.0158154
714.987	0.0159698
715.066	0.0156678
715.144	0.0152927
715.222	0.0151402
715.300	0.0151081
715.378	0.0147343
715.456	0.0145258
715.534	0.0143542
715.612	0.0142474
715.691	0.0141921
715.769	0.0140835
715.847	0.0141104
715.925	0.0142189
716.003	0.0142093
716.081	0.0143179
716.159	0.0145400
716.237	0.0146009
716.316	0.0147410
716.394	0.0147496
716.472	0.0149759
716.550	0.0151188
716.628	0.0150269
716.706	0.0150905
716.784	0.0149146
716.862	0.0151570
716.941	0.0150217
717.019	0.0151439
717.097	0.0151239
717.175	0.0151059
717.253	0.0149466
717.331	0.0151221
717.409	0.0151630
717.487	0.0152662
717.566	0.0150972
717.644	0.0151403
717.722	0.0151296
717.800	0.0149760
717.878	0.0149521
717.956	0.0151278
718.034	0.0150224
718.112	0.0149955
718.191	0.0150689
718.269	0.0149128
718.347	0.0149656
718.425	0.0149162
718.503	0.0148888
718.581	0.0149953
718.659	0.0148480
718.737	0.0149597
718.816	0.0150490
718.894	0.0150970
718.972	0.0149950
719.050	0.0152057
719.128	0.0151559
719.206	0.0152509
719.284	0.0150965
719.362	0.0149969
719.441	0.0149877
719.519	0.0153059
719.597	0.0152109
719.675	0.0152386
719.753	0.0150122
719.831	0.0150075
719.909	0.0151727
719.987	0.0151595
720.066	0.0150004
720.144	0.0152330
720.222	0.0151931
720.300	0.0150759
720.378	0.0152393
720.456	0.0152797
720.534	0.0155633
720.612	0.0154809
720.691	0.0154643
720.769	0.0154820
720.847	0.0154845
720.925	0.0154457
721.003	0.0154055
721.081	0.0155788
721.159	0.0153571
721.237	0.0153040
721.316	0.0154127
721.394	0.0152728
721.472	0.0152691
721.550	0.0152265
721.628	0.0152921
721.706	0.0151592
721.784	0.0152075
721.862	0.0152458
721.941	0.0151727
722.019	0.0152589
722.097	0.0151849
722.175	0.0153582
722.253	0.0154492
722.331	0.0154417
722.409	0.0154082
722.487	0.0153197
722.566	0.0154359
722.644	0.0154681
722.722	0.0154281
722.800	0.0153250
722.878	0.0154156
722.956	0.0153093
723.034	0.0152779
723.112	0.0152831
723.191	0.0151579
723.269	0.0152144
723.347	0.0150729
723.425	0.0150787
723.503	0.0149879
723.581	0.0149591
723.659	0.0150359
723.737	0.0149386
723.816	0.0149205
723.894	0.0149131
723.972	0.0149026
724.050	0.0147907
724.128	0.0147853
724.206	0.0149000
724.284	0.0146999
724.362	0.0148372
724.441	0.0148232
724.519	0.0148426
724.597	0.0150162
724.675	0.0150361
724.753	0.0149298
724.831	0.0149056
724.909	0.0150027
724.987	0.0150758
725.066	0.0151050
725.144	0.0149379
725.222	0.0151807
725.300	0.0152444
725.378	0.0150821
725.456	0.0152550
725.534	0.0152159
725.612	0.0151549
725.691	0.0151418
725.769	0.0152549
725.847	0.0153981
725.925	0.0153252
726.003	0.0153226
726.081	0.0151936
726.159	0.0150578
726.237	0.0150100
726.316	0.0152819
726.394	0.0152991
726.472	0.0152381
726.550	0.0151360
726.628	0.0153182
726.706	0.0152066
726.784	0.0151466
726.862	0.0152280
726.941	0.0152544
727.019	0.0151849
727.097	0.0150493
727.175	0.0151926
727.253	0.0152049
727.331	0.0151846
727.409	0.0152074
727.487	0.0150072
727.566	0.0151600
727.644	0.0152387
727.722	0.0149699
727.800	0.0151122
727.878	0.0152166
727.956	0.0150907
728.034	0.0152045
728.112	0.0152336
728.191	0.0151133
728.269	0.0151467
728.347	0.0153105
728.425	0.0152350
728.503	0.0150560
728.581	0.0150645
728.659	0.0149594
728.737	0.0150025
728.816	0.0150024
728.894	0.0149068
728.972	0.0149142
729.050	0.0148746
729.128	0.0147737
729.206	0.0147590
729.284	0.0148666
729.362	0.0148312
729.441	0.0147311
729.519	0.0147422
729.597	0.0147828
729.675	0.0148449
729.753	0.0149063
729.831	0.0148945
729.909	0.0149751
729.987	0.0149990
730.066	0.0150400
730.144	0.0149229
730.222	0.0149439
730.300	0.0149269
730.378	0.0148187
730.456	0.0149478
730.534	0.0150081
730.612	0.0150742
730.691	0.0150642
730.769	0.0149406
730.847	0.0149977
730.925	0.0151189
731.003	0.0150280
731.081	0.0150139
731.159	0.0149862
731.237	0.0149785
731.316	0.0150583
731.394	0.0151175
731.472	0.0150868
731.550	0.0149413
731.628	0.0149126
731.706	0.0150568
731.784	0.0150661
731.862	0.0150220
731.941	0.0149593
732.019	0.0150748
732.097	0.0150609
732.175	0.0148530
732.253	0.0150172
732.331	0.0149614
732.409	0.0150069
732.487	0.0150166
732.566	0.0150224
732.644	0.0150663
732.722	0.0150638
732.800	0.0151463
732.878	0.0150545
732.956	0.0151921
733.034	0.0152231
733.112	0.0152464
733.191	0.0152795
733.269	0.0153131
733.347	0.0151941
733.425	0.0152439
733.503	0.0154321
733.581	0.0153068
733.659	0.0153464
733.737	0.0152506
733.816	0.0150636
733.894	0.0151237
733.972	0.0151354
734.050	0.0152474
734.128	0.0150648
734.206	0.0150732
734.284	0.0151886
734.362	0.0150565
734.441	0.0150249
734.519	0.0151273
734.597	0.0150771
734.675	0.0151929
734.753	0.0152103
734.831	0.0152372
734.909	0.0152594
734.987	0.0151876
735.066	0.0151727
735.144	0.0152989
735.222	0.0153201
735.300	0.0152197
735.378	0.0151631
735.456	0.0152499
735.534	0.0152194
735.612	0.0152447
735.691	0.0150662
735.769	0.0152045
735.847	0.0150938
735.925	0.0150764
736.003	0.0150646
736.081	0.0150626
736.159	0.0150644
736.237	0.0149892
736.316	0.0151015
736.394	0.0149931
736.472	0.0151247
736.550	0.0151682
736.628	0.0152458
736.706	0.0152282
736.784	0.0152975
736.862	0.0151339
736.941	0.0150801
737.019	0.0152132
737.097	0.0151760
737.175	0.0149614
737.253	0.0150246
737.331	0.0151477
737.409	0.0150049
737.487	0.0151319
737.566	0.0150042
737.644	0.0150935
737.722	0.0151992
737.800	0.0150780
737.878	0.0150716
737.956	0.0151134
738.034	0.0151568
738.112	0.0151806
738.191	0.0150802
738.269	0.0150977
738.347	0.0151265
738.425	0.0150462
738.503	0.0150716
738.581	0.0149531
738.659	0.0149699
738.737	0.0148788
738.816	0.0148950
738.894	0.0147924
738.972	0.0147755
739.050	0.0147981
739.128	0.0146227
739.206	0.0146912
739.284	0.0146949
739.362	0.0146841
739.441	0.0146587
739.519	0.0145374
739.597	0.0144522
739.675	0.0144707
739.753	0.0145189
739.831	0.0144593
739.909	0.0143566
739.987	0.0144686
740.066	0.0143984
740.144	0.0144571
740.222	0.0144305
740.300	0.0144273
740.378	0.0144891
740.456	0.0143964
740.534	0.0144521
740.612	0.0145414
740.691	0.0145743
740.769	0.0145303
740.847	0.0143941
740.925	0.0144820
741.003	0.0145631
741.081	0.0144957
741.159	0.0144339
741.237	0.0145109
741.316	0.0145966
741.394	0.0146085
741.472	0.0145142
741.550	0.0145432
741.628	0.0145930
741.706	0.0147576
741.784	0.0146129
741.862	0.0147523
741.941	0.0149149
742.019	0.0147482
742.097	0.0149878
742.175	0.0149991
742.253	0.0149462
742.331	0.0152203
742.409	0.0150626
742.487	0.0151624
742.566	0.0151289
742.644	0.0151729
742.722	0.0151362
742.800	0.0152440
742.878	0.0152362
742.956	0.0151802
743.034	0.0151726
743.112	0.0150896
743.191	0.0151180
743.269	0.0151804
743.347	0.0151877
743.425	0.0151978
743.503	0.0151823
743.581	0.0151323
743.659	0.0153678
743.737	0.0154204
743.816	0.0153376
743.894	0.0153873
743.972	0.0153370
744.050	0.0153275
744.128	0.0153729
744.206	0.0154724
744.284	0.0155708
744.362	0.0153820
744.441	0.0155676
744.519	0.0156347
744.597	0.0155657
744.675	0.0153271
744.753	0.0155034
744.831	0.0155761
744.909	0.0155182
744.987	0.0155701
745.066	0.0155062
745.144	0.0154962
745.222	0.0154564
745.300	0.0154420
745.378	0.0154404
745.456	0.0153957
745.534	0.0155542
745.612	0.0154071
745.691	0.0153183
745.769	0.0154929
745.847	0.0153698
745.925	0.0154503
746.003	0.0156773
746.081	0.0155499
746.159	0.0153984
746.237	0.0155333
746.316	0.0155192
746.394	0.0154796
746.472	0.0152628
746.550	0.0153582
746.628	0.0152499
746.706	0.0153159
746.784	0.0152857
746.862	0.0152211
746.941	0.0153049
747.019	0.0152386
747.097	0.0152279
747.175	0.0149915
747.253	0.0150178
747.331	0.0149142
747.409	0.0150582
747.487	0.0149767
747.566	0.0149773
747.644	0.0149413
747.722	0.0150745
747.800	0.0149281
747.878	0.0149899
747.956	0.0150526
748.034	0.0150358
748.112	0.0151288
748.191	0.0149782
748.269	0.0151051
748.347	0.0151434
748.425	0.0150555
748.503	0.0150965
748.581	0.0151234
748.659	0.0150842
748.737	0.0150134
748.816	0.0150573
748.894	0.0149384
748.972	0.0149234
749.050	0.0148569
749.128	0.0147924
749.206	0.0149592
749.284	0.0149580
749.362	0.0148133
749.441	0.0148589
749.519	0.0148255
749.597	0.0148347
749.675	0.0149112
749.753	0.0149769
749.831	0.0147452
749.909	0.0149266
749.987	0.0148660
750.066	0.0149208
750.144	0.0149231
750.222	0.0148291
750.300	0.0148962
750.378	0.0149526
750.456	0.0148477
750.534	0.0148369
750.612	0.0147630
750.691	0.0148215
750.769	0.0149006
750.847	0.0147893
750.925	0.0147845
751.003	0.0148919
751.081	0.0148057
751.159	0.0148759
751.237	0.0148035
751.316	0.0149416
751.394	0.0148992
751.472	0.0149524
751.550	0.0149181
751.628	0.0149664
751.706	0.0147678
751.784	0.0147145
751.862	0.0147284
751.941	0.0149464
752.019	0.0148647
752.097	0.0148830
752.175	0.0148226
752.253	0.0148976
752.331	0.0149025
752.409	0.0148692
752.487	0.0149605
752.566	0.0148396
752.644	0.0148923
752.722	0.0149397
752.800	0.0149918
752.878	0.0150082
752.956	0.0149318
753.034	0.0147984
753.112	0.0151430
753.191	0.0149578
753.269	0.0148153
753.347	0.0150264
753.425	0.0151831
753.503	0.0149957
753.581	0.0150340
753.659	0.0151579
753.737	0.0152896
753.816	0.0153004
753.894	0.0151606
753.972	0.0151684
754.050	0.0152345
754.128	0.0152924
754.206	0.0152778
754.284	0.0151112
754.362	0.0153101
754.441	0.0151560
754.519	0.0152701
754.597	0.0152731
754.675	0.0153119
754.753	0.0153305
754.831	0.0152917
754.909	0.0155135
754.987	0.0153648
755.066	0.0154322
755.144	0.0154466
755.222	0.0152664
755.300	0.0153738
755.378	0.0155038
755.456	0.0154116
755.534	0.0153896
755.612	0.0153165
755.691	0.0152438
755.769	0.0152377
755.847	0.0151659
755.925	0.0153231
756.003	0.0153300
756.081	0.0152110
756.159	0.0152861
756.237	0.0152544
756.316	0.0151577
756.394	0.0152832
756.472	0.0153473
756.550	0.0152062
756.628	0.0152614
756.706	0.0153565
756.784	0.0153260
756.862	0.0152743
756.941	0.0151630
757.019	0.0150903
757.097	0.0152860
757.175	0.0151862
757.253	0.0151394
757.331	0.0150788
757.409	0.0150776
757.487	0.0151403
757.566	0.0151562
757.644	0.0151101
757.722	0.0150758
757.800	0.0149596
757.878	0.0152474
757.956	0.0152987
758.034	0.0152632
758.112	0.0151460
758.191	0.0152171
758.269	0.0151047
758.347	0.0151604
758.425	0.0152714
758.503	0.0151832
758.581	0.0151376
758.659	0.0150621
758.737	0.0150307
758.816	0.0150270
758.894	0.0150049
758.972	0.0149927
759.050	0.0151439
759.128	0.0150699
759.206	0.0150689
759.284	0.0150288
759.362	0.0150648
759.441	0.0149296
759.519	0.0150598
759.597	0.0151100
759.675	0.0150003
759.753	0.0148743
759.831	0.0151096
759.909	0.0150473
759.987	0.0149985
760.066	0.0149876
760.144	0.0149805
760.222	0.0149765
760.300	0.0150170
760.378	0.0149237
760.456	0.0148852
760.534	0.0149950
760.612	0.0149059
760.691	0.0149801
760.769	0.0150391
760.847	0.0149579
760.925	0.0150349
761.003	0.0150352
761.081	0.0148048
761.159	0.0149173
761.237	0.0150573
761.316	0.0150128
761.394	0.0150059
761.472	0.0148328
761.550	0.0150243
761.628	0.0149644
761.706	0.0149889
761.784	0.0149399
761.862	0.0149848
761.941	0.0149857
762.019	0.0148828
762.097	0.0149247
762.175	0.0148630
762.253	0.0148929
762.331	0.0149174
762.409	0.0147615
762.487	0.0151260
762.566	0.0149995
762.644	0.0149606
762.722	0.0150661
762.800	0.0149650
762.878	0.0150057
762.956	0.0150887
763.034	0.0151264
763.112	0.0151237
763.191	0.0151157
763.269	0.0150070
763.347	0.0151009
763.425	0.0152074
763.503	0.0150739
763.581	0.0150311
763.659	0.0150122
763.737	0.0149348
763.816	0.0151566
763.894	0.0151502
763.972	0.0151048
764.050	0.0152139
764.128	0.0151109
764.206	0.0151268
764.284	0.0151907
764.362	0.0153201
764.441	0.0152500
764.519	0.0154190
764.597	0.0154133
764.675	0.0153517
764.753	0.0154171
764.831	0.0155271
764.909	0.0154145
764.987	0.0154536
765.066	0.0155839
765.144	0.0156360
765.222	0.0155606
765.300	0.0155607
765.378	0.0156475
765.456	0.0154497
765.534	0.0155782
765.612	0.0155413
765.691	0.0153452
765.769	0.0154457
765.847	0.0155434
765.925	0.0154248
766.003	0.0154691
766.081	0.0153084
766.159	0.0152818
766.237	0.0151752
766.316	0.0153506
766.394	0.0152892
766.472	0.0151444
766.550	0.0151006
766.628	0.0153664
766.706	0.0151656
766.784	0.0150835
766.862	0.0151637
766.941	0.0154123
767.019	0.0153221
767.097	0.0151238
767.175	0.0151315
767.253	0.0151975
767.331	0.0152523
767.409	0.0152570
767.487	0.0152612
767.566	0.0151028
767.644	0.0151823
767.722	0.0151512
767.800	0.0150533
767.878	0.0150422
767.956	0.0149798
768.034	0.0148560
768.112	0.0149878
768.191	0.0148890
768.269	0.0148766
768.347	0.0149625
768.425	0.0149499
768.503	0.0149627
768.581	0.0150299
768.659	0.0149949
768.737	0.0150656
768.816	0.0148650
768.894	0.0150143
768.972	0.0150810
769.050	0.0150595
769.128	0.0151746
769.206	0.0152342
769.284	0.0152505
769.362	0.0151053
769.441	0.0152829
769.519	0.0152831
769.597	0.0151857
769.675	0.0152908
769.753	0.0152279
769.831	0.0152061
769.909	0.0152189
769.987	0.0153088
770.066	0.0152683
770.144	0.0151389
770.222	0.0152042
770.300	0.0152158
770.378	0.0150925
770.456	0.0149580
770.534	0.0150574
770.612	0.0149542
770.691	0.0150270
770.769	0.0150309
770.847	0.0149358
770.925	0.0149904
771.003	0.0150021
771.081	0.0149666
771.159	0.0149796
771.237	0.0150383
771.316	0.0149645
771.394	0.0150054
771.472	0.0149165
771.550	0.0150047
771.628	0.0152223
771.706	0.0150463
771.784	0.0150036
771.862	0.0149464
771.941	0.0150007
772.019	0.0149010
772.097	0.0149784
772.175	0.0149446
772.253	0.0150465
772.331	0.0150599
772.409	0.0149532
772.487	0.0149400
772.566	0.0149334
772.644	0.0149310
772.722	0.0149574
772.800	0.0149763
772.878	0.0149648
772.956	0.0149886
773.034	0.0149431
773.112	0.0149430
773.191	0.0148808
773.269	0.0150162
773.347	0.0150996
773.425	0.0149829
773.503	0.0149129
773.581	0.0151309
773.659	0.0150166
773.737	0.0150497
773.816	0.0149770
773.894	0.0150158
773.972	0.0150706
774.050	0.0150320
774.128	0.0151542
774.206	0.0150795
774.284	0.0150731
774.362	0.0151652
774.441	0.0150256
774.519	0.0151341
774.597	0.0152040
774.675	0.0150731
774.753	0.0150068
774.831	0.0151068
774.909	0.0150350
774.987	0.0151125
775.066	0.0150076
775.144	0.0152228
775.222	0.0151626
775.300	0.0151541
775.378	0.0152903
775.456	0.0153458
775.534	0.0153214
775.612	0.0152869
775.691	0.0153825
775.769	0.0154293
775.847	0.0154005
775.925	0.0153019
776.003	0.0152763
776.081	0.0154061
776.159	0.0154556
776.237	0.0155879
776.316	0.0154401
776.394	0.0152977
776.472	0.0152936
776.550	0.0153003
776.628	0.0154106
776.706	0.0155414
776.784	0.0153893
776.862	0.0153757
776.941	0.0154346
777.019	0.0154867
777.097	0.0153930
777.175	0.0155155
777.253	0.0153056
777.331	0.0154928
777.409	0.0154747
777.487	0.0154569
777.566	0.0155130
777.644	0.0155093
777.722	0.0155561
777.800	0.0154530
777.878	0.0154547
777.956	0.0156582
778.034	0.0155674
778.112	0.0155651
778.191	0.0156802
778.269	0.0155798
778.347	0.0154527
778.425	0.0156614
778.503	0.0155184
778.581	0.0156158
778.659	0.0155801
778.737	0.0156008
778.816	0.0156232
778.894	0.0154374
778.972	0.0153904
779.050	0.0154154
779.128	0.0152951
779.206	0.0152807
779.284	0.0153261
779.362	0.0152284
779.441	0.0151402
779.519	0.0151043
779.597	0.0150159
779.675	0.0150749
779.753	0.0150029
779.831	0.0149391
779.909	0.0150070
779.987	0.0149343
780.066	0.0150601
780.144	0.0148760
780.222	0.0149737
780.300	0.0149691
780.378	0.0150356
780.456	0.0149104
780.534	0.0147628
780.612	0.0149806
780.691	0.0149032
780.769	0.0150034
780.847	0.0149469
780.925	0.0150127
781.003	0.0148886
781.081	0.0150412
781.159	0.0149482
781.237	0.0150825
781.316	0.0149886
781.394	0.0150454
781.472	0.0150294
781.550	0.0149861
781.628	0.0150085
781.706	0.0149952
781.784	0.0150312
781.862	0.0149755
781.941	0.0149763
782.019	0.0148038
782.097	0.0149053
782.175	0.0148103
782.253	0.0147824
782.331	0.0148510
782.409	0.0147943
782.487	0.0146883
782.566	0.0147525
782.644	0.0146660
782.722	0.0147643
782.800	0.0148040
782.878	0.0148713
782.956	0.0148341
783.034	0.0147212
783.112	0.0147427
783.191	0.0147633
783.269	0.0148029
783.347	0.0149220
783.425	0.0149223
783.503	0.0151185
783.581	0.0149873
783.659	0.0149385
783.737	0.0150756
783.816	0.0150832
783.894	0.0152969
783.972	0.0152908
784.050	0.0152655
784.128	0.0153306
784.206	0.0154665
784.284	0.0154621
784.362	0.0154637
784.441	0.0154319
784.519	0.0154503
784.597	0.0154568
784.675	0.0154971
784.753	0.0155895
784.831	0.0154915
784.909	0.0154957
784.987	0.0156300
785.066	0.0154769
785.144	0.0153834
785.222	0.0154437
785.300	0.0154267
785.378	0.0153935
785.456	0.0153170
785.534	0.0152623
785.612	0.0153868
785.691	0.0153249
785.769	0.0152559
785.847	0.0152184
785.925	0.0152444
786.003	0.0152838
786.081	0.0153839
786.159	0.0155063
786.237	0.0154427
786.316	0.0155418
786.394	0.0155354
786.472	0.0154757
786.550	0.0155323
786.628	0.0157800
786.706	0.0157025
786.784	0.0157324
786.862	0.0157664
786.941	0.0158310
787.019	0.0158427
787.097	0.0157958
787.175	0.0157078
787.253	0.0158289
787.331	0.0158717
787.409	0.0156884
787.487	0.0156828
787.566	0.0156947
787.644	0.0156626
787.722	0.0154572
787.800	0.0155066
787.878	0.0154079
787.956	0.0153005
788.034	0.0153415
788.112	0.0153011
788.191	0.0154459
788.269	0.0153818
788.347	0.0151233
788.425	0.0152890
788.503	0.0151246
788.581	0.0152885
788.659	0.0152341
788.737	0.0151832
788.816	0.0152308
788.894	0.0152486
788.972	0.0152026
789.050	0.0151244
789.128	0.0151131
789.206	0.0149865
789.284	0.0150089
789.362	0.0151042
789.441	0.0151051
789.519	0.0151098
789.597	0.0151247
789.675	0.0150811
789.753	0.0150383
789.831	0.0150146
789.909	0.0150851
789.987	0.0150729
790.066	0.0151254
790.144	0.0149548
790.222	0.0151171
790.300	0.0151897
790.378	0.0150327
790.456	0.0152471
790.534	0.0152395
790.612	0.0153038
790.691	0.0151573
790.769	0.0151763
790.847	0.0152592
790.925	0.0152491
791.003	0.0153078
791.081	0.0152360
791.159	0.0152082
791.237	0.0152374
791.316	0.0152465
791.394	0.0152420
791.472	0.0151166
791.550	0.0152075
791.628	0.0151597
791.706	0.0150562
791.784	0.0152104
791.862	0.0149887
791.941	0.0151524
792.019	0.0150191
792.097	0.0150645
792.175	0.0150158
792.253	0.0151343
792.331	0.0151712
792.409	0.0148343
792.487	0.0148752
792.566	0.0149671
792.644	0.0150936
792.722	0.0146938
792.800	0.0148983
792.878	0.0150068
792.956	0.0150273
793.034	0.0150457
793.112	0.0150819
793.191	0.0148934
793.269	0.0147675
793.347	0.0149184
793.425	0.0147981
793.503	0.0147910
793.581	0.0149785
793.659	0.0148259
793.737	0.0148743
793.816	0.0149532
793.894	0.0146550
793.972	0.0146968
794.050	0.0148322
794.128	0.0148273
794.206	0.0147395
794.284	0.0147073
794.362	0.0147791
794.441	0.0147140
794.519	0.0147005
794.597	0.0148986
794.675	0.0148035
794.753	0.0147610
794.831	0.0149526
794.909	0.0148162
794.987	0.0148959
795.066	0.0149276
795.144	0.0149258
795.222	0.0148916
795.300	0.0148901
795.378	0.0148765
795.456	0.0147916
795.534	0.0149532
795.612	0.0147744
795.691	0.0148714
795.769	0.0149638
795.847	0.0149371
795.925	0.0148885
796.003	0.0147179
796.081	0.0147644
796.159	0.0149072
796.237	0.0148647
796.316	0.0149240
796.394	0.0148501
796.472	0.0150396
796.550	0.0150457
796.628	0.0150571
796.706	0.0149779
796.784	0.0151497
796.862	0.0152634
796.941	0.0151629
797.019	0.0150960
797.097	0.0152127
797.175	0.0152898
797.253	0.0153569
797.331	0.0153645
797.409	0.0152501
797.487	0.0151972
797.566	0.0153291
797.644	0.0152592
797.722	0.0155495
797.800	0.0154567
797.878	0.0153421
797.956	0.0154230
798.034	0.0155257
798.112	0.0154868
798.191	0.0153241
798.269	0.0153203
798.347	0.0155602
798.425	0.0152792
798.503	0.0152811
798.581	0.0153902
798.659	0.0155311
798.737	0.0152638
798.816	0.0152141
798.894	0.0153616
798.972	0.0153187
799.050	0.0153632
799.128	0.0153696
799.206	0.0154727
799.284	0.0154575
799.362	0.0155093
799.441	0.0155178
799.519	0.0154421
799.597	0.0154179
799.675	0.0153481
799.753	0.0154497
799.831	0.0154428
799.909	0.0154554
799.987	0.0154176
800.066	0.0154195
800.144	0.0153392
800.222	0.0153269
800.300	0.0153420
800.378	0.0154391
800.456	0.0154095
800.534	0.0152744
800.612	0.0155475
800.691	0.0153370
800.769	0.0153799
800.847	0.0153907
800.925	0.0153680
801.003	0.0152448
801.081	0.0154351
801.159	0.0152648
801.237	0.0153434
801.316	0.0152711
801.394	0.0151952
801.472	0.0152129
801.550	0.0153484
801.628	0.0152749
801.706	0.0151772
801.784	0.0152171
801.862	0.0153170
801.941	0.0150831
802.019	0.0152967
802.097	0.0152645
802.175	0.0150282
802.253	0.0151174
802.331	0.0150979
802.409	0.0150607
802.487	0.0150327
802.566	0.0151459
802.644	0.0151340
802.722	0.0150848
802.800	0.0151649
802.878	0.0151254
802.956	0.0150427
803.034	0.0149017
803.112	0.0149836
803.191	0.0149851
803.269	0.0151986
803.347	0.0151100
803.425	0.0152484
803.503	0.0150755
803.581	0.0150119
803.659	0.0150285
803.737	0.0149900
803.816	0.0150250
803.894	0.0149890
803.972	0.0148457
804.050	0.0148643
804.128	0.0149000
804.206	0.0148385
804.284	0.0148566
804.362	0.0148563
804.441	0.0148425
804.519	0.0147642
804.597	0.0148756
804.675	0.0149288
804.753	0.0147189
804.831	0.0147391
804.909	0.0148820
804.987	0.0149328
805.066	0.0149838
805.144	0.0149435
805.222	0.0149454
805.300	0.0147644
805.378	0.0150040
805.456	0.0150605
805.534	0.0152083
805.612	0.0151237
805.691	0.0151428
805.769	0.0151737
805.847	0.0152859
805.925	0.0152420
806.003	0.0152407
806.081	0.0153919
806.159	0.0154843
806.237	0.0153613
806.316	0.0155685
806.394	0.0155630
806.472	0.0156697
806.550	0.0157438
806.628	0.0155659
806.706	0.0155527
806.784	0.0155959
806.862	0.0155216
806.941	0.0156071
807.019	0.0155676
807.097	0.0155213
807.175	0.0154742
807.253	0.0154610
807.331	0.0154210
807.409	0.0155002
807.487	0.0152940
807.566	0.0153871
807.644	0.0154765
807.722	0.0153963
807.800	0.0155196
807.878	0.0155309
807.956	0.0154056
808.034	0.0153993
808.112	0.0152933
808.191	0.0155045
808.269	0.0154224
808.347	0.0152068
808.425	0.0152943
808.503	0.0153054
808.581	0.0151788
808.659	0.0153934
808.737	0.0152084
808.816	0.0150935
808.894	0.0152857
808.972	0.0151929
809.050	0.0151523
809.128	0.0153268
809.206	0.0153894
809.284	0.0152686
809.362	0.0154250
809.441	0.0153376
809.519	0.0154548
809.597	0.0155123
809.675	0.0155001
809.753	0.0153901
809.831	0.0156252
809.909	0.0154518
809.987	0.0153097
810.066	0.0153259
810.144	0.0153816
810.222	0.0152615
810.300	0.0154129
810.378	0.0153631
810.456	0.0153792
810.534	0.0152972
810.612	0.0153358
810.691	0.0151693
810.769	0.0152757
810.847	0.0153062
810.925	0.0153166
811.003	0.0150762
811.081	0.0152746
811.159	0.0152478
811.237	0.0151344
811.316	0.0152144
811.394	0.0150663
811.472	0.0149463
811.550	0.0151163
811.628	0.0152007
811.706	0.0152116
811.784	0.0150930
811.862	0.0151580
811.941	0.0151090
812.019	0.0149256
812.097	0.0147659
812.175	0.0149643
812.253	0.0149271
812.331	0.0149043
812.409	0.0149280
812.487	0.0149394
812.566	0.0150251
812.644	0.0150752
812.722	0.0150874
812.800	0.0149065
812.878	0.0149377
812.956	0.0150365
813.034	0.0150178
813.112	0.0150619
813.191	0.0151151
813.269	0.0151396
813.347	0.0150323
813.425	0.0150736
813.503	0.0151085
813.581	0.0152462
813.659	0.0151402
813.737	0.0150578
813.816	0.0152477
813.894	0.0151510
813.972	0.0151813
814.050	0.0153385
814.128	0.0151724
814.206	0.0153271
814.284	0.0152322
814.362	0.0151898
814.441	0.0151093
814.519	0.0152024
814.597	0.0151092
814.675	0.0150269
814.753	0.0150640
814.831	0.0150011
814.909	0.0149770
814.987	0.0148459
815.066	0.0149722
815.144	0.0149404
815.222	0.0148612
815.300	0.0148360
815.378	0.0148820
815.456	0.0147890
815.534	0.0148965
815.612	0.0149391
815.691	0.0148864
815.769	0.0149619
815.847	0.0148286
815.925	0.0148636
816.003	0.0149234
816.081	0.0149194
816.159	0.0147982
816.237	0.0147872
816.316	0.0148830
816.394	0.0148199
816.472	0.0148738
816.550	0.0147980
816.628	0.0147274
816.706	0.0146835
816.784	0.0149258
816.862	0.0147174
816.941	0.0146204
817.019	0.0147065
817.097	0.0147217
817.175	0.0145810
817.253	0.0145795
817.331	0.0146843
817.409	0.0145313
817.487	0.0144920
817.566	0.0146333
817.644	0.0148272
817.722	0.0145727
817.800	0.0144831
817.878	0.0145921
817.956	0.0147346
818.034	0.0147955
818.112	0.0147874
818.191	0.0148259
818.269	0.0148756
818.347	0.0148832
818.425	0.0148728
818.503	0.0149243
818.581	0.0148265
818.659	0.0150967
818.737	0.0149271
818.816	0.0150346
818.894	0.0148263
818.972	0.0148957
819.050	0.0149221
819.128	0.0147858
819.206	0.0148246
819.284	0.0147097
819.362	0.0147034
819.441	0.0146295
819.519	0.0147120
819.597	0.0146529
819.675	0.0147456
819.753	0.0147874
819.831	0.0148260
819.909	0.0148137
819.987	0.0148158
820.066	0.0150169
820.144	0.0149738
820.222	0.0151644
820.300	0.0152203
820.378	0.0153556
820.456	0.0151479
820.534	0.0153043
820.612	0.0154935
820.691	0.0154459
820.769	0.0153365
820.847	0.0154649
820.925	0.0154764
821.003	0.0154526
821.081	0.0153325
821.159	0.0153725
821.237	0.0154160
821.316	0.0153999
821.394	0.0153790
821.472	0.0152546
821.550	0.0154443
821.628	0.0153477
821.706	0.0152535
821.784	0.0152488
821.862	0.0151891
821.941	0.0152541
822.019	0.0151001
822.097	0.0152178
822.175	0.0152149
822.253	0.0150480
822.331	0.0151272
822.409	0.0152006
822.487	0.0152651
822.566	0.0151756
822.644	0.0152099
822.722	0.0153090
822.800	0.0153155
822.878	0.0151970
822.956	0.0152329
823.034	0.0154797
823.112	0.0153045
823.191	0.0153223
823.269	0.0153063
823.347	0.0151690
823.425	0.0151933
823.503	0.0151324
823.581	0.0152171
823.659	0.0150497
823.737	0.0151163
823.816	0.0151817
823.894	0.0151578
823.972	0.0149633
824.050	0.0151359
824.128	0.0149888
824.206	0.0150723
824.284	0.0149383
824.362	0.0150265
824.441	0.0150384
824.519	0.0150378
824.597	0.0148109
824.675	0.0149282
824.753	0.0149789
824.831	0.0148904
824.909	0.0148712
824.987	0.0150662
825.066	0.0150842
825.144	0.0150391
825.222	0.0147855
825.300	0.0149702
825.378	0.0151367
825.456	0.0151414
825.534	0.0150684
825.612	0.0151737
825.691	0.0150565
825.769	0.0151005
825.847	0.0150739
825.925	0.0150893
826.003	0.0150626
826.081	0.0151686
826.159	0.0150552
826.237	0.0148986
826.316	0.0150970
826.394	0.0150101
826.472	0.0149197
826.550	0.0149593
826.628	0.0150280
826.706	0.0149093
826.784	0.0148938
826.862	0.0148583
826.941	0.0149277
827.019	0.0149758
827.097	0.0150330
827.175	0.0148270
827.253	0.0149089
827.331	0.0149329
827.409	0.0150736
827.487	0.0149046
827.566	0.0148224
827.644	0.0149420
827.722	0.0149677
827.800	0.0151102
827.878	0.0149987
827.956	0.0150733
828.034	0.0150833
828.112	0.0149802
828.191	0.0150801
828.269	0.0148962
828.347	0.0150442
828.425	0.0150701
828.503	0.0150836
828.581	0.0151715
828.659	0.0150708
828.737	0.0151407
828.816	0.0150922
828.894	0.0150237
828.972	0.0149899
829.050	0.0149993
829.128	0.0149022
829.206	0.0149120
829.284	0.0149032
829.362	0.0147796
829.441	0.0149066
829.519	0.0147518
829.597	0.0148341
829.675	0.0148092
829.753	0.0146028
829.831	0.0146735
829.909	0.0148123
829.987	0.0146371
830.066	0.0145831
830.144	0.0146333
830.222	0.0148147
830.300	0.0148419
830.378	0.0146905
830.456	0.0147467
830.534	0.0147327
830.612	0.0147559
830.691	0.0147149
830.769	0.0149031
830.847	0.0147547
830.925	0.0147469
831.003	0.0149178
831.081	0.0148584
831.159	0.0147678
831.237	0.0147771
831.316	0.0147762
831.394	0.0147614
831.472	0.0148385
831.550	0.0149376
831.628	0.0148913
831.706	0.0149187
831.784	0.0150243
831.862	0.0148755
831.941	0.0150205
832.019	0.0150534
832.097	0.0150231
832.175	0.0150108
832.253	0.0150678
832.331	0.0152831
832.409	0.0151717
832.487	0.0149828
832.566	0.0149866
832.644	0.0150770
832.722	0.0149751
832.800	0.0150881
832.878	0.0152082
832.956	0.0150839
833.034	0.0150201
833.112	0.0150889
833.191	0.0152426
833.269	0.0151960
833.347	0.0151940
833.425	0.0152342
833.503	0.0150602
833.581	0.0152023
833.659	0.0152690
833.737	0.0150874
833.816	0.0151335
833.894	0.0152074
833.972	0.0149687
834.050	0.0150877
834.128	0.0150718
834.206	0.0149719
834.284	0.0149525
834.362	0.0150398
834.441	0.0148022
834.519	0.0148765
834.597	0.0151035
834.675	0.0148683
834.753	0.0149558
834.831	0.0149081
834.909	0.0149866
834.987	0.0149331
835.066	0.0148615
835.144	0.0149376
835.222	0.0150497
835.300	0.0149783
835.378	0.0150587
835.456	0.0150109
835.534	0.0151188
835.612	0.0150822
835.691	0.0150946
835.769	0.0150924
835.847	0.0150947
835.925	0.0151093
836.003	0.0149627
836.081	0.0151830
836.159	0.0152164
836.237	0.0150151
836.316	0.0151004
836.394	0.0151875
836.472	0.0152743
836.550	0.0151730
836.628	0.0152011
836.706	0.0150787
836.784	0.0151123
836.862	0.0151292
836.941	0.0151581
837.019	0.0148432
837.097	0.0148251
837.175	0.0150125
837.253	0.0150391
837.331	0.0149888
837.409	0.0148866
837.487	0.0148727
837.566	0.0146987
837.644	0.0148220
837.722	0.0148165
837.800	0.0147376
837.878	0.0148289
837.956	0.0149110
838.034	0.0147365
838.112	0.0148441
838.191	0.0148227
838.269	0.0148278
838.347	0.0148647
838.425	0.0148318
838.503	0.0147304
838.581	0.0148785
838.659	0.0147759
838.737	0.0148527
838.816	0.0148051
838.894	0.0149488
838.972	0.0149570
839.050	0.0149323
839.128	0.0148402
839.206	0.0149741
839.284	0.0148003
839.362	0.0149612
839.441	0.0150145
839.519	0.0148640
839.597	0.0149201
839.675	0.0150625
839.753	0.0150876
839.831	0.0149905
839.909	0.0150015
839.987	0.0148760
840.066	0.0149316
840.144	0.0149173
840.222	0.0149270
840.300	0.0149458
840.378	0.0148183
840.456	0.0148073
840.534	0.0148542
840.612	0.0149760
840.691	0.0149375
840.769	0.0148977
840.847	0.0149425
840.925	0.0150079
841.003	0.0150104
841.081	0.0149413
841.159	0.0151132
841.237	0.0151044
841.316	0.0149370
841.394	0.0149268
841.472	0.0150246
841.550	0.0151028
841.628	0.0150490
841.706	0.0149171
841.784	0.0148917
841.862	0.0147617
841.941	0.0149185
842.019	0.0149274
842.097	0.0148879
842.175	0.0149969
842.253	0.0150717
842.331	0.0149838
842.409	0.0149854
842.487	0.0149157
842.566	0.0149654
842.644	0.0149050
842.722	0.0150937
842.800	0.0149149
842.878	0.0149334
842.956	0.0150094
843.034	0.0149985
843.112	0.0148856
843.191	0.0150334
843.269	0.0147890
843.347	0.0149343
843.425	0.0148949
843.503	0.0148679
843.581	0.0150661
843.659	0.0150390
843.737	0.0149707
843.816	0.0149133
843.894	0.0150632
843.972	0.0152666
844.050	0.0150922
844.128	0.0151128
844.206	0.0153394
844.284	0.0151579
844.362	0.0152711
844.441	0.0153082
844.519	0.0151128
844.597	0.0152848
844.675	0.0151729
844.753	0.0152795
844.831	0.0153610
844.909	0.0150001
844.987	0.0151895
845.066	0.0150899
845.144	0.0151136
845.222	0.0149947
845.300	0.0151064
845.378	0.0149647
845.456	0.0148985
845.534	0.0149347
845.612	0.0149220
845.691	0.0149082
845.769	0.0148841
845.847	0.0148270
845.925	0.0149135
846.003	0.0149419
846.081	0.0149037
846.159	0.0149113
846.237	0.0148552
846.316	0.0149525
846.394	0.0148882
846.472	0.0149493
846.550	0.0148731
846.628	0.0150764
846.706	0.0150721
846.784	0.0149024
846.862	0.0149271
846.941	0.0150327
847.019	0.0149377
847.097	0.0148766
847.175	0.0149116
847.253	0.0148001
847.331	0.0146214
847.409	0.0147517
847.487	0.0147652
847.566	0.0147245
847.644	0.0147514
847.722	0.0145758
847.800	0.0148037
847.878	0.0146886
847.956	0.0147652
848.034	0.0147386
848.112	0.0147909
848.191	0.0147124
848.269	0.0148606
848.347	0.0147594
848.425	0.0148130
848.503	0.0149947
848.581	0.0149319
848.659	0.0149301
848.737	0.0149192
848.816	0.0150037
848.894	0.0149355
848.972	0.0149749
849.050	0.0149169
849.128	0.0148298
849.206	0.0148875
849.284	0.0148384
849.362	0.0148923
849.441	0.0148911
849.519	0.0148485
849.597	0.0149895
849.675	0.0148884
849.753	0.0149375
849.831	0.0148397
849.909	0.0148544
849.987	0.0149831
850.066	0.0149347
850.144	0.0148865
850.222	0.0148325
850.300	0.0150613
850.378	0.0149281
850.456	0.0148911
850.534	0.0149208
850.612	0.0149178
850.691	0.0149451
850.769	0.0149828
850.847	0.0149507
850.925	0.0149435
851.003	0.0149864
851.081	0.0151665
851.159	0.0149966
851.237	0.0151012
851.316	0.0150463
851.394	0.0152499
851.472	0.0151393
851.550	0.0151611
851.628	0.0151991
851.706	0.0152671
851.784	0.0152048
851.862	0.0152544
851.941	0.0151694
852.019	0.0150789
852.097	0.0152386
852.175	0.0153353
852.253	0.0153458
852.331	0.0150759
852.409	0.0149899
852.487	0.0151035
852.566	0.0149689
852.644	0.0149614
852.722	0.0149606
852.800	0.0148387
852.878	0.0149837
852.956	0.0149575
853.034	0.0148483
853.112	0.0147996
853.191	0.0151976
853.269	0.0149121
853.347	0.0148704
853.425	0.0150518
853.503	0.0148924
853.581	0.0150246
853.659	0.0149393
853.737	0.0150091
853.816	0.0151016
853.894	0.0151079
853.972	0.0150492
854.050	0.0150510
854.128	0.0149068
854.206	0.0151192
854.284	0.0149841
854.362	0.0150079
854.441	0.0150592
854.519	0.0149745
854.597	0.0150022
854.675	0.0150641
854.753	0.0150051
854.831	0.0149560
854.909	0.0150063
854.987	0.0151404
855.066	0.0149955
855.144	0.0150111
855.222	0.0150706
855.300	0.0150842
855.378	0.0151510
855.456	0.0151729
855.534	0.0150802
855.612	0.0151076
855.691	0.0150753
855.769	0.0151967
855.847	0.0151385
855.925	0.0151290
856.003	0.0151575
856.081	0.0152396
856.159	0.0151247
856.237	0.0152418
856.316	0.0152059
856.394	0.0151446
856.472	0.0150968
856.550	0.0151333
856.628	0.0150903
856.706	0.0149997
856.784	0.0150580
856.862	0.0148257
856.941	0.0148911
857.019	0.0151229
857.097	0.0149248
857.175	0.0150980
857.253	0.0150195
857.331	0.0150020
857.409	0.0151964
857.487	0.0149963
857.566	0.0150256
857.644	0.0150264
857.722	0.0152394
857.800	0.0152093
857.878	0.0151408
857.956	0.0151427
858.034	0.0151025
858.112	0.0151793
858.191	0.0149792
858.269	0.0151247
858.347	0.0149899
858.425	0.0149728
858.503	0.0151994
858.581	0.0150814
858.659	0.0150255
858.737	0.0151031
858.816	0.0151341
858.894	0.0152025
858.972	0.0150432
859.050	0.0150496
859.128	0.0151719
859.206	0.0150246
859.284	0.0149627
859.362	0.0150406
859.441	0.0150731
859.519	0.0151189
859.597	0.0151389
859.675	0.0152133
859.753	0.0150988
859.831	0.0151503
859.909	0.0152211
859.987	0.0150882
860.066	0.0150838
860.144	0.0151123
860.222	0.0149251
860.300	0.0152030
860.378	0.0150853
860.456	0.0151558
860.534	0.0150815
860.612	0.0150426
860.691	0.0151290
860.769	0.0151340
860.847	0.0150861
860.925	0.0150298
861.003	0.0152056
861.081	0.0152258
861.159	0.0151680
861.237	0.0151135
861.316	0.0152262
861.394	0.0151629
861.472	0.0150670
861.550	0.0151339
861.628	0.0150613
861.706	0.0151360
861.784	0.0150896
861.862	0.0151392
861.941	0.0149429
862.019	0.0152141
862.097	0.0151223
862.175	0.0149873
862.253	0.0150181
862.331	0.0149894
862.409	0.0148804
862.487	0.0149210
862.566	0.0150676
862.644	0.0149660
862.722	0.0149523
862.800	0.0150862
862.878	0.0150562
862.956	0.0150494
863.034	0.0151556
863.112	0.0150370
863.191	0.0149949
863.269	0.0151388
863.347	0.0151305
863.425	0.0152620
863.503	0.0151867
863.581	0.0149652
863.659	0.0150415
863.737	0.0151012
863.816	0.0152130
863.894	0.0152480
863.972	0.0152615
864.050	0.0152280
864.128	0.0152558
864.206	0.0153028
864.284	0.0154470
864.362	0.0154066
864.441	0.0153551
864.519	0.0152771
864.597	0.0154678
864.675	0.0154109
864.753	0.0153461
864.831	0.0153291
864.909	0.0154374
864.987	0.0155194
865.066	0.0153764
865.144	0.0153597
865.222	0.0153657
865.300	0.0152116
865.378	0.0152586
865.456	0.0153227
865.534	0.0153649
865.612	0.0153532
865.691	0.0153576
865.769	0.0151869
865.847	0.0152785
865.925	0.0153755
866.003	0.0153896
866.081	0.0153489
866.159	0.0152912
866.237	0.0154404
866.316	0.0154978
866.394	0.0155339
866.472	0.0154017
866.550	0.0152703
866.628	0.0152766
866.706	0.0152059
866.784	0.0152703
866.862	0.0152653
866.941	0.0152567
867.019	0.0150912
867.097	0.0152548
867.175	0.0151910
867.253	0.0150614
867.331	0.0152676
867.409	0.0152616
867.487	0.0152616
867.566	0.0153017
867.644	0.0151595
867.722	0.0150777
867.800	0.0152283
867.878	0.0154433
867.956	0.0152218
868.034	0.0152825
868.112	0.0152193
868.191	0.0154092
868.269	0.0153754
868.347	0.0152854
868.425	0.0152941
868.503	0.0153085
868.581	0.0153429
868.659	0.0154352
868.737	0.0153288
868.816	0.0153403
868.894	0.0154287
868.972	0.0153762
869.050	0.0152865
869.128	0.0153719
869.206	0.0153145
869.284	0.0154576
869.362	0.0152263
869.441	0.0152763
869.519	0.0153108
869.597	0.0151231
869.675	0.0151770
869.753	0.0151154
869.831	0.0150543
869.909	0.0150582
869.987	0.0150381
870.066	0.0151260
870.144	0.0152332
870.222	0.0150748
870.300	0.0151174
870.378	0.0150593
870.456	0.0150836
870.534	0.0152139
870.612	0.0152023
870.691	0.0151321
870.769	0.0152711
870.847	0.0152757
870.925	0.0153073
871.003	0.0151353
871.081	0.0152248
871.159	0.0152330
871.237	0.0151295
871.316	0.0152837
871.394	0.0153699
871.472	0.0152517
871.550	0.0152789
871.628	0.0151285
871.706	0.0152300
871.784	0.0152198
871.862	0.0151566
871.941	0.0152950
872.019	0.0152961
872.097	0.0151383
872.175	0.0151893
872.253	0.0152967
872.331	0.0152460
872.409	0.0151359
872.487	0.0152369
872.566	0.0152970
872.644	0.0154120
872.722	0.0153312
872.800	0.0152830
872.878	0.0153223
872.956	0.0153837
873.034	0.0153896
873.112	0.0154330
873.191	0.0153592
873.269	0.0154104
873.347	0.0154584
873.425	0.0154286
873.503	0.0155863
873.581	0.0155238
873.659	0.0155673
873.737	0.0155899
873.816	0.0155698
873.894	0.0153951
873.972	0.0155113
874.050	0.0155349
874.128	0.0155795
874.206	0.0154647
874.284	0.0154629
874.362	0.0154478
874.441	0.0153435
874.519	0.0154168
874.597	0.0153824
874.675	0.0152328
874.753	0.0152295
874.831	0.0152452
874.909	0.0152979
874.987	0.0151827
875.066	0.0152318
875.144	0.0151193
875.222	0.0151163
875.300	0.0151854
875.378	0.0151862
875.456	0.0151672
875.534	0.0150755
875.612	0.0150674
875.691	0.0150999
875.769	0.0148854
875.847	0.0151043
875.925	0.0149295
876.003	0.0147502
876.081	0.0147312
876.159	0.0148196
876.237	0.0146164
876.316	0.0145016
876.394	0.0145948
876.472	0.0147633
876.550	0.0146128
876.628	0.0145632
876.706	0.0146990
876.784	0.0146626
876.862	0.0148001
876.941	0.0147522
877.019	0.0146728
877.097	0.0147713
877.175	0.0148901
877.253	0.0149212
877.331	0.0149599
877.409	0.0148775
877.487	0.0150218
877.566	0.0150157
877.644	0.0149840
877.722	0.0150375
877.800	0.0149846
877.878	0.0150244
877.956	0.0149296
878.034	0.0148741
878.112	0.0148457
878.191	0.0148679
878.269	0.0147264
878.347	0.0148615
878.425	0.0148772
878.503	0.0145895
878.581	0.0146608
878.659	0.0147717
878.737	0.0147590
878.816	0.0148558
878.894	0.0149789
878.972	0.0149682
879.050	0.0151321
879.128	0.0153075
879.206	0.0152006
879.284	0.0151613
879.362	0.0152762
879.441	0.0154093
879.519	0.0153636
879.597	0.0154626
879.675	0.0153649
879.753	0.0154044
879.831	0.0154838
879.909	0.0154554
