05/28/2022	13:58:35	Ver.	4.1	UNKNOWN
Optical Delay	599.988409	Delta X		0.078125	Sweeps	1	Scan Rate	0/0
Coordinates	Axis 1	NaN	Axis 2	NaN	Axis 3	NaN	Axis 4	NaN	Axis 5	NaN	Axis 6	0.000000
TX Power	0.000000	RX Power	0.000000

599.988	0.0151951
600.067	0.0152497
600.145	0.0151974
600.223	0.0151350
600.301	0.0152264
600.379	0.0152100
600.457	0.0152936
600.535	0.0152039
600.613	0.0151785
600.692	0.0152282
600.770	0.0153294
600.848	0.0151307
600.926	0.0152396
601.004	0.0150838
601.082	0.0151981
601.160	0.0153203
601.238	0.0152001
601.317	0.0151587
601.395	0.0152434
601.473	0.0151884
601.551	0.0151307
601.629	0.0152061
601.707	0.0151263
601.785	0.0153280
601.863	0.0152238
601.942	0.0152014
602.020	0.0151395
602.098	0.0151572
602.176	0.0152789
602.254	0.0152718
602.332	0.0153962
602.410	0.0152456
602.488	0.0152521
602.567	0.0151552
602.645	0.0152094
602.723	0.0152332
602.801	0.0152700
602.879	0.0152605
602.957	0.0150632
603.035	0.0152266
603.113	0.0153769
603.192	0.0151025
603.270	0.0151463
603.348	0.0151791
603.426	0.0150555
603.504	0.0152590
603.582	0.0151814
603.660	0.0152077
603.738	0.0153085
603.817	0.0152493
603.895	0.0151585
603.973	0.0151979
604.051	0.0152713
604.129	0.0152280
604.207	0.0152690
604.285	0.0152299
604.363	0.0151689
604.442	0.0152722
604.520	0.0151192
604.598	0.0152246
604.676	0.0151189
604.754	0.0152148
604.832	0.0152026
604.910	0.0151657
604.988	0.0152575
605.067	0.0152757
605.145	0.0152665
605.223	0.0151266
605.301	0.0152315
605.379	0.0151926
605.457	0.0152098
605.535	0.0152290
605.613	0.0151974
605.692	0.0152576
605.770	0.0152144
605.848	0.0152808
605.926	0.0151890
606.004	0.0150717
606.082	0.0152561
606.160	0.0151441
606.238	0.0152441
606.317	0.0150734
606.395	0.0151096
606.473	0.0152588
606.551	0.0152360
606.629	0.0153327
606.707	0.0151328
606.785	0.0152610
606.863	0.0152319
606.942	0.0151614
607.020	0.0152870
607.098	0.0153451
607.176	0.0151082
607.254	0.0152810
607.332	0.0151986
607.410	0.0151225
607.488	0.0152168
607.567	0.0150608
607.645	0.0152944
607.723	0.0151812
607.801	0.0151891
607.879	0.0151263
607.957	0.0153372
608.035	0.0151986
608.113	0.0152083
608.192	0.0152687
608.270	0.0152465
608.348	0.0152106
608.426	0.0152716
608.504	0.0153577
608.582	0.0151171
608.660	0.0152873
608.738	0.0152232
608.817	0.0151064
608.895	0.0151783
608.973	0.0152579
609.051	0.0152344
609.129	0.0153006
609.207	0.0152458
609.285	0.0152972
609.363	0.0152011
609.442	0.0153557
609.520	0.0152343
609.598	0.0151258
609.676	0.0150181
609.754	0.0151910
609.832	0.0152937
609.910	0.0152656
609.988	0.0152274
610.067	0.0152731
610.145	0.0151804
610.223	0.0152245
610.301	0.0151928
610.379	0.0152908
610.457	0.0152335
610.535	0.0151817
610.613	0.0151683
610.692	0.0150639
610.770	0.0151557
610.848	0.0153191
610.926	0.0152631
611.004	0.0152324
611.082	0.0152025
611.160	0.0150993
611.238	0.0152754
611.317	0.0152683
611.395	0.0151241
611.473	0.0151807
611.551	0.0151714
611.629	0.0151279
611.707	0.0153427
611.785	0.0153323
611.863	0.0151540
611.942	0.0152930
612.020	0.0152219
612.098	0.0153046
612.176	0.0150938
612.254	0.0151215
612.332	0.0152866
612.410	0.0153314
612.488	0.0153448
612.567	0.0152802
612.645	0.0151743
612.723	0.0152880
612.801	0.0152111
612.879	0.0150952
612.957	0.0152210
613.035	0.0151579
613.113	0.0153606
613.192	0.0151994
613.270	0.0150687
613.348	0.0153278
613.426	0.0151885
613.504	0.0151802
613.582	0.0152647
613.660	0.0152611
613.738	0.0152312
613.817	0.0151807
613.895	0.0153445
613.973	0.0151013
614.051	0.0153403
614.129	0.0150473
614.207	0.0152993
614.285	0.0153053
614.363	0.0153332
614.442	0.0152873
614.520	0.0152448
614.598	0.0151601
614.676	0.0151847
614.754	0.0152200
614.832	0.0151241
614.910	0.0152073
614.988	0.0151807
615.067	0.0153021
615.145	0.0151211
615.223	0.0152305
615.301	0.0152360
615.379	0.0151007
615.457	0.0153202
615.535	0.0153551
615.613	0.0151525
615.692	0.0151435
615.770	0.0153500
615.848	0.0151623
615.926	0.0151022
616.004	0.0152524
616.082	0.0153916
616.160	0.0151541
616.238	0.0153281
616.317	0.0152953
616.395	0.0153738
616.473	0.0153069
616.551	0.0151971
616.629	0.0150831
616.707	0.0152367
616.785	0.0153306
616.863	0.0151512
616.942	0.0153224
617.020	0.0151987
617.098	0.0151477
617.176	0.0151878
617.254	0.0152936
617.332	0.0153279
617.410	0.0151227
617.488	0.0152091
617.567	0.0151736
617.645	0.0152810
617.723	0.0153976
617.801	0.0151884
617.879	0.0152834
617.957	0.0153017
618.035	0.0152927
618.113	0.0152101
618.192	0.0152428
618.270	0.0151546
618.348	0.0151058
618.426	0.0153168
618.504	0.0151915
618.582	0.0152605
618.660	0.0152107
618.738	0.0152496
618.817	0.0152918
618.895	0.0152038
618.973	0.0151768
619.051	0.0153098
619.129	0.0153490
619.207	0.0153031
619.285	0.0151353
619.363	0.0151537
619.442	0.0152496
619.520	0.0151521
619.598	0.0150946
619.676	0.0153334
619.754	0.0151966
619.832	0.0152294
619.910	0.0152236
619.988	0.0152608
620.067	0.0152692
620.145	0.0151736
620.223	0.0152815
620.301	0.0152702
620.379	0.0151317
620.457	0.0151980
620.535	0.0152112
620.613	0.0150993
620.692	0.0153317
620.770	0.0152402
620.848	0.0151248
620.926	0.0151720
621.004	0.0152032
621.082	0.0152618
621.160	0.0151097
621.238	0.0152158
621.317	0.0152824
621.395	0.0152425
621.473	0.0152373
621.551	0.0152245
621.629	0.0152599
621.707	0.0152657
621.785	0.0151386
621.863	0.0151801
621.942	0.0153038
622.020	0.0153135
622.098	0.0153580
622.176	0.0152996
622.254	0.0152277
622.332	0.0152512
622.410	0.0152821
622.488	0.0152675
622.567	0.0151531
622.645	0.0153454
622.723	0.0152960
622.801	0.0153307
622.879	0.0152302
622.957	0.0151720
623.035	0.0152874
623.113	0.0152422
623.192	0.0151981
623.270	0.0152783
623.348	0.0153284
623.426	0.0153534
623.504	0.0152631
623.582	0.0153872
623.660	0.0152580
623.738	0.0152113
623.817	0.0152869
623.895	0.0152615
623.973	0.0152605
624.051	0.0151215
624.129	0.0153709
624.207	0.0153445
624.285	0.0153580
624.363	0.0150800
624.442	0.0151900
624.520	0.0152959
624.598	0.0152719
624.676	0.0152863
624.754	0.0153240
624.832	0.0152864
624.910	0.0152557
624.988	0.0152367
625.067	0.0151530
625.145	0.0153239
625.223	0.0152983
625.301	0.0152187
625.379	0.0151823
625.457	0.0153063
625.535	0.0152101
625.613	0.0151305
625.692	0.0152213
625.770	0.0151890
625.848	0.0152644
625.926	0.0152670
626.004	0.0153189
626.082	0.0153680
626.160	0.0152832
626.238	0.0152399
626.317	0.0152449
626.395	0.0151830
626.473	0.0153175
626.551	0.0152827
626.629	0.0153214
626.707	0.0151974
626.785	0.0153261
626.863	0.0152950
626.942	0.0152660
627.020	0.0151952
627.098	0.0151050
627.176	0.0152601
627.254	0.0153404
627.332	0.0152593
627.410	0.0152312
627.488	0.0153523
627.567	0.0151919
627.645	0.0150980
627.723	0.0152361
627.801	0.0152614
627.879	0.0152866
627.957	0.0151751
628.035	0.0151961
628.113	0.0151900
628.192	0.0152486
628.270	0.0153194
628.348	0.0152901
628.426	0.0151794
628.504	0.0151794
628.582	0.0151487
628.660	0.0151604
628.738	0.0152575
628.817	0.0152377
628.895	0.0152070
628.973	0.0152509
629.051	0.0151871
629.129	0.0153355
629.207	0.0152957
629.285	0.0151274
629.363	0.0151653
629.442	0.0151585
629.520	0.0152025
629.598	0.0151694
629.676	0.0152697
629.754	0.0151920
629.832	0.0153371
629.910	0.0152215
629.988	0.0152351
630.067	0.0153678
630.145	0.0153078
630.223	0.0153003
630.301	0.0151765
630.379	0.0152403
630.457	0.0153322
630.535	0.0152416
630.613	0.0152562
630.692	0.0152394
630.770	0.0153493
630.848	0.0151701
630.926	0.0152300
631.004	0.0151302
631.082	0.0153887
631.160	0.0152149
631.238	0.0153516
631.317	0.0152237
631.395	0.0152756
631.473	0.0153519
631.551	0.0153503
631.629	0.0151050
631.707	0.0152374
631.785	0.0152573
631.863	0.0152802
631.942	0.0152287
632.020	0.0153688
632.098	0.0152840
632.176	0.0152365
632.254	0.0152708
632.332	0.0154227
632.410	0.0152457
632.488	0.0152304
632.567	0.0151454
632.645	0.0152248
632.723	0.0153126
632.801	0.0152118
632.879	0.0152699
632.957	0.0152012
633.035	0.0153989
633.113	0.0152390
633.192	0.0152923
633.270	0.0153088
633.348	0.0152960
633.426	0.0152109
633.504	0.0153744
633.582	0.0153626
633.660	0.0153210
633.738	0.0151183
633.817	0.0153308
633.895	0.0151536
633.973	0.0152639
634.051	0.0152821
634.129	0.0152445
634.207	0.0152878
634.285	0.0152312
634.363	0.0154291
634.442	0.0153404
634.520	0.0152709
634.598	0.0152981
634.676	0.0152489
634.754	0.0153391
634.832	0.0153777
634.910	0.0152032
634.988	0.0152548
635.067	0.0152853
635.145	0.0151711
635.223	0.0153054
635.301	0.0151369
635.379	0.0152925
635.457	0.0152869
635.535	0.0151604
635.613	0.0152907
635.692	0.0152790
635.770	0.0151500
635.848	0.0153171
635.926	0.0152557
636.004	0.0151581
636.082	0.0153117
636.160	0.0152711
636.238	0.0152713
636.317	0.0152567
636.395	0.0153556
636.473	0.0152473
636.551	0.0152628
636.629	0.0151815
636.707	0.0152585
636.785	0.0153230
636.863	0.0153957
636.942	0.0151649
637.020	0.0152506
637.098	0.0152256
637.176	0.0153461
637.254	0.0152942
637.332	0.0153067
637.410	0.0154150
637.488	0.0151120
637.567	0.0152484
637.645	0.0153342
637.723	0.0153291
637.801	0.0153440
637.879	0.0153912
637.957	0.0151929
638.035	0.0153458
638.113	0.0153614
638.192	0.0151691
638.270	0.0152130
638.348	0.0153827
638.426	0.0152540
638.504	0.0152271
638.582	0.0153366
638.660	0.0151762
638.738	0.0151882
638.817	0.0152758
638.895	0.0152493
638.973	0.0151226
639.051	0.0152956
639.129	0.0153590
639.207	0.0153011
639.285	0.0152924
639.363	0.0152104
639.442	0.0151210
639.520	0.0152817
639.598	0.0153256
639.676	0.0152122
639.754	0.0152045
639.832	0.0153101
639.910	0.0152762
639.988	0.0152286
640.067	0.0152354
640.145	0.0151643
640.223	0.0151630
640.301	0.0151476
640.379	0.0151947
640.457	0.0151584
640.535	0.0153638
640.613	0.0153561
640.692	0.0152528
640.770	0.0151392
640.848	0.0152070
640.926	0.0153111
641.004	0.0153231
641.082	0.0153742
641.160	0.0151774
641.238	0.0152733
641.317	0.0152507
641.395	0.0153079
641.473	0.0153399
641.551	0.0151532
641.629	0.0153268
641.707	0.0153524
641.785	0.0151727
641.863	0.0151640
641.942	0.0152895
642.020	0.0151439
642.098	0.0152217
642.176	0.0151975
642.254	0.0152001
642.332	0.0152143
642.410	0.0151808
642.488	0.0152989
642.567	0.0151753
642.645	0.0151838
642.723	0.0152023
642.801	0.0152399
642.879	0.0152837
642.957	0.0153102
643.035	0.0152081
643.113	0.0152911
643.192	0.0152394
643.270	0.0151884
643.348	0.0152740
643.426	0.0151988
643.504	0.0152494
643.582	0.0152477
643.660	0.0153043
643.738	0.0153397
643.817	0.0153675
643.895	0.0151444
643.973	0.0152468
644.051	0.0152558
644.129	0.0151359
644.207	0.0153748
644.285	0.0152352
644.363	0.0153100
644.442	0.0152451
644.520	0.0151543
644.598	0.0151241
644.676	0.0153742
644.754	0.0153064
644.832	0.0152085
644.910	0.0152596
644.988	0.0152509
645.067	0.0153275
645.145	0.0152745
645.223	0.0151378
645.301	0.0154146
645.379	0.0152245
645.457	0.0151578
645.535	0.0152216
645.613	0.0153062
645.692	0.0152798
645.770	0.0151545
645.848	0.0153053
645.926	0.0153984
646.004	0.0152681
646.082	0.0151634
646.160	0.0151894
646.238	0.0151972
646.317	0.0150882
646.395	0.0152383
646.473	0.0152712
646.551	0.0151444
646.629	0.0150841
646.707	0.0151432
646.785	0.0151895
646.863	0.0151778
646.942	0.0153099
647.020	0.0152525
647.098	0.0152199
647.176	0.0152020
647.254	0.0151985
647.332	0.0152608
647.410	0.0151630
647.488	0.0151410
647.567	0.0151144
647.645	0.0153276
647.723	0.0152782
647.801	0.0151922
647.879	0.0152345
647.957	0.0153323
648.035	0.0153030
648.113	0.0153284
648.192	0.0151474
648.270	0.0153082
648.348	0.0151731
648.426	0.0151740
648.504	0.0153410
648.582	0.0152232
648.660	0.0151221
648.738	0.0153404
648.817	0.0152121
648.895	0.0151763
648.973	0.0152268
649.051	0.0152647
649.129	0.0151794
649.207	0.0152654
649.285	0.0152026
649.363	0.0152436
649.442	0.0152370
649.520	0.0152612
649.598	0.0151070
649.676	0.0152153
649.754	0.0152496
649.832	0.0150929
649.910	0.0152388
649.988	0.0153536
650.067	0.0152863
650.145	0.0150335
650.223	0.0152736
650.301	0.0152303
650.379	0.0153052
650.457	0.0152280
650.535	0.0152125
650.613	0.0151879
650.692	0.0152389
650.770	0.0153293
650.848	0.0152821
650.926	0.0152567
651.004	0.0151515
651.082	0.0152566
651.160	0.0153267
651.238	0.0152962
651.317	0.0152718
651.395	0.0151600
651.473	0.0151804
651.551	0.0152554
651.629	0.0152717
651.707	0.0152576
651.785	0.0152439
651.863	0.0152850
651.942	0.0152127
652.020	0.0152213
652.098	0.0152595
652.176	0.0152079
652.254	0.0152612
652.332	0.0152406
652.410	0.0153072
652.488	0.0152409
652.567	0.0152717
652.645	0.0153122
652.723	0.0152086
652.801	0.0152563
652.879	0.0152124
652.957	0.0152860
653.035	0.0153645
653.113	0.0151796
653.192	0.0153059
653.270	0.0152690
653.348	0.0152695
653.426	0.0152469
653.504	0.0153267
653.582	0.0152082
653.660	0.0152374
653.738	0.0151585
653.817	0.0152682
653.895	0.0154270
653.973	0.0150743
654.051	0.0152487
654.129	0.0151636
654.207	0.0150684
654.285	0.0152253
654.363	0.0151778
654.442	0.0152460
654.520	0.0151633
654.598	0.0151759
654.676	0.0151496
654.754	0.0151759
654.832	0.0152329
654.910	0.0152649
654.988	0.0152100
655.067	0.0152505
655.145	0.0151647
655.223	0.0153223
655.301	0.0153152
655.379	0.0153216
655.457	0.0152156
655.535	0.0151540
655.613	0.0151945
655.692	0.0152566
655.770	0.0151913
655.848	0.0152242
655.926	0.0152927
656.004	0.0153522
656.082	0.0152133
656.160	0.0151733
656.238	0.0152701
656.317	0.0153163
656.395	0.0151682
656.473	0.0151510
656.551	0.0153071
656.629	0.0151756
656.707	0.0154023
656.785	0.0152726
656.863	0.0151703
656.942	0.0152582
657.020	0.0152323
657.098	0.0151653
657.176	0.0151521
657.254	0.0153426
657.332	0.0152280
657.410	0.0151502
657.488	0.0153372
657.567	0.0153297
657.645	0.0151625
657.723	0.0153285
657.801	0.0151434
657.879	0.0151855
657.957	0.0151774
658.035	0.0153438
658.113	0.0151766
658.192	0.0153165
658.270	0.0151783
658.348	0.0152614
658.426	0.0151918
658.504	0.0152410
658.582	0.0151318
658.660	0.0152605
658.738	0.0153028
658.817	0.0152975
658.895	0.0150749
658.973	0.0153133
659.051	0.0153465
659.129	0.0151756
659.207	0.0152357
659.285	0.0153910
659.363	0.0153204
659.442	0.0151778
659.520	0.0152921
659.598	0.0153120
659.676	0.0152882
659.754	0.0153176
659.832	0.0152310
659.910	0.0151337
659.988	0.0152912
660.067	0.0151994
660.145	0.0151884
660.223	0.0152428
660.301	0.0151965
660.379	0.0152094
660.457	0.0151811
660.535	0.0152904
660.613	0.0152621
660.692	0.0152305
660.770	0.0151431
660.848	0.0152341
660.926	0.0152110
661.004	0.0152400
661.082	0.0153054
661.160	0.0153277
661.238	0.0152877
661.317	0.0152618
661.395	0.0152572
661.473	0.0152179
661.551	0.0151708
661.629	0.0151936
661.707	0.0152451
661.785	0.0153139
661.863	0.0151587
661.942	0.0151550
662.020	0.0153798
662.098	0.0150410
662.176	0.0152603
662.254	0.0153889
662.332	0.0150249
662.410	0.0152303
662.488	0.0152319
662.567	0.0152789
662.645	0.0150361
662.723	0.0151228
662.801	0.0152413
662.879	0.0151604
662.957	0.0153035
663.035	0.0151569
663.113	0.0151343
663.192	0.0151353
663.270	0.0152266
663.348	0.0152328
663.426	0.0152889
663.504	0.0151429
663.582	0.0152708
663.660	0.0151566
663.738	0.0151404
663.817	0.0150047
663.895	0.0152556
663.973	0.0152462
664.051	0.0151176
664.129	0.0151412
664.207	0.0152619
664.285	0.0151287
664.363	0.0152149
664.442	0.0151759
664.520	0.0153571
664.598	0.0152435
664.676	0.0152261
664.754	0.0152760
664.832	0.0151931
664.910	0.0152798
664.988	0.0151225
665.067	0.0151434
665.145	0.0152316
665.223	0.0153002
665.301	0.0152340
665.379	0.0153455
665.457	0.0152055
665.535	0.0151147
665.613	0.0153107
665.692	0.0154341
665.770	0.0151821
665.848	0.0152263
665.926	0.0152637
666.004	0.0151697
666.082	0.0153185
666.160	0.0151109
666.238	0.0152113
666.317	0.0153312
666.395	0.0153569
666.473	0.0151799
666.551	0.0152811
666.629	0.0151559
666.707	0.0153362
666.785	0.0153259
666.863	0.0152151
666.942	0.0153283
667.020	0.0153568
667.098	0.0150387
667.176	0.0153544
667.254	0.0152934
667.332	0.0152161
667.410	0.0152919
667.488	0.0152320
667.567	0.0152380
667.645	0.0153699
667.723	0.0152898
667.801	0.0151765
667.879	0.0154242
667.957	0.0152312
668.035	0.0152205
668.113	0.0151505
668.192	0.0153172
668.270	0.0151736
668.348	0.0152481
668.426	0.0152319
668.504	0.0151935
668.582	0.0152545
668.660	0.0153696
668.738	0.0153169
668.817	0.0153777
668.895	0.0154120
668.973	0.0152813
669.051	0.0152933
669.129	0.0152477
669.207	0.0152955
669.285	0.0152702
669.363	0.0152472
669.442	0.0152058
669.520	0.0153700
669.598	0.0153123
669.676	0.0153776
669.754	0.0153526
669.832	0.0152693
669.910	0.0150237
669.988	0.0151952
670.067	0.0153199
670.145	0.0151913
670.223	0.0152978
670.301	0.0152934
670.379	0.0152667
670.457	0.0152966
670.535	0.0151448
670.613	0.0152231
670.692	0.0151768
670.770	0.0151933
670.848	0.0152641
670.926	0.0153379
671.004	0.0152836
671.082	0.0151669
671.160	0.0153143
671.238	0.0152212
671.317	0.0152565
671.395	0.0152877
671.473	0.0151680
671.551	0.0153247
671.629	0.0152032
671.707	0.0152941
671.785	0.0153991
671.863	0.0153574
671.942	0.0151926
672.020	0.0153141
672.098	0.0151934
672.176	0.0152776
672.254	0.0152512
672.332	0.0151656
672.410	0.0151637
672.488	0.0152569
672.567	0.0153088
672.645	0.0151779
672.723	0.0152744
672.801	0.0153504
672.879	0.0152296
672.957	0.0152460
673.035	0.0151140
673.113	0.0152455
673.192	0.0151755
673.270	0.0151047
673.348	0.0150613
673.426	0.0152633
673.504	0.0153197
673.582	0.0153838
673.660	0.0152389
673.738	0.0150735
673.817	0.0151059
673.895	0.0150999
673.973	0.0151154
674.051	0.0153036
674.129	0.0151132
674.207	0.0151583
674.285	0.0151804
674.363	0.0151593
674.442	0.0153728
674.520	0.0150274
674.598	0.0151849
674.676	0.0152557
674.754	0.0151455
674.832	0.0151635
674.910	0.0152985
674.988	0.0152647
675.067	0.0150480
675.145	0.0151688
675.223	0.0152722
675.301	0.0152695
675.379	0.0151763
675.457	0.0151918
675.535	0.0152695
675.613	0.0154049
675.692	0.0152792
675.770	0.0151424
675.848	0.0152470
675.926	0.0152319
676.004	0.0152300
676.082	0.0151936
676.160	0.0152601
676.238	0.0153085
676.317	0.0151708
676.395	0.0152272
676.473	0.0152801
676.551	0.0152313
676.629	0.0152048
676.707	0.0153479
676.785	0.0151578
676.863	0.0152187
676.942	0.0151794
677.020	0.0150979
677.098	0.0153024
677.176	0.0153076
677.254	0.0152048
677.332	0.0151245
677.410	0.0151299
677.488	0.0152856
677.567	0.0153197
677.645	0.0152024
677.723	0.0153765
677.801	0.0152264
677.879	0.0151109
677.957	0.0151351
678.035	0.0151888
678.113	0.0153088
678.192	0.0151881
678.270	0.0151825
678.348	0.0152236
678.426	0.0152340
678.504	0.0152244
678.582	0.0151168
678.660	0.0151575
678.738	0.0151163
678.817	0.0150928
678.895	0.0152025
678.973	0.0151252
679.051	0.0151823
679.129	0.0151833
679.207	0.0151736
679.285	0.0152808
679.363	0.0153358
679.442	0.0152641
679.520	0.0152322
679.598	0.0151981
679.676	0.0152450
679.754	0.0152935
679.832	0.0152714
679.910	0.0151948
679.988	0.0151723
680.067	0.0151920
680.145	0.0149737
680.223	0.0151505
680.301	0.0151472
680.379	0.0150214
680.457	0.0151189
680.535	0.0151717
680.613	0.0151196
680.692	0.0149639
680.770	0.0150996
680.848	0.0153427
680.926	0.0152554
681.004	0.0150760
681.082	0.0152595
681.160	0.0150925
681.238	0.0151161
681.317	0.0153870
681.395	0.0152491
681.473	0.0150600
681.551	0.0151740
681.629	0.0151808
681.707	0.0153500
681.785	0.0152355
681.863	0.0150680
681.942	0.0151704
682.020	0.0151451
682.098	0.0152406
682.176	0.0151818
682.254	0.0150704
682.332	0.0151096
682.410	0.0150809
682.488	0.0152218
682.567	0.0151262
682.645	0.0151721
682.723	0.0151457
682.801	0.0151154
682.879	0.0150297
682.957	0.0151383
683.035	0.0151108
683.113	0.0151810
683.192	0.0151926
683.270	0.0151372
683.348	0.0151598
683.426	0.0150945
683.504	0.0152186
683.582	0.0152439
683.660	0.0151830
683.738	0.0151628
683.817	0.0153282
683.895	0.0153699
683.973	0.0152692
684.051	0.0151748
684.129	0.0152219
684.207	0.0151797
684.285	0.0150569
684.363	0.0152296
684.442	0.0153913
684.520	0.0151312
684.598	0.0150655
684.676	0.0152695
684.754	0.0153770
684.832	0.0152811
684.910	0.0153972
684.988	0.0153959
685.067	0.0154852
685.145	0.0156498
685.223	0.0156779
685.301	0.0156412
685.379	0.0156905
685.457	0.0156335
685.535	0.0155508
685.613	0.0156551
685.692	0.0155048
685.770	0.0154288
685.848	0.0152872
685.926	0.0152781
686.004	0.0150427
686.082	0.0150087
686.160	0.0148073
686.238	0.0147939
686.317	0.0146808
686.395	0.0144600
686.473	0.0144814
686.551	0.0144404
686.629	0.0144127
686.707	0.0144180
686.785	0.0144904
686.863	0.0146355
686.942	0.0148703
687.020	0.0150706
687.098	0.0153141
687.176	0.0155098
687.254	0.0158000
687.332	0.0160969
687.410	0.0163079
687.488	0.0165344
687.567	0.0166203
687.645	0.0166099
687.723	0.0167519
687.801	0.0168536
687.879	0.0169499
687.957	0.0165422
688.035	0.0163618
688.113	0.0160722
688.192	0.0158145
688.270	0.0154575
688.348	0.0148752
688.426	0.0145831
688.504	0.0142786
688.582	0.0137914
688.660	0.0134368
688.738	0.0131626
688.817	0.0128419
688.895	0.0125594
688.973	0.0124741
689.051	0.0124271
689.129	0.0124132
689.207	0.0127120
689.285	0.0128995
689.363	0.0132178
689.442	0.0136770
689.520	0.0139577
689.598	0.0145349
689.676	0.0152074
689.754	0.0158776
689.832	0.0161866
689.910	0.0167773
689.988	0.0173376
690.067	0.0178391
690.145	0.0181812
690.223	0.0183543
690.301	0.0185603
690.379	0.0186385
690.457	0.0185561
690.535	0.0184657
690.613	0.0183157
690.692	0.0179398
690.770	0.0176392
690.848	0.0171828
690.926	0.0164777
691.004	0.0159975
691.082	0.0152563
691.160	0.0144492
691.238	0.0139998
691.317	0.0133415
691.395	0.0128308
691.473	0.0123779
691.551	0.0119344
691.629	0.0116713
691.707	0.0115393
691.785	0.0116980
691.863	0.0116156
691.942	0.0117477
692.020	0.0119478
692.098	0.0122693
692.176	0.0125780
692.254	0.0130042
692.332	0.0135453
692.410	0.0140435
692.488	0.0145468
692.567	0.0152513
692.645	0.0159006
692.723	0.0166632
692.801	0.0173302
692.879	0.0179135
692.957	0.0184094
693.035	0.0187109
693.113	0.0193785
693.192	0.0195381
693.270	0.0196153
693.348	0.0197616
693.426	0.0198104
693.504	0.0193893
693.582	0.0190355
693.660	0.0183852
693.738	0.0175432
693.817	0.0167264
693.895	0.0157250
693.973	0.0147482
694.051	0.0140026
694.129	0.0130429
694.207	0.0121525
694.285	0.0116248
694.363	0.0110862
694.442	0.0108790
694.520	0.0108391
694.598	0.0110822
694.676	0.0110344
694.754	0.0113594
694.832	0.0117303
694.910	0.0121915
694.988	0.0126730
695.067	0.0133577
695.145	0.0138766
695.223	0.0146832
695.301	0.0150846
695.379	0.0157815
695.457	0.0164680
695.535	0.0171845
695.613	0.0179575
695.692	0.0184818
695.770	0.0189367
695.848	0.0194493
695.926	0.0196683
696.004	0.0201029
696.082	0.0202444
696.160	0.0201916
696.238	0.0201998
696.317	0.0197511
696.395	0.0193865
696.473	0.0185979
696.551	0.0177151
696.629	0.0168348
696.707	0.0156374
696.785	0.0144055
696.863	0.0130788
696.942	0.0117787
697.020	0.0105425
697.098	0.00945679
697.176	0.00844025
697.254	0.00758636
697.332	0.00721207
697.410	0.00722504
697.488	0.00749146
697.567	0.00817520
697.645	0.00893494
697.723	0.0102093
697.801	0.0114972
697.879	0.0127431
697.957	0.0143476
698.035	0.0157125
698.113	0.0172900
698.192	0.0184692
698.270	0.0193428
698.348	0.0203365
698.426	0.0209358
698.504	0.0213956
698.582	0.0215196
698.660	0.0214830
698.738	0.0213004
698.817	0.0210955
698.895	0.0207520
698.973	0.0204116
699.051	0.0198914
699.129	0.0192085
699.207	0.0187031
699.285	0.0179689
699.363	0.0171839
699.442	0.0165121
699.520	0.0160215
699.598	0.0153094
699.676	0.0146059
699.754	0.0139342
699.832	0.0134543
699.910	0.0127583
699.988	0.0122075
700.067	0.0116708
700.145	0.0112259
700.223	0.0108019
700.301	0.0105795
700.379	0.0105585
700.457	0.0103822
700.535	0.0104341
700.613	0.0105756
700.692	0.0109480
700.770	0.0115914
700.848	0.0121826
700.926	0.0128302
701.004	0.0135993
701.082	0.0146599
701.160	0.0154351
701.238	0.0161913
701.317	0.0168994
701.395	0.0175040
701.473	0.0178448
701.551	0.0181033
701.629	0.0182470
701.707	0.0180539
701.785	0.0179762
701.863	0.0177229
701.942	0.0174270
702.020	0.0170833
702.098	0.0167210
702.176	0.0161257
702.254	0.0157007
702.332	0.0151899
702.410	0.0150028
702.488	0.0145581
702.567	0.0145346
702.645	0.0142248
702.723	0.0142403
702.801	0.0142923
702.879	0.0144482
702.957	0.0145171
703.035	0.0149327
703.113	0.0151668
703.192	0.0157495
703.270	0.0159379
703.348	0.0160390
703.426	0.0164786
703.504	0.0165356
703.582	0.0165191
703.660	0.0164476
703.738	0.0162878
703.817	0.0160728
703.895	0.0157071
703.973	0.0153988
704.051	0.0151942
704.129	0.0149763
704.207	0.0147450
704.285	0.0147903
704.363	0.0146098
704.442	0.0145823
704.520	0.0145361
704.598	0.0144210
704.676	0.0143781
704.754	0.0144717
704.832	0.0144855
704.910	0.0146746
704.988	0.0144411
705.067	0.0146527
705.145	0.0146307
705.223	0.0146844
705.301	0.0147647
705.379	0.0147075
705.457	0.0145829
705.535	0.0147123
705.613	0.0144916
705.692	0.0143986
705.770	0.0143141
705.848	0.0143649
705.926	0.0144297
706.004	0.0142040
706.082	0.0143135
706.160	0.0145417
706.238	0.0146616
706.317	0.0147625
706.395	0.0151169
706.473	0.0153785
706.551	0.0157114
706.629	0.0161284
706.707	0.0166251
706.785	0.0168929
706.863	0.0171011
706.942	0.0173668
707.020	0.0176533
707.098	0.0177352
707.176	0.0175130
707.254	0.0173770
707.332	0.0169997
707.410	0.0165427
707.488	0.0159912
707.567	0.0154384
707.645	0.0148948
707.723	0.0143651
707.801	0.0138271
707.879	0.0133384
707.957	0.0129515
708.035	0.0125868
708.113	0.0124039
708.192	0.0123693
708.270	0.0125054
708.348	0.0127602
708.426	0.0128050
708.504	0.0132482
708.582	0.0137347
708.660	0.0140504
708.738	0.0143250
708.817	0.0148693
708.895	0.0150818
708.973	0.0154732
709.051	0.0157088
709.129	0.0158430
709.207	0.0159263
709.285	0.0159650
709.363	0.0159942
709.442	0.0160222
709.520	0.0160471
709.598	0.0159843
709.676	0.0159457
709.754	0.0159410
709.832	0.0158722
709.910	0.0160155
709.988	0.0160350
710.067	0.0161626
710.145	0.0162680
710.223	0.0163874
710.301	0.0164457
710.379	0.0167019
710.457	0.0168116
710.535	0.0168324
710.613	0.0170029
710.692	0.0169736
710.770	0.0168866
710.848	0.0167999
710.926	0.0167891
711.004	0.0164867
711.082	0.0162222
711.160	0.0160046
711.238	0.0155292
711.317	0.0150440
711.395	0.0147533
711.473	0.0143981
711.551	0.0140173
711.629	0.0135822
711.707	0.0131549
711.785	0.0129036
711.863	0.0126994
711.942	0.0126336
712.020	0.0124891
712.098	0.0123276
712.176	0.0124154
712.254	0.0124981
712.332	0.0126331
712.410	0.0126425
712.488	0.0127584
712.567	0.0131355
712.645	0.0134470
712.723	0.0137194
712.801	0.0140993
712.879	0.0144167
712.957	0.0149636
713.035	0.0153369
713.113	0.0157372
713.192	0.0163350
713.270	0.0167561
713.348	0.0171809
713.426	0.0174190
713.504	0.0177939
713.582	0.0178302
713.660	0.0180234
713.738	0.0182626
713.817	0.0182127
713.895	0.0180935
713.973	0.0178379
714.051	0.0177896
714.129	0.0174142
714.207	0.0171556
714.285	0.0168034
714.363	0.0164094
714.442	0.0159742
714.520	0.0155114
714.598	0.0151633
714.676	0.0147707
714.754	0.0142226
714.832	0.0140996
714.910	0.0137254
714.988	0.0135842
715.067	0.0132409
715.145	0.0130161
715.223	0.0130384
715.301	0.0128507
715.379	0.0128728
715.457	0.0129608
715.535	0.0131510
715.613	0.0132863
715.692	0.0135264
715.770	0.0139618
715.848	0.0139501
715.926	0.0141490
716.004	0.0146182
716.082	0.0147807
716.160	0.0150700
716.238	0.0154400
716.317	0.0157430
716.395	0.0158666
716.473	0.0162648
716.551	0.0164755
716.629	0.0166183
716.707	0.0167334
716.785	0.0165726
716.863	0.0166609
716.942	0.0169241
717.020	0.0168896
717.098	0.0167860
717.176	0.0166464
717.254	0.0165450
717.332	0.0165118
717.410	0.0165986
717.488	0.0164944
717.567	0.0163527
717.645	0.0161671
717.723	0.0160800
717.801	0.0158967
717.879	0.0156779
717.957	0.0154446
718.035	0.0151962
718.113	0.0149328
718.192	0.0147274
718.270	0.0144305
718.348	0.0141508
718.426	0.0139805
718.504	0.0137009
718.582	0.0136364
718.660	0.0134344
718.738	0.0133022
718.817	0.0133754
718.895	0.0133281
718.973	0.0133705
719.051	0.0134547
719.129	0.0135662
719.207	0.0137782
719.285	0.0140434
719.363	0.0142433
719.442	0.0144689
719.520	0.0148607
719.598	0.0151991
719.676	0.0155003
719.754	0.0158572
719.832	0.0162804
719.910	0.0164155
719.988	0.0166178
720.067	0.0169322
720.145	0.0169595
720.223	0.0170217
720.301	0.0170946
720.379	0.0170787
720.457	0.0170150
720.535	0.0169840
720.613	0.0167796
720.692	0.0167536
720.770	0.0166117
720.848	0.0163536
720.926	0.0161086
721.004	0.0160268
721.082	0.0157574
721.160	0.0157116
721.238	0.0155433
721.317	0.0153073
721.395	0.0152795
721.473	0.0151119
721.551	0.0148874
721.629	0.0146644
721.707	0.0145798
721.785	0.0146574
721.863	0.0143365
721.942	0.0143306
722.020	0.0144348
722.098	0.0141828
722.176	0.0143967
722.254	0.0144019
722.332	0.0144181
722.410	0.0144291
722.488	0.0144460
722.567	0.0143494
722.645	0.0144670
722.723	0.0145178
722.801	0.0146126
722.879	0.0146317
722.957	0.0146721
723.035	0.0147330
723.113	0.0149176
723.192	0.0151247
723.270	0.0150433
723.348	0.0152969
723.426	0.0152140
723.504	0.0153037
723.582	0.0154929
723.660	0.0156883
723.738	0.0159372
723.817	0.0159550
723.895	0.0160841
723.973	0.0161906
724.051	0.0162707
724.129	0.0163354
724.207	0.0163157
724.285	0.0163314
724.363	0.0161929
724.442	0.0162222
724.520	0.0161340
724.598	0.0159370
724.676	0.0159346
724.754	0.0157444
724.832	0.0155322
724.910	0.0153645
724.988	0.0151946
725.067	0.0152416
725.145	0.0150028
725.223	0.0149160
725.301	0.0147371
725.379	0.0146577
725.457	0.0148052
725.535	0.0146066
725.613	0.0144862
725.692	0.0144071
725.770	0.0144340
725.848	0.0143176
725.926	0.0143329
726.004	0.0144278
726.082	0.0142780
726.160	0.0144234
726.238	0.0141833
726.317	0.0142731
726.395	0.0143278
726.473	0.0143752
726.551	0.0145157
726.629	0.0144962
726.707	0.0147576
726.785	0.0149226
726.863	0.0151263
726.942	0.0152618
727.020	0.0156215
727.098	0.0159257
727.176	0.0159814
727.254	0.0162681
727.332	0.0165741
727.410	0.0168373
727.488	0.0168134
727.567	0.0169062
727.645	0.0169841
727.723	0.0169326
727.801	0.0167825
727.879	0.0167389
727.957	0.0165739
728.035	0.0163002
728.113	0.0161497
728.192	0.0160024
728.270	0.0157774
728.348	0.0155701
728.426	0.0152744
728.504	0.0151340
728.582	0.0149532
728.660	0.0146661
728.738	0.0145706
728.817	0.0142968
728.895	0.0141952
728.973	0.0140881
729.051	0.0140176
729.129	0.0140795
729.207	0.0138322
729.285	0.0140943
729.363	0.0141269
729.442	0.0142439
729.520	0.0142422
729.598	0.0145618
729.676	0.0145670
729.754	0.0146062
729.832	0.0147050
729.910	0.0146432
729.988	0.0145243
730.067	0.0146903
730.145	0.0145540
730.223	0.0145943
730.301	0.0144944
730.379	0.0143526
730.457	0.0144048
730.535	0.0142985
730.613	0.0145843
730.692	0.0146822
730.770	0.0147606
730.848	0.0149274
730.926	0.0151031
731.004	0.0153498
731.082	0.0154602
731.160	0.0156432
731.238	0.0159000
731.317	0.0161864
731.395	0.0164214
731.473	0.0162952
731.551	0.0165252
731.629	0.0166164
731.707	0.0167506
731.785	0.0166537
731.863	0.0165352
731.942	0.0164323
732.020	0.0163552
732.098	0.0163272
732.176	0.0162160
732.254	0.0158974
732.332	0.0157755
732.410	0.0156291
732.488	0.0153326
732.567	0.0153474
732.645	0.0152531
732.723	0.0150658
732.801	0.0148995
732.879	0.0146696
732.957	0.0147505
733.035	0.0145989
733.113	0.0144529
733.192	0.0144909
733.270	0.0144588
733.348	0.0143307
733.426	0.0143394
733.504	0.0141801
733.582	0.0141238
733.660	0.0141130
733.738	0.0141452
733.817	0.0140199
733.895	0.0141741
733.973	0.0141065
734.051	0.0143012
734.129	0.0143728
734.207	0.0144195
734.285	0.0147677
734.363	0.0150085
734.442	0.0151224
734.520	0.0152543
734.598	0.0155138
734.676	0.0156910
734.754	0.0158570
734.832	0.0160022
734.910	0.0161041
734.988	0.0162414
735.067	0.0164021
735.145	0.0162893
735.223	0.0162481
735.301	0.0160778
735.379	0.0159332
735.457	0.0157440
735.535	0.0156206
735.613	0.0153804
735.692	0.0151893
735.770	0.0151548
735.848	0.0150568
735.926	0.0150549
736.004	0.0147839
736.082	0.0149573
736.160	0.0149884
736.238	0.0150090
736.317	0.0151059
736.395	0.0150630
736.473	0.0152107
736.551	0.0152160
736.629	0.0152867
736.707	0.0153748
736.785	0.0154517
736.863	0.0154226
736.942	0.0154699
737.020	0.0155026
737.098	0.0152353
737.176	0.0152064
737.254	0.0151532
737.332	0.0148449
737.410	0.0147851
737.488	0.0148370
737.567	0.0147936
737.645	0.0146073
737.723	0.0146085
737.801	0.0146112
737.879	0.0146997
737.957	0.0147961
738.035	0.0149270
738.113	0.0148025
738.192	0.0150320
738.270	0.0151977
738.348	0.0151432
738.426	0.0154502
738.504	0.0154137
738.582	0.0155229
738.660	0.0156360
738.738	0.0157523
738.817	0.0156413
738.895	0.0156645
738.973	0.0156388
739.051	0.0158611
739.129	0.0158591
739.207	0.0158501
739.285	0.0156781
739.363	0.0156429
739.442	0.0157537
739.520	0.0158730
739.598	0.0157866
739.676	0.0157328
739.754	0.0157126
739.832	0.0158132
739.910	0.0157224
739.988	0.0156158
740.067	0.0154549
740.145	0.0155519
740.223	0.0154786
740.301	0.0152795
740.379	0.0151974
740.457	0.0150068
740.535	0.0150960
740.613	0.0149037
740.692	0.0145937
740.770	0.0145764
740.848	0.0144222
740.926	0.0143078
741.004	0.0142455
741.082	0.0142467
741.160	0.0142250
741.238	0.0142478
741.317	0.0143482
741.395	0.0145118
741.473	0.0145569
741.551	0.0146981
741.629	0.0149362
741.707	0.0150072
741.785	0.0151844
741.863	0.0155400
741.942	0.0157307
742.020	0.0156514
742.098	0.0156878
742.176	0.0157617
742.254	0.0158234
742.332	0.0158531
742.410	0.0158707
742.488	0.0158608
742.567	0.0157962
742.645	0.0155087
742.723	0.0155967
742.801	0.0156097
742.879	0.0153214
742.957	0.0153639
743.035	0.0151841
743.113	0.0152619
743.192	0.0150288
743.270	0.0149789
743.348	0.0149683
743.426	0.0152637
743.504	0.0150414
743.582	0.0150951
743.660	0.0153493
743.738	0.0152825
743.817	0.0152766
743.895	0.0152800
743.973	0.0154126
744.051	0.0154475
744.129	0.0155362
744.207	0.0156097
744.285	0.0155663
744.363	0.0156401
744.442	0.0156783
744.520	0.0155596
744.598	0.0155505
744.676	0.0153790
744.754	0.0152515
744.832	0.0153179
744.910	0.0151313
744.988	0.0150301
745.067	0.0149378
745.145	0.0149039
745.223	0.0147655
745.301	0.0146704
745.379	0.0145834
745.457	0.0146532
745.535	0.0146857
745.613	0.0147451
745.692	0.0147032
745.770	0.0146447
745.848	0.0147927
745.926	0.0148538
746.004	0.0149831
746.082	0.0148661
746.160	0.0149805
746.238	0.0149407
746.317	0.0149944
746.395	0.0150609
746.473	0.0150806
746.551	0.0150757
746.629	0.0152555
746.707	0.0152791
746.785	0.0153583
746.863	0.0154134
746.942	0.0156004
747.020	0.0156377
747.098	0.0155732
747.176	0.0157047
747.254	0.0160336
747.332	0.0159424
747.410	0.0159797
747.488	0.0159785
747.567	0.0159933
747.645	0.0158935
747.723	0.0158034
747.801	0.0158102
747.879	0.0156848
747.957	0.0155933
748.035	0.0153861
748.113	0.0152283
748.192	0.0151737
748.270	0.0150182
748.348	0.0149171
748.426	0.0146307
748.504	0.0146873
748.582	0.0147384
748.660	0.0146368
748.738	0.0148148
748.817	0.0147541
748.895	0.0147366
748.973	0.0147215
749.051	0.0150037
749.129	0.0149384
749.207	0.0149400
749.285	0.0151531
749.363	0.0152406
749.442	0.0154234
749.520	0.0153596
749.598	0.0154078
749.676	0.0154509
749.754	0.0154528
749.832	0.0155189
749.910	0.0155118
749.988	0.0154343
750.067	0.0155623
750.145	0.0154532
750.223	0.0154466
750.301	0.0154499
750.379	0.0153757
750.457	0.0153496
750.535	0.0153572
750.613	0.0152706
750.692	0.0153344
750.770	0.0152914
750.848	0.0150237
750.926	0.0151534
751.004	0.0152968
751.082	0.0152218
751.160	0.0151313
751.238	0.0151740
751.317	0.0152077
751.395	0.0152763
751.473	0.0151871
751.551	0.0152152
751.629	0.0151302
751.707	0.0152930
751.785	0.0152121
751.863	0.0151264
751.942	0.0152462
752.020	0.0151916
752.098	0.0151647
752.176	0.0153086
752.254	0.0152843
752.332	0.0152278
752.410	0.0153169
752.488	0.0153682
752.567	0.0153364
752.645	0.0152770
752.723	0.0156118
752.801	0.0155022
752.879	0.0153943
752.957	0.0154919
753.035	0.0154369
753.113	0.0152194
753.192	0.0150826
753.270	0.0150337
753.348	0.0148219
753.426	0.0149664
753.504	0.0148229
753.582	0.0146534
753.660	0.0145745
753.738	0.0144703
753.817	0.0143903
753.895	0.0144907
753.973	0.0146120
754.051	0.0148373
754.129	0.0151874
754.207	0.0151593
754.285	0.0152519
754.363	0.0152882
754.442	0.0152685
754.520	0.0155608
754.598	0.0156689
754.676	0.0156863
754.754	0.0156537
754.832	0.0156988
754.910	0.0157886
754.988	0.0156961
755.067	0.0156629
755.145	0.0155769
755.223	0.0155192
755.301	0.0155328
755.379	0.0156120
755.457	0.0155307
755.535	0.0154288
755.613	0.0156234
755.692	0.0155244
755.770	0.0154134
755.848	0.0156499
755.926	0.0155372
756.004	0.0153506
756.082	0.0153694
756.160	0.0152966
756.238	0.0154809
756.317	0.0153582
756.395	0.0152352
756.473	0.0151712
756.551	0.0152200
756.629	0.0150769
756.707	0.0149375
756.785	0.0149342
756.863	0.0148238
756.942	0.0146969
757.020	0.0146786
757.098	0.0147881
757.176	0.0147648
757.254	0.0148565
757.332	0.0147168
757.410	0.0148957
757.488	0.0148792
757.567	0.0150155
757.645	0.0150581
757.723	0.0150446
757.801	0.0153172
757.879	0.0153806
757.957	0.0153122
758.035	0.0155751
758.113	0.0155135
758.192	0.0155273
758.270	0.0156569
758.348	0.0154455
758.426	0.0154290
758.504	0.0153848
758.582	0.0154404
758.660	0.0152923
758.738	0.0152123
758.817	0.0151842
758.895	0.0150951
758.973	0.0149998
759.051	0.0149934
759.129	0.0149825
759.207	0.0151669
759.285	0.0152255
759.363	0.0150928
759.442	0.0151887
759.520	0.0154327
759.598	0.0154170
759.676	0.0154058
759.754	0.0155222
759.832	0.0155322
759.910	0.0155151
759.988	0.0156912
760.067	0.0154875
760.145	0.0154910
760.223	0.0155062
760.301	0.0154723
760.379	0.0153645
760.457	0.0151724
760.535	0.0151572
760.613	0.0151672
760.692	0.0152707
760.770	0.0151482
760.848	0.0150872
760.926	0.0150272
761.004	0.0150399
761.082	0.0151629
761.160	0.0149642
761.238	0.0150580
761.317	0.0149153
761.395	0.0150698
761.473	0.0149105
761.551	0.0148847
761.629	0.0147935
761.707	0.0148198
761.785	0.0149491
761.863	0.0148225
761.942	0.0149531
762.020	0.0150002
762.098	0.0150549
762.176	0.0150947
762.254	0.0150703
762.332	0.0152747
762.410	0.0152169
762.488	0.0151743
762.567	0.0151799
762.645	0.0152104
762.723	0.0152567
762.801	0.0152664
762.879	0.0152980
762.957	0.0153342
763.035	0.0153649
763.113	0.0155061
763.192	0.0155186
763.270	0.0155810
763.348	0.0155219
763.426	0.0154668
763.504	0.0154779
763.582	0.0155446
763.660	0.0154893
763.738	0.0155844
763.817	0.0154173
763.895	0.0154353
763.973	0.0154312
764.051	0.0152649
764.129	0.0151414
764.207	0.0152069
764.285	0.0151602
764.363	0.0152068
764.442	0.0151672
764.520	0.0151008
764.598	0.0152724
764.676	0.0151912
764.754	0.0150670
764.832	0.0151976
764.910	0.0151149
764.988	0.0150756
765.067	0.0152016
765.145	0.0150928
765.223	0.0148813
765.301	0.0150603
765.379	0.0149861
765.457	0.0149976
765.535	0.0150579
765.613	0.0150854
765.692	0.0150803
765.770	0.0151338
765.848	0.0150977
765.926	0.0152309
766.004	0.0151094
766.082	0.0150526
766.160	0.0153493
766.238	0.0154482
766.317	0.0153739
766.395	0.0154649
766.473	0.0155014
766.551	0.0153049
766.629	0.0154138
766.707	0.0154737
766.785	0.0152706
766.863	0.0154187
766.942	0.0153041
767.020	0.0150774
767.098	0.0152389
767.176	0.0152197
767.254	0.0151747
767.332	0.0152793
767.410	0.0151990
767.488	0.0152367
767.567	0.0152338
767.645	0.0150630
767.723	0.0151237
767.801	0.0151425
767.879	0.0151045
767.957	0.0151690
768.035	0.0152426
768.113	0.0151330
768.192	0.0150986
768.270	0.0151036
768.348	0.0150980
768.426	0.0152496
768.504	0.0152092
768.582	0.0151168
768.660	0.0151742
768.738	0.0153140
768.817	0.0152526
768.895	0.0152361
768.973	0.0153557
769.051	0.0153420
769.129	0.0154231
769.207	0.0154015
769.285	0.0154482
769.363	0.0153996
769.442	0.0152180
769.520	0.0152850
769.598	0.0153336
769.676	0.0150949
769.754	0.0151214
769.832	0.0150387
769.910	0.0151448
769.988	0.0150607
770.067	0.0149303
770.145	0.0149609
770.223	0.0150452
770.301	0.0149889
770.379	0.0151245
770.457	0.0150791
770.535	0.0149725
770.613	0.0149389
770.692	0.0149702
770.770	0.0150430
770.848	0.0151515
770.926	0.0151164
771.004	0.0152433
771.082	0.0152896
771.160	0.0151552
771.238	0.0152409
771.317	0.0154596
771.395	0.0154930
771.473	0.0154599
771.551	0.0153477
771.629	0.0154369
771.707	0.0153502
771.785	0.0152979
771.863	0.0153069
771.942	0.0153040
772.020	0.0153619
772.098	0.0154083
772.176	0.0153403
772.254	0.0152808
772.332	0.0152997
772.410	0.0154836
772.488	0.0154221
772.567	0.0154025
772.645	0.0154035
772.723	0.0153819
772.801	0.0152972
772.879	0.0152817
772.957	0.0153820
773.035	0.0151951
773.113	0.0152313
773.192	0.0152607
773.270	0.0151003
773.348	0.0151606
773.426	0.0150260
773.504	0.0149331
773.582	0.0150439
773.660	0.0150150
773.738	0.0149800
773.817	0.0148875
773.895	0.0148466
773.973	0.0149963
774.051	0.0150175
774.129	0.0149788
774.207	0.0150735
774.285	0.0150775
774.363	0.0150891
774.442	0.0151192
774.520	0.0150906
774.598	0.0152526
774.676	0.0151960
774.754	0.0152770
774.832	0.0153098
774.910	0.0152516
774.988	0.0153059
775.067	0.0153209
775.145	0.0153166
775.223	0.0153752
775.301	0.0152973
775.379	0.0152711
775.457	0.0151904
775.535	0.0151446
775.613	0.0152213
775.692	0.0153057
775.770	0.0153333
775.848	0.0152675
775.926	0.0153885
776.004	0.0154780
776.082	0.0152930
776.160	0.0153979
776.238	0.0154642
776.317	0.0154591
776.395	0.0154492
776.473	0.0153499
776.551	0.0152354
776.629	0.0153844
776.707	0.0152090
776.785	0.0151167
776.863	0.0151449
776.942	0.0152402
777.020	0.0151432
777.098	0.0149757
777.176	0.0150032
777.254	0.0150581
777.332	0.0150860
777.410	0.0151870
777.488	0.0150925
777.567	0.0151240
777.645	0.0151396
777.723	0.0151569
777.801	0.0150732
777.879	0.0153692
777.957	0.0153463
778.035	0.0152664
778.113	0.0153705
778.192	0.0153954
778.270	0.0153658
778.348	0.0153762
778.426	0.0152313
778.504	0.0152426
778.582	0.0153532
778.660	0.0154911
778.738	0.0152217
778.817	0.0152692
778.895	0.0153622
778.973	0.0153302
779.051	0.0153736
779.129	0.0154176
779.207	0.0153902
779.285	0.0154578
779.363	0.0153564
779.442	0.0153547
779.520	0.0153007
779.598	0.0152414
779.676	0.0153391
779.754	0.0153816
779.832	0.0152703
779.910	0.0151847
779.988	0.0150925
780.067	0.0150851
780.145	0.0149376
780.223	0.0148328
780.301	0.0149069
780.379	0.0148975
780.457	0.0149669
780.535	0.0147889
780.613	0.0147759
780.692	0.0150128
780.770	0.0150906
780.848	0.0150776
780.926	0.0148703
781.004	0.0152908
781.082	0.0152764
781.160	0.0153118
781.238	0.0153071
781.317	0.0153281
781.395	0.0155865
781.473	0.0154128
781.551	0.0155154
781.629	0.0156997
781.707	0.0154742
781.785	0.0154409
781.863	0.0154233
781.942	0.0154350
782.020	0.0154450
782.098	0.0151617
782.176	0.0152171
782.254	0.0149675
782.332	0.0150891
782.410	0.0150235
782.488	0.0149630
782.567	0.0149538
782.645	0.0149369
782.723	0.0148663
782.801	0.0148766
782.879	0.0149144
782.957	0.0150243
783.035	0.0148643
783.113	0.0148563
783.192	0.0150201
783.270	0.0150763
783.348	0.0152435
783.426	0.0152483
783.504	0.0152829
783.582	0.0153051
783.660	0.0152651
783.738	0.0153544
783.817	0.0154342
783.895	0.0154318
783.973	0.0153824
784.051	0.0153852
784.129	0.0154157
784.207	0.0153460
784.285	0.0155075
784.363	0.0153178
784.442	0.0153808
784.520	0.0152098
784.598	0.0152380
784.676	0.0153017
784.754	0.0151987
784.832	0.0152522
784.910	0.0151295
784.988	0.0151964
785.067	0.0151754
785.145	0.0151945
785.223	0.0151498
785.301	0.0151829
785.379	0.0152165
785.457	0.0151186
785.535	0.0150400
785.613	0.0150781
785.692	0.0148841
785.770	0.0150948
785.848	0.0150935
785.926	0.0149942
786.004	0.0149429
786.082	0.0151270
786.160	0.0150190
786.238	0.0150164
786.317	0.0151604
786.395	0.0151056
786.473	0.0151797
786.551	0.0151189
786.629	0.0152944
786.707	0.0153045
786.785	0.0152187
786.863	0.0152598
786.942	0.0152422
787.020	0.0152470
787.098	0.0153458
787.176	0.0153591
787.254	0.0153590
787.332	0.0153566
787.410	0.0153471
787.488	0.0153545
787.567	0.0152579
787.645	0.0152542
787.723	0.0153554
787.801	0.0152827
787.879	0.0153400
787.957	0.0151773
788.035	0.0152981
788.113	0.0151197
788.192	0.0151785
788.270	0.0151991
788.348	0.0151498
788.426	0.0150417
788.504	0.0150357
788.582	0.0150171
788.660	0.0150813
788.738	0.0150819
788.817	0.0150932
788.895	0.0150850
788.973	0.0150290
789.051	0.0151527
789.129	0.0152245
789.207	0.0151617
789.285	0.0152556
789.363	0.0152727
789.442	0.0153671
789.520	0.0154944
789.598	0.0152977
789.676	0.0155108
789.754	0.0154380
789.832	0.0155517
789.910	0.0154577
789.988	0.0155759
790.067	0.0154724
790.145	0.0154869
790.223	0.0154189
790.301	0.0153358
790.379	0.0152576
790.457	0.0151381
790.535	0.0151465
790.613	0.0150555
790.692	0.0149515
790.770	0.0149334
790.848	0.0148818
790.926	0.0147619
791.004	0.0146832
791.082	0.0146777
791.160	0.0147497
791.238	0.0147797
791.317	0.0149059
791.395	0.0149237
791.473	0.0147611
791.551	0.0150607
791.629	0.0151517
791.707	0.0151878
791.785	0.0153537
791.863	0.0154450
791.942	0.0155030
792.020	0.0155562
792.098	0.0156128
792.176	0.0156590
792.254	0.0156242
792.332	0.0157718
792.410	0.0157437
792.488	0.0157370
792.567	0.0158070
792.645	0.0156077
792.723	0.0156083
792.801	0.0154094
792.879	0.0153824
792.957	0.0152865
793.035	0.0151874
793.113	0.0152175
793.192	0.0151045
793.270	0.0150227
793.348	0.0149899
793.426	0.0149490
793.504	0.0147120
793.582	0.0147202
793.660	0.0146710
793.738	0.0147729
793.817	0.0146947
793.895	0.0146667
793.973	0.0146037
794.051	0.0146796
794.129	0.0146346
794.207	0.0148999
794.285	0.0149240
794.363	0.0150515
794.442	0.0149586
794.520	0.0150345
794.598	0.0153075
794.676	0.0154057
794.754	0.0153504
794.832	0.0155165
794.910	0.0155682
794.988	0.0155499
795.067	0.0156749
795.145	0.0157516
795.223	0.0157838
795.301	0.0157659
795.379	0.0157606
795.457	0.0156718
795.535	0.0157663
795.613	0.0157577
795.692	0.0156468
795.770	0.0156122
795.848	0.0157401
795.926	0.0156236
796.004	0.0153172
796.082	0.0154799
796.160	0.0153195
796.238	0.0151138
796.317	0.0151549
796.395	0.0152323
796.473	0.0150957
796.551	0.0148640
796.629	0.0147652
796.707	0.0146926
796.785	0.0145779
796.863	0.0145545
796.942	0.0144440
797.020	0.0145000
797.098	0.0146346
797.176	0.0144892
797.254	0.0146394
797.332	0.0148228
797.410	0.0146942
797.488	0.0148958
797.567	0.0148830
797.645	0.0149055
797.723	0.0152264
797.801	0.0151583
797.879	0.0153568
797.957	0.0153372
798.035	0.0154651
798.113	0.0156154
798.192	0.0154944
798.270	0.0154583
798.348	0.0155309
798.426	0.0155834
798.504	0.0155291
798.582	0.0154114
798.660	0.0154583
798.738	0.0154697
798.817	0.0153311
798.895	0.0153188
798.973	0.0152876
799.051	0.0153567
799.129	0.0153370
799.207	0.0153527
799.285	0.0150967
799.363	0.0152634
799.442	0.0152100
799.520	0.0151451
799.598	0.0151394
799.676	0.0151526
799.754	0.0151568
799.832	0.0152029
799.910	0.0150701
799.988	0.0149715
800.067	0.0150879
800.145	0.0150526
800.223	0.0153021
800.301	0.0152473
800.379	0.0152377
800.457	0.0153046
800.535	0.0154792
800.613	0.0154256
800.692	0.0153547
800.770	0.0152738
800.848	0.0154150
800.926	0.0153822
801.004	0.0153271
801.082	0.0155311
801.160	0.0153942
801.238	0.0153317
801.317	0.0153222
801.395	0.0154192
801.473	0.0152007
801.551	0.0150996
801.629	0.0152293
801.707	0.0152015
801.785	0.0150883
801.863	0.0150443
801.942	0.0150599
802.020	0.0150965
802.098	0.0150662
802.176	0.0149825
802.254	0.0150317
802.332	0.0150170
802.410	0.0150596
802.488	0.0150579
802.567	0.0150612
802.645	0.0151167
802.723	0.0151099
802.801	0.0151207
802.879	0.0150900
802.957	0.0151553
803.035	0.0152711
803.113	0.0151712
803.192	0.0150393
803.270	0.0152184
803.348	0.0153329
803.426	0.0152386
803.504	0.0154832
803.582	0.0154657
803.660	0.0153777
803.738	0.0151590
803.817	0.0153863
803.895	0.0153594
803.973	0.0153860
804.051	0.0153246
804.129	0.0153036
804.207	0.0153591
804.285	0.0152610
804.363	0.0150735
804.442	0.0149688
804.520	0.0151927
804.598	0.0151042
804.676	0.0149734
804.754	0.0150577
804.832	0.0151202
804.910	0.0149633
804.988	0.0150079
805.067	0.0150777
805.145	0.0149773
805.223	0.0150822
805.301	0.0150816
805.379	0.0151255
805.457	0.0152138
805.535	0.0152129
805.613	0.0152369
805.692	0.0152895
805.770	0.0153040
805.848	0.0152653
805.926	0.0153815
806.004	0.0152792
806.082	0.0153171
806.160	0.0152719
806.238	0.0152650
806.317	0.0154663
806.395	0.0152711
806.473	0.0154214
806.551	0.0154038
806.629	0.0153193
806.707	0.0155235
806.785	0.0155888
806.863	0.0153446
806.942	0.0154800
807.020	0.0154718
807.098	0.0154182
807.176	0.0153757
807.254	0.0154242
807.332	0.0154435
807.410	0.0153669
807.488	0.0152042
807.567	0.0151521
807.645	0.0151031
807.723	0.0151822
807.801	0.0150363
807.879	0.0150544
807.957	0.0150669
808.035	0.0151127
808.113	0.0150387
808.192	0.0151118
808.270	0.0150548
808.348	0.0151077
808.426	0.0150964
808.504	0.0151187
808.582	0.0150969
808.660	0.0151726
808.738	0.0151614
808.817	0.0152423
808.895	0.0150283
808.973	0.0150668
809.051	0.0152428
809.129	0.0152804
809.207	0.0152015
809.285	0.0151794
809.363	0.0150148
809.442	0.0151868
809.520	0.0151841
809.598	0.0152332
809.676	0.0151109
809.754	0.0154615
809.832	0.0153312
809.910	0.0153077
809.988	0.0154177
810.067	0.0154053
810.145	0.0154807
810.223	0.0153909
810.301	0.0154742
810.379	0.0153457
810.457	0.0154366
810.535	0.0153967
810.613	0.0154126
810.692	0.0152719
810.770	0.0153145
810.848	0.0153359
810.926	0.0152650
811.004	0.0153875
811.082	0.0150575
811.160	0.0150168
811.238	0.0151746
811.317	0.0151843
811.395	0.0150223
811.473	0.0149934
811.551	0.0150575
811.629	0.0150141
811.707	0.0150368
811.785	0.0150224
811.863	0.0150506
811.942	0.0150869
812.020	0.0153133
812.098	0.0151807
812.176	0.0152247
812.254	0.0154064
812.332	0.0152647
812.410	0.0151131
812.488	0.0152934
812.567	0.0151115
812.645	0.0151353
812.723	0.0151154
812.801	0.0150889
812.879	0.0152405
812.957	0.0151314
813.035	0.0151128
813.113	0.0150646
813.192	0.0151713
813.270	0.0152516
813.348	0.0150809
813.426	0.0152833
813.504	0.0154334
813.582	0.0152622
813.660	0.0154541
813.738	0.0154057
813.817	0.0152777
813.895	0.0154791
813.973	0.0154034
814.051	0.0155095
814.129	0.0153578
814.207	0.0152936
814.285	0.0153208
814.363	0.0152122
814.442	0.0153677
814.520	0.0153634
814.598	0.0153259
814.676	0.0153394
814.754	0.0150582
814.832	0.0152038
814.910	0.0152043
814.988	0.0151073
815.067	0.0151882
815.145	0.0150419
815.223	0.0150983
815.301	0.0151019
815.379	0.0149966
815.457	0.0151049
815.535	0.0151142
815.613	0.0151009
815.692	0.0150708
815.770	0.0151658
815.848	0.0151210
815.926	0.0151146
816.004	0.0151757
816.082	0.0150231
816.160	0.0151146
816.238	0.0150495
816.317	0.0153191
816.395	0.0152471
816.473	0.0152928
816.551	0.0151974
816.629	0.0152296
816.707	0.0152382
816.785	0.0153412
816.863	0.0153004
816.942	0.0154581
817.020	0.0154450
817.098	0.0153875
817.176	0.0154273
817.254	0.0153153
817.332	0.0155091
817.410	0.0156104
817.488	0.0154893
817.567	0.0154688
817.645	0.0155061
817.723	0.0154771
817.801	0.0155165
817.879	0.0152930
817.957	0.0153900
818.035	0.0151778
818.113	0.0152997
818.192	0.0153512
818.270	0.0153985
818.348	0.0151971
818.426	0.0151318
818.504	0.0149565
818.582	0.0149920
818.660	0.0149580
818.738	0.0147953
818.817	0.0151237
818.895	0.0150024
818.973	0.0149285
819.051	0.0149050
819.129	0.0148920
819.207	0.0149365
819.285	0.0150848
819.363	0.0150362
819.442	0.0152153
819.520	0.0151497
819.598	0.0151799
819.676	0.0152560
819.754	0.0152432
819.832	0.0153909
819.910	0.0155190
819.988	0.0153387
820.067	0.0153975
820.145	0.0155472
820.223	0.0156113
820.301	0.0154675
820.379	0.0155380
820.457	0.0155952
820.535	0.0156113
820.613	0.0156017
820.692	0.0156486
820.770	0.0156338
820.848	0.0155936
820.926	0.0153144
821.004	0.0154042
821.082	0.0154498
821.160	0.0152984
821.238	0.0152043
821.317	0.0152090
821.395	0.0150736
821.473	0.0150368
821.551	0.0149663
821.629	0.0149707
821.707	0.0150272
821.785	0.0149818
821.863	0.0150397
821.942	0.0150504
822.020	0.0149529
822.098	0.0150285
822.176	0.0151688
822.254	0.0151417
822.332	0.0151936
822.410	0.0152353
822.488	0.0153127
822.567	0.0153359
822.645	0.0152861
822.723	0.0153278
822.801	0.0154386
822.879	0.0154150
822.957	0.0152306
823.035	0.0152788
823.113	0.0153653
823.192	0.0153187
823.270	0.0152538
823.348	0.0153371
823.426	0.0155312
823.504	0.0153534
823.582	0.0153318
823.660	0.0152717
823.738	0.0152560
823.817	0.0153054
823.895	0.0152682
823.973	0.0150423
824.051	0.0151154
824.129	0.0151334
824.207	0.0151508
824.285	0.0151514
824.363	0.0151776
824.442	0.0152714
824.520	0.0151051
824.598	0.0151051
824.676	0.0150761
824.754	0.0152534
824.832	0.0152140
824.910	0.0152941
824.988	0.0153590
825.067	0.0152996
825.145	0.0152792
825.223	0.0153552
825.301	0.0154459
825.379	0.0153915
825.457	0.0154400
825.535	0.0154355
825.613	0.0152724
825.692	0.0153722
825.770	0.0154797
825.848	0.0154207
825.926	0.0153734
826.004	0.0154223
826.082	0.0154213
826.160	0.0154071
826.238	0.0152119
826.317	0.0152274
826.395	0.0152506
826.473	0.0150349
826.551	0.0151699
826.629	0.0151292
826.707	0.0150269
826.785	0.0150369
826.863	0.0149207
826.942	0.0150365
827.020	0.0149199
827.098	0.0149886
827.176	0.0149974
827.254	0.0149530
827.332	0.0148229
827.410	0.0148394
827.488	0.0149518
827.567	0.0150051
827.645	0.0150063
827.723	0.0148920
827.801	0.0149362
827.879	0.0151852
827.957	0.0151805
828.035	0.0151559
828.113	0.0152882
828.192	0.0151923
828.270	0.0153146
828.348	0.0154350
828.426	0.0155339
828.504	0.0156200
828.582	0.0155473
828.660	0.0156992
828.738	0.0156327
828.817	0.0155553
828.895	0.0156100
828.973	0.0157214
829.051	0.0155914
829.129	0.0155389
829.207	0.0156084
829.285	0.0155939
829.363	0.0154756
829.442	0.0154177
829.520	0.0155116
829.598	0.0154618
829.676	0.0152344
829.754	0.0152622
829.832	0.0151900
829.910	0.0150351
829.988	0.0150309
830.067	0.0151087
830.145	0.0149755
830.223	0.0149985
830.301	0.0148889
830.379	0.0149339
830.457	0.0147552
830.535	0.0150353
830.613	0.0151174
830.692	0.0149507
830.770	0.0149750
830.848	0.0151166
830.926	0.0151120
831.004	0.0152164
831.082	0.0151891
831.160	0.0152094
831.238	0.0153001
831.317	0.0152316
831.395	0.0153464
831.473	0.0152809
831.551	0.0153750
831.629	0.0154716
831.707	0.0153512
831.785	0.0153969
831.863	0.0154596
831.942	0.0152956
832.020	0.0153667
832.098	0.0155923
832.176	0.0153247
832.254	0.0154829
832.332	0.0152637
832.410	0.0152542
832.488	0.0153760
832.567	0.0153729
832.645	0.0153001
832.723	0.0153358
832.801	0.0152649
832.879	0.0153974
832.957	0.0152070
833.035	0.0153381
833.113	0.0154333
833.192	0.0152859
833.270	0.0152361
833.348	0.0154402
833.426	0.0153668
833.504	0.0154092
833.582	0.0153192
833.660	0.0153168
833.738	0.0152505
833.817	0.0152544
833.895	0.0152995
833.973	0.0153534
834.051	0.0151814
834.129	0.0153346
834.207	0.0151321
834.285	0.0152702
834.363	0.0152499
834.442	0.0152786
834.520	0.0152660
834.598	0.0152303
834.676	0.0153054
834.754	0.0153529
834.832	0.0151565
834.910	0.0152005
834.988	0.0152601
835.067	0.0152991
835.145	0.0151578
835.223	0.0151311
835.301	0.0151907
835.379	0.0151555
835.457	0.0152322
835.535	0.0151588
835.613	0.0150932
835.692	0.0150946
835.770	0.0151280
835.848	0.0149866
835.926	0.0151514
836.004	0.0151849
836.082	0.0151311
836.160	0.0151444
836.238	0.0152621
836.317	0.0151824
836.395	0.0152573
836.473	0.0152061
836.551	0.0152335
836.629	0.0154437
836.707	0.0153150
836.785	0.0152087
836.863	0.0153893
836.942	0.0153574
837.020	0.0154559
837.098	0.0153874
837.176	0.0153907
837.254	0.0153002
837.332	0.0154007
837.410	0.0152567
837.488	0.0151765
837.567	0.0151402
837.645	0.0151654
837.723	0.0152222
837.801	0.0152655
837.879	0.0149986
837.957	0.0150400
838.035	0.0151529
838.113	0.0150938
838.192	0.0150813
838.270	0.0151392
838.348	0.0149115
838.426	0.0150151
838.504	0.0151600
838.582	0.0151199
838.660	0.0151310
838.738	0.0151246
838.817	0.0150699
838.895	0.0151592
838.973	0.0151693
839.051	0.0152224
839.129	0.0151711
839.207	0.0151025
839.285	0.0151133
839.363	0.0152278
839.442	0.0152603
839.520	0.0152161
839.598	0.0149928
839.676	0.0152119
839.754	0.0151663
839.832	0.0154415
839.910	0.0152170
839.988	0.0152443
840.067	0.0152625
840.145	0.0152477
840.223	0.0153433
840.301	0.0153619
840.379	0.0152443
840.457	0.0153814
840.535	0.0153597
840.613	0.0152897
840.692	0.0153835
840.770	0.0153680
840.848	0.0154301
840.926	0.0153716
841.004	0.0153343
841.082	0.0153983
841.160	0.0153606
841.238	0.0152695
841.317	0.0153047
841.395	0.0152115
841.473	0.0152927
841.551	0.0153485
841.629	0.0152228
841.707	0.0151662
841.785	0.0152029
841.863	0.0151732
841.942	0.0152253
842.020	0.0151274
842.098	0.0151127
842.176	0.0152409
842.254	0.0151649
842.332	0.0151144
842.410	0.0149787
842.488	0.0151002
842.567	0.0151112
842.645	0.0150890
842.723	0.0152918
842.801	0.0151537
842.879	0.0149519
842.957	0.0149720
843.035	0.0151386
843.113	0.0153277
843.192	0.0151312
843.270	0.0152438
843.348	0.0153056
843.426	0.0151753
843.504	0.0150861
843.582	0.0151960
843.660	0.0151794
843.738	0.0153316
843.817	0.0152077
843.895	0.0151944
843.973	0.0152754
844.051	0.0154874
844.129	0.0153399
844.207	0.0153336
844.285	0.0151863
844.363	0.0154361
844.442	0.0153886
844.520	0.0153135
844.598	0.0152468
844.676	0.0154511
844.754	0.0153010
844.832	0.0152867
844.910	0.0153216
844.988	0.0152493
845.067	0.0153703
845.145	0.0154162
845.223	0.0153195
845.301	0.0154357
845.379	0.0152383
845.457	0.0152532
845.535	0.0151972
845.613	0.0152392
845.692	0.0152336
845.770	0.0152797
845.848	0.0153379
845.926	0.0152290
846.004	0.0152396
846.082	0.0151573
846.160	0.0152000
846.238	0.0152366
846.317	0.0152580
846.395	0.0151888
846.473	0.0151161
846.551	0.0151530
846.629	0.0152039
846.707	0.0150586
846.785	0.0151765
846.863	0.0151361
846.942	0.0150960
847.020	0.0153377
847.098	0.0151003
847.176	0.0150990
847.254	0.0152299
847.332	0.0151701
847.410	0.0152670
847.488	0.0152404
847.567	0.0153655
847.645	0.0152163
847.723	0.0153736
847.801	0.0153967
847.879	0.0151619
847.957	0.0153414
848.035	0.0153062
848.113	0.0151524
848.192	0.0152994
848.270	0.0152003
848.348	0.0152834
848.426	0.0153350
848.504	0.0152893
848.582	0.0152138
848.660	0.0154115
848.738	0.0151597
848.817	0.0153219
848.895	0.0153394
848.973	0.0152290
849.051	0.0152850
849.129	0.0154773
849.207	0.0152760
849.285	0.0152784
849.363	0.0152979
849.442	0.0152480
849.520	0.0153044
849.598	0.0152547
849.676	0.0153779
849.754	0.0153516
849.832	0.0152686
849.910	0.0152471
849.988	0.0153109
850.067	0.0152910
850.145	0.0151756
850.223	0.0151373
850.301	0.0151633
850.379	0.0152695
850.457	0.0150607
850.535	0.0150301
850.613	0.0150438
850.692	0.0150253
850.770	0.0151183
850.848	0.0151107
850.926	0.0151691
851.004	0.0150461
851.082	0.0151683
851.160	0.0150938
851.238	0.0150939
851.317	0.0150603
851.395	0.0152296
851.473	0.0152485
851.551	0.0152744
851.629	0.0151759
851.707	0.0150859
851.785	0.0153600
851.863	0.0153290
851.942	0.0153005
852.020	0.0151704
852.098	0.0153671
852.176	0.0152983
852.254	0.0152007
852.332	0.0153261
852.410	0.0153263
852.488	0.0154397
852.567	0.0153100
852.645	0.0152980
852.723	0.0154445
852.801	0.0153973
852.879	0.0153764
852.957	0.0152573
853.035	0.0154418
853.113	0.0155204
853.192	0.0153210
853.270	0.0153069
853.348	0.0153632
853.426	0.0154160
853.504	0.0154137
853.582	0.0153869
853.660	0.0152872
853.738	0.0152383
853.817	0.0153100
853.895	0.0152331
853.973	0.0152773
854.051	0.0152676
854.129	0.0152141
854.207	0.0152055
854.285	0.0151424
854.363	0.0151107
854.442	0.0151225
854.520	0.0152164
854.598	0.0152030
854.676	0.0149623
854.754	0.0150505
854.832	0.0152090
854.910	0.0150785
854.988	0.0149107
855.067	0.0150701
855.145	0.0152946
855.223	0.0152457
855.301	0.0151204
855.379	0.0150872
855.457	0.0151550
855.535	0.0151723
855.613	0.0151439
855.692	0.0152135
855.770	0.0151562
855.848	0.0151520
855.926	0.0152238
856.004	0.0152138
856.082	0.0152954
856.160	0.0153233
856.238	0.0153052
856.317	0.0152634
856.395	0.0154848
856.473	0.0153623
856.551	0.0153840
856.629	0.0155028
856.707	0.0153549
856.785	0.0153836
856.863	0.0153088
856.942	0.0153564
857.020	0.0152063
857.098	0.0152587
857.176	0.0153388
857.254	0.0154166
857.332	0.0153976
857.410	0.0152351
857.488	0.0153465
857.567	0.0153208
857.645	0.0152721
857.723	0.0151833
857.801	0.0154008
857.879	0.0153149
857.957	0.0152285
858.035	0.0153628
858.113	0.0153857
858.192	0.0154379
858.270	0.0152664
858.348	0.0152435
858.426	0.0153591
858.504	0.0153396
858.582	0.0151870
858.660	0.0151917
858.738	0.0153027
858.817	0.0152578
858.895	0.0152279
858.973	0.0154227
859.051	0.0153189
859.129	0.0152196
859.207	0.0152229
859.285	0.0152361
859.363	0.0152491
859.442	0.0152316
859.520	0.0152556
859.598	0.0152708
859.676	0.0151734
859.754	0.0152042
859.832	0.0151921
859.910	0.0152873
859.988	0.0152926
860.067	0.0152522
860.145	0.0152517
860.223	0.0151463
860.301	0.0151157
860.379	0.0151641
860.457	0.0150795
860.535	0.0151555
860.613	0.0151506
860.692	0.0152787
860.770	0.0151273
860.848	0.0151488
860.926	0.0151460
861.004	0.0150734
861.082	0.0151251
861.160	0.0151708
861.238	0.0151243
861.317	0.0152431
861.395	0.0151378
861.473	0.0151560
861.551	0.0151987
861.629	0.0151658
861.707	0.0152565
861.785	0.0152537
861.863	0.0152286
861.942	0.0152903
862.020	0.0151486
862.098	0.0151539
862.176	0.0152449
862.254	0.0151994
862.332	0.0150667
862.410	0.0151701
862.488	0.0151737
862.567	0.0151721
862.645	0.0150617
862.723	0.0151093
862.801	0.0151835
862.879	0.0152126
862.957	0.0151411
863.035	0.0152341
863.113	0.0152805
863.192	0.0153402
863.270	0.0151826
863.348	0.0152964
863.426	0.0153140
863.504	0.0153264
863.582	0.0153606
863.660	0.0152506
863.738	0.0153017
863.817	0.0153291
863.895	0.0153731
863.973	0.0153625
864.051	0.0152168
864.129	0.0151740
864.207	0.0151685
864.285	0.0152682
864.363	0.0152596
864.442	0.0151947
864.520	0.0153915
864.598	0.0151823
864.676	0.0151939
864.754	0.0152746
864.832	0.0151720
864.910	0.0152676
864.988	0.0152078
865.067	0.0151717
865.145	0.0153471
865.223	0.0152251
865.301	0.0151564
865.379	0.0151849
865.457	0.0152200
865.535	0.0152259
865.613	0.0150822
865.692	0.0152027
865.770	0.0150793
865.848	0.0150230
865.926	0.0150834
866.004	0.0151743
866.082	0.0150395
866.160	0.0151065
866.238	0.0151820
866.317	0.0152444
866.395	0.0152347
866.473	0.0151871
866.551	0.0152328
866.629	0.0152660
866.707	0.0152488
866.785	0.0152279
866.863	0.0153918
866.942	0.0151667
867.020	0.0152350
867.098	0.0151936
867.176	0.0152736
867.254	0.0151945
867.332	0.0151396
867.410	0.0152319
867.488	0.0151740
867.567	0.0150278
867.645	0.0151773
867.723	0.0150536
867.801	0.0150545
867.879	0.0150500
867.957	0.0152452
868.035	0.0151279
868.113	0.0150171
868.192	0.0151569
868.270	0.0151418
868.348	0.0151088
868.426	0.0151693
868.504	0.0153050
868.582	0.0151950
868.660	0.0151796
868.738	0.0153317
868.817	0.0153111
868.895	0.0152319
868.973	0.0152354
869.051	0.0151957
869.129	0.0153071
869.207	0.0153474
869.285	0.0153303
869.363	0.0153524
869.442	0.0152640
869.520	0.0152168
869.598	0.0153882
869.676	0.0153455
869.754	0.0152847
869.832	0.0152409
869.910	0.0152756
869.988	0.0152016
870.067	0.0153145
870.145	0.0153053
870.223	0.0151573
870.301	0.0151673
870.379	0.0152525
870.457	0.0151849
870.535	0.0152191
870.613	0.0151839
870.692	0.0150913
870.770	0.0151421
870.848	0.0153020
870.926	0.0152398
871.004	0.0153244
871.082	0.0152121
871.160	0.0151658
871.238	0.0153574
871.317	0.0152019
871.395	0.0153501
871.473	0.0153543
871.551	0.0153245
871.629	0.0152923
871.707	0.0153613
871.785	0.0152876
871.863	0.0152827
871.942	0.0152864
872.020	0.0152718
872.098	0.0152892
872.176	0.0152870
872.254	0.0152503
872.332	0.0152979
872.410	0.0153683
872.488	0.0152763
872.567	0.0152021
872.645	0.0151660
872.723	0.0151718
872.801	0.0153308
872.879	0.0151326
872.957	0.0151627
873.035	0.0151780
873.113	0.0152141
873.192	0.0152444
873.270	0.0151612
873.348	0.0150581
873.426	0.0151824
873.504	0.0152652
873.582	0.0149921
873.660	0.0151144
873.738	0.0152283
873.817	0.0151434
873.895	0.0151101
873.973	0.0151012
874.051	0.0153445
874.129	0.0151624
874.207	0.0151316
874.285	0.0152185
874.363	0.0151373
874.442	0.0152343
874.520	0.0153579
874.598	0.0153291
874.676	0.0151671
874.754	0.0152382
874.832	0.0152718
874.910	0.0152127
874.988	0.0152902
875.067	0.0152229
875.145	0.0152832
875.223	0.0152373
875.301	0.0152763
875.379	0.0152057
875.457	0.0152433
875.535	0.0153381
875.613	0.0150257
875.692	0.0150557
875.770	0.0152129
875.848	0.0150812
875.926	0.0150497
876.004	0.0151323
876.082	0.0151457
876.160	0.0151808
876.238	0.0152095
876.317	0.0152283
876.395	0.0150763
876.473	0.0152221
876.551	0.0151930
876.629	0.0150188
876.707	0.0151991
876.785	0.0151300
876.863	0.0151016
876.942	0.0152036
877.020	0.0151670
877.098	0.0151457
877.176	0.0151288
877.254	0.0152246
877.332	0.0151209
877.410	0.0151682
877.488	0.0152730
877.567	0.0152337
877.645	0.0150185
877.723	0.0151807
877.801	0.0152448
877.879	0.0152031
877.957	0.0151962
878.035	0.0152134
878.113	0.0152480
878.192	0.0151437
878.270	0.0151397
878.348	0.0152020
878.426	0.0150990
878.504	0.0152737
878.582	0.0151575
878.660	0.0152630
878.738	0.0151990
878.817	0.0153281
878.895	0.0152763
878.973	0.0151125
879.051	0.0153282
879.129	0.0152022
879.207	0.0151656
879.285	0.0152988
879.363	0.0153196
879.442	0.0150851
879.520	0.0150671
879.598	0.0152486
879.676	0.0151344
879.754	0.0151798
879.832	0.0153072
879.910	0.0150394
879.988	0.0151761
880.067	0.0150729
880.145	0.0152019
880.223	0.0150420
880.301	0.0149429
880.379	0.0150890
880.457	0.0151346
880.535	0.0150648
880.613	0.0151772
880.692	0.0153327
880.770	0.0151839
880.848	0.0151612
880.926	0.0152351
881.004	0.0153523
881.082	0.0154092
881.160	0.0153783
881.238	0.0155573
881.317	0.0154368
881.395	0.0155734
881.473	0.0154580
881.551	0.0154995
881.629	0.0153233
881.707	0.0153854
881.785	0.0154041
881.863	0.0153145
881.942	0.0153146
882.020	0.0152273
882.098	0.0153914
882.176	0.0154883
882.254	0.0153738
882.332	0.0152129
882.410	0.0151684
882.488	0.0152055
882.567	0.0151260
882.645	0.0151340
882.723	0.0151518
882.801	0.0151054
882.879	0.0150431
882.957	0.0150940
883.035	0.0150533
883.113	0.0150006
883.192	0.0150019
883.270	0.0149553
883.348	0.0150453
883.426	0.0150074
883.504	0.0149158
883.582	0.0150301
883.660	0.0150046
883.738	0.0151560
883.817	0.0151389
883.895	0.0149793
883.973	0.0150050
884.051	0.0151644
884.129	0.0152084
884.207	0.0152077
884.285	0.0152418
884.363	0.0151575
884.442	0.0154826
884.520	0.0153966
884.598	0.0153226
884.676	0.0154108
884.754	0.0155096
884.832	0.0154894
884.910	0.0154208
884.988	0.0154967
885.067	0.0154857
885.145	0.0154907
885.223	0.0154696
885.301	0.0154335
885.379	0.0151545
885.457	0.0153127
885.535	0.0151624
885.613	0.0151679
885.692	0.0150530
885.770	0.0148418
885.848	0.0147076
885.926	0.0147844
886.004	0.0146840
886.082	0.0148670
886.160	0.0147469
886.238	0.0147573
886.317	0.0149084
886.395	0.0149812
886.473	0.0149933
886.551	0.0151139
886.629	0.0151179
886.707	0.0153830
886.785	0.0153370
886.863	0.0154848
886.942	0.0155683
887.020	0.0155879
887.098	0.0156512
887.176	0.0155601
887.254	0.0157589
887.332	0.0156360
887.410	0.0155846
887.488	0.0156602
887.567	0.0156634
887.645	0.0155850
887.723	0.0156333
887.801	0.0155971
887.879	0.0154801
887.957	0.0153873
888.035	0.0151960
888.113	0.0152785
888.192	0.0152147
888.270	0.0151519
888.348	0.0148833
888.426	0.0147865
888.504	0.0148560
888.582	0.0146684
888.660	0.0144843
888.738	0.0144762
888.817	0.0144259
888.895	0.0145403
888.973	0.0144984
889.051	0.0145289
889.129	0.0145387
889.207	0.0147964
889.285	0.0149098
889.363	0.0150375
889.442	0.0152492
889.520	0.0153747
889.598	0.0154716
889.676	0.0156358
889.754	0.0158012
889.832	0.0158288
889.910	0.0159976
889.988	0.0159682
890.067	0.0158312
890.145	0.0160461
890.223	0.0158887
890.301	0.0158646
890.379	0.0156536
890.457	0.0156505
890.535	0.0154967
890.613	0.0155337
890.692	0.0152960
890.770	0.0151599
890.848	0.0151725
890.926	0.0150214
891.004	0.0150695
891.082	0.0150871
891.160	0.0149463
891.238	0.0151280
891.317	0.0149310
891.395	0.0148328
891.473	0.0150449
891.551	0.0148298
891.629	0.0149372
891.707	0.0150006
891.785	0.0149441
891.863	0.0149047
891.942	0.0149829
892.020	0.0150403
892.098	0.0148798
892.176	0.0149569
892.254	0.0151179
892.332	0.0150237
892.410	0.0152327
892.488	0.0151933
892.567	0.0151228
892.645	0.0152876
892.723	0.0153815
892.801	0.0153819
892.879	0.0154144
892.957	0.0154797
893.035	0.0154573
893.113	0.0155495
893.192	0.0154770
893.270	0.0153810
893.348	0.0154723
893.426	0.0152377
893.504	0.0153123
893.582	0.0152316
893.660	0.0152197
893.738	0.0151819
893.817	0.0150639
893.895	0.0149846
893.973	0.0150443
894.051	0.0151161
894.129	0.0149914
894.207	0.0150407
894.285	0.0151759
894.363	0.0149487
894.442	0.0150450
894.520	0.0150918
894.598	0.0151675
894.676	0.0151540
894.754	0.0154063
894.832	0.0152325
894.910	0.0151945
894.988	0.0152926
895.067	0.0153539
895.145	0.0153076
895.223	0.0153668
895.301	0.0153271
895.379	0.0153563
895.457	0.0152707
895.535	0.0154211
895.613	0.0152721
895.692	0.0153294
895.770	0.0153080
895.848	0.0152054
895.926	0.0152946
896.004	0.0153057
896.082	0.0153284
896.160	0.0150879
896.238	0.0151720
896.317	0.0151112
896.395	0.0151774
896.473	0.0150854
896.551	0.0150632
896.629	0.0149824
896.707	0.0149927
896.785	0.0150948
896.863	0.0149562
896.942	0.0149272
897.020	0.0149084
897.098	0.0150298
897.176	0.0148650
897.254	0.0150114
897.332	0.0150713
897.410	0.0151200
897.488	0.0150521
897.567	0.0151818
897.645	0.0152197
897.723	0.0152003
897.801	0.0152217
897.879	0.0153077
897.957	0.0153894
898.035	0.0153402
898.113	0.0153596
898.192	0.0153620
898.270	0.0152650
898.348	0.0152596
898.426	0.0154539
898.504	0.0155097
898.582	0.0154609
898.660	0.0154093
898.738	0.0154301
898.817	0.0154247
898.895	0.0153160
898.973	0.0152821
899.051	0.0152252
899.129	0.0153610
899.207	0.0151555
899.285	0.0150849
899.363	0.0150441
899.442	0.0151373
899.520	0.0150205
899.598	0.0150569
899.676	0.0149703
899.754	0.0150620
899.832	0.0149619
899.910	0.0151147
899.988	0.0150748
900.067	0.0151624
900.145	0.0150211
900.223	0.0151128
900.301	0.0152309
900.379	0.0151174
900.457	0.0152149
900.535	0.0152619
900.613	0.0152995
900.692	0.0153188
900.770	0.0154008
900.848	0.0152959
900.926	0.0153305
901.004	0.0153031
901.082	0.0153917
901.160	0.0153600
901.238	0.0152657
901.317	0.0153654
901.395	0.0152565
901.473	0.0153111
901.551	0.0151945
901.629	0.0151552
901.707	0.0151701
901.785	0.0152563
901.863	0.0152184
901.942	0.0152596
902.020	0.0152659
902.098	0.0151498
902.176	0.0152636
902.254	0.0153352
902.332	0.0153598
902.410	0.0153053
902.488	0.0155058
902.567	0.0154787
902.645	0.0153358
902.723	0.0154086
902.801	0.0154690
902.879	0.0154782
902.957	0.0154297
903.035	0.0153413
903.113	0.0152194
903.192	0.0151266
903.270	0.0152039
903.348	0.0151658
903.426	0.0151968
903.504	0.0151882
903.582	0.0150707
903.660	0.0151824
903.738	0.0150447
903.817	0.0151068
903.895	0.0151834
903.973	0.0150931
904.051	0.0149798
904.129	0.0150522
904.207	0.0152477
904.285	0.0151033
904.363	0.0151445
904.442	0.0151882
904.520	0.0152635
904.598	0.0150484
904.676	0.0151349
904.754	0.0152236
904.832	0.0152876
904.910	0.0152218
904.988	0.0151917
905.067	0.0150969
905.145	0.0152545
905.223	0.0154501
905.301	0.0152705
905.379	0.0151907
905.457	0.0153498
905.535	0.0154093
905.613	0.0153590
905.692	0.0151995
905.770	0.0152741
905.848	0.0153464
905.926	0.0152988
906.004	0.0153394
906.082	0.0153197
906.160	0.0153509
906.238	0.0153347
906.317	0.0153378
906.395	0.0152479
906.473	0.0150237
906.551	0.0149921
906.629	0.0151189
906.707	0.0151174
906.785	0.0152255
906.863	0.0151136
906.942	0.0150539
907.020	0.0150707
907.098	0.0152251
907.176	0.0150495
907.254	0.0149690
907.332	0.0152098
907.410	0.0151659
907.488	0.0150925
907.567	0.0152127
907.645	0.0151663
907.723	0.0151390
907.801	0.0151312
907.879	0.0152781
907.957	0.0151686
908.035	0.0152227
908.113	0.0153226
908.192	0.0152399
908.270	0.0152830
908.348	0.0153170
908.426	0.0151627
908.504	0.0152808
908.582	0.0152585
908.660	0.0151698
908.738	0.0150970
908.817	0.0151088
908.895	0.0152155
908.973	0.0151755
909.051	0.0152273
909.129	0.0151826
909.207	0.0151943
909.285	0.0150220
909.363	0.0151853
909.442	0.0151809
909.520	0.0152397
909.598	0.0151726
909.676	0.0151798
909.754	0.0151971
909.832	0.0153520
909.910	0.0151835
909.988	0.0153085
910.067	0.0152121
910.145	0.0152531
910.223	0.0151928
910.301	0.0152121
910.379	0.0150273
910.457	0.0151917
910.535	0.0149605
910.613	0.0150641
910.692	0.0152500
910.770	0.0152142
910.848	0.0150854
910.926	0.0152630
911.004	0.0152089
911.082	0.0151062
911.160	0.0151929
911.238	0.0153288
911.317	0.0152956
911.395	0.0152665
911.473	0.0152742
911.551	0.0153497
911.629	0.0152075
911.707	0.0153338
911.785	0.0155001
911.863	0.0153895
911.942	0.0153616
912.020	0.0152772
912.098	0.0152079
912.176	0.0152910
912.254	0.0152959
912.332	0.0150156
912.410	0.0149905
912.488	0.0151152
912.567	0.0150710
912.645	0.0150967
912.723	0.0150906
912.801	0.0151244
912.879	0.0150645
912.957	0.0150694
913.035	0.0152000
913.113	0.0151153
913.192	0.0151215
913.270	0.0150610
913.348	0.0151283
913.426	0.0152843
913.504	0.0151531
913.582	0.0152226
913.660	0.0152461
913.738	0.0153041
913.817	0.0154372
913.895	0.0154324
913.973	0.0154119
914.051	0.0153108
914.129	0.0153757
914.207	0.0154720
914.285	0.0154364
914.363	0.0155740
914.442	0.0153757
914.520	0.0153892
914.598	0.0153970
914.676	0.0153821
914.754	0.0152825
914.832	0.0152692
914.910	0.0152032
914.988	0.0151762
915.067	0.0151368
915.145	0.0150583
915.223	0.0150311
915.301	0.0150986
915.379	0.0149374
915.457	0.0149584
915.535	0.0150224
915.613	0.0151142
915.692	0.0149823
915.770	0.0150443
915.848	0.0151418
915.926	0.0150819
916.004	0.0150373
916.082	0.0151202
916.160	0.0151643
916.238	0.0151086
916.317	0.0152701
916.395	0.0152011
916.473	0.0153564
916.551	0.0154240
916.629	0.0153854
916.707	0.0154255
916.785	0.0154687
916.863	0.0153353
916.942	0.0155154
917.020	0.0154368
917.098	0.0155277
917.176	0.0153562
917.254	0.0153975
917.332	0.0153744
917.410	0.0152557
917.488	0.0152959
917.567	0.0153228
917.645	0.0152303
917.723	0.0152740
917.801	0.0150725
917.879	0.0151331
917.957	0.0152341
918.035	0.0151814
918.113	0.0152045
918.192	0.0150955
918.270	0.0151880
918.348	0.0151928
918.426	0.0151369
918.504	0.0152924
918.582	0.0152159
918.660	0.0150699
918.738	0.0151842
918.817	0.0153082
918.895	0.0153503
918.973	0.0152789
919.051	0.0154281
919.129	0.0151936
919.207	0.0153951
919.285	0.0153615
919.363	0.0153619
919.442	0.0153263
919.520	0.0153632
919.598	0.0153322
919.676	0.0153897
919.754	0.0154792
919.832	0.0154271
919.910	0.0154180
