05/28/2022	14:04:40	Ver.	4.1	UNKNOWN
Optical Delay	599.988409	Delta X		0.078125	Sweeps	1	Scan Rate	0/0
Coordinates	Axis 1	NaN	Axis 2	NaN	Axis 3	NaN	Axis 4	NaN	Axis 5	NaN	Axis 6	0.000000
TX Power	0.000000	RX Power	0.000000

599.988	0.0152840
600.067	0.0152159
600.145	0.0152080
600.223	0.0151634
600.301	0.0153333
600.379	0.0154092
600.457	0.0152074
600.535	0.0153014
600.613	0.0152342
600.692	0.0154062
600.770	0.0151850
600.848	0.0152853
600.926	0.0152529
601.004	0.0152441
601.082	0.0154484
601.160	0.0154273
601.238	0.0153214
601.317	0.0152403
601.395	0.0152733
601.473	0.0152646
601.551	0.0152563
601.629	0.0151824
601.707	0.0153104
601.785	0.0152103
601.863	0.0153458
601.942	0.0153234
602.020	0.0152525
602.098	0.0152972
602.176	0.0152959
602.254	0.0153348
602.332	0.0151152
602.410	0.0151131
602.488	0.0152094
602.567	0.0151936
602.645	0.0152912
602.723	0.0152380
602.801	0.0152685
602.879	0.0152046
602.957	0.0153001
603.035	0.0153355
603.113	0.0152640
603.192	0.0151771
603.270	0.0152620
603.348	0.0153665
603.426	0.0151963
603.504	0.0152818
603.582	0.0153136
603.660	0.0152122
603.738	0.0154175
603.817	0.0152613
603.895	0.0151698
603.973	0.0153896
604.051	0.0152861
604.129	0.0151956
604.207	0.0152420
604.285	0.0151773
604.363	0.0152464
604.442	0.0153555
604.520	0.0153993
604.598	0.0152867
604.676	0.0152163
604.754	0.0152484
604.832	0.0152786
604.910	0.0153757
604.988	0.0152766
605.067	0.0151749
605.145	0.0152999
605.223	0.0153823
605.301	0.0152407
605.379	0.0152292
605.457	0.0152944
605.535	0.0151938
605.613	0.0153180
605.692	0.0153288
605.770	0.0152277
605.848	0.0152608
605.926	0.0152677
606.004	0.0152877
606.082	0.0153226
606.160	0.0153239
606.238	0.0152290
606.317	0.0151701
606.395	0.0151415
606.473	0.0152130
606.551	0.0153592
606.629	0.0152744
606.707	0.0152702
606.785	0.0153309
606.863	0.0152795
606.942	0.0153542
607.020	0.0152123
607.098	0.0151957
607.176	0.0152254
607.254	0.0152779
607.332	0.0153072
607.410	0.0152901
607.488	0.0153154
607.567	0.0152328
607.645	0.0152068
607.723	0.0152731
607.801	0.0152766
607.879	0.0151999
607.957	0.0152466
608.035	0.0151638
608.113	0.0152526
608.192	0.0152627
608.270	0.0151685
608.348	0.0152884
608.426	0.0152908
608.504	0.0152776
608.582	0.0151299
608.660	0.0151556
608.738	0.0154631
608.817	0.0152873
608.895	0.0152248
608.973	0.0152421
609.051	0.0152999
609.129	0.0152162
609.207	0.0152721
609.285	0.0152191
609.363	0.0151144
609.442	0.0152366
609.520	0.0152934
609.598	0.0153587
609.676	0.0151582
609.754	0.0152802
609.832	0.0153959
609.910	0.0153732
609.988	0.0153951
610.067	0.0152581
610.145	0.0153393
610.223	0.0151086
610.301	0.0152952
610.379	0.0152606
610.457	0.0153711
610.535	0.0151223
610.613	0.0153187
610.692	0.0152799
610.770	0.0152657
610.848	0.0154708
610.926	0.0153617
611.004	0.0152543
611.082	0.0152636
611.160	0.0152754
611.238	0.0153040
611.317	0.0151464
611.395	0.0153597
611.473	0.0152684
611.551	0.0152515
611.629	0.0151917
611.707	0.0153554
611.785	0.0153349
611.863	0.0151459
611.942	0.0152071
612.020	0.0152348
612.098	0.0152270
612.176	0.0152900
612.254	0.0153075
612.332	0.0152960
612.410	0.0151896
612.488	0.0152802
612.567	0.0153551
612.645	0.0152727
612.723	0.0151862
612.801	0.0151118
612.879	0.0151563
612.957	0.0152304
613.035	0.0153790
613.113	0.0154035
613.192	0.0153708
613.270	0.0153181
613.348	0.0153757
613.426	0.0152573
613.504	0.0152739
613.582	0.0152503
613.660	0.0152357
613.738	0.0151859
613.817	0.0153098
613.895	0.0153881
613.973	0.0152700
614.051	0.0153637
614.129	0.0153267
614.207	0.0152306
614.285	0.0154202
614.363	0.0152156
614.442	0.0151948
614.520	0.0152740
614.598	0.0154321
614.676	0.0151373
614.754	0.0152986
614.832	0.0152525
614.910	0.0152175
614.988	0.0153351
615.067	0.0151421
615.145	0.0152431
615.223	0.0153297
615.301	0.0153245
615.379	0.0153176
615.457	0.0153433
615.535	0.0152635
615.613	0.0152213
615.692	0.0152376
615.770	0.0151366
615.848	0.0152501
615.926	0.0153727
616.004	0.0152615
616.082	0.0153618
616.160	0.0152089
616.238	0.0151856
616.317	0.0151807
616.395	0.0153947
616.473	0.0152311
616.551	0.0152299
616.629	0.0151256
616.707	0.0151615
616.785	0.0153759
616.863	0.0152037
616.942	0.0152480
617.020	0.0152570
617.098	0.0153834
617.176	0.0152656
617.254	0.0153429
617.332	0.0152003
617.410	0.0153973
617.488	0.0153336
617.567	0.0153383
617.645	0.0152907
617.723	0.0152425
617.801	0.0151678
617.879	0.0152648
617.957	0.0151482
618.035	0.0154728
618.113	0.0152607
618.192	0.0151506
618.270	0.0152221
618.348	0.0154432
618.426	0.0153502
618.504	0.0151836
618.582	0.0151334
618.660	0.0153615
618.738	0.0153566
618.817	0.0152494
618.895	0.0153463
618.973	0.0153634
619.051	0.0154832
619.129	0.0153077
619.207	0.0153113
619.285	0.0153541
619.363	0.0153030
619.442	0.0151956
619.520	0.0152605
619.598	0.0153335
619.676	0.0153485
619.754	0.0153098
619.832	0.0152932
619.910	0.0151573
619.988	0.0152725
620.067	0.0152875
620.145	0.0151678
620.223	0.0152065
620.301	0.0153927
620.379	0.0152932
620.457	0.0152496
620.535	0.0151528
620.613	0.0152503
620.692	0.0153719
620.770	0.0152931
620.848	0.0151665
620.926	0.0151809
621.004	0.0152864
621.082	0.0154761
621.160	0.0153447
621.238	0.0153038
621.317	0.0153811
621.395	0.0152218
621.473	0.0152824
621.551	0.0153248
621.629	0.0153417
621.707	0.0152432
621.785	0.0152455
621.863	0.0152657
621.942	0.0152140
622.020	0.0152203
622.098	0.0152044
622.176	0.0153545
622.254	0.0153124
622.332	0.0151940
622.410	0.0151920
622.488	0.0153031
622.567	0.0153977
622.645	0.0152268
622.723	0.0152554
622.801	0.0153144
622.879	0.0151570
622.957	0.0151920
623.035	0.0153984
623.113	0.0152603
623.192	0.0153390
623.270	0.0153273
623.348	0.0154482
623.426	0.0154715
623.504	0.0152597
623.582	0.0153448
623.660	0.0151785
623.738	0.0152319
623.817	0.0153607
623.895	0.0153175
623.973	0.0153477
624.051	0.0154531
624.129	0.0152576
624.207	0.0152346
624.285	0.0153361
624.363	0.0154097
624.442	0.0153399
624.520	0.0152425
624.598	0.0153400
624.676	0.0152798
624.754	0.0153301
624.832	0.0152705
624.910	0.0152415
624.988	0.0153053
625.067	0.0153144
625.145	0.0153674
625.223	0.0152644
625.301	0.0151885
625.379	0.0151840
625.457	0.0151318
625.535	0.0152759
625.613	0.0152692
625.692	0.0152951
625.770	0.0152744
625.848	0.0151916
625.926	0.0152444
626.004	0.0151649
626.082	0.0152184
626.160	0.0153061
626.238	0.0152917
626.317	0.0152743
626.395	0.0152834
626.473	0.0152341
626.551	0.0153658
626.629	0.0151975
626.707	0.0153673
626.785	0.0152879
626.863	0.0153031
626.942	0.0152746
627.020	0.0153436
627.098	0.0152644
627.176	0.0152857
627.254	0.0152052
627.332	0.0152538
627.410	0.0152305
627.488	0.0152079
627.567	0.0152168
627.645	0.0152441
627.723	0.0151353
627.801	0.0152077
627.879	0.0151817
627.957	0.0151730
628.035	0.0152936
628.113	0.0153684
628.192	0.0153571
628.270	0.0153375
628.348	0.0152503
628.426	0.0152285
628.504	0.0153361
628.582	0.0153164
628.660	0.0153069
628.738	0.0151507
628.817	0.0152216
628.895	0.0152731
628.973	0.0152086
629.051	0.0152887
629.129	0.0151431
629.207	0.0151879
629.285	0.0152045
629.363	0.0153049
629.442	0.0153931
629.520	0.0153131
629.598	0.0152912
629.676	0.0153571
629.754	0.0153105
629.832	0.0152426
629.910	0.0152607
629.988	0.0152456
630.067	0.0154273
630.145	0.0153469
630.223	0.0153896
630.301	0.0152174
630.379	0.0151095
630.457	0.0152356
630.535	0.0151221
630.613	0.0151959
630.692	0.0154009
630.770	0.0152219
630.848	0.0153093
630.926	0.0152196
631.004	0.0152385
631.082	0.0153216
631.160	0.0152824
631.238	0.0152271
631.317	0.0152908
631.395	0.0153635
631.473	0.0152666
631.551	0.0152230
631.629	0.0151807
631.707	0.0151667
631.785	0.0153530
631.863	0.0152230
631.942	0.0152322
632.020	0.0152481
632.098	0.0152267
632.176	0.0151721
632.254	0.0151324
632.332	0.0152256
632.410	0.0153481
632.488	0.0152480
632.567	0.0152685
632.645	0.0152627
632.723	0.0152458
632.801	0.0151755
632.879	0.0151506
632.957	0.0153091
633.035	0.0152877
633.113	0.0151873
633.192	0.0153355
633.270	0.0153616
633.348	0.0153598
633.426	0.0152718
633.504	0.0151331
633.582	0.0153439
633.660	0.0153250
633.738	0.0152935
633.817	0.0152905
633.895	0.0151238
633.973	0.0152894
634.051	0.0151513
634.129	0.0153059
634.207	0.0152929
634.285	0.0151482
634.363	0.0151215
634.442	0.0152338
634.520	0.0152953
634.598	0.0153576
634.676	0.0153633
634.754	0.0152709
634.832	0.0152991
634.910	0.0153152
634.988	0.0152673
635.067	0.0153376
635.145	0.0152750
635.223	0.0153298
635.301	0.0153372
635.379	0.0153627
635.457	0.0153139
635.535	0.0153606
635.613	0.0152655
635.692	0.0151685
635.770	0.0153615
635.848	0.0153461
635.926	0.0152592
636.004	0.0152364
636.082	0.0153497
636.160	0.0153490
636.238	0.0152557
636.317	0.0151888
636.395	0.0153243
636.473	0.0152543
636.551	0.0151500
636.629	0.0152509
636.707	0.0153318
636.785	0.0152592
636.863	0.0152564
636.942	0.0152427
637.020	0.0152321
637.098	0.0152782
637.176	0.0152133
637.254	0.0152822
637.332	0.0153856
637.410	0.0152619
637.488	0.0152699
637.567	0.0153762
637.645	0.0152796
637.723	0.0151844
637.801	0.0152483
637.879	0.0153117
637.957	0.0153536
638.035	0.0154099
638.113	0.0152621
638.192	0.0153678
638.270	0.0152679
638.348	0.0152922
638.426	0.0152557
638.504	0.0153442
638.582	0.0152863
638.660	0.0152577
638.738	0.0151469
638.817	0.0154349
638.895	0.0152219
638.973	0.0153873
639.051	0.0154903
639.129	0.0154668
639.207	0.0152277
639.285	0.0152770
639.363	0.0152549
639.442	0.0152074
639.520	0.0153461
639.598	0.0152802
639.676	0.0152333
639.754	0.0152911
639.832	0.0151899
639.910	0.0152905
639.988	0.0153857
640.067	0.0153033
640.145	0.0151543
640.223	0.0152450
640.301	0.0154417
640.379	0.0153231
640.457	0.0152914
640.535	0.0153372
640.613	0.0151646
640.692	0.0153465
640.770	0.0152956
640.848	0.0152700
640.926	0.0151927
641.004	0.0152094
641.082	0.0153639
641.160	0.0153749
641.238	0.0153069
641.317	0.0151808
641.395	0.0151971
641.473	0.0152914
641.551	0.0153422
641.629	0.0151644
641.707	0.0154142
641.785	0.0153089
641.863	0.0152169
641.942	0.0152170
642.020	0.0152516
642.098	0.0153004
642.176	0.0152890
642.254	0.0151740
642.332	0.0153323
642.410	0.0153025
642.488	0.0154301
642.567	0.0153652
642.645	0.0152822
642.723	0.0152963
642.801	0.0153619
642.879	0.0152568
642.957	0.0152713
643.035	0.0154523
643.113	0.0152939
643.192	0.0151958
643.270	0.0152695
643.348	0.0153218
643.426	0.0153529
643.504	0.0152322
643.582	0.0153098
643.660	0.0154099
643.738	0.0153066
643.817	0.0152635
643.895	0.0152558
643.973	0.0152308
644.051	0.0152886
644.129	0.0152381
644.207	0.0152085
644.285	0.0152517
644.363	0.0152245
644.442	0.0152118
644.520	0.0153226
644.598	0.0153730
644.676	0.0152707
644.754	0.0153442
644.832	0.0152705
644.910	0.0152853
644.988	0.0153185
645.067	0.0152529
645.145	0.0152095
645.223	0.0153208
645.301	0.0152523
645.379	0.0151702
645.457	0.0153069
645.535	0.0153325
645.613	0.0152042
645.692	0.0152239
645.770	0.0151998
645.848	0.0151592
645.926	0.0153183
646.004	0.0153458
646.082	0.0152824
646.160	0.0152394
646.238	0.0152702
646.317	0.0151637
646.395	0.0151178
646.473	0.0151478
646.551	0.0151968
646.629	0.0154195
646.707	0.0152905
646.785	0.0152324
646.863	0.0152814
646.942	0.0153307
647.020	0.0152468
647.098	0.0152958
647.176	0.0153001
647.254	0.0151952
647.332	0.0153503
647.410	0.0152603
647.488	0.0152772
647.567	0.0152933
647.645	0.0154197
647.723	0.0153911
647.801	0.0152177
647.879	0.0152479
647.957	0.0153858
648.035	0.0150268
648.113	0.0152339
648.192	0.0152427
648.270	0.0151998
648.348	0.0152799
648.426	0.0151787
648.504	0.0152850
648.582	0.0153822
648.660	0.0151755
648.738	0.0152849
648.817	0.0152542
648.895	0.0153201
648.973	0.0153355
649.051	0.0152107
649.129	0.0152931
649.207	0.0152235
649.285	0.0152173
649.363	0.0151684
649.442	0.0152421
649.520	0.0152702
649.598	0.0153039
649.676	0.0152106
649.754	0.0152285
649.832	0.0153210
649.910	0.0151740
649.988	0.0153734
650.067	0.0152334
650.145	0.0151943
650.223	0.0153158
650.301	0.0151851
650.379	0.0152391
650.457	0.0152757
650.535	0.0153481
650.613	0.0153704
650.692	0.0154000
650.770	0.0152287
650.848	0.0151122
650.926	0.0151085
651.004	0.0153207
651.082	0.0152079
651.160	0.0152188
651.238	0.0152221
651.317	0.0152768
651.395	0.0152679
651.473	0.0153633
651.551	0.0153328
651.629	0.0153776
651.707	0.0152551
651.785	0.0153381
651.863	0.0153738
651.942	0.0150980
652.020	0.0153033
652.098	0.0153801
652.176	0.0151512
652.254	0.0152860
652.332	0.0153374
652.410	0.0152930
652.488	0.0152531
652.567	0.0151585
652.645	0.0153547
652.723	0.0153975
652.801	0.0152230
652.879	0.0152898
652.957	0.0152976
653.035	0.0152760
653.113	0.0152384
653.192	0.0152901
653.270	0.0152789
653.348	0.0153822
653.426	0.0152558
653.504	0.0153293
653.582	0.0152885
653.660	0.0152578
653.738	0.0153184
653.817	0.0151982
653.895	0.0152032
653.973	0.0152169
654.051	0.0152605
654.129	0.0153214
654.207	0.0151917
654.285	0.0152814
654.363	0.0152974
654.442	0.0152632
654.520	0.0151674
654.598	0.0153055
654.676	0.0152377
654.754	0.0151080
654.832	0.0152696
654.910	0.0151811
654.988	0.0152863
655.067	0.0153034
655.145	0.0151971
655.223	0.0151364
655.301	0.0152708
655.379	0.0152541
655.457	0.0153322
655.535	0.0154049
655.613	0.0153554
655.692	0.0152886
655.770	0.0153137
655.848	0.0153806
655.926	0.0152102
656.004	0.0153870
656.082	0.0152667
656.160	0.0152332
656.238	0.0152544
656.317	0.0152769
656.395	0.0152221
656.473	0.0153065
656.551	0.0152704
656.629	0.0153298
656.707	0.0152975
656.785	0.0154235
656.863	0.0154005
656.942	0.0152917
657.020	0.0151974
657.098	0.0153876
657.176	0.0152004
657.254	0.0152454
657.332	0.0152772
657.410	0.0153142
657.488	0.0152644
657.567	0.0153368
657.645	0.0152652
657.723	0.0152265
657.801	0.0153127
657.879	0.0151851
657.957	0.0151479
658.035	0.0152778
658.113	0.0152962
658.192	0.0153304
658.270	0.0152769
658.348	0.0152714
658.426	0.0153066
658.504	0.0152477
658.582	0.0153233
658.660	0.0151817
658.738	0.0151593
658.817	0.0154353
658.895	0.0152759
658.973	0.0152481
659.051	0.0152295
659.129	0.0153510
659.207	0.0153336
659.285	0.0151194
659.363	0.0153841
659.442	0.0151853
659.520	0.0153136
659.598	0.0153024
659.676	0.0153181
659.754	0.0153902
659.832	0.0152392
659.910	0.0151949
659.988	0.0153355
660.067	0.0152185
660.145	0.0153164
660.223	0.0152939
660.301	0.0153100
660.379	0.0152282
660.457	0.0153812
660.535	0.0153434
660.613	0.0152578
660.692	0.0152505
660.770	0.0152433
660.848	0.0152927
660.926	0.0152328
661.004	0.0151992
661.082	0.0152320
661.160	0.0154325
661.238	0.0152681
661.317	0.0152531
661.395	0.0151289
661.473	0.0151587
661.551	0.0154553
661.629	0.0154631
661.707	0.0153786
661.785	0.0153078
661.863	0.0153992
661.942	0.0152517
662.020	0.0153735
662.098	0.0153009
662.176	0.0152229
662.254	0.0152850
662.332	0.0151768
662.410	0.0154586
662.488	0.0152068
662.567	0.0152730
662.645	0.0152398
662.723	0.0152612
662.801	0.0153156
662.879	0.0153691
662.957	0.0152675
663.035	0.0153619
663.113	0.0153194
663.192	0.0151636
663.270	0.0152599
663.348	0.0151734
663.426	0.0154487
663.504	0.0153370
663.582	0.0153760
663.660	0.0153027
663.738	0.0153452
663.817	0.0152604
663.895	0.0153512
663.973	0.0153331
664.051	0.0151661
664.129	0.0152885
664.207	0.0154085
664.285	0.0153289
664.363	0.0153571
664.442	0.0153168
664.520	0.0152406
664.598	0.0151311
664.676	0.0153648
664.754	0.0152790
664.832	0.0152193
664.910	0.0152390
664.988	0.0152495
665.067	0.0154287
665.145	0.0151479
665.223	0.0153215
665.301	0.0152547
665.379	0.0151686
665.457	0.0152608
665.535	0.0152322
665.613	0.0153272
665.692	0.0153632
665.770	0.0153902
665.848	0.0153928
665.926	0.0152491
666.004	0.0152859
666.082	0.0152871
666.160	0.0153019
666.238	0.0153114
666.317	0.0153121
666.395	0.0153770
666.473	0.0152688
666.551	0.0154541
666.629	0.0151788
666.707	0.0153256
666.785	0.0153583
666.863	0.0153602
666.942	0.0152803
667.020	0.0152197
667.098	0.0153871
667.176	0.0153417
667.254	0.0152180
667.332	0.0153980
667.410	0.0154372
667.488	0.0152357
667.567	0.0153548
667.645	0.0153973
667.723	0.0152885
667.801	0.0152720
667.879	0.0152766
667.957	0.0152215
668.035	0.0152442
668.113	0.0152998
668.192	0.0152052
668.270	0.0152815
668.348	0.0153796
668.426	0.0153266
668.504	0.0153304
668.582	0.0153124
668.660	0.0152466
668.738	0.0154147
668.817	0.0152179
668.895	0.0151311
668.973	0.0152719
669.051	0.0153442
669.129	0.0153880
669.207	0.0152712
669.285	0.0154965
669.363	0.0153924
669.442	0.0153781
669.520	0.0154603
669.598	0.0153774
669.676	0.0155023
669.754	0.0155604
669.832	0.0154019
669.910	0.0153175
669.988	0.0152914
670.067	0.0155015
670.145	0.0154904
670.223	0.0152646
670.301	0.0153683
670.379	0.0153306
670.457	0.0153308
670.535	0.0153461
670.613	0.0152401
670.692	0.0151524
670.770	0.0151067
670.848	0.0151918
670.926	0.0151396
671.004	0.0150343
671.082	0.0151600
671.160	0.0151839
671.238	0.0149857
671.317	0.0151627
671.395	0.0151494
671.473	0.0151955
671.551	0.0153476
671.629	0.0152428
671.707	0.0152662
671.785	0.0155569
671.863	0.0155698
671.942	0.0154974
672.020	0.0158541
672.098	0.0158266
672.176	0.0158983
672.254	0.0158673
672.332	0.0159066
672.410	0.0158762
672.488	0.0159182
672.567	0.0158793
672.645	0.0157318
672.723	0.0158160
672.801	0.0156859
672.879	0.0154648
672.957	0.0152719
673.035	0.0150057
673.113	0.0147649
673.192	0.0144740
673.270	0.0144866
673.348	0.0141088
673.426	0.0142008
673.504	0.0141339
673.582	0.0141901
673.660	0.0141253
673.738	0.0142854
673.817	0.0145184
673.895	0.0146312
673.973	0.0147522
674.051	0.0148244
674.129	0.0151218
674.207	0.0152588
674.285	0.0151910
674.363	0.0152483
674.442	0.0155191
674.520	0.0154205
674.598	0.0156689
674.676	0.0157180
674.754	0.0158163
674.832	0.0159769
674.910	0.0159124
674.988	0.0159436
675.067	0.0159549
675.145	0.0159115
675.223	0.0158322
675.301	0.0156808
675.379	0.0157389
675.457	0.0156151
675.535	0.0155715
675.613	0.0155214
675.692	0.0155671
675.770	0.0157089
675.848	0.0157439
675.926	0.0157594
676.004	0.0158953
676.082	0.0159231
676.160	0.0158604
676.238	0.0159330
676.317	0.0158347
676.395	0.0155402
676.473	0.0155503
676.551	0.0154151
676.629	0.0150749
676.707	0.0149989
676.785	0.0149901
676.863	0.0146562
676.942	0.0142947
677.020	0.0142040
677.098	0.0140503
677.176	0.0138404
677.254	0.0136404
677.332	0.0135139
677.410	0.0135070
677.488	0.0136048
677.567	0.0136255
677.645	0.0137930
677.723	0.0139532
677.801	0.0142426
677.879	0.0143446
677.957	0.0146488
678.035	0.0147624
678.113	0.0148027
678.192	0.0151110
678.270	0.0152533
678.348	0.0153977
678.426	0.0156726
678.504	0.0158131
678.582	0.0160147
678.660	0.0160946
678.738	0.0163013
678.817	0.0164890
678.895	0.0165413
678.973	0.0166133
679.051	0.0167190
679.129	0.0165990
679.207	0.0165360
679.285	0.0165955
679.363	0.0164509
679.442	0.0162755
679.520	0.0162271
679.598	0.0162149
679.676	0.0161885
679.754	0.0163202
679.832	0.0162409
679.910	0.0162125
679.988	0.0162080
680.067	0.0161627
680.145	0.0161524
680.223	0.0161090
680.301	0.0159218
680.379	0.0156496
680.457	0.0154163
680.535	0.0153249
680.613	0.0152468
680.692	0.0149349
680.770	0.0148290
680.848	0.0146008
680.926	0.0145831
681.004	0.0144091
681.082	0.0143881
681.160	0.0142325
681.238	0.0141811
681.317	0.0141326
681.395	0.0139220
681.473	0.0138388
681.551	0.0136773
681.629	0.0134613
681.707	0.0134348
681.785	0.0131501
681.863	0.0131635
681.942	0.0132035
682.020	0.0130868
682.098	0.0131495
682.176	0.0131159
682.254	0.0131754
682.332	0.0134312
682.410	0.0135134
682.488	0.0137730
682.567	0.0140668
682.645	0.0143131
682.723	0.0145490
682.801	0.0149937
682.879	0.0155599
682.957	0.0158843
683.035	0.0163094
683.113	0.0166733
683.192	0.0170854
683.270	0.0177249
683.348	0.0179690
683.426	0.0180170
683.504	0.0182407
683.582	0.0182896
683.660	0.0182421
683.738	0.0181997
683.817	0.0181047
683.895	0.0178766
683.973	0.0176235
684.051	0.0175284
684.129	0.0171650
684.207	0.0170689
684.285	0.0168955
684.363	0.0165945
684.442	0.0165443
684.520	0.0162902
684.598	0.0160626
684.676	0.0157254
684.754	0.0155930
684.832	0.0151707
684.910	0.0148951
684.988	0.0145318
685.067	0.0144238
685.145	0.0142343
685.223	0.0141421
685.301	0.0140166
685.379	0.0140305
685.457	0.0138564
685.535	0.0138839
685.613	0.0138919
685.692	0.0139205
685.770	0.0136400
685.848	0.0136395
685.926	0.0134885
686.004	0.0134445
686.082	0.0133599
686.160	0.0133021
686.238	0.0132572
686.317	0.0135123
686.395	0.0135305
686.473	0.0133940
686.551	0.0136298
686.629	0.0137615
686.707	0.0138445
686.785	0.0138293
686.863	0.0141230
686.942	0.0141171
687.020	0.0143145
687.098	0.0145390
687.176	0.0147370
687.254	0.0147704
687.332	0.0150780
687.410	0.0151978
687.488	0.0154044
687.567	0.0157301
687.645	0.0158665
687.723	0.0161031
687.801	0.0163452
687.879	0.0165268
687.957	0.0166063
688.035	0.0167553
688.113	0.0168794
688.192	0.0170116
688.270	0.0171114
688.348	0.0172674
688.426	0.0174200
688.504	0.0175656
688.582	0.0175922
688.660	0.0177015
688.738	0.0177431
688.817	0.0176915
688.895	0.0178055
688.973	0.0177717
689.051	0.0177036
689.129	0.0173379
689.207	0.0173161
689.285	0.0171152
689.363	0.0168043
689.442	0.0165869
689.520	0.0161839
689.598	0.0158905
689.676	0.0154645
689.754	0.0150688
689.832	0.0147085
689.910	0.0144817
689.988	0.0142200
690.067	0.0139657
690.145	0.0136633
690.223	0.0134688
690.301	0.0132883
690.379	0.0131042
690.457	0.0129980
690.535	0.0130855
690.613	0.0129948
690.692	0.0129451
690.770	0.0129252
690.848	0.0130234
690.926	0.0129814
691.004	0.0130235
691.082	0.0133221
691.160	0.0133800
691.238	0.0136200
691.317	0.0137750
691.395	0.0138834
691.473	0.0138838
691.551	0.0140754
691.629	0.0142007
691.707	0.0142937
691.785	0.0144708
691.863	0.0144782
691.942	0.0144537
692.020	0.0145578
692.098	0.0148029
692.176	0.0146974
692.254	0.0148074
692.332	0.0151119
692.410	0.0153439
692.488	0.0155904
692.567	0.0158481
692.645	0.0162702
692.723	0.0163487
692.801	0.0166944
692.879	0.0168052
692.957	0.0170297
693.035	0.0172621
693.113	0.0173817
693.192	0.0174699
693.270	0.0174916
693.348	0.0174270
693.426	0.0174905
693.504	0.0174645
693.582	0.0174335
693.660	0.0175617
693.738	0.0175752
693.817	0.0173051
693.895	0.0172408
693.973	0.0172741
694.051	0.0172487
694.129	0.0172490
694.207	0.0168073
694.285	0.0168078
694.363	0.0165956
694.442	0.0166298
694.520	0.0163855
694.598	0.0161592
694.676	0.0158025
694.754	0.0155739
694.832	0.0156271
694.910	0.0153510
694.988	0.0152345
695.067	0.0150465
695.145	0.0147522
695.223	0.0146381
695.301	0.0143364
695.379	0.0141194
695.457	0.0138270
695.535	0.0134172
695.613	0.0133221
695.692	0.0131217
695.770	0.0129078
695.848	0.0128195
695.926	0.0126017
696.004	0.0123775
696.082	0.0122882
696.160	0.0122488
696.238	0.0121368
696.317	0.0124177
696.395	0.0124506
696.473	0.0124371
696.551	0.0128038
696.629	0.0132321
696.707	0.0135419
696.785	0.0138206
696.863	0.0141477
696.942	0.0143388
697.020	0.0147013
697.098	0.0151829
697.176	0.0154073
697.254	0.0155378
697.332	0.0158253
697.410	0.0160104
697.488	0.0162122
697.567	0.0164705
697.645	0.0164084
697.723	0.0164732
697.801	0.0167834
697.879	0.0169381
697.957	0.0170739
698.035	0.0170435
698.113	0.0173313
698.192	0.0173834
698.270	0.0174306
698.348	0.0176315
698.426	0.0174520
698.504	0.0175034
698.582	0.0175460
698.660	0.0175567
698.738	0.0173438
698.817	0.0173861
698.895	0.0173201
698.973	0.0171378
699.051	0.0170901
699.129	0.0170371
699.207	0.0170004
699.285	0.0168354
699.363	0.0165413
699.442	0.0164598
699.520	0.0162222
699.598	0.0159008
699.676	0.0155023
699.754	0.0153021
699.832	0.0150195
699.910	0.0147111
699.988	0.0143164
700.067	0.0140871
700.145	0.0137743
700.223	0.0136798
700.301	0.0135242
700.379	0.0131805
700.457	0.0133722
700.535	0.0131452
700.613	0.0129975
700.692	0.0129655
700.770	0.0129675
700.848	0.0130650
700.926	0.0130462
701.004	0.0130135
701.082	0.0130883
701.160	0.0131714
701.238	0.0134293
701.317	0.0135722
701.395	0.0136466
701.473	0.0138545
701.551	0.0140930
701.629	0.0143570
701.707	0.0146390
701.785	0.0148507
701.863	0.0152537
701.942	0.0153642
702.020	0.0156081
702.098	0.0157274
702.176	0.0159466
702.254	0.0161497
702.332	0.0160282
702.410	0.0161493
702.488	0.0161440
702.567	0.0161517
702.645	0.0161001
702.723	0.0158922
702.801	0.0157243
702.879	0.0157967
702.957	0.0156487
703.035	0.0155959
703.113	0.0155524
703.192	0.0156044
703.270	0.0155797
703.348	0.0155987
703.426	0.0157694
703.504	0.0159674
703.582	0.0159804
703.660	0.0162386
703.738	0.0164404
703.817	0.0164824
703.895	0.0165233
703.973	0.0166173
704.051	0.0166990
704.129	0.0167715
704.207	0.0166102
704.285	0.0166103
704.363	0.0164414
704.442	0.0164552
704.520	0.0163415
704.598	0.0162611
704.676	0.0160709
704.754	0.0157180
704.832	0.0155003
704.910	0.0150801
704.988	0.0149996
705.067	0.0146194
705.145	0.0144222
705.223	0.0142433
705.301	0.0140371
705.379	0.0139347
705.457	0.0136968
705.535	0.0137424
705.613	0.0137039
705.692	0.0137928
705.770	0.0139109
705.848	0.0141831
705.926	0.0141515
706.004	0.0142751
706.082	0.0144665
706.160	0.0145179
706.238	0.0145667
706.317	0.0147188
706.395	0.0146916
706.473	0.0146704
706.551	0.0147752
706.629	0.0146230
706.707	0.0147717
706.785	0.0146603
706.863	0.0145939
706.942	0.0146085
707.020	0.0146000
707.098	0.0146923
707.176	0.0148349
707.254	0.0148820
707.332	0.0150142
707.410	0.0151626
707.488	0.0153418
707.567	0.0154279
707.645	0.0155010
707.723	0.0154259
707.801	0.0153808
707.879	0.0153737
707.957	0.0153499
708.035	0.0154991
708.113	0.0153012
708.192	0.0154155
708.270	0.0152933
708.348	0.0154992
708.426	0.0156664
708.504	0.0157213
708.582	0.0158190
708.660	0.0159881
708.738	0.0164289
708.817	0.0164970
708.895	0.0166582
708.973	0.0168256
709.051	0.0169065
709.129	0.0171890
709.207	0.0172727
709.285	0.0172630
709.363	0.0170853
709.442	0.0171708
709.520	0.0169123
709.598	0.0166044
709.676	0.0165515
709.754	0.0160934
709.832	0.0157061
709.910	0.0155928
709.988	0.0151800
710.067	0.0148925
710.145	0.0145857
710.223	0.0142538
710.301	0.0141481
710.379	0.0139405
710.457	0.0137374
710.535	0.0137452
710.613	0.0136250
710.692	0.0135556
710.770	0.0135804
710.848	0.0137032
710.926	0.0137708
711.004	0.0139552
711.082	0.0141615
711.160	0.0142197
711.238	0.0143963
711.317	0.0144936
711.395	0.0146062
711.473	0.0145301
711.551	0.0146828
711.629	0.0146610
711.707	0.0146989
711.785	0.0146165
711.863	0.0147117
711.942	0.0145805
712.020	0.0147670
712.098	0.0147092
712.176	0.0146824
712.254	0.0148966
712.332	0.0149285
712.410	0.0153116
712.488	0.0155289
712.567	0.0158232
712.645	0.0160052
712.723	0.0161666
712.801	0.0163898
712.879	0.0166985
712.957	0.0167020
713.035	0.0167375
713.113	0.0168700
713.192	0.0168328
713.270	0.0166838
713.348	0.0167474
713.426	0.0165604
713.504	0.0164377
713.582	0.0163177
713.660	0.0161701
713.738	0.0160715
713.817	0.0161356
713.895	0.0161653
713.973	0.0159570
714.051	0.0157016
714.129	0.0157857
714.207	0.0157423
714.285	0.0154862
714.363	0.0153646
714.442	0.0151727
714.520	0.0150150
714.598	0.0148773
714.676	0.0148809
714.754	0.0145217
714.832	0.0144259
714.910	0.0143761
714.988	0.0142646
715.067	0.0140709
715.145	0.0141543
715.223	0.0140911
715.301	0.0141726
715.379	0.0144051
715.457	0.0142554
715.535	0.0144496
715.613	0.0146040
715.692	0.0145432
715.770	0.0148211
715.848	0.0150134
715.926	0.0151723
716.004	0.0152294
716.082	0.0152892
716.160	0.0154807
716.238	0.0155111
716.317	0.0155042
716.395	0.0155827
716.473	0.0157531
716.551	0.0157038
716.629	0.0156392
716.707	0.0155907
716.785	0.0155135
716.863	0.0154575
716.942	0.0156463
717.020	0.0153251
717.098	0.0153123
717.176	0.0152896
717.254	0.0152361
717.332	0.0152547
717.410	0.0150851
717.488	0.0149591
717.567	0.0149743
717.645	0.0149704
717.723	0.0151849
717.801	0.0151708
717.879	0.0151509
717.957	0.0150411
718.035	0.0153089
718.113	0.0152344
718.192	0.0154542
718.270	0.0156412
718.348	0.0157657
718.426	0.0157327
718.504	0.0157949
718.582	0.0159783
718.660	0.0160067
718.738	0.0159860
718.817	0.0160262
718.895	0.0159444
718.973	0.0159689
719.051	0.0160788
719.129	0.0159251
719.207	0.0157890
719.285	0.0156953
719.363	0.0156107
719.442	0.0154710
719.520	0.0153745
719.598	0.0151745
719.676	0.0152282
719.754	0.0151772
719.832	0.0150262
719.910	0.0151398
719.988	0.0149536
720.067	0.0148977
720.145	0.0149969
720.223	0.0150780
720.301	0.0149662
720.379	0.0150998
720.457	0.0151225
720.535	0.0150636
720.613	0.0152388
720.692	0.0152399
720.770	0.0151885
720.848	0.0151948
720.926	0.0151597
721.004	0.0152059
721.082	0.0153094
721.160	0.0151636
721.238	0.0149938
721.317	0.0150993
721.395	0.0150283
721.473	0.0151518
721.551	0.0150243
721.629	0.0148861
721.707	0.0148779
721.785	0.0148736
721.863	0.0146523
721.942	0.0146481
722.020	0.0147180
722.098	0.0148355
722.176	0.0146552
722.254	0.0147980
722.332	0.0148151
722.410	0.0150346
722.488	0.0149940
722.567	0.0151032
722.645	0.0152352
722.723	0.0150919
722.801	0.0152893
722.879	0.0153939
722.957	0.0154017
723.035	0.0154095
723.113	0.0156266
723.192	0.0154568
723.270	0.0156091
723.348	0.0158028
723.426	0.0158913
723.504	0.0159178
723.582	0.0160048
723.660	0.0161764
723.738	0.0163307
723.817	0.0163824
723.895	0.0164359
723.973	0.0163914
724.051	0.0164095
724.129	0.0163786
724.207	0.0163127
724.285	0.0162239
724.363	0.0162263
724.442	0.0159751
724.520	0.0158913
724.598	0.0157895
724.676	0.0155840
724.754	0.0154354
724.832	0.0151704
724.910	0.0151118
724.988	0.0149856
725.067	0.0149310
725.145	0.0148814
725.223	0.0147422
725.301	0.0146163
725.379	0.0148126
725.457	0.0146255
725.535	0.0146318
725.613	0.0148759
725.692	0.0148018
725.770	0.0147063
725.848	0.0147541
725.926	0.0148625
726.004	0.0148840
726.082	0.0148005
726.160	0.0148874
726.238	0.0147906
726.317	0.0146998
726.395	0.0146582
726.473	0.0146765
726.551	0.0147637
726.629	0.0145746
726.707	0.0144601
726.785	0.0145587
726.863	0.0145089
726.942	0.0143981
727.020	0.0143549
727.098	0.0144936
727.176	0.0145689
727.254	0.0145469
727.332	0.0146738
727.410	0.0147276
727.488	0.0148975
727.567	0.0150246
727.645	0.0151752
727.723	0.0153545
727.801	0.0156370
727.879	0.0157093
727.957	0.0157801
728.035	0.0160374
728.113	0.0160846
728.192	0.0161160
728.270	0.0161713
728.348	0.0161116
728.426	0.0162234
728.504	0.0161864
728.582	0.0161343
728.660	0.0161436
728.738	0.0161516
728.817	0.0160535
728.895	0.0158025
728.973	0.0158478
729.051	0.0157296
729.129	0.0155488
729.207	0.0153124
729.285	0.0154437
729.363	0.0154936
729.442	0.0153583
729.520	0.0152569
729.598	0.0152560
729.676	0.0153986
729.754	0.0151715
729.832	0.0153416
729.910	0.0153056
729.988	0.0154045
730.067	0.0155430
730.145	0.0154993
730.223	0.0154824
730.301	0.0154945
730.379	0.0153907
730.457	0.0153284
730.535	0.0151870
730.613	0.0151974
730.692	0.0149069
730.770	0.0148771
730.848	0.0147260
730.926	0.0144612
731.004	0.0143113
731.082	0.0143278
731.160	0.0142122
731.238	0.0143213
731.317	0.0142461
731.395	0.0141703
731.473	0.0143324
731.551	0.0144583
731.629	0.0145775
731.707	0.0147972
731.785	0.0148378
731.863	0.0148711
731.942	0.0149551
732.020	0.0150481
732.098	0.0150223
732.176	0.0150253
732.254	0.0150972
732.332	0.0150543
732.410	0.0150444
732.488	0.0151132
732.567	0.0152359
732.645	0.0153770
732.723	0.0153394
732.801	0.0154240
732.879	0.0153481
732.957	0.0155605
733.035	0.0156394
733.113	0.0157001
733.192	0.0156042
733.270	0.0156672
733.348	0.0157156
733.426	0.0157748
733.504	0.0157938
733.582	0.0155000
733.660	0.0156383
733.738	0.0156415
733.817	0.0155738
733.895	0.0156166
733.973	0.0154177
734.051	0.0154825
734.129	0.0153795
734.207	0.0153552
734.285	0.0153297
734.363	0.0151811
734.442	0.0152097
734.520	0.0152345
734.598	0.0150294
734.676	0.0151001
734.754	0.0150318
734.832	0.0151090
734.910	0.0151427
734.988	0.0151033
735.067	0.0149711
735.145	0.0151264
735.223	0.0152312
735.301	0.0152950
735.379	0.0153879
735.457	0.0155134
735.535	0.0155571
735.613	0.0156178
735.692	0.0158082
735.770	0.0159546
735.848	0.0158613
735.926	0.0157631
736.004	0.0158891
736.082	0.0159364
736.160	0.0157288
736.238	0.0157159
736.317	0.0154507
736.395	0.0153215
736.473	0.0150961
736.551	0.0149907
736.629	0.0148294
736.707	0.0148911
736.785	0.0149213
736.863	0.0146697
736.942	0.0145670
737.020	0.0146207
737.098	0.0148019
737.176	0.0148597
737.254	0.0146915
737.332	0.0149036
737.410	0.0149257
737.488	0.0150952
737.567	0.0151659
737.645	0.0152426
737.723	0.0153214
737.801	0.0153695
737.879	0.0154738
737.957	0.0155046
738.035	0.0155431
738.113	0.0154415
738.192	0.0154169
738.270	0.0155046
738.348	0.0154442
738.426	0.0152718
738.504	0.0152665
738.582	0.0152607
738.660	0.0152168
738.738	0.0152119
738.817	0.0149840
738.895	0.0149703
738.973	0.0149694
739.051	0.0149712
739.129	0.0150624
739.207	0.0150329
739.285	0.0151034
739.363	0.0151469
739.442	0.0153098
739.520	0.0153516
739.598	0.0153751
739.676	0.0156617
739.754	0.0155957
739.832	0.0156554
739.910	0.0156475
739.988	0.0157501
740.067	0.0157698
740.145	0.0156332
740.223	0.0156377
740.301	0.0156348
740.379	0.0154663
740.457	0.0155582
740.535	0.0155309
740.613	0.0154082
740.692	0.0153896
740.770	0.0154889
740.848	0.0153400
740.926	0.0153938
741.004	0.0154055
741.082	0.0154778
741.160	0.0156019
741.238	0.0155019
741.317	0.0157286
741.395	0.0155099
741.473	0.0155208
741.551	0.0155365
741.629	0.0154597
741.707	0.0155030
741.785	0.0153737
741.863	0.0151361
741.942	0.0151063
742.020	0.0150640
742.098	0.0148600
742.176	0.0148360
742.254	0.0147767
742.332	0.0147990
742.410	0.0146680
742.488	0.0148030
742.567	0.0147612
742.645	0.0147963
742.723	0.0148013
742.801	0.0148760
742.879	0.0148118
742.957	0.0150980
743.035	0.0150568
743.113	0.0150978
743.192	0.0153147
743.270	0.0152627
743.348	0.0152271
743.426	0.0153458
743.504	0.0153959
743.582	0.0153700
743.660	0.0153734
743.738	0.0152254
743.817	0.0154520
743.895	0.0154973
743.973	0.0153439
744.051	0.0152483
744.129	0.0152558
744.207	0.0151078
744.285	0.0150903
744.363	0.0150587
744.442	0.0151037
744.520	0.0150492
744.598	0.0150136
744.676	0.0150420
744.754	0.0150833
744.832	0.0153784
744.910	0.0153719
744.988	0.0153455
745.067	0.0153892
745.145	0.0154319
745.223	0.0155393
745.301	0.0157767
745.379	0.0158035
745.457	0.0156433
745.535	0.0157384
745.613	0.0157467
745.692	0.0157562
745.770	0.0156298
745.848	0.0156054
745.926	0.0155190
746.004	0.0155322
746.082	0.0154602
746.160	0.0156027
746.238	0.0153398
746.317	0.0153018
746.395	0.0153282
746.473	0.0150547
746.551	0.0152113
746.629	0.0151788
746.707	0.0152030
746.785	0.0151274
746.863	0.0151057
746.942	0.0151417
747.020	0.0149892
747.098	0.0150079
747.176	0.0151574
747.254	0.0150514
747.332	0.0151517
747.410	0.0151746
747.488	0.0151078
747.567	0.0151208
747.645	0.0152077
747.723	0.0152032
747.801	0.0151498
747.879	0.0151110
747.957	0.0150434
748.035	0.0150684
748.113	0.0153300
748.192	0.0152089
748.270	0.0151585
748.348	0.0150926
748.426	0.0150281
748.504	0.0152428
748.582	0.0153086
748.660	0.0152516
748.738	0.0153372
748.817	0.0153663
748.895	0.0153427
748.973	0.0154565
749.051	0.0153159
749.129	0.0152378
749.207	0.0153703
749.285	0.0152957
749.363	0.0152160
749.442	0.0151092
749.520	0.0150877
749.598	0.0150533
749.676	0.0149655
749.754	0.0149896
749.832	0.0147787
749.910	0.0148235
749.988	0.0146861
750.067	0.0148318
750.145	0.0148666
750.223	0.0147361
750.301	0.0148117
750.379	0.0148682
750.457	0.0150294
750.535	0.0151378
750.613	0.0151557
750.692	0.0153425
750.770	0.0155423
750.848	0.0154774
750.926	0.0156689
751.004	0.0156372
751.082	0.0157658
751.160	0.0157887
751.238	0.0157545
751.317	0.0157642
751.395	0.0157877
751.473	0.0157681
751.551	0.0156905
751.629	0.0157776
751.707	0.0156521
751.785	0.0153596
751.863	0.0154267
751.942	0.0152096
752.020	0.0149621
752.098	0.0151214
752.176	0.0149956
752.254	0.0149488
752.332	0.0149629
752.410	0.0150322
752.488	0.0150234
752.567	0.0150710
752.645	0.0150738
752.723	0.0149491
752.801	0.0151312
752.879	0.0152026
752.957	0.0153913
753.035	0.0153951
753.113	0.0153164
753.192	0.0153960
753.270	0.0154150
753.348	0.0154000
753.426	0.0155191
753.504	0.0154176
753.582	0.0154279
753.660	0.0152464
753.738	0.0152459
753.817	0.0152735
753.895	0.0154121
753.973	0.0151919
754.051	0.0152615
754.129	0.0151122
754.207	0.0151971
754.285	0.0152573
754.363	0.0152848
754.442	0.0153187
754.520	0.0152764
754.598	0.0151035
754.676	0.0151584
754.754	0.0152096
754.832	0.0150424
754.910	0.0148248
754.988	0.0149572
755.067	0.0148014
755.145	0.0148744
755.223	0.0147196
755.301	0.0147085
755.379	0.0146780
755.457	0.0146144
755.535	0.0145711
755.613	0.0146300
755.692	0.0147963
755.770	0.0147154
755.848	0.0146763
755.926	0.0148740
756.004	0.0149475
756.082	0.0150663
756.160	0.0152166
756.238	0.0152641
756.317	0.0152882
756.395	0.0153674
756.473	0.0154346
756.551	0.0155830
756.629	0.0156554
756.707	0.0157351
756.785	0.0157110
756.863	0.0157645
756.942	0.0156653
757.020	0.0156097
757.098	0.0155971
757.176	0.0155965
757.254	0.0156125
757.332	0.0153672
757.410	0.0151745
757.488	0.0153992
757.567	0.0154276
757.645	0.0150976
757.723	0.0150964
757.801	0.0152831
757.879	0.0152560
757.957	0.0152959
758.035	0.0153735
758.113	0.0153821
758.192	0.0153012
758.270	0.0155612
758.348	0.0155708
758.426	0.0155869
758.504	0.0155833
758.582	0.0155558
758.660	0.0154887
758.738	0.0155585
758.817	0.0156254
758.895	0.0154548
758.973	0.0155898
759.051	0.0155557
759.129	0.0154510
759.207	0.0153499
759.285	0.0152819
759.363	0.0153726
759.442	0.0151936
759.520	0.0151476
759.598	0.0151017
759.676	0.0151802
759.754	0.0150237
759.832	0.0150093
759.910	0.0149280
759.988	0.0149020
760.067	0.0150388
760.145	0.0149432
760.223	0.0149124
760.301	0.0148402
760.379	0.0149413
760.457	0.0149649
760.535	0.0149812
760.613	0.0149097
760.692	0.0149121
760.770	0.0150740
760.848	0.0151000
760.926	0.0151903
761.004	0.0152160
761.082	0.0152127
761.160	0.0152938
761.238	0.0153413
761.317	0.0151975
761.395	0.0152547
761.473	0.0153904
761.551	0.0152063
761.629	0.0152870
761.707	0.0152933
761.785	0.0152570
761.863	0.0154404
761.942	0.0155168
762.020	0.0153369
762.098	0.0154212
762.176	0.0153027
762.254	0.0153790
762.332	0.0153162
762.410	0.0152892
762.488	0.0155338
762.567	0.0155838
762.645	0.0154612
762.723	0.0155315
762.801	0.0154446
762.879	0.0154550
762.957	0.0154798
763.035	0.0153555
763.113	0.0154394
763.192	0.0152962
763.270	0.0153517
763.348	0.0153643
763.426	0.0153068
763.504	0.0154326
763.582	0.0154007
763.660	0.0152959
763.738	0.0153706
763.817	0.0153917
763.895	0.0153569
763.973	0.0152657
764.051	0.0153217
764.129	0.0153389
764.207	0.0152870
764.285	0.0153838
764.363	0.0152801
764.442	0.0153611
764.520	0.0151492
764.598	0.0151744
764.676	0.0153539
764.754	0.0152400
764.832	0.0151372
764.910	0.0150092
764.988	0.0149689
765.067	0.0151856
765.145	0.0151418
765.223	0.0150946
765.301	0.0149180
765.379	0.0151230
765.457	0.0150972
765.535	0.0150931
765.613	0.0151604
765.692	0.0153541
765.770	0.0152582
765.848	0.0152058
765.926	0.0154186
766.004	0.0153320
766.082	0.0153839
766.160	0.0154098
766.238	0.0153300
766.317	0.0153706
766.395	0.0156065
766.473	0.0155279
766.551	0.0152612
766.629	0.0152798
766.707	0.0154037
766.785	0.0153843
766.863	0.0153101
766.942	0.0153752
767.020	0.0152029
767.098	0.0152912
767.176	0.0152941
767.254	0.0152032
767.332	0.0151582
767.410	0.0151354
767.488	0.0150670
767.567	0.0151498
767.645	0.0151729
767.723	0.0152741
767.801	0.0151982
767.879	0.0152461
767.957	0.0152073
768.035	0.0152818
768.113	0.0151121
768.192	0.0152318
768.270	0.0151904
768.348	0.0152168
768.426	0.0151104
768.504	0.0151157
768.582	0.0151637
768.660	0.0151485
768.738	0.0150175
768.817	0.0149867
768.895	0.0151571
768.973	0.0151855
769.051	0.0150272
769.129	0.0151906
769.207	0.0152472
769.285	0.0153161
769.363	0.0152958
769.442	0.0154878
769.520	0.0154252
769.598	0.0153476
769.676	0.0152829
769.754	0.0154063
769.832	0.0154563
769.910	0.0152965
769.988	0.0152760
770.067	0.0152485
770.145	0.0152486
770.223	0.0151760
770.301	0.0152855
770.379	0.0152258
770.457	0.0152052
770.535	0.0151022
770.613	0.0152045
770.692	0.0153519
770.770	0.0151573
770.848	0.0153173
770.926	0.0152686
771.004	0.0154253
771.082	0.0153925
771.160	0.0152538
771.238	0.0153790
771.317	0.0152363
771.395	0.0153690
771.473	0.0154837
771.551	0.0155531
771.629	0.0154779
771.707	0.0156117
771.785	0.0156525
771.863	0.0157053
771.942	0.0156901
772.020	0.0157341
772.098	0.0155127
772.176	0.0154796
772.254	0.0154250
772.332	0.0153107
772.410	0.0153423
772.488	0.0153017
772.567	0.0151912
772.645	0.0153004
772.723	0.0151752
772.801	0.0151395
772.879	0.0151017
772.957	0.0150542
773.035	0.0151606
773.113	0.0150135
773.192	0.0150820
773.270	0.0151480
773.348	0.0151037
773.426	0.0150301
773.504	0.0149075
773.582	0.0151195
773.660	0.0150171
773.738	0.0150624
773.817	0.0148479
773.895	0.0150718
773.973	0.0151838
774.051	0.0151669
774.129	0.0151684
774.207	0.0151534
774.285	0.0151292
774.363	0.0153139
774.442	0.0152086
774.520	0.0154093
774.598	0.0153815
774.676	0.0153596
774.754	0.0152563
774.832	0.0154268
774.910	0.0154345
774.988	0.0153033
775.067	0.0152631
775.145	0.0152632
775.223	0.0151964
775.301	0.0152341
775.379	0.0152911
775.457	0.0151898
775.535	0.0152470
775.613	0.0151330
775.692	0.0151021
775.770	0.0152079
775.848	0.0152451
775.926	0.0152066
776.004	0.0154429
776.082	0.0153171
776.160	0.0154148
776.238	0.0154454
776.317	0.0153086
776.395	0.0153999
776.473	0.0153940
776.551	0.0153210
776.629	0.0153207
776.707	0.0153558
776.785	0.0152356
776.863	0.0154250
776.942	0.0155080
777.020	0.0153859
777.098	0.0154408
777.176	0.0154259
777.254	0.0153666
777.332	0.0153252
777.410	0.0154653
777.488	0.0154721
777.567	0.0153049
777.645	0.0153161
777.723	0.0152315
777.801	0.0152218
777.879	0.0150552
777.957	0.0149436
778.035	0.0148734
778.113	0.0148885
778.192	0.0149832
778.270	0.0148361
778.348	0.0147905
778.426	0.0147343
778.504	0.0149026
778.582	0.0147360
778.660	0.0148168
778.738	0.0149064
778.817	0.0148108
778.895	0.0149363
778.973	0.0151016
779.051	0.0149801
779.129	0.0150180
779.207	0.0151877
779.285	0.0151938
779.363	0.0153066
779.442	0.0152647
779.520	0.0153517
779.598	0.0153315
779.676	0.0155148
779.754	0.0154565
779.832	0.0154545
779.910	0.0156524
779.988	0.0156577
780.067	0.0156860
780.145	0.0156434
780.223	0.0157413
780.301	0.0156879
780.379	0.0154292
780.457	0.0154498
780.535	0.0154688
780.613	0.0154181
780.692	0.0152175
780.770	0.0152399
780.848	0.0150433
780.926	0.0151759
781.004	0.0151178
781.082	0.0148998
781.160	0.0151840
781.238	0.0151115
781.317	0.0151746
781.395	0.0152337
781.473	0.0153029
781.551	0.0151801
781.629	0.0152110
781.707	0.0152631
781.785	0.0154344
781.863	0.0153901
781.942	0.0154337
782.020	0.0153470
782.098	0.0153326
782.176	0.0154440
782.254	0.0153675
782.332	0.0152802
782.410	0.0151928
782.488	0.0152042
782.567	0.0151889
782.645	0.0152409
782.723	0.0152499
782.801	0.0151342
782.879	0.0150427
782.957	0.0150239
783.035	0.0148670
783.113	0.0148616
783.192	0.0149109
783.270	0.0149416
783.348	0.0148948
783.426	0.0149059
783.504	0.0149664
783.582	0.0150207
783.660	0.0150566
783.738	0.0150602
783.817	0.0150951
783.895	0.0152020
783.973	0.0152018
784.051	0.0153517
784.129	0.0153619
784.207	0.0152117
784.285	0.0154293
784.363	0.0156416
784.442	0.0156563
784.520	0.0155556
784.598	0.0155642
784.676	0.0155773
784.754	0.0157253
784.832	0.0156365
784.910	0.0156857
784.988	0.0156693
785.067	0.0157553
785.145	0.0155783
785.223	0.0154868
785.301	0.0153915
785.379	0.0154102
785.457	0.0155302
785.535	0.0154079
785.613	0.0152348
785.692	0.0153803
785.770	0.0153729
785.848	0.0152536
785.926	0.0153237
786.004	0.0151358
786.082	0.0150364
786.160	0.0149085
786.238	0.0149516
786.317	0.0148048
786.395	0.0149326
786.473	0.0149863
786.551	0.0148296
786.629	0.0149660
786.707	0.0149965
786.785	0.0149683
786.863	0.0149741
786.942	0.0150967
787.020	0.0151662
787.098	0.0151948
787.176	0.0152061
787.254	0.0152505
787.332	0.0152737
787.410	0.0151983
787.488	0.0153416
787.567	0.0153980
787.645	0.0151597
787.723	0.0151767
787.801	0.0150836
787.879	0.0153149
787.957	0.0152736
788.035	0.0152094
788.113	0.0153111
788.192	0.0152599
788.270	0.0153359
788.348	0.0153244
788.426	0.0152164
788.504	0.0153722
788.582	0.0153116
788.660	0.0151042
788.738	0.0153095
788.817	0.0152242
788.895	0.0149927
788.973	0.0151327
789.051	0.0150235
789.129	0.0151426
789.207	0.0152308
789.285	0.0152695
789.363	0.0152673
789.442	0.0152196
789.520	0.0153493
789.598	0.0155177
789.676	0.0153078
789.754	0.0155070
789.832	0.0156887
789.910	0.0155157
789.988	0.0156449
790.067	0.0156299
790.145	0.0156900
790.223	0.0156620
790.301	0.0158615
790.379	0.0156677
790.457	0.0156067
790.535	0.0155264
790.613	0.0157475
790.692	0.0156878
790.770	0.0155159
790.848	0.0154957
790.926	0.0155486
791.004	0.0154669
791.082	0.0153389
791.160	0.0152704
791.238	0.0154445
791.317	0.0151657
791.395	0.0152082
791.473	0.0152844
791.551	0.0151391
791.629	0.0151040
791.707	0.0149429
791.785	0.0150542
791.863	0.0149296
791.942	0.0148520
792.020	0.0149437
792.098	0.0150536
792.176	0.0149990
792.254	0.0148979
792.332	0.0149715
792.410	0.0150628
792.488	0.0150220
792.567	0.0149643
792.645	0.0149104
792.723	0.0151754
792.801	0.0151707
792.879	0.0151761
792.957	0.0150658
793.035	0.0151720
793.113	0.0151997
793.192	0.0151710
793.270	0.0152071
793.348	0.0151032
793.426	0.0151439
793.504	0.0152628
793.582	0.0152100
793.660	0.0153345
793.738	0.0153298
793.817	0.0150201
793.895	0.0151662
793.973	0.0151656
794.051	0.0151971
794.129	0.0150603
794.207	0.0152033
794.285	0.0153069
794.363	0.0152389
794.442	0.0153028
794.520	0.0155333
794.598	0.0155808
794.676	0.0155675
794.754	0.0154488
794.832	0.0155394
794.910	0.0156362
794.988	0.0157711
795.067	0.0157671
795.145	0.0156387
795.223	0.0158097
795.301	0.0158178
795.379	0.0156972
795.457	0.0157840
795.535	0.0157935
795.613	0.0156873
795.692	0.0157900
795.770	0.0156625
795.848	0.0155399
795.926	0.0155582
796.004	0.0154819
796.082	0.0155824
796.160	0.0154343
796.238	0.0152961
796.317	0.0151907
796.395	0.0151274
796.473	0.0152154
796.551	0.0151373
796.629	0.0149480
796.707	0.0150749
796.785	0.0149566
796.863	0.0147952
796.942	0.0147658
797.020	0.0148240
797.098	0.0148088
797.176	0.0147532
797.254	0.0146699
797.332	0.0146963
797.410	0.0147240
797.488	0.0147402
797.567	0.0146416
797.645	0.0146730
797.723	0.0147645
797.801	0.0148765
797.879	0.0147866
797.957	0.0149384
798.035	0.0150011
798.113	0.0152155
798.192	0.0153894
798.270	0.0154016
798.348	0.0155148
798.426	0.0153957
798.504	0.0154392
798.582	0.0157812
798.660	0.0156924
798.738	0.0156457
798.817	0.0156794
798.895	0.0156034
798.973	0.0155310
799.051	0.0155380
799.129	0.0154637
799.207	0.0155384
799.285	0.0155159
799.363	0.0153578
799.442	0.0152542
799.520	0.0151479
799.598	0.0153330
799.676	0.0151925
799.754	0.0153551
799.832	0.0154332
799.910	0.0153846
799.988	0.0154878
800.067	0.0153981
800.145	0.0154866
800.223	0.0155460
800.301	0.0156190
800.379	0.0155595
800.457	0.0155435
800.535	0.0155173
800.613	0.0154523
800.692	0.0154977
800.770	0.0154731
800.848	0.0153361
800.926	0.0153240
801.004	0.0151982
801.082	0.0152577
801.160	0.0154126
801.238	0.0153266
801.317	0.0153791
801.395	0.0151298
801.473	0.0151566
801.551	0.0151309
801.629	0.0150909
801.707	0.0151797
801.785	0.0150154
801.863	0.0151636
801.942	0.0151554
802.020	0.0151553
802.098	0.0149872
802.176	0.0150312
802.254	0.0149152
802.332	0.0149501
802.410	0.0148862
802.488	0.0148475
802.567	0.0149399
802.645	0.0149460
802.723	0.0148708
802.801	0.0148845
802.879	0.0148695
802.957	0.0147807
803.035	0.0149736
803.113	0.0149672
803.192	0.0151454
803.270	0.0151612
803.348	0.0150440
803.426	0.0152469
803.504	0.0151480
803.582	0.0153233
803.660	0.0154241
803.738	0.0154298
803.817	0.0155431
803.895	0.0155210
803.973	0.0154635
804.051	0.0154615
804.129	0.0155093
804.207	0.0154941
804.285	0.0153370
804.363	0.0154842
804.442	0.0153838
804.520	0.0153078
804.598	0.0152157
804.676	0.0151386
804.754	0.0152888
804.832	0.0153017
804.910	0.0152138
804.988	0.0151760
805.067	0.0152648
805.145	0.0153051
805.223	0.0152605
805.301	0.0153011
805.379	0.0151984
805.457	0.0152143
805.535	0.0152524
805.613	0.0153671
805.692	0.0153606
805.770	0.0155183
805.848	0.0154766
805.926	0.0154990
806.004	0.0155598
806.082	0.0155545
806.160	0.0155121
806.238	0.0155110
806.317	0.0155569
806.395	0.0156362
806.473	0.0154251
806.551	0.0154224
806.629	0.0155652
806.707	0.0154142
806.785	0.0154536
806.863	0.0154550
806.942	0.0152076
807.020	0.0152985
807.098	0.0152666
807.176	0.0151412
807.254	0.0152541
807.332	0.0152670
807.410	0.0150670
807.488	0.0149583
807.567	0.0149135
807.645	0.0148967
807.723	0.0149191
807.801	0.0148533
807.879	0.0147952
807.957	0.0147619
808.035	0.0148011
808.113	0.0148531
808.192	0.0145845
808.270	0.0147559
808.348	0.0149369
808.426	0.0149553
808.504	0.0149004
808.582	0.0149228
808.660	0.0149749
808.738	0.0149974
808.817	0.0150777
808.895	0.0152777
808.973	0.0153107
809.051	0.0151787
809.129	0.0152963
809.207	0.0151616
809.285	0.0153135
809.363	0.0154234
809.442	0.0155476
809.520	0.0155218
809.598	0.0155141
809.676	0.0157150
809.754	0.0156023
809.832	0.0155733
809.910	0.0155240
809.988	0.0156808
810.067	0.0155477
810.145	0.0155789
810.223	0.0155453
810.301	0.0155830
810.379	0.0154202
810.457	0.0156001
810.535	0.0156118
810.613	0.0155695
810.692	0.0153786
810.770	0.0154183
810.848	0.0154086
810.926	0.0152754
811.004	0.0153136
811.082	0.0152560
811.160	0.0153505
811.238	0.0152850
811.317	0.0153436
811.395	0.0151350
811.473	0.0151925
811.551	0.0151494
811.629	0.0152391
811.707	0.0152644
811.785	0.0153364
811.863	0.0151115
811.942	0.0153364
812.020	0.0153697
812.098	0.0152480
812.176	0.0153362
812.254	0.0152567
812.332	0.0152358
812.410	0.0152528
812.488	0.0154183
812.567	0.0153156
812.645	0.0151941
812.723	0.0151580
812.801	0.0149979
812.879	0.0150740
812.957	0.0151534
813.035	0.0150965
813.113	0.0151021
813.192	0.0149320
813.270	0.0150394
813.348	0.0150665
813.426	0.0149787
813.504	0.0150188
813.582	0.0150835
813.660	0.0149855
813.738	0.0149694
813.817	0.0150335
813.895	0.0152959
813.973	0.0151115
814.051	0.0152683
814.129	0.0151818
814.207	0.0152663
814.285	0.0153243
814.363	0.0154088
814.442	0.0153738
814.520	0.0154554
814.598	0.0155576
814.676	0.0156278
814.754	0.0156178
814.832	0.0156458
814.910	0.0157166
814.988	0.0155722
815.067	0.0156846
815.145	0.0155284
815.223	0.0155283
815.301	0.0156971
815.379	0.0155799
815.457	0.0156099
815.535	0.0154221
815.613	0.0154104
815.692	0.0153400
815.770	0.0153400
815.848	0.0153127
815.926	0.0153441
816.004	0.0151422
816.082	0.0151336
816.160	0.0150423
816.238	0.0151206
816.317	0.0151128
816.395	0.0149875
816.473	0.0150557
816.551	0.0151652
816.629	0.0150609
816.707	0.0149747
816.785	0.0150732
816.863	0.0151823
816.942	0.0152938
817.020	0.0151397
817.098	0.0151414
817.176	0.0152631
817.254	0.0151551
817.332	0.0152445
817.410	0.0154295
817.488	0.0153510
817.567	0.0152483
817.645	0.0151980
817.723	0.0154165
817.801	0.0154166
817.879	0.0154175
817.957	0.0154304
818.035	0.0153149
818.113	0.0152939
818.192	0.0152310
818.270	0.0153220
818.348	0.0152013
818.426	0.0152540
818.504	0.0152689
818.582	0.0152222
818.660	0.0151557
818.738	0.0150079
818.817	0.0151428
818.895	0.0148807
818.973	0.0151553
819.051	0.0152129
819.129	0.0150437
819.207	0.0148708
819.285	0.0149302
819.363	0.0150249
819.442	0.0150785
819.520	0.0150888
819.598	0.0151551
819.676	0.0151140
819.754	0.0151247
819.832	0.0151905
819.910	0.0151625
819.988	0.0152866
820.067	0.0153286
820.145	0.0153651
820.223	0.0155045
820.301	0.0154977
820.379	0.0154582
820.457	0.0155359
820.535	0.0156516
820.613	0.0154668
820.692	0.0156339
820.770	0.0157089
820.848	0.0155463
820.926	0.0155927
821.004	0.0155940
821.082	0.0153600
821.160	0.0153741
821.238	0.0155856
821.317	0.0152612
821.395	0.0153203
821.473	0.0154500
821.551	0.0153147
821.629	0.0151892
821.707	0.0152368
821.785	0.0151583
821.863	0.0151942
821.942	0.0152261
822.020	0.0152224
822.098	0.0151163
822.176	0.0152570
822.254	0.0152137
822.332	0.0151020
822.410	0.0150492
822.488	0.0152426
822.567	0.0151298
822.645	0.0151328
822.723	0.0153295
822.801	0.0152025
822.879	0.0152619
822.957	0.0153203
823.035	0.0151894
823.113	0.0151729
823.192	0.0151639
823.270	0.0151939
823.348	0.0151917
823.426	0.0151591
823.504	0.0149921
823.582	0.0151672
823.660	0.0150713
823.738	0.0150300
823.817	0.0150872
823.895	0.0149640
823.973	0.0148388
824.051	0.0149592
824.129	0.0149728
824.207	0.0149986
824.285	0.0149004
824.363	0.0151285
824.442	0.0151331
824.520	0.0151218
824.598	0.0150539
824.676	0.0152335
824.754	0.0151620
824.832	0.0152088
824.910	0.0151308
824.988	0.0154102
825.067	0.0151788
825.145	0.0153129
825.223	0.0154153
825.301	0.0154135
825.379	0.0154052
825.457	0.0155824
825.535	0.0154980
825.613	0.0155502
825.692	0.0155661
825.770	0.0156107
825.848	0.0155551
825.926	0.0155788
826.004	0.0155419
826.082	0.0156348
826.160	0.0155086
826.238	0.0155917
826.317	0.0155558
826.395	0.0155301
826.473	0.0155203
826.551	0.0153199
826.629	0.0153691
826.707	0.0153664
826.785	0.0152319
826.863	0.0153727
826.942	0.0153494
827.020	0.0153892
827.098	0.0153628
827.176	0.0150614
827.254	0.0152091
827.332	0.0151047
827.410	0.0151443
827.488	0.0151553
827.567	0.0150424
827.645	0.0150365
827.723	0.0150217
827.801	0.0149626
827.879	0.0149501
827.957	0.0149010
828.035	0.0149946
828.113	0.0150300
828.192	0.0150935
828.270	0.0151664
828.348	0.0151682
828.426	0.0150278
828.504	0.0150443
828.582	0.0149903
828.660	0.0150850
828.738	0.0151521
828.817	0.0151765
828.895	0.0150591
828.973	0.0152361
829.051	0.0151830
829.129	0.0152422
829.207	0.0152827
829.285	0.0153559
829.363	0.0150912
829.442	0.0151530
829.520	0.0152002
829.598	0.0151885
829.676	0.0152358
829.754	0.0152181
829.832	0.0152260
829.910	0.0152322
829.988	0.0152301
830.067	0.0151721
830.145	0.0152151
830.223	0.0152889
830.301	0.0152287
830.379	0.0152628
830.457	0.0152939
830.535	0.0153557
830.613	0.0152688
830.692	0.0153720
830.770	0.0152850
830.848	0.0154447
830.926	0.0154610
831.004	0.0153912
831.082	0.0154038
831.160	0.0154442
831.238	0.0154156
831.317	0.0154604
831.395	0.0154320
831.473	0.0153776
831.551	0.0156275
831.629	0.0157514
831.707	0.0154300
831.785	0.0153792
831.863	0.0154880
831.942	0.0154904
832.020	0.0153850
832.098	0.0154128
832.176	0.0153696
832.254	0.0152276
832.332	0.0152737
832.410	0.0152718
832.488	0.0152413
832.567	0.0151631
832.645	0.0150163
832.723	0.0149617
832.801	0.0150957
832.879	0.0150376
832.957	0.0148998
833.035	0.0149380
833.113	0.0149305
833.192	0.0150578
833.270	0.0150423
833.348	0.0151182
833.426	0.0150262
833.504	0.0149876
833.582	0.0151231
833.660	0.0152179
833.738	0.0151932
833.817	0.0152550
833.895	0.0151878
833.973	0.0152318
834.051	0.0153304
834.129	0.0154093
834.207	0.0152504
834.285	0.0155103
834.363	0.0154748
834.442	0.0152708
834.520	0.0152599
834.598	0.0153806
834.676	0.0154919
834.754	0.0152976
834.832	0.0153963
834.910	0.0153291
834.988	0.0153224
835.067	0.0150546
835.145	0.0150765
835.223	0.0151530
835.301	0.0150729
835.379	0.0151154
835.457	0.0150497
835.535	0.0151408
835.613	0.0151134
835.692	0.0151689
835.770	0.0149846
835.848	0.0151593
835.926	0.0151676
836.004	0.0152652
836.082	0.0151218
836.160	0.0151704
836.238	0.0153449
836.317	0.0154758
836.395	0.0153342
836.473	0.0154343
836.551	0.0155120
836.629	0.0154238
836.707	0.0154268
836.785	0.0154838
836.863	0.0154983
836.942	0.0155925
837.020	0.0155074
837.098	0.0154890
837.176	0.0154773
837.254	0.0154050
837.332	0.0154581
837.410	0.0155569
837.488	0.0154814
837.567	0.0154379
837.645	0.0153627
837.723	0.0153323
837.801	0.0152182
837.879	0.0153138
837.957	0.0152081
838.035	0.0151513
838.113	0.0151099
838.192	0.0150538
838.270	0.0150663
838.348	0.0150948
838.426	0.0150258
838.504	0.0150555
838.582	0.0152551
838.660	0.0150529
838.738	0.0149326
838.817	0.0149682
838.895	0.0151716
838.973	0.0150877
839.051	0.0151593
839.129	0.0151480
839.207	0.0152155
839.285	0.0151393
839.363	0.0152058
839.442	0.0154253
839.520	0.0152937
839.598	0.0152445
839.676	0.0152345
839.754	0.0153828
839.832	0.0153062
839.910	0.0152218
839.988	0.0151564
840.067	0.0151327
840.145	0.0152421
840.223	0.0151470
840.301	0.0151731
840.379	0.0151299
840.457	0.0152848
840.535	0.0152224
840.613	0.0151904
840.692	0.0151692
840.770	0.0151783
840.848	0.0151261
840.926	0.0152735
841.004	0.0152264
841.082	0.0153098
841.160	0.0152795
841.238	0.0152052
841.317	0.0152181
841.395	0.0153106
841.473	0.0152679
841.551	0.0152911
841.629	0.0154220
841.707	0.0153014
841.785	0.0153536
841.863	0.0154216
841.942	0.0153776
842.020	0.0154887
842.098	0.0154205
842.176	0.0153231
842.254	0.0152644
842.332	0.0153258
842.410	0.0154488
842.488	0.0154149
842.567	0.0154404
842.645	0.0153215
842.723	0.0154336
842.801	0.0154818
842.879	0.0153477
842.957	0.0153387
843.035	0.0153593
843.113	0.0153084
843.192	0.0153094
843.270	0.0154470
843.348	0.0153522
843.426	0.0151895
843.504	0.0152686
843.582	0.0152621
843.660	0.0150865
843.738	0.0152075
843.817	0.0151893
843.895	0.0150398
843.973	0.0150758
844.051	0.0150657
844.129	0.0150792
844.207	0.0150974
844.285	0.0149874
844.363	0.0150587
844.442	0.0151432
844.520	0.0152324
844.598	0.0152100
844.676	0.0153114
844.754	0.0152371
844.832	0.0151900
844.910	0.0152510
844.988	0.0153841
845.067	0.0153886
845.145	0.0153777
845.223	0.0153065
845.301	0.0152132
845.379	0.0153706
845.457	0.0154356
845.535	0.0152822
845.613	0.0153857
845.692	0.0154044
845.770	0.0152899
845.848	0.0153616
845.926	0.0153268
846.004	0.0152422
846.082	0.0152386
846.160	0.0151662
846.238	0.0152535
846.317	0.0152116
846.395	0.0150093
846.473	0.0150055
846.551	0.0151566
846.629	0.0151975
846.707	0.0151486
846.785	0.0150788
846.863	0.0152506
846.942	0.0150847
847.020	0.0150563
847.098	0.0151938
847.176	0.0152034
847.254	0.0152674
847.332	0.0152802
847.410	0.0153419
847.488	0.0153974
847.567	0.0154377
847.645	0.0153669
847.723	0.0154299
847.801	0.0153252
847.879	0.0154147
847.957	0.0154033
848.035	0.0154222
848.113	0.0154768
848.192	0.0154067
848.270	0.0154511
848.348	0.0153294
848.426	0.0152164
848.504	0.0153992
848.582	0.0154105
848.660	0.0153369
848.738	0.0152182
848.817	0.0153123
848.895	0.0152242
848.973	0.0152401
849.051	0.0152302
849.129	0.0151973
849.207	0.0152241
849.285	0.0151051
849.363	0.0151705
849.442	0.0150912
849.520	0.0151751
849.598	0.0150922
849.676	0.0150880
849.754	0.0150947
849.832	0.0152242
849.910	0.0151249
849.988	0.0151601
850.067	0.0153490
850.145	0.0152341
850.223	0.0151047
850.301	0.0152929
850.379	0.0153220
850.457	0.0151897
850.535	0.0152142
850.613	0.0150688
850.692	0.0152757
850.770	0.0153577
850.848	0.0152428
850.926	0.0151524
851.004	0.0152627
851.082	0.0151966
851.160	0.0153338
851.238	0.0152581
851.317	0.0152199
851.395	0.0153934
851.473	0.0152724
851.551	0.0151474
851.629	0.0153578
851.707	0.0152855
851.785	0.0152063
851.863	0.0152345
851.942	0.0152726
852.020	0.0152989
852.098	0.0151778
852.176	0.0153152
852.254	0.0153088
852.332	0.0152003
852.410	0.0153458
852.488	0.0153477
852.567	0.0151810
852.645	0.0152880
852.723	0.0152988
852.801	0.0153360
852.879	0.0154214
852.957	0.0153365
853.035	0.0153300
853.113	0.0153137
853.192	0.0153001
853.270	0.0152600
853.348	0.0153400
853.426	0.0153934
853.504	0.0154270
853.582	0.0152910
853.660	0.0152109
853.738	0.0151446
853.817	0.0151123
853.895	0.0152684
853.973	0.0152666
854.051	0.0151566
854.129	0.0151253
854.207	0.0152702
854.285	0.0151768
854.363	0.0150561
854.442	0.0151302
854.520	0.0152302
854.598	0.0153468
854.676	0.0152991
854.754	0.0151275
854.832	0.0153845
854.910	0.0152496
854.988	0.0153117
855.067	0.0153503
855.145	0.0152853
855.223	0.0152706
855.301	0.0152668
855.379	0.0152721
855.457	0.0153423
855.535	0.0152284
855.613	0.0152670
855.692	0.0152146
855.770	0.0153497
855.848	0.0153237
855.926	0.0152898
856.004	0.0153217
856.082	0.0153014
856.160	0.0152585
856.238	0.0152988
856.317	0.0151659
856.395	0.0152299
856.473	0.0152666
856.551	0.0152377
856.629	0.0151036
856.707	0.0152399
856.785	0.0151497
856.863	0.0151701
856.942	0.0152345
857.020	0.0152669
857.098	0.0152448
857.176	0.0151362
857.254	0.0151774
857.332	0.0151720
857.410	0.0151509
857.488	0.0153069
857.567	0.0152866
857.645	0.0152964
857.723	0.0152886
857.801	0.0152438
857.879	0.0152028
857.957	0.0153129
858.035	0.0153859
858.113	0.0152563
858.192	0.0152565
858.270	0.0152436
858.348	0.0152884
858.426	0.0153055
858.504	0.0153369
858.582	0.0151961
858.660	0.0151698
858.738	0.0151334
858.817	0.0151797
858.895	0.0151825
858.973	0.0151732
859.051	0.0152339
859.129	0.0152182
859.207	0.0151744
859.285	0.0153657
859.363	0.0153280
859.442	0.0152245
859.520	0.0153794
859.598	0.0153452
859.676	0.0153764
859.754	0.0153484
859.832	0.0154225
859.910	0.0155301
859.988	0.0153526
860.067	0.0154452
860.145	0.0154669
860.223	0.0154076
860.301	0.0153588
860.379	0.0153668
860.457	0.0152162
860.535	0.0153320
860.613	0.0153268
860.692	0.0152024
860.770	0.0154234
860.848	0.0153157
860.926	0.0153227
861.004	0.0152424
861.082	0.0151008
861.160	0.0151974
861.238	0.0152335
861.317	0.0152390
861.395	0.0152444
861.473	0.0150673
861.551	0.0152191
861.629	0.0151861
861.707	0.0152448
861.785	0.0152387
861.863	0.0150811
861.942	0.0151786
862.020	0.0152734
862.098	0.0152773
862.176	0.0153667
862.254	0.0152419
862.332	0.0152918
862.410	0.0153773
862.488	0.0152662
862.567	0.0153240
862.645	0.0153526
862.723	0.0152527
862.801	0.0151815
862.879	0.0152706
862.957	0.0153583
863.035	0.0151688
863.113	0.0152847
863.192	0.0152270
863.270	0.0151955
863.348	0.0152952
863.426	0.0153234
863.504	0.0151614
863.582	0.0152422
863.660	0.0153115
863.738	0.0152187
863.817	0.0152131
863.895	0.0151225
863.973	0.0152618
864.051	0.0155575
864.129	0.0153270
864.207	0.0153880
864.285	0.0153597
864.363	0.0153113
864.442	0.0152017
864.520	0.0153738
864.598	0.0154017
864.676	0.0153987
864.754	0.0151965
864.832	0.0152822
864.910	0.0152645
864.988	0.0152499
865.067	0.0153681
865.145	0.0152264
865.223	0.0152242
865.301	0.0154313
865.379	0.0153743
865.457	0.0152718
865.535	0.0155684
865.613	0.0154131
865.692	0.0153840
865.770	0.0154928
865.848	0.0153664
865.926	0.0153812
866.004	0.0152998
866.082	0.0152727
866.160	0.0151839
866.238	0.0152551
866.317	0.0153396
866.395	0.0152157
866.473	0.0152592
866.551	0.0151018
866.629	0.0151705
866.707	0.0150071
866.785	0.0151463
866.863	0.0152111
866.942	0.0151363
867.020	0.0152426
867.098	0.0152145
867.176	0.0152509
867.254	0.0152834
867.332	0.0151976
867.410	0.0153996
867.488	0.0153673
867.567	0.0153146
867.645	0.0154296
867.723	0.0153754
867.801	0.0154443
867.879	0.0153675
867.957	0.0154720
868.035	0.0153417
868.113	0.0154092
868.192	0.0153399
868.270	0.0152393
868.348	0.0152781
868.426	0.0152055
868.504	0.0152332
868.582	0.0152243
868.660	0.0150970
868.738	0.0151434
868.817	0.0151852
868.895	0.0151241
868.973	0.0151929
869.051	0.0152011
869.129	0.0150754
869.207	0.0151334
869.285	0.0150968
869.363	0.0152213
869.442	0.0151807
869.520	0.0152144
869.598	0.0153094
869.676	0.0152610
869.754	0.0152064
869.832	0.0153197
869.910	0.0152788
869.988	0.0151561
870.067	0.0152161
870.145	0.0153127
870.223	0.0154275
870.301	0.0152911
870.379	0.0152052
870.457	0.0153418
870.535	0.0153654
870.613	0.0154314
870.692	0.0153968
870.770	0.0153671
870.848	0.0154227
870.926	0.0154100
871.004	0.0153701
871.082	0.0152987
871.160	0.0152728
871.238	0.0152418
871.317	0.0152195
871.395	0.0152489
871.473	0.0153360
871.551	0.0152172
871.629	0.0153542
871.707	0.0154128
871.785	0.0153953
871.863	0.0154298
871.942	0.0154483
872.020	0.0154578
872.098	0.0153397
872.176	0.0152586
872.254	0.0153137
872.332	0.0152117
872.410	0.0153384
872.488	0.0152467
872.567	0.0151509
872.645	0.0151455
872.723	0.0153673
872.801	0.0152589
872.879	0.0151945
872.957	0.0153147
873.035	0.0152554
873.113	0.0152230
873.192	0.0152653
873.270	0.0153636
873.348	0.0151585
873.426	0.0153569
873.504	0.0153921
873.582	0.0152398
873.660	0.0151592
873.738	0.0153263
873.817	0.0153218
873.895	0.0151808
873.973	0.0150864
874.051	0.0152126
874.129	0.0152172
874.207	0.0153170
874.285	0.0152791
874.363	0.0151872
874.442	0.0152415
874.520	0.0152251
874.598	0.0152479
874.676	0.0152492
874.754	0.0152450
874.832	0.0152460
874.910	0.0151585
874.988	0.0153954
875.067	0.0151904
875.145	0.0152632
875.223	0.0152419
875.301	0.0154054
875.379	0.0152278
875.457	0.0151970
875.535	0.0153592
875.613	0.0153291
875.692	0.0152517
875.770	0.0153391
875.848	0.0153237
875.926	0.0154039
876.004	0.0154151
876.082	0.0155048
876.160	0.0155533
876.238	0.0154765
876.317	0.0155724
876.395	0.0155924
876.473	0.0155982
876.551	0.0155533
876.629	0.0153952
876.707	0.0154518
876.785	0.0154796
876.863	0.0154269
876.942	0.0154472
877.020	0.0151504
877.098	0.0151595
877.176	0.0153229
877.254	0.0152666
877.332	0.0151628
877.410	0.0151370
877.488	0.0150551
877.567	0.0150950
877.645	0.0150507
877.723	0.0151423
877.801	0.0152621
877.879	0.0150542
877.957	0.0149448
878.035	0.0150671
878.113	0.0151348
878.192	0.0149274
878.270	0.0151159
878.348	0.0151619
878.426	0.0151438
878.504	0.0151964
878.582	0.0152823
878.660	0.0152934
878.738	0.0153174
878.817	0.0153210
878.895	0.0154074
878.973	0.0153257
879.051	0.0152915
879.129	0.0153222
879.207	0.0153419
879.285	0.0154644
879.363	0.0152345
879.442	0.0152900
879.520	0.0153964
879.598	0.0152425
879.676	0.0152956
879.754	0.0155177
879.832	0.0153777
879.910	0.0152700
879.988	0.0153394
880.067	0.0153963
880.145	0.0154681
880.223	0.0153010
880.301	0.0153714
880.379	0.0154964
880.457	0.0154606
880.535	0.0154585
880.613	0.0155074
880.692	0.0155727
880.770	0.0155435
880.848	0.0155350
880.926	0.0153868
881.004	0.0154964
881.082	0.0154687
881.160	0.0153737
881.238	0.0152897
881.317	0.0151743
881.395	0.0152187
881.473	0.0153082
881.551	0.0152005
881.629	0.0151206
881.707	0.0152238
881.785	0.0151926
881.863	0.0151147
881.942	0.0152004
882.020	0.0151964
882.098	0.0152133
882.176	0.0152520
882.254	0.0152621
882.332	0.0152629
882.410	0.0153984
882.488	0.0153040
882.567	0.0153690
882.645	0.0154702
882.723	0.0154465
882.801	0.0154894
882.879	0.0154633
882.957	0.0155234
883.035	0.0153110
883.113	0.0152866
883.192	0.0152107
883.270	0.0153605
883.348	0.0152868
883.426	0.0152478
883.504	0.0151934
883.582	0.0151791
883.660	0.0152554
883.738	0.0150858
883.817	0.0152497
883.895	0.0151913
883.973	0.0151636
884.051	0.0151831
884.129	0.0152849
884.207	0.0152596
884.285	0.0153732
884.363	0.0153534
884.442	0.0153836
884.520	0.0154090
884.598	0.0154510
884.676	0.0154756
884.754	0.0155513
884.832	0.0155301
884.910	0.0154914
884.988	0.0154941
885.067	0.0155109
885.145	0.0154521
885.223	0.0155331
885.301	0.0154982
885.379	0.0154015
885.457	0.0153216
885.535	0.0152766
885.613	0.0153438
885.692	0.0154355
885.770	0.0153451
885.848	0.0153711
885.926	0.0153593
886.004	0.0153703
886.082	0.0153617
886.160	0.0153490
886.238	0.0153436
886.317	0.0153297
886.395	0.0152261
886.473	0.0152500
886.551	0.0153692
886.629	0.0152686
886.707	0.0151541
886.785	0.0152234
886.863	0.0152169
886.942	0.0152330
887.020	0.0150784
887.098	0.0152578
887.176	0.0152322
887.254	0.0152023
887.332	0.0152467
887.410	0.0152081
887.488	0.0152834
887.567	0.0153049
887.645	0.0151368
887.723	0.0151497
887.801	0.0151897
887.879	0.0152071
887.957	0.0152651
888.035	0.0152129
888.113	0.0152422
888.192	0.0154173
888.270	0.0154436
888.348	0.0152133
888.426	0.0153903
888.504	0.0153796
888.582	0.0153413
888.660	0.0153345
888.738	0.0153782
888.817	0.0153831
888.895	0.0153806
888.973	0.0153282
889.051	0.0154615
889.129	0.0152081
889.207	0.0152963
889.285	0.0153590
889.363	0.0153297
889.442	0.0153191
889.520	0.0153841
889.598	0.0153127
889.676	0.0152761
889.754	0.0151759
889.832	0.0152001
889.910	0.0153093
889.988	0.0153909
890.067	0.0152925
890.145	0.0153088
890.223	0.0154153
890.301	0.0154398
890.379	0.0154674
890.457	0.0153881
890.535	0.0154449
890.613	0.0154674
890.692	0.0153825
890.770	0.0154049
890.848	0.0154252
890.926	0.0153904
891.004	0.0153976
891.082	0.0152731
891.160	0.0152789
891.238	0.0151483
891.317	0.0152359
891.395	0.0151461
891.473	0.0151383
891.551	0.0151898
891.629	0.0151131
891.707	0.0152094
891.785	0.0150970
891.863	0.0150311
891.942	0.0150250
892.020	0.0150857
892.098	0.0150967
892.176	0.0152175
892.254	0.0152025
892.332	0.0151615
892.410	0.0152801
892.488	0.0151946
892.567	0.0152228
892.645	0.0151547
892.723	0.0153696
892.801	0.0154530
892.879	0.0153742
892.957	0.0154895
893.035	0.0154868
893.113	0.0154911
893.192	0.0153313
893.270	0.0154883
893.348	0.0154254
893.426	0.0154536
893.504	0.0154626
893.582	0.0154675
893.660	0.0155013
893.738	0.0154529
893.817	0.0153939
893.895	0.0153654
893.973	0.0153135
894.051	0.0153292
894.129	0.0153110
894.207	0.0152013
894.285	0.0151848
894.363	0.0153141
894.442	0.0153429
894.520	0.0153185
894.598	0.0151088
894.676	0.0151794
894.754	0.0153529
894.832	0.0153812
894.910	0.0152931
894.988	0.0153089
895.067	0.0152937
895.145	0.0154102
895.223	0.0155939
895.301	0.0154686
895.379	0.0153238
895.457	0.0155293
895.535	0.0154633
895.613	0.0153033
895.692	0.0153692
895.770	0.0155235
895.848	0.0152812
895.926	0.0152362
896.004	0.0153024
896.082	0.0153035
896.160	0.0152769
896.238	0.0152999
896.317	0.0152674
896.395	0.0152893
896.473	0.0151457
896.551	0.0152354
896.629	0.0152829
896.707	0.0153428
896.785	0.0152818
896.863	0.0153745
896.942	0.0153291
897.020	0.0153004
897.098	0.0152287
897.176	0.0152700
897.254	0.0155685
897.332	0.0153864
897.410	0.0154330
897.488	0.0154942
897.567	0.0155038
897.645	0.0154076
897.723	0.0153938
897.801	0.0153065
897.879	0.0153816
897.957	0.0153018
898.035	0.0155880
898.113	0.0155338
898.192	0.0152463
898.270	0.0151283
898.348	0.0152222
898.426	0.0152599
898.504	0.0151125
898.582	0.0151204
898.660	0.0151209
898.738	0.0149695
898.817	0.0151470
898.895	0.0152139
898.973	0.0152185
899.051	0.0151449
899.129	0.0152682
899.207	0.0152473
899.285	0.0151217
899.363	0.0151534
899.442	0.0151548
899.520	0.0152772
899.598	0.0151751
899.676	0.0152098
899.754	0.0152901
899.832	0.0153848
899.910	0.0153093
899.988	0.0152515
900.067	0.0153752
900.145	0.0153901
900.223	0.0153907
900.301	0.0154901
900.379	0.0154411
900.457	0.0154329
900.535	0.0155708
900.613	0.0155112
900.692	0.0155264
900.770	0.0154372
900.848	0.0154857
900.926	0.0153944
901.004	0.0154402
901.082	0.0154823
901.160	0.0155748
901.238	0.0154596
901.317	0.0155070
901.395	0.0153233
901.473	0.0153784
901.551	0.0153832
901.629	0.0153304
901.707	0.0153450
901.785	0.0152919
901.863	0.0154023
901.942	0.0153876
902.020	0.0151983
902.098	0.0152997
902.176	0.0153646
902.254	0.0152680
902.332	0.0152061
902.410	0.0153545
902.488	0.0154085
902.567	0.0152529
902.645	0.0153205
902.723	0.0153593
902.801	0.0153046
902.879	0.0151913
902.957	0.0152605
903.035	0.0151750
903.113	0.0150581
903.192	0.0152730
903.270	0.0153061
903.348	0.0151482
903.426	0.0151942
903.504	0.0151761
903.582	0.0152063
903.660	0.0152223
903.738	0.0152754
903.817	0.0152681
903.895	0.0151427
903.973	0.0152117
904.051	0.0151424
904.129	0.0153292
904.207	0.0152608
904.285	0.0151529
904.363	0.0152985
904.442	0.0151562
904.520	0.0152039
904.598	0.0153483
904.676	0.0152122
904.754	0.0153217
904.832	0.0151904
904.910	0.0151199
904.988	0.0152172
905.067	0.0153616
905.145	0.0153610
905.223	0.0152260
905.301	0.0152824
905.379	0.0152616
905.457	0.0152292
905.535	0.0152477
905.613	0.0154142
905.692	0.0153082
905.770	0.0153233
905.848	0.0153763
905.926	0.0152795
906.004	0.0153792
906.082	0.0153269
906.160	0.0154049
906.238	0.0153268
906.317	0.0153057
906.395	0.0153921
906.473	0.0153584
906.551	0.0154289
906.629	0.0153663
906.707	0.0153144
906.785	0.0152580
906.863	0.0153447
906.942	0.0152860
907.020	0.0153341
907.098	0.0152259
907.176	0.0153842
907.254	0.0153134
907.332	0.0153500
907.410	0.0152650
907.488	0.0152525
907.567	0.0151630
907.645	0.0152489
907.723	0.0152579
907.801	0.0152992
907.879	0.0151656
907.957	0.0152345
908.035	0.0151543
908.113	0.0151042
908.192	0.0152600
908.270	0.0151611
908.348	0.0151887
908.426	0.0153976
908.504	0.0153698
908.582	0.0152216
908.660	0.0152011
908.738	0.0152966
908.817	0.0152336
908.895	0.0152491
908.973	0.0153394
909.051	0.0153262
909.129	0.0154404
909.207	0.0153110
909.285	0.0152605
909.363	0.0153214
909.442	0.0154523
909.520	0.0154423
909.598	0.0152937
909.676	0.0154106
909.754	0.0154041
909.832	0.0153574
909.910	0.0153833
909.988	0.0154343
910.067	0.0153373
910.145	0.0154056
910.223	0.0154185
910.301	0.0152905
910.379	0.0153445
910.457	0.0154527
910.535	0.0153473
910.613	0.0153368
910.692	0.0153807
910.770	0.0154347
910.848	0.0154440
910.926	0.0152654
911.004	0.0153061
911.082	0.0153630
911.160	0.0152975
911.238	0.0154313
911.317	0.0152122
911.395	0.0154453
911.473	0.0152634
911.551	0.0152539
911.629	0.0153278
911.707	0.0152899
911.785	0.0153481
911.863	0.0154523
911.942	0.0153450
912.020	0.0152148
912.098	0.0152570
912.176	0.0153217
912.254	0.0153295
912.332	0.0152567
912.410	0.0153136
912.488	0.0152531
912.567	0.0152757
912.645	0.0152528
912.723	0.0152593
912.801	0.0153499
912.879	0.0151673
912.957	0.0153514
913.035	0.0152769
913.113	0.0152927
913.192	0.0152586
913.270	0.0154805
913.348	0.0153096
913.426	0.0151997
913.504	0.0151637
913.582	0.0152877
913.660	0.0153053
913.738	0.0154214
913.817	0.0154184
913.895	0.0153447
913.973	0.0154638
914.051	0.0154200
914.129	0.0153426
914.207	0.0154607
914.285	0.0154002
914.363	0.0153350
914.442	0.0154231
914.520	0.0154060
914.598	0.0152886
914.676	0.0153310
914.754	0.0152502
914.832	0.0153129
914.910	0.0153461
914.988	0.0152074
915.067	0.0154244
915.145	0.0153083
915.223	0.0153281
915.301	0.0153772
915.379	0.0151545
915.457	0.0152172
915.535	0.0153223
915.613	0.0152624
915.692	0.0153706
915.770	0.0152389
915.848	0.0151650
915.926	0.0152252
916.004	0.0152422
916.082	0.0152291
916.160	0.0152090
916.238	0.0152077
916.317	0.0152036
916.395	0.0149945
916.473	0.0152082
916.551	0.0152417
916.629	0.0153001
916.707	0.0152542
916.785	0.0152230
916.863	0.0152969
916.942	0.0151496
917.020	0.0152229
917.098	0.0154028
917.176	0.0152218
917.254	0.0152415
917.332	0.0153535
917.410	0.0152885
917.488	0.0152852
917.567	0.0152831
917.645	0.0152849
917.723	0.0151734
917.801	0.0150832
917.879	0.0153336
917.957	0.0152810
918.035	0.0152401
918.113	0.0151901
918.192	0.0153044
918.270	0.0152666
918.348	0.0152865
918.426	0.0151840
918.504	0.0153030
918.582	0.0153745
918.660	0.0152937
918.738	0.0152695
918.817	0.0152689
918.895	0.0152769
918.973	0.0154642
919.051	0.0154029
919.129	0.0153189
919.207	0.0154613
919.285	0.0153963
919.363	0.0152762
919.442	0.0152926
919.520	0.0154194
919.598	0.0153700
919.676	0.0153531
919.754	0.0154013
919.832	0.0154359
919.910	0.0153061
