05/28/2022	14:15:21	Ver.	4.1	UNKNOWN
Optical Delay	599.988409	Delta X		0.078125	Sweeps	1	Scan Rate	0/0
Coordinates	Axis 1	NaN	Axis 2	NaN	Axis 3	NaN	Axis 4	NaN	Axis 5	NaN	Axis 6	0.000000
TX Power	0.000000	RX Power	0.000000

599.988	0.0138058
600.067	0.0137902
600.145	0.0139191
600.223	0.0138021
600.301	0.0137780
600.379	0.0137378
600.457	0.0139053
600.535	0.0138528
600.613	0.0137662
600.692	0.0137489
600.770	0.0136500
600.848	0.0137945
600.926	0.0138074
601.004	0.0137772
601.082	0.0139224
601.160	0.0139633
601.238	0.0137903
601.317	0.0138009
601.395	0.0139452
601.473	0.0139526
601.551	0.0138470
601.629	0.0138335
601.707	0.0138223
601.785	0.0139143
601.863	0.0138424
601.942	0.0137508
602.020	0.0139192
602.098	0.0138942
602.176	0.0139013
602.254	0.0138562
602.332	0.0137909
602.410	0.0137503
602.488	0.0137534
602.567	0.0138345
602.645	0.0137713
602.723	0.0137566
602.801	0.0138150
602.879	0.0138261
602.957	0.0139039
603.035	0.0137413
603.113	0.0139198
603.192	0.0139147
603.270	0.0137137
603.348	0.0138500
603.426	0.0136746
603.504	0.0137897
603.582	0.0139309
603.660	0.0138069
603.738	0.0139171
603.817	0.0138531
603.895	0.0138677
603.973	0.0138383
604.051	0.0137734
604.129	0.0137669
604.207	0.0137737
604.285	0.0138768
604.363	0.0138072
604.442	0.0138490
604.520	0.0137681
604.598	0.0139225
604.676	0.0138979
604.754	0.0137632
604.832	0.0137682
604.910	0.0138784
604.988	0.0139405
605.067	0.0139016
605.145	0.0138458
605.223	0.0137864
605.301	0.0139282
605.379	0.0137858
605.457	0.0138495
605.535	0.0139086
605.613	0.0138796
605.692	0.0138654
605.770	0.0139938
605.848	0.0138948
605.926	0.0138085
606.004	0.0137846
606.082	0.0138173
606.160	0.0139198
606.238	0.0138905
606.317	0.0139912
606.395	0.0138520
606.473	0.0137812
606.551	0.0139066
606.629	0.0138770
606.707	0.0138321
606.785	0.0138519
606.863	0.0138104
606.942	0.0138364
607.020	0.0139001
607.098	0.0139064
607.176	0.0138011
607.254	0.0139376
607.332	0.0140289
607.410	0.0140029
607.488	0.0138734
607.567	0.0138737
607.645	0.0138729
607.723	0.0140692
607.801	0.0138249
607.879	0.0138357
607.957	0.0138620
608.035	0.0139780
608.113	0.0138922
608.192	0.0138678
608.270	0.0138345
608.348	0.0138445
608.426	0.0139741
608.504	0.0138338
608.582	0.0139065
608.660	0.0137910
608.738	0.0138631
608.817	0.0138853
608.895	0.0137777
608.973	0.0139615
609.051	0.0139666
609.129	0.0138345
609.207	0.0138663
609.285	0.0139304
609.363	0.0138111
609.442	0.0138683
609.520	0.0138503
609.598	0.0138058
609.676	0.0138237
609.754	0.0138930
609.832	0.0138168
609.910	0.0138657
609.988	0.0137774
610.067	0.0137794
610.145	0.0139788
610.223	0.0138501
610.301	0.0137399
610.379	0.0138506
610.457	0.0138091
610.535	0.0138689
610.613	0.0139528
610.692	0.0137173
610.770	0.0137833
610.848	0.0139366
610.926	0.0138383
611.004	0.0139600
611.082	0.0138212
611.160	0.0138834
611.238	0.0138274
611.317	0.0137613
611.395	0.0137816
611.473	0.0138134
611.551	0.0138177
611.629	0.0140199
611.707	0.0138052
611.785	0.0137981
611.863	0.0137884
611.942	0.0138840
612.020	0.0139262
612.098	0.0139791
612.176	0.0138205
612.254	0.0137855
612.332	0.0139075
612.410	0.0139210
612.488	0.0140014
612.567	0.0138224
612.645	0.0139024
612.723	0.0138895
612.801	0.0136629
612.879	0.0137737
612.957	0.0137852
613.035	0.0138630
613.113	0.0138310
613.192	0.0138297
613.270	0.0137102
613.348	0.0138173
613.426	0.0138596
613.504	0.0137955
613.582	0.0137286
613.660	0.0137236
613.738	0.0137443
613.817	0.0137263
613.895	0.0137550
613.973	0.0137130
614.051	0.0138138
614.129	0.0138455
614.207	0.0137349
614.285	0.0137561
614.363	0.0137395
614.442	0.0138588
614.520	0.0137177
614.598	0.0138231
614.676	0.0138110
614.754	0.0137782
614.832	0.0138860
614.910	0.0137674
614.988	0.0137887
615.067	0.0138621
615.145	0.0139618
615.223	0.0138114
615.301	0.0137679
615.379	0.0137060
615.457	0.0137768
615.535	0.0137857
615.613	0.0137955
615.692	0.0138700
615.770	0.0137209
615.848	0.0138431
615.926	0.0138606
616.004	0.0137279
616.082	0.0137914
616.160	0.0139314
616.238	0.0139312
616.317	0.0136897
616.395	0.0137740
616.473	0.0138618
616.551	0.0139321
616.629	0.0138079
616.707	0.0137743
616.785	0.0136102
616.863	0.0138610
616.942	0.0137875
617.020	0.0137914
617.098	0.0138374
617.176	0.0138455
617.254	0.0139014
617.332	0.0138486
617.410	0.0137227
617.488	0.0138244
617.567	0.0138705
617.645	0.0137784
617.723	0.0137341
617.801	0.0137914
617.879	0.0139293
617.957	0.0138961
618.035	0.0138091
618.113	0.0137093
618.192	0.0137425
618.270	0.0137772
618.348	0.0139043
618.426	0.0137670
618.504	0.0139622
618.582	0.0137587
618.660	0.0137845
618.738	0.0139322
618.817	0.0138727
618.895	0.0138693
618.973	0.0139801
619.051	0.0138161
619.129	0.0138133
619.207	0.0138195
619.285	0.0139555
619.363	0.0139705
619.442	0.0137514
619.520	0.0137838
619.598	0.0137351
619.676	0.0137153
619.754	0.0138229
619.832	0.0137514
619.910	0.0138266
619.988	0.0138059
620.067	0.0139246
620.145	0.0138851
620.223	0.0138096
620.301	0.0137112
620.379	0.0136710
620.457	0.0138201
620.535	0.0139366
620.613	0.0138045
620.692	0.0137987
620.770	0.0136826
620.848	0.0138189
620.926	0.0137563
621.004	0.0136501
621.082	0.0138666
621.160	0.0138617
621.238	0.0138200
621.317	0.0137833
621.395	0.0137934
621.473	0.0139405
621.551	0.0138145
621.629	0.0137305
621.707	0.0136711
621.785	0.0139128
621.863	0.0138587
621.942	0.0138148
622.020	0.0137978
622.098	0.0137546
622.176	0.0137386
622.254	0.0137587
622.332	0.0138152
622.410	0.0139463
622.488	0.0138947
622.567	0.0138464
622.645	0.0137609
622.723	0.0137773
622.801	0.0138264
622.879	0.0138342
622.957	0.0137658
623.035	0.0137879
623.113	0.0138943
623.192	0.0138221
623.270	0.0138225
623.348	0.0138052
623.426	0.0138798
623.504	0.0139539
623.582	0.0137753
623.660	0.0137666
623.738	0.0139059
623.817	0.0138938
623.895	0.0137820
623.973	0.0138503
624.051	0.0137370
624.129	0.0137292
624.207	0.0138380
624.285	0.0138158
624.363	0.0137005
624.442	0.0137953
624.520	0.0138272
624.598	0.0138760
624.676	0.0138787
624.754	0.0138845
624.832	0.0137653
624.910	0.0137941
624.988	0.0137354
625.067	0.0138544
625.145	0.0138467
625.223	0.0137643
625.301	0.0138703
625.379	0.0138590
625.457	0.0139008
625.535	0.0137572
625.613	0.0136564
625.692	0.0139180
625.770	0.0139172
625.848	0.0137602
625.926	0.0139093
626.004	0.0138559
626.082	0.0137804
626.160	0.0138554
626.238	0.0137276
626.317	0.0138583
626.395	0.0139863
626.473	0.0138581
626.551	0.0138219
626.629	0.0136734
626.707	0.0139027
626.785	0.0138822
626.863	0.0138649
626.942	0.0138916
627.020	0.0138914
627.098	0.0136866
627.176	0.0136654
627.254	0.0137510
627.332	0.0138142
627.410	0.0139994
627.488	0.0138629
627.567	0.0137386
627.645	0.0137921
627.723	0.0137448
627.801	0.0136961
627.879	0.0137544
627.957	0.0137643
628.035	0.0138546
628.113	0.0138846
628.192	0.0138972
628.270	0.0138252
628.348	0.0138672
628.426	0.0138825
628.504	0.0137674
628.582	0.0138580
628.660	0.0138908
628.738	0.0138612
628.817	0.0138921
628.895	0.0137702
628.973	0.0138249
629.051	0.0138091
629.129	0.0137414
629.207	0.0137912
629.285	0.0137935
629.363	0.0139959
629.442	0.0139289
629.520	0.0137433
629.598	0.0138310
629.676	0.0138339
629.754	0.0139795
629.832	0.0137798
629.910	0.0137090
629.988	0.0138194
630.067	0.0137855
630.145	0.0138152
630.223	0.0138055
630.301	0.0138268
630.379	0.0136781
630.457	0.0138163
630.535	0.0137724
630.613	0.0138235
630.692	0.0138121
630.770	0.0138089
630.848	0.0136954
630.926	0.0136135
631.004	0.0137305
631.082	0.0137138
631.160	0.0136577
631.238	0.0138230
631.317	0.0138094
631.395	0.0138116
631.473	0.0138786
631.551	0.0137997
631.629	0.0137529
631.707	0.0138654
631.785	0.0136635
631.863	0.0136553
631.942	0.0138230
632.020	0.0137430
632.098	0.0138184
632.176	0.0137523
632.254	0.0138444
632.332	0.0137578
632.410	0.0137457
632.488	0.0136583
632.567	0.0137836
632.645	0.0137836
632.723	0.0137712
632.801	0.0137926
632.879	0.0137774
632.957	0.0136155
633.035	0.0139583
633.113	0.0138495
633.192	0.0137261
633.270	0.0138144
633.348	0.0136890
633.426	0.0137727
633.504	0.0138422
633.582	0.0138814
633.660	0.0138854
633.738	0.0137069
633.817	0.0137150
633.895	0.0139394
633.973	0.0138277
634.051	0.0137510
634.129	0.0139123
634.207	0.0139120
634.285	0.0137498
634.363	0.0138567
634.442	0.0137836
634.520	0.0138096
634.598	0.0138026
634.676	0.0139111
634.754	0.0138172
634.832	0.0137807
634.910	0.0139259
634.988	0.0138126
635.067	0.0137801
635.145	0.0136999
635.223	0.0138008
635.301	0.0137284
635.379	0.0138733
635.457	0.0137324
635.535	0.0137346
635.613	0.0137315
635.692	0.0139102
635.770	0.0138984
635.848	0.0138964
635.926	0.0137279
636.004	0.0138083
636.082	0.0138728
636.160	0.0137647
636.238	0.0136988
636.317	0.0138282
636.395	0.0137080
636.473	0.0137009
636.551	0.0138806
636.629	0.0138019
636.707	0.0137251
636.785	0.0137350
636.863	0.0138798
636.942	0.0137748
637.020	0.0138012
637.098	0.0137803
637.176	0.0139616
637.254	0.0138813
637.332	0.0137457
637.410	0.0137184
637.488	0.0135636
637.567	0.0136978
637.645	0.0138745
637.723	0.0139158
637.801	0.0136392
637.879	0.0135574
637.957	0.0139029
638.035	0.0137428
638.113	0.0135157
638.192	0.0137249
638.270	0.0136906
638.348	0.0136935
638.426	0.0136193
638.504	0.0136915
638.582	0.0137682
638.660	0.0135671
638.738	0.0136810
638.817	0.0136470
638.895	0.0137809
638.973	0.0137041
639.051	0.0136469
639.129	0.0136771
639.207	0.0138220
639.285	0.0137101
639.363	0.0137664
639.442	0.0137063
639.520	0.0138200
639.598	0.0137579
639.676	0.0137433
639.754	0.0137673
639.832	0.0138480
639.910	0.0137733
639.988	0.0138679
640.067	0.0136498
640.145	0.0136686
640.223	0.0137758
640.301	0.0138187
640.379	0.0140027
640.457	0.0138935
640.535	0.0137011
640.613	0.0138953
640.692	0.0139098
640.770	0.0138535
640.848	0.0140107
640.926	0.0138674
641.004	0.0137885
641.082	0.0138097
641.160	0.0138222
641.238	0.0138991
641.317	0.0138358
641.395	0.0138943
641.473	0.0139153
641.551	0.0138540
641.629	0.0138966
641.707	0.0138754
641.785	0.0138805
641.863	0.0138786
641.942	0.0138342
642.020	0.0138590
642.098	0.0138853
642.176	0.0137000
642.254	0.0138218
642.332	0.0138239
642.410	0.0137362
642.488	0.0138901
642.567	0.0137583
642.645	0.0137838
642.723	0.0136928
642.801	0.0137080
642.879	0.0137792
642.957	0.0138244
643.035	0.0137768
643.113	0.0137991
643.192	0.0138416
643.270	0.0137498
643.348	0.0138374
643.426	0.0138740
643.504	0.0137003
643.582	0.0139347
643.660	0.0139512
643.738	0.0139226
643.817	0.0139495
643.895	0.0139131
643.973	0.0140121
644.051	0.0138057
644.129	0.0139307
644.207	0.0138815
644.285	0.0138268
644.363	0.0139526
644.442	0.0139932
644.520	0.0140396
644.598	0.0137866
644.676	0.0137312
644.754	0.0137534
644.832	0.0136566
644.910	0.0138723
644.988	0.0137183
645.067	0.0137376
645.145	0.0137783
645.223	0.0136285
645.301	0.0137328
645.379	0.0136699
645.457	0.0137682
645.535	0.0136835
645.613	0.0136814
645.692	0.0137130
645.770	0.0136671
645.848	0.0137257
645.926	0.0136899
646.004	0.0138595
646.082	0.0137910
646.160	0.0137724
646.238	0.0137778
646.317	0.0137389
646.395	0.0137320
646.473	0.0138077
646.551	0.0137428
646.629	0.0137958
646.707	0.0137761
646.785	0.0138437
646.863	0.0138373
646.942	0.0138785
647.020	0.0139917
647.098	0.0138663
647.176	0.0138750
647.254	0.0138675
647.332	0.0140188
647.410	0.0140329
647.488	0.0140068
647.567	0.0139928
647.645	0.0140636
647.723	0.0139729
647.801	0.0138770
647.879	0.0140657
647.957	0.0139748
648.035	0.0138859
648.113	0.0139381
648.192	0.0138068
648.270	0.0138913
648.348	0.0137025
648.426	0.0138551
648.504	0.0137811
648.582	0.0138364
648.660	0.0138775
648.738	0.0136643
648.817	0.0137122
648.895	0.0136566
648.973	0.0137235
649.051	0.0137229
649.129	0.0135388
649.207	0.0136887
649.285	0.0135980
649.363	0.0137032
649.442	0.0135182
649.520	0.0134341
649.598	0.0134158
649.676	0.0134618
649.754	0.0134457
649.832	0.0133283
649.910	0.0134194
649.988	0.0133564
650.067	0.0134935
650.145	0.0134483
650.223	0.0136419
650.301	0.0136973
650.379	0.0137487
650.457	0.0139278
650.535	0.0139253
650.613	0.0139996
650.692	0.0141268
650.770	0.0140649
650.848	0.0142580
650.926	0.0141708
651.004	0.0142992
651.082	0.0142145
651.160	0.0141083
651.238	0.0142548
651.317	0.0141806
651.395	0.0140736
651.473	0.0141241
651.551	0.0140646
651.629	0.0140771
651.707	0.0142989
651.785	0.0141881
651.863	0.0141821
651.942	0.0140862
652.020	0.0141243
652.098	0.0139700
652.176	0.0138232
652.254	0.0139115
652.332	0.0139243
652.410	0.0137577
652.488	0.0139407
652.567	0.0138058
652.645	0.0137504
652.723	0.0137790
652.801	0.0138304
652.879	0.0137659
652.957	0.0136938
653.035	0.0138929
653.113	0.0137006
653.192	0.0137787
653.270	0.0136893
653.348	0.0136574
653.426	0.0135054
653.504	0.0135984
653.582	0.0133996
653.660	0.0134435
653.738	0.0134608
653.817	0.0133618
653.895	0.0132497
653.973	0.0131938
654.051	0.0131174
654.129	0.0130429
654.207	0.0131151
654.285	0.0130269
654.363	0.0130780
654.442	0.0131805
654.520	0.0133488
654.598	0.0134195
654.676	0.0134120
654.754	0.0135872
654.832	0.0137440
654.910	0.0139491
654.988	0.0139785
655.067	0.0141023
655.145	0.0140912
655.223	0.0139429
655.301	0.0140706
655.379	0.0140089
655.457	0.0140824
655.535	0.0139812
655.613	0.0140568
655.692	0.0141906
655.770	0.0141510
655.848	0.0142112
655.926	0.0141959
656.004	0.0141128
656.082	0.0142625
656.160	0.0142514
656.238	0.0142326
656.317	0.0140869
656.395	0.0141702
656.473	0.0140301
656.551	0.0140487
656.629	0.0141644
656.707	0.0141202
656.785	0.0141707
656.863	0.0142017
656.942	0.0140873
657.020	0.0142508
657.098	0.0141650
657.176	0.0140520
657.254	0.0138885
657.332	0.0137400
657.410	0.0137083
657.488	0.0136389
657.567	0.0136627
657.645	0.0135334
657.723	0.0133847
657.801	0.0132949
657.879	0.0133769
657.957	0.0132795
658.035	0.0134721
658.113	0.0132244
658.192	0.0131977
658.270	0.0132978
658.348	0.0133810
658.426	0.0134195
658.504	0.0132105
658.582	0.0133235
658.660	0.0134489
658.738	0.0134052
658.817	0.0133875
658.895	0.0131731
658.973	0.0134682
659.051	0.0133834
659.129	0.0132597
659.207	0.0131789
659.285	0.0133126
659.363	0.0133694
659.442	0.0135047
659.520	0.0134451
659.598	0.0135332
659.676	0.0134480
659.754	0.0135563
659.832	0.0135896
659.910	0.0137430
659.988	0.0138002
660.067	0.0138297
660.145	0.0140441
660.223	0.0140515
660.301	0.0141939
660.379	0.0143197
660.457	0.0143126
660.535	0.0144252
660.613	0.0144173
660.692	0.0144386
660.770	0.0146029
660.848	0.0146522
660.926	0.0145300
661.004	0.0145545
661.082	0.0144888
661.160	0.0143750
661.238	0.0144840
661.317	0.0144385
661.395	0.0143726
661.473	0.0141740
661.551	0.0140431
661.629	0.0140572
661.707	0.0140025
661.785	0.0139819
661.863	0.0139605
661.942	0.0139648
662.020	0.0138596
662.098	0.0140337
662.176	0.0138226
662.254	0.0138141
662.332	0.0139255
662.410	0.0137798
662.488	0.0136826
662.567	0.0138306
662.645	0.0137596
662.723	0.0134527
662.801	0.0135392
662.879	0.0134460
662.957	0.0135567
663.035	0.0134612
663.113	0.0133482
663.192	0.0134143
663.270	0.0133326
663.348	0.0133451
663.426	0.0132670
663.504	0.0132520
663.582	0.0132092
663.660	0.0132636
663.738	0.0132198
663.817	0.0132567
663.895	0.0132110
663.973	0.0133849
664.051	0.0132650
664.129	0.0133858
664.207	0.0134302
664.285	0.0135026
664.363	0.0135371
664.442	0.0136824
664.520	0.0136994
664.598	0.0138706
664.676	0.0139237
664.754	0.0138339
664.832	0.0139287
664.910	0.0140238
664.988	0.0139708
665.067	0.0141801
665.145	0.0142604
665.223	0.0141875
665.301	0.0140600
665.379	0.0141254
665.457	0.0142446
665.535	0.0142007
665.613	0.0142496
665.692	0.0141561
665.770	0.0142200
665.848	0.0142503
665.926	0.0142755
666.004	0.0142063
666.082	0.0141434
666.160	0.0140922
666.238	0.0141829
666.317	0.0141741
666.395	0.0141435
666.473	0.0142960
666.551	0.0141856
666.629	0.0143196
666.707	0.0142416
666.785	0.0141695
666.863	0.0141030
666.942	0.0142062
667.020	0.0139491
667.098	0.0139928
667.176	0.0137669
667.254	0.0138128
667.332	0.0138281
667.410	0.0137974
667.488	0.0135567
667.567	0.0135048
667.645	0.0135665
667.723	0.0134279
667.801	0.0134242
667.879	0.0133942
667.957	0.0135764
668.035	0.0135641
668.113	0.0134394
668.192	0.0135081
668.270	0.0138084
668.348	0.0137458
668.426	0.0137826
668.504	0.0137125
668.582	0.0138837
668.660	0.0139635
668.738	0.0139491
668.817	0.0137367
668.895	0.0138319
668.973	0.0138554
669.051	0.0137987
669.129	0.0135754
669.207	0.0135556
669.285	0.0134992
669.363	0.0133917
669.442	0.0135954
669.520	0.0135221
669.598	0.0134036
669.676	0.0133197
669.754	0.0135423
669.832	0.0135116
669.910	0.0134277
669.988	0.0135694
670.067	0.0136116
670.145	0.0135267
670.223	0.0137604
670.301	0.0137786
670.379	0.0139342
670.457	0.0138488
670.535	0.0141428
670.613	0.0142056
670.692	0.0141358
670.770	0.0140958
670.848	0.0142613
670.926	0.0142901
671.004	0.0142344
671.082	0.0142714
671.160	0.0141518
671.238	0.0141245
671.317	0.0140978
671.395	0.0140456
671.473	0.0140962
671.551	0.0139067
671.629	0.0138696
671.707	0.0137920
671.785	0.0137463
671.863	0.0138565
671.942	0.0137668
672.020	0.0136264
672.098	0.0135873
672.176	0.0136813
672.254	0.0135181
672.332	0.0136802
672.410	0.0136411
672.488	0.0135191
672.567	0.0138048
672.645	0.0138567
672.723	0.0137624
672.801	0.0138226
672.879	0.0139312
672.957	0.0142089
673.035	0.0140321
673.113	0.0139560
673.192	0.0140923
673.270	0.0142551
673.348	0.0143467
673.426	0.0143522
673.504	0.0143550
673.582	0.0144095
673.660	0.0143979
673.738	0.0143764
673.817	0.0140394
673.895	0.0139847
673.973	0.0139082
674.051	0.0137043
674.129	0.0137227
674.207	0.0133881
674.285	0.0131885
674.363	0.0131625
674.442	0.0130487
674.520	0.0128072
674.598	0.0127170
674.676	0.0128696
674.754	0.0126949
674.832	0.0127038
674.910	0.0127966
674.988	0.0128267
675.067	0.0127687
675.145	0.0130147
675.223	0.0131438
675.301	0.0132647
675.379	0.0134787
675.457	0.0137205
675.535	0.0138209
675.613	0.0139011
675.692	0.0141213
675.770	0.0142867
675.848	0.0145815
675.926	0.0147303
676.004	0.0146014
676.082	0.0146978
676.160	0.0148177
676.238	0.0146918
676.317	0.0147314
676.395	0.0147115
676.473	0.0146056
676.551	0.0145754
676.629	0.0144407
676.707	0.0142207
676.785	0.0142306
676.863	0.0140578
676.942	0.0139863
677.020	0.0138809
677.098	0.0136311
677.176	0.0135999
677.254	0.0134870
677.332	0.0133958
677.410	0.0133094
677.488	0.0132101
677.567	0.0131330
677.645	0.0129337
677.723	0.0129311
677.801	0.0129214
677.879	0.0129056
677.957	0.0129607
678.035	0.0129478
678.113	0.0130004
678.192	0.0129991
678.270	0.0131464
678.348	0.0132355
678.426	0.0133938
678.504	0.0134003
678.582	0.0136082
678.660	0.0138412
678.738	0.0137019
678.817	0.0138543
678.895	0.0140236
678.973	0.0142051
679.051	0.0143180
679.129	0.0144199
679.207	0.0145422
679.285	0.0145974
679.363	0.0144984
679.442	0.0147373
679.520	0.0147661
679.598	0.0147471
679.676	0.0148029
679.754	0.0146738
679.832	0.0147028
679.910	0.0145325
679.988	0.0145778
680.067	0.0144596
680.145	0.0143117
680.223	0.0142159
680.301	0.0140759
680.379	0.0139595
680.457	0.0137639
680.535	0.0136880
680.613	0.0136337
680.692	0.0133752
680.770	0.0134400
680.848	0.0132493
680.926	0.0131598
681.004	0.0130204
681.082	0.0132137
681.160	0.0130896
681.238	0.0130864
681.317	0.0130229
681.395	0.0130818
681.473	0.0131184
681.551	0.0130316
681.629	0.0131586
681.707	0.0131367
681.785	0.0131278
681.863	0.0133749
681.942	0.0133871
682.020	0.0135152
682.098	0.0137408
682.176	0.0138718
682.254	0.0138884
682.332	0.0140963
682.410	0.0140485
682.488	0.0142268
682.567	0.0142944
682.645	0.0142889
682.723	0.0143081
682.801	0.0142773
682.879	0.0142832
682.957	0.0142541
683.035	0.0143668
683.113	0.0141962
683.192	0.0140957
683.270	0.0140045
683.348	0.0138972
683.426	0.0138637
683.504	0.0138361
683.582	0.0138384
683.660	0.0138269
683.738	0.0139169
683.817	0.0139125
683.895	0.0139273
683.973	0.0140283
684.051	0.0138828
684.129	0.0138850
684.207	0.0140401
684.285	0.0139374
684.363	0.0141264
684.442	0.0140154
684.520	0.0139136
684.598	0.0138956
684.676	0.0138889
684.754	0.0137812
684.832	0.0138121
684.910	0.0138644
684.988	0.0137555
685.067	0.0136752
685.145	0.0137379
685.223	0.0138358
685.301	0.0138174
685.379	0.0138188
685.457	0.0137672
685.535	0.0136828
685.613	0.0137010
685.692	0.0136087
685.770	0.0136908
685.848	0.0137400
685.926	0.0136877
686.004	0.0136447
686.082	0.0136463
686.160	0.0134990
686.238	0.0134709
686.317	0.0135806
686.395	0.0136926
686.473	0.0133573
686.551	0.0134604
686.629	0.0135278
686.707	0.0134488
686.785	0.0136416
686.863	0.0135663
686.942	0.0136681
687.020	0.0138161
687.098	0.0138819
687.176	0.0140855
687.254	0.0142464
687.332	0.0143981
687.410	0.0146198
687.488	0.0145863
687.567	0.0146418
687.645	0.0146833
687.723	0.0148609
687.801	0.0147419
687.879	0.0147409
687.957	0.0146549
688.035	0.0144602
688.113	0.0144067
688.192	0.0142045
688.270	0.0140126
688.348	0.0138103
688.426	0.0135228
688.504	0.0133674
688.582	0.0132444
688.660	0.0131646
688.738	0.0128725
688.817	0.0127770
688.895	0.0127671
688.973	0.0126608
689.051	0.0127486
689.129	0.0127176
689.207	0.0127012
689.285	0.0129370
689.363	0.0130379
689.442	0.0131805
689.520	0.0133463
689.598	0.0132520
689.676	0.0134942
689.754	0.0135760
689.832	0.0137479
689.910	0.0137156
689.988	0.0138774
690.067	0.0138296
690.145	0.0139271
690.223	0.0139868
690.301	0.0139413
690.379	0.0141090
690.457	0.0142040
690.535	0.0141211
690.613	0.0140718
690.692	0.0141747
690.770	0.0143274
690.848	0.0143388
690.926	0.0143070
691.004	0.0143504
691.082	0.0143064
691.160	0.0143726
691.238	0.0144064
691.317	0.0143340
691.395	0.0143108
691.473	0.0142537
691.551	0.0140470
691.629	0.0141268
691.707	0.0141431
691.785	0.0141478
691.863	0.0140966
691.942	0.0138487
692.020	0.0140792
692.098	0.0139749
692.176	0.0138789
692.254	0.0138158
692.332	0.0137484
692.410	0.0137811
692.488	0.0135937
692.567	0.0136340
692.645	0.0137333
692.723	0.0138136
692.801	0.0137426
692.879	0.0138273
692.957	0.0137990
693.035	0.0138774
693.113	0.0138549
693.192	0.0137704
693.270	0.0139235
693.348	0.0138957
693.426	0.0139386
693.504	0.0138523
693.582	0.0137677
693.660	0.0137769
693.738	0.0135901
693.817	0.0136282
693.895	0.0136732
693.973	0.0135625
694.051	0.0133650
694.129	0.0132176
694.207	0.0131066
694.285	0.0131923
694.363	0.0130380
694.442	0.0130103
694.520	0.0129274
694.598	0.0128835
694.676	0.0130363
694.754	0.0129767
694.832	0.0130899
694.910	0.0130794
694.988	0.0131293
695.067	0.0132601
695.145	0.0131673
695.223	0.0133206
695.301	0.0133762
695.379	0.0134171
695.457	0.0133678
695.535	0.0135560
695.613	0.0136887
695.692	0.0136221
695.770	0.0136581
695.848	0.0138011
695.926	0.0137507
696.004	0.0140353
696.082	0.0141181
696.160	0.0142712
696.238	0.0142793
696.317	0.0143869
696.395	0.0143550
696.473	0.0144936
696.551	0.0144805
696.629	0.0146435
696.707	0.0147647
696.785	0.0146471
696.863	0.0147259
696.942	0.0148447
697.020	0.0149272
697.098	0.0149133
697.176	0.0149017
697.254	0.0151347
697.332	0.0150578
697.410	0.0149870
697.488	0.0147303
697.567	0.0146564
697.645	0.0145617
697.723	0.0143641
697.801	0.0143737
697.879	0.0141066
697.957	0.0138354
698.035	0.0137643
698.113	0.0136356
698.192	0.0134378
698.270	0.0132230
698.348	0.0132410
698.426	0.0129101
698.504	0.0127941
698.582	0.0126793
698.660	0.0124824
698.738	0.0124448
698.817	0.0123241
698.895	0.0121806
698.973	0.0122376
699.051	0.0121309
699.129	0.0121706
699.207	0.0123356
699.285	0.0121888
699.363	0.0123254
699.442	0.0124660
699.520	0.0127428
699.598	0.0126566
699.676	0.0128530
699.754	0.0131545
699.832	0.0133321
699.910	0.0133794
699.988	0.0137356
700.067	0.0138551
700.145	0.0142705
700.223	0.0145135
700.301	0.0145665
700.379	0.0150110
700.457	0.0150543
700.535	0.0151302
700.613	0.0152078
700.692	0.0153760
700.770	0.0153867
700.848	0.0154291
700.926	0.0152978
701.004	0.0152487
701.082	0.0150892
701.160	0.0151613
701.238	0.0150000
701.317	0.0148094
701.395	0.0146939
701.473	0.0146440
701.551	0.0144860
701.629	0.0145739
701.707	0.0145135
701.785	0.0144131
701.863	0.0142300
701.942	0.0141201
702.020	0.0140446
702.098	0.0141675
702.176	0.0141058
702.254	0.0139214
702.332	0.0137198
702.410	0.0136259
702.488	0.0135336
702.567	0.0132713
702.645	0.0129944
702.723	0.0129262
702.801	0.0128951
702.879	0.0129391
702.957	0.0127084
703.035	0.0126966
703.113	0.0125797
703.192	0.0127001
703.270	0.0126815
703.348	0.0127111
703.426	0.0128109
703.504	0.0127496
703.582	0.0128697
703.660	0.0131040
703.738	0.0130297
703.817	0.0130718
703.895	0.0132063
703.973	0.0133387
704.051	0.0133387
704.129	0.0134791
704.207	0.0135529
704.285	0.0136745
704.363	0.0137167
704.442	0.0138914
704.520	0.0140776
704.598	0.0140189
704.676	0.0141737
704.754	0.0142319
704.832	0.0143572
704.910	0.0144344
704.988	0.0145435
705.067	0.0145210
705.145	0.0145673
705.223	0.0146104
705.301	0.0146741
705.379	0.0146936
705.457	0.0146317
705.535	0.0145927
705.613	0.0146480
705.692	0.0146671
705.770	0.0145660
705.848	0.0145738
705.926	0.0144753
706.004	0.0143783
706.082	0.0143069
706.160	0.0142668
706.238	0.0141802
706.317	0.0140913
706.395	0.0140096
706.473	0.0138773
706.551	0.0137542
706.629	0.0138903
706.707	0.0135997
706.785	0.0136312
706.863	0.0135023
706.942	0.0135067
707.020	0.0134525
707.098	0.0134106
707.176	0.0133289
707.254	0.0132359
707.332	0.0131934
707.410	0.0133735
707.488	0.0133595
707.567	0.0134058
707.645	0.0134468
707.723	0.0134946
707.801	0.0135937
707.879	0.0135185
707.957	0.0136130
708.035	0.0136402
708.113	0.0135280
708.192	0.0137609
708.270	0.0136959
708.348	0.0137182
708.426	0.0138005
708.504	0.0137706
708.582	0.0135840
708.660	0.0137307
708.738	0.0136829
708.817	0.0138287
708.895	0.0138291
708.973	0.0135680
709.051	0.0134960
709.129	0.0134955
709.207	0.0134158
709.285	0.0134783
709.363	0.0135784
709.442	0.0134048
709.520	0.0136214
709.598	0.0134435
709.676	0.0135937
709.754	0.0136289
709.832	0.0137313
709.910	0.0139538
709.988	0.0138820
710.067	0.0139445
710.145	0.0140098
710.223	0.0139966
710.301	0.0141477
710.379	0.0142398
710.457	0.0141752
710.535	0.0144451
710.613	0.0143610
710.692	0.0143764
710.770	0.0143536
710.848	0.0143780
710.926	0.0143042
711.004	0.0142075
711.082	0.0141638
711.160	0.0143036
711.238	0.0142064
711.317	0.0143366
711.395	0.0141409
711.473	0.0141702
711.551	0.0141158
711.629	0.0140881
711.707	0.0140667
711.785	0.0139491
711.863	0.0139724
711.942	0.0139539
712.020	0.0137321
712.098	0.0137366
712.176	0.0135995
712.254	0.0135682
712.332	0.0134851
712.410	0.0133866
712.488	0.0134239
712.567	0.0134446
712.645	0.0134273
712.723	0.0134341
712.801	0.0133906
712.879	0.0133841
712.957	0.0136337
713.035	0.0136549
713.113	0.0136357
713.192	0.0137872
713.270	0.0137788
713.348	0.0139172
713.426	0.0139999
713.504	0.0140346
713.582	0.0139441
713.660	0.0140711
713.738	0.0141122
713.817	0.0142010
713.895	0.0140768
713.973	0.0139520
714.051	0.0139476
714.129	0.0140289
714.207	0.0139393
714.285	0.0138623
714.363	0.0138090
714.442	0.0138152
714.520	0.0136828
714.598	0.0135984
714.676	0.0134739
714.754	0.0136610
714.832	0.0137281
714.910	0.0136391
714.988	0.0137111
715.067	0.0138058
715.145	0.0137738
715.223	0.0139498
715.301	0.0138023
715.379	0.0139118
715.457	0.0139701
715.535	0.0139333
715.613	0.0141235
715.692	0.0141456
715.770	0.0141201
715.848	0.0139556
715.926	0.0139587
716.004	0.0140500
716.082	0.0139388
716.160	0.0139038
716.238	0.0140284
716.317	0.0139201
716.395	0.0138818
716.473	0.0138104
716.551	0.0141432
716.629	0.0139426
716.707	0.0137864
716.785	0.0138799
716.863	0.0138448
716.942	0.0139772
717.020	0.0137531
717.098	0.0137290
717.176	0.0136903
717.254	0.0137003
717.332	0.0137265
717.410	0.0137073
717.488	0.0136782
717.567	0.0136426
717.645	0.0137189
717.723	0.0136794
717.801	0.0136683
717.879	0.0138373
717.957	0.0137012
718.035	0.0138140
718.113	0.0139108
718.192	0.0138830
718.270	0.0137264
718.348	0.0138193
718.426	0.0137624
718.504	0.0137714
718.582	0.0137762
718.660	0.0137190
718.738	0.0138036
718.817	0.0137776
718.895	0.0138565
718.973	0.0137150
719.051	0.0139021
719.129	0.0137547
719.207	0.0138795
719.285	0.0138711
719.363	0.0138578
719.442	0.0139165
719.520	0.0139124
719.598	0.0138345
719.676	0.0138251
719.754	0.0139140
719.832	0.0140196
719.910	0.0139910
719.988	0.0138319
720.067	0.0139533
720.145	0.0137833
720.223	0.0139072
720.301	0.0138301
720.379	0.0137785
720.457	0.0138132
720.535	0.0136300
720.613	0.0137479
720.692	0.0138311
720.770	0.0138234
720.848	0.0137179
720.926	0.0139366
721.004	0.0139590
721.082	0.0138239
721.160	0.0139560
721.238	0.0141056
721.317	0.0140162
721.395	0.0142983
721.473	0.0141898
721.551	0.0142356
721.629	0.0140692
721.707	0.0141064
721.785	0.0141405
721.863	0.0140851
721.942	0.0139816
722.020	0.0140718
722.098	0.0140175
722.176	0.0140328
722.254	0.0140983
722.332	0.0140096
722.410	0.0138924
722.488	0.0139035
722.567	0.0139135
722.645	0.0137917
722.723	0.0137462
722.801	0.0136246
722.879	0.0136613
722.957	0.0135590
723.035	0.0135646
723.113	0.0134260
723.192	0.0135521
723.270	0.0135545
723.348	0.0134342
723.426	0.0134995
723.504	0.0134493
723.582	0.0133875
723.660	0.0134588
723.738	0.0133928
723.817	0.0135349
723.895	0.0133290
723.973	0.0134818
724.051	0.0135424
724.129	0.0135872
724.207	0.0134860
724.285	0.0135963
724.363	0.0137362
724.442	0.0135944
724.520	0.0135960
724.598	0.0137323
724.676	0.0138232
724.754	0.0137829
724.832	0.0138251
724.910	0.0139782
724.988	0.0140066
725.067	0.0140351
725.145	0.0140078
725.223	0.0138902
725.301	0.0139743
725.379	0.0138447
725.457	0.0138322
725.535	0.0139671
725.613	0.0138424
725.692	0.0138377
725.770	0.0138922
725.848	0.0139466
725.926	0.0138651
726.004	0.0137663
726.082	0.0138354
726.160	0.0138873
726.238	0.0139471
726.317	0.0139438
726.395	0.0137854
726.473	0.0139156
726.551	0.0138004
726.629	0.0139146
726.707	0.0140334
726.785	0.0138054
726.863	0.0137773
726.942	0.0138402
727.020	0.0137189
727.098	0.0136536
727.176	0.0137267
727.254	0.0138206
727.332	0.0136980
727.410	0.0136265
727.488	0.0139402
727.567	0.0138246
727.645	0.0138861
727.723	0.0137068
727.801	0.0137395
727.879	0.0136156
727.957	0.0137447
728.035	0.0137448
728.113	0.0137054
728.192	0.0138418
728.270	0.0137901
728.348	0.0137089
728.426	0.0136580
728.504	0.0136828
728.582	0.0136342
728.660	0.0136858
728.738	0.0137483
728.817	0.0136636
728.895	0.0137359
728.973	0.0136801
729.051	0.0137652
729.129	0.0137927
729.207	0.0136134
729.285	0.0137025
729.363	0.0138352
729.442	0.0138536
729.520	0.0137703
729.598	0.0138243
729.676	0.0139072
729.754	0.0138421
729.832	0.0138884
729.910	0.0139262
729.988	0.0140254
730.067	0.0139307
730.145	0.0139514
730.223	0.0139500
730.301	0.0137829
730.379	0.0139427
730.457	0.0139522
730.535	0.0138512
730.613	0.0137790
730.692	0.0136649
730.770	0.0136689
730.848	0.0138023
730.926	0.0135602
731.004	0.0136446
731.082	0.0136143
731.160	0.0135955
731.238	0.0136041
731.317	0.0135959
731.395	0.0135114
731.473	0.0134579
731.551	0.0136129
731.629	0.0135789
731.707	0.0136695
731.785	0.0137692
731.863	0.0137354
731.942	0.0137307
732.020	0.0138445
732.098	0.0136803
732.176	0.0139173
732.254	0.0139830
732.332	0.0138522
732.410	0.0138996
732.488	0.0138852
732.567	0.0138111
732.645	0.0140089
732.723	0.0138100
732.801	0.0138428
732.879	0.0138277
732.957	0.0137281
733.035	0.0137185
733.113	0.0137782
733.192	0.0138131
733.270	0.0137373
733.348	0.0137415
733.426	0.0136483
733.504	0.0138054
733.582	0.0138163
733.660	0.0137865
733.738	0.0137685
733.817	0.0136851
733.895	0.0137875
733.973	0.0137245
734.051	0.0136774
734.129	0.0138242
734.207	0.0137610
734.285	0.0138265
734.363	0.0137753
734.442	0.0137666
734.520	0.0137817
734.598	0.0137026
734.676	0.0137503
734.754	0.0137683
734.832	0.0137357
734.910	0.0137536
734.988	0.0136098
735.067	0.0135086
735.145	0.0136646
735.223	0.0136459
735.301	0.0135013
735.379	0.0136652
735.457	0.0135689
735.535	0.0136657
735.613	0.0136150
735.692	0.0136153
735.770	0.0136337
735.848	0.0135991
735.926	0.0136129
736.004	0.0137675
736.082	0.0136149
736.160	0.0136344
736.238	0.0137934
736.317	0.0137791
736.395	0.0135621
736.473	0.0137605
736.551	0.0137992
736.629	0.0136639
736.707	0.0137797
736.785	0.0138735
736.863	0.0138965
736.942	0.0138609
737.020	0.0138853
737.098	0.0140263
737.176	0.0141606
737.254	0.0139922
737.332	0.0141241
737.410	0.0140332
737.488	0.0140495
737.567	0.0140803
737.645	0.0141299
737.723	0.0140561
737.801	0.0140370
737.879	0.0140531
737.957	0.0139127
738.035	0.0139416
738.113	0.0138280
738.192	0.0138252
738.270	0.0135705
738.348	0.0136439
738.426	0.0138069
738.504	0.0136301
738.582	0.0135529
738.660	0.0137125
738.738	0.0135850
738.817	0.0136491
738.895	0.0135317
738.973	0.0135638
739.051	0.0135176
739.129	0.0134290
739.207	0.0134013
739.285	0.0135735
739.363	0.0134807
739.442	0.0135307
739.520	0.0136015
739.598	0.0135647
739.676	0.0135336
739.754	0.0134453
739.832	0.0137705
739.910	0.0136560
739.988	0.0135682
740.067	0.0138731
740.145	0.0139101
740.223	0.0139202
740.301	0.0138672
740.379	0.0140290
740.457	0.0140155
740.535	0.0140472
740.613	0.0139676
740.692	0.0141124
740.770	0.0140977
740.848	0.0141058
740.926	0.0139478
741.004	0.0139065
741.082	0.0138700
741.160	0.0138497
741.238	0.0137746
741.317	0.0137825
741.395	0.0138189
741.473	0.0138405
741.551	0.0138061
741.629	0.0138616
741.707	0.0139053
741.785	0.0137858
741.863	0.0138004
741.942	0.0138259
742.020	0.0139623
742.098	0.0140274
742.176	0.0139064
742.254	0.0140205
742.332	0.0139619
742.410	0.0138228
742.488	0.0139490
742.567	0.0138322
742.645	0.0138583
742.723	0.0139815
742.801	0.0139286
742.879	0.0138847
742.957	0.0136964
743.035	0.0137688
743.113	0.0138680
743.192	0.0138370
743.270	0.0140444
743.348	0.0138065
743.426	0.0138349
743.504	0.0139072
743.582	0.0138322
743.660	0.0139680
743.738	0.0138785
743.817	0.0136994
743.895	0.0139668
743.973	0.0138590
744.051	0.0136954
744.129	0.0136897
744.207	0.0137067
744.285	0.0136942
744.363	0.0135965
744.442	0.0136328
744.520	0.0136535
744.598	0.0135172
744.676	0.0136809
744.754	0.0136241
744.832	0.0136996
744.910	0.0138459
744.988	0.0137355
745.067	0.0138538
745.145	0.0138972
745.223	0.0138358
745.301	0.0137791
745.379	0.0140597
745.457	0.0139305
745.535	0.0140582
745.613	0.0138980
745.692	0.0139346
745.770	0.0138911
745.848	0.0139279
745.926	0.0140009
746.004	0.0136763
746.082	0.0137863
746.160	0.0140412
746.238	0.0138979
746.317	0.0139034
746.395	0.0138048
746.473	0.0137980
746.551	0.0137495
746.629	0.0136957
746.707	0.0137492
746.785	0.0137926
746.863	0.0136418
746.942	0.0137231
747.020	0.0136324
747.098	0.0137668
747.176	0.0137427
747.254	0.0136701
747.332	0.0136613
747.410	0.0135826
747.488	0.0137688
747.567	0.0137854
747.645	0.0137260
747.723	0.0137958
747.801	0.0137474
747.879	0.0136671
747.957	0.0137719
748.035	0.0138305
748.113	0.0139334
748.192	0.0137582
748.270	0.0137740
748.348	0.0137846
748.426	0.0138702
748.504	0.0138194
748.582	0.0139667
748.660	0.0139436
748.738	0.0139558
748.817	0.0138622
748.895	0.0140514
748.973	0.0137534
749.051	0.0136960
749.129	0.0136784
749.207	0.0137463
749.285	0.0137605
749.363	0.0137121
749.442	0.0138212
749.520	0.0136909
749.598	0.0137067
749.676	0.0137080
749.754	0.0137506
749.832	0.0136106
749.910	0.0137308
749.988	0.0136449
750.067	0.0136893
750.145	0.0137212
750.223	0.0138041
750.301	0.0135806
750.379	0.0137174
750.457	0.0136207
750.535	0.0136932
750.613	0.0138250
750.692	0.0135835
750.770	0.0135802
750.848	0.0137124
750.926	0.0136893
751.004	0.0138159
751.082	0.0137674
751.160	0.0137676
751.238	0.0135770
751.317	0.0137650
751.395	0.0137640
751.473	0.0136246
751.551	0.0136758
751.629	0.0137914
751.707	0.0138069
751.785	0.0136891
751.863	0.0136629
751.942	0.0136143
752.020	0.0137260
752.098	0.0135905
752.176	0.0135501
752.254	0.0136358
752.332	0.0133919
752.410	0.0134838
752.488	0.0134606
752.567	0.0135711
752.645	0.0134931
752.723	0.0136105
752.801	0.0136230
752.879	0.0137661
752.957	0.0136828
753.035	0.0137711
753.113	0.0138292
753.192	0.0138406
753.270	0.0138151
753.348	0.0137273
753.426	0.0139963
753.504	0.0140311
753.582	0.0138775
753.660	0.0138865
753.738	0.0139956
753.817	0.0138271
753.895	0.0140298
753.973	0.0138733
754.051	0.0138473
754.129	0.0138773
754.207	0.0138477
754.285	0.0139940
754.363	0.0139307
754.442	0.0138378
754.520	0.0137215
754.598	0.0138327
754.676	0.0137936
754.754	0.0139854
754.832	0.0137935
754.910	0.0136205
754.988	0.0137584
755.067	0.0138192
755.145	0.0137981
755.223	0.0138190
755.301	0.0137467
755.379	0.0137360
755.457	0.0137801
755.535	0.0137552
755.613	0.0135833
755.692	0.0136116
755.770	0.0137000
755.848	0.0135577
755.926	0.0136990
756.004	0.0138014
756.082	0.0136129
756.160	0.0136376
756.238	0.0136313
756.317	0.0137433
756.395	0.0136184
756.473	0.0138367
756.551	0.0137396
756.629	0.0138473
756.707	0.0137263
756.785	0.0138060
756.863	0.0138046
756.942	0.0137360
757.020	0.0138266
757.098	0.0137801
757.176	0.0138011
757.254	0.0136900
757.332	0.0136028
757.410	0.0137318
757.488	0.0138245
757.567	0.0137460
757.645	0.0136653
757.723	0.0137961
757.801	0.0136637
757.879	0.0138200
757.957	0.0136115
758.035	0.0137140
758.113	0.0138809
758.192	0.0138419
758.270	0.0138364
758.348	0.0137351
758.426	0.0138309
758.504	0.0139677
758.582	0.0138240
758.660	0.0138937
758.738	0.0139062
758.817	0.0138743
758.895	0.0138861
758.973	0.0137865
759.051	0.0138190
759.129	0.0140549
759.207	0.0138930
759.285	0.0138068
759.363	0.0137666
759.442	0.0137196
759.520	0.0136531
759.598	0.0136703
759.676	0.0138837
759.754	0.0138586
759.832	0.0136790
759.910	0.0136791
759.988	0.0136539
760.067	0.0136436
760.145	0.0136161
760.223	0.0136211
760.301	0.0137341
760.379	0.0135503
760.457	0.0135898
760.535	0.0136892
760.613	0.0137473
760.692	0.0136575
760.770	0.0137020
760.848	0.0137398
760.926	0.0137016
761.004	0.0135745
761.082	0.0139230
761.160	0.0138634
761.238	0.0139889
761.317	0.0137982
761.395	0.0138371
761.473	0.0139113
761.551	0.0139336
761.629	0.0140535
761.707	0.0140208
761.785	0.0139910
761.863	0.0139650
761.942	0.0141872
762.020	0.0140775
762.098	0.0140394
762.176	0.0140684
762.254	0.0141372
762.332	0.0141823
762.410	0.0140665
762.488	0.0141909
762.567	0.0142833
762.645	0.0139704
762.723	0.0139167
762.801	0.0139070
762.879	0.0139874
762.957	0.0140119
763.035	0.0138284
763.113	0.0138610
763.192	0.0137257
763.270	0.0137235
763.348	0.0137490
763.426	0.0136335
763.504	0.0137554
763.582	0.0138638
763.660	0.0137444
763.738	0.0137583
763.817	0.0137709
763.895	0.0138083
763.973	0.0137656
764.051	0.0138753
764.129	0.0137829
764.207	0.0137199
764.285	0.0139194
764.363	0.0138511
764.442	0.0137325
764.520	0.0138701
764.598	0.0139342
764.676	0.0139074
764.754	0.0138068
764.832	0.0137778
764.910	0.0137587
764.988	0.0137373
765.067	0.0137949
765.145	0.0140393
765.223	0.0138366
765.301	0.0137536
765.379	0.0139745
765.457	0.0139724
765.535	0.0138311
765.613	0.0139313
765.692	0.0139143
765.770	0.0138935
765.848	0.0137604
765.926	0.0138042
766.004	0.0139275
766.082	0.0138464
766.160	0.0138616
766.238	0.0137404
766.317	0.0138508
766.395	0.0138327
766.473	0.0138909
766.551	0.0139826
766.629	0.0137888
766.707	0.0138464
766.785	0.0138670
766.863	0.0138583
766.942	0.0138523
767.020	0.0138743
767.098	0.0136849
767.176	0.0138302
767.254	0.0138161
767.332	0.0136964
767.410	0.0136839
767.488	0.0138300
767.567	0.0137482
767.645	0.0137740
767.723	0.0136942
767.801	0.0138170
767.879	0.0137401
767.957	0.0138477
768.035	0.0137819
768.113	0.0137675
768.192	0.0137029
768.270	0.0136935
768.348	0.0137682
768.426	0.0137538
768.504	0.0137733
768.582	0.0136739
768.660	0.0137556
768.738	0.0139387
768.817	0.0135989
768.895	0.0137113
768.973	0.0137922
769.051	0.0138773
769.129	0.0139063
769.207	0.0137737
769.285	0.0140265
769.363	0.0140047
769.442	0.0138497
769.520	0.0139059
769.598	0.0139082
769.676	0.0140290
769.754	0.0139110
769.832	0.0139299
769.910	0.0140275
769.988	0.0139064
770.067	0.0139621
770.145	0.0138473
770.223	0.0138762
770.301	0.0139742
770.379	0.0138271
770.457	0.0137209
770.535	0.0137894
770.613	0.0137840
770.692	0.0136534
770.770	0.0136594
770.848	0.0137051
770.926	0.0136057
771.004	0.0135922
771.082	0.0135959
771.160	0.0136037
771.238	0.0136140
771.317	0.0136686
771.395	0.0136092
771.473	0.0137415
771.551	0.0137733
771.629	0.0136914
771.707	0.0137540
771.785	0.0138161
771.863	0.0138297
771.942	0.0138656
772.020	0.0136449
772.098	0.0137716
772.176	0.0137922
772.254	0.0139158
772.332	0.0137665
772.410	0.0137586
772.488	0.0139368
772.567	0.0137719
772.645	0.0137577
772.723	0.0138513
772.801	0.0137872
772.879	0.0137521
772.957	0.0137339
773.035	0.0136707
773.113	0.0137148
773.192	0.0137862
773.270	0.0138017
773.348	0.0137215
773.426	0.0136871
773.504	0.0137051
773.582	0.0137374
773.660	0.0136591
773.738	0.0136559
773.817	0.0137224
773.895	0.0137912
773.973	0.0136414
774.051	0.0136838
774.129	0.0136362
774.207	0.0137523
774.285	0.0136458
774.363	0.0137122
774.442	0.0137698
774.520	0.0136745
774.598	0.0138852
774.676	0.0139456
774.754	0.0137915
774.832	0.0138318
774.910	0.0137748
774.988	0.0137569
775.067	0.0138918
775.145	0.0138152
775.223	0.0137179
775.301	0.0137348
775.379	0.0138449
775.457	0.0138213
775.535	0.0139043
775.613	0.0138654
775.692	0.0138175
775.770	0.0138561
775.848	0.0137291
775.926	0.0136058
776.004	0.0137355
776.082	0.0138107
776.160	0.0138876
776.238	0.0138379
776.317	0.0137047
776.395	0.0137704
776.473	0.0137712
776.551	0.0137319
776.629	0.0136891
776.707	0.0136375
776.785	0.0137154
776.863	0.0137440
776.942	0.0135947
777.020	0.0136047
777.098	0.0137582
777.176	0.0136532
777.254	0.0136613
777.332	0.0136602
777.410	0.0136689
777.488	0.0136971
777.567	0.0136828
777.645	0.0135887
777.723	0.0136162
777.801	0.0136369
777.879	0.0136383
777.957	0.0137245
778.035	0.0137033
778.113	0.0138998
778.192	0.0136488
778.270	0.0137821
778.348	0.0138665
778.426	0.0137055
778.504	0.0138420
778.582	0.0137110
778.660	0.0137993
778.738	0.0138760
778.817	0.0139686
778.895	0.0139801
778.973	0.0139093
779.051	0.0140740
779.129	0.0139064
779.207	0.0138327
779.285	0.0138862
779.363	0.0138969
779.442	0.0139950
779.520	0.0140697
779.598	0.0138010
779.676	0.0138616
779.754	0.0138020
779.832	0.0137993
779.910	0.0137643
779.988	0.0138238
780.067	0.0138158
780.145	0.0138783
780.223	0.0138894
780.301	0.0138004
780.379	0.0137580
780.457	0.0137352
780.535	0.0138308
780.613	0.0136169
780.692	0.0136878
780.770	0.0135349
780.848	0.0137395
780.926	0.0135483
781.004	0.0136639
781.082	0.0137092
781.160	0.0136974
781.238	0.0134858
781.317	0.0136729
781.395	0.0136168
781.473	0.0137141
781.551	0.0136339
781.629	0.0136824
781.707	0.0136588
781.785	0.0136618
781.863	0.0136485
781.942	0.0138545
782.020	0.0136757
782.098	0.0135886
782.176	0.0136776
782.254	0.0137643
782.332	0.0138673
782.410	0.0138376
782.488	0.0139301
782.567	0.0139414
782.645	0.0139452
782.723	0.0139739
782.801	0.0139429
782.879	0.0138360
782.957	0.0140183
783.035	0.0140257
783.113	0.0139286
783.192	0.0138461
783.270	0.0138998
783.348	0.0140807
783.426	0.0138966
783.504	0.0138696
783.582	0.0138433
783.660	0.0139115
783.738	0.0139697
783.817	0.0138223
783.895	0.0139904
783.973	0.0138479
784.051	0.0139742
784.129	0.0138347
784.207	0.0137856
784.285	0.0139454
784.363	0.0138700
784.442	0.0136929
784.520	0.0137367
784.598	0.0136627
784.676	0.0137960
784.754	0.0137619
784.832	0.0136649
784.910	0.0138371
784.988	0.0136607
785.067	0.0138236
785.145	0.0136477
785.223	0.0136882
785.301	0.0137883
785.379	0.0137244
785.457	0.0137048
785.535	0.0136724
785.613	0.0136791
785.692	0.0137236
785.770	0.0138042
785.848	0.0136214
785.926	0.0136600
786.004	0.0137814
786.082	0.0137325
786.160	0.0137216
786.238	0.0136828
786.317	0.0138673
786.395	0.0138058
786.473	0.0139494
786.551	0.0137566
786.629	0.0139467
786.707	0.0139643
786.785	0.0138390
786.863	0.0139275
786.942	0.0139231
787.020	0.0139183
787.098	0.0139968
787.176	0.0139729
787.254	0.0140201
787.332	0.0139416
787.410	0.0141689
787.488	0.0141442
787.567	0.0140200
787.645	0.0139288
787.723	0.0140705
787.801	0.0141058
787.879	0.0140460
787.957	0.0140322
788.035	0.0137991
788.113	0.0138295
788.192	0.0139500
788.270	0.0139301
788.348	0.0139182
788.426	0.0137591
788.504	0.0138654
788.582	0.0138624
788.660	0.0139149
788.738	0.0137392
788.817	0.0137661
788.895	0.0137283
788.973	0.0137077
789.051	0.0137000
789.129	0.0135236
789.207	0.0136870
789.285	0.0136877
789.363	0.0138033
789.442	0.0136979
789.520	0.0137466
789.598	0.0137202
789.676	0.0136790
789.754	0.0137745
789.832	0.0136647
789.910	0.0137473
789.988	0.0137486
790.067	0.0137418
790.145	0.0136829
790.223	0.0138123
790.301	0.0138988
790.379	0.0138201
790.457	0.0139342
790.535	0.0137798
790.613	0.0137478
790.692	0.0139088
790.770	0.0138569
790.848	0.0138254
790.926	0.0139069
791.004	0.0138832
791.082	0.0139069
791.160	0.0138437
791.238	0.0138940
791.317	0.0139423
791.395	0.0138535
791.473	0.0137827
791.551	0.0137959
791.629	0.0139104
791.707	0.0138376
791.785	0.0137632
791.863	0.0137475
791.942	0.0138020
792.020	0.0137447
792.098	0.0137498
792.176	0.0137190
792.254	0.0137822
792.332	0.0136627
792.410	0.0137489
792.488	0.0139619
792.567	0.0138145
792.645	0.0137085
792.723	0.0137848
792.801	0.0139185
792.879	0.0138968
792.957	0.0138938
793.035	0.0140006
793.113	0.0139255
793.192	0.0139552
793.270	0.0139870
793.348	0.0140777
793.426	0.0139997
793.504	0.0139256
793.582	0.0139246
793.660	0.0139417
793.738	0.0138112
793.817	0.0139133
793.895	0.0138441
793.973	0.0138196
794.051	0.0137104
794.129	0.0137190
794.207	0.0137774
794.285	0.0137883
794.363	0.0138186
794.442	0.0138384
794.520	0.0138208
794.598	0.0137767
794.676	0.0137542
794.754	0.0137392
794.832	0.0137050
794.910	0.0136233
794.988	0.0136548
795.067	0.0135872
795.145	0.0136998
795.223	0.0136791
795.301	0.0136336
795.379	0.0136481
795.457	0.0134000
795.535	0.0134449
795.613	0.0136129
795.692	0.0137553
795.770	0.0136467
795.848	0.0134727
795.926	0.0136259
796.004	0.0135884
796.082	0.0136243
796.160	0.0138843
796.238	0.0136329
796.317	0.0137632
796.395	0.0136246
796.473	0.0137074
796.551	0.0136985
796.629	0.0137161
796.707	0.0137077
796.785	0.0138270
796.863	0.0136895
796.942	0.0137132
797.020	0.0138216
797.098	0.0137436
797.176	0.0136674
797.254	0.0138750
797.332	0.0138128
797.410	0.0138406
797.488	0.0138503
797.567	0.0138840
797.645	0.0139740
797.723	0.0138991
797.801	0.0136999
797.879	0.0139802
797.957	0.0138631
798.035	0.0138479
798.113	0.0139033
798.192	0.0138170
798.270	0.0139920
798.348	0.0138451
798.426	0.0139264
798.504	0.0138092
798.582	0.0140192
798.660	0.0137873
798.738	0.0138226
798.817	0.0138911
798.895	0.0137862
798.973	0.0138402
799.051	0.0136943
799.129	0.0138198
799.207	0.0137569
799.285	0.0137904
799.363	0.0136166
799.442	0.0136333
799.520	0.0136201
799.598	0.0136780
799.676	0.0135195
799.754	0.0136140
799.832	0.0135278
799.910	0.0135519
799.988	0.0136836
800.067	0.0133776
800.145	0.0132524
800.223	0.0134267
800.301	0.0134762
800.379	0.0134405
800.457	0.0136297
800.535	0.0135513
800.613	0.0135454
800.692	0.0135431
800.770	0.0135903
800.848	0.0134818
800.926	0.0136618
801.004	0.0136143
801.082	0.0138201
801.160	0.0136502
801.238	0.0137117
801.317	0.0138792
801.395	0.0139185
801.473	0.0139223
801.551	0.0137608
801.629	0.0138303
801.707	0.0139754
801.785	0.0138439
801.863	0.0140235
801.942	0.0140234
802.020	0.0139677
802.098	0.0139883
802.176	0.0140054
802.254	0.0140611
802.332	0.0138984
802.410	0.0138551
802.488	0.0138720
802.567	0.0140800
802.645	0.0138311
802.723	0.0139416
802.801	0.0140504
802.879	0.0140019
802.957	0.0138625
803.035	0.0136583
803.113	0.0138249
803.192	0.0139063
803.270	0.0138018
803.348	0.0137417
803.426	0.0138954
803.504	0.0137754
803.582	0.0137012
803.660	0.0137724
803.738	0.0137857
803.817	0.0138068
803.895	0.0136943
803.973	0.0136089
804.051	0.0137489
804.129	0.0136788
804.207	0.0136771
804.285	0.0137215
804.363	0.0136392
804.442	0.0135857
804.520	0.0137713
804.598	0.0136823
804.676	0.0138644
804.754	0.0137111
804.832	0.0137508
804.910	0.0135999
804.988	0.0135867
805.067	0.0136788
805.145	0.0136722
805.223	0.0136420
805.301	0.0136825
805.379	0.0136618
805.457	0.0137682
805.535	0.0138306
805.613	0.0136003
805.692	0.0135944
805.770	0.0138197
805.848	0.0138016
805.926	0.0137215
806.004	0.0137834
806.082	0.0138119
806.160	0.0139272
806.238	0.0139064
806.317	0.0137782
806.395	0.0140714
806.473	0.0139525
806.551	0.0140804
806.629	0.0139834
806.707	0.0138818
806.785	0.0140222
806.863	0.0138670
806.942	0.0139960
807.020	0.0141939
807.098	0.0139952
807.176	0.0140472
807.254	0.0140780
807.332	0.0140150
807.410	0.0138711
807.488	0.0140636
807.567	0.0139401
807.645	0.0138868
807.723	0.0138953
807.801	0.0138605
807.879	0.0138387
807.957	0.0137273
808.035	0.0139162
808.113	0.0137885
808.192	0.0137438
808.270	0.0137645
808.348	0.0136489
808.426	0.0137948
808.504	0.0136532
808.582	0.0137628
808.660	0.0138130
808.738	0.0139237
808.817	0.0137738
808.895	0.0137001
808.973	0.0137135
809.051	0.0138481
809.129	0.0137457
809.207	0.0137389
809.285	0.0136860
809.363	0.0138802
809.442	0.0139986
809.520	0.0139973
809.598	0.0139391
809.676	0.0138653
809.754	0.0138584
809.832	0.0138553
809.910	0.0138250
809.988	0.0138787
810.067	0.0138478
810.145	0.0139249
810.223	0.0139421
810.301	0.0138516
810.379	0.0137810
810.457	0.0136623
810.535	0.0137974
810.613	0.0137607
810.692	0.0138640
810.770	0.0137881
810.848	0.0137806
810.926	0.0136941
811.004	0.0138421
811.082	0.0139175
811.160	0.0137905
811.238	0.0138844
811.317	0.0136945
811.395	0.0138054
811.473	0.0138335
811.551	0.0137950
811.629	0.0137884
811.707	0.0137662
811.785	0.0138882
811.863	0.0139021
811.942	0.0138347
812.020	0.0138155
812.098	0.0138395
812.176	0.0137870
812.254	0.0137884
812.332	0.0138038
812.410	0.0139934
812.488	0.0139246
812.567	0.0139797
812.645	0.0138995
812.723	0.0138004
812.801	0.0138931
812.879	0.0137888
812.957	0.0137322
813.035	0.0137904
813.113	0.0138434
813.192	0.0136882
813.270	0.0137009
813.348	0.0137248
813.426	0.0137504
813.504	0.0136829
813.582	0.0138467
813.660	0.0135955
813.738	0.0138085
813.817	0.0138406
813.895	0.0138248
813.973	0.0137297
814.051	0.0136847
814.129	0.0138664
814.207	0.0138359
814.285	0.0139217
814.363	0.0138181
814.442	0.0137946
814.520	0.0138599
814.598	0.0138370
814.676	0.0139234
814.754	0.0138832
814.832	0.0136899
814.910	0.0139520
814.988	0.0138816
815.067	0.0138852
815.145	0.0138467
815.223	0.0138113
815.301	0.0138668
815.379	0.0137907
815.457	0.0136629
815.535	0.0139223
815.613	0.0138503
815.692	0.0138858
815.770	0.0138326
815.848	0.0137056
815.926	0.0138212
816.004	0.0137865
816.082	0.0136795
816.160	0.0137470
816.238	0.0138273
816.317	0.0136977
816.395	0.0136359
816.473	0.0137679
816.551	0.0136676
816.629	0.0136842
816.707	0.0137766
816.785	0.0136351
816.863	0.0137200
816.942	0.0137088
817.020	0.0137089
817.098	0.0136781
817.176	0.0137395
817.254	0.0137778
817.332	0.0138331
817.410	0.0139362
817.488	0.0138440
817.567	0.0138380
817.645	0.0138084
817.723	0.0137481
817.801	0.0138091
817.879	0.0137743
817.957	0.0138972
818.035	0.0139695
818.113	0.0137859
818.192	0.0139481
818.270	0.0139162
818.348	0.0137888
818.426	0.0139006
818.504	0.0136814
818.582	0.0137730
818.660	0.0137997
818.738	0.0138322
818.817	0.0138376
818.895	0.0138785
818.973	0.0138318
819.051	0.0137649
819.129	0.0138091
819.207	0.0138496
819.285	0.0137405
819.363	0.0138718
819.442	0.0137275
819.520	0.0138358
819.598	0.0139199
819.676	0.0136769
819.754	0.0137819
819.832	0.0136745
819.910	0.0138487
819.988	0.0136570
820.067	0.0138943
820.145	0.0138329
820.223	0.0137998
820.301	0.0138139
820.379	0.0137492
820.457	0.0136717
820.535	0.0138103
820.613	0.0137902
820.692	0.0137543
820.770	0.0138731
820.848	0.0137894
820.926	0.0138322
821.004	0.0137547
821.082	0.0137567
821.160	0.0138781
821.238	0.0136769
821.317	0.0138096
821.395	0.0137334
821.473	0.0137502
821.551	0.0138001
821.629	0.0138185
821.707	0.0136819
821.785	0.0137165
821.863	0.0138296
821.942	0.0136628
822.020	0.0138121
822.098	0.0137658
822.176	0.0138367
822.254	0.0137828
822.332	0.0136868
822.410	0.0137063
822.488	0.0136340
822.567	0.0137106
822.645	0.0136955
822.723	0.0135594
822.801	0.0137727
822.879	0.0138266
822.957	0.0136510
823.035	0.0138665
823.113	0.0139384
823.192	0.0140221
823.270	0.0138759
823.348	0.0138185
823.426	0.0138672
823.504	0.0139686
823.582	0.0138634
823.660	0.0137241
823.738	0.0138783
823.817	0.0138470
823.895	0.0138580
823.973	0.0138670
824.051	0.0139338
824.129	0.0138253
824.207	0.0138178
824.285	0.0137246
824.363	0.0137632
824.442	0.0138858
824.520	0.0137038
824.598	0.0137919
824.676	0.0136969
824.754	0.0137278
824.832	0.0137794
824.910	0.0136594
824.988	0.0136831
825.067	0.0137895
825.145	0.0135818
825.223	0.0137027
825.301	0.0137687
825.379	0.0136369
825.457	0.0137428
825.535	0.0137753
825.613	0.0137206
825.692	0.0137774
825.770	0.0138349
825.848	0.0136559
825.926	0.0138069
826.004	0.0138620
826.082	0.0137730
826.160	0.0138338
826.238	0.0137994
826.317	0.0137138
826.395	0.0139136
826.473	0.0139586
826.551	0.0138065
826.629	0.0138112
826.707	0.0137654
826.785	0.0138771
826.863	0.0138554
826.942	0.0138139
827.020	0.0137384
827.098	0.0139182
827.176	0.0138807
827.254	0.0139599
827.332	0.0137765
827.410	0.0139117
827.488	0.0138676
827.567	0.0138744
827.645	0.0137286
827.723	0.0137932
827.801	0.0137958
827.879	0.0137305
827.957	0.0136896
828.035	0.0138177
828.113	0.0137482
828.192	0.0137402
828.270	0.0136565
828.348	0.0136501
828.426	0.0138129
828.504	0.0138459
828.582	0.0138639
828.660	0.0138375
828.738	0.0137119
828.817	0.0137839
828.895	0.0138168
828.973	0.0138264
829.051	0.0137331
829.129	0.0138095
829.207	0.0138818
829.285	0.0137463
829.363	0.0138615
829.442	0.0138653
829.520	0.0137759
829.598	0.0138084
829.676	0.0138828
829.754	0.0136380
829.832	0.0138060
829.910	0.0137406
829.988	0.0138211
830.067	0.0137978
830.145	0.0139026
830.223	0.0136877
830.301	0.0138252
830.379	0.0137962
830.457	0.0137973
830.535	0.0139334
830.613	0.0137872
830.692	0.0137439
830.770	0.0137660
830.848	0.0138333
830.926	0.0137712
831.004	0.0137668
831.082	0.0138018
831.160	0.0138649
831.238	0.0140126
831.317	0.0138798
831.395	0.0138264
831.473	0.0138434
831.551	0.0139357
831.629	0.0138699
831.707	0.0139821
831.785	0.0139564
831.863	0.0137737
831.942	0.0137704
832.020	0.0138877
832.098	0.0139415
832.176	0.0138753
832.254	0.0139542
832.332	0.0138332
832.410	0.0136732
832.488	0.0137743
832.567	0.0138710
832.645	0.0137720
832.723	0.0137631
832.801	0.0138979
832.879	0.0138438
832.957	0.0138038
833.035	0.0137424
833.113	0.0139247
833.192	0.0138354
833.270	0.0137370
833.348	0.0138878
833.426	0.0138325
833.504	0.0139242
833.582	0.0138385
833.660	0.0139175
833.738	0.0138512
833.817	0.0139024
833.895	0.0138879
833.973	0.0137341
834.051	0.0137991
834.129	0.0140163
834.207	0.0139545
834.285	0.0138412
834.363	0.0138743
834.442	0.0138536
834.520	0.0137855
834.598	0.0139003
834.676	0.0139762
834.754	0.0140149
834.832	0.0138731
834.910	0.0138551
834.988	0.0137656
835.067	0.0137929
835.145	0.0138590
835.223	0.0138568
835.301	0.0139046
835.379	0.0137817
835.457	0.0137713
835.535	0.0137955
835.613	0.0139510
835.692	0.0138451
835.770	0.0137532
835.848	0.0137572
835.926	0.0138757
836.004	0.0138354
836.082	0.0137872
836.160	0.0137446
836.238	0.0139259
836.317	0.0137470
836.395	0.0138602
836.473	0.0138437
836.551	0.0137623
836.629	0.0137096
836.707	0.0137530
836.785	0.0138507
836.863	0.0138988
836.942	0.0138457
837.020	0.0136908
837.098	0.0138299
837.176	0.0139668
837.254	0.0138988
837.332	0.0136858
837.410	0.0137582
837.488	0.0138722
837.567	0.0138290
837.645	0.0138529
837.723	0.0138856
837.801	0.0138530
837.879	0.0138314
837.957	0.0137710
838.035	0.0138754
838.113	0.0140099
838.192	0.0139516
838.270	0.0139682
838.348	0.0139710
838.426	0.0139610
838.504	0.0139213
838.582	0.0140319
838.660	0.0138737
838.738	0.0138954
838.817	0.0139715
838.895	0.0139905
838.973	0.0138821
839.051	0.0138459
839.129	0.0139336
839.207	0.0139826
839.285	0.0138960
839.363	0.0139201
839.442	0.0139411
839.520	0.0139449
839.598	0.0139366
839.676	0.0140540
839.754	0.0138643
839.832	0.0138335
839.910	0.0138136
839.988	0.0139091
840.067	0.0138361
840.145	0.0137888
840.223	0.0138059
840.301	0.0136893
840.379	0.0138436
840.457	0.0138954
840.535	0.0139560
840.613	0.0138035
840.692	0.0137682
840.770	0.0139336
840.848	0.0138245
840.926	0.0138986
841.004	0.0138104
841.082	0.0137976
841.160	0.0140409
841.238	0.0138232
841.317	0.0137158
841.395	0.0138269
841.473	0.0138892
841.551	0.0138463
841.629	0.0139843
841.707	0.0139766
841.785	0.0138610
841.863	0.0138163
841.942	0.0139646
842.020	0.0139843
842.098	0.0138564
842.176	0.0139612
842.254	0.0139402
842.332	0.0139111
842.410	0.0139792
842.488	0.0139137
842.567	0.0140517
842.645	0.0138918
842.723	0.0139140
842.801	0.0139609
842.879	0.0138486
842.957	0.0139799
843.035	0.0139260
843.113	0.0138130
843.192	0.0139315
843.270	0.0138079
843.348	0.0139997
843.426	0.0141028
843.504	0.0138769
843.582	0.0137515
843.660	0.0139695
843.738	0.0139723
843.817	0.0139204
843.895	0.0139409
843.973	0.0138882
844.051	0.0139574
844.129	0.0138143
844.207	0.0138787
844.285	0.0138605
844.363	0.0139014
844.442	0.0137955
844.520	0.0138019
844.598	0.0139347
844.676	0.0137964
844.754	0.0138477
844.832	0.0136870
844.910	0.0139146
844.988	0.0138452
845.067	0.0137183
845.145	0.0137861
845.223	0.0137623
845.301	0.0137841
845.379	0.0137544
845.457	0.0137659
845.535	0.0138399
845.613	0.0136840
845.692	0.0136561
845.770	0.0136403
845.848	0.0137520
845.926	0.0137256
846.004	0.0136498
846.082	0.0137908
846.160	0.0137106
846.238	0.0136764
846.317	0.0137110
846.395	0.0137646
846.473	0.0138587
846.551	0.0137885
846.629	0.0137062
846.707	0.0137325
846.785	0.0137255
846.863	0.0137115
846.942	0.0139048
847.020	0.0139233
847.098	0.0138371
847.176	0.0137548
847.254	0.0137083
847.332	0.0138071
847.410	0.0138535
847.488	0.0139078
847.567	0.0139036
847.645	0.0137566
847.723	0.0138531
847.801	0.0138965
847.879	0.0138780
847.957	0.0138665
848.035	0.0137891
848.113	0.0137144
848.192	0.0137681
848.270	0.0137780
848.348	0.0139587
848.426	0.0140572
848.504	0.0138669
848.582	0.0138338
848.660	0.0138995
848.738	0.0138145
848.817	0.0137970
848.895	0.0139295
848.973	0.0138016
849.051	0.0137997
849.129	0.0138833
849.207	0.0138346
849.285	0.0138175
849.363	0.0139120
849.442	0.0138892
849.520	0.0139358
849.598	0.0138993
849.676	0.0139583
849.754	0.0137151
849.832	0.0137156
849.910	0.0138203
849.988	0.0137668
850.067	0.0138506
850.145	0.0138252
850.223	0.0136838
850.301	0.0137296
850.379	0.0135699
850.457	0.0136693
850.535	0.0136109
850.613	0.0136520
850.692	0.0136365
850.770	0.0136745
850.848	0.0135958
850.926	0.0135973
851.004	0.0137159
851.082	0.0134781
851.160	0.0135508
851.238	0.0136625
851.317	0.0136456
851.395	0.0137347
851.473	0.0137067
851.551	0.0135857
851.629	0.0136829
851.707	0.0136221
851.785	0.0135227
851.863	0.0136619
851.942	0.0137997
852.020	0.0139098
852.098	0.0138242
852.176	0.0137720
852.254	0.0137107
852.332	0.0136631
852.410	0.0137417
852.488	0.0138152
852.567	0.0137260
852.645	0.0137450
852.723	0.0138051
852.801	0.0137745
852.879	0.0138019
852.957	0.0137251
853.035	0.0137800
853.113	0.0137719
853.192	0.0136840
853.270	0.0137553
853.348	0.0138418
853.426	0.0137694
853.504	0.0137802
853.582	0.0136203
853.660	0.0137278
853.738	0.0137286
853.817	0.0138924
853.895	0.0138741
853.973	0.0138681
854.051	0.0138611
854.129	0.0137524
854.207	0.0138239
854.285	0.0137769
854.363	0.0136984
854.442	0.0137089
854.520	0.0137672
854.598	0.0138232
854.676	0.0138101
854.754	0.0136870
854.832	0.0138086
854.910	0.0139610
854.988	0.0138427
855.067	0.0136951
855.145	0.0138323
855.223	0.0138801
855.301	0.0138460
855.379	0.0138824
855.457	0.0137409
855.535	0.0139571
855.613	0.0136739
855.692	0.0136839
855.770	0.0138472
855.848	0.0139103
855.926	0.0137447
856.004	0.0137367
856.082	0.0137173
856.160	0.0138034
856.238	0.0137290
856.317	0.0137306
856.395	0.0137338
856.473	0.0138906
856.551	0.0138054
856.629	0.0138495
856.707	0.0138084
856.785	0.0138132
856.863	0.0138493
856.942	0.0139596
857.020	0.0139348
857.098	0.0137717
857.176	0.0138739
857.254	0.0138184
857.332	0.0138918
857.410	0.0139825
857.488	0.0138242
857.567	0.0138470
857.645	0.0138075
857.723	0.0137025
857.801	0.0139103
857.879	0.0137659
857.957	0.0138656
858.035	0.0138521
858.113	0.0139921
858.192	0.0139626
858.270	0.0138140
858.348	0.0138309
858.426	0.0138216
858.504	0.0139456
858.582	0.0138107
858.660	0.0138190
858.738	0.0138884
858.817	0.0138287
858.895	0.0138405
858.973	0.0138847
859.051	0.0139226
859.129	0.0138187
859.207	0.0138667
859.285	0.0138054
859.363	0.0139404
859.442	0.0138457
859.520	0.0140501
859.598	0.0139340
859.676	0.0138338
859.754	0.0138921
859.832	0.0137114
859.910	0.0138537
859.988	0.0138844
860.067	0.0138731
860.145	0.0139548
860.223	0.0138330
860.301	0.0139330
860.379	0.0138724
860.457	0.0138132
860.535	0.0139086
860.613	0.0138738
860.692	0.0138315
860.770	0.0138007
860.848	0.0138946
860.926	0.0137860
861.004	0.0138252
861.082	0.0137771
861.160	0.0137415
861.238	0.0139084
861.317	0.0139486
861.395	0.0137793
861.473	0.0138836
861.551	0.0139079
861.629	0.0138818
861.707	0.0138779
861.785	0.0138677
861.863	0.0138768
861.942	0.0138109
862.020	0.0138939
862.098	0.0139960
862.176	0.0139998
862.254	0.0139491
862.332	0.0139632
862.410	0.0139538
862.488	0.0139582
862.567	0.0140395
862.645	0.0138163
862.723	0.0139747
862.801	0.0139154
862.879	0.0137907
862.957	0.0138519
863.035	0.0137988
863.113	0.0136924
863.192	0.0138599
863.270	0.0138929
863.348	0.0138935
863.426	0.0137656
863.504	0.0137597
863.582	0.0137953
863.660	0.0139072
863.738	0.0138999
863.817	0.0137384
863.895	0.0140503
863.973	0.0138607
864.051	0.0137724
864.129	0.0138414
864.207	0.0138647
864.285	0.0138805
864.363	0.0138216
864.442	0.0138947
864.520	0.0139535
864.598	0.0138926
864.676	0.0138314
864.754	0.0139167
864.832	0.0138489
864.910	0.0138296
864.988	0.0137872
865.067	0.0139129
865.145	0.0138066
865.223	0.0138496
865.301	0.0137729
865.379	0.0139261
865.457	0.0138992
865.535	0.0137774
865.613	0.0138006
865.692	0.0137943
865.770	0.0138232
865.848	0.0136051
865.926	0.0136750
866.004	0.0136208
866.082	0.0137938
866.160	0.0138088
866.238	0.0137144
866.317	0.0138894
866.395	0.0138500
866.473	0.0137617
866.551	0.0137696
866.629	0.0138036
866.707	0.0138788
866.785	0.0139274
866.863	0.0138660
866.942	0.0139130
867.020	0.0138445
867.098	0.0140076
867.176	0.0138725
867.254	0.0137949
867.332	0.0137457
867.410	0.0139952
867.488	0.0138958
867.567	0.0139664
867.645	0.0139234
867.723	0.0140143
867.801	0.0139159
867.879	0.0140411
867.957	0.0138760
868.035	0.0138550
868.113	0.0138322
868.192	0.0137218
868.270	0.0138551
868.348	0.0139392
868.426	0.0138305
868.504	0.0136991
868.582	0.0138021
868.660	0.0139661
868.738	0.0136728
868.817	0.0136750
868.895	0.0138996
868.973	0.0137108
869.051	0.0138406
869.129	0.0136568
869.207	0.0136436
869.285	0.0137561
869.363	0.0138483
869.442	0.0137805
869.520	0.0137086
869.598	0.0138528
869.676	0.0138612
869.754	0.0137684
869.832	0.0137950
869.910	0.0137105
869.988	0.0138594
870.067	0.0138010
870.145	0.0136903
870.223	0.0138296
870.301	0.0138550
870.379	0.0137994
870.457	0.0138293
870.535	0.0138681
870.613	0.0137819
870.692	0.0137691
870.770	0.0137949
870.848	0.0139613
870.926	0.0139429
871.004	0.0137103
871.082	0.0139052
871.160	0.0139592
871.238	0.0138570
871.317	0.0138325
871.395	0.0139356
871.473	0.0137908
871.551	0.0138035
871.629	0.0139594
871.707	0.0137431
871.785	0.0136772
871.863	0.0138215
871.942	0.0138428
872.020	0.0139181
872.098	0.0138688
872.176	0.0137823
872.254	0.0137809
872.332	0.0138866
872.410	0.0137857
872.488	0.0137099
872.567	0.0136883
872.645	0.0137090
872.723	0.0137199
872.801	0.0138134
872.879	0.0138570
872.957	0.0138679
873.035	0.0138065
873.113	0.0137042
873.192	0.0136045
873.270	0.0136836
873.348	0.0136948
873.426	0.0137695
873.504	0.0138956
873.582	0.0138533
873.660	0.0137048
873.738	0.0138052
873.817	0.0136943
873.895	0.0138084
873.973	0.0138807
874.051	0.0137844
874.129	0.0138763
874.207	0.0138068
874.285	0.0138373
874.363	0.0139538
874.442	0.0138465
874.520	0.0137305
874.598	0.0136790
874.676	0.0137554
874.754	0.0137193
874.832	0.0137181
874.910	0.0138251
874.988	0.0138129
875.067	0.0137643
875.145	0.0137464
875.223	0.0137713
875.301	0.0137333
875.379	0.0138059
875.457	0.0136720
875.535	0.0138320
875.613	0.0138644
875.692	0.0137547
875.770	0.0137903
875.848	0.0137361
875.926	0.0136929
876.004	0.0137201
876.082	0.0137836
876.160	0.0138240
876.238	0.0137200
876.317	0.0137428
876.395	0.0136372
876.473	0.0136861
876.551	0.0135921
876.629	0.0137059
876.707	0.0137345
876.785	0.0136131
876.863	0.0137288
876.942	0.0137507
877.020	0.0137177
877.098	0.0138029
877.176	0.0137135
877.254	0.0136072
877.332	0.0135801
877.410	0.0136964
877.488	0.0136660
877.567	0.0137717
877.645	0.0137602
877.723	0.0137786
877.801	0.0136207
877.879	0.0137343
877.957	0.0137403
878.035	0.0137085
878.113	0.0136860
878.192	0.0138293
878.270	0.0137374
878.348	0.0136135
878.426	0.0137573
878.504	0.0136885
878.582	0.0136652
878.660	0.0136700
878.738	0.0135774
878.817	0.0137229
878.895	0.0136323
878.973	0.0136623
879.051	0.0136204
879.129	0.0136795
879.207	0.0136916
879.285	0.0137433
879.363	0.0136947
879.442	0.0136066
879.520	0.0137675
879.598	0.0135646
879.676	0.0136987
879.754	0.0136211
879.832	0.0137481
879.910	0.0137167
879.988	0.0135846
880.067	0.0136044
880.145	0.0137017
880.223	0.0138172
880.301	0.0137405
880.379	0.0137578
880.457	0.0136420
880.535	0.0136169
880.613	0.0137833
880.692	0.0137859
880.770	0.0138088
880.848	0.0136749
880.926	0.0137485
881.004	0.0137944
881.082	0.0137035
881.160	0.0138239
881.238	0.0139915
881.317	0.0137542
881.395	0.0136823
881.473	0.0137620
881.551	0.0137279
881.629	0.0138419
881.707	0.0138005
881.785	0.0138973
881.863	0.0138590
881.942	0.0138132
882.020	0.0137772
882.098	0.0138976
882.176	0.0136969
882.254	0.0137209
882.332	0.0138370
882.410	0.0137073
882.488	0.0138029
882.567	0.0138348
882.645	0.0137764
882.723	0.0137205
882.801	0.0137817
882.879	0.0135215
882.957	0.0137073
883.035	0.0138293
883.113	0.0137389
883.192	0.0136496
883.270	0.0137160
883.348	0.0138623
883.426	0.0137413
883.504	0.0136399
883.582	0.0136530
883.660	0.0137157
883.738	0.0137878
883.817	0.0137246
883.895	0.0137760
883.973	0.0136951
884.051	0.0139539
884.129	0.0138072
884.207	0.0138168
884.285	0.0138218
884.363	0.0137952
884.442	0.0138339
884.520	0.0137799
884.598	0.0137339
884.676	0.0140403
884.754	0.0138391
884.832	0.0137668
884.910	0.0138902
884.988	0.0139728
885.067	0.0138969
885.145	0.0138797
885.223	0.0138292
885.301	0.0138605
885.379	0.0139285
885.457	0.0139748
885.535	0.0138674
885.613	0.0138602
885.692	0.0137876
885.770	0.0138525
885.848	0.0138107
885.926	0.0137586
886.004	0.0138570
886.082	0.0139498
886.160	0.0138580
886.238	0.0138509
886.317	0.0138703
886.395	0.0139304
886.473	0.0137020
886.551	0.0139674
886.629	0.0138465
886.707	0.0138052
886.785	0.0138992
886.863	0.0138408
886.942	0.0139214
887.020	0.0138495
887.098	0.0138794
887.176	0.0140672
887.254	0.0138934
887.332	0.0138651
887.410	0.0138189
887.488	0.0137585
887.567	0.0138888
887.645	0.0139336
887.723	0.0139054
887.801	0.0138460
887.879	0.0138386
887.957	0.0138716
888.035	0.0139079
888.113	0.0138720
888.192	0.0139695
888.270	0.0138877
888.348	0.0138670
888.426	0.0139279
888.504	0.0140945
888.582	0.0139294
888.660	0.0140177
888.738	0.0139108
888.817	0.0138589
888.895	0.0139257
888.973	0.0140229
889.051	0.0139471
889.129	0.0137886
889.207	0.0138972
889.285	0.0139157
889.363	0.0137657
889.442	0.0137785
889.520	0.0137950
889.598	0.0138957
889.676	0.0137722
889.754	0.0137184
889.832	0.0139101
889.910	0.0138551
889.988	0.0137720
890.067	0.0137559
890.145	0.0138657
890.223	0.0137611
890.301	0.0136414
890.379	0.0137967
890.457	0.0137428
890.535	0.0138026
890.613	0.0137523
890.692	0.0137949
890.770	0.0137202
890.848	0.0137105
890.926	0.0137894
891.004	0.0139223
891.082	0.0138635
891.160	0.0138220
891.238	0.0138381
891.317	0.0138660
891.395	0.0139221
891.473	0.0138783
891.551	0.0139449
891.629	0.0138332
891.707	0.0140656
891.785	0.0139883
891.863	0.0139825
891.942	0.0140407
892.020	0.0138986
892.098	0.0139850
892.176	0.0139365
892.254	0.0138945
892.332	0.0139458
892.410	0.0139638
892.488	0.0139876
892.567	0.0139448
892.645	0.0139156
892.723	0.0139534
892.801	0.0138456
892.879	0.0139019
892.957	0.0137030
893.035	0.0136716
893.113	0.0138213
893.192	0.0138438
893.270	0.0138155
893.348	0.0137244
893.426	0.0137571
893.504	0.0138033
893.582	0.0137236
893.660	0.0137376
893.738	0.0138239
893.817	0.0137186
893.895	0.0137563
893.973	0.0137638
894.051	0.0136315
894.129	0.0137434
894.207	0.0136130
894.285	0.0136326
894.363	0.0136287
894.442	0.0136329
894.520	0.0137534
894.598	0.0136359
894.676	0.0136618
894.754	0.0137656
894.832	0.0137063
894.910	0.0135828
894.988	0.0137022
895.067	0.0136445
895.145	0.0138268
895.223	0.0137605
895.301	0.0136707
895.379	0.0137745
895.457	0.0138116
895.535	0.0137221
895.613	0.0137431
895.692	0.0137342
895.770	0.0137077
895.848	0.0137343
895.926	0.0137429
896.004	0.0137821
896.082	0.0137825
896.160	0.0138903
896.238	0.0137846
896.317	0.0137531
896.395	0.0137502
896.473	0.0138499
896.551	0.0137223
896.629	0.0138938
896.707	0.0138341
896.785	0.0137286
896.863	0.0137984
896.942	0.0137992
897.020	0.0138139
897.098	0.0138969
897.176	0.0137146
897.254	0.0137417
897.332	0.0138982
897.410	0.0137032
897.488	0.0136642
897.567	0.0137766
897.645	0.0137214
897.723	0.0137804
897.801	0.0137572
897.879	0.0137622
897.957	0.0135952
898.035	0.0137784
898.113	0.0137855
898.192	0.0135953
898.270	0.0136334
898.348	0.0137830
898.426	0.0136197
898.504	0.0137099
898.582	0.0136692
898.660	0.0136563
898.738	0.0136196
898.817	0.0136909
898.895	0.0136526
898.973	0.0137299
899.051	0.0137328
899.129	0.0137235
899.207	0.0136343
899.285	0.0136858
899.363	0.0137431
899.442	0.0136912
899.520	0.0135837
899.598	0.0137811
899.676	0.0137046
899.754	0.0138678
899.832	0.0139145
899.910	0.0138834
899.988	0.0138160
900.067	0.0137915
900.145	0.0138680
900.223	0.0137637
900.301	0.0138624
900.379	0.0138809
900.457	0.0137746
900.535	0.0138809
900.613	0.0138698
900.692	0.0138498
900.770	0.0137485
900.848	0.0138308
900.926	0.0138811
901.004	0.0138437
901.082	0.0138811
901.160	0.0139504
901.238	0.0137867
901.317	0.0138264
901.395	0.0139027
901.473	0.0137139
901.551	0.0137717
901.629	0.0138613
901.707	0.0136134
901.785	0.0137627
901.863	0.0137840
901.942	0.0137794
902.020	0.0138139
902.098	0.0137649
902.176	0.0136764
902.254	0.0137212
902.332	0.0138525
902.410	0.0138158
902.488	0.0138679
902.567	0.0137850
902.645	0.0137508
902.723	0.0137220
902.801	0.0137525
902.879	0.0137273
902.957	0.0138657
903.035	0.0139289
903.113	0.0138283
903.192	0.0137906
903.270	0.0137975
903.348	0.0138924
903.426	0.0138493
903.504	0.0138161
903.582	0.0137583
903.660	0.0137873
903.738	0.0137389
903.817	0.0139037
903.895	0.0138695
903.973	0.0137494
904.051	0.0137696
904.129	0.0137922
904.207	0.0138142
904.285	0.0137473
904.363	0.0137601
904.442	0.0136196
904.520	0.0137124
904.598	0.0136195
904.676	0.0136972
904.754	0.0138403
904.832	0.0139051
904.910	0.0137893
904.988	0.0138654
905.067	0.0138217
905.145	0.0138077
905.223	0.0139266
905.301	0.0138660
905.379	0.0139847
905.457	0.0138879
905.535	0.0138229
905.613	0.0139031
905.692	0.0139094
905.770	0.0137659
905.848	0.0138011
905.926	0.0138556
906.004	0.0137508
906.082	0.0138677
906.160	0.0138743
906.238	0.0138364
906.317	0.0137547
906.395	0.0138056
906.473	0.0137179
906.551	0.0137646
906.629	0.0138059
906.707	0.0137112
906.785	0.0137876
906.863	0.0138152
906.942	0.0139330
907.020	0.0138584
907.098	0.0138002
907.176	0.0138522
907.254	0.0138869
907.332	0.0138576
907.410	0.0139156
907.488	0.0137199
907.567	0.0136973
907.645	0.0139381
907.723	0.0138985
907.801	0.0137429
907.879	0.0138509
907.957	0.0138535
908.035	0.0137524
908.113	0.0138098
908.192	0.0138792
908.270	0.0138860
908.348	0.0138907
908.426	0.0137872
908.504	0.0137961
908.582	0.0139259
908.660	0.0138004
908.738	0.0136956
908.817	0.0138588
908.895	0.0137918
908.973	0.0137543
909.051	0.0138024
909.129	0.0137882
909.207	0.0138443
909.285	0.0137815
909.363	0.0137675
909.442	0.0139026
909.520	0.0137748
909.598	0.0138359
909.676	0.0138974
909.754	0.0138256
909.832	0.0139513
909.910	0.0137914
909.988	0.0138701
910.067	0.0138894
910.145	0.0139223
910.223	0.0137994
910.301	0.0139559
910.379	0.0139008
910.457	0.0137463
910.535	0.0137329
910.613	0.0137975
910.692	0.0138507
910.770	0.0138293
910.848	0.0137796
910.926	0.0138065
911.004	0.0137343
911.082	0.0137804
911.160	0.0138570
911.238	0.0137225
911.317	0.0138061
911.395	0.0139294
911.473	0.0136620
911.551	0.0139230
911.629	0.0138414
911.707	0.0137206
911.785	0.0137941
911.863	0.0137693
911.942	0.0138068
912.020	0.0138464
912.098	0.0137498
912.176	0.0137882
912.254	0.0138386
912.332	0.0136651
912.410	0.0137381
912.488	0.0136995
912.567	0.0138485
912.645	0.0137688
912.723	0.0137906
912.801	0.0138190
912.879	0.0138321
912.957	0.0139027
913.035	0.0137781
913.113	0.0137846
913.192	0.0137900
913.270	0.0137332
913.348	0.0138432
913.426	0.0137155
913.504	0.0138229
913.582	0.0139227
913.660	0.0138296
913.738	0.0138435
913.817	0.0138591
913.895	0.0136896
913.973	0.0137968
914.051	0.0138379
914.129	0.0138860
914.207	0.0136932
914.285	0.0137059
914.363	0.0138959
914.442	0.0137334
914.520	0.0136647
914.598	0.0137340
914.676	0.0138689
914.754	0.0136658
914.832	0.0137160
914.910	0.0138249
914.988	0.0137000
915.067	0.0137440
915.145	0.0137814
915.223	0.0136588
915.301	0.0138412
915.379	0.0137800
915.457	0.0137560
915.535	0.0137939
915.613	0.0138109
915.692	0.0138004
915.770	0.0136946
915.848	0.0137017
915.926	0.0137704
916.004	0.0136902
916.082	0.0138505
916.160	0.0137140
916.238	0.0136504
916.317	0.0137312
916.395	0.0137849
916.473	0.0136648
916.551	0.0138082
916.629	0.0137656
916.707	0.0138708
916.785	0.0138622
916.863	0.0137385
916.942	0.0137647
917.020	0.0138986
917.098	0.0138784
917.176	0.0138744
917.254	0.0138530
917.332	0.0140125
917.410	0.0138852
917.488	0.0138779
917.567	0.0139469
917.645	0.0137864
917.723	0.0140034
917.801	0.0138644
917.879	0.0139758
917.957	0.0139268
918.035	0.0138078
918.113	0.0138980
918.192	0.0139057
918.270	0.0137742
918.348	0.0138026
918.426	0.0139782
918.504	0.0137699
918.582	0.0137084
918.660	0.0138132
918.738	0.0139068
918.817	0.0136903
918.895	0.0136620
918.973	0.0136569
919.051	0.0138132
919.129	0.0137771
919.207	0.0137563
919.285	0.0137587
919.363	0.0136378
919.442	0.0137970
919.520	0.0136799
919.598	0.0138485
919.676	0.0138051
919.754	0.0138036
919.832	0.0136903
919.910	0.0137647
