06/29/2022	21:32:29	Ver.	4.1	UNKNOWN
Optical Delay	600.001752	Delta X		0.078125	Sweeps	1	Scan Rate	0/0
Coordinates	Axis 1	NaN	Axis 2	NaN	Axis 3	NaN	Axis 4	NaN	Axis 5	NaN	Axis 6	0.000000
TX Power	0.000000	RX Power	0.000000

600.002	0.0164535
600.080	0.0163925
600.158	0.0165282
600.236	0.0165182
600.314	0.0163580
600.392	0.0164879
600.471	0.0164939
600.549	0.0164708
600.627	0.0164645
600.705	0.0164976
600.783	0.0164389
600.861	0.0164809
600.939	0.0164030
601.017	0.0164143
601.096	0.0164952
601.174	0.0165091
601.252	0.0164978
601.330	0.0165292
601.408	0.0164890
601.486	0.0164679
601.564	0.0163877
601.642	0.0164666
601.721	0.0165294
601.799	0.0164732
601.877	0.0166101
601.955	0.0166309
602.033	0.0164948
602.111	0.0165440
602.189	0.0165017
602.267	0.0163832
602.346	0.0165994
602.424	0.0165240
602.502	0.0165937
602.580	0.0164778
602.658	0.0165871
602.736	0.0163971
602.814	0.0164217
602.892	0.0165263
602.971	0.0165143
603.049	0.0165343
603.127	0.0164110
603.205	0.0165474
603.283	0.0164936
603.361	0.0165709
603.439	0.0165268
603.517	0.0165889
603.596	0.0166055
603.674	0.0165087
603.752	0.0163548
603.830	0.0165401
603.908	0.0165012
603.986	0.0166731
604.064	0.0165505
604.142	0.0164877
604.221	0.0164772
604.299	0.0165168
604.377	0.0166988
604.455	0.0165440
604.533	0.0166121
604.611	0.0167504
604.689	0.0165749
604.767	0.0165260
604.846	0.0166244
604.924	0.0167275
605.002	0.0166506
605.080	0.0165800
605.158	0.0164587
605.236	0.0166051
605.314	0.0164706
605.392	0.0164826
605.471	0.0166654
605.549	0.0166435
605.627	0.0166384
605.705	0.0164912
605.783	0.0164980
605.861	0.0166415
605.939	0.0165626
606.017	0.0165491
606.096	0.0165387
606.174	0.0166790
606.252	0.0166190
606.330	0.0165363
606.408	0.0165544
606.486	0.0164915
606.564	0.0165984
606.642	0.0165757
606.721	0.0165643
606.799	0.0165724
606.877	0.0164707
606.955	0.0166319
607.033	0.0164320
607.111	0.0165352
607.189	0.0164440
607.267	0.0164960
607.346	0.0165089
607.424	0.0165385
607.502	0.0167283
607.580	0.0165946
607.658	0.0165525
607.736	0.0165416
607.814	0.0165034
607.892	0.0164941
607.971	0.0164838
608.049	0.0165234
608.127	0.0165448
608.205	0.0164346
608.283	0.0165303
608.361	0.0164819
608.439	0.0165497
608.517	0.0164458
608.596	0.0165569
608.674	0.0165999
608.752	0.0164566
608.830	0.0164369
608.908	0.0163583
608.986	0.0163574
609.064	0.0165450
609.142	0.0164793
609.221	0.0165468
609.299	0.0165304
609.377	0.0164632
609.455	0.0164469
609.533	0.0164853
609.611	0.0164695
609.689	0.0164089
609.767	0.0164487
609.846	0.0165646
609.924	0.0165002
610.002	0.0164873
610.080	0.0163627
610.158	0.0164548
610.236	0.0162728
610.314	0.0164148
610.392	0.0163879
610.471	0.0164307
610.549	0.0163016
610.627	0.0163479
610.705	0.0162784
610.783	0.0163642
610.861	0.0163266
610.939	0.0163264
611.017	0.0164555
611.096	0.0163319
611.174	0.0163037
611.252	0.0163927
611.330	0.0162719
611.408	0.0162384
611.486	0.0162891
611.564	0.0162743
611.642	0.0162667
611.721	0.0163177
611.799	0.0164277
611.877	0.0163937
611.955	0.0163018
612.033	0.0163582
612.111	0.0163533
612.189	0.0162585
612.267	0.0164392
612.346	0.0162910
612.424	0.0162048
612.502	0.0162504
612.580	0.0164117
612.658	0.0163725
612.736	0.0161953
612.814	0.0162537
612.892	0.0163451
612.971	0.0163869
613.049	0.0163101
613.127	0.0162908
613.205	0.0163271
613.283	0.0162481
613.361	0.0164027
613.439	0.0161900
613.517	0.0164104
613.596	0.0163762
613.674	0.0163239
613.752	0.0161999
613.830	0.0163948
613.908	0.0163609
613.986	0.0162507
614.064	0.0163867
614.142	0.0163196
614.221	0.0163268
614.299	0.0162238
614.377	0.0163841
614.455	0.0164243
614.533	0.0162746
614.611	0.0162900
614.689	0.0163684
614.767	0.0163316
614.846	0.0163538
614.924	0.0165441
615.002	0.0165048
615.080	0.0164560
615.158	0.0163958
615.236	0.0163941
615.314	0.0164584
615.392	0.0163231
615.471	0.0164144
615.549	0.0165342
615.627	0.0163590
615.705	0.0163358
615.783	0.0164494
615.861	0.0163593
615.939	0.0164323
616.017	0.0163084
616.096	0.0163557
616.174	0.0164388
616.252	0.0163145
616.330	0.0164231
616.408	0.0164223
616.486	0.0163097
616.564	0.0164043
616.642	0.0163902
616.721	0.0163805
616.799	0.0163055
616.877	0.0164231
616.955	0.0164803
617.033	0.0163983
617.111	0.0163454
617.189	0.0163775
617.267	0.0164214
617.346	0.0163499
617.424	0.0163711
617.502	0.0164025
617.580	0.0164861
617.658	0.0162157
617.736	0.0163314
617.814	0.0163979
617.892	0.0163631
617.971	0.0163751
618.049	0.0163914
618.127	0.0164390
618.205	0.0163737
618.283	0.0163449
618.361	0.0164756
618.439	0.0162949
618.517	0.0162622
618.596	0.0162579
618.674	0.0162281
618.752	0.0163435
618.830	0.0162845
618.908	0.0163243
618.986	0.0163243
619.064	0.0164748
619.142	0.0164590
619.221	0.0162329
619.299	0.0163161
619.377	0.0163705
619.455	0.0162968
619.533	0.0163458
619.611	0.0164483
619.689	0.0162519
619.767	0.0164149
619.846	0.0163113
619.924	0.0163615
620.002	0.0163322
620.080	0.0164570
620.158	0.0164715
620.236	0.0162698
620.314	0.0162533
620.392	0.0162303
620.471	0.0163532
620.549	0.0165375
620.627	0.0163647
620.705	0.0163442
620.783	0.0163692
620.861	0.0163727
620.939	0.0163696
621.017	0.0166232
621.096	0.0163953
621.174	0.0162959
621.252	0.0163449
621.330	0.0164236
621.408	0.0163032
621.486	0.0163762
621.564	0.0165227
621.642	0.0163893
621.721	0.0164343
621.799	0.0162727
621.877	0.0163407
621.955	0.0163654
622.033	0.0163326
622.111	0.0164639
622.189	0.0163858
622.267	0.0163635
622.346	0.0164623
622.424	0.0163512
622.502	0.0163277
622.580	0.0162781
622.658	0.0162688
622.736	0.0164775
622.814	0.0164587
622.892	0.0163078
622.971	0.0162967
623.049	0.0162975
623.127	0.0163467
623.205	0.0163843
623.283	0.0163910
623.361	0.0163948
623.439	0.0163890
623.517	0.0164171
623.596	0.0163557
623.674	0.0162972
623.752	0.0164589
623.830	0.0165619
623.908	0.0164494
623.986	0.0164769
624.064	0.0164719
624.142	0.0163724
624.221	0.0163493
624.299	0.0162836
624.377	0.0164891
624.455	0.0163720
624.533	0.0164637
624.611	0.0163983
624.689	0.0163995
624.767	0.0164393
624.846	0.0163527
624.924	0.0165091
625.002	0.0165143
625.080	0.0164494
625.158	0.0164347
625.236	0.0165614
625.314	0.0164131
625.392	0.0165276
625.471	0.0163664
625.549	0.0165357
625.627	0.0165954
625.705	0.0164706
625.783	0.0164439
625.861	0.0164310
625.939	0.0166716
626.017	0.0165341
626.096	0.0163884
626.174	0.0166290
626.252	0.0164810
626.330	0.0164153
626.408	0.0165227
626.486	0.0167185
626.564	0.0164363
626.642	0.0164180
626.721	0.0164635
626.799	0.0164407
626.877	0.0164558
626.955	0.0165646
627.033	0.0164751
627.111	0.0164095
627.189	0.0165419
627.267	0.0165262
627.346	0.0164963
627.424	0.0163929
627.502	0.0164631
627.580	0.0165166
627.658	0.0165255
627.736	0.0163911
627.814	0.0164426
627.892	0.0164274
627.971	0.0165199
628.049	0.0165521
628.127	0.0164352
628.205	0.0164656
628.283	0.0164606
628.361	0.0165225
628.439	0.0164750
628.517	0.0164919
628.596	0.0164948
628.674	0.0164628
628.752	0.0165948
628.830	0.0163815
628.908	0.0164187
628.986	0.0165884
629.064	0.0164954
629.142	0.0164428
629.221	0.0165687
629.299	0.0164224
629.377	0.0164825
629.455	0.0164529
629.533	0.0164538
629.611	0.0164812
629.689	0.0164898
629.767	0.0166815
629.846	0.0164526
629.924	0.0165140
630.002	0.0164777
630.080	0.0164548
630.158	0.0164291
630.236	0.0164297
630.314	0.0164921
630.392	0.0164917
630.471	0.0164819
630.549	0.0165173
630.627	0.0164971
630.705	0.0164407
630.783	0.0164516
630.861	0.0164081
630.939	0.0164463
631.017	0.0165601
631.096	0.0165435
631.174	0.0165406
631.252	0.0164917
631.330	0.0164594
631.408	0.0164935
631.486	0.0164719
631.564	0.0165321
631.642	0.0163840
631.721	0.0165440
631.799	0.0164463
631.877	0.0165781
631.955	0.0163930
632.033	0.0165970
632.111	0.0166118
632.189	0.0165073
632.267	0.0164870
632.346	0.0162823
632.424	0.0165395
632.502	0.0166167
632.580	0.0165115
632.658	0.0163712
632.736	0.0166054
632.814	0.0164947
632.892	0.0165301
632.971	0.0165533
633.049	0.0165099
633.127	0.0164692
633.205	0.0164153
633.283	0.0165331
633.361	0.0166093
633.439	0.0165031
633.517	0.0165785
633.596	0.0165795
633.674	0.0164796
633.752	0.0164341
633.830	0.0165408
633.908	0.0165452
633.986	0.0166201
634.064	0.0164481
634.142	0.0165097
634.221	0.0164671
634.299	0.0164878
634.377	0.0164673
634.455	0.0164305
634.533	0.0164267
634.611	0.0164225
634.689	0.0165359
634.767	0.0165881
634.846	0.0164164
634.924	0.0163570
635.002	0.0164645
635.080	0.0166167
635.158	0.0164977
635.236	0.0163818
635.314	0.0164779
635.392	0.0163441
635.471	0.0164388
635.549	0.0165256
635.627	0.0165341
635.705	0.0165021
635.783	0.0164747
635.861	0.0164970
635.939	0.0164149
636.017	0.0165546
636.096	0.0163967
636.174	0.0165393
636.252	0.0166161
636.330	0.0164274
636.408	0.0164796
636.486	0.0165139
636.564	0.0164640
636.642	0.0165193
636.721	0.0164487
636.799	0.0164428
636.877	0.0164906
636.955	0.0165662
637.033	0.0164417
637.111	0.0165092
637.189	0.0165605
637.267	0.0164632
637.346	0.0164521
637.424	0.0164887
637.502	0.0164934
637.580	0.0164862
637.658	0.0163383
637.736	0.0164837
637.814	0.0163869
637.892	0.0164328
637.971	0.0163729
638.049	0.0164464
638.127	0.0163820
638.205	0.0163248
638.283	0.0165038
638.361	0.0163537
638.439	0.0163049
638.517	0.0163206
638.596	0.0164218
638.674	0.0163433
638.752	0.0163902
638.830	0.0165182
638.908	0.0164539
638.986	0.0163844
639.064	0.0163571
639.142	0.0163884
639.221	0.0164562
639.299	0.0163760
639.377	0.0163773
639.455	0.0164597
639.533	0.0166129
639.611	0.0164876
639.689	0.0163053
639.767	0.0164295
639.846	0.0164884
639.924	0.0164657
640.002	0.0164635
640.080	0.0163256
640.158	0.0164311
640.236	0.0163799
640.314	0.0164751
640.392	0.0164856
640.471	0.0163856
640.549	0.0161755
640.627	0.0163870
640.705	0.0164532
640.783	0.0164536
640.861	0.0164825
640.939	0.0163618
641.017	0.0164502
641.096	0.0163558
641.174	0.0164083
641.252	0.0163168
641.330	0.0164904
641.408	0.0164302
641.486	0.0164699
641.564	0.0165848
641.642	0.0164281
641.721	0.0163327
641.799	0.0165305
641.877	0.0163409
641.955	0.0162489
642.033	0.0163529
642.111	0.0163654
642.189	0.0164243
642.267	0.0164598
642.346	0.0163525
642.424	0.0162956
642.502	0.0163914
642.580	0.0164378
642.658	0.0162914
642.736	0.0163893
642.814	0.0163525
642.892	0.0164977
642.971	0.0165482
643.049	0.0165268
643.127	0.0164520
643.205	0.0164695
643.283	0.0164845
643.361	0.0164642
643.439	0.0164661
643.517	0.0163515
643.596	0.0163283
643.674	0.0164516
643.752	0.0164238
643.830	0.0165878
643.908	0.0165986
643.986	0.0164813
644.064	0.0164546
644.142	0.0164010
644.221	0.0164349
644.299	0.0164801
644.377	0.0163556
644.455	0.0165387
644.533	0.0166104
644.611	0.0165597
644.689	0.0165237
644.767	0.0165019
644.846	0.0165024
644.924	0.0164211
645.002	0.0163610
645.080	0.0165264
645.158	0.0165643
645.236	0.0163900
645.314	0.0165247
645.392	0.0165806
645.471	0.0166165
645.549	0.0165556
645.627	0.0166178
645.705	0.0164993
645.783	0.0164507
645.861	0.0166116
645.939	0.0164945
646.017	0.0165269
646.096	0.0164632
646.174	0.0163617
646.252	0.0165302
646.330	0.0165286
646.408	0.0164921
646.486	0.0165459
646.564	0.0164614
646.642	0.0163911
646.721	0.0164673
646.799	0.0164405
646.877	0.0164640
646.955	0.0164464
647.033	0.0163511
647.111	0.0165508
647.189	0.0164172
647.267	0.0164878
647.346	0.0164960
647.424	0.0163508
647.502	0.0163352
647.580	0.0164767
647.658	0.0165254
647.736	0.0163945
647.814	0.0164143
647.892	0.0165083
647.971	0.0164326
648.049	0.0165809
648.127	0.0165752
648.205	0.0164971
648.283	0.0164098
648.361	0.0162309
648.439	0.0165932
648.517	0.0165400
648.596	0.0163976
648.674	0.0165408
648.752	0.0164459
648.830	0.0166248
648.908	0.0164418
648.986	0.0164946
649.064	0.0165070
649.142	0.0164201
649.221	0.0164403
649.299	0.0165381
649.377	0.0163444
649.455	0.0166316
649.533	0.0165022
649.611	0.0164733
649.689	0.0165762
649.767	0.0164347
649.846	0.0165604
649.924	0.0166403
650.002	0.0165916
650.080	0.0165029
650.158	0.0166048
650.236	0.0165894
650.314	0.0164269
650.392	0.0165701
650.471	0.0164523
650.549	0.0164760
650.627	0.0164086
650.705	0.0164897
650.783	0.0163625
650.861	0.0163981
650.939	0.0162957
651.017	0.0164924
651.096	0.0165579
651.174	0.0165313
651.252	0.0163589
651.330	0.0164102
651.408	0.0165363
651.486	0.0164840
651.564	0.0163706
651.642	0.0165381
651.721	0.0165752
651.799	0.0163694
651.877	0.0164908
651.955	0.0164748
652.033	0.0164766
652.111	0.0165290
652.189	0.0164793
652.267	0.0163919
652.346	0.0164516
652.424	0.0164428
652.502	0.0164357
652.580	0.0163813
652.658	0.0164520
652.736	0.0165324
652.814	0.0163903
652.892	0.0164570
652.971	0.0164052
653.049	0.0164840
653.127	0.0165650
653.205	0.0164853
653.283	0.0165521
653.361	0.0164287
653.439	0.0164665
653.517	0.0165601
653.596	0.0164186
653.674	0.0166001
653.752	0.0165413
653.830	0.0166233
653.908	0.0166087
653.986	0.0164501
654.064	0.0165293
654.142	0.0166293
654.221	0.0165307
654.299	0.0163995
654.377	0.0165387
654.455	0.0167546
654.533	0.0165500
654.611	0.0165249
654.689	0.0166198
654.767	0.0166301
654.846	0.0164667
654.924	0.0166493
655.002	0.0166439
655.080	0.0165498
655.158	0.0166172
655.236	0.0164568
655.314	0.0164659
655.392	0.0164924
655.471	0.0165640
655.549	0.0165990
655.627	0.0166357
655.705	0.0164708
655.783	0.0164590
655.861	0.0165708
655.939	0.0167104
656.017	0.0166340
656.096	0.0164731
656.174	0.0165656
656.252	0.0164999
656.330	0.0165916
656.408	0.0165851
656.486	0.0165942
656.564	0.0167177
656.642	0.0166351
656.721	0.0165827
656.799	0.0165942
656.877	0.0165612
656.955	0.0166366
657.033	0.0167631
657.111	0.0166251
657.189	0.0166263
657.267	0.0165938
657.346	0.0166232
657.424	0.0167074
657.502	0.0165637
657.580	0.0164543
657.658	0.0166555
657.736	0.0167031
657.814	0.0166403
657.892	0.0166209
657.971	0.0165374
658.049	0.0165485
658.127	0.0167285
658.205	0.0167941
658.283	0.0166730
658.361	0.0165839
658.439	0.0167165
658.517	0.0166770
658.596	0.0166132
658.674	0.0165611
658.752	0.0166270
658.830	0.0166153
658.908	0.0166580
658.986	0.0165531
659.064	0.0165579
659.142	0.0165382
659.221	0.0166150
659.299	0.0165659
659.377	0.0165307
659.455	0.0165238
659.533	0.0164446
659.611	0.0164111
659.689	0.0165694
659.767	0.0165067
659.846	0.0165724
659.924	0.0164869
660.002	0.0164853
660.080	0.0164262
660.158	0.0164079
660.236	0.0165710
660.314	0.0166256
660.392	0.0166399
660.471	0.0164810
660.549	0.0164864
660.627	0.0165077
660.705	0.0165537
660.783	0.0165578
660.861	0.0163723
660.939	0.0166080
661.017	0.0165679
661.096	0.0164582
661.174	0.0164194
661.252	0.0164716
661.330	0.0164079
661.408	0.0165868
661.486	0.0165616
661.564	0.0164236
661.642	0.0164894
661.721	0.0166599
661.799	0.0165155
661.877	0.0164683
661.955	0.0163618
662.033	0.0164957
662.111	0.0163909
662.189	0.0164069
662.267	0.0166129
662.346	0.0164440
662.424	0.0163548
662.502	0.0165019
662.580	0.0165031
662.658	0.0164199
662.736	0.0163113
662.814	0.0164536
662.892	0.0163921
662.971	0.0165372
663.049	0.0165527
663.127	0.0164581
663.205	0.0164915
663.283	0.0164080
663.361	0.0163934
663.439	0.0165440
663.517	0.0163783
663.596	0.0164246
663.674	0.0164465
663.752	0.0164381
663.830	0.0164055
663.908	0.0163636
663.986	0.0163326
664.064	0.0165109
664.142	0.0164072
664.221	0.0164249
664.299	0.0164555
664.377	0.0163644
664.455	0.0163706
664.533	0.0164011
664.611	0.0164233
664.689	0.0164756
664.767	0.0162518
664.846	0.0164713
664.924	0.0164297
665.002	0.0164029
665.080	0.0164098
665.158	0.0163888
665.236	0.0164390
665.314	0.0163721
665.392	0.0163497
665.471	0.0164634
665.549	0.0164753
665.627	0.0166130
665.705	0.0165249
665.783	0.0163458
665.861	0.0164575
665.939	0.0163702
666.017	0.0165861
666.096	0.0163803
666.174	0.0164503
666.252	0.0165295
666.330	0.0164511
666.408	0.0163316
666.486	0.0163467
666.564	0.0164210
666.642	0.0165758
666.721	0.0164886
666.799	0.0164569
666.877	0.0164870
666.955	0.0164748
667.033	0.0164520
667.111	0.0163313
667.189	0.0163723
667.267	0.0164448
667.346	0.0164251
667.424	0.0164438
667.502	0.0164641
667.580	0.0164149
667.658	0.0164783
667.736	0.0165359
667.814	0.0163893
667.892	0.0163455
667.971	0.0163824
668.049	0.0165439
668.127	0.0164244
668.205	0.0163102
668.283	0.0164342
668.361	0.0164371
668.439	0.0164890
668.517	0.0165240
668.596	0.0163474
668.674	0.0163133
668.752	0.0163737
668.830	0.0163523
668.908	0.0164163
668.986	0.0164201
669.064	0.0164074
669.142	0.0164341
669.221	0.0164033
669.299	0.0164240
669.377	0.0164381
669.455	0.0163454
669.533	0.0163865
669.611	0.0163733
669.689	0.0163240
669.767	0.0163946
669.846	0.0163562
669.924	0.0163624
670.002	0.0164630
670.080	0.0162971
670.158	0.0164674
670.236	0.0163834
670.314	0.0163388
670.392	0.0165797
670.471	0.0164062
670.549	0.0163705
670.627	0.0163058
670.705	0.0163013
670.783	0.0164669
670.861	0.0164034
670.939	0.0163307
671.017	0.0164438
671.096	0.0164330
671.174	0.0164318
671.252	0.0163308
671.330	0.0162959
671.408	0.0163499
671.486	0.0164067
671.564	0.0162011
671.642	0.0162393
671.721	0.0164979
671.799	0.0163729
671.877	0.0162926
671.955	0.0164348
672.033	0.0163096
672.111	0.0162859
672.189	0.0162912
672.267	0.0162703
672.346	0.0163120
672.424	0.0163904
672.502	0.0163239
672.580	0.0164040
672.658	0.0164349
672.736	0.0164540
672.814	0.0163834
672.892	0.0163022
672.971	0.0163065
673.049	0.0164761
673.127	0.0163521
673.205	0.0163210
673.283	0.0163120
673.361	0.0164606
673.439	0.0163059
673.517	0.0164248
673.596	0.0163340
673.674	0.0162788
673.752	0.0164340
673.830	0.0163295
673.908	0.0162992
673.986	0.0164696
674.064	0.0164178
674.142	0.0163241
674.221	0.0164100
674.299	0.0163670
674.377	0.0163720
674.455	0.0163406
674.533	0.0163107
674.611	0.0163679
674.689	0.0164848
674.767	0.0162916
674.846	0.0163456
674.924	0.0162920
675.002	0.0163128
675.080	0.0164992
675.158	0.0164594
675.236	0.0163651
675.314	0.0162844
675.392	0.0163328
675.471	0.0164554
675.549	0.0163108
675.627	0.0163097
675.705	0.0163593
675.783	0.0163558
675.861	0.0164532
675.939	0.0162855
676.017	0.0163403
676.096	0.0162814
676.174	0.0164534
676.252	0.0163948
676.330	0.0163966
676.408	0.0163744
676.486	0.0163064
676.564	0.0164085
676.642	0.0164855
676.721	0.0164088
676.799	0.0164878
676.877	0.0164166
676.955	0.0164613
677.033	0.0162873
677.111	0.0163120
677.189	0.0164705
677.267	0.0164753
677.346	0.0164428
677.424	0.0163851
677.502	0.0164664
677.580	0.0164315
677.658	0.0164100
677.736	0.0164191
677.814	0.0163915
677.892	0.0165907
677.971	0.0164581
678.049	0.0164153
678.127	0.0163454
678.205	0.0164999
678.283	0.0164958
678.361	0.0164706
678.439	0.0163627
678.517	0.0164510
678.596	0.0165002
678.674	0.0165362
678.752	0.0164017
678.830	0.0163397
678.908	0.0165842
678.986	0.0164885
679.064	0.0165047
679.142	0.0164795
679.221	0.0165000
679.299	0.0165172
679.377	0.0165285
679.455	0.0165847
679.533	0.0165115
679.611	0.0165068
679.689	0.0164470
679.767	0.0164352
679.846	0.0165446
679.924	0.0165504
680.002	0.0165107
680.080	0.0164572
680.158	0.0164552
680.236	0.0165918
680.314	0.0165086
680.392	0.0166458
680.471	0.0165584
680.549	0.0164227
680.627	0.0164760
680.705	0.0166600
680.783	0.0165186
680.861	0.0165369
680.939	0.0164841
681.017	0.0166801
681.096	0.0166457
681.174	0.0165481
681.252	0.0165665
681.330	0.0164041
681.408	0.0163919
681.486	0.0164429
681.564	0.0164198
681.642	0.0164400
681.721	0.0166162
681.799	0.0165591
681.877	0.0164393
681.955	0.0164234
682.033	0.0163618
682.111	0.0163963
682.189	0.0163036
682.267	0.0164858
682.346	0.0164523
682.424	0.0163568
682.502	0.0164564
682.580	0.0163654
682.658	0.0163696
682.736	0.0165548
682.814	0.0164274
682.892	0.0163658
682.971	0.0163847
683.049	0.0164868
683.127	0.0163707
683.205	0.0162940
683.283	0.0164842
683.361	0.0164197
683.439	0.0164371
683.517	0.0164375
683.596	0.0163187
683.674	0.0163789
683.752	0.0163472
683.830	0.0163715
683.908	0.0163477
683.986	0.0164072
684.064	0.0165333
684.142	0.0163299
684.221	0.0163665
684.299	0.0163947
684.377	0.0163815
684.455	0.0163235
684.533	0.0164983
684.611	0.0164538
684.689	0.0163607
684.767	0.0162791
684.846	0.0164177
684.924	0.0165526
685.002	0.0163746
685.080	0.0162344
685.158	0.0164417
685.236	0.0164004
685.314	0.0162833
685.392	0.0164975
685.471	0.0164170
685.549	0.0164270
685.627	0.0162510
685.705	0.0162486
685.783	0.0163742
685.861	0.0163670
685.939	0.0163937
686.017	0.0163603
686.096	0.0164359
686.174	0.0165034
686.252	0.0163098
686.330	0.0163942
686.408	0.0163129
686.486	0.0163482
686.564	0.0162952
686.642	0.0162788
686.721	0.0162558
686.799	0.0162455
686.877	0.0163562
686.955	0.0163799
687.033	0.0163787
687.111	0.0164515
687.189	0.0162234
687.267	0.0162969
687.346	0.0163339
687.424	0.0162621
687.502	0.0163329
687.580	0.0162223
687.658	0.0163087
687.736	0.0162440
687.814	0.0163811
687.892	0.0163250
687.971	0.0163583
688.049	0.0163297
688.127	0.0163409
688.205	0.0163087
688.283	0.0164243
688.361	0.0163100
688.439	0.0162315
688.517	0.0164558
688.596	0.0164089
688.674	0.0163917
688.752	0.0163021
688.830	0.0163605
688.908	0.0164200
688.986	0.0164750
689.064	0.0163577
689.142	0.0163300
689.221	0.0162031
689.299	0.0163059
689.377	0.0163463
689.455	0.0163050
689.533	0.0163123
689.611	0.0162930
689.689	0.0163445
689.767	0.0162276
689.846	0.0162828
689.924	0.0163311
690.002	0.0161002
690.080	0.0161703
690.158	0.0162682
690.236	0.0163436
690.314	0.0163100
690.392	0.0161684
690.471	0.0161750
690.549	0.0160909
690.627	0.0162260
690.705	0.0163496
690.783	0.0162758
690.861	0.0163101
690.939	0.0162292
691.017	0.0164294
691.096	0.0162438
691.174	0.0162429
691.252	0.0162158
691.330	0.0163644
691.408	0.0163542
691.486	0.0163937
691.564	0.0164221
691.642	0.0164683
691.721	0.0162528
691.799	0.0163133
691.877	0.0164543
691.955	0.0165482
692.033	0.0163898
692.111	0.0164069
692.189	0.0165203
692.267	0.0165044
692.346	0.0163253
692.424	0.0163628
692.502	0.0165976
692.580	0.0165575
692.658	0.0163246
692.736	0.0164176
692.814	0.0165899
692.892	0.0165283
692.971	0.0165319
693.049	0.0163422
693.127	0.0164456
693.205	0.0162939
693.283	0.0162621
693.361	0.0163628
693.439	0.0164073
693.517	0.0164404
693.596	0.0164594
693.674	0.0164722
693.752	0.0163985
693.830	0.0164095
693.908	0.0162964
693.986	0.0164288
694.064	0.0164822
694.142	0.0164175
694.221	0.0165125
694.299	0.0165154
694.377	0.0164993
694.455	0.0165270
694.533	0.0164302
694.611	0.0164230
694.689	0.0164295
694.767	0.0163460
694.846	0.0165329
694.924	0.0165396
695.002	0.0163214
695.080	0.0162775
695.158	0.0163737
695.236	0.0164130
695.314	0.0163879
695.392	0.0163053
695.471	0.0164186
695.549	0.0163877
695.627	0.0162233
695.705	0.0162125
695.783	0.0163087
695.861	0.0162765
695.939	0.0161335
696.017	0.0164492
696.096	0.0163120
696.174	0.0163208
696.252	0.0162811
696.330	0.0162671
696.408	0.0163450
696.486	0.0163249
696.564	0.0163773
696.642	0.0165166
696.721	0.0164683
696.799	0.0163199
696.877	0.0164841
696.955	0.0164655
697.033	0.0164034
697.111	0.0164291
697.189	0.0165009
697.267	0.0165120
697.346	0.0163902
697.424	0.0165945
697.502	0.0165047
697.580	0.0164483
697.658	0.0165224
697.736	0.0164571
697.814	0.0164469
697.892	0.0165068
697.971	0.0164626
698.049	0.0164271
698.127	0.0163647
698.205	0.0164316
698.283	0.0164422
698.361	0.0163564
698.439	0.0164573
698.517	0.0163184
698.596	0.0163774
698.674	0.0162560
698.752	0.0164245
698.830	0.0164803
698.908	0.0163022
698.986	0.0164610
699.064	0.0163781
699.142	0.0164202
699.221	0.0164501
699.299	0.0164566
699.377	0.0164563
699.455	0.0163244
699.533	0.0163853
699.611	0.0164259
699.689	0.0165249
699.767	0.0164447
699.846	0.0163409
699.924	0.0162628
700.002	0.0163699
700.080	0.0161967
700.158	0.0162058
700.236	0.0163464
700.314	0.0162939
700.392	0.0161990
700.471	0.0161765
700.549	0.0161788
700.627	0.0162605
700.705	0.0162709
700.783	0.0163210
700.861	0.0163116
700.939	0.0164604
701.017	0.0163934
701.096	0.0163501
701.174	0.0166021
701.252	0.0167121
701.330	0.0165539
701.408	0.0165946
701.486	0.0167347
701.564	0.0165439
701.642	0.0165475
701.721	0.0166117
701.799	0.0167597
701.877	0.0166392
701.955	0.0166734
702.033	0.0166056
702.111	0.0165794
702.189	0.0164988
702.267	0.0165189
702.346	0.0164294
702.424	0.0164541
702.502	0.0164471
702.580	0.0163783
702.658	0.0164034
702.736	0.0163746
702.814	0.0163985
702.892	0.0163339
702.971	0.0163882
703.049	0.0164334
703.127	0.0163974
703.205	0.0163602
703.283	0.0162920
703.361	0.0163633
703.439	0.0164531
703.517	0.0165611
703.596	0.0163271
703.674	0.0161845
703.752	0.0163740
703.830	0.0164758
703.908	0.0165988
703.986	0.0165321
704.064	0.0164645
704.142	0.0163017
704.221	0.0165417
704.299	0.0164697
704.377	0.0164292
704.455	0.0164785
704.533	0.0164628
704.611	0.0164039
704.689	0.0165023
704.767	0.0163748
704.846	0.0164139
704.924	0.0165174
705.002	0.0163992
705.080	0.0163182
705.158	0.0163222
705.236	0.0163752
705.314	0.0164664
705.392	0.0163592
705.471	0.0161534
705.549	0.0162430
705.627	0.0162548
705.705	0.0163829
705.783	0.0163821
705.861	0.0163714
705.939	0.0163235
706.017	0.0162615
706.096	0.0163641
706.174	0.0163852
706.252	0.0164758
706.330	0.0164610
706.408	0.0165406
706.486	0.0165239
706.564	0.0164851
706.642	0.0164548
706.721	0.0165515
706.799	0.0163602
706.877	0.0164462
706.955	0.0163968
707.033	0.0165781
707.111	0.0165079
707.189	0.0165605
707.267	0.0166015
707.346	0.0166425
707.424	0.0165881
707.502	0.0167220
707.580	0.0165977
707.658	0.0167030
707.736	0.0165078
707.814	0.0164896
707.892	0.0166304
707.971	0.0166778
708.049	0.0167848
708.127	0.0166711
708.205	0.0166178
708.283	0.0166171
708.361	0.0168518
708.439	0.0167210
708.517	0.0165413
708.596	0.0166868
708.674	0.0166004
708.752	0.0166066
708.830	0.0165998
708.908	0.0165090
708.986	0.0164518
709.064	0.0164393
709.142	0.0163783
709.221	0.0165583
709.299	0.0164523
709.377	0.0166325
709.455	0.0164564
709.533	0.0165517
709.611	0.0165226
709.689	0.0165088
709.767	0.0166476
709.846	0.0164964
709.924	0.0166179
710.002	0.0165405
710.080	0.0165224
710.158	0.0165768
710.236	0.0166366
710.314	0.0165656
710.392	0.0165150
710.471	0.0164696
710.549	0.0164488
710.627	0.0163592
710.705	0.0163784
710.783	0.0162959
710.861	0.0161604
710.939	0.0161044
711.017	0.0161911
711.096	0.0161333
711.174	0.0160748
711.252	0.0159949
711.330	0.0160112
711.408	0.0161312
711.486	0.0160023
711.564	0.0160500
711.642	0.0163979
711.721	0.0161799
711.799	0.0162116
711.877	0.0161253
711.955	0.0163605
712.033	0.0164438
712.111	0.0164132
712.189	0.0165424
712.267	0.0166424
712.346	0.0166100
712.424	0.0165871
712.502	0.0166056
712.580	0.0166373
712.658	0.0165828
712.736	0.0165739
712.814	0.0166978
712.892	0.0167305
712.971	0.0167658
713.049	0.0166943
713.127	0.0165981
713.205	0.0167498
713.283	0.0166570
713.361	0.0166727
713.439	0.0167221
713.517	0.0167147
713.596	0.0165868
713.674	0.0165829
713.752	0.0166959
713.830	0.0165096
713.908	0.0166932
713.986	0.0166554
714.064	0.0166346
714.142	0.0166412
714.221	0.0166237
714.299	0.0166952
714.377	0.0167221
714.455	0.0166058
714.533	0.0166656
714.611	0.0165652
714.689	0.0166330
714.767	0.0167799
714.846	0.0166582
714.924	0.0166376
715.002	0.0168045
715.080	0.0166662
715.158	0.0166998
715.236	0.0165763
715.314	0.0166260
715.392	0.0165365
715.471	0.0165979
715.549	0.0166261
715.627	0.0166679
715.705	0.0165176
715.783	0.0164188
715.861	0.0163864
715.939	0.0162672
716.017	0.0162743
716.096	0.0162888
716.174	0.0162625
716.252	0.0162417
716.330	0.0162153
716.408	0.0161207
716.486	0.0160674
716.564	0.0159603
716.642	0.0160159
716.721	0.0159055
716.799	0.0159114
716.877	0.0161613
716.955	0.0160675
717.033	0.0160826
717.111	0.0161710
717.189	0.0160333
717.267	0.0162230
717.346	0.0163075
717.424	0.0162777
717.502	0.0162640
717.580	0.0164478
717.658	0.0163631
717.736	0.0162437
717.814	0.0162668
717.892	0.0163037
717.971	0.0163177
718.049	0.0165604
718.127	0.0164051
718.205	0.0164471
718.283	0.0165699
718.361	0.0164257
718.439	0.0164452
718.517	0.0166116
718.596	0.0165529
718.674	0.0165891
718.752	0.0166329
718.830	0.0167120
718.908	0.0166920
718.986	0.0166286
719.064	0.0167169
719.142	0.0166074
719.221	0.0167856
719.299	0.0168677
719.377	0.0167052
719.455	0.0167534
719.533	0.0168177
719.611	0.0169556
719.689	0.0167295
719.767	0.0166880
719.846	0.0168208
719.924	0.0167850
720.002	0.0166515
720.080	0.0165723
720.158	0.0163824
720.236	0.0164658
720.314	0.0164342
720.392	0.0163227
720.471	0.0164243
720.549	0.0162880
720.627	0.0162026
720.705	0.0164769
720.783	0.0162067
720.861	0.0163249
720.939	0.0162035
721.017	0.0164590
721.096	0.0164337
721.174	0.0166154
721.252	0.0162830
721.330	0.0165282
721.408	0.0165039
721.486	0.0164601
721.564	0.0167854
721.642	0.0166992
721.721	0.0164867
721.799	0.0165383
721.877	0.0165107
721.955	0.0165839
722.033	0.0165358
722.111	0.0164169
722.189	0.0164442
722.267	0.0163437
722.346	0.0160933
722.424	0.0162688
722.502	0.0160973
722.580	0.0160137
722.658	0.0161189
722.736	0.0159571
722.814	0.0160471
722.892	0.0159743
722.971	0.0159266
723.049	0.0160154
723.127	0.0160847
723.205	0.0161790
723.283	0.0161562
723.361	0.0162522
723.439	0.0163239
723.517	0.0164202
723.596	0.0165475
723.674	0.0165219
723.752	0.0165942
723.830	0.0165370
723.908	0.0166284
723.986	0.0167046
724.064	0.0168060
724.142	0.0168487
724.221	0.0169733
724.299	0.0169054
724.377	0.0168882
724.455	0.0167452
724.533	0.0168469
724.611	0.0169217
724.689	0.0168787
724.767	0.0169424
724.846	0.0167795
724.924	0.0167422
725.002	0.0169003
725.080	0.0166729
725.158	0.0166788
725.236	0.0165686
725.314	0.0166393
725.392	0.0167133
725.471	0.0166161
725.549	0.0165135
725.627	0.0165716
725.705	0.0166147
725.783	0.0165502
725.861	0.0165126
725.939	0.0165426
726.017	0.0164692
726.096	0.0164975
726.174	0.0163754
726.252	0.0163944
726.330	0.0165276
726.408	0.0164740
726.486	0.0163870
726.564	0.0165486
726.642	0.0165019
726.721	0.0164118
726.799	0.0164244
726.877	0.0163979
726.955	0.0163253
727.033	0.0163250
727.111	0.0163608
727.189	0.0162434
727.267	0.0161903
727.346	0.0163190
727.424	0.0161572
727.502	0.0163572
727.580	0.0163148
727.658	0.0162413
727.736	0.0163741
727.814	0.0164984
727.892	0.0163703
727.971	0.0163106
728.049	0.0163171
728.127	0.0166380
728.205	0.0165585
728.283	0.0166122
728.361	0.0165706
728.439	0.0166485
728.517	0.0165603
728.596	0.0167114
728.674	0.0167069
728.752	0.0166171
728.830	0.0165247
728.908	0.0166351
728.986	0.0167072
729.064	0.0165965
729.142	0.0165502
729.221	0.0167137
729.299	0.0167902
729.377	0.0168199
729.455	0.0167445
729.533	0.0165154
729.611	0.0166947
729.689	0.0166306
729.767	0.0165382
729.846	0.0167241
729.924	0.0166646
730.002	0.0165126
730.080	0.0166155
730.158	0.0165027
730.236	0.0165260
730.314	0.0164959
730.392	0.0165303
730.471	0.0164871
730.549	0.0164001
730.627	0.0162998
730.705	0.0163905
730.783	0.0163332
730.861	0.0163547
730.939	0.0163935
731.017	0.0161507
731.096	0.0161636
731.174	0.0164204
731.252	0.0163505
731.330	0.0165126
731.408	0.0163869
731.486	0.0166152
731.564	0.0164986
731.642	0.0165516
731.721	0.0166250
731.799	0.0167055
731.877	0.0166185
731.955	0.0166483
732.033	0.0167309
732.111	0.0168152
732.189	0.0167877
732.267	0.0169260
732.346	0.0169921
732.424	0.0167563
732.502	0.0168546
732.580	0.0167915
732.658	0.0167850
732.736	0.0168336
732.814	0.0166898
732.892	0.0167396
732.971	0.0166756
733.049	0.0165168
733.127	0.0166930
733.205	0.0165089
733.283	0.0163377
733.361	0.0164193
733.439	0.0164440
733.517	0.0163442
733.596	0.0162602
733.674	0.0162416
733.752	0.0162952
733.830	0.0162801
733.908	0.0162215
733.986	0.0163119
734.064	0.0161937
734.142	0.0163674
734.221	0.0163768
734.299	0.0163549
734.377	0.0163505
734.455	0.0164299
734.533	0.0164195
734.611	0.0164899
734.689	0.0163360
734.767	0.0164392
734.846	0.0165353
734.924	0.0165526
735.002	0.0166571
735.080	0.0164789
735.158	0.0165907
735.236	0.0167367
735.314	0.0165815
735.392	0.0166775
735.471	0.0167065
735.549	0.0167624
735.627	0.0168274
735.705	0.0167236
735.783	0.0167050
735.861	0.0167963
735.939	0.0166822
736.017	0.0166373
736.096	0.0167381
736.174	0.0168783
736.252	0.0167821
736.330	0.0167274
736.408	0.0167862
736.486	0.0166376
736.564	0.0166373
736.642	0.0167539
736.721	0.0167436
736.799	0.0165875
736.877	0.0165108
736.955	0.0164268
737.033	0.0165118
737.111	0.0165459
737.189	0.0165134
737.267	0.0164379
737.346	0.0162684
737.424	0.0163390
737.502	0.0161298
737.580	0.0162549
737.658	0.0163689
737.736	0.0164332
737.814	0.0162904
737.892	0.0163441
737.971	0.0163799
738.049	0.0164019
738.127	0.0164619
738.205	0.0163804
738.283	0.0163746
738.361	0.0165062
738.439	0.0164278
738.517	0.0164432
738.596	0.0165359
738.674	0.0164914
738.752	0.0164144
738.830	0.0164217
738.908	0.0162674
738.986	0.0162256
739.064	0.0164407
739.142	0.0162273
739.221	0.0161951
739.299	0.0162916
739.377	0.0163616
739.455	0.0162703
739.533	0.0162028
739.611	0.0163348
739.689	0.0163708
739.767	0.0164713
739.846	0.0165220
739.924	0.0166239
740.002	0.0165504
740.080	0.0167425
740.158	0.0166723
740.236	0.0165819
740.314	0.0168826
740.392	0.0167765
740.471	0.0168685
740.549	0.0169335
740.627	0.0168322
740.705	0.0169488
740.783	0.0170428
740.861	0.0168972
740.939	0.0167060
741.017	0.0166652
741.096	0.0167076
741.174	0.0167888
741.252	0.0165824
741.330	0.0165289
741.408	0.0165707
741.486	0.0164590
741.564	0.0162963
741.642	0.0162427
741.721	0.0162105
741.799	0.0162180
741.877	0.0159484
741.955	0.0160449
742.033	0.0161867
742.111	0.0162067
742.189	0.0160378
742.267	0.0160287
742.346	0.0161069
742.424	0.0161908
742.502	0.0161852
742.580	0.0164012
742.658	0.0162542
742.736	0.0162555
742.814	0.0164964
742.892	0.0164252
742.971	0.0165722
743.049	0.0165801
743.127	0.0165770
743.205	0.0166651
743.283	0.0164405
743.361	0.0165553
743.439	0.0164778
743.517	0.0164547
743.596	0.0162965
743.674	0.0162781
743.752	0.0160954
743.830	0.0162182
743.908	0.0161731
743.986	0.0160046
744.064	0.0158219
744.142	0.0159534
744.221	0.0159683
744.299	0.0157668
744.377	0.0161505
744.455	0.0161243
744.533	0.0159948
744.611	0.0160922
744.689	0.0162215
744.767	0.0162037
744.846	0.0163229
744.924	0.0165181
745.002	0.0165749
745.080	0.0167005
745.158	0.0165960
745.236	0.0167949
745.314	0.0170472
745.392	0.0168989
745.471	0.0169685
745.549	0.0171588
745.627	0.0171248
745.705	0.0169828
745.783	0.0169691
745.861	0.0169603
745.939	0.0168245
746.017	0.0167822
746.096	0.0167906
746.174	0.0165250
746.252	0.0164319
746.330	0.0165273
746.408	0.0163261
746.486	0.0164462
746.564	0.0162096
746.642	0.0161581
746.721	0.0162556
746.799	0.0161775
746.877	0.0161647
746.955	0.0162302
747.033	0.0161710
747.111	0.0162710
747.189	0.0163244
747.267	0.0162109
747.346	0.0163493
747.424	0.0161419
747.502	0.0163083
747.580	0.0163851
747.658	0.0162424
747.736	0.0162501
747.814	0.0163037
747.892	0.0162179
747.971	0.0162440
748.049	0.0163424
748.127	0.0163061
748.205	0.0161707
748.283	0.0160329
748.361	0.0161873
748.439	0.0162381
748.517	0.0162025
748.596	0.0162302
748.674	0.0161890
748.752	0.0164537
748.830	0.0164271
748.908	0.0165119
748.986	0.0166160
749.064	0.0165625
749.142	0.0165435
749.221	0.0167805
749.299	0.0167497
749.377	0.0167517
749.455	0.0168713
749.533	0.0169415
749.611	0.0169971
749.689	0.0169538
749.767	0.0169265
749.846	0.0168925
749.924	0.0168565
750.002	0.0167810
750.080	0.0167696
750.158	0.0167213
750.236	0.0167886
750.314	0.0166515
750.392	0.0165569
750.471	0.0165162
750.549	0.0165807
750.627	0.0164555
750.705	0.0164066
750.783	0.0163772
750.861	0.0161188
750.939	0.0161954
751.017	0.0161058
751.096	0.0160342
751.174	0.0160625
751.252	0.0161684
751.330	0.0161846
751.408	0.0160815
751.486	0.0159892
751.564	0.0161008
751.642	0.0160803
751.721	0.0162355
751.799	0.0161729
751.877	0.0162487
751.955	0.0162378
752.033	0.0163181
752.111	0.0163789
752.189	0.0164270
752.267	0.0164143
752.346	0.0164124
752.424	0.0164893
752.502	0.0164774
752.580	0.0163318
752.658	0.0164050
752.736	0.0163696
752.814	0.0163856
752.892	0.0163383
752.971	0.0164291
753.049	0.0164617
753.127	0.0164629
753.205	0.0165308
753.283	0.0164753
753.361	0.0164360
753.439	0.0165304
753.517	0.0165617
753.596	0.0165653
753.674	0.0167483
753.752	0.0165775
753.830	0.0165987
753.908	0.0166196
753.986	0.0165993
754.064	0.0166496
754.142	0.0165820
754.221	0.0165238
754.299	0.0166094
754.377	0.0165166
754.455	0.0164314
754.533	0.0164487
754.611	0.0163703
754.689	0.0162621
754.767	0.0162631
754.846	0.0161066
754.924	0.0161326
755.002	0.0161691
755.080	0.0160726
755.158	0.0160283
755.236	0.0160728
755.314	0.0160640
755.392	0.0158916
755.471	0.0160139
755.549	0.0161713
755.627	0.0162005
755.705	0.0161297
755.783	0.0161413
755.861	0.0162366
755.939	0.0163563
756.017	0.0163446
756.096	0.0164426
756.174	0.0164001
756.252	0.0164384
756.330	0.0166225
756.408	0.0166561
756.486	0.0166015
756.564	0.0164117
756.642	0.0166778
756.721	0.0166632
756.799	0.0166575
756.877	0.0165884
756.955	0.0165309
757.033	0.0166190
757.111	0.0166782
757.189	0.0167174
757.267	0.0165539
757.346	0.0165736
757.424	0.0165004
757.502	0.0166254
757.580	0.0165841
757.658	0.0164796
757.736	0.0166673
757.814	0.0164571
757.892	0.0164695
757.971	0.0165955
758.049	0.0165547
758.127	0.0163962
758.205	0.0164090
758.283	0.0163400
758.361	0.0163020
758.439	0.0162551
758.517	0.0163084
758.596	0.0162276
758.674	0.0162132
758.752	0.0160767
758.830	0.0161461
758.908	0.0160944
758.986	0.0160430
759.064	0.0162209
759.142	0.0161924
759.221	0.0161718
759.299	0.0162196
759.377	0.0162906
759.455	0.0163264
759.533	0.0163593
759.611	0.0165001
759.689	0.0164039
759.767	0.0163018
759.846	0.0164236
759.924	0.0165674
760.002	0.0166328
760.080	0.0164836
760.158	0.0165251
760.236	0.0164974
760.314	0.0164306
760.392	0.0164661
760.471	0.0164735
760.549	0.0164691
760.627	0.0164883
760.705	0.0164715
760.783	0.0164797
760.861	0.0163645
760.939	0.0164154
761.017	0.0164160
761.096	0.0164217
761.174	0.0163392
761.252	0.0164012
761.330	0.0164500
761.408	0.0165327
761.486	0.0163458
761.564	0.0164859
761.642	0.0164967
761.721	0.0165521
761.799	0.0164709
761.877	0.0165623
761.955	0.0164729
762.033	0.0164949
762.111	0.0165337
762.189	0.0166067
762.267	0.0165790
762.346	0.0165586
762.424	0.0165889
762.502	0.0164931
762.580	0.0164904
762.658	0.0164086
762.736	0.0164950
762.814	0.0164552
762.892	0.0164465
762.971	0.0165115
763.049	0.0162966
763.127	0.0163663
763.205	0.0163165
763.283	0.0162692
763.361	0.0161121
763.439	0.0163290
763.517	0.0161591
763.596	0.0163605
763.674	0.0162961
763.752	0.0162993
763.830	0.0162221
763.908	0.0161899
763.986	0.0164073
764.064	0.0161758
764.142	0.0163117
764.221	0.0164510
764.299	0.0164405
764.377	0.0163106
764.455	0.0163866
764.533	0.0163278
764.611	0.0164146
764.689	0.0164057
764.767	0.0164938
764.846	0.0164700
764.924	0.0165423
765.002	0.0166212
765.080	0.0165428
765.158	0.0164249
765.236	0.0165257
765.314	0.0164983
765.392	0.0164180
765.471	0.0164771
765.549	0.0165040
765.627	0.0164613
765.705	0.0163210
765.783	0.0164390
765.861	0.0164415
765.939	0.0163041
766.017	0.0163901
766.096	0.0163408
766.174	0.0164680
766.252	0.0164211
766.330	0.0162356
766.408	0.0164487
766.486	0.0163760
766.564	0.0162154
766.642	0.0162000
766.721	0.0161568
766.799	0.0161639
766.877	0.0161823
766.955	0.0162697
767.033	0.0161681
767.111	0.0162124
767.189	0.0162289
767.267	0.0162495
767.346	0.0162000
767.424	0.0162753
767.502	0.0162679
767.580	0.0162524
767.658	0.0162698
767.736	0.0163454
767.814	0.0162739
767.892	0.0163803
767.971	0.0164017
768.049	0.0165637
768.127	0.0164552
768.205	0.0165131
768.283	0.0165505
768.361	0.0166632
768.439	0.0166776
768.517	0.0167974
768.596	0.0168192
768.674	0.0166941
768.752	0.0168351
768.830	0.0169006
768.908	0.0167465
768.986	0.0166769
769.064	0.0166451
769.142	0.0166017
769.221	0.0166080
769.299	0.0164409
769.377	0.0165517
769.455	0.0164867
769.533	0.0163698
769.611	0.0162723
769.689	0.0162222
769.767	0.0162656
769.846	0.0163145
769.924	0.0162154
770.002	0.0161263
770.080	0.0161125
770.158	0.0161436
770.236	0.0161354
770.314	0.0161838
770.392	0.0162231
770.471	0.0162449
770.549	0.0160906
770.627	0.0162296
770.705	0.0163996
770.783	0.0163931
770.861	0.0165115
770.939	0.0164951
771.017	0.0162735
771.096	0.0165483
771.174	0.0164741
771.252	0.0164020
771.330	0.0164522
771.408	0.0164183
771.486	0.0163914
771.564	0.0164956
771.642	0.0165270
771.721	0.0162975
771.799	0.0164170
771.877	0.0164651
771.955	0.0163291
772.033	0.0163239
772.111	0.0163837
772.189	0.0161341
772.267	0.0163495
772.346	0.0163506
772.424	0.0163597
772.502	0.0163091
772.580	0.0163165
772.658	0.0162750
772.736	0.0162217
772.814	0.0161727
772.892	0.0163103
772.971	0.0161604
773.049	0.0163226
773.127	0.0162698
773.205	0.0162476
773.283	0.0164222
773.361	0.0162394
773.439	0.0163552
773.517	0.0163816
773.596	0.0163696
773.674	0.0163405
773.752	0.0163973
773.830	0.0164143
773.908	0.0164241
773.986	0.0164014
774.064	0.0163361
774.142	0.0164233
774.221	0.0163849
774.299	0.0163156
774.377	0.0164271
774.455	0.0164576
774.533	0.0164302
774.611	0.0162350
774.689	0.0162603
774.767	0.0163562
774.846	0.0163425
774.924	0.0163181
775.002	0.0162247
775.080	0.0163625
775.158	0.0163472
775.236	0.0163453
775.314	0.0164127
775.392	0.0163473
775.471	0.0163471
775.549	0.0163303
775.627	0.0164376
775.705	0.0164339
775.783	0.0163702
775.861	0.0163170
775.939	0.0165233
776.017	0.0163998
776.096	0.0165013
776.174	0.0163811
776.252	0.0166083
776.330	0.0165401
776.408	0.0164136
776.486	0.0163972
776.564	0.0163577
776.642	0.0164938
776.721	0.0165009
776.799	0.0163118
776.877	0.0163674
776.955	0.0163989
777.033	0.0164475
777.111	0.0163660
777.189	0.0163714
777.267	0.0163178
777.346	0.0162477
777.424	0.0164429
777.502	0.0163767
777.580	0.0163161
777.658	0.0161732
777.736	0.0163094
777.814	0.0164193
777.892	0.0162426
777.971	0.0164150
778.049	0.0161893
778.127	0.0162637
778.205	0.0163696
778.283	0.0161741
778.361	0.0163173
778.439	0.0164265
778.517	0.0162935
778.596	0.0163675
778.674	0.0163287
778.752	0.0164564
778.830	0.0164285
778.908	0.0163378
778.986	0.0163475
779.064	0.0163169
779.142	0.0163741
779.221	0.0163098
779.299	0.0163443
779.377	0.0163312
779.455	0.0163368
779.533	0.0162723
779.611	0.0162405
779.689	0.0161969
779.767	0.0160694
779.846	0.0163602
779.924	0.0160537
780.002	0.0162088
780.080	0.0161001
780.158	0.0160412
780.236	0.0161700
780.314	0.0162352
780.392	0.0161751
780.471	0.0162582
780.549	0.0162257
780.627	0.0163188
780.705	0.0163107
780.783	0.0165780
780.861	0.0164556
780.939	0.0164877
781.017	0.0163853
781.096	0.0163609
781.174	0.0165012
781.252	0.0165054
781.330	0.0164957
781.408	0.0165793
781.486	0.0165169
781.564	0.0165201
781.642	0.0164057
781.721	0.0165030
781.799	0.0165449
781.877	0.0163206
781.955	0.0164680
782.033	0.0164937
782.111	0.0165080
782.189	0.0164355
782.267	0.0164498
782.346	0.0163064
782.424	0.0164146
782.502	0.0163768
782.580	0.0165012
782.658	0.0162502
782.736	0.0163059
782.814	0.0164532
782.892	0.0162943
782.971	0.0164977
783.049	0.0164749
783.127	0.0164811
783.205	0.0164651
783.283	0.0164796
783.361	0.0164350
783.439	0.0166246
783.517	0.0163831
783.596	0.0166198
783.674	0.0166731
783.752	0.0166795
783.830	0.0165521
783.908	0.0166463
783.986	0.0167454
784.064	0.0166253
784.142	0.0165907
784.221	0.0164991
784.299	0.0165328
784.377	0.0165954
784.455	0.0165533
784.533	0.0164825
784.611	0.0163660
784.689	0.0163469
784.767	0.0164822
784.846	0.0164691
784.924	0.0164970
785.002	0.0164292
785.080	0.0163721
785.158	0.0164794
785.236	0.0164426
785.314	0.0163863
785.392	0.0163673
785.471	0.0164349
785.549	0.0164859
785.627	0.0164870
785.705	0.0164299
785.783	0.0164300
785.861	0.0163885
785.939	0.0164376
786.017	0.0165507
786.096	0.0165534
786.174	0.0165652
786.252	0.0167104
786.330	0.0165976
786.408	0.0163850
786.486	0.0165517
786.564	0.0166593
786.642	0.0166093
786.721	0.0166142
786.799	0.0166714
786.877	0.0165131
786.955	0.0165775
787.033	0.0165724
787.111	0.0164526
787.189	0.0165934
787.267	0.0164442
787.346	0.0165174
787.424	0.0164311
787.502	0.0165587
787.580	0.0165218
787.658	0.0165971
787.736	0.0165029
787.814	0.0164451
787.892	0.0166042
787.971	0.0165821
788.049	0.0165858
788.127	0.0164363
788.205	0.0165692
788.283	0.0165107
788.361	0.0164951
788.439	0.0166298
788.517	0.0165984
788.596	0.0165637
788.674	0.0167033
788.752	0.0166881
788.830	0.0166908
788.908	0.0167381
788.986	0.0167638
789.064	0.0166415
789.142	0.0167303
789.221	0.0165974
789.299	0.0165805
789.377	0.0165997
789.455	0.0164857
789.533	0.0164968
789.611	0.0165386
789.689	0.0164866
789.767	0.0163665
789.846	0.0164059
789.924	0.0163602
790.002	0.0162109
790.080	0.0163165
790.158	0.0164119
790.236	0.0163042
790.314	0.0162745
790.392	0.0162270
790.471	0.0162793
790.549	0.0163518
790.627	0.0163354
790.705	0.0164587
790.783	0.0163229
790.861	0.0163448
790.939	0.0163788
791.017	0.0165552
791.096	0.0164243
791.174	0.0165207
791.252	0.0164542
791.330	0.0164106
791.408	0.0166250
791.486	0.0167313
791.564	0.0165483
791.642	0.0165835
791.721	0.0165516
791.799	0.0164587
791.877	0.0165398
791.955	0.0165717
792.033	0.0165456
792.111	0.0166237
792.189	0.0164983
792.267	0.0163615
792.346	0.0165430
792.424	0.0163401
792.502	0.0164200
792.580	0.0165199
792.658	0.0162739
792.736	0.0161629
792.814	0.0163396
792.892	0.0163094
792.971	0.0163186
793.049	0.0164565
793.127	0.0165349
793.205	0.0163463
793.283	0.0163267
793.361	0.0164558
793.439	0.0164297
793.517	0.0163852
793.596	0.0164478
793.674	0.0165064
793.752	0.0164455
793.830	0.0166807
793.908	0.0165976
793.986	0.0164034
794.064	0.0166368
794.142	0.0166154
794.221	0.0165743
794.299	0.0165296
794.377	0.0165668
794.455	0.0166843
794.533	0.0165964
794.611	0.0165407
794.689	0.0164698
794.767	0.0164764
794.846	0.0165240
794.924	0.0163332
795.002	0.0163055
795.080	0.0162319
795.158	0.0162260
795.236	0.0160907
795.314	0.0161581
795.392	0.0162874
795.471	0.0162886
795.549	0.0163179
795.627	0.0161327
795.705	0.0163810
795.783	0.0162537
795.861	0.0163085
795.939	0.0163976
796.017	0.0162967
796.096	0.0163283
796.174	0.0164891
796.252	0.0163799
796.330	0.0165148
796.408	0.0166495
796.486	0.0165205
796.564	0.0166444
796.642	0.0165052
796.721	0.0166056
796.799	0.0165675
796.877	0.0165216
796.955	0.0164812
797.033	0.0164409
797.111	0.0164468
797.189	0.0163618
797.267	0.0163992
797.346	0.0165016
797.424	0.0162782
797.502	0.0164734
797.580	0.0164600
797.658	0.0164985
797.736	0.0163258
797.814	0.0163419
797.892	0.0163775
797.971	0.0163453
798.049	0.0163393
798.127	0.0164365
798.205	0.0162458
798.283	0.0162765
798.361	0.0163064
798.439	0.0162598
798.517	0.0164146
798.596	0.0164089
798.674	0.0163303
798.752	0.0163740
798.830	0.0164803
798.908	0.0163502
798.986	0.0164129
799.064	0.0165054
799.142	0.0164632
799.221	0.0163345
799.299	0.0165011
799.377	0.0165887
799.455	0.0165354
799.533	0.0164543
799.611	0.0164669
799.689	0.0165479
799.767	0.0166553
799.846	0.0166010
799.924	0.0165499
800.002	0.0165977
800.080	0.0163792
800.158	0.0161927
800.236	0.0163651
800.314	0.0164695
800.392	0.0162258
800.471	0.0163113
800.549	0.0162784
800.627	0.0163069
800.705	0.0162234
800.783	0.0160663
800.861	0.0161469
800.939	0.0161887
801.017	0.0160941
801.096	0.0161484
801.174	0.0161985
801.252	0.0161904
801.330	0.0161697
801.408	0.0162753
801.486	0.0163004
801.564	0.0161442
801.642	0.0161508
801.721	0.0163239
801.799	0.0164688
801.877	0.0163777
801.955	0.0163730
802.033	0.0163163
802.111	0.0163869
802.189	0.0164541
802.267	0.0164130
802.346	0.0165150
802.424	0.0163357
802.502	0.0164010
802.580	0.0162746
802.658	0.0163838
802.736	0.0164061
802.814	0.0164664
802.892	0.0164398
802.971	0.0164172
803.049	0.0162636
803.127	0.0163509
803.205	0.0163058
803.283	0.0163512
803.361	0.0163995
803.439	0.0163128
803.517	0.0164082
803.596	0.0164001
803.674	0.0162532
803.752	0.0163152
803.830	0.0162994
803.908	0.0165160
803.986	0.0162325
804.064	0.0162781
804.142	0.0163509
804.221	0.0162311
804.299	0.0163644
804.377	0.0162586
804.455	0.0163405
804.533	0.0163394
804.611	0.0164468
804.689	0.0164057
804.767	0.0164734
804.846	0.0164516
804.924	0.0163805
805.002	0.0164706
805.080	0.0164742
805.158	0.0164893
805.236	0.0165133
805.314	0.0164996
805.392	0.0166761
805.471	0.0167387
805.549	0.0165601
805.627	0.0166347
805.705	0.0164552
805.783	0.0164311
805.861	0.0164363
805.939	0.0165701
806.017	0.0165045
806.096	0.0164806
806.174	0.0162283
806.252	0.0164198
806.330	0.0163122
806.408	0.0164495
806.486	0.0164841
806.564	0.0163609
806.642	0.0163579
806.721	0.0163087
806.799	0.0163354
806.877	0.0164531
806.955	0.0164497
807.033	0.0164023
807.111	0.0164120
807.189	0.0164754
807.267	0.0164477
807.346	0.0164291
807.424	0.0164395
807.502	0.0165102
807.580	0.0164729
807.658	0.0166171
807.736	0.0164742
807.814	0.0165076
807.892	0.0165778
807.971	0.0166502
808.049	0.0166628
808.127	0.0166689
808.205	0.0166599
808.283	0.0165875
808.361	0.0165604
808.439	0.0165228
808.517	0.0165941
808.596	0.0164845
808.674	0.0166228
808.752	0.0163999
808.830	0.0163718
808.908	0.0165125
808.986	0.0165508
809.064	0.0165137
809.142	0.0164081
809.221	0.0165691
809.299	0.0165912
809.377	0.0164371
809.455	0.0164734
809.533	0.0165338
809.611	0.0165074
809.689	0.0165408
809.767	0.0166459
809.846	0.0165023
809.924	0.0166823
810.002	0.0165950
810.080	0.0166307
810.158	0.0167707
810.236	0.0166083
810.314	0.0166503
810.392	0.0165996
810.471	0.0166496
810.549	0.0166658
810.627	0.0167219
810.705	0.0167587
810.783	0.0167313
810.861	0.0167010
810.939	0.0166599
811.017	0.0167554
811.096	0.0168323
811.174	0.0167612
811.252	0.0165721
811.330	0.0166612
811.408	0.0165929
811.486	0.0164759
811.564	0.0165896
811.642	0.0166184
811.721	0.0165415
811.799	0.0165152
811.877	0.0164327
811.955	0.0165788
812.033	0.0164370
812.111	0.0164359
812.189	0.0166478
812.267	0.0165505
812.346	0.0164217
812.424	0.0164368
812.502	0.0163437
812.580	0.0166388
812.658	0.0166246
812.736	0.0166620
812.814	0.0166141
812.892	0.0165425
812.971	0.0164845
813.049	0.0165433
813.127	0.0166611
813.205	0.0166291
813.283	0.0164832
813.361	0.0165641
813.439	0.0165331
813.517	0.0164835
813.596	0.0164336
813.674	0.0165936
813.752	0.0165956
813.830	0.0165240
813.908	0.0165279
813.986	0.0165296
814.064	0.0165720
814.142	0.0166410
814.221	0.0166059
814.299	0.0165888
814.377	0.0165833
814.455	0.0166219
814.533	0.0166914
814.611	0.0166511
814.689	0.0166875
814.767	0.0166486
814.846	0.0165382
814.924	0.0166045
815.002	0.0165093
815.080	0.0165345
815.158	0.0166171
815.236	0.0165996
815.314	0.0165322
815.392	0.0165423
815.471	0.0165389
815.549	0.0166695
815.627	0.0165889
815.705	0.0166057
815.783	0.0166189
815.861	0.0165815
815.939	0.0167211
816.017	0.0167716
816.096	0.0164881
816.174	0.0168266
816.252	0.0166032
816.330	0.0165792
816.408	0.0165960
816.486	0.0165746
816.564	0.0166261
816.642	0.0165732
816.721	0.0166411
816.799	0.0164568
816.877	0.0165836
816.955	0.0163235
817.033	0.0163450
817.111	0.0163402
817.189	0.0164844
817.267	0.0164072
817.346	0.0164677
817.424	0.0163820
817.502	0.0163425
817.580	0.0165108
817.658	0.0163441
817.736	0.0164482
817.814	0.0164143
817.892	0.0165205
817.971	0.0165617
818.049	0.0164964
818.127	0.0165008
818.205	0.0164321
818.283	0.0164849
818.361	0.0165408
818.439	0.0164516
818.517	0.0164394
818.596	0.0165630
818.674	0.0165693
818.752	0.0164333
818.830	0.0164208
818.908	0.0165051
818.986	0.0164665
819.064	0.0164302
819.142	0.0165063
819.221	0.0162106
819.299	0.0163057
819.377	0.0165402
819.455	0.0164329
819.533	0.0165025
819.611	0.0164179
819.689	0.0164589
819.767	0.0163217
819.846	0.0164236
819.924	0.0163482
820.002	0.0164420
820.080	0.0164395
820.158	0.0163860
820.236	0.0164818
820.314	0.0165558
820.392	0.0164987
820.471	0.0163438
820.549	0.0165074
820.627	0.0165864
820.705	0.0164404
820.783	0.0165044
820.861	0.0164027
820.939	0.0164558
821.017	0.0164663
821.096	0.0165965
821.174	0.0164623
821.252	0.0164300
821.330	0.0165863
821.408	0.0166211
821.486	0.0165091
821.564	0.0165363
821.642	0.0165174
821.721	0.0164105
821.799	0.0164854
821.877	0.0165091
821.955	0.0165630
822.033	0.0164574
822.111	0.0164106
822.189	0.0163416
822.267	0.0165054
822.346	0.0164127
822.424	0.0162457
822.502	0.0163750
822.580	0.0163671
822.658	0.0162204
822.736	0.0163650
822.814	0.0163495
822.892	0.0163528
822.971	0.0164829
823.049	0.0164584
823.127	0.0163254
823.205	0.0164349
823.283	0.0163480
823.361	0.0162975
823.439	0.0162268
823.517	0.0163219
823.596	0.0162747
823.674	0.0163670
823.752	0.0161883
823.830	0.0163257
823.908	0.0162545
823.986	0.0162500
824.064	0.0163069
824.142	0.0163612
824.221	0.0164200
824.299	0.0163764
824.377	0.0164788
824.455	0.0164024
824.533	0.0161639
824.611	0.0164587
824.689	0.0164301
824.767	0.0163879
824.846	0.0165426
824.924	0.0163577
825.002	0.0163892
825.080	0.0163272
825.158	0.0163923
825.236	0.0164195
825.314	0.0164019
825.392	0.0164000
825.471	0.0164646
825.549	0.0164738
825.627	0.0164156
825.705	0.0163737
825.783	0.0163572
825.861	0.0163782
825.939	0.0163972
826.017	0.0164329
826.096	0.0163690
826.174	0.0163279
826.252	0.0163630
826.330	0.0164268
826.408	0.0165034
826.486	0.0163979
826.564	0.0163517
826.642	0.0164525
826.721	0.0164866
826.799	0.0163718
826.877	0.0163963
826.955	0.0164989
827.033	0.0165625
827.111	0.0163660
827.189	0.0163951
827.267	0.0161926
827.346	0.0164143
827.424	0.0164346
827.502	0.0164096
827.580	0.0163187
827.658	0.0163937
827.736	0.0164391
827.814	0.0162791
827.892	0.0164362
827.971	0.0165375
828.049	0.0164429
828.127	0.0165781
828.205	0.0164320
828.283	0.0164384
828.361	0.0164621
828.439	0.0165636
828.517	0.0165936
828.596	0.0165846
828.674	0.0164323
828.752	0.0164503
828.830	0.0165239
828.908	0.0165678
828.986	0.0164706
829.064	0.0164798
829.142	0.0166248
829.221	0.0165655
829.299	0.0164693
829.377	0.0164552
829.455	0.0163946
829.533	0.0166084
829.611	0.0165475
829.689	0.0164925
829.767	0.0164924
829.846	0.0165659
829.924	0.0164928
830.002	0.0164301
830.080	0.0164861
830.158	0.0165636
830.236	0.0165379
830.314	0.0165504
830.392	0.0164943
830.471	0.0164208
830.549	0.0164534
830.627	0.0164117
830.705	0.0163951
830.783	0.0163422
830.861	0.0164539
830.939	0.0163180
831.017	0.0163836
831.096	0.0164400
831.174	0.0164734
831.252	0.0163668
831.330	0.0164091
831.408	0.0164088
831.486	0.0164797
831.564	0.0165123
831.642	0.0165820
831.721	0.0165357
831.799	0.0166114
831.877	0.0166015
831.955	0.0166138
832.033	0.0167097
832.111	0.0165192
832.189	0.0166306
832.267	0.0167616
832.346	0.0165994
832.424	0.0167191
832.502	0.0166162
832.580	0.0165872
832.658	0.0165180
832.736	0.0167179
832.814	0.0165439
832.892	0.0165259
832.971	0.0164505
833.049	0.0165074
833.127	0.0166443
833.205	0.0163805
833.283	0.0164874
833.361	0.0163983
833.439	0.0164758
833.517	0.0165170
833.596	0.0165548
833.674	0.0164971
833.752	0.0163920
833.830	0.0164563
833.908	0.0163049
833.986	0.0164153
834.064	0.0164299
834.142	0.0163976
834.221	0.0166042
834.299	0.0163606
834.377	0.0164439
834.455	0.0164620
834.533	0.0164232
834.611	0.0164024
834.689	0.0165067
834.767	0.0164046
834.846	0.0165288
834.924	0.0164294
835.002	0.0163763
835.080	0.0165050
835.158	0.0164349
835.236	0.0163106
835.314	0.0163938
835.392	0.0163853
835.471	0.0163058
835.549	0.0163499
835.627	0.0164481
835.705	0.0163376
835.783	0.0162917
835.861	0.0162682
835.939	0.0161739
836.017	0.0161812
836.096	0.0163923
836.174	0.0162505
836.252	0.0163988
836.330	0.0163633
836.408	0.0163419
836.486	0.0163722
836.564	0.0163721
836.642	0.0163757
836.721	0.0164890
836.799	0.0162749
836.877	0.0165269
836.955	0.0165162
837.033	0.0164408
837.111	0.0165726
837.189	0.0166458
837.267	0.0164737
837.346	0.0163964
837.424	0.0166382
837.502	0.0165603
837.580	0.0165674
837.658	0.0164458
837.736	0.0166046
837.814	0.0165324
837.892	0.0163396
837.971	0.0163448
838.049	0.0163255
838.127	0.0162311
838.205	0.0164657
838.283	0.0162691
838.361	0.0161938
838.439	0.0162820
838.517	0.0162492
838.596	0.0162743
838.674	0.0163873
838.752	0.0162888
838.830	0.0162261
838.908	0.0162920
838.986	0.0163251
839.064	0.0163780
839.142	0.0163308
839.221	0.0163419
839.299	0.0163632
839.377	0.0162708
839.455	0.0164429
839.533	0.0162786
839.611	0.0163969
839.689	0.0164137
839.767	0.0164682
839.846	0.0165114
839.924	0.0164873
840.002	0.0164403
840.080	0.0163929
840.158	0.0163175
840.236	0.0165523
840.314	0.0164017
840.392	0.0165774
840.471	0.0165104
840.549	0.0163850
840.627	0.0163857
840.705	0.0164489
840.783	0.0162810
840.861	0.0162808
840.939	0.0164061
841.017	0.0163494
841.096	0.0162772
841.174	0.0162287
841.252	0.0162749
841.330	0.0162700
841.408	0.0161932
841.486	0.0162200
841.564	0.0163625
841.642	0.0164879
841.721	0.0162127
841.799	0.0163129
841.877	0.0163503
841.955	0.0163214
842.033	0.0162964
842.111	0.0163560
842.189	0.0164129
842.267	0.0164593
842.346	0.0164991
842.424	0.0165783
842.502	0.0164523
842.580	0.0164668
842.658	0.0165641
842.736	0.0166389
842.814	0.0164659
842.892	0.0165030
842.971	0.0165546
843.049	0.0164956
843.127	0.0164954
843.205	0.0163889
843.283	0.0164830
843.361	0.0164591
843.439	0.0164564
843.517	0.0164407
843.596	0.0163675
843.674	0.0164654
843.752	0.0163815
843.830	0.0164073
843.908	0.0163982
843.986	0.0164386
844.064	0.0165068
844.142	0.0164516
844.221	0.0164223
844.299	0.0163438
844.377	0.0163666
844.455	0.0165929
844.533	0.0164937
844.611	0.0164952
844.689	0.0165405
844.767	0.0164361
844.846	0.0164360
844.924	0.0164770
845.002	0.0164196
845.080	0.0166472
845.158	0.0165897
845.236	0.0165033
845.314	0.0165010
845.392	0.0165852
845.471	0.0166743
845.549	0.0167976
845.627	0.0165553
845.705	0.0165960
845.783	0.0166773
845.861	0.0166516
845.939	0.0166076
846.017	0.0166331
846.096	0.0165621
846.174	0.0166270
846.252	0.0164111
846.330	0.0166631
846.408	0.0166185
846.486	0.0164484
846.564	0.0164345
846.642	0.0163919
846.721	0.0165120
846.799	0.0164594
846.877	0.0166385
846.955	0.0164301
847.033	0.0164048
847.111	0.0165198
847.189	0.0164691
847.267	0.0164652
847.346	0.0163831
847.424	0.0165800
847.502	0.0165047
847.580	0.0164669
847.658	0.0165287
847.736	0.0165757
847.814	0.0164928
847.892	0.0165254
847.971	0.0165463
848.049	0.0164875
848.127	0.0165228
848.205	0.0164690
848.283	0.0163785
848.361	0.0164445
848.439	0.0163670
848.517	0.0164334
848.596	0.0165103
848.674	0.0162701
848.752	0.0161969
848.830	0.0162965
848.908	0.0162040
848.986	0.0162977
849.064	0.0164080
849.142	0.0162917
849.221	0.0162168
849.299	0.0163508
849.377	0.0162836
849.455	0.0163474
849.533	0.0163593
849.611	0.0162704
849.689	0.0165187
849.767	0.0164603
849.846	0.0163567
849.924	0.0164315
850.002	0.0164794
850.080	0.0165109
850.158	0.0165207
850.236	0.0165925
850.314	0.0165601
850.392	0.0165542
850.471	0.0165989
850.549	0.0167202
850.627	0.0165631
850.705	0.0165269
850.783	0.0165185
850.861	0.0166578
850.939	0.0165675
851.017	0.0166891
851.096	0.0165150
851.174	0.0165573
851.252	0.0166448
851.330	0.0164775
851.408	0.0165021
851.486	0.0163683
851.564	0.0163828
851.642	0.0163751
851.721	0.0164162
851.799	0.0165380
851.877	0.0164130
851.955	0.0164550
852.033	0.0164188
852.111	0.0163940
852.189	0.0163743
852.267	0.0162758
852.346	0.0165092
852.424	0.0164100
852.502	0.0164325
852.580	0.0164426
852.658	0.0165360
852.736	0.0165564
852.814	0.0163767
852.892	0.0165163
852.971	0.0165932
853.049	0.0163596
853.127	0.0165618
853.205	0.0165592
853.283	0.0166240
853.361	0.0164530
853.439	0.0165946
853.517	0.0165363
853.596	0.0164408
853.674	0.0164176
853.752	0.0164949
853.830	0.0163297
853.908	0.0164157
853.986	0.0164610
854.064	0.0163235
854.142	0.0164088
854.221	0.0165189
854.299	0.0162814
854.377	0.0163800
854.455	0.0163053
854.533	0.0163918
854.611	0.0163669
854.689	0.0162952
854.767	0.0163918
854.846	0.0163641
854.924	0.0163673
855.002	0.0163240
855.080	0.0162776
855.158	0.0162128
855.236	0.0163958
855.314	0.0163859
855.392	0.0163512
855.471	0.0163260
855.549	0.0162487
855.627	0.0163132
855.705	0.0165004
855.783	0.0163324
855.861	0.0163828
855.939	0.0163893
856.017	0.0162694
856.096	0.0163779
856.174	0.0162609
856.252	0.0165752
856.330	0.0165347
856.408	0.0165166
856.486	0.0164656
856.564	0.0164486
856.642	0.0165530
856.721	0.0165173
856.799	0.0164555
856.877	0.0164918
856.955	0.0166383
857.033	0.0165302
857.111	0.0163953
857.189	0.0165047
857.267	0.0166043
857.346	0.0164812
857.424	0.0164826
857.502	0.0164320
857.580	0.0163807
857.658	0.0163932
857.736	0.0163239
857.814	0.0163529
857.892	0.0164523
857.971	0.0164536
858.049	0.0163827
858.127	0.0164506
858.205	0.0163871
858.283	0.0163323
858.361	0.0163509
858.439	0.0164713
858.517	0.0163230
858.596	0.0164243
858.674	0.0163197
858.752	0.0164559
858.830	0.0165036
858.908	0.0164120
858.986	0.0164500
859.064	0.0164343
859.142	0.0163055
859.221	0.0163727
859.299	0.0162966
859.377	0.0164564
859.455	0.0163523
859.533	0.0165451
859.611	0.0164522
859.689	0.0163330
859.767	0.0164074
859.846	0.0165645
859.924	0.0164452
860.002	0.0163251
860.080	0.0165138
860.158	0.0163632
860.236	0.0163545
860.314	0.0162875
860.392	0.0162025
860.471	0.0164083
860.549	0.0164532
860.627	0.0163955
860.705	0.0163846
860.783	0.0163823
860.861	0.0162926
860.939	0.0163842
861.017	0.0162955
861.096	0.0163917
861.174	0.0163654
861.252	0.0162259
861.330	0.0164028
861.408	0.0162673
861.486	0.0162881
861.564	0.0162432
861.642	0.0164218
861.721	0.0162986
861.799	0.0163221
861.877	0.0164358
861.955	0.0165562
862.033	0.0165063
862.111	0.0165205
862.189	0.0163681
862.267	0.0163387
862.346	0.0163483
862.424	0.0162465
862.502	0.0163886
862.580	0.0163960
862.658	0.0164014
862.736	0.0163046
862.814	0.0163567
862.892	0.0163130
862.971	0.0163383
863.049	0.0162566
863.127	0.0162592
863.205	0.0162490
863.283	0.0162859
863.361	0.0163563
863.439	0.0162915
863.517	0.0162590
863.596	0.0162218
863.674	0.0162189
863.752	0.0163714
863.830	0.0163750
863.908	0.0164093
863.986	0.0164139
864.064	0.0163551
864.142	0.0164548
864.221	0.0164613
864.299	0.0164432
864.377	0.0164996
864.455	0.0165323
864.533	0.0166035
864.611	0.0166359
864.689	0.0165033
864.767	0.0164484
864.846	0.0165099
864.924	0.0164444
865.002	0.0165412
865.080	0.0165762
865.158	0.0164165
865.236	0.0165887
865.314	0.0165083
865.392	0.0164472
865.471	0.0165564
865.549	0.0164674
865.627	0.0164346
865.705	0.0164098
865.783	0.0163577
865.861	0.0163767
865.939	0.0163339
866.017	0.0163998
866.096	0.0163418
866.174	0.0164000
866.252	0.0163284
866.330	0.0165692
866.408	0.0164008
866.486	0.0164388
866.564	0.0162621
866.642	0.0163686
866.721	0.0164962
866.799	0.0164725
866.877	0.0163994
866.955	0.0164455
867.033	0.0166413
867.111	0.0164124
867.189	0.0166013
867.267	0.0165428
867.346	0.0165225
867.424	0.0167200
867.502	0.0165097
867.580	0.0165640
867.658	0.0165803
867.736	0.0165634
867.814	0.0166067
867.892	0.0164882
867.971	0.0165036
868.049	0.0164835
868.127	0.0163180
868.205	0.0165099
868.283	0.0165400
868.361	0.0162950
868.439	0.0163986
868.517	0.0163430
868.596	0.0163686
868.674	0.0163472
868.752	0.0163815
868.830	0.0164016
868.908	0.0163020
868.986	0.0164519
869.064	0.0163729
869.142	0.0163564
869.221	0.0163799
869.299	0.0165266
869.377	0.0164433
869.455	0.0164965
869.533	0.0164624
869.611	0.0165028
869.689	0.0164903
869.767	0.0165251
869.846	0.0163992
869.924	0.0165104
870.002	0.0165844
870.080	0.0165437
870.158	0.0165386
870.236	0.0163352
870.314	0.0165099
870.392	0.0164538
870.471	0.0163332
870.549	0.0164754
870.627	0.0164204
870.705	0.0163583
870.783	0.0163577
870.861	0.0164144
870.939	0.0163267
871.017	0.0163538
871.096	0.0163361
871.174	0.0163224
871.252	0.0164757
871.330	0.0163951
871.408	0.0163541
871.486	0.0164537
871.564	0.0164503
871.642	0.0164101
871.721	0.0164412
871.799	0.0163747
871.877	0.0166027
871.955	0.0164444
872.033	0.0164605
872.111	0.0164723
872.189	0.0165054
872.267	0.0165355
872.346	0.0164377
872.424	0.0164003
872.502	0.0165102
872.580	0.0164167
872.658	0.0163992
872.736	0.0163386
872.814	0.0165090
872.892	0.0163869
872.971	0.0164199
873.049	0.0164056
873.127	0.0164982
873.205	0.0162654
873.283	0.0164084
873.361	0.0164094
873.439	0.0164259
873.517	0.0165383
873.596	0.0163690
873.674	0.0163449
873.752	0.0164429
873.830	0.0164474
873.908	0.0163358
873.986	0.0164599
874.064	0.0164284
874.142	0.0164180
874.221	0.0165007
874.299	0.0164892
874.377	0.0163248
874.455	0.0165016
874.533	0.0164182
874.611	0.0165142
874.689	0.0164598
874.767	0.0165186
874.846	0.0165306
874.924	0.0164639
875.002	0.0164120
875.080	0.0165177
875.158	0.0164696
875.236	0.0165156
875.314	0.0164563
875.392	0.0164830
875.471	0.0163444
875.549	0.0164289
875.627	0.0163580
875.705	0.0164266
875.783	0.0163327
875.861	0.0162913
875.939	0.0165076
876.017	0.0163513
876.096	0.0164179
876.174	0.0163971
876.252	0.0165629
876.330	0.0164399
876.408	0.0162910
876.486	0.0163623
876.564	0.0163074
876.642	0.0164185
876.721	0.0163326
876.799	0.0162706
876.877	0.0163197
876.955	0.0164155
877.033	0.0164792
877.111	0.0163042
877.189	0.0164693
877.267	0.0162359
877.346	0.0164293
877.424	0.0164713
877.502	0.0164242
877.580	0.0165994
877.658	0.0164504
877.736	0.0165578
877.814	0.0164107
877.892	0.0164175
877.971	0.0162778
878.049	0.0163591
878.127	0.0164288
878.205	0.0163817
878.283	0.0163800
878.361	0.0163567
878.439	0.0163049
878.517	0.0162865
878.596	0.0163341
878.674	0.0163619
878.752	0.0163052
878.830	0.0162206
878.908	0.0161182
878.986	0.0162015
879.064	0.0162963
879.142	0.0163036
879.221	0.0162679
879.299	0.0162824
879.377	0.0164146
879.455	0.0163328
879.533	0.0162394
879.611	0.0163692
879.689	0.0164368
879.767	0.0164404
879.846	0.0163466
879.924	0.0163564
880.002	0.0164541
880.080	0.0165047
880.158	0.0162594
880.236	0.0163270
880.314	0.0165038
880.392	0.0163581
880.471	0.0161829
880.549	0.0162347
880.627	0.0162823
880.705	0.0161247
880.783	0.0163443
880.861	0.0162417
880.939	0.0162122
881.017	0.0162332
881.096	0.0161230
881.174	0.0161739
881.252	0.0162301
881.330	0.0163621
881.408	0.0163038
881.486	0.0164029
881.564	0.0162853
881.642	0.0161505
881.721	0.0162532
881.799	0.0162343
881.877	0.0164104
881.955	0.0162991
882.033	0.0163916
882.111	0.0163017
882.189	0.0163891
882.267	0.0162947
882.346	0.0163797
882.424	0.0164242
882.502	0.0165566
882.580	0.0162929
882.658	0.0163449
882.736	0.0163387
882.814	0.0164188
882.892	0.0164356
882.971	0.0162846
883.049	0.0164426
883.127	0.0162812
883.205	0.0163031
883.283	0.0165724
883.361	0.0163258
883.439	0.0163180
883.517	0.0164163
883.596	0.0163618
883.674	0.0164239
883.752	0.0163787
883.830	0.0164151
883.908	0.0163728
883.986	0.0163922
884.064	0.0163187
884.142	0.0163587
884.221	0.0164505
884.299	0.0164396
884.377	0.0163482
884.455	0.0165702
884.533	0.0165485
884.611	0.0165026
884.689	0.0165009
884.767	0.0164818
884.846	0.0165591
884.924	0.0164987
885.002	0.0165191
885.080	0.0164676
885.158	0.0165143
885.236	0.0165125
885.314	0.0165382
885.392	0.0165454
885.471	0.0165147
885.549	0.0165398
885.627	0.0165620
885.705	0.0165430
885.783	0.0163908
885.861	0.0166104
885.939	0.0165819
886.017	0.0165137
886.096	0.0164507
886.174	0.0163946
886.252	0.0165984
886.330	0.0165543
886.408	0.0165714
886.486	0.0164306
886.564	0.0164967
886.642	0.0165693
886.721	0.0164951
886.799	0.0163871
886.877	0.0164952
886.955	0.0164803
887.033	0.0165199
887.111	0.0165308
887.189	0.0165618
887.267	0.0165365
887.346	0.0164992
887.424	0.0163680
887.502	0.0163863
887.580	0.0167392
887.658	0.0167811
887.736	0.0165920
887.814	0.0165182
887.892	0.0164828
887.971	0.0166179
888.049	0.0166084
888.127	0.0165100
888.205	0.0166414
888.283	0.0165917
888.361	0.0165938
888.439	0.0165961
888.517	0.0166010
888.596	0.0165593
888.674	0.0164123
888.752	0.0164742
888.830	0.0164726
888.908	0.0165257
888.986	0.0165556
889.064	0.0165083
889.142	0.0164648
889.221	0.0164667
889.299	0.0163747
889.377	0.0165554
889.455	0.0165235
889.533	0.0162850
889.611	0.0164079
889.689	0.0163811
889.767	0.0164030
889.846	0.0165014
889.924	0.0164065
890.002	0.0164518
890.080	0.0164255
890.158	0.0163704
890.236	0.0164192
890.314	0.0163690
890.392	0.0164964
890.471	0.0163354
890.549	0.0163876
890.627	0.0165072
890.705	0.0164065
890.783	0.0164499
890.861	0.0164101
890.939	0.0164788
891.017	0.0163564
891.096	0.0164613
891.174	0.0163428
891.252	0.0163908
891.330	0.0164620
891.408	0.0164883
891.486	0.0164140
891.564	0.0164451
891.642	0.0163554
891.721	0.0164420
891.799	0.0166144
891.877	0.0163670
891.955	0.0163610
892.033	0.0164014
892.111	0.0165467
892.189	0.0166139
892.267	0.0164549
892.346	0.0165678
892.424	0.0166766
892.502	0.0163960
892.580	0.0165574
892.658	0.0165353
892.736	0.0165637
892.814	0.0165630
892.892	0.0166171
892.971	0.0164984
893.049	0.0165924
893.127	0.0165788
893.205	0.0164660
893.283	0.0163709
893.361	0.0164928
893.439	0.0164297
893.517	0.0164706
893.596	0.0165167
893.674	0.0164649
893.752	0.0165279
893.830	0.0164676
893.908	0.0163590
893.986	0.0163556
894.064	0.0166038
894.142	0.0165030
894.221	0.0165299
894.299	0.0165727
894.377	0.0164830
894.455	0.0166378
894.533	0.0166273
894.611	0.0166011
894.689	0.0165577
894.767	0.0164814
894.846	0.0165201
894.924	0.0166077
895.002	0.0165556
895.080	0.0164828
895.158	0.0164594
895.236	0.0165047
895.314	0.0166013
895.392	0.0163747
895.471	0.0164336
895.549	0.0164707
895.627	0.0164429
895.705	0.0164180
895.783	0.0164513
895.861	0.0164542
895.939	0.0164468
896.017	0.0162887
896.096	0.0164585
896.174	0.0164612
896.252	0.0164311
896.330	0.0163023
896.408	0.0164934
896.486	0.0164376
896.564	0.0163564
896.642	0.0164519
896.721	0.0162920
896.799	0.0163094
896.877	0.0163181
896.955	0.0163157
897.033	0.0163496
897.111	0.0163376
897.189	0.0163447
897.267	0.0163491
897.346	0.0163094
897.424	0.0162646
897.502	0.0163033
897.580	0.0162751
897.658	0.0164292
897.736	0.0162888
897.814	0.0164091
897.892	0.0164346
897.971	0.0163375
898.049	0.0163015
898.127	0.0164780
898.205	0.0163925
898.283	0.0162892
898.361	0.0163496
898.439	0.0161953
898.517	0.0162853
898.596	0.0163593
898.674	0.0164767
898.752	0.0162686
898.830	0.0163038
898.908	0.0162926
898.986	0.0163198
899.064	0.0162645
899.142	0.0163398
899.221	0.0162000
899.299	0.0161597
899.377	0.0162411
899.455	0.0162631
899.533	0.0161703
899.611	0.0163059
899.689	0.0162067
899.767	0.0162128
899.846	0.0161945
899.924	0.0162212
900.002	0.0162364
900.080	0.0162745
900.158	0.0162718
900.236	0.0162730
900.314	0.0163167
900.392	0.0163301
900.471	0.0163570
900.549	0.0162022
900.627	0.0163305
900.705	0.0163240
900.783	0.0164721
900.861	0.0164303
900.939	0.0164502
901.017	0.0165781
901.096	0.0164752
901.174	0.0164690
901.252	0.0164429
901.330	0.0164947
901.408	0.0164909
901.486	0.0164759
901.564	0.0165701
901.642	0.0165598
901.721	0.0164066
901.799	0.0164120
901.877	0.0163490
901.955	0.0164445
902.033	0.0164314
902.111	0.0164194
902.189	0.0163846
902.267	0.0163828
902.346	0.0162524
902.424	0.0164545
902.502	0.0163790
902.580	0.0164675
902.658	0.0163043
902.736	0.0163325
902.814	0.0163912
902.892	0.0163744
902.971	0.0163662
903.049	0.0163377
903.127	0.0163038
903.205	0.0164235
903.283	0.0164091
903.361	0.0163685
903.439	0.0163514
903.517	0.0163840
903.596	0.0164198
903.674	0.0164977
903.752	0.0164721
903.830	0.0165542
903.908	0.0166251
903.986	0.0166191
904.064	0.0165848
904.142	0.0164372
904.221	0.0164399
904.299	0.0164208
904.377	0.0165234
904.455	0.0163316
904.533	0.0163636
904.611	0.0164333
904.689	0.0164751
904.767	0.0164318
904.846	0.0163976
904.924	0.0164033
905.002	0.0164764
905.080	0.0163908
905.158	0.0162450
905.236	0.0163979
905.314	0.0163303
905.392	0.0164127
905.471	0.0163171
905.549	0.0162853
905.627	0.0164223
905.705	0.0162661
905.783	0.0163850
905.861	0.0164866
905.939	0.0163403
906.017	0.0163419
906.096	0.0164208
906.174	0.0164128
906.252	0.0163893
906.330	0.0163484
906.408	0.0164091
906.486	0.0164181
906.564	0.0164676
906.642	0.0165808
906.721	0.0165092
906.799	0.0164722
906.877	0.0164754
906.955	0.0164854
907.033	0.0165372
907.111	0.0164249
907.189	0.0164626
907.267	0.0165275
907.346	0.0165234
907.424	0.0166774
907.502	0.0167139
907.580	0.0166493
907.658	0.0167066
907.736	0.0166176
907.814	0.0166244
907.892	0.0166389
907.971	0.0166089
908.049	0.0165476
908.127	0.0167194
908.205	0.0166847
908.283	0.0166876
908.361	0.0164741
908.439	0.0164815
908.517	0.0165717
908.596	0.0165037
908.674	0.0164339
908.752	0.0166149
908.830	0.0165840
908.908	0.0165312
908.986	0.0165166
909.064	0.0166607
909.142	0.0166841
909.221	0.0166216
909.299	0.0165471
909.377	0.0166519
909.455	0.0166505
909.533	0.0166302
909.611	0.0166310
909.689	0.0166019
909.767	0.0166100
909.846	0.0165961
909.924	0.0166469
910.002	0.0166314
910.080	0.0166190
910.158	0.0167053
910.236	0.0166170
910.314	0.0164384
910.392	0.0166512
910.471	0.0165201
910.549	0.0164671
910.627	0.0165969
910.705	0.0166706
910.783	0.0164816
910.861	0.0165110
910.939	0.0166694
911.017	0.0165939
911.096	0.0165451
911.174	0.0165405
911.252	0.0166015
911.330	0.0166933
911.408	0.0165813
911.486	0.0164391
911.564	0.0165633
911.642	0.0165845
911.721	0.0164658
911.799	0.0164282
911.877	0.0162623
911.955	0.0163106
912.033	0.0162084
912.111	0.0163216
912.189	0.0163651
912.267	0.0162391
912.346	0.0161872
912.424	0.0163543
912.502	0.0162296
912.580	0.0163566
912.658	0.0162388
912.736	0.0163165
912.814	0.0163448
912.892	0.0163854
912.971	0.0163897
913.049	0.0164023
913.127	0.0164021
913.205	0.0163631
913.283	0.0163118
913.361	0.0163937
913.439	0.0163996
913.517	0.0163591
913.596	0.0163741
913.674	0.0164268
913.752	0.0165186
913.830	0.0164127
913.908	0.0162780
913.986	0.0161816
914.064	0.0163467
914.142	0.0164114
914.221	0.0163654
914.299	0.0162582
914.377	0.0164412
914.455	0.0164149
914.533	0.0161906
914.611	0.0163648
914.689	0.0163908
914.767	0.0162518
914.846	0.0163259
914.924	0.0163090
915.002	0.0163173
915.080	0.0163519
915.158	0.0164485
915.236	0.0162771
915.314	0.0163560
915.392	0.0164682
915.471	0.0164983
915.549	0.0165127
915.627	0.0164648
915.705	0.0163735
915.783	0.0165188
915.861	0.0164585
915.939	0.0164902
916.017	0.0163934
916.096	0.0163898
916.174	0.0164979
916.252	0.0165018
916.330	0.0163577
916.408	0.0163660
916.486	0.0164248
916.564	0.0163039
916.642	0.0163762
916.721	0.0165188
916.799	0.0165170
916.877	0.0163228
916.955	0.0165108
917.033	0.0164343
917.111	0.0164380
917.189	0.0164085
917.267	0.0166001
917.346	0.0165230
917.424	0.0165510
917.502	0.0165492
917.580	0.0165151
917.658	0.0166142
917.736	0.0166017
917.814	0.0162942
917.892	0.0164626
917.971	0.0165170
918.049	0.0164505
918.127	0.0163461
918.205	0.0164803
918.283	0.0165787
918.361	0.0165051
918.439	0.0165441
918.517	0.0164363
918.596	0.0165591
918.674	0.0165238
918.752	0.0164599
918.830	0.0165719
918.908	0.0165661
918.986	0.0166385
919.064	0.0165144
919.142	0.0164658
919.221	0.0166969
919.299	0.0165474
919.377	0.0165196
919.455	0.0167030
919.533	0.0166220
919.611	0.0166467
919.689	0.0164845
919.767	0.0165702
919.846	0.0165289
919.924	0.0166943
