06/29/2022	21:34:14	Ver.	4.1	UNKNOWN
Optical Delay	600.001752	Delta X		0.078125	Sweeps	1	Scan Rate	0/0
Coordinates	Axis 1	NaN	Axis 2	NaN	Axis 3	NaN	Axis 4	NaN	Axis 5	NaN	Axis 6	0.000000
TX Power	0.000000	RX Power	0.000000

600.002	0.0161197
600.080	0.0160908
600.158	0.0161639
600.236	0.0160738
600.314	0.0162006
600.392	0.0160608
600.471	0.0161526
600.549	0.0161263
600.627	0.0160319
600.705	0.0160496
600.783	0.0161391
600.861	0.0160818
600.939	0.0161751
601.017	0.0159555
601.096	0.0159679
601.174	0.0160600
601.252	0.0161797
601.330	0.0161779
601.408	0.0160014
601.486	0.0161994
601.564	0.0161186
601.642	0.0159492
601.721	0.0160973
601.799	0.0161794
601.877	0.0162827
601.955	0.0161111
602.033	0.0159914
602.111	0.0159914
602.189	0.0161050
602.267	0.0161556
602.346	0.0160623
602.424	0.0161906
602.502	0.0162804
602.580	0.0160400
602.658	0.0160204
602.736	0.0160567
602.814	0.0162053
602.892	0.0160725
602.971	0.0162135
603.049	0.0161705
603.127	0.0161674
603.205	0.0160326
603.283	0.0161181
603.361	0.0160903
603.439	0.0160402
603.517	0.0161047
603.596	0.0162237
603.674	0.0161401
603.752	0.0160162
603.830	0.0160807
603.908	0.0161063
603.986	0.0160342
604.064	0.0160242
604.142	0.0162872
604.221	0.0162457
604.299	0.0160339
604.377	0.0159863
604.455	0.0162355
604.533	0.0162572
604.611	0.0161497
604.689	0.0159948
604.767	0.0160694
604.846	0.0161661
604.924	0.0161797
605.002	0.0160993
605.080	0.0161054
605.158	0.0161025
605.236	0.0161589
605.314	0.0163233
605.392	0.0160257
605.471	0.0161836
605.549	0.0162079
605.627	0.0161328
605.705	0.0161490
605.783	0.0161695
605.861	0.0160961
605.939	0.0162215
606.017	0.0161295
606.096	0.0161368
606.174	0.0163737
606.252	0.0162189
606.330	0.0162777
606.408	0.0161701
606.486	0.0162161
606.564	0.0162049
606.642	0.0162656
606.721	0.0161464
606.799	0.0162508
606.877	0.0160707
606.955	0.0162328
607.033	0.0160918
607.111	0.0160918
607.189	0.0160478
607.267	0.0160794
607.346	0.0161694
607.424	0.0161499
607.502	0.0163683
607.580	0.0162267
607.658	0.0163139
607.736	0.0161130
607.814	0.0162143
607.892	0.0162457
607.971	0.0163000
608.049	0.0164170
608.127	0.0162263
608.205	0.0162449
608.283	0.0161854
608.361	0.0161822
608.439	0.0162687
608.517	0.0161651
608.596	0.0162093
608.674	0.0161388
608.752	0.0161681
608.830	0.0163592
608.908	0.0161853
608.986	0.0162435
609.064	0.0160829
609.142	0.0160880
609.221	0.0162206
609.299	0.0163920
609.377	0.0163355
609.455	0.0162035
609.533	0.0163721
609.611	0.0161560
609.689	0.0161719
609.767	0.0162637
609.846	0.0161227
609.924	0.0162045
610.002	0.0162057
610.080	0.0162463
610.158	0.0160880
610.236	0.0162037
610.314	0.0161958
610.392	0.0161899
610.471	0.0162635
610.549	0.0162196
610.627	0.0161475
610.705	0.0162430
610.783	0.0161820
610.861	0.0161823
610.939	0.0161992
611.017	0.0161346
611.096	0.0162496
611.174	0.0162856
611.252	0.0161511
611.330	0.0160919
611.408	0.0162802
611.486	0.0161764
611.564	0.0162302
611.642	0.0161409
611.721	0.0162543
611.799	0.0162595
611.877	0.0163028
611.955	0.0160888
612.033	0.0161983
612.111	0.0162260
612.189	0.0161253
612.267	0.0161186
612.346	0.0162036
612.424	0.0162807
612.502	0.0161870
612.580	0.0161848
612.658	0.0161903
612.736	0.0161329
612.814	0.0162692
612.892	0.0161081
612.971	0.0161451
613.049	0.0161050
613.127	0.0161565
613.205	0.0161440
613.283	0.0161679
613.361	0.0161478
613.439	0.0162218
613.517	0.0161637
613.596	0.0162175
613.674	0.0160440
613.752	0.0161086
613.830	0.0162972
613.908	0.0162157
613.986	0.0159718
614.064	0.0160983
614.142	0.0162792
614.221	0.0161454
614.299	0.0160740
614.377	0.0160629
614.455	0.0161456
614.533	0.0161735
614.611	0.0161166
614.689	0.0161485
614.767	0.0163123
614.846	0.0162273
614.924	0.0161418
615.002	0.0160971
615.080	0.0160362
615.158	0.0160790
615.236	0.0162452
615.314	0.0162965
615.392	0.0162119
615.471	0.0161887
615.549	0.0161176
615.627	0.0160896
615.705	0.0162447
615.783	0.0160979
615.861	0.0161415
615.939	0.0162200
616.017	0.0161484
616.096	0.0161436
616.174	0.0160476
616.252	0.0162450
616.330	0.0163496
616.408	0.0162022
616.486	0.0161978
616.564	0.0162133
616.642	0.0161774
616.721	0.0162966
616.799	0.0162979
616.877	0.0161655
616.955	0.0161700
617.033	0.0161256
617.111	0.0160091
617.189	0.0160228
617.267	0.0161113
617.346	0.0161661
617.424	0.0162088
617.502	0.0162804
617.580	0.0160705
617.658	0.0161700
617.736	0.0162180
617.814	0.0161804
617.892	0.0162029
617.971	0.0162943
618.049	0.0162057
618.127	0.0161561
618.205	0.0161654
618.283	0.0161241
618.361	0.0162867
618.439	0.0162883
618.517	0.0161594
618.596	0.0160928
618.674	0.0161354
618.752	0.0161581
618.830	0.0162445
618.908	0.0161507
618.986	0.0161545
619.064	0.0161311
619.142	0.0160815
619.221	0.0161809
619.299	0.0162151
619.377	0.0161082
619.455	0.0161597
619.533	0.0161555
619.611	0.0160545
619.689	0.0161886
619.767	0.0162216
619.846	0.0160580
619.924	0.0161406
620.002	0.0161962
620.080	0.0162079
620.158	0.0162213
620.236	0.0160802
620.314	0.0162730
620.392	0.0162270
620.471	0.0160642
620.549	0.0161929
620.627	0.0161425
620.705	0.0161457
620.783	0.0162562
620.861	0.0161736
620.939	0.0162058
621.017	0.0161938
621.096	0.0161199
621.174	0.0162258
621.252	0.0162669
621.330	0.0161324
621.408	0.0161761
621.486	0.0161760
621.564	0.0163611
621.642	0.0160426
621.721	0.0161515
621.799	0.0162065
621.877	0.0161778
621.955	0.0162578
622.033	0.0161444
622.111	0.0161264
622.189	0.0160748
622.267	0.0160490
622.346	0.0161854
622.424	0.0161945
622.502	0.0161977
622.580	0.0160657
622.658	0.0162287
622.736	0.0162879
622.814	0.0163100
622.892	0.0161411
622.971	0.0163763
623.049	0.0162367
623.127	0.0159960
623.205	0.0162477
623.283	0.0162804
623.361	0.0162435
623.439	0.0162019
623.517	0.0161639
623.596	0.0162386
623.674	0.0160771
623.752	0.0160895
623.830	0.0163109
623.908	0.0161636
623.986	0.0159638
624.064	0.0162617
624.142	0.0160394
624.221	0.0160622
624.299	0.0162502
624.377	0.0161361
624.455	0.0161418
624.533	0.0160436
624.611	0.0162501
624.689	0.0160953
624.767	0.0159809
624.846	0.0160765
624.924	0.0160854
625.002	0.0162723
625.080	0.0162336
625.158	0.0159904
625.236	0.0160281
625.314	0.0161123
625.392	0.0161788
625.471	0.0162378
625.549	0.0161189
625.627	0.0161196
625.705	0.0161555
625.783	0.0161649
625.861	0.0162461
625.939	0.0162840
626.017	0.0161451
626.096	0.0159882
626.174	0.0160857
626.252	0.0163025
626.330	0.0162020
626.408	0.0160524
626.486	0.0161466
626.564	0.0161830
626.642	0.0161411
626.721	0.0160815
626.799	0.0163107
626.877	0.0161377
626.955	0.0163631
627.033	0.0163428
627.111	0.0163070
627.189	0.0161749
627.267	0.0162417
627.346	0.0162367
627.424	0.0162211
627.502	0.0162865
627.580	0.0164003
627.658	0.0162708
627.736	0.0162608
627.814	0.0163230
627.892	0.0164175
627.971	0.0163361
628.049	0.0161940
628.127	0.0162137
628.205	0.0161983
628.283	0.0163644
628.361	0.0161736
628.439	0.0162636
628.517	0.0163201
628.596	0.0161942
628.674	0.0161834
628.752	0.0161449
628.830	0.0163677
628.908	0.0162349
628.986	0.0163387
629.064	0.0164346
629.142	0.0161913
629.221	0.0163315
629.299	0.0163557
629.377	0.0163407
629.455	0.0161934
629.533	0.0162028
629.611	0.0163524
629.689	0.0162126
629.767	0.0162628
629.846	0.0163057
629.924	0.0163693
630.002	0.0163667
630.080	0.0161920
630.158	0.0163962
630.236	0.0163309
630.314	0.0163293
630.392	0.0163690
630.471	0.0162972
630.549	0.0163364
630.627	0.0162978
630.705	0.0164806
630.783	0.0162827
630.861	0.0162914
630.939	0.0163464
631.017	0.0163406
631.096	0.0163040
631.174	0.0162038
631.252	0.0163234
631.330	0.0163055
631.408	0.0162338
631.486	0.0163078
631.564	0.0162559
631.642	0.0164315
631.721	0.0163747
631.799	0.0163444
631.877	0.0164198
631.955	0.0162058
632.033	0.0163007
632.111	0.0162418
632.189	0.0162107
632.267	0.0162067
632.346	0.0162991
632.424	0.0162767
632.502	0.0162381
632.580	0.0161814
632.658	0.0162257
632.736	0.0163004
632.814	0.0162070
632.892	0.0162568
632.971	0.0162867
633.049	0.0162484
633.127	0.0161240
633.205	0.0162646
633.283	0.0162463
633.361	0.0161459
633.439	0.0163161
633.517	0.0162872
633.596	0.0162917
633.674	0.0161803
633.752	0.0161838
633.830	0.0163643
633.908	0.0163491
633.986	0.0161330
634.064	0.0162884
634.142	0.0162650
634.221	0.0162427
634.299	0.0162110
634.377	0.0162441
634.455	0.0162054
634.533	0.0163005
634.611	0.0162403
634.689	0.0162599
634.767	0.0162116
634.846	0.0162402
634.924	0.0161671
635.002	0.0161851
635.080	0.0164057
635.158	0.0163151
635.236	0.0161029
635.314	0.0162469
635.392	0.0163132
635.471	0.0163474
635.549	0.0163452
635.627	0.0162148
635.705	0.0161050
635.783	0.0162337
635.861	0.0163005
635.939	0.0161687
636.017	0.0161073
636.096	0.0161409
636.174	0.0161667
636.252	0.0162066
636.330	0.0163092
636.408	0.0162711
636.486	0.0162170
636.564	0.0162632
636.642	0.0161771
636.721	0.0162114
636.799	0.0162141
636.877	0.0161999
636.955	0.0160978
637.033	0.0160932
637.111	0.0163464
637.189	0.0162163
637.267	0.0160045
637.346	0.0162206
637.424	0.0163184
637.502	0.0161596
637.580	0.0161510
637.658	0.0162790
637.736	0.0162272
637.814	0.0161605
637.892	0.0161790
637.971	0.0161235
638.049	0.0161163
638.127	0.0161227
638.205	0.0161561
638.283	0.0161496
638.361	0.0161420
638.439	0.0160633
638.517	0.0162721
638.596	0.0161864
638.674	0.0161993
638.752	0.0161882
638.830	0.0163645
638.908	0.0161496
638.986	0.0162756
639.064	0.0162283
639.142	0.0161784
639.221	0.0160794
639.299	0.0161697
639.377	0.0162605
639.455	0.0161938
639.533	0.0162934
639.611	0.0163181
639.689	0.0161469
639.767	0.0160662
639.846	0.0161552
639.924	0.0162531
640.002	0.0162580
640.080	0.0161786
640.158	0.0161194
640.236	0.0162702
640.314	0.0163167
640.392	0.0161564
640.471	0.0161719
640.549	0.0161304
640.627	0.0163530
640.705	0.0161309
640.783	0.0160130
640.861	0.0161842
640.939	0.0161855
641.017	0.0162539
641.096	0.0161546
641.174	0.0163670
641.252	0.0161907
641.330	0.0161469
641.408	0.0162055
641.486	0.0163765
641.564	0.0161600
641.642	0.0162711
641.721	0.0162142
641.799	0.0162015
641.877	0.0161457
641.955	0.0162783
642.033	0.0161142
642.111	0.0161280
642.189	0.0162442
642.267	0.0161807
642.346	0.0162848
642.424	0.0162122
642.502	0.0162039
642.580	0.0162183
642.658	0.0161463
642.736	0.0161206
642.814	0.0162265
642.892	0.0161443
642.971	0.0160870
643.049	0.0162761
643.127	0.0162176
643.205	0.0162053
643.283	0.0162223
643.361	0.0162120
643.439	0.0162998
643.517	0.0162341
643.596	0.0162306
643.674	0.0162630
643.752	0.0163689
643.830	0.0164295
643.908	0.0161770
643.986	0.0161712
644.064	0.0162519
644.142	0.0161457
644.221	0.0162201
644.299	0.0162754
644.377	0.0161649
644.455	0.0161931
644.533	0.0163776
644.611	0.0162302
644.689	0.0161744
644.767	0.0163264
644.846	0.0162290
644.924	0.0159698
645.002	0.0160964
645.080	0.0162640
645.158	0.0161795
645.236	0.0161732
645.314	0.0161461
645.392	0.0161423
645.471	0.0162594
645.549	0.0161333
645.627	0.0160924
645.705	0.0161272
645.783	0.0162082
645.861	0.0161007
645.939	0.0160979
646.017	0.0161213
646.096	0.0161027
646.174	0.0160549
646.252	0.0160786
646.330	0.0161296
646.408	0.0161865
646.486	0.0161098
646.564	0.0161629
646.642	0.0162442
646.721	0.0162286
646.799	0.0160488
646.877	0.0161904
646.955	0.0161957
647.033	0.0160666
647.111	0.0161817
647.189	0.0161298
647.267	0.0162572
647.346	0.0161742
647.424	0.0161980
647.502	0.0161179
647.580	0.0161088
647.658	0.0160348
647.736	0.0162867
647.814	0.0161702
647.892	0.0161140
647.971	0.0161495
648.049	0.0161342
648.127	0.0161863
648.205	0.0161941
648.283	0.0160809
648.361	0.0161674
648.439	0.0161337
648.517	0.0162229
648.596	0.0160639
648.674	0.0161784
648.752	0.0161652
648.830	0.0160943
648.908	0.0161594
648.986	0.0161327
649.064	0.0163599
649.142	0.0161903
649.221	0.0161824
649.299	0.0162029
649.377	0.0162328
649.455	0.0161734
649.533	0.0161111
649.611	0.0162105
649.689	0.0162087
649.767	0.0161675
649.846	0.0161848
649.924	0.0161423
650.002	0.0161359
650.080	0.0160386
650.158	0.0161246
650.236	0.0161012
650.314	0.0162221
650.392	0.0161472
650.471	0.0161803
650.549	0.0161298
650.627	0.0161789
650.705	0.0161755
650.783	0.0161126
650.861	0.0161072
650.939	0.0161135
651.017	0.0162549
651.096	0.0160989
651.174	0.0161939
651.252	0.0160592
651.330	0.0161800
651.408	0.0162154
651.486	0.0161674
651.564	0.0162024
651.642	0.0162177
651.721	0.0161549
651.799	0.0160699
651.877	0.0161390
651.955	0.0162358
652.033	0.0161045
652.111	0.0161475
652.189	0.0162148
652.267	0.0162659
652.346	0.0162030
652.424	0.0161161
652.502	0.0161269
652.580	0.0161687
652.658	0.0162130
652.736	0.0160913
652.814	0.0162018
652.892	0.0161089
652.971	0.0161639
653.049	0.0161898
653.127	0.0162099
653.205	0.0160589
653.283	0.0160480
653.361	0.0162269
653.439	0.0162701
653.517	0.0162291
653.596	0.0159793
653.674	0.0161407
653.752	0.0160936
653.830	0.0161694
653.908	0.0160892
653.986	0.0162425
654.064	0.0161009
654.142	0.0161116
654.221	0.0161694
654.299	0.0161826
654.377	0.0161375
654.455	0.0160811
654.533	0.0161522
654.611	0.0162219
654.689	0.0162657
654.767	0.0161136
654.846	0.0160673
654.924	0.0161156
655.002	0.0160764
655.080	0.0160255
655.158	0.0162389
655.236	0.0160715
655.314	0.0161416
655.392	0.0160400
655.471	0.0161062
655.549	0.0161259
655.627	0.0160516
655.705	0.0161890
655.783	0.0162630
655.861	0.0163020
655.939	0.0161211
656.017	0.0160955
656.096	0.0162701
656.174	0.0161826
656.252	0.0162015
656.330	0.0160989
656.408	0.0160716
656.486	0.0162576
656.564	0.0163403
656.642	0.0161343
656.721	0.0161018
656.799	0.0161652
656.877	0.0161548
656.955	0.0160979
657.033	0.0161610
657.111	0.0163153
657.189	0.0161312
657.267	0.0161303
657.346	0.0162267
657.424	0.0162206
657.502	0.0161353
657.580	0.0161092
657.658	0.0161238
657.736	0.0161288
657.814	0.0160866
657.892	0.0162960
657.971	0.0162189
658.049	0.0161334
658.127	0.0161260
658.205	0.0160867
658.283	0.0160529
658.361	0.0161205
658.439	0.0161460
658.517	0.0161459
658.596	0.0161501
658.674	0.0160474
658.752	0.0163291
658.830	0.0161500
658.908	0.0161351
658.986	0.0160687
659.064	0.0161868
659.142	0.0160791
659.221	0.0160969
659.299	0.0160787
659.377	0.0162119
659.455	0.0161043
659.533	0.0160992
659.611	0.0161078
659.689	0.0160846
659.767	0.0161626
659.846	0.0161118
659.924	0.0162086
660.002	0.0162343
660.080	0.0160371
660.158	0.0162376
660.236	0.0161875
660.314	0.0160899
660.392	0.0161301
660.471	0.0160499
660.549	0.0161395
660.627	0.0161441
660.705	0.0161100
660.783	0.0161555
660.861	0.0162119
660.939	0.0161375
661.017	0.0160988
661.096	0.0161445
661.174	0.0161205
661.252	0.0160806
661.330	0.0161100
661.408	0.0161086
661.486	0.0162096
661.564	0.0162926
661.642	0.0160757
661.721	0.0160854
661.799	0.0161005
661.877	0.0161518
661.955	0.0162279
662.033	0.0162827
662.111	0.0162112
662.189	0.0159679
662.267	0.0160724
662.346	0.0161688
662.424	0.0161364
662.502	0.0161551
662.580	0.0160684
662.658	0.0160569
662.736	0.0161201
662.814	0.0162007
662.892	0.0161665
662.971	0.0160307
663.049	0.0161616
663.127	0.0161770
663.205	0.0161684
663.283	0.0162515
663.361	0.0161624
663.439	0.0162397
663.517	0.0161320
663.596	0.0160770
663.674	0.0161303
663.752	0.0161818
663.830	0.0162336
663.908	0.0162610
663.986	0.0161806
664.064	0.0161651
664.142	0.0162836
664.221	0.0162032
664.299	0.0161205
664.377	0.0161012
664.455	0.0161059
664.533	0.0161354
664.611	0.0161945
664.689	0.0162128
664.767	0.0160641
664.846	0.0161857
664.924	0.0161470
665.002	0.0160328
665.080	0.0162571
665.158	0.0162318
665.236	0.0162148
665.314	0.0161686
665.392	0.0161214
665.471	0.0161363
665.549	0.0161914
665.627	0.0161351
665.705	0.0161307
665.783	0.0161581
665.861	0.0161378
665.939	0.0163255
666.017	0.0162313
666.096	0.0161771
666.174	0.0161893
666.252	0.0161573
666.330	0.0161161
666.408	0.0161347
666.486	0.0162296
666.564	0.0161858
666.642	0.0161407
666.721	0.0163000
666.799	0.0161364
666.877	0.0161779
666.955	0.0161879
667.033	0.0162873
667.111	0.0161019
667.189	0.0161646
667.267	0.0161842
667.346	0.0163201
667.424	0.0160360
667.502	0.0161366
667.580	0.0161626
667.658	0.0161144
667.736	0.0161379
667.814	0.0162696
667.892	0.0161274
667.971	0.0161775
668.049	0.0161259
668.127	0.0160590
668.205	0.0161409
668.283	0.0161032
668.361	0.0160905
668.439	0.0161252
668.517	0.0161414
668.596	0.0161055
668.674	0.0160184
668.752	0.0162218
668.830	0.0160091
668.908	0.0160668
668.986	0.0161882
669.064	0.0161242
669.142	0.0160221
669.221	0.0161368
669.299	0.0161330
669.377	0.0161926
669.455	0.0160938
669.533	0.0160289
669.611	0.0162093
669.689	0.0161917
669.767	0.0159448
669.846	0.0161227
669.924	0.0161875
670.002	0.0161014
670.080	0.0161311
670.158	0.0160937
670.236	0.0161040
670.314	0.0160435
670.392	0.0161966
670.471	0.0162022
670.549	0.0162051
670.627	0.0161718
670.705	0.0159918
670.783	0.0161205
670.861	0.0161156
670.939	0.0162251
671.017	0.0160330
671.096	0.0161921
671.174	0.0160766
671.252	0.0160509
671.330	0.0161497
671.408	0.0160360
671.486	0.0160427
671.564	0.0162170
671.642	0.0161790
671.721	0.0162135
671.799	0.0160742
671.877	0.0160195
671.955	0.0162761
672.033	0.0159917
672.111	0.0160392
672.189	0.0160817
672.267	0.0160168
672.346	0.0160982
672.424	0.0160355
672.502	0.0160967
672.580	0.0161739
672.658	0.0161018
672.736	0.0160051
672.814	0.0160114
672.892	0.0160025
672.971	0.0161687
673.049	0.0161523
673.127	0.0161131
673.205	0.0159709
673.283	0.0161411
673.361	0.0161037
673.439	0.0160277
673.517	0.0160073
673.596	0.0161569
673.674	0.0160958
673.752	0.0161758
673.830	0.0161444
673.908	0.0159859
673.986	0.0160957
674.064	0.0161652
674.142	0.0161915
674.221	0.0161871
674.299	0.0160468
674.377	0.0160029
674.455	0.0161810
674.533	0.0160116
674.611	0.0160876
674.689	0.0161795
674.767	0.0161747
674.846	0.0161762
674.924	0.0162041
675.002	0.0160527
675.080	0.0162310
675.158	0.0161555
675.236	0.0160454
675.314	0.0161982
675.392	0.0160076
675.471	0.0161746
675.549	0.0161749
675.627	0.0160644
675.705	0.0161544
675.783	0.0161726
675.861	0.0160720
675.939	0.0163201
676.017	0.0161639
676.096	0.0160914
676.174	0.0162002
676.252	0.0162308
676.330	0.0161459
676.408	0.0161819
676.486	0.0160701
676.564	0.0160321
676.642	0.0162011
676.721	0.0161021
676.799	0.0162645
676.877	0.0162503
676.955	0.0161029
677.033	0.0160853
677.111	0.0160636
677.189	0.0161696
677.267	0.0161073
677.346	0.0162484
677.424	0.0161102
677.502	0.0161534
677.580	0.0161356
677.658	0.0160734
677.736	0.0162276
677.814	0.0162045
677.892	0.0160534
677.971	0.0161970
678.049	0.0160742
678.127	0.0160817
678.205	0.0161334
678.283	0.0161549
678.361	0.0161154
678.439	0.0160580
678.517	0.0160494
678.596	0.0160543
678.674	0.0162462
678.752	0.0161150
678.830	0.0159834
678.908	0.0161035
678.986	0.0162484
679.064	0.0160811
679.142	0.0160999
679.221	0.0160221
679.299	0.0162189
679.377	0.0161462
679.455	0.0160906
679.533	0.0160572
679.611	0.0160748
679.689	0.0161744
679.767	0.0160287
679.846	0.0162495
679.924	0.0160913
680.002	0.0161232
680.080	0.0160976
680.158	0.0161430
680.236	0.0160995
680.314	0.0161079
680.392	0.0162176
680.471	0.0161343
680.549	0.0160619
680.627	0.0161293
680.705	0.0161585
680.783	0.0160157
680.861	0.0160534
680.939	0.0162062
681.017	0.0162682
681.096	0.0161980
681.174	0.0162089
681.252	0.0160403
681.330	0.0161419
681.408	0.0161598
681.486	0.0160544
681.564	0.0162049
681.642	0.0161523
681.721	0.0161073
681.799	0.0162126
681.877	0.0160207
681.955	0.0161697
682.033	0.0161250
682.111	0.0160963
682.189	0.0161002
682.267	0.0163255
682.346	0.0161643
682.424	0.0160799
682.502	0.0162191
682.580	0.0161916
682.658	0.0161839
682.736	0.0161613
682.814	0.0161506
682.892	0.0161378
682.971	0.0159920
683.049	0.0160728
683.127	0.0160960
683.205	0.0162460
683.283	0.0161686
683.361	0.0160187
683.439	0.0160687
683.517	0.0161670
683.596	0.0162313
683.674	0.0161296
683.752	0.0160160
683.830	0.0161715
683.908	0.0162193
683.986	0.0161681
684.064	0.0160556
684.142	0.0162238
684.221	0.0161288
684.299	0.0161256
684.377	0.0159901
684.455	0.0160419
684.533	0.0161774
684.611	0.0161401
684.689	0.0161601
684.767	0.0161472
684.846	0.0161343
684.924	0.0162259
685.002	0.0162589
685.080	0.0162372
685.158	0.0161034
685.236	0.0160917
685.314	0.0161501
685.392	0.0161749
685.471	0.0162254
685.549	0.0161799
685.627	0.0161683
685.705	0.0161295
685.783	0.0160895
685.861	0.0162054
685.939	0.0161763
686.017	0.0161181
686.096	0.0162566
686.174	0.0162091
686.252	0.0161626
686.330	0.0160944
686.408	0.0161832
686.486	0.0162443
686.564	0.0161730
686.642	0.0162050
686.721	0.0161619
686.799	0.0162428
686.877	0.0161499
686.955	0.0162675
687.033	0.0161646
687.111	0.0160690
687.189	0.0161878
687.267	0.0161407
687.346	0.0162525
687.424	0.0161292
687.502	0.0161655
687.580	0.0162235
687.658	0.0160697
687.736	0.0161075
687.814	0.0162016
687.892	0.0160336
687.971	0.0161742
688.049	0.0161725
688.127	0.0160495
688.205	0.0162096
688.283	0.0162617
688.361	0.0162469
688.439	0.0160635
688.517	0.0161240
688.596	0.0160992
688.674	0.0161013
688.752	0.0161153
688.830	0.0161445
688.908	0.0161068
688.986	0.0161517
689.064	0.0161490
689.142	0.0162593
689.221	0.0161171
689.299	0.0161627
689.377	0.0161039
689.455	0.0162133
689.533	0.0161067
689.611	0.0161810
689.689	0.0161192
689.767	0.0162218
689.846	0.0161948
689.924	0.0161813
690.002	0.0163260
690.080	0.0161688
690.158	0.0163650
690.236	0.0161933
690.314	0.0162144
690.392	0.0162731
690.471	0.0162206
690.549	0.0161390
690.627	0.0160938
690.705	0.0162539
690.783	0.0162875
690.861	0.0160789
690.939	0.0161538
691.017	0.0163119
691.096	0.0162680
691.174	0.0162295
691.252	0.0161221
691.330	0.0163618
691.408	0.0162033
691.486	0.0161028
691.564	0.0162307
691.642	0.0160907
691.721	0.0161375
691.799	0.0161620
691.877	0.0161463
691.955	0.0162059
692.033	0.0161540
692.111	0.0160584
692.189	0.0162049
692.267	0.0162203
692.346	0.0162018
692.424	0.0161871
692.502	0.0162675
692.580	0.0162393
692.658	0.0162103
692.736	0.0162473
692.814	0.0162317
692.892	0.0161779
692.971	0.0162801
693.049	0.0162560
693.127	0.0161215
693.205	0.0160765
693.283	0.0162202
693.361	0.0161469
693.439	0.0161651
693.517	0.0161143
693.596	0.0162077
693.674	0.0160821
693.752	0.0161934
693.830	0.0161414
693.908	0.0161584
693.986	0.0161290
694.064	0.0161711
694.142	0.0161655
694.221	0.0160331
694.299	0.0160668
694.377	0.0162021
694.455	0.0163130
694.533	0.0161507
694.611	0.0161121
694.689	0.0161112
694.767	0.0162025
694.846	0.0161279
694.924	0.0162072
695.002	0.0160697
695.080	0.0161195
695.158	0.0161240
695.236	0.0162429
695.314	0.0161852
695.392	0.0161966
695.471	0.0162318
695.549	0.0162914
695.627	0.0163033
695.705	0.0162738
695.783	0.0163336
695.861	0.0164275
695.939	0.0163142
696.017	0.0164341
696.096	0.0162718
696.174	0.0162753
696.252	0.0163218
696.330	0.0162469
696.408	0.0161893
696.486	0.0162424
696.564	0.0162081
696.642	0.0162613
696.721	0.0162011
696.799	0.0162025
696.877	0.0162502
696.955	0.0160583
697.033	0.0162477
697.111	0.0162345
697.189	0.0161151
697.267	0.0160886
697.346	0.0160685
697.424	0.0161715
697.502	0.0160719
697.580	0.0161737
697.658	0.0161184
697.736	0.0160007
697.814	0.0161118
697.892	0.0161286
697.971	0.0161353
698.049	0.0159692
698.127	0.0160397
698.205	0.0161185
698.283	0.0160439
698.361	0.0160202
698.439	0.0159917
698.517	0.0160892
698.596	0.0160370
698.674	0.0159663
698.752	0.0161719
698.830	0.0161092
698.908	0.0161399
698.986	0.0161370
699.064	0.0161743
699.142	0.0162478
699.221	0.0161986
699.299	0.0161304
699.377	0.0163612
699.455	0.0163565
699.533	0.0163208
699.611	0.0162334
699.689	0.0163311
699.767	0.0163368
699.846	0.0163403
699.924	0.0164927
700.002	0.0163992
700.080	0.0165457
700.158	0.0164321
700.236	0.0163747
700.314	0.0163578
700.392	0.0164643
700.471	0.0164563
700.549	0.0163708
700.627	0.0164242
700.705	0.0163213
700.783	0.0163818
700.861	0.0162568
700.939	0.0162352
701.017	0.0162039
701.096	0.0161420
701.174	0.0161739
701.252	0.0162521
701.330	0.0160465
701.408	0.0161362
701.486	0.0161705
701.564	0.0161435
701.642	0.0161417
701.721	0.0162360
701.799	0.0161820
701.877	0.0160472
701.955	0.0161341
702.033	0.0162238
702.111	0.0162000
702.189	0.0163085
702.267	0.0162405
702.346	0.0162426
702.424	0.0161577
702.502	0.0165153
702.580	0.0164050
702.658	0.0163082
702.736	0.0163536
702.814	0.0163233
702.892	0.0163081
702.971	0.0162174
703.049	0.0161703
703.127	0.0163060
703.205	0.0161927
703.283	0.0161926
703.361	0.0161738
703.439	0.0161233
703.517	0.0162944
703.596	0.0161852
703.674	0.0161146
703.752	0.0161777
703.830	0.0160760
703.908	0.0162415
703.986	0.0162139
704.064	0.0161070
704.142	0.0162353
704.221	0.0162176
704.299	0.0161799
704.377	0.0162740
704.455	0.0161814
704.533	0.0162128
704.611	0.0161326
704.689	0.0162856
704.767	0.0164187
704.846	0.0163039
704.924	0.0162319
705.002	0.0162875
705.080	0.0163136
705.158	0.0163246
705.236	0.0162222
705.314	0.0163682
705.392	0.0163811
705.471	0.0162642
705.549	0.0164127
705.627	0.0163979
705.705	0.0165176
705.783	0.0165312
705.861	0.0162444
705.939	0.0164500
706.017	0.0165394
706.096	0.0163042
706.174	0.0164223
706.252	0.0163127
706.330	0.0164716
706.408	0.0163516
706.486	0.0163715
706.564	0.0163913
706.642	0.0164449
706.721	0.0164391
706.799	0.0163372
706.877	0.0162946
706.955	0.0162863
707.033	0.0162579
707.111	0.0163577
707.189	0.0163950
707.267	0.0162801
707.346	0.0162559
707.424	0.0163797
707.502	0.0162671
707.580	0.0162372
707.658	0.0162474
707.736	0.0162228
707.814	0.0161307
707.892	0.0161093
707.971	0.0160776
708.049	0.0160448
708.127	0.0161873
708.205	0.0160777
708.283	0.0160916
708.361	0.0160870
708.439	0.0160797
708.517	0.0161842
708.596	0.0161491
708.674	0.0160488
708.752	0.0161904
708.830	0.0161623
708.908	0.0163967
708.986	0.0163046
709.064	0.0164536
709.142	0.0162531
709.221	0.0163650
709.299	0.0164572
709.377	0.0163646
709.455	0.0163709
709.533	0.0163710
709.611	0.0163801
709.689	0.0164627
709.767	0.0164076
709.846	0.0162641
709.924	0.0163173
710.002	0.0161835
710.080	0.0162076
710.158	0.0161704
710.236	0.0160172
710.314	0.0159706
710.392	0.0158933
710.471	0.0158363
710.549	0.0160007
710.627	0.0159798
710.705	0.0158693
710.783	0.0158337
710.861	0.0159544
710.939	0.0161354
711.017	0.0159990
711.096	0.0160489
711.174	0.0161420
711.252	0.0162100
711.330	0.0164167
711.408	0.0163972
711.486	0.0163919
711.564	0.0163884
711.642	0.0163195
711.721	0.0165059
711.799	0.0164738
711.877	0.0166075
711.955	0.0167796
712.033	0.0166369
712.111	0.0166196
712.189	0.0167619
712.267	0.0166604
712.346	0.0166886
712.424	0.0166399
712.502	0.0166705
712.580	0.0165794
712.658	0.0165808
712.736	0.0165159
712.814	0.0164513
712.892	0.0164840
712.971	0.0164891
713.049	0.0163783
713.127	0.0162909
713.205	0.0162814
713.283	0.0163363
713.361	0.0163402
713.439	0.0163365
713.517	0.0163804
713.596	0.0162533
713.674	0.0162343
713.752	0.0162921
713.830	0.0163792
713.908	0.0163708
713.986	0.0162516
714.064	0.0163733
714.142	0.0162843
714.221	0.0163124
714.299	0.0162532
714.377	0.0161714
714.455	0.0162224
714.533	0.0160944
714.611	0.0161284
714.689	0.0160493
714.767	0.0160242
714.846	0.0160209
714.924	0.0160596
715.002	0.0159505
715.080	0.0157597
715.158	0.0159341
715.236	0.0159200
715.314	0.0158904
715.392	0.0159213
715.471	0.0159083
715.549	0.0159114
715.627	0.0159643
715.705	0.0158940
715.783	0.0159854
715.861	0.0159786
715.939	0.0161077
716.017	0.0160611
716.096	0.0161370
716.174	0.0161363
716.252	0.0161501
716.330	0.0162050
716.408	0.0164324
716.486	0.0162757
716.564	0.0162332
716.642	0.0163070
716.721	0.0164099
716.799	0.0165179
716.877	0.0163105
716.955	0.0164290
717.033	0.0165268
717.111	0.0164743
717.189	0.0164216
717.267	0.0163758
717.346	0.0164485
717.424	0.0163243
717.502	0.0163682
717.580	0.0163794
717.658	0.0163310
717.736	0.0161860
717.814	0.0162260
717.892	0.0161951
717.971	0.0161899
718.049	0.0162978
718.127	0.0162302
718.205	0.0163072
718.283	0.0163203
718.361	0.0162875
718.439	0.0163571
718.517	0.0163750
718.596	0.0164114
718.674	0.0164072
718.752	0.0164636
718.830	0.0164880
718.908	0.0164072
718.986	0.0164804
719.064	0.0164436
719.142	0.0166354
719.221	0.0165211
719.299	0.0162867
719.377	0.0163660
719.455	0.0163048
719.533	0.0161613
719.611	0.0161897
719.689	0.0162408
719.767	0.0162014
719.846	0.0160907
719.924	0.0160532
720.002	0.0160622
720.080	0.0161660
720.158	0.0160065
720.236	0.0161104
720.314	0.0160416
720.392	0.0160110
720.471	0.0161825
720.549	0.0162606
720.627	0.0161096
720.705	0.0161096
720.783	0.0161194
720.861	0.0161820
720.939	0.0161501
721.017	0.0161340
721.096	0.0161208
721.174	0.0159818
721.252	0.0161128
721.330	0.0159509
721.408	0.0158965
721.486	0.0159802
721.564	0.0159045
721.642	0.0159025
721.721	0.0158957
721.799	0.0158082
721.877	0.0157234
721.955	0.0158654
722.033	0.0159071
722.111	0.0159622
722.189	0.0158994
722.267	0.0159928
722.346	0.0160143
722.424	0.0161344
722.502	0.0161035
722.580	0.0161511
722.658	0.0161324
722.736	0.0162807
722.814	0.0162156
722.892	0.0162096
722.971	0.0163454
723.049	0.0162313
723.127	0.0163230
723.205	0.0162778
723.283	0.0163905
723.361	0.0164255
723.439	0.0163593
723.517	0.0162262
723.596	0.0162689
723.674	0.0163651
723.752	0.0164359
723.830	0.0163259
723.908	0.0163602
723.986	0.0162818
724.064	0.0161709
724.142	0.0162026
724.221	0.0163126
724.299	0.0162553
724.377	0.0163550
724.455	0.0163850
724.533	0.0164076
724.611	0.0163181
724.689	0.0163667
724.767	0.0163857
724.846	0.0163335
724.924	0.0163599
725.002	0.0163268
725.080	0.0163117
725.158	0.0162578
725.236	0.0162270
725.314	0.0160637
725.392	0.0163161
725.471	0.0161305
725.549	0.0158897
725.627	0.0160494
725.705	0.0162020
725.783	0.0160859
725.861	0.0161395
725.939	0.0159792
726.017	0.0159343
726.096	0.0160700
726.174	0.0160531
726.252	0.0160796
726.330	0.0159981
726.408	0.0161613
726.486	0.0160915
726.564	0.0161819
726.642	0.0161703
726.721	0.0162453
726.799	0.0163837
726.877	0.0163809
726.955	0.0164127
727.033	0.0163097
727.111	0.0163111
727.189	0.0163545
727.267	0.0162707
727.346	0.0162608
727.424	0.0161785
727.502	0.0162461
727.580	0.0161082
727.658	0.0161282
727.736	0.0160008
727.814	0.0161032
727.892	0.0160023
727.971	0.0158209
728.049	0.0158891
728.127	0.0159959
728.205	0.0158919
728.283	0.0159406
728.361	0.0159747
728.439	0.0159859
728.517	0.0161264
728.596	0.0160364
728.674	0.0161283
728.752	0.0161340
728.830	0.0163349
728.908	0.0162417
728.986	0.0163400
729.064	0.0162267
729.142	0.0163471
729.221	0.0163300
729.299	0.0162567
729.377	0.0163232
729.455	0.0163025
729.533	0.0163031
729.611	0.0165063
729.689	0.0161533
729.767	0.0163336
729.846	0.0163205
729.924	0.0163451
730.002	0.0163435
730.080	0.0164981
730.158	0.0164572
730.236	0.0163979
730.314	0.0164053
730.392	0.0164182
730.471	0.0164113
730.549	0.0164286
730.627	0.0163590
730.705	0.0163895
730.783	0.0164201
730.861	0.0164092
730.939	0.0164473
731.017	0.0163286
731.096	0.0162590
731.174	0.0161622
731.252	0.0161607
731.330	0.0159687
731.408	0.0160283
731.486	0.0161715
731.564	0.0161102
731.642	0.0158572
731.721	0.0157237
731.799	0.0158833
731.877	0.0157455
731.955	0.0156831
732.033	0.0156892
732.111	0.0157732
732.189	0.0159151
732.267	0.0158492
732.346	0.0158960
732.424	0.0160271
732.502	0.0160474
732.580	0.0160580
732.658	0.0160772
732.736	0.0163774
732.814	0.0164689
732.892	0.0163431
732.971	0.0164919
733.049	0.0166520
733.127	0.0166230
733.205	0.0167117
733.283	0.0166525
733.361	0.0166938
733.439	0.0166103
733.517	0.0165724
733.596	0.0164730
733.674	0.0166699
733.752	0.0165282
733.830	0.0164227
733.908	0.0163540
733.986	0.0162980
734.064	0.0162690
734.142	0.0162589
734.221	0.0160050
734.299	0.0162329
734.377	0.0161230
734.455	0.0160023
734.533	0.0160580
734.611	0.0160131
734.689	0.0159815
734.767	0.0160368
734.846	0.0159279
734.924	0.0160748
735.002	0.0159569
735.080	0.0159493
735.158	0.0161351
735.236	0.0159852
735.314	0.0159667
735.392	0.0160767
735.471	0.0160889
735.549	0.0161783
735.627	0.0160530
735.705	0.0162576
735.783	0.0161115
735.861	0.0161755
735.939	0.0162973
736.017	0.0162213
736.096	0.0162697
736.174	0.0163017
736.252	0.0163004
736.330	0.0162766
736.408	0.0162794
736.486	0.0163491
736.564	0.0163565
736.642	0.0162667
736.721	0.0164040
736.799	0.0165193
736.877	0.0163719
736.955	0.0163783
737.033	0.0165949
737.111	0.0164481
737.189	0.0164352
737.267	0.0164938
737.346	0.0164151
737.424	0.0163244
737.502	0.0164002
737.580	0.0163508
737.658	0.0162888
737.736	0.0163104
737.814	0.0161990
737.892	0.0160539
737.971	0.0160414
738.049	0.0161259
738.127	0.0159521
738.205	0.0158807
738.283	0.0158880
738.361	0.0157150
738.439	0.0157413
738.517	0.0157183
738.596	0.0158978
738.674	0.0157851
738.752	0.0157748
738.830	0.0158243
738.908	0.0159200
738.986	0.0160285
739.064	0.0158606
739.142	0.0159117
739.221	0.0160677
739.299	0.0161401
739.377	0.0161768
739.455	0.0161796
739.533	0.0161596
739.611	0.0162106
739.689	0.0161684
739.767	0.0162287
739.846	0.0163049
739.924	0.0162137
740.002	0.0161063
740.080	0.0161634
740.158	0.0161953
740.236	0.0161253
740.314	0.0162035
740.392	0.0162164
740.471	0.0161227
740.549	0.0160347
740.627	0.0159698
740.705	0.0160542
740.783	0.0161281
740.861	0.0160048
740.939	0.0162064
741.017	0.0161623
741.096	0.0161017
741.174	0.0163166
741.252	0.0163371
741.330	0.0162778
741.408	0.0162983
741.486	0.0163512
741.564	0.0162857
741.642	0.0165262
741.721	0.0165054
741.799	0.0165335
741.877	0.0164986
741.955	0.0166501
742.033	0.0163421
742.111	0.0164545
742.189	0.0163380
742.267	0.0163407
742.346	0.0162813
742.424	0.0161838
742.502	0.0160320
742.580	0.0161327
742.658	0.0159432
742.736	0.0159473
742.814	0.0159200
742.892	0.0158176
742.971	0.0156223
743.049	0.0155669
743.127	0.0156393
743.205	0.0156614
743.283	0.0156199
743.361	0.0155122
743.439	0.0154281
743.517	0.0155412
743.596	0.0155984
743.674	0.0155961
743.752	0.0156573
743.830	0.0158136
743.908	0.0159246
743.986	0.0158656
744.064	0.0159320
744.142	0.0160282
744.221	0.0160585
744.299	0.0161195
744.377	0.0160748
744.455	0.0163000
744.533	0.0162733
744.611	0.0163789
744.689	0.0161616
744.767	0.0162367
744.846	0.0161547
744.924	0.0162740
745.002	0.0162479
745.080	0.0162787
745.158	0.0162497
745.236	0.0160093
745.314	0.0160780
745.392	0.0160011
745.471	0.0160029
745.549	0.0160842
745.627	0.0158908
745.705	0.0159591
745.783	0.0161214
745.861	0.0161721
745.939	0.0160562
746.017	0.0161441
746.096	0.0161459
746.174	0.0161154
746.252	0.0162821
746.330	0.0161903
746.408	0.0163362
746.486	0.0163466
746.564	0.0163094
746.642	0.0163310
746.721	0.0163180
746.799	0.0163688
746.877	0.0163107
746.955	0.0162130
747.033	0.0162985
747.111	0.0163050
747.189	0.0162289
747.267	0.0162173
747.346	0.0160940
747.424	0.0160704
747.502	0.0161399
747.580	0.0159984
747.658	0.0158521
747.736	0.0158913
747.814	0.0157842
747.892	0.0160025
747.971	0.0157911
748.049	0.0157043
748.127	0.0157417
748.205	0.0159143
748.283	0.0157666
748.361	0.0157046
748.439	0.0158718
748.517	0.0159106
748.596	0.0158537
748.674	0.0157483
748.752	0.0156763
748.830	0.0157735
748.908	0.0161163
748.986	0.0158949
749.064	0.0159293
749.142	0.0160336
749.221	0.0159489
749.299	0.0159868
749.377	0.0160909
749.455	0.0159469
749.533	0.0158456
749.611	0.0158366
749.689	0.0158987
749.767	0.0159079
749.846	0.0160637
749.924	0.0159183
750.002	0.0159323
750.080	0.0157961
750.158	0.0158102
750.236	0.0159496
750.314	0.0159772
750.392	0.0158959
750.471	0.0159916
750.549	0.0160789
750.627	0.0160612
750.705	0.0161627
750.783	0.0161662
750.861	0.0162736
750.939	0.0161729
751.017	0.0164309
751.096	0.0163515
751.174	0.0162733
751.252	0.0165909
751.330	0.0165693
751.408	0.0164468
751.486	0.0164790
751.564	0.0165886
751.642	0.0165501
751.721	0.0163406
751.799	0.0163329
751.877	0.0163469
751.955	0.0162859
752.033	0.0161432
752.111	0.0160715
752.189	0.0162070
752.267	0.0160300
752.346	0.0160197
752.424	0.0160966
752.502	0.0158504
752.580	0.0158513
752.658	0.0158951
752.736	0.0160783
752.814	0.0159364
752.892	0.0160544
752.971	0.0159430
753.049	0.0160857
753.127	0.0160728
753.205	0.0161011
753.283	0.0159814
753.361	0.0161012
753.439	0.0161814
753.517	0.0161030
753.596	0.0161444
753.674	0.0161147
753.752	0.0160485
753.830	0.0161874
753.908	0.0161240
753.986	0.0162198
754.064	0.0161617
754.142	0.0160325
754.221	0.0161378
754.299	0.0160530
754.377	0.0161459
754.455	0.0161031
754.533	0.0160915
754.611	0.0161707
754.689	0.0160600
754.767	0.0161139
754.846	0.0161405
754.924	0.0161507
755.002	0.0162307
755.080	0.0160479
755.158	0.0161994
755.236	0.0162241
755.314	0.0162663
755.392	0.0161785
755.471	0.0162246
755.549	0.0162678
755.627	0.0162730
755.705	0.0163251
755.783	0.0162878
755.861	0.0162190
755.939	0.0162708
756.017	0.0162865
756.096	0.0161978
756.174	0.0163452
756.252	0.0163081
756.330	0.0161639
756.408	0.0163004
756.486	0.0162151
756.564	0.0161422
756.642	0.0162509
756.721	0.0161510
756.799	0.0161376
756.877	0.0160026
756.955	0.0162215
757.033	0.0160220
757.111	0.0160169
757.189	0.0161201
757.267	0.0158642
757.346	0.0158944
757.424	0.0158335
757.502	0.0160497
757.580	0.0159795
757.658	0.0159780
757.736	0.0159711
757.814	0.0158459
757.892	0.0160195
757.971	0.0159947
758.049	0.0160250
758.127	0.0159423
758.205	0.0158659
758.283	0.0160868
758.361	0.0159370
758.439	0.0160743
758.517	0.0161217
758.596	0.0161929
758.674	0.0161150
758.752	0.0160542
758.830	0.0160863
758.908	0.0160595
758.986	0.0161263
759.064	0.0161061
759.142	0.0161652
759.221	0.0160372
759.299	0.0161404
759.377	0.0160467
759.455	0.0161585
759.533	0.0160537
759.611	0.0161287
759.689	0.0162360
759.767	0.0162289
759.846	0.0161238
759.924	0.0162231
760.002	0.0159958
760.080	0.0160494
760.158	0.0160923
760.236	0.0161522
760.314	0.0161839
760.392	0.0160265
760.471	0.0161051
760.549	0.0160907
760.627	0.0162553
760.705	0.0162251
760.783	0.0162129
760.861	0.0160697
760.939	0.0162476
761.017	0.0163931
761.096	0.0162717
761.174	0.0162659
761.252	0.0161737
761.330	0.0161729
761.408	0.0161784
761.486	0.0161370
761.564	0.0162080
761.642	0.0161637
761.721	0.0160760
761.799	0.0161779
761.877	0.0161339
761.955	0.0159641
762.033	0.0160822
762.111	0.0159780
762.189	0.0159116
762.267	0.0159473
762.346	0.0159548
762.424	0.0160079
762.502	0.0159219
762.580	0.0160783
762.658	0.0160300
762.736	0.0159777
762.814	0.0160862
762.892	0.0161210
762.971	0.0161198
763.049	0.0161627
763.127	0.0160880
763.205	0.0161699
763.283	0.0162038
763.361	0.0162336
763.439	0.0159921
763.517	0.0160526
763.596	0.0161609
763.674	0.0163094
763.752	0.0163006
763.830	0.0161839
763.908	0.0163065
763.986	0.0159830
764.064	0.0161035
764.142	0.0160301
764.221	0.0161398
764.299	0.0161279
764.377	0.0160662
764.455	0.0159163
764.533	0.0160876
764.611	0.0160420
764.689	0.0160142
764.767	0.0161399
764.846	0.0160248
764.924	0.0160413
765.002	0.0160583
765.080	0.0160709
765.158	0.0160165
765.236	0.0161372
765.314	0.0162291
765.392	0.0160822
765.471	0.0160308
765.549	0.0160414
765.627	0.0161896
765.705	0.0161300
765.783	0.0159929
765.861	0.0161601
765.939	0.0159392
766.017	0.0159733
766.096	0.0159788
766.174	0.0161779
766.252	0.0160428
766.330	0.0159769
766.408	0.0160326
766.486	0.0160100
766.564	0.0159262
766.642	0.0158350
766.721	0.0159535
766.799	0.0159493
766.877	0.0160693
766.955	0.0160895
767.033	0.0160558
767.111	0.0160381
767.189	0.0160785
767.267	0.0160725
767.346	0.0161039
767.424	0.0162763
767.502	0.0161684
767.580	0.0160971
767.658	0.0161799
767.736	0.0162469
767.814	0.0162283
767.892	0.0161942
767.971	0.0162791
768.049	0.0162305
768.127	0.0162837
768.205	0.0162451
768.283	0.0161954
768.361	0.0163033
768.439	0.0162930
768.517	0.0162546
768.596	0.0161884
768.674	0.0163549
768.752	0.0162425
768.830	0.0163590
768.908	0.0162948
768.986	0.0161757
769.064	0.0162333
769.142	0.0163364
769.221	0.0161462
769.299	0.0160814
769.377	0.0161298
769.455	0.0161734
769.533	0.0161855
769.611	0.0161340
769.689	0.0161887
769.767	0.0161758
769.846	0.0161530
769.924	0.0161504
770.002	0.0160556
770.080	0.0161165
770.158	0.0161352
770.236	0.0160788
770.314	0.0160925
770.392	0.0160871
770.471	0.0159338
770.549	0.0160521
770.627	0.0160223
770.705	0.0159457
770.783	0.0162181
770.861	0.0160976
770.939	0.0161377
771.017	0.0160607
771.096	0.0161506
771.174	0.0161182
771.252	0.0159570
771.330	0.0161135
771.408	0.0161800
771.486	0.0161939
771.564	0.0160391
771.642	0.0162121
771.721	0.0162534
771.799	0.0162523
771.877	0.0162283
771.955	0.0162256
772.033	0.0162168
772.111	0.0162719
772.189	0.0162142
772.267	0.0160576
772.346	0.0161647
772.424	0.0161704
772.502	0.0161541
772.580	0.0162547
772.658	0.0160871
772.736	0.0162080
772.814	0.0162331
772.892	0.0161854
772.971	0.0162329
773.049	0.0163837
773.127	0.0163076
773.205	0.0162032
773.283	0.0163219
773.361	0.0162565
773.439	0.0163784
773.517	0.0164285
773.596	0.0163707
773.674	0.0162293
773.752	0.0162898
773.830	0.0163020
773.908	0.0162004
773.986	0.0162310
774.064	0.0162846
774.142	0.0160753
774.221	0.0161156
774.299	0.0160217
774.377	0.0161077
774.455	0.0159619
774.533	0.0159471
774.611	0.0160136
774.689	0.0160956
774.767	0.0161427
774.846	0.0162614
774.924	0.0159733
775.002	0.0159922
775.080	0.0161536
775.158	0.0161745
775.236	0.0161275
775.314	0.0161813
775.392	0.0161403
775.471	0.0161992
775.549	0.0163144
775.627	0.0164060
775.705	0.0165310
775.783	0.0163579
775.861	0.0162296
775.939	0.0164081
776.017	0.0164827
776.096	0.0165516
776.174	0.0163686
776.252	0.0165454
776.330	0.0164843
776.408	0.0163454
776.486	0.0164510
776.564	0.0163676
776.642	0.0163535
776.721	0.0162811
776.799	0.0161195
776.877	0.0163290
776.955	0.0162254
777.033	0.0162308
777.111	0.0161651
777.189	0.0160959
777.267	0.0160000
777.346	0.0161616
777.424	0.0161672
777.502	0.0160056
777.580	0.0161212
777.658	0.0161146
777.736	0.0161522
777.814	0.0161506
777.892	0.0162572
777.971	0.0161232
778.049	0.0162791
778.127	0.0162373
778.205	0.0160954
778.283	0.0161753
778.361	0.0162228
778.439	0.0163189
778.517	0.0162199
778.596	0.0163118
778.674	0.0163023
778.752	0.0162910
778.830	0.0162171
778.908	0.0161655
778.986	0.0161913
779.064	0.0162273
779.142	0.0163046
779.221	0.0162263
779.299	0.0162228
779.377	0.0164140
779.455	0.0163641
779.533	0.0163871
779.611	0.0163898
779.689	0.0161301
779.767	0.0162323
779.846	0.0162094
779.924	0.0164106
780.002	0.0163676
780.080	0.0163039
780.158	0.0161589
780.236	0.0163720
780.314	0.0162533
780.392	0.0162819
780.471	0.0162978
780.549	0.0161682
780.627	0.0161787
780.705	0.0162623
780.783	0.0161667
780.861	0.0161404
780.939	0.0161829
781.017	0.0161985
781.096	0.0162354
781.174	0.0162210
781.252	0.0160718
781.330	0.0162463
781.408	0.0162411
781.486	0.0161361
781.564	0.0161644
781.642	0.0161334
781.721	0.0162948
781.799	0.0162482
781.877	0.0162453
781.955	0.0161416
782.033	0.0161680
782.111	0.0163458
782.189	0.0161111
782.267	0.0162140
782.346	0.0162294
782.424	0.0162695
782.502	0.0162048
782.580	0.0162144
782.658	0.0162179
782.736	0.0160587
782.814	0.0160939
782.892	0.0160323
782.971	0.0160889
783.049	0.0160122
783.127	0.0160712
783.205	0.0160593
783.283	0.0159722
783.361	0.0161671
783.439	0.0161794
783.517	0.0159904
783.596	0.0157673
783.674	0.0160414
783.752	0.0161555
783.830	0.0161811
783.908	0.0161270
783.986	0.0161324
784.064	0.0162708
784.142	0.0161362
784.221	0.0161085
784.299	0.0162122
784.377	0.0163081
784.455	0.0161290
784.533	0.0161748
784.611	0.0160908
784.689	0.0160838
784.767	0.0160989
784.846	0.0160837
784.924	0.0162129
785.002	0.0160728
785.080	0.0159821
785.158	0.0158990
785.236	0.0159637
785.314	0.0159026
785.392	0.0159258
785.471	0.0159595
785.549	0.0159859
785.627	0.0158406
785.705	0.0158331
785.783	0.0159863
785.861	0.0160201
785.939	0.0159883
786.017	0.0161044
786.096	0.0160349
786.174	0.0161483
786.252	0.0161559
786.330	0.0161247
786.408	0.0161950
786.486	0.0162817
786.564	0.0161468
786.642	0.0162321
786.721	0.0161528
786.799	0.0162663
786.877	0.0162876
786.955	0.0162626
787.033	0.0162435
787.111	0.0163034
787.189	0.0161449
787.267	0.0161275
787.346	0.0162209
787.424	0.0160999
787.502	0.0161540
787.580	0.0161562
787.658	0.0161559
787.736	0.0161777
787.814	0.0161160
787.892	0.0161360
787.971	0.0159718
788.049	0.0159530
788.127	0.0159979
788.205	0.0159817
788.283	0.0160672
788.361	0.0160978
788.439	0.0160757
788.517	0.0160969
788.596	0.0161224
788.674	0.0160388
788.752	0.0159534
788.830	0.0159900
788.908	0.0160322
788.986	0.0160277
789.064	0.0160666
789.142	0.0161894
789.221	0.0160689
789.299	0.0162171
789.377	0.0161620
789.455	0.0161815
789.533	0.0161616
789.611	0.0162077
789.689	0.0162051
789.767	0.0162313
789.846	0.0160168
789.924	0.0163041
790.002	0.0163333
790.080	0.0163348
790.158	0.0162198
790.236	0.0163240
790.314	0.0162319
790.392	0.0161093
790.471	0.0161613
790.549	0.0161546
790.627	0.0159758
790.705	0.0160806
790.783	0.0161484
790.861	0.0160250
790.939	0.0161330
791.017	0.0161221
791.096	0.0161214
791.174	0.0160166
791.252	0.0160254
791.330	0.0160413
791.408	0.0160939
791.486	0.0161467
791.564	0.0159837
791.642	0.0160860
791.721	0.0162099
791.799	0.0161217
791.877	0.0162524
791.955	0.0161171
792.033	0.0162160
792.111	0.0161334
792.189	0.0163153
792.267	0.0162917
792.346	0.0162891
792.424	0.0162565
792.502	0.0163878
792.580	0.0163235
792.658	0.0164735
792.736	0.0164333
792.814	0.0163080
792.892	0.0162470
792.971	0.0161929
793.049	0.0161563
793.127	0.0163552
793.205	0.0162224
793.283	0.0161301
793.361	0.0161435
793.439	0.0161014
793.517	0.0160875
793.596	0.0160398
793.674	0.0159856
793.752	0.0161585
793.830	0.0160597
793.908	0.0160396
793.986	0.0162099
794.064	0.0160788
794.142	0.0161105
794.221	0.0161374
794.299	0.0161959
794.377	0.0163071
794.455	0.0161785
794.533	0.0162258
794.611	0.0163730
794.689	0.0164000
794.767	0.0163065
794.846	0.0161958
794.924	0.0162070
795.002	0.0161577
795.080	0.0164594
795.158	0.0163800
795.236	0.0162542
795.314	0.0163495
795.392	0.0162199
795.471	0.0163716
795.549	0.0162492
795.627	0.0162062
795.705	0.0163828
795.783	0.0163881
795.861	0.0161902
795.939	0.0162249
796.017	0.0162277
796.096	0.0161951
796.174	0.0162104
796.252	0.0161675
796.330	0.0161665
796.408	0.0162419
796.486	0.0160852
796.564	0.0161891
796.642	0.0162582
796.721	0.0161561
796.799	0.0160644
796.877	0.0162324
796.955	0.0161239
797.033	0.0163066
797.111	0.0161558
797.189	0.0162499
797.267	0.0163539
797.346	0.0163663
797.424	0.0163928
797.502	0.0163553
797.580	0.0163869
797.658	0.0163348
797.736	0.0163111
797.814	0.0162553
797.892	0.0162558
797.971	0.0162829
798.049	0.0162083
798.127	0.0161010
798.205	0.0161201
798.283	0.0161607
798.361	0.0163026
798.439	0.0163860
798.517	0.0160610
798.596	0.0160524
798.674	0.0162259
798.752	0.0161969
798.830	0.0158852
798.908	0.0160605
798.986	0.0161302
799.064	0.0160133
799.142	0.0162081
799.221	0.0162689
799.299	0.0161439
799.377	0.0162263
799.455	0.0162095
799.533	0.0162032
799.611	0.0160863
799.689	0.0161554
799.767	0.0161573
799.846	0.0164439
799.924	0.0162755
800.002	0.0162234
800.080	0.0163023
800.158	0.0162459
800.236	0.0163126
800.314	0.0162057
800.392	0.0162168
800.471	0.0162511
800.549	0.0162598
800.627	0.0163316
800.705	0.0162093
800.783	0.0162596
800.861	0.0162183
800.939	0.0162350
801.017	0.0162021
801.096	0.0161966
801.174	0.0162883
801.252	0.0162273
801.330	0.0161357
801.408	0.0161466
801.486	0.0162629
801.564	0.0160374
801.642	0.0161206
801.721	0.0160867
801.799	0.0161181
801.877	0.0161655
801.955	0.0161393
802.033	0.0160689
802.111	0.0161469
802.189	0.0161522
802.267	0.0160581
802.346	0.0161784
802.424	0.0162376
802.502	0.0163850
802.580	0.0162772
802.658	0.0162970
802.736	0.0163157
802.814	0.0162289
802.892	0.0163662
802.971	0.0163396
803.049	0.0163200
803.127	0.0163858
803.205	0.0163696
803.283	0.0163833
803.361	0.0163739
803.439	0.0164217
803.517	0.0163091
803.596	0.0161773
803.674	0.0162588
803.752	0.0161249
803.830	0.0161687
803.908	0.0160991
803.986	0.0162276
804.064	0.0162383
804.142	0.0161110
804.221	0.0160161
804.299	0.0161069
804.377	0.0160255
804.455	0.0160159
804.533	0.0159418
804.611	0.0159614
804.689	0.0160519
804.767	0.0161329
804.846	0.0160243
804.924	0.0160742
805.002	0.0162434
805.080	0.0161070
805.158	0.0162404
805.236	0.0161255
805.314	0.0162667
805.392	0.0162734
805.471	0.0163164
805.549	0.0162907
805.627	0.0162165
805.705	0.0163351
805.783	0.0163847
805.861	0.0163445
805.939	0.0162930
806.017	0.0161761
806.096	0.0162388
806.174	0.0163200
806.252	0.0161994
806.330	0.0161732
806.408	0.0161993
806.486	0.0160411
806.564	0.0160802
806.642	0.0160423
806.721	0.0159648
806.799	0.0160069
806.877	0.0159823
806.955	0.0160226
807.033	0.0158613
807.111	0.0159369
807.189	0.0160226
807.267	0.0159727
807.346	0.0159494
807.424	0.0159990
807.502	0.0161079
807.580	0.0160214
807.658	0.0160390
807.736	0.0160870
807.814	0.0160737
807.892	0.0160511
807.971	0.0163039
808.049	0.0161191
808.127	0.0161458
808.205	0.0162408
808.283	0.0160513
808.361	0.0160654
808.439	0.0162619
808.517	0.0161516
808.596	0.0160747
808.674	0.0162801
808.752	0.0162445
808.830	0.0161949
808.908	0.0162957
808.986	0.0161488
809.064	0.0160957
809.142	0.0162191
809.221	0.0162038
809.299	0.0162295
809.377	0.0160442
809.455	0.0162440
809.533	0.0161765
809.611	0.0160680
809.689	0.0161955
809.767	0.0162027
809.846	0.0161823
809.924	0.0160921
810.002	0.0161130
810.080	0.0160235
810.158	0.0161579
810.236	0.0161676
810.314	0.0160313
810.392	0.0159638
810.471	0.0160288
810.549	0.0161419
810.627	0.0162040
810.705	0.0161375
810.783	0.0159707
810.861	0.0161403
810.939	0.0162125
811.017	0.0161543
811.096	0.0161658
811.174	0.0161731
811.252	0.0161651
811.330	0.0162534
811.408	0.0161319
811.486	0.0161222
811.564	0.0162168
811.642	0.0161311
811.721	0.0161942
811.799	0.0162601
811.877	0.0161621
811.955	0.0162789
812.033	0.0161598
812.111	0.0161881
812.189	0.0160188
812.267	0.0161148
812.346	0.0162601
812.424	0.0162509
812.502	0.0162228
812.580	0.0161055
812.658	0.0161818
812.736	0.0161724
812.814	0.0161785
812.892	0.0162061
812.971	0.0161176
813.049	0.0163544
813.127	0.0162568
813.205	0.0161289
813.283	0.0162483
813.361	0.0162164
813.439	0.0160887
813.517	0.0163536
813.596	0.0161980
813.674	0.0163116
813.752	0.0160928
813.830	0.0162997
813.908	0.0162476
813.986	0.0163113
814.064	0.0162727
814.142	0.0162187
814.221	0.0162090
814.299	0.0161790
814.377	0.0160910
814.455	0.0159818
814.533	0.0161676
814.611	0.0161762
814.689	0.0160641
814.767	0.0162154
814.846	0.0161518
814.924	0.0161250
815.002	0.0160934
815.080	0.0160802
815.158	0.0161739
815.236	0.0162101
815.314	0.0161745
815.392	0.0162395
815.471	0.0161906
815.549	0.0161978
815.627	0.0162056
815.705	0.0162560
815.783	0.0161667
815.861	0.0161517
815.939	0.0161893
816.017	0.0160812
816.096	0.0161946
816.174	0.0161443
816.252	0.0162733
816.330	0.0160590
816.408	0.0159958
816.486	0.0161848
816.564	0.0162463
816.642	0.0162155
816.721	0.0160316
816.799	0.0160944
816.877	0.0161284
816.955	0.0161920
817.033	0.0161031
817.111	0.0161342
817.189	0.0160261
817.267	0.0162076
817.346	0.0161035
817.424	0.0161243
817.502	0.0162682
817.580	0.0162453
817.658	0.0160773
817.736	0.0162449
817.814	0.0160809
817.892	0.0162907
817.971	0.0161920
818.049	0.0162074
818.127	0.0162486
818.205	0.0162810
818.283	0.0162293
818.361	0.0161692
818.439	0.0162357
818.517	0.0162473
818.596	0.0162429
818.674	0.0161926
818.752	0.0163219
818.830	0.0162661
818.908	0.0162742
818.986	0.0161594
819.064	0.0161509
819.142	0.0161761
819.221	0.0160442
819.299	0.0161320
819.377	0.0162231
819.455	0.0162001
819.533	0.0161063
819.611	0.0161848
819.689	0.0160677
819.767	0.0161004
819.846	0.0161253
819.924	0.0161375
820.002	0.0161356
820.080	0.0162147
820.158	0.0161295
820.236	0.0160748
820.314	0.0161904
820.392	0.0161901
820.471	0.0160976
820.549	0.0162231
820.627	0.0160263
820.705	0.0161448
820.783	0.0162637
820.861	0.0162518
820.939	0.0162077
821.017	0.0162331
821.096	0.0161783
821.174	0.0162925
821.252	0.0162179
821.330	0.0162988
821.408	0.0162641
821.486	0.0162528
821.564	0.0162521
821.642	0.0161055
821.721	0.0160208
821.799	0.0162537
821.877	0.0163067
821.955	0.0162145
822.033	0.0161904
822.111	0.0160757
822.189	0.0159947
822.267	0.0161821
822.346	0.0160529
822.424	0.0160887
822.502	0.0161448
822.580	0.0160340
822.658	0.0160215
822.736	0.0161640
822.814	0.0161584
822.892	0.0160011
822.971	0.0161673
823.049	0.0160423
823.127	0.0160501
823.205	0.0160822
823.283	0.0160654
823.361	0.0160540
823.439	0.0161304
823.517	0.0160931
823.596	0.0160484
823.674	0.0161781
823.752	0.0161262
823.830	0.0160519
823.908	0.0159114
823.986	0.0159460
824.064	0.0160891
824.142	0.0161337
824.221	0.0160960
824.299	0.0160925
824.377	0.0160876
824.455	0.0160839
824.533	0.0159457
824.611	0.0160786
824.689	0.0161410
824.767	0.0161878
824.846	0.0160843
824.924	0.0161726
825.002	0.0161205
825.080	0.0160484
825.158	0.0163147
825.236	0.0161472
825.314	0.0162534
825.392	0.0161250
825.471	0.0160373
825.549	0.0162096
825.627	0.0162531
825.705	0.0162217
825.783	0.0162131
825.861	0.0161289
825.939	0.0162076
826.017	0.0161512
826.096	0.0161911
826.174	0.0162859
826.252	0.0162147
826.330	0.0162397
826.408	0.0161836
826.486	0.0161592
826.564	0.0162102
826.642	0.0161607
826.721	0.0161702
826.799	0.0161671
826.877	0.0163174
826.955	0.0161528
827.033	0.0161669
827.111	0.0161601
827.189	0.0162580
827.267	0.0160539
827.346	0.0161082
827.424	0.0161468
827.502	0.0160443
827.580	0.0160950
827.658	0.0161555
827.736	0.0161604
827.814	0.0162216
827.892	0.0161856
827.971	0.0161073
828.049	0.0160822
828.127	0.0160706
828.205	0.0160705
828.283	0.0162100
828.361	0.0160880
828.439	0.0161406
828.517	0.0159915
828.596	0.0161342
828.674	0.0162540
828.752	0.0160570
828.830	0.0160841
828.908	0.0162053
828.986	0.0160595
829.064	0.0160300
829.142	0.0161307
829.221	0.0161069
829.299	0.0159632
829.377	0.0159985
829.455	0.0160117
829.533	0.0161385
829.611	0.0162216
829.689	0.0160861
829.767	0.0160981
829.846	0.0162595
829.924	0.0160898
830.002	0.0160668
830.080	0.0162594
830.158	0.0163506
830.236	0.0160661
830.314	0.0161265
830.392	0.0163530
830.471	0.0161472
830.549	0.0161591
830.627	0.0161588
830.705	0.0161178
830.783	0.0161595
830.861	0.0161214
830.939	0.0161249
831.017	0.0162249
831.096	0.0161641
831.174	0.0160703
831.252	0.0159000
831.330	0.0160080
831.408	0.0162405
831.486	0.0160301
831.564	0.0160480
831.642	0.0160310
831.721	0.0160674
831.799	0.0158650
831.877	0.0158974
831.955	0.0160992
832.033	0.0161708
832.111	0.0161421
832.189	0.0161050
832.267	0.0161151
832.346	0.0160642
832.424	0.0161996
832.502	0.0160889
832.580	0.0162501
832.658	0.0161971
832.736	0.0162677
832.814	0.0164397
832.892	0.0162685
832.971	0.0161760
833.049	0.0161172
833.127	0.0163250
833.205	0.0163921
833.283	0.0161184
833.361	0.0162947
833.439	0.0163383
833.517	0.0163135
833.596	0.0162151
833.674	0.0162026
833.752	0.0162286
833.830	0.0162756
833.908	0.0161794
833.986	0.0160651
834.064	0.0161510
834.142	0.0160679
834.221	0.0160799
834.299	0.0161273
834.377	0.0161671
834.455	0.0161233
834.533	0.0160818
834.611	0.0160681
834.689	0.0161031
834.767	0.0160863
834.846	0.0161213
834.924	0.0160774
835.002	0.0160973
835.080	0.0160947
835.158	0.0159917
835.236	0.0161395
835.314	0.0161885
835.392	0.0162093
835.471	0.0162816
835.549	0.0162157
835.627	0.0161584
835.705	0.0162319
835.783	0.0162134
835.861	0.0161864
835.939	0.0161628
836.017	0.0162542
836.096	0.0161381
836.174	0.0162048
836.252	0.0161803
836.330	0.0162406
836.408	0.0160761
836.486	0.0161588
836.564	0.0160892
836.642	0.0160904
836.721	0.0161625
836.799	0.0161078
836.877	0.0161427
836.955	0.0162592
837.033	0.0161327
837.111	0.0162093
837.189	0.0160743
837.267	0.0161456
837.346	0.0162273
837.424	0.0162265
837.502	0.0162718
837.580	0.0163399
837.658	0.0164824
837.736	0.0163934
837.814	0.0162828
837.892	0.0162912
837.971	0.0163783
838.049	0.0164961
838.127	0.0163158
838.205	0.0163227
838.283	0.0163225
838.361	0.0163486
838.439	0.0164314
838.517	0.0161868
838.596	0.0162984
838.674	0.0162337
838.752	0.0161912
838.830	0.0160684
838.908	0.0160839
838.986	0.0160071
839.064	0.0160703
839.142	0.0161140
839.221	0.0160954
839.299	0.0159965
839.377	0.0159876
839.455	0.0161278
839.533	0.0160315
839.611	0.0159214
839.689	0.0161089
839.767	0.0159920
839.846	0.0161172
839.924	0.0161754
840.002	0.0161150
840.080	0.0161381
840.158	0.0161325
840.236	0.0160504
840.314	0.0161506
840.392	0.0162566
840.471	0.0163660
840.549	0.0161737
840.627	0.0160168
840.705	0.0162101
840.783	0.0162139
840.861	0.0162243
840.939	0.0161930
841.017	0.0162410
841.096	0.0161498
841.174	0.0161460
841.252	0.0162327
841.330	0.0161589
841.408	0.0161595
841.486	0.0161329
841.564	0.0161700
841.642	0.0161013
841.721	0.0162003
841.799	0.0161087
841.877	0.0160890
841.955	0.0162033
842.033	0.0162013
842.111	0.0160941
842.189	0.0161118
842.267	0.0160867
842.346	0.0160658
842.424	0.0160851
842.502	0.0160770
842.580	0.0161391
842.658	0.0160498
842.736	0.0160591
842.814	0.0161533
842.892	0.0160390
842.971	0.0161128
843.049	0.0161372
843.127	0.0160568
843.205	0.0161855
843.283	0.0161279
843.361	0.0161223
843.439	0.0160468
843.517	0.0162140
843.596	0.0161304
843.674	0.0160404
843.752	0.0160793
843.830	0.0161586
843.908	0.0162054
843.986	0.0161143
844.064	0.0160274
844.142	0.0161340
844.221	0.0161981
844.299	0.0160832
844.377	0.0161063
844.455	0.0160780
844.533	0.0161559
844.611	0.0159829
844.689	0.0160969
844.767	0.0160870
844.846	0.0159624
844.924	0.0159843
845.002	0.0157868
845.080	0.0159736
845.158	0.0160606
845.236	0.0160890
845.314	0.0159913
845.392	0.0159546
845.471	0.0160820
845.549	0.0161140
845.627	0.0160642
845.705	0.0159183
845.783	0.0161069
845.861	0.0161717
845.939	0.0161353
846.017	0.0162379
846.096	0.0160848
846.174	0.0162134
846.252	0.0161996
846.330	0.0161572
846.408	0.0160948
846.486	0.0162380
846.564	0.0162724
846.642	0.0160724
846.721	0.0160023
846.799	0.0162113
846.877	0.0161586
846.955	0.0161658
847.033	0.0162063
847.111	0.0161093
847.189	0.0161379
847.267	0.0161550
847.346	0.0161626
847.424	0.0161344
847.502	0.0161470
847.580	0.0162576
847.658	0.0160921
847.736	0.0161098
847.814	0.0161867
847.892	0.0161289
847.971	0.0161411
848.049	0.0161356
848.127	0.0160968
848.205	0.0161118
848.283	0.0162389
848.361	0.0161903
848.439	0.0160466
848.517	0.0161777
848.596	0.0162920
848.674	0.0160732
848.752	0.0161652
848.830	0.0161750
848.908	0.0161892
848.986	0.0161427
849.064	0.0160635
849.142	0.0161296
849.221	0.0160220
849.299	0.0161378
849.377	0.0161312
849.455	0.0159686
849.533	0.0161945
849.611	0.0160610
849.689	0.0159328
849.767	0.0159415
849.846	0.0159943
849.924	0.0160477
850.002	0.0161507
850.080	0.0161479
850.158	0.0159969
850.236	0.0160481
850.314	0.0160777
850.392	0.0160301
850.471	0.0162299
850.549	0.0161793
850.627	0.0161523
850.705	0.0160911
850.783	0.0161905
850.861	0.0159816
850.939	0.0160262
851.017	0.0161167
851.096	0.0160694
851.174	0.0161706
851.252	0.0161781
851.330	0.0161319
851.408	0.0161608
851.486	0.0161374
851.564	0.0161481
851.642	0.0160735
851.721	0.0161452
851.799	0.0161194
851.877	0.0161518
851.955	0.0160767
852.033	0.0161064
852.111	0.0161585
852.189	0.0161563
852.267	0.0162529
852.346	0.0162916
852.424	0.0163067
852.502	0.0160667
852.580	0.0160738
852.658	0.0162494
852.736	0.0161643
852.814	0.0161258
852.892	0.0161732
852.971	0.0161422
853.049	0.0161387
853.127	0.0160181
853.205	0.0160825
853.283	0.0159737
853.361	0.0160642
853.439	0.0161378
853.517	0.0161749
853.596	0.0160905
853.674	0.0162076
853.752	0.0161115
853.830	0.0161277
853.908	0.0161527
853.986	0.0161444
854.064	0.0162822
854.142	0.0162411
854.221	0.0161512
854.299	0.0162662
854.377	0.0163301
854.455	0.0163248
854.533	0.0163197
854.611	0.0161673
854.689	0.0161611
854.767	0.0161573
854.846	0.0162246
854.924	0.0160268
855.002	0.0161351
855.080	0.0160225
855.158	0.0160440
855.236	0.0160857
855.314	0.0160243
855.392	0.0159387
855.471	0.0160455
855.549	0.0161095
855.627	0.0159724
855.705	0.0160609
855.783	0.0160493
855.861	0.0161487
855.939	0.0161615
856.017	0.0159726
856.096	0.0160307
856.174	0.0161133
856.252	0.0161173
856.330	0.0162078
856.408	0.0161459
856.486	0.0162237
856.564	0.0161182
856.642	0.0160202
856.721	0.0161027
856.799	0.0161739
856.877	0.0162675
856.955	0.0161959
857.033	0.0161629
857.111	0.0162025
857.189	0.0160999
857.267	0.0159421
857.346	0.0159020
857.424	0.0160788
857.502	0.0162044
857.580	0.0159656
857.658	0.0159780
857.736	0.0160476
857.814	0.0160234
857.892	0.0160714
857.971	0.0160560
858.049	0.0161546
858.127	0.0160968
858.205	0.0160986
858.283	0.0161896
858.361	0.0162395
858.439	0.0161313
858.517	0.0160745
858.596	0.0160148
858.674	0.0162057
858.752	0.0162328
858.830	0.0162209
858.908	0.0162409
858.986	0.0162851
859.064	0.0162605
859.142	0.0162243
859.221	0.0161655
859.299	0.0162437
859.377	0.0161839
859.455	0.0161395
859.533	0.0160559
859.611	0.0161929
859.689	0.0161259
859.767	0.0162029
859.846	0.0160489
859.924	0.0162007
860.002	0.0163036
860.080	0.0160946
860.158	0.0161787
860.236	0.0161626
860.314	0.0160596
860.392	0.0160649
860.471	0.0160974
860.549	0.0161725
860.627	0.0160023
860.705	0.0161238
860.783	0.0161657
860.861	0.0162450
860.939	0.0161893
861.017	0.0161835
861.096	0.0162289
861.174	0.0161731
861.252	0.0161085
861.330	0.0162106
861.408	0.0161657
861.486	0.0162731
861.564	0.0162060
861.642	0.0162057
861.721	0.0162634
861.799	0.0162002
861.877	0.0162609
861.955	0.0162258
862.033	0.0162505
862.111	0.0162843
862.189	0.0161005
862.267	0.0161825
862.346	0.0161453
862.424	0.0160326
862.502	0.0163168
862.580	0.0160892
862.658	0.0161320
862.736	0.0161424
862.814	0.0160427
862.892	0.0161469
862.971	0.0162185
863.049	0.0160496
863.127	0.0161724
863.205	0.0162133
863.283	0.0160497
863.361	0.0159219
863.439	0.0160857
863.517	0.0162175
863.596	0.0161978
863.674	0.0161446
863.752	0.0158683
863.830	0.0161471
863.908	0.0160681
863.986	0.0160136
864.064	0.0163453
864.142	0.0161602
864.221	0.0160406
864.299	0.0160832
864.377	0.0161066
864.455	0.0162408
864.533	0.0161339
864.611	0.0161225
864.689	0.0161432
864.767	0.0160855
864.846	0.0160417
864.924	0.0160325
865.002	0.0161386
865.080	0.0160558
865.158	0.0160838
865.236	0.0160992
865.314	0.0162457
865.392	0.0161735
865.471	0.0161153
865.549	0.0159973
865.627	0.0160753
865.705	0.0160874
865.783	0.0160572
865.861	0.0161340
865.939	0.0162308
866.017	0.0161195
866.096	0.0160914
866.174	0.0161430
866.252	0.0161817
866.330	0.0160654
866.408	0.0161456
866.486	0.0161121
866.564	0.0160078
866.642	0.0161786
866.721	0.0161990
866.799	0.0161911
866.877	0.0161005
866.955	0.0161964
867.033	0.0161411
867.111	0.0160566
867.189	0.0161623
867.267	0.0163186
867.346	0.0161886
867.424	0.0161712
867.502	0.0161752
867.580	0.0162567
867.658	0.0161584
867.736	0.0161879
867.814	0.0160922
867.892	0.0162660
867.971	0.0162203
868.049	0.0161943
868.127	0.0162317
868.205	0.0162383
868.283	0.0163119
868.361	0.0161653
868.439	0.0161508
868.517	0.0160769
868.596	0.0162589
868.674	0.0162495
868.752	0.0161632
868.830	0.0161848
868.908	0.0163248
868.986	0.0160818
869.064	0.0162905
869.142	0.0161970
869.221	0.0161163
869.299	0.0162126
869.377	0.0160311
869.455	0.0162152
869.533	0.0161997
869.611	0.0161098
869.689	0.0161531
869.767	0.0161571
869.846	0.0161421
869.924	0.0160872
870.002	0.0161469
870.080	0.0162099
870.158	0.0161809
870.236	0.0162227
870.314	0.0162469
870.392	0.0161132
870.471	0.0162215
870.549	0.0162136
870.627	0.0162480
870.705	0.0160695
870.783	0.0162929
870.861	0.0160834
870.939	0.0160874
871.017	0.0161591
871.096	0.0162255
871.174	0.0160822
871.252	0.0161005
871.330	0.0161890
871.408	0.0162916
871.486	0.0162543
871.564	0.0160727
871.642	0.0162833
871.721	0.0162595
871.799	0.0161662
871.877	0.0161517
871.955	0.0161559
872.033	0.0162550
872.111	0.0161491
872.189	0.0160930
872.267	0.0161001
872.346	0.0161658
872.424	0.0160722
872.502	0.0161617
872.580	0.0161124
872.658	0.0160647
872.736	0.0161386
872.814	0.0161762
872.892	0.0160989
872.971	0.0160686
873.049	0.0161802
873.127	0.0161578
873.205	0.0161275
873.283	0.0162659
873.361	0.0161054
873.439	0.0161970
873.517	0.0162797
873.596	0.0161883
873.674	0.0159589
873.752	0.0162367
873.830	0.0160847
873.908	0.0160772
873.986	0.0161416
874.064	0.0161549
874.142	0.0160895
874.221	0.0161417
874.299	0.0161171
874.377	0.0161790
874.455	0.0161064
874.533	0.0159709
874.611	0.0161372
874.689	0.0161514
874.767	0.0161330
874.846	0.0161440
874.924	0.0161250
875.002	0.0160622
875.080	0.0161359
875.158	0.0161179
875.236	0.0163652
875.314	0.0162023
875.392	0.0162222
875.471	0.0161938
875.549	0.0161025
875.627	0.0161617
875.705	0.0161376
875.783	0.0161735
875.861	0.0160441
875.939	0.0160361
876.017	0.0162163
876.096	0.0161984
876.174	0.0162127
876.252	0.0163134
876.330	0.0162083
876.408	0.0161182
876.486	0.0161736
876.564	0.0163644
876.642	0.0161627
876.721	0.0161958
876.799	0.0159868
876.877	0.0159951
876.955	0.0160651
877.033	0.0161791
877.111	0.0162064
877.189	0.0161282
877.267	0.0161263
877.346	0.0160843
877.424	0.0161124
877.502	0.0160806
877.580	0.0161171
877.658	0.0161822
877.736	0.0162062
877.814	0.0163301
877.892	0.0162198
877.971	0.0163306
878.049	0.0161249
878.127	0.0160971
878.205	0.0161949
878.283	0.0162950
878.361	0.0161314
878.439	0.0162704
878.517	0.0162079
878.596	0.0162615
878.674	0.0161503
878.752	0.0161846
878.830	0.0160664
878.908	0.0162734
878.986	0.0161812
879.064	0.0161300
879.142	0.0162031
879.221	0.0161701
879.299	0.0162245
879.377	0.0162915
879.455	0.0162193
879.533	0.0160752
879.611	0.0161987
879.689	0.0161995
879.767	0.0160596
879.846	0.0161079
879.924	0.0163356
880.002	0.0164831
880.080	0.0162486
880.158	0.0162639
880.236	0.0161343
880.314	0.0163647
880.392	0.0164330
880.471	0.0163335
880.549	0.0161776
880.627	0.0160651
880.705	0.0162869
880.783	0.0162236
880.861	0.0163114
880.939	0.0163226
881.017	0.0161680
881.096	0.0161763
881.174	0.0160964
881.252	0.0162717
881.330	0.0161445
881.408	0.0161032
881.486	0.0161093
881.564	0.0160975
881.642	0.0160979
881.721	0.0161970
881.799	0.0160381
881.877	0.0160454
881.955	0.0160457
882.033	0.0162839
882.111	0.0160472
882.189	0.0161847
882.267	0.0161543
882.346	0.0160684
882.424	0.0161925
882.502	0.0162383
882.580	0.0161561
882.658	0.0161785
882.736	0.0163877
882.814	0.0162027
882.892	0.0161357
882.971	0.0162212
883.049	0.0161251
883.127	0.0161576
883.205	0.0162694
883.283	0.0161200
883.361	0.0162437
883.439	0.0163348
883.517	0.0161301
883.596	0.0161465
883.674	0.0162723
883.752	0.0162657
883.830	0.0160102
883.908	0.0160891
883.986	0.0161170
884.064	0.0160718
884.142	0.0162293
884.221	0.0161964
884.299	0.0161760
884.377	0.0161951
884.455	0.0160342
884.533	0.0161028
884.611	0.0161297
884.689	0.0161060
884.767	0.0161897
884.846	0.0161279
884.924	0.0161617
885.002	0.0161337
885.080	0.0162106
885.158	0.0161587
885.236	0.0161010
885.314	0.0161469
885.392	0.0161501
885.471	0.0162194
885.549	0.0161269
885.627	0.0162178
885.705	0.0163480
885.783	0.0160625
885.861	0.0160548
885.939	0.0161018
886.017	0.0161286
886.096	0.0161618
886.174	0.0160941
886.252	0.0160049
886.330	0.0160842
886.408	0.0159876
886.486	0.0161961
886.564	0.0160508
886.642	0.0161191
886.721	0.0160599
886.799	0.0160954
886.877	0.0161617
886.955	0.0160556
887.033	0.0160988
887.111	0.0160809
887.189	0.0160580
887.267	0.0161082
887.346	0.0161465
887.424	0.0161900
887.502	0.0162192
887.580	0.0162103
887.658	0.0161377
887.736	0.0160870
887.814	0.0162588
887.892	0.0161367
887.971	0.0161253
888.049	0.0161098
888.127	0.0159731
888.205	0.0161649
888.283	0.0162405
888.361	0.0161815
888.439	0.0161006
888.517	0.0162479
888.596	0.0162460
888.674	0.0161775
888.752	0.0162421
888.830	0.0161283
888.908	0.0162391
888.986	0.0161523
889.064	0.0161975
889.142	0.0160722
889.221	0.0160546
889.299	0.0161137
889.377	0.0162163
889.455	0.0162963
889.533	0.0162402
889.611	0.0160793
889.689	0.0161434
889.767	0.0160107
889.846	0.0161621
889.924	0.0161835
890.002	0.0161806
890.080	0.0161766
890.158	0.0160886
890.236	0.0161748
890.314	0.0161647
890.392	0.0161927
890.471	0.0161771
890.549	0.0162273
890.627	0.0162327
890.705	0.0161723
890.783	0.0161558
890.861	0.0162074
890.939	0.0162096
891.017	0.0161613
891.096	0.0161871
891.174	0.0162595
891.252	0.0162288
891.330	0.0161699
891.408	0.0162354
891.486	0.0163094
891.564	0.0161499
891.642	0.0162801
891.721	0.0160741
891.799	0.0162074
891.877	0.0162716
891.955	0.0161632
892.033	0.0162152
892.111	0.0161243
892.189	0.0162537
892.267	0.0162276
892.346	0.0161972
892.424	0.0161607
892.502	0.0161911
892.580	0.0161975
892.658	0.0163272
892.736	0.0162840
892.814	0.0162338
892.892	0.0162083
892.971	0.0162183
893.049	0.0162399
893.127	0.0160589
893.205	0.0161861
893.283	0.0161447
893.361	0.0162013
893.439	0.0161393
893.517	0.0162391
893.596	0.0163624
893.674	0.0161990
893.752	0.0161619
893.830	0.0162597
893.908	0.0161868
893.986	0.0160827
894.064	0.0162191
894.142	0.0161536
894.221	0.0160975
894.299	0.0163879
894.377	0.0161972
894.455	0.0161957
894.533	0.0162317
894.611	0.0162178
894.689	0.0162076
894.767	0.0162152
894.846	0.0161910
894.924	0.0161494
895.002	0.0161631
895.080	0.0161128
895.158	0.0161644
895.236	0.0162385
895.314	0.0161993
895.392	0.0162301
895.471	0.0161302
895.549	0.0162628
895.627	0.0161660
895.705	0.0161172
895.783	0.0161391
895.861	0.0161407
895.939	0.0160829
896.017	0.0161038
896.096	0.0160572
896.174	0.0160831
896.252	0.0160570
896.330	0.0162695
896.408	0.0161755
896.486	0.0161156
896.564	0.0162751
896.642	0.0162105
896.721	0.0162504
896.799	0.0161811
896.877	0.0161407
896.955	0.0160929
897.033	0.0161826
897.111	0.0161156
897.189	0.0161465
897.267	0.0162207
897.346	0.0162733
897.424	0.0160875
897.502	0.0160875
897.580	0.0160364
897.658	0.0159340
897.736	0.0162276
897.814	0.0161565
897.892	0.0162081
897.971	0.0161447
898.049	0.0161699
898.127	0.0160606
898.205	0.0161692
898.283	0.0161882
898.361	0.0160931
898.439	0.0162765
898.517	0.0161893
898.596	0.0162100
898.674	0.0162122
898.752	0.0162371
898.830	0.0162869
898.908	0.0162575
898.986	0.0162886
899.064	0.0161172
899.142	0.0161556
899.221	0.0162521
899.299	0.0162890
899.377	0.0161533
899.455	0.0161965
899.533	0.0161758
899.611	0.0162502
899.689	0.0161404
899.767	0.0160412
899.846	0.0162348
899.924	0.0162123
900.002	0.0161745
900.080	0.0162309
900.158	0.0161862
900.236	0.0161240
900.314	0.0161626
900.392	0.0161969
900.471	0.0161562
900.549	0.0162183
900.627	0.0162120
900.705	0.0163313
900.783	0.0162704
900.861	0.0162132
900.939	0.0162560
901.017	0.0162798
901.096	0.0162909
901.174	0.0160026
901.252	0.0162515
901.330	0.0163195
901.408	0.0161622
901.486	0.0161644
901.564	0.0162501
901.642	0.0162607
901.721	0.0161112
901.799	0.0160029
901.877	0.0162807
901.955	0.0163114
902.033	0.0160541
902.111	0.0161295
902.189	0.0162013
902.267	0.0162470
902.346	0.0161994
902.424	0.0161136
902.502	0.0159570
902.580	0.0161991
902.658	0.0162143
902.736	0.0162270
902.814	0.0160559
902.892	0.0161502
902.971	0.0162936
903.049	0.0162006
903.127	0.0162199
903.205	0.0161276
903.283	0.0162545
903.361	0.0161628
903.439	0.0161766
903.517	0.0162450
903.596	0.0161488
903.674	0.0162203
903.752	0.0161276
903.830	0.0162033
903.908	0.0162172
903.986	0.0162218
904.064	0.0161605
904.142	0.0162112
904.221	0.0162285
904.299	0.0163207
904.377	0.0161317
904.455	0.0161726
904.533	0.0161855
904.611	0.0162972
904.689	0.0162153
904.767	0.0160926
904.846	0.0161898
904.924	0.0161323
905.002	0.0163096
905.080	0.0160704
905.158	0.0161190
905.236	0.0162492
905.314	0.0162319
905.392	0.0161073
905.471	0.0161583
905.549	0.0161030
905.627	0.0161765
905.705	0.0160786
905.783	0.0162387
905.861	0.0161021
905.939	0.0160567
906.017	0.0163086
906.096	0.0161652
906.174	0.0161311
906.252	0.0162441
906.330	0.0161758
906.408	0.0163006
906.486	0.0161229
906.564	0.0160734
906.642	0.0162419
906.721	0.0161797
906.799	0.0161970
906.877	0.0161153
906.955	0.0161052
907.033	0.0162391
907.111	0.0162434
907.189	0.0162928
907.267	0.0162497
907.346	0.0160810
907.424	0.0161521
907.502	0.0161870
907.580	0.0161507
907.658	0.0161220
907.736	0.0161058
907.814	0.0161590
907.892	0.0162171
907.971	0.0161774
908.049	0.0161282
908.127	0.0161892
908.205	0.0162351
908.283	0.0161292
908.361	0.0162991
908.439	0.0162460
908.517	0.0162123
908.596	0.0161993
908.674	0.0162438
908.752	0.0161845
908.830	0.0162476
908.908	0.0161559
908.986	0.0161533
909.064	0.0160680
909.142	0.0161036
909.221	0.0160696
909.299	0.0162149
909.377	0.0162580
909.455	0.0161163
909.533	0.0160968
909.611	0.0160680
909.689	0.0160805
909.767	0.0162323
909.846	0.0161694
909.924	0.0161976
910.002	0.0159528
910.080	0.0160957
910.158	0.0160747
910.236	0.0160678
910.314	0.0162344
910.392	0.0161762
910.471	0.0159286
910.549	0.0161697
910.627	0.0161730
910.705	0.0161440
910.783	0.0161097
910.861	0.0160184
910.939	0.0162235
911.017	0.0161261
911.096	0.0161740
911.174	0.0163731
911.252	0.0162160
911.330	0.0161763
911.408	0.0162316
911.486	0.0162180
911.564	0.0161705
911.642	0.0161340
911.721	0.0161469
911.799	0.0161829
911.877	0.0161976
911.955	0.0162048
912.033	0.0160208
912.111	0.0159940
912.189	0.0159935
912.267	0.0161403
912.346	0.0162315
912.424	0.0160465
912.502	0.0160358
912.580	0.0160901
912.658	0.0161286
912.736	0.0160389
912.814	0.0160794
912.892	0.0161411
912.971	0.0161540
913.049	0.0160732
913.127	0.0160624
913.205	0.0160910
913.283	0.0161959
913.361	0.0161871
913.439	0.0161515
913.517	0.0159663
913.596	0.0161082
913.674	0.0160690
913.752	0.0159584
913.830	0.0161625
913.908	0.0159812
913.986	0.0160835
914.064	0.0161040
914.142	0.0160514
914.221	0.0160731
914.299	0.0161499
914.377	0.0161120
914.455	0.0160339
914.533	0.0160014
914.611	0.0160595
914.689	0.0162537
914.767	0.0161140
914.846	0.0160643
914.924	0.0161510
915.002	0.0159920
915.080	0.0159778
915.158	0.0159890
915.236	0.0160530
915.314	0.0161212
915.392	0.0160675
915.471	0.0161307
915.549	0.0160284
915.627	0.0161678
915.705	0.0160509
915.783	0.0162064
915.861	0.0161713
915.939	0.0160025
916.017	0.0160613
916.096	0.0160892
916.174	0.0161462
916.252	0.0161429
916.330	0.0162157
916.408	0.0161325
916.486	0.0161623
916.564	0.0162392
916.642	0.0161428
916.721	0.0160101
916.799	0.0161081
916.877	0.0161749
916.955	0.0161531
917.033	0.0161493
917.111	0.0161216
917.189	0.0160934
917.267	0.0160258
917.346	0.0160380
917.424	0.0162389
917.502	0.0161559
917.580	0.0161893
917.658	0.0160449
917.736	0.0161636
917.814	0.0161343
917.892	0.0161438
917.971	0.0162235
918.049	0.0159795
918.127	0.0160997
918.205	0.0162273
918.283	0.0161806
918.361	0.0161604
918.439	0.0162289
918.517	0.0162373
918.596	0.0162392
918.674	0.0161781
918.752	0.0161573
918.830	0.0161572
918.908	0.0161816
918.986	0.0161611
919.064	0.0160761
919.142	0.0161440
919.221	0.0162135
919.299	0.0161297
919.377	0.0161901
919.455	0.0162651
919.533	0.0161160
919.611	0.0161381
919.689	0.0162202
919.767	0.0161692
919.846	0.0160576
919.924	0.0160197
