06/29/2022	21:35:24	Ver.	4.1	UNKNOWN
Optical Delay	600.001752	Delta X		0.078125	Sweeps	1	Scan Rate	0/0
Coordinates	Axis 1	NaN	Axis 2	NaN	Axis 3	NaN	Axis 4	NaN	Axis 5	NaN	Axis 6	0.000000
TX Power	0.000000	RX Power	0.000000

600.002	0.0161753
600.080	0.0161584
600.158	0.0159707
600.236	0.0159825
600.314	0.0162079
600.392	0.0162448
600.471	0.0161130
600.549	0.0160571
600.627	0.0160209
600.705	0.0160871
600.783	0.0162210
600.861	0.0159917
600.939	0.0161847
601.017	0.0160299
601.096	0.0161041
601.174	0.0160895
601.252	0.0161555
601.330	0.0159658
601.408	0.0160310
601.486	0.0161667
601.564	0.0162226
601.642	0.0160194
601.721	0.0161194
601.799	0.0162199
601.877	0.0160944
601.955	0.0161131
602.033	0.0161835
602.111	0.0160626
602.189	0.0160815
602.267	0.0161763
602.346	0.0161210
602.424	0.0160540
602.502	0.0160348
602.580	0.0161081
602.658	0.0159588
602.736	0.0160221
602.814	0.0161594
602.892	0.0161143
602.971	0.0161094
603.049	0.0159755
603.127	0.0159435
603.205	0.0160294
603.283	0.0159766
603.361	0.0160738
603.439	0.0160854
603.517	0.0161270
603.596	0.0159551
603.674	0.0160672
603.752	0.0159282
603.830	0.0160041
603.908	0.0159789
603.986	0.0162228
604.064	0.0160062
604.142	0.0160895
604.221	0.0160645
604.299	0.0159724
604.377	0.0159741
604.455	0.0160182
604.533	0.0160787
604.611	0.0161459
604.689	0.0159994
604.767	0.0160863
604.846	0.0160478
604.924	0.0161098
605.002	0.0160863
605.080	0.0160657
605.158	0.0160693
605.236	0.0160468
605.314	0.0162627
605.392	0.0160733
605.471	0.0159845
605.549	0.0160911
605.627	0.0161227
605.705	0.0162456
605.783	0.0160683
605.861	0.0160641
605.939	0.0161610
606.017	0.0161385
606.096	0.0159778
606.174	0.0161333
606.252	0.0161245
606.330	0.0161086
606.408	0.0160761
606.486	0.0161027
606.564	0.0160584
606.642	0.0161749
606.721	0.0160326
606.799	0.0161242
606.877	0.0161703
606.955	0.0161847
607.033	0.0161282
607.111	0.0160952
607.189	0.0161140
607.267	0.0161667
607.346	0.0162152
607.424	0.0161618
607.502	0.0161898
607.580	0.0161820
607.658	0.0162428
607.736	0.0162225
607.814	0.0161471
607.892	0.0162005
607.971	0.0164020
608.049	0.0162887
608.127	0.0163081
608.205	0.0162581
608.283	0.0161919
608.361	0.0162479
608.439	0.0161778
608.517	0.0161108
608.596	0.0162668
608.674	0.0161915
608.752	0.0161928
608.830	0.0160036
608.908	0.0161181
608.986	0.0161236
609.064	0.0161642
609.142	0.0162295
609.221	0.0159724
609.299	0.0161646
609.377	0.0162032
609.455	0.0162599
609.533	0.0161146
609.611	0.0162054
609.689	0.0161411
609.767	0.0161304
609.846	0.0160578
609.924	0.0161453
610.002	0.0161082
610.080	0.0161652
610.158	0.0160976
610.236	0.0161156
610.314	0.0161205
610.392	0.0160825
610.471	0.0160789
610.549	0.0161121
610.627	0.0160458
610.705	0.0158787
610.783	0.0160218
610.861	0.0159634
610.939	0.0161100
611.017	0.0162273
611.096	0.0160278
611.174	0.0160419
611.252	0.0160624
611.330	0.0161095
611.408	0.0160594
611.486	0.0160993
611.564	0.0160206
611.642	0.0159773
611.721	0.0161977
611.799	0.0160194
611.877	0.0160710
611.955	0.0160571
612.033	0.0160208
612.111	0.0160370
612.189	0.0161246
612.267	0.0160489
612.346	0.0161654
612.424	0.0161993
612.502	0.0158865
612.580	0.0159355
612.658	0.0160112
612.736	0.0160864
612.814	0.0159359
612.892	0.0159681
612.971	0.0159699
613.049	0.0159003
613.127	0.0159161
613.205	0.0160074
613.283	0.0159042
613.361	0.0158760
613.439	0.0158533
613.517	0.0160789
613.596	0.0160075
613.674	0.0158806
613.752	0.0158837
613.830	0.0159376
613.908	0.0158652
613.986	0.0160510
614.064	0.0158591
614.142	0.0158640
614.221	0.0160213
614.299	0.0159090
614.377	0.0158786
614.455	0.0159019
614.533	0.0159838
614.611	0.0159627
614.689	0.0159402
614.767	0.0160150
614.846	0.0159590
614.924	0.0161411
615.002	0.0160606
615.080	0.0160123
615.158	0.0159715
615.236	0.0159543
615.314	0.0157990
615.392	0.0159938
615.471	0.0159993
615.549	0.0160599
615.627	0.0160112
615.705	0.0161298
615.783	0.0159746
615.861	0.0159854
615.939	0.0160056
616.017	0.0161401
616.096	0.0160770
616.174	0.0159023
616.252	0.0160711
616.330	0.0161227
616.408	0.0160015
616.486	0.0160535
616.564	0.0161803
616.642	0.0160166
616.721	0.0161286
616.799	0.0160860
616.877	0.0161674
616.955	0.0160739
617.033	0.0160281
617.111	0.0162415
617.189	0.0160921
617.267	0.0161417
617.346	0.0160655
617.424	0.0159083
617.502	0.0160049
617.580	0.0159717
617.658	0.0160401
617.736	0.0161528
617.814	0.0160843
617.892	0.0161318
617.971	0.0162230
618.049	0.0160825
618.127	0.0162067
618.205	0.0162863
618.283	0.0161799
618.361	0.0161300
618.439	0.0161536
618.517	0.0161404
618.596	0.0161562
618.674	0.0161627
618.752	0.0162389
618.830	0.0161317
618.908	0.0160836
618.986	0.0162678
619.064	0.0162008
619.142	0.0161538
619.221	0.0161505
619.299	0.0162565
619.377	0.0161115
619.455	0.0162041
619.533	0.0162692
619.611	0.0160870
619.689	0.0161713
619.767	0.0163167
619.846	0.0162572
619.924	0.0160094
620.002	0.0162109
620.080	0.0163531
620.158	0.0162288
620.236	0.0160082
620.314	0.0161523
620.392	0.0161704
620.471	0.0160027
620.549	0.0161510
620.627	0.0163123
620.705	0.0163813
620.783	0.0159913
620.861	0.0159675
620.939	0.0159616
621.017	0.0162701
621.096	0.0161330
621.174	0.0160608
621.252	0.0161585
621.330	0.0161624
621.408	0.0161667
621.486	0.0161607
621.564	0.0161437
621.642	0.0161530
621.721	0.0161139
621.799	0.0159956
621.877	0.0161689
621.955	0.0161060
622.033	0.0160567
622.111	0.0161776
622.189	0.0160407
622.267	0.0162599
622.346	0.0161578
622.424	0.0160954
622.502	0.0161066
622.580	0.0161237
622.658	0.0161318
622.736	0.0162083
622.814	0.0161803
622.892	0.0161118
622.971	0.0160709
623.049	0.0161050
623.127	0.0160896
623.205	0.0162333
623.283	0.0160223
623.361	0.0160607
623.439	0.0160755
623.517	0.0159525
623.596	0.0161011
623.674	0.0161089
623.752	0.0160721
623.830	0.0161739
623.908	0.0159917
623.986	0.0160360
624.064	0.0160126
624.142	0.0161383
624.221	0.0160310
624.299	0.0160378
624.377	0.0160236
624.455	0.0159256
624.533	0.0159359
624.611	0.0160775
624.689	0.0160748
624.767	0.0160912
624.846	0.0160857
624.924	0.0160327
625.002	0.0159665
625.080	0.0160612
625.158	0.0160908
625.236	0.0160082
625.314	0.0159730
625.392	0.0159726
625.471	0.0159776
625.549	0.0159045
625.627	0.0159480
625.705	0.0159860
625.783	0.0160665
625.861	0.0160473
625.939	0.0160043
626.017	0.0159232
626.096	0.0161861
626.174	0.0160876
626.252	0.0160833
626.330	0.0159850
626.408	0.0160986
626.486	0.0160687
626.564	0.0160580
626.642	0.0158501
626.721	0.0160738
626.799	0.0161465
626.877	0.0160834
626.955	0.0160258
627.033	0.0161756
627.111	0.0161283
627.189	0.0161934
627.267	0.0161046
627.346	0.0161790
627.424	0.0162072
627.502	0.0160596
627.580	0.0160172
627.658	0.0160738
627.736	0.0158426
627.814	0.0159704
627.892	0.0161544
627.971	0.0160830
628.049	0.0160894
628.127	0.0161788
628.205	0.0160822
628.283	0.0160367
628.361	0.0160629
628.439	0.0161226
628.517	0.0161266
628.596	0.0159943
628.674	0.0160486
628.752	0.0162457
628.830	0.0161842
628.908	0.0160825
628.986	0.0161549
629.064	0.0161064
629.142	0.0161871
629.221	0.0162036
629.299	0.0161792
629.377	0.0160619
629.455	0.0160742
629.533	0.0160408
629.611	0.0160731
629.689	0.0162389
629.767	0.0161664
629.846	0.0161542
629.924	0.0162680
630.002	0.0161995
630.080	0.0161549
630.158	0.0161236
630.236	0.0161604
630.314	0.0161580
630.392	0.0161654
630.471	0.0162025
630.549	0.0163028
630.627	0.0163864
630.705	0.0162225
630.783	0.0162295
630.861	0.0161689
630.939	0.0160981
631.017	0.0162184
631.096	0.0161627
631.174	0.0163237
631.252	0.0161662
631.330	0.0161930
631.408	0.0162094
631.486	0.0161437
631.564	0.0162406
631.642	0.0160315
631.721	0.0160501
631.799	0.0161598
631.877	0.0160981
631.955	0.0162207
632.033	0.0161238
632.111	0.0161665
632.189	0.0161258
632.267	0.0161375
632.346	0.0159834
632.424	0.0160531
632.502	0.0163181
632.580	0.0160837
632.658	0.0161091
632.736	0.0161897
632.814	0.0160235
632.892	0.0160711
632.971	0.0160464
633.049	0.0161321
633.127	0.0160884
633.205	0.0159982
633.283	0.0161006
633.361	0.0160673
633.439	0.0160656
633.517	0.0160238
633.596	0.0158739
633.674	0.0159357
633.752	0.0160828
633.830	0.0160103
633.908	0.0159550
633.986	0.0159456
634.064	0.0162000
634.142	0.0160031
634.221	0.0160656
634.299	0.0159794
634.377	0.0160622
634.455	0.0160571
634.533	0.0159451
634.611	0.0158925
634.689	0.0159464
634.767	0.0160381
634.846	0.0161252
634.924	0.0158469
635.002	0.0159887
635.080	0.0161249
635.158	0.0158819
635.236	0.0160188
635.314	0.0160119
635.392	0.0160611
635.471	0.0159843
635.549	0.0160558
635.627	0.0159586
635.705	0.0160193
635.783	0.0161411
635.861	0.0159261
635.939	0.0160057
636.017	0.0158572
636.096	0.0158804
636.174	0.0160350
636.252	0.0158373
636.330	0.0158630
636.408	0.0159225
636.486	0.0159093
636.564	0.0157759
636.642	0.0160773
636.721	0.0158455
636.799	0.0160742
636.877	0.0159846
636.955	0.0159311
637.033	0.0160609
637.111	0.0160040
637.189	0.0159162
637.267	0.0158713
637.346	0.0160069
637.424	0.0160143
637.502	0.0160166
637.580	0.0160826
637.658	0.0159949
637.736	0.0160047
637.814	0.0158630
637.892	0.0160133
637.971	0.0158757
638.049	0.0158380
638.127	0.0159513
638.205	0.0160098
638.283	0.0160394
638.361	0.0160671
638.439	0.0160035
638.517	0.0160080
638.596	0.0161079
638.674	0.0160463
638.752	0.0160024
638.830	0.0160476
638.908	0.0159725
638.986	0.0160678
639.064	0.0160589
639.142	0.0159570
639.221	0.0160416
639.299	0.0160551
639.377	0.0160204
639.455	0.0160243
639.533	0.0160075
639.611	0.0160741
639.689	0.0160113
639.767	0.0158237
639.846	0.0160939
639.924	0.0160497
640.002	0.0159245
640.080	0.0161203
640.158	0.0159841
640.236	0.0160351
640.314	0.0160480
640.392	0.0159536
640.471	0.0160758
640.549	0.0159962
640.627	0.0160409
640.705	0.0160392
640.783	0.0159779
640.861	0.0159852
640.939	0.0159355
641.017	0.0159622
641.096	0.0160284
641.174	0.0159102
641.252	0.0160551
641.330	0.0160569
641.408	0.0159483
641.486	0.0160538
641.564	0.0160672
641.642	0.0160056
641.721	0.0160888
641.799	0.0160497
641.877	0.0160826
641.955	0.0159875
642.033	0.0160369
642.111	0.0160727
642.189	0.0160059
642.267	0.0159450
642.346	0.0160071
642.424	0.0159238
642.502	0.0161585
642.580	0.0160040
642.658	0.0158578
642.736	0.0159833
642.814	0.0161028
642.892	0.0159907
642.971	0.0160331
643.049	0.0159724
643.127	0.0159538
643.205	0.0160493
643.283	0.0161018
643.361	0.0160413
643.439	0.0160507
643.517	0.0160963
643.596	0.0161727
643.674	0.0160387
643.752	0.0162597
643.830	0.0160017
643.908	0.0160067
643.986	0.0159285
644.064	0.0159443
644.142	0.0161508
644.221	0.0160680
644.299	0.0161166
644.377	0.0160661
644.455	0.0159933
644.533	0.0160767
644.611	0.0160267
644.689	0.0159859
644.767	0.0160228
644.846	0.0160009
644.924	0.0159638
645.002	0.0160187
645.080	0.0159914
645.158	0.0158471
645.236	0.0160123
645.314	0.0159842
645.392	0.0159707
645.471	0.0159407
645.549	0.0158808
645.627	0.0161116
645.705	0.0159636
645.783	0.0160793
645.861	0.0159934
645.939	0.0160303
646.017	0.0159458
646.096	0.0158724
646.174	0.0159614
646.252	0.0159899
646.330	0.0159269
646.408	0.0160102
646.486	0.0159753
646.564	0.0158024
646.642	0.0158143
646.721	0.0159213
646.799	0.0158917
646.877	0.0159396
646.955	0.0159525
647.033	0.0158702
647.111	0.0159912
647.189	0.0160103
647.267	0.0160052
647.346	0.0159607
647.424	0.0159897
647.502	0.0160950
647.580	0.0159008
647.658	0.0160258
647.736	0.0158504
647.814	0.0160266
647.892	0.0160829
647.971	0.0160236
648.049	0.0159719
648.127	0.0159985
648.205	0.0161228
648.283	0.0160828
648.361	0.0159480
648.439	0.0160919
648.517	0.0160081
648.596	0.0160183
648.674	0.0160117
648.752	0.0160712
648.830	0.0160339
648.908	0.0160990
648.986	0.0160349
649.064	0.0161586
649.142	0.0161211
649.221	0.0160430
649.299	0.0159560
649.377	0.0159992
649.455	0.0160283
649.533	0.0160537
649.611	0.0161742
649.689	0.0160685
649.767	0.0159853
649.846	0.0160751
649.924	0.0161430
650.002	0.0160434
650.080	0.0159555
650.158	0.0159518
650.236	0.0161424
650.314	0.0160546
650.392	0.0160600
650.471	0.0160113
650.549	0.0160571
650.627	0.0159874
650.705	0.0160618
650.783	0.0160173
650.861	0.0161666
650.939	0.0160982
651.017	0.0159637
651.096	0.0159830
651.174	0.0160360
651.252	0.0159335
651.330	0.0161314
651.408	0.0160047
651.486	0.0160944
651.564	0.0160944
651.642	0.0159274
651.721	0.0161455
651.799	0.0161446
651.877	0.0159559
651.955	0.0160710
652.033	0.0159451
652.111	0.0158418
652.189	0.0160512
652.267	0.0160377
652.346	0.0159354
652.424	0.0160484
652.502	0.0160382
652.580	0.0159716
652.658	0.0160220
652.736	0.0159405
652.814	0.0160817
652.892	0.0160464
652.971	0.0160519
653.049	0.0159930
653.127	0.0159694
653.205	0.0159542
653.283	0.0159533
653.361	0.0161237
653.439	0.0160729
653.517	0.0160046
653.596	0.0160413
653.674	0.0159512
653.752	0.0161000
653.830	0.0160491
653.908	0.0161092
653.986	0.0160567
654.064	0.0160250
654.142	0.0159811
654.221	0.0159532
654.299	0.0161095
654.377	0.0161658
654.455	0.0159184
654.533	0.0160428
654.611	0.0160735
654.689	0.0160323
654.767	0.0160130
654.846	0.0160871
654.924	0.0160301
655.002	0.0160573
655.080	0.0159570
655.158	0.0160494
655.236	0.0160740
655.314	0.0159507
655.392	0.0159319
655.471	0.0159037
655.549	0.0158890
655.627	0.0160385
655.705	0.0160085
655.783	0.0159797
655.861	0.0159010
655.939	0.0159284
656.017	0.0160246
656.096	0.0159536
656.174	0.0160613
656.252	0.0160288
656.330	0.0159301
656.408	0.0160904
656.486	0.0161172
656.564	0.0159324
656.642	0.0159479
656.721	0.0161785
656.799	0.0160228
656.877	0.0159541
656.955	0.0159388
657.033	0.0159725
657.111	0.0160876
657.189	0.0159639
657.267	0.0160462
657.346	0.0159551
657.424	0.0159411
657.502	0.0160625
657.580	0.0160629
657.658	0.0160176
657.736	0.0160730
657.814	0.0159330
657.892	0.0160460
657.971	0.0159529
658.049	0.0159808
658.127	0.0159299
658.205	0.0159412
658.283	0.0158127
658.361	0.0158934
658.439	0.0159544
658.517	0.0159280
658.596	0.0159589
658.674	0.0159421
658.752	0.0159337
658.830	0.0159591
658.908	0.0159161
658.986	0.0160184
659.064	0.0160133
659.142	0.0159567
659.221	0.0158117
659.299	0.0160423
659.377	0.0159235
659.455	0.0159554
659.533	0.0159866
659.611	0.0159057
659.689	0.0158560
659.767	0.0160365
659.846	0.0161195
659.924	0.0161071
660.002	0.0160925
660.080	0.0160854
660.158	0.0159286
660.236	0.0159098
660.314	0.0159840
660.392	0.0159011
660.471	0.0160133
660.549	0.0160167
660.627	0.0159093
660.705	0.0159769
660.783	0.0161189
660.861	0.0160467
660.939	0.0159477
661.017	0.0159875
661.096	0.0159086
661.174	0.0159310
661.252	0.0160004
661.330	0.0159227
661.408	0.0159769
661.486	0.0159726
661.564	0.0160236
661.642	0.0160312
661.721	0.0159715
661.799	0.0160540
661.877	0.0159815
661.955	0.0159734
662.033	0.0159711
662.111	0.0159332
662.189	0.0160526
662.267	0.0161481
662.346	0.0159803
662.424	0.0160754
662.502	0.0159058
662.580	0.0160104
662.658	0.0160133
662.736	0.0158161
662.814	0.0158987
662.892	0.0159425
662.971	0.0161397
663.049	0.0159472
663.127	0.0158146
663.205	0.0158698
663.283	0.0159598
663.361	0.0160778
663.439	0.0159622
663.517	0.0160132
663.596	0.0159789
663.674	0.0159743
663.752	0.0159871
663.830	0.0159772
663.908	0.0160175
663.986	0.0160143
664.064	0.0159763
664.142	0.0159803
664.221	0.0159660
664.299	0.0160506
664.377	0.0160592
664.455	0.0160851
664.533	0.0160116
664.611	0.0160772
664.689	0.0160172
664.767	0.0159174
664.846	0.0159742
664.924	0.0159566
665.002	0.0158701
665.080	0.0160003
665.158	0.0162092
665.236	0.0159441
665.314	0.0161411
665.392	0.0160574
665.471	0.0160900
665.549	0.0159219
665.627	0.0158880
665.705	0.0161009
665.783	0.0159808
665.861	0.0161045
665.939	0.0160238
666.017	0.0160738
666.096	0.0161084
666.174	0.0160103
666.252	0.0159203
666.330	0.0158997
666.408	0.0159293
666.486	0.0159473
666.564	0.0159780
666.642	0.0160354
666.721	0.0160571
666.799	0.0160727
666.877	0.0159695
666.955	0.0158031
667.033	0.0159843
667.111	0.0160429
667.189	0.0159535
667.267	0.0160001
667.346	0.0161186
667.424	0.0159893
667.502	0.0158497
667.580	0.0159800
667.658	0.0160119
667.736	0.0159489
667.814	0.0160976
667.892	0.0160948
667.971	0.0160805
668.049	0.0159900
668.127	0.0160497
668.205	0.0159602
668.283	0.0161110
668.361	0.0160490
668.439	0.0160299
668.517	0.0160373
668.596	0.0159438
668.674	0.0159843
668.752	0.0161876
668.830	0.0159240
668.908	0.0160986
668.986	0.0160790
669.064	0.0159850
669.142	0.0160381
669.221	0.0160288
669.299	0.0161257
669.377	0.0160361
669.455	0.0161812
669.533	0.0160141
669.611	0.0159361
669.689	0.0162033
669.767	0.0161182
669.846	0.0159907
669.924	0.0160581
670.002	0.0161627
670.080	0.0159740
670.158	0.0160107
670.236	0.0160603
670.314	0.0161102
670.392	0.0160439
670.471	0.0158957
670.549	0.0160113
670.627	0.0160235
670.705	0.0161096
670.783	0.0160085
670.861	0.0159624
670.939	0.0159638
671.017	0.0160273
671.096	0.0161213
671.174	0.0159229
671.252	0.0159766
671.330	0.0161138
671.408	0.0158887
671.486	0.0159546
671.564	0.0160411
671.642	0.0159637
671.721	0.0161476
671.799	0.0161702
671.877	0.0159230
671.955	0.0159992
672.033	0.0158841
672.111	0.0159777
672.189	0.0159268
672.267	0.0160041
672.346	0.0160979
672.424	0.0161774
672.502	0.0159550
672.580	0.0160727
672.658	0.0160389
672.736	0.0159938
672.814	0.0159646
672.892	0.0160307
672.971	0.0160892
673.049	0.0159956
673.127	0.0160571
673.205	0.0161072
673.283	0.0160290
673.361	0.0160059
673.439	0.0160175
673.517	0.0159554
673.596	0.0160423
673.674	0.0161004
673.752	0.0160915
673.830	0.0160350
673.908	0.0160266
673.986	0.0160553
674.064	0.0161152
674.142	0.0161201
674.221	0.0162017
674.299	0.0160483
674.377	0.0160990
674.455	0.0160965
674.533	0.0160773
674.611	0.0160703
674.689	0.0161277
674.767	0.0160711
674.846	0.0161801
674.924	0.0160252
675.002	0.0161839
675.080	0.0161002
675.158	0.0160645
675.236	0.0161393
675.314	0.0162775
675.392	0.0161115
675.471	0.0162037
675.549	0.0161954
675.627	0.0160938
675.705	0.0160802
675.783	0.0160851
675.861	0.0160744
675.939	0.0161759
676.017	0.0161658
676.096	0.0161698
676.174	0.0161057
676.252	0.0159936
676.330	0.0161243
676.408	0.0159679
676.486	0.0162311
676.564	0.0161038
676.642	0.0160184
676.721	0.0159617
676.799	0.0160603
676.877	0.0161707
676.955	0.0161299
677.033	0.0159892
677.111	0.0161257
677.189	0.0160113
677.267	0.0160764
677.346	0.0161550
677.424	0.0162658
677.502	0.0159971
677.580	0.0159260
677.658	0.0160775
677.736	0.0159536
677.814	0.0161521
677.892	0.0160698
677.971	0.0160072
678.049	0.0161303
678.127	0.0160063
678.205	0.0160686
678.283	0.0160960
678.361	0.0161168
678.439	0.0161794
678.517	0.0159801
678.596	0.0160684
678.674	0.0161868
678.752	0.0161020
678.830	0.0159814
678.908	0.0160252
678.986	0.0161337
679.064	0.0160232
679.142	0.0159723
679.221	0.0160516
679.299	0.0159777
679.377	0.0161478
679.455	0.0161675
679.533	0.0160445
679.611	0.0159248
679.689	0.0160358
679.767	0.0161871
679.846	0.0160935
679.924	0.0160984
680.002	0.0160693
680.080	0.0160442
680.158	0.0161013
680.236	0.0160896
680.314	0.0160583
680.392	0.0162242
680.471	0.0160223
680.549	0.0158852
680.627	0.0161320
680.705	0.0159727
680.783	0.0160853
680.861	0.0161328
680.939	0.0160304
681.017	0.0160934
681.096	0.0161183
681.174	0.0160462
681.252	0.0161178
681.330	0.0161416
681.408	0.0160533
681.486	0.0161802
681.564	0.0160764
681.642	0.0159971
681.721	0.0160212
681.799	0.0161728
681.877	0.0159271
681.955	0.0161436
682.033	0.0161951
682.111	0.0160548
682.189	0.0160204
682.267	0.0159120
682.346	0.0160632
682.424	0.0161920
682.502	0.0161576
682.580	0.0160484
682.658	0.0161445
682.736	0.0161501
682.814	0.0159635
682.892	0.0161127
682.971	0.0161941
683.049	0.0161311
683.127	0.0160941
683.205	0.0161395
683.283	0.0161630
683.361	0.0160912
683.439	0.0162170
683.517	0.0160360
683.596	0.0160305
683.674	0.0160101
683.752	0.0161639
683.830	0.0160851
683.908	0.0162299
683.986	0.0161357
684.064	0.0161573
684.142	0.0161135
684.221	0.0159895
684.299	0.0161240
684.377	0.0161393
684.455	0.0160808
684.533	0.0160573
684.611	0.0160644
684.689	0.0160787
684.767	0.0160916
684.846	0.0162203
684.924	0.0160658
685.002	0.0161971
685.080	0.0161844
685.158	0.0160651
685.236	0.0160908
685.314	0.0160821
685.392	0.0162112
685.471	0.0161409
685.549	0.0161662
685.627	0.0161203
685.705	0.0161919
685.783	0.0160871
685.861	0.0161490
685.939	0.0161098
686.017	0.0160545
686.096	0.0161309
686.174	0.0160495
686.252	0.0159740
686.330	0.0161053
686.408	0.0160379
686.486	0.0160214
686.564	0.0159384
686.642	0.0159670
686.721	0.0160358
686.799	0.0161482
686.877	0.0159387
686.955	0.0159593
687.033	0.0159679
687.111	0.0159400
687.189	0.0159077
687.267	0.0161231
687.346	0.0160588
687.424	0.0158938
687.502	0.0158991
687.580	0.0160841
687.658	0.0159428
687.736	0.0160736
687.814	0.0160284
687.892	0.0159786
687.971	0.0161176
688.049	0.0161042
688.127	0.0158945
688.205	0.0160467
688.283	0.0161488
688.361	0.0160700
688.439	0.0160909
688.517	0.0160715
688.596	0.0159766
688.674	0.0161369
688.752	0.0160490
688.830	0.0159885
688.908	0.0161604
688.986	0.0160798
689.064	0.0160234
689.142	0.0160104
689.221	0.0160314
689.299	0.0160588
689.377	0.0159081
689.455	0.0159402
689.533	0.0159804
689.611	0.0160601
689.689	0.0159807
689.767	0.0159778
689.846	0.0160767
689.924	0.0160450
690.002	0.0160417
690.080	0.0160159
690.158	0.0159647
690.236	0.0158539
690.314	0.0159443
690.392	0.0161868
690.471	0.0161086
690.549	0.0161835
690.627	0.0159901
690.705	0.0159431
690.783	0.0161277
690.861	0.0160496
690.939	0.0160931
691.017	0.0161203
691.096	0.0162042
691.174	0.0162196
691.252	0.0162267
691.330	0.0161179
691.408	0.0159718
691.486	0.0160226
691.564	0.0159128
691.642	0.0161274
691.721	0.0160318
691.799	0.0161595
691.877	0.0160987
691.955	0.0160434
692.033	0.0160014
692.111	0.0159650
692.189	0.0160275
692.267	0.0159431
692.346	0.0160946
692.424	0.0160876
692.502	0.0159901
692.580	0.0161154
692.658	0.0161726
692.736	0.0161001
692.814	0.0160036
692.892	0.0160822
692.971	0.0160445
693.049	0.0159743
693.127	0.0160168
693.205	0.0160005
693.283	0.0161706
693.361	0.0159632
693.439	0.0160783
693.517	0.0160466
693.596	0.0162162
693.674	0.0160084
693.752	0.0160996
693.830	0.0162180
693.908	0.0162223
693.986	0.0160590
694.064	0.0161559
694.142	0.0160647
694.221	0.0162523
694.299	0.0162514
694.377	0.0162335
694.455	0.0162504
694.533	0.0162978
694.611	0.0162814
694.689	0.0163783
694.767	0.0162740
694.846	0.0161215
694.924	0.0162381
695.002	0.0162751
695.080	0.0163432
695.158	0.0164260
695.236	0.0162741
695.314	0.0161654
695.392	0.0160806
695.471	0.0160978
695.549	0.0160958
695.627	0.0161080
695.705	0.0160931
695.783	0.0160218
695.861	0.0161720
695.939	0.0160286
696.017	0.0158764
696.096	0.0160954
696.174	0.0161361
696.252	0.0159036
696.330	0.0159933
696.408	0.0159896
696.486	0.0158124
696.564	0.0159084
696.642	0.0160973
696.721	0.0160545
696.799	0.0160774
696.877	0.0160931
696.955	0.0159377
697.033	0.0161172
697.111	0.0161321
697.189	0.0162122
697.267	0.0160799
697.346	0.0161857
697.424	0.0161742
697.502	0.0162082
697.580	0.0162776
697.658	0.0161872
697.736	0.0161202
697.814	0.0161504
697.892	0.0161360
697.971	0.0161190
698.049	0.0160622
698.127	0.0160703
698.205	0.0162465
698.283	0.0162408
698.361	0.0161749
698.439	0.0161270
698.517	0.0161816
698.596	0.0163294
698.674	0.0161888
698.752	0.0163081
698.830	0.0162727
698.908	0.0161041
698.986	0.0162955
699.064	0.0161787
699.142	0.0162717
699.221	0.0162898
699.299	0.0161922
699.377	0.0162548
699.455	0.0162485
699.533	0.0159928
699.611	0.0161854
699.689	0.0161671
699.767	0.0161347
699.846	0.0160412
699.924	0.0162131
700.002	0.0160333
700.080	0.0160979
700.158	0.0160603
700.236	0.0160136
700.314	0.0160921
700.392	0.0161207
700.471	0.0160676
700.549	0.0161559
700.627	0.0161938
700.705	0.0160665
700.783	0.0160660
700.861	0.0161710
700.939	0.0161282
701.017	0.0160543
701.096	0.0160817
701.174	0.0161385
701.252	0.0160719
701.330	0.0161010
701.408	0.0161646
701.486	0.0160872
701.564	0.0160212
701.642	0.0159090
701.721	0.0160294
701.799	0.0159921
701.877	0.0160719
701.955	0.0159879
702.033	0.0158062
702.111	0.0161475
702.189	0.0161337
702.267	0.0160429
702.346	0.0159644
702.424	0.0159795
702.502	0.0159319
702.580	0.0159109
702.658	0.0161443
702.736	0.0161333
702.814	0.0162052
702.892	0.0161737
702.971	0.0162072
703.049	0.0160442
703.127	0.0163365
703.205	0.0162463
703.283	0.0163681
703.361	0.0163660
703.439	0.0163294
703.517	0.0164094
703.596	0.0164496
703.674	0.0163167
703.752	0.0163739
703.830	0.0163692
703.908	0.0162017
703.986	0.0162720
704.064	0.0163733
704.142	0.0163096
704.221	0.0162171
704.299	0.0160946
704.377	0.0162127
704.455	0.0161975
704.533	0.0159854
704.611	0.0160626
704.689	0.0160247
704.767	0.0161449
704.846	0.0160998
704.924	0.0160397
705.002	0.0160027
705.080	0.0160275
705.158	0.0160799
705.236	0.0160087
705.314	0.0161066
705.392	0.0162060
705.471	0.0161960
705.549	0.0161095
705.627	0.0161256
705.705	0.0159865
705.783	0.0161436
705.861	0.0161138
705.939	0.0161794
706.017	0.0161015
706.096	0.0161868
706.174	0.0161542
706.252	0.0159931
706.330	0.0159817
706.408	0.0160114
706.486	0.0159695
706.564	0.0159783
706.642	0.0159293
706.721	0.0159000
706.799	0.0159472
706.877	0.0159462
706.955	0.0159590
707.033	0.0159435
707.111	0.0159983
707.189	0.0157677
707.267	0.0161340
707.346	0.0161362
707.424	0.0160824
707.502	0.0158603
707.580	0.0160464
707.658	0.0161346
707.736	0.0160824
707.814	0.0160455
707.892	0.0160697
707.971	0.0160006
708.049	0.0160969
708.127	0.0161594
708.205	0.0160825
708.283	0.0162548
708.361	0.0162598
708.439	0.0161078
708.517	0.0160093
708.596	0.0160389
708.674	0.0160241
708.752	0.0161050
708.830	0.0161771
708.908	0.0160784
708.986	0.0160312
709.064	0.0160302
709.142	0.0159258
709.221	0.0159356
709.299	0.0160321
709.377	0.0157882
709.455	0.0158312
709.533	0.0158807
709.611	0.0157919
709.689	0.0157349
709.767	0.0157623
709.846	0.0158124
709.924	0.0157628
710.002	0.0158015
710.080	0.0156924
710.158	0.0158678
710.236	0.0158742
710.314	0.0159097
710.392	0.0157849
710.471	0.0159075
710.549	0.0159486
710.627	0.0161677
710.705	0.0161633
710.783	0.0161559
710.861	0.0162871
710.939	0.0163335
711.017	0.0163179
711.096	0.0163296
711.174	0.0163686
711.252	0.0163419
711.330	0.0164825
711.408	0.0162698
711.486	0.0161756
711.564	0.0163483
711.642	0.0163184
711.721	0.0161428
711.799	0.0161389
711.877	0.0162249
711.955	0.0160815
712.033	0.0159899
712.111	0.0159570
712.189	0.0160843
712.267	0.0160195
712.346	0.0158395
712.424	0.0158851
712.502	0.0159171
712.580	0.0160087
712.658	0.0161217
712.736	0.0161441
712.814	0.0159611
712.892	0.0160134
712.971	0.0161703
713.049	0.0160871
713.127	0.0160548
713.205	0.0160052
713.283	0.0160759
713.361	0.0161040
713.439	0.0160881
713.517	0.0158620
713.596	0.0158612
713.674	0.0158109
713.752	0.0157732
713.830	0.0157130
713.908	0.0157056
713.986	0.0156863
714.064	0.0155518
714.142	0.0155940
714.221	0.0155423
714.299	0.0155739
714.377	0.0155737
714.455	0.0156004
714.533	0.0157217
714.611	0.0156853
714.689	0.0157801
714.767	0.0158357
714.846	0.0159039
714.924	0.0160384
715.002	0.0161041
715.080	0.0160707
715.158	0.0160505
715.236	0.0160732
715.314	0.0160361
715.392	0.0161618
715.471	0.0161398
715.549	0.0160476
715.627	0.0159890
715.705	0.0163187
715.783	0.0161424
715.861	0.0160751
715.939	0.0161990
716.017	0.0161493
716.096	0.0159870
716.174	0.0160926
716.252	0.0160192
716.330	0.0159369
716.408	0.0160040
716.486	0.0160104
716.564	0.0159944
716.642	0.0158764
716.721	0.0159566
716.799	0.0160280
716.877	0.0158950
716.955	0.0159282
717.033	0.0159428
717.111	0.0161147
717.189	0.0160171
717.267	0.0160606
717.346	0.0160945
717.424	0.0160642
717.502	0.0161823
717.580	0.0160432
717.658	0.0161418
717.736	0.0163227
717.814	0.0162491
717.892	0.0162966
717.971	0.0164056
718.049	0.0162826
718.127	0.0163109
718.205	0.0163628
718.283	0.0163628
718.361	0.0161974
718.439	0.0163012
718.517	0.0162519
718.596	0.0162375
718.674	0.0160399
718.752	0.0161266
718.830	0.0160345
718.908	0.0159523
718.986	0.0157368
719.064	0.0158297
719.142	0.0157710
719.221	0.0158221
719.299	0.0156789
719.377	0.0154615
719.455	0.0157558
719.533	0.0157300
719.611	0.0156681
719.689	0.0156295
719.767	0.0157281
719.846	0.0156407
719.924	0.0158590
720.002	0.0158337
720.080	0.0158212
720.158	0.0158280
720.236	0.0161241
720.314	0.0159495
720.392	0.0157984
720.471	0.0158680
720.549	0.0158849
720.627	0.0157778
720.705	0.0159211
720.783	0.0159622
720.861	0.0159147
720.939	0.0159115
721.017	0.0158458
721.096	0.0158419
721.174	0.0158368
721.252	0.0158509
721.330	0.0158563
721.408	0.0158378
721.486	0.0159008
721.564	0.0159440
721.642	0.0159540
721.721	0.0157850
721.799	0.0159370
721.877	0.0160570
721.955	0.0160763
722.033	0.0160760
722.111	0.0161465
722.189	0.0162844
722.267	0.0161442
722.346	0.0162891
722.424	0.0162300
722.502	0.0164066
722.580	0.0165086
722.658	0.0163708
722.736	0.0162780
722.814	0.0163467
722.892	0.0162738
722.971	0.0162180
723.049	0.0163577
723.127	0.0163349
723.205	0.0162662
723.283	0.0160995
723.361	0.0161755
723.439	0.0161086
723.517	0.0160939
723.596	0.0160554
723.674	0.0158893
723.752	0.0160117
723.830	0.0159528
723.908	0.0158521
723.986	0.0159159
724.064	0.0158810
724.142	0.0160342
724.221	0.0159265
724.299	0.0159430
724.377	0.0160082
724.455	0.0160396
724.533	0.0161701
724.611	0.0159530
724.689	0.0160180
724.767	0.0161127
724.846	0.0159892
724.924	0.0160912
725.002	0.0160455
725.080	0.0160236
725.158	0.0162745
725.236	0.0161107
725.314	0.0163327
725.392	0.0164153
725.471	0.0162292
725.549	0.0162653
725.627	0.0163613
725.705	0.0163089
725.783	0.0163612
725.861	0.0162065
725.939	0.0161346
726.017	0.0160937
726.096	0.0161682
726.174	0.0161827
726.252	0.0161071
726.330	0.0160485
726.408	0.0160064
726.486	0.0159553
726.564	0.0158537
726.642	0.0157464
726.721	0.0159388
726.799	0.0157140
726.877	0.0157716
726.955	0.0158469
727.033	0.0158120
727.111	0.0158441
727.189	0.0157439
727.267	0.0157906
727.346	0.0158157
727.424	0.0157344
727.502	0.0158344
727.580	0.0158807
727.658	0.0159731
727.736	0.0158865
727.814	0.0158680
727.892	0.0159861
727.971	0.0160138
728.049	0.0160221
728.127	0.0161568
728.205	0.0160370
728.283	0.0161106
728.361	0.0161446
728.439	0.0161917
728.517	0.0162032
728.596	0.0161027
728.674	0.0162292
728.752	0.0163275
728.830	0.0160861
728.908	0.0161923
728.986	0.0161671
729.064	0.0160416
729.142	0.0160760
729.221	0.0161369
729.299	0.0160734
729.377	0.0160170
729.455	0.0159412
729.533	0.0159451
729.611	0.0159747
729.689	0.0159622
729.767	0.0159626
729.846	0.0159843
729.924	0.0159739
730.002	0.0159302
730.080	0.0160404
730.158	0.0161387
730.236	0.0159742
730.314	0.0159011
730.392	0.0159859
730.471	0.0159650
730.549	0.0159160
730.627	0.0160777
730.705	0.0160963
730.783	0.0161542
730.861	0.0160689
730.939	0.0161257
731.017	0.0160892
731.096	0.0159804
731.174	0.0159920
731.252	0.0160270
731.330	0.0159879
731.408	0.0160306
731.486	0.0159873
731.564	0.0159333
731.642	0.0159196
731.721	0.0159732
731.799	0.0159493
731.877	0.0159247
731.955	0.0158012
732.033	0.0158557
732.111	0.0158022
732.189	0.0156188
732.267	0.0156525
732.346	0.0157178
732.424	0.0156988
732.502	0.0157499
732.580	0.0157912
732.658	0.0157702
732.736	0.0157640
732.814	0.0158446
732.892	0.0158402
732.971	0.0158092
733.049	0.0159747
733.127	0.0159052
733.205	0.0160439
733.283	0.0160759
733.361	0.0160666
733.439	0.0161102
733.517	0.0160964
733.596	0.0162274
733.674	0.0162825
733.752	0.0161528
733.830	0.0160889
733.908	0.0162038
733.986	0.0162198
734.064	0.0162623
734.142	0.0161675
734.221	0.0162521
734.299	0.0161062
734.377	0.0161743
734.455	0.0159364
734.533	0.0160715
734.611	0.0160895
734.689	0.0162306
734.767	0.0159973
734.846	0.0159747
734.924	0.0159338
735.002	0.0161556
735.080	0.0162186
735.158	0.0159560
735.236	0.0159929
735.314	0.0159624
735.392	0.0158961
735.471	0.0159552
735.549	0.0159167
735.627	0.0158757
735.705	0.0158089
735.783	0.0158023
735.861	0.0157964
735.939	0.0157930
736.017	0.0158147
736.096	0.0157482
736.174	0.0157161
736.252	0.0157607
736.330	0.0157740
736.408	0.0156944
736.486	0.0158343
736.564	0.0158592
736.642	0.0158236
736.721	0.0158799
736.799	0.0159044
736.877	0.0159966
736.955	0.0161402
737.033	0.0159934
737.111	0.0161328
737.189	0.0161988
737.267	0.0161247
737.346	0.0162586
737.424	0.0163130
737.502	0.0163747
737.580	0.0162576
737.658	0.0162459
737.736	0.0162579
737.814	0.0162253
737.892	0.0161456
737.971	0.0161122
738.049	0.0161555
738.127	0.0160375
738.205	0.0160509
738.283	0.0160153
738.361	0.0158754
738.439	0.0159202
738.517	0.0156629
738.596	0.0156997
738.674	0.0158024
738.752	0.0156585
738.830	0.0155788
738.908	0.0156026
738.986	0.0156470
739.064	0.0156866
739.142	0.0155606
739.221	0.0157764
739.299	0.0158130
739.377	0.0157485
739.455	0.0157771
739.533	0.0157482
739.611	0.0158733
739.689	0.0157265
739.767	0.0157926
739.846	0.0158070
739.924	0.0160359
740.002	0.0158355
740.080	0.0158463
740.158	0.0159711
740.236	0.0159379
740.314	0.0158875
740.392	0.0160741
740.471	0.0161227
740.549	0.0160879
740.627	0.0160659
740.705	0.0159030
740.783	0.0159193
740.861	0.0160052
740.939	0.0159003
741.017	0.0160249
741.096	0.0158918
741.174	0.0159127
741.252	0.0158946
741.330	0.0158500
741.408	0.0159970
741.486	0.0159277
741.564	0.0159545
741.642	0.0159466
741.721	0.0157600
741.799	0.0158038
741.877	0.0159239
741.955	0.0158503
742.033	0.0159688
742.111	0.0158915
742.189	0.0157812
742.267	0.0159672
742.346	0.0158824
742.424	0.0160094
742.502	0.0159776
742.580	0.0160435
742.658	0.0162316
742.736	0.0161350
742.814	0.0162567
742.892	0.0161408
742.971	0.0162469
743.049	0.0162273
743.127	0.0163181
743.205	0.0162872
743.283	0.0161342
743.361	0.0161655
743.439	0.0161551
743.517	0.0161296
743.596	0.0159143
743.674	0.0161637
743.752	0.0159637
743.830	0.0158908
743.908	0.0157851
743.986	0.0158368
744.064	0.0157185
744.142	0.0157964
744.221	0.0156979
744.299	0.0156332
744.377	0.0156838
744.455	0.0156399
744.533	0.0156926
744.611	0.0155842
744.689	0.0155170
744.767	0.0156982
744.846	0.0155908
744.924	0.0157019
745.002	0.0157523
745.080	0.0157171
745.158	0.0156879
745.236	0.0156317
745.314	0.0157281
745.392	0.0157279
745.471	0.0157347
745.549	0.0158719
745.627	0.0159672
745.705	0.0159756
745.783	0.0159828
745.861	0.0161626
745.939	0.0161536
746.017	0.0162241
746.096	0.0161456
746.174	0.0162729
746.252	0.0163196
746.330	0.0163182
746.408	0.0164701
746.486	0.0166006
746.564	0.0163981
746.642	0.0164651
746.721	0.0164023
746.799	0.0164681
746.877	0.0163470
746.955	0.0164053
747.033	0.0164713
747.111	0.0163780
747.189	0.0163798
747.267	0.0163357
747.346	0.0162897
747.424	0.0162122
747.502	0.0162416
747.580	0.0162083
747.658	0.0162021
747.736	0.0161684
747.814	0.0160603
747.892	0.0160359
747.971	0.0158388
748.049	0.0159810
748.127	0.0159243
748.205	0.0157975
748.283	0.0158967
748.361	0.0158379
748.439	0.0159218
748.517	0.0159084
748.596	0.0158134
748.674	0.0158255
748.752	0.0158194
748.830	0.0159015
748.908	0.0159542
748.986	0.0159355
749.064	0.0159592
749.142	0.0159444
749.221	0.0158318
749.299	0.0159474
749.377	0.0159751
749.455	0.0160661
749.533	0.0158313
749.611	0.0159309
749.689	0.0159098
749.767	0.0160079
749.846	0.0158639
749.924	0.0160027
750.002	0.0159383
750.080	0.0159396
750.158	0.0160368
750.236	0.0161282
750.314	0.0160169
750.392	0.0158528
750.471	0.0159888
750.549	0.0159573
750.627	0.0161417
750.705	0.0161914
750.783	0.0160477
750.861	0.0160524
750.939	0.0162674
751.017	0.0162672
751.096	0.0160210
751.174	0.0162457
751.252	0.0162500
751.330	0.0162889
751.408	0.0162408
751.486	0.0162572
751.564	0.0163289
751.642	0.0164411
751.721	0.0163609
751.799	0.0165186
751.877	0.0164422
751.955	0.0163846
752.033	0.0164558
752.111	0.0164204
752.189	0.0164577
752.267	0.0163443
752.346	0.0162785
752.424	0.0163608
752.502	0.0161620
752.580	0.0162460
752.658	0.0161571
752.736	0.0160779
752.814	0.0160219
752.892	0.0161076
752.971	0.0159871
753.049	0.0159509
753.127	0.0159968
753.205	0.0159507
753.283	0.0157999
753.361	0.0158909
753.439	0.0159648
753.517	0.0159772
753.596	0.0158215
753.674	0.0158558
753.752	0.0157858
753.830	0.0159895
753.908	0.0156813
753.986	0.0158555
754.064	0.0158829
754.142	0.0157801
754.221	0.0158548
754.299	0.0156726
754.377	0.0158512
754.455	0.0158933
754.533	0.0158160
754.611	0.0158672
754.689	0.0159683
754.767	0.0159177
754.846	0.0158019
754.924	0.0158875
755.002	0.0159208
755.080	0.0160097
755.158	0.0159903
755.236	0.0160123
755.314	0.0161267
755.392	0.0160576
755.471	0.0160271
755.549	0.0159901
755.627	0.0161293
755.705	0.0160869
755.783	0.0160233
755.861	0.0158121
755.939	0.0160894
756.017	0.0161736
756.096	0.0161197
756.174	0.0159265
756.252	0.0161545
756.330	0.0161319
756.408	0.0162318
756.486	0.0161849
756.564	0.0161092
756.642	0.0160991
756.721	0.0162201
756.799	0.0161743
756.877	0.0161465
756.955	0.0161687
757.033	0.0160903
757.111	0.0161851
757.189	0.0161261
757.267	0.0161325
757.346	0.0160684
757.424	0.0158718
757.502	0.0159962
757.580	0.0160230
757.658	0.0160262
757.736	0.0160558
757.814	0.0161130
757.892	0.0160433
757.971	0.0160182
758.049	0.0160452
758.127	0.0160960
758.205	0.0160317
758.283	0.0159770
758.361	0.0161166
758.439	0.0161771
758.517	0.0161335
758.596	0.0161391
758.674	0.0160571
758.752	0.0161596
758.830	0.0160585
758.908	0.0161477
758.986	0.0161935
759.064	0.0160821
759.142	0.0161932
759.221	0.0162283
759.299	0.0161654
759.377	0.0161567
759.455	0.0162357
759.533	0.0161732
759.611	0.0161962
759.689	0.0162508
759.767	0.0160996
759.846	0.0161066
759.924	0.0161802
760.002	0.0161829
760.080	0.0160760
760.158	0.0161533
760.236	0.0161501
760.314	0.0161774
760.392	0.0160687
760.471	0.0160455
760.549	0.0160597
760.627	0.0159271
760.705	0.0160081
760.783	0.0159831
760.861	0.0160103
760.939	0.0160603
761.017	0.0159399
761.096	0.0160118
761.174	0.0160336
761.252	0.0161829
761.330	0.0160462
761.408	0.0161663
761.486	0.0161354
761.564	0.0160969
761.642	0.0161852
761.721	0.0162758
761.799	0.0163088
761.877	0.0163495
761.955	0.0163257
762.033	0.0163744
762.111	0.0163983
762.189	0.0163503
762.267	0.0163725
762.346	0.0162965
762.424	0.0162749
762.502	0.0162803
762.580	0.0162273
762.658	0.0160577
762.736	0.0162500
762.814	0.0159917
762.892	0.0160890
762.971	0.0161414
763.049	0.0160970
763.127	0.0161918
763.205	0.0159132
763.283	0.0159237
763.361	0.0159370
763.439	0.0160690
763.517	0.0160352
763.596	0.0160549
763.674	0.0160908
763.752	0.0160793
763.830	0.0161327
763.908	0.0160931
763.986	0.0162095
764.064	0.0161959
764.142	0.0163857
764.221	0.0160732
764.299	0.0162097
764.377	0.0162234
764.455	0.0160641
764.533	0.0161020
764.611	0.0161639
764.689	0.0159904
764.767	0.0160941
764.846	0.0161571
764.924	0.0160744
765.002	0.0160580
765.080	0.0158669
765.158	0.0159171
765.236	0.0160410
765.314	0.0159339
765.392	0.0158636
765.471	0.0160166
765.549	0.0159665
765.627	0.0159732
765.705	0.0160147
765.783	0.0160591
765.861	0.0160986
765.939	0.0160562
766.017	0.0162386
766.096	0.0161498
766.174	0.0163237
766.252	0.0161634
766.330	0.0162789
766.408	0.0163083
766.486	0.0163298
766.564	0.0160710
766.642	0.0161531
766.721	0.0162850
766.799	0.0160670
766.877	0.0162336
766.955	0.0161776
767.033	0.0160771
767.111	0.0159974
767.189	0.0160532
767.267	0.0160106
767.346	0.0160921
767.424	0.0160195
767.502	0.0159224
767.580	0.0161174
767.658	0.0159627
767.736	0.0160580
767.814	0.0159223
767.892	0.0158603
767.971	0.0158210
768.049	0.0159104
768.127	0.0160384
768.205	0.0159972
768.283	0.0160184
768.361	0.0159700
768.439	0.0160033
768.517	0.0160164
768.596	0.0160719
768.674	0.0161048
768.752	0.0160110
768.830	0.0161313
768.908	0.0161767
768.986	0.0163051
769.064	0.0162622
769.142	0.0163274
769.221	0.0163328
769.299	0.0162789
769.377	0.0162415
769.455	0.0162445
769.533	0.0163686
769.611	0.0162947
769.689	0.0162968
769.767	0.0162480
769.846	0.0163325
769.924	0.0162546
770.002	0.0161760
770.080	0.0159802
770.158	0.0161569
770.236	0.0161294
770.314	0.0161126
770.392	0.0160928
770.471	0.0161688
770.549	0.0160676
770.627	0.0160574
770.705	0.0161736
770.783	0.0161298
770.861	0.0159839
770.939	0.0161600
771.017	0.0160954
771.096	0.0160400
771.174	0.0161540
771.252	0.0162371
771.330	0.0161805
771.408	0.0160587
771.486	0.0160724
771.564	0.0162054
771.642	0.0161578
771.721	0.0161241
771.799	0.0160716
771.877	0.0161221
771.955	0.0161172
772.033	0.0160603
772.111	0.0160316
772.189	0.0160325
772.267	0.0160938
772.346	0.0161508
772.424	0.0159827
772.502	0.0158559
772.580	0.0160163
772.658	0.0160270
772.736	0.0160123
772.814	0.0160169
772.892	0.0159620
772.971	0.0159439
773.049	0.0161322
773.127	0.0160591
773.205	0.0160726
773.283	0.0161661
773.361	0.0161063
773.439	0.0160130
773.517	0.0162175
773.596	0.0163080
773.674	0.0161877
773.752	0.0161339
773.830	0.0162981
773.908	0.0160463
773.986	0.0161894
774.064	0.0162560
774.142	0.0162516
774.221	0.0162090
774.299	0.0161864
774.377	0.0162174
774.455	0.0162248
774.533	0.0161442
774.611	0.0160982
774.689	0.0163314
774.767	0.0162193
774.846	0.0161469
774.924	0.0162373
775.002	0.0161541
775.080	0.0161571
775.158	0.0160031
775.236	0.0158972
775.314	0.0159578
775.392	0.0158978
775.471	0.0159735
775.549	0.0160420
775.627	0.0159713
775.705	0.0159733
775.783	0.0159160
775.861	0.0159853
775.939	0.0159904
776.017	0.0159375
776.096	0.0159202
776.174	0.0160562
776.252	0.0158188
776.330	0.0159675
776.408	0.0161254
776.486	0.0160626
776.564	0.0160017
776.642	0.0162139
776.721	0.0161139
776.799	0.0160435
776.877	0.0161234
776.955	0.0161753
777.033	0.0161671
777.111	0.0162632
777.189	0.0161655
777.267	0.0160946
777.346	0.0162008
777.424	0.0162346
777.502	0.0161325
777.580	0.0161959
777.658	0.0161455
777.736	0.0160995
777.814	0.0162128
777.892	0.0159793
777.971	0.0160918
778.049	0.0160693
778.127	0.0159729
778.205	0.0161319
778.283	0.0160426
778.361	0.0159522
778.439	0.0159116
778.517	0.0160397
778.596	0.0159789
778.674	0.0159834
778.752	0.0158832
778.830	0.0160828
778.908	0.0160276
778.986	0.0160481
779.064	0.0159184
779.142	0.0161574
779.221	0.0161431
779.299	0.0160292
779.377	0.0161054
779.455	0.0160354
779.533	0.0161265
779.611	0.0161404
779.689	0.0161566
779.767	0.0160373
779.846	0.0161644
779.924	0.0162482
780.002	0.0161842
780.080	0.0162199
780.158	0.0160265
780.236	0.0160587
780.314	0.0160744
780.392	0.0160553
780.471	0.0162185
780.549	0.0160912
780.627	0.0161300
780.705	0.0161018
780.783	0.0161298
780.861	0.0162168
780.939	0.0160650
781.017	0.0161826
781.096	0.0160807
781.174	0.0162899
781.252	0.0162002
781.330	0.0161423
781.408	0.0161341
781.486	0.0162655
781.564	0.0162081
781.642	0.0161268
781.721	0.0162078
781.799	0.0161954
781.877	0.0162411
781.955	0.0160882
782.033	0.0162119
782.111	0.0162344
782.189	0.0161567
782.267	0.0161079
782.346	0.0162460
782.424	0.0163025
782.502	0.0162039
782.580	0.0161871
782.658	0.0162712
782.736	0.0162283
782.814	0.0162424
782.892	0.0162469
782.971	0.0162641
783.049	0.0160461
783.127	0.0161153
783.205	0.0161880
783.283	0.0161078
783.361	0.0162280
783.439	0.0161899
783.517	0.0160113
783.596	0.0160088
783.674	0.0161017
783.752	0.0161025
783.830	0.0160880
783.908	0.0161906
783.986	0.0161161
784.064	0.0160539
784.142	0.0160484
784.221	0.0162318
784.299	0.0159032
784.377	0.0160870
784.455	0.0162711
784.533	0.0162144
784.611	0.0162642
784.689	0.0162037
784.767	0.0161546
784.846	0.0162486
784.924	0.0163260
785.002	0.0162444
785.080	0.0161504
785.158	0.0161845
785.236	0.0162452
785.314	0.0160213
785.392	0.0161469
785.471	0.0162578
785.549	0.0161875
785.627	0.0161666
785.705	0.0161980
785.783	0.0160427
785.861	0.0161744
785.939	0.0161848
786.017	0.0161182
786.096	0.0160697
786.174	0.0161535
786.252	0.0160680
786.330	0.0160670
786.408	0.0160712
786.486	0.0160282
786.564	0.0160856
786.642	0.0160553
786.721	0.0161019
786.799	0.0161189
786.877	0.0161836
786.955	0.0162131
787.033	0.0161423
787.111	0.0162592
787.189	0.0163113
787.267	0.0162776
787.346	0.0161817
787.424	0.0160673
787.502	0.0161499
787.580	0.0163057
787.658	0.0161812
787.736	0.0162490
787.814	0.0160504
787.892	0.0161458
787.971	0.0161002
788.049	0.0162181
788.127	0.0162611
788.205	0.0162183
788.283	0.0160981
788.361	0.0161388
788.439	0.0159365
788.517	0.0160184
788.596	0.0161124
788.674	0.0160724
788.752	0.0160406
788.830	0.0159567
788.908	0.0160705
788.986	0.0160127
789.064	0.0158955
789.142	0.0160787
789.221	0.0160796
789.299	0.0160465
789.377	0.0159383
789.455	0.0161460
789.533	0.0162752
789.611	0.0160939
789.689	0.0160564
789.767	0.0160921
789.846	0.0162827
789.924	0.0163536
790.002	0.0161805
790.080	0.0161952
790.158	0.0162254
790.236	0.0163959
790.314	0.0162020
790.392	0.0162837
790.471	0.0164375
790.549	0.0162156
790.627	0.0162405
790.705	0.0163239
790.783	0.0162185
790.861	0.0161539
790.939	0.0162329
791.017	0.0163148
791.096	0.0163607
791.174	0.0162083
791.252	0.0162542
791.330	0.0162016
791.408	0.0161513
791.486	0.0161965
791.564	0.0161515
791.642	0.0162466
791.721	0.0161049
791.799	0.0161414
791.877	0.0162145
791.955	0.0161579
792.033	0.0162305
792.111	0.0161110
792.189	0.0160751
792.267	0.0160780
792.346	0.0161964
792.424	0.0162517
792.502	0.0161285
792.580	0.0161742
792.658	0.0161660
792.736	0.0161443
792.814	0.0162806
792.892	0.0162321
792.971	0.0161417
793.049	0.0161273
793.127	0.0162537
793.205	0.0161945
793.283	0.0161514
793.361	0.0161842
793.439	0.0161609
793.517	0.0161694
793.596	0.0162482
793.674	0.0161641
793.752	0.0160770
793.830	0.0160148
793.908	0.0160954
793.986	0.0161172
794.064	0.0159886
794.142	0.0161575
794.221	0.0160777
794.299	0.0160197
794.377	0.0159741
794.455	0.0159328
794.533	0.0160095
794.611	0.0160167
794.689	0.0158562
794.767	0.0159586
794.846	0.0160757
794.924	0.0159781
795.002	0.0160029
795.080	0.0160968
795.158	0.0159095
795.236	0.0160741
795.314	0.0159498
795.392	0.0159879
795.471	0.0160222
795.549	0.0160149
795.627	0.0160777
795.705	0.0160894
795.783	0.0160134
795.861	0.0161028
795.939	0.0160572
796.017	0.0162017
796.096	0.0161562
796.174	0.0159978
796.252	0.0160523
796.330	0.0159827
796.408	0.0159859
796.486	0.0160416
796.564	0.0160748
796.642	0.0159470
796.721	0.0160178
796.799	0.0160310
796.877	0.0161178
796.955	0.0160368
797.033	0.0159771
797.111	0.0160264
797.189	0.0158577
797.267	0.0160766
797.346	0.0161277
797.424	0.0159528
797.502	0.0160412
797.580	0.0160030
797.658	0.0159287
797.736	0.0159242
797.814	0.0160118
797.892	0.0159985
797.971	0.0160954
798.049	0.0159569
798.127	0.0159088
798.205	0.0158654
798.283	0.0160520
798.361	0.0160956
798.439	0.0160615
798.517	0.0159866
798.596	0.0160980
798.674	0.0160735
798.752	0.0160052
798.830	0.0160760
798.908	0.0160196
798.986	0.0159850
799.064	0.0160512
799.142	0.0160413
799.221	0.0159601
799.299	0.0161861
799.377	0.0160881
799.455	0.0159578
799.533	0.0160189
799.611	0.0159380
799.689	0.0158961
799.767	0.0159188
799.846	0.0160384
799.924	0.0159930
800.002	0.0160114
800.080	0.0160159
800.158	0.0159605
800.236	0.0160422
800.314	0.0160550
800.392	0.0160307
800.471	0.0161128
800.549	0.0160690
800.627	0.0160926
800.705	0.0161385
800.783	0.0160915
800.861	0.0160249
800.939	0.0161301
801.017	0.0162479
801.096	0.0161064
801.174	0.0161494
801.252	0.0161553
801.330	0.0160210
801.408	0.0159747
801.486	0.0160483
801.564	0.0161291
801.642	0.0160497
801.721	0.0161035
801.799	0.0160209
801.877	0.0161002
801.955	0.0160249
802.033	0.0160906
802.111	0.0160497
802.189	0.0160153
802.267	0.0159849
802.346	0.0160479
802.424	0.0158703
802.502	0.0158406
802.580	0.0159644
802.658	0.0160334
802.736	0.0160091
802.814	0.0158858
802.892	0.0159786
802.971	0.0159412
803.049	0.0160107
803.127	0.0160065
803.205	0.0160441
803.283	0.0159390
803.361	0.0159799
803.439	0.0160486
803.517	0.0161147
803.596	0.0161721
803.674	0.0159881
803.752	0.0160578
803.830	0.0161494
803.908	0.0160381
803.986	0.0161050
804.064	0.0160630
804.142	0.0160335
804.221	0.0160590
804.299	0.0160681
804.377	0.0159841
804.455	0.0161002
804.533	0.0160381
804.611	0.0160278
804.689	0.0160759
804.767	0.0160085
804.846	0.0158236
804.924	0.0160008
805.002	0.0160215
805.080	0.0158007
805.158	0.0158173
805.236	0.0159332
805.314	0.0160732
805.392	0.0159284
805.471	0.0158129
805.549	0.0159679
805.627	0.0159789
805.705	0.0159616
805.783	0.0160206
805.861	0.0160938
805.939	0.0160274
806.017	0.0159988
806.096	0.0160828
806.174	0.0161257
806.252	0.0160884
806.330	0.0161655
806.408	0.0161900
806.486	0.0160928
806.564	0.0162577
806.642	0.0162035
806.721	0.0161650
806.799	0.0161938
806.877	0.0163130
806.955	0.0161921
807.033	0.0162155
807.111	0.0161650
807.189	0.0162578
807.267	0.0161421
807.346	0.0160194
807.424	0.0160418
807.502	0.0161329
807.580	0.0161165
807.658	0.0159947
807.736	0.0159973
807.814	0.0160714
807.892	0.0160058
807.971	0.0160842
808.049	0.0160201
808.127	0.0159764
808.205	0.0159552
808.283	0.0159544
808.361	0.0159900
808.439	0.0159949
808.517	0.0159821
808.596	0.0160616
808.674	0.0160485
808.752	0.0160461
808.830	0.0159396
808.908	0.0160890
808.986	0.0160037
809.064	0.0159936
809.142	0.0160526
809.221	0.0160567
809.299	0.0159990
809.377	0.0159577
809.455	0.0159304
809.533	0.0161040
809.611	0.0158790
809.689	0.0160207
809.767	0.0160125
809.846	0.0159894
809.924	0.0160020
810.002	0.0159029
810.080	0.0158650
810.158	0.0158383
810.236	0.0159644
810.314	0.0160254
810.392	0.0159099
810.471	0.0159422
810.549	0.0159193
810.627	0.0161102
810.705	0.0159411
810.783	0.0160600
810.861	0.0159987
810.939	0.0160288
811.017	0.0160548
811.096	0.0159681
811.174	0.0159706
811.252	0.0159359
811.330	0.0159986
811.408	0.0160744
811.486	0.0159614
811.564	0.0159472
811.642	0.0159559
811.721	0.0160705
811.799	0.0160274
811.877	0.0160191
811.955	0.0160445
812.033	0.0159648
812.111	0.0160083
812.189	0.0160094
812.267	0.0160193
812.346	0.0159552
812.424	0.0161357
812.502	0.0160793
812.580	0.0160150
812.658	0.0161787
812.736	0.0160571
812.814	0.0159640
812.892	0.0160143
812.971	0.0160830
813.049	0.0159744
813.127	0.0160076
813.205	0.0159728
813.283	0.0159919
813.361	0.0159174
813.439	0.0161225
813.517	0.0161280
813.596	0.0160733
813.674	0.0160635
813.752	0.0161089
813.830	0.0160852
813.908	0.0160262
813.986	0.0161360
814.064	0.0161499
814.142	0.0162046
814.221	0.0160888
814.299	0.0162620
814.377	0.0161839
814.455	0.0161374
814.533	0.0162466
814.611	0.0162312
814.689	0.0162370
814.767	0.0162124
814.846	0.0159114
814.924	0.0162433
815.002	0.0162027
815.080	0.0160568
815.158	0.0159998
815.236	0.0160657
815.314	0.0161148
815.392	0.0159686
815.471	0.0160453
815.549	0.0160303
815.627	0.0160496
815.705	0.0158840
815.783	0.0159594
815.861	0.0159468
815.939	0.0158560
816.017	0.0160309
816.096	0.0159763
816.174	0.0159638
816.252	0.0160001
816.330	0.0159800
816.408	0.0159584
816.486	0.0159784
816.564	0.0159865
816.642	0.0161230
816.721	0.0160925
816.799	0.0161289
816.877	0.0159129
816.955	0.0160262
817.033	0.0160791
817.111	0.0161224
817.189	0.0159685
817.267	0.0160969
817.346	0.0161768
817.424	0.0161531
817.502	0.0159880
817.580	0.0160641
817.658	0.0160764
817.736	0.0161230
817.814	0.0160390
817.892	0.0160741
817.971	0.0160520
818.049	0.0160504
818.127	0.0161097
818.205	0.0160889
818.283	0.0160715
818.361	0.0160737
818.439	0.0159372
818.517	0.0160748
818.596	0.0162517
818.674	0.0161032
818.752	0.0160751
818.830	0.0160570
818.908	0.0160959
818.986	0.0161320
819.064	0.0160302
819.142	0.0160599
819.221	0.0160441
819.299	0.0162059
819.377	0.0161040
819.455	0.0159561
819.533	0.0161079
819.611	0.0161799
819.689	0.0159677
819.767	0.0158904
819.846	0.0160252
819.924	0.0159583
820.002	0.0158583
820.080	0.0159883
820.158	0.0160530
820.236	0.0160218
820.314	0.0159575
820.392	0.0158895
820.471	0.0158673
820.549	0.0158285
820.627	0.0159922
820.705	0.0160049
820.783	0.0160490
820.861	0.0159310
820.939	0.0160735
821.017	0.0159554
821.096	0.0160915
821.174	0.0161028
821.252	0.0159381
821.330	0.0159589
821.408	0.0159344
821.486	0.0159966
821.564	0.0160085
821.642	0.0160692
821.721	0.0160986
821.799	0.0158826
821.877	0.0160164
821.955	0.0160025
822.033	0.0159263
822.111	0.0159942
822.189	0.0158813
822.267	0.0159885
822.346	0.0161124
822.424	0.0159016
822.502	0.0159312
822.580	0.0158979
822.658	0.0159967
822.736	0.0159911
822.814	0.0159821
822.892	0.0159283
822.971	0.0159483
823.049	0.0158685
823.127	0.0160206
823.205	0.0160184
823.283	0.0158884
823.361	0.0158670
823.439	0.0158868
823.517	0.0160601
823.596	0.0160014
823.674	0.0158991
823.752	0.0159391
823.830	0.0159830
823.908	0.0160448
823.986	0.0159520
824.064	0.0159919
824.142	0.0160353
824.221	0.0160605
824.299	0.0159735
824.377	0.0160160
824.455	0.0159668
824.533	0.0160326
824.611	0.0161797
824.689	0.0160588
824.767	0.0160119
824.846	0.0160111
824.924	0.0160002
825.002	0.0159984
825.080	0.0160297
825.158	0.0160319
825.236	0.0158276
825.314	0.0160233
825.392	0.0160470
825.471	0.0161825
825.549	0.0161250
825.627	0.0159385
825.705	0.0160782
825.783	0.0160456
825.861	0.0160315
825.939	0.0160447
826.017	0.0162617
826.096	0.0160953
826.174	0.0160843
826.252	0.0159823
826.330	0.0162376
826.408	0.0161097
826.486	0.0160310
826.564	0.0159965
826.642	0.0161366
826.721	0.0161485
826.799	0.0160999
826.877	0.0160907
826.955	0.0161454
827.033	0.0160355
827.111	0.0161411
827.189	0.0160641
827.267	0.0160482
827.346	0.0160478
827.424	0.0160505
827.502	0.0160437
827.580	0.0160687
827.658	0.0159521
827.736	0.0160874
827.814	0.0160782
827.892	0.0159696
827.971	0.0161869
828.049	0.0159721
828.127	0.0160714
828.205	0.0160735
828.283	0.0160882
828.361	0.0161926
828.439	0.0160384
828.517	0.0159903
828.596	0.0160619
828.674	0.0161845
828.752	0.0160805
828.830	0.0160450
828.908	0.0161030
828.986	0.0160487
829.064	0.0160399
829.142	0.0161199
829.221	0.0160836
829.299	0.0159821
829.377	0.0159013
829.455	0.0159492
829.533	0.0160317
829.611	0.0159245
829.689	0.0158037
829.767	0.0160412
829.846	0.0159307
829.924	0.0160581
830.002	0.0159930
830.080	0.0159403
830.158	0.0158751
830.236	0.0160423
830.314	0.0161266
830.392	0.0161023
830.471	0.0160023
830.549	0.0159999
830.627	0.0159364
830.705	0.0159505
830.783	0.0160352
830.861	0.0160716
830.939	0.0160153
831.017	0.0159419
831.096	0.0159480
831.174	0.0160685
831.252	0.0159274
831.330	0.0159103
831.408	0.0158982
831.486	0.0160941
831.564	0.0160932
831.642	0.0160080
831.721	0.0159076
831.799	0.0160671
831.877	0.0160217
831.955	0.0158597
832.033	0.0160080
832.111	0.0160128
832.189	0.0159381
832.267	0.0160934
832.346	0.0157793
832.424	0.0160697
832.502	0.0159709
832.580	0.0158306
832.658	0.0159792
832.736	0.0160226
832.814	0.0158883
832.892	0.0159606
832.971	0.0159528
833.049	0.0159688
833.127	0.0160522
833.205	0.0160842
833.283	0.0159098
833.361	0.0158563
833.439	0.0161248
833.517	0.0159731
833.596	0.0160179
833.674	0.0159504
833.752	0.0159453
833.830	0.0158538
833.908	0.0160972
833.986	0.0160751
834.064	0.0160485
834.142	0.0160132
834.221	0.0159943
834.299	0.0159006
834.377	0.0159575
834.455	0.0160657
834.533	0.0159824
834.611	0.0160345
834.689	0.0160181
834.767	0.0159357
834.846	0.0160325
834.924	0.0159267
835.002	0.0161377
835.080	0.0159166
835.158	0.0159453
835.236	0.0160390
835.314	0.0160304
835.392	0.0158766
835.471	0.0159714
835.549	0.0161095
835.627	0.0160358
835.705	0.0159244
835.783	0.0158749
835.861	0.0159496
835.939	0.0159851
836.017	0.0160351
836.096	0.0160020
836.174	0.0159893
836.252	0.0161036
836.330	0.0160134
836.408	0.0161097
836.486	0.0159239
836.564	0.0161539
836.642	0.0160195
836.721	0.0160322
836.799	0.0161002
836.877	0.0161003
836.955	0.0158525
837.033	0.0160922
837.111	0.0160275
837.189	0.0160233
837.267	0.0161094
837.346	0.0161559
837.424	0.0161056
837.502	0.0160661
837.580	0.0161286
837.658	0.0161658
837.736	0.0161476
837.814	0.0160854
837.892	0.0161433
837.971	0.0161143
838.049	0.0161131
838.127	0.0161658
838.205	0.0161830
838.283	0.0161988
838.361	0.0161651
838.439	0.0162067
838.517	0.0162450
838.596	0.0162280
838.674	0.0161835
838.752	0.0161757
838.830	0.0161965
838.908	0.0163014
838.986	0.0161463
839.064	0.0162495
839.142	0.0161420
839.221	0.0160995
839.299	0.0161029
839.377	0.0163879
839.455	0.0163068
839.533	0.0161544
839.611	0.0162244
839.689	0.0161440
839.767	0.0162482
839.846	0.0160432
839.924	0.0162115
840.002	0.0160992
840.080	0.0161864
840.158	0.0162195
840.236	0.0162085
840.314	0.0162398
840.392	0.0162338
840.471	0.0160545
840.549	0.0160511
840.627	0.0160224
840.705	0.0161995
840.783	0.0162093
840.861	0.0160828
840.939	0.0160451
841.017	0.0160645
841.096	0.0161816
841.174	0.0161517
841.252	0.0160880
841.330	0.0160186
841.408	0.0160483
841.486	0.0160751
841.564	0.0160425
841.642	0.0159563
841.721	0.0159586
841.799	0.0159789
841.877	0.0159980
841.955	0.0161525
842.033	0.0161021
842.111	0.0159589
842.189	0.0160331
842.267	0.0160451
842.346	0.0160567
842.424	0.0160874
842.502	0.0161148
842.580	0.0158688
842.658	0.0160402
842.736	0.0162047
842.814	0.0161081
842.892	0.0161439
842.971	0.0161263
843.049	0.0160715
843.127	0.0160903
843.205	0.0161809
843.283	0.0160860
843.361	0.0161695
843.439	0.0162125
843.517	0.0160639
843.596	0.0161497
843.674	0.0160961
843.752	0.0161165
843.830	0.0160775
843.908	0.0161128
843.986	0.0160654
844.064	0.0160658
844.142	0.0160659
844.221	0.0160454
844.299	0.0160474
844.377	0.0160187
844.455	0.0159000
844.533	0.0160064
844.611	0.0160783
844.689	0.0160444
844.767	0.0160137
844.846	0.0160105
844.924	0.0161104
845.002	0.0159581
845.080	0.0159637
845.158	0.0160393
845.236	0.0159261
845.314	0.0160892
845.392	0.0159592
845.471	0.0159335
845.549	0.0159816
845.627	0.0159608
845.705	0.0159718
845.783	0.0159373
845.861	0.0159504
845.939	0.0160813
846.017	0.0159537
846.096	0.0158242
846.174	0.0159638
846.252	0.0158461
846.330	0.0158197
846.408	0.0159888
846.486	0.0160933
846.564	0.0160884
846.642	0.0161026
846.721	0.0159235
846.799	0.0160448
846.877	0.0160982
846.955	0.0159673
847.033	0.0160638
847.111	0.0159872
847.189	0.0161751
847.267	0.0161091
847.346	0.0160923
847.424	0.0160424
847.502	0.0160435
847.580	0.0160196
847.658	0.0161744
847.736	0.0161275
847.814	0.0161801
847.892	0.0161362
847.971	0.0160314
848.049	0.0162524
848.127	0.0160992
848.205	0.0159928
848.283	0.0161301
848.361	0.0161382
848.439	0.0161133
848.517	0.0161990
848.596	0.0161254
848.674	0.0161100
848.752	0.0160169
848.830	0.0160852
848.908	0.0160009
848.986	0.0159945
849.064	0.0161084
849.142	0.0160607
849.221	0.0161199
849.299	0.0160312
849.377	0.0160021
849.455	0.0159982
849.533	0.0159757
849.611	0.0159530
849.689	0.0160545
849.767	0.0160280
849.846	0.0160135
849.924	0.0160868
850.002	0.0159988
850.080	0.0160172
850.158	0.0160106
850.236	0.0161430
850.314	0.0160783
850.392	0.0159900
850.471	0.0160061
850.549	0.0160593
850.627	0.0159762
850.705	0.0159327
850.783	0.0160056
850.861	0.0159356
850.939	0.0159208
851.017	0.0160474
851.096	0.0158545
851.174	0.0159542
851.252	0.0159688
851.330	0.0159062
851.408	0.0160635
851.486	0.0159503
851.564	0.0157947
851.642	0.0158260
851.721	0.0158406
851.799	0.0160951
851.877	0.0158190
851.955	0.0158592
852.033	0.0160487
852.111	0.0159101
852.189	0.0159602
852.267	0.0159605
852.346	0.0158994
852.424	0.0158810
852.502	0.0161575
852.580	0.0159383
852.658	0.0161161
852.736	0.0162557
852.814	0.0161037
852.892	0.0160823
852.971	0.0160437
853.049	0.0161810
853.127	0.0161070
853.205	0.0161672
853.283	0.0160591
853.361	0.0161472
853.439	0.0161904
853.517	0.0159939
853.596	0.0160215
853.674	0.0160735
853.752	0.0160457
853.830	0.0159998
853.908	0.0159613
853.986	0.0158321
854.064	0.0160580
854.142	0.0160375
854.221	0.0159874
854.299	0.0159014
854.377	0.0159258
854.455	0.0159697
854.533	0.0159042
854.611	0.0159425
854.689	0.0160213
854.767	0.0159525
854.846	0.0161001
854.924	0.0159288
855.002	0.0161200
855.080	0.0161207
855.158	0.0160701
855.236	0.0160040
855.314	0.0160104
855.392	0.0160833
855.471	0.0161125
855.549	0.0160126
855.627	0.0160857
855.705	0.0161462
855.783	0.0161839
855.861	0.0160619
855.939	0.0162061
856.017	0.0160715
856.096	0.0160064
856.174	0.0161756
856.252	0.0161166
856.330	0.0160137
856.408	0.0161301
856.486	0.0160802
856.564	0.0159289
856.642	0.0159946
856.721	0.0160268
856.799	0.0159079
856.877	0.0159344
856.955	0.0159277
857.033	0.0160002
857.111	0.0162193
857.189	0.0160989
857.267	0.0161044
857.346	0.0160102
857.424	0.0159930
857.502	0.0159956
857.580	0.0160796
857.658	0.0162894
857.736	0.0161314
857.814	0.0159842
857.892	0.0159920
857.971	0.0161937
858.049	0.0161571
858.127	0.0161456
858.205	0.0162543
858.283	0.0162997
858.361	0.0161346
858.439	0.0161897
858.517	0.0161624
858.596	0.0161691
858.674	0.0161535
858.752	0.0162519
858.830	0.0162476
858.908	0.0161259
858.986	0.0161143
859.064	0.0160734
859.142	0.0159747
859.221	0.0161710
859.299	0.0160706
859.377	0.0160986
859.455	0.0160638
859.533	0.0160451
859.611	0.0160490
859.689	0.0161001
859.767	0.0160881
859.846	0.0160686
859.924	0.0160672
860.002	0.0160951
860.080	0.0161639
860.158	0.0162431
860.236	0.0161888
860.314	0.0161296
860.392	0.0163077
860.471	0.0162127
860.549	0.0161733
860.627	0.0162604
860.705	0.0161839
860.783	0.0161269
860.861	0.0163046
860.939	0.0162557
861.017	0.0162805
861.096	0.0163252
861.174	0.0163259
861.252	0.0161677
861.330	0.0161556
861.408	0.0162003
861.486	0.0160832
861.564	0.0161554
861.642	0.0161205
861.721	0.0160789
861.799	0.0160353
861.877	0.0161290
861.955	0.0161165
862.033	0.0159424
862.111	0.0161405
862.189	0.0159986
862.267	0.0160496
862.346	0.0159751
862.424	0.0160801
862.502	0.0160271
862.580	0.0160133
862.658	0.0160631
862.736	0.0161197
862.814	0.0160524
862.892	0.0161496
862.971	0.0161482
863.049	0.0161669
863.127	0.0160697
863.205	0.0161997
863.283	0.0163233
863.361	0.0162627
863.439	0.0160793
863.517	0.0160524
863.596	0.0160457
863.674	0.0161548
863.752	0.0161121
863.830	0.0162097
863.908	0.0160877
863.986	0.0161491
864.064	0.0159804
864.142	0.0161578
864.221	0.0158846
864.299	0.0161411
864.377	0.0159598
864.455	0.0159381
864.533	0.0160060
864.611	0.0160430
864.689	0.0160538
864.767	0.0161033
864.846	0.0160193
864.924	0.0161341
865.002	0.0161034
865.080	0.0160925
865.158	0.0160678
865.236	0.0160142
865.314	0.0160641
865.392	0.0159908
865.471	0.0161411
865.549	0.0162180
865.627	0.0160432
865.705	0.0161129
865.783	0.0160468
865.861	0.0161662
865.939	0.0161334
866.017	0.0160751
866.096	0.0160877
866.174	0.0160606
866.252	0.0159604
866.330	0.0160049
866.408	0.0161238
866.486	0.0161271
866.564	0.0161336
866.642	0.0159781
866.721	0.0160492
866.799	0.0162492
866.877	0.0160773
866.955	0.0161112
867.033	0.0161552
867.111	0.0161414
867.189	0.0160638
867.267	0.0160860
867.346	0.0161960
867.424	0.0160033
867.502	0.0162080
867.580	0.0161028
867.658	0.0161389
867.736	0.0160648
867.814	0.0160616
867.892	0.0161143
867.971	0.0161664
868.049	0.0161757
868.127	0.0160427
868.205	0.0160603
868.283	0.0160809
868.361	0.0159993
868.439	0.0161253
868.517	0.0160902
868.596	0.0162177
868.674	0.0161185
868.752	0.0159690
868.830	0.0159279
868.908	0.0160870
868.986	0.0161199
869.064	0.0160172
869.142	0.0159480
869.221	0.0159988
869.299	0.0160786
869.377	0.0160226
869.455	0.0158723
869.533	0.0160012
869.611	0.0160991
869.689	0.0159924
869.767	0.0161408
869.846	0.0159856
869.924	0.0160491
870.002	0.0159493
870.080	0.0159237
870.158	0.0159718
870.236	0.0159718
870.314	0.0160488
870.392	0.0160468
870.471	0.0161876
870.549	0.0160197
870.627	0.0161217
870.705	0.0161639
870.783	0.0158881
870.861	0.0161177
870.939	0.0160435
871.017	0.0160191
871.096	0.0159620
871.174	0.0161746
871.252	0.0160872
871.330	0.0159373
871.408	0.0160289
871.486	0.0159941
871.564	0.0160892
871.642	0.0159479
871.721	0.0159826
871.799	0.0160088
871.877	0.0159538
871.955	0.0160162
872.033	0.0159150
872.111	0.0159621
872.189	0.0158134
872.267	0.0159807
872.346	0.0158747
872.424	0.0159044
872.502	0.0159580
872.580	0.0158701
872.658	0.0158945
872.736	0.0159893
872.814	0.0158981
872.892	0.0159471
872.971	0.0160514
873.049	0.0161079
873.127	0.0160580
873.205	0.0160356
873.283	0.0162025
873.361	0.0160726
873.439	0.0160553
873.517	0.0160248
873.596	0.0160939
873.674	0.0161566
873.752	0.0161223
873.830	0.0161208
873.908	0.0160223
873.986	0.0160607
874.064	0.0160878
874.142	0.0159373
874.221	0.0161174
874.299	0.0160034
874.377	0.0159306
874.455	0.0160896
874.533	0.0160688
874.611	0.0161105
874.689	0.0160252
874.767	0.0160517
874.846	0.0159693
874.924	0.0159550
875.002	0.0160371
875.080	0.0160176
875.158	0.0160577
875.236	0.0160035
875.314	0.0161852
875.392	0.0160630
875.471	0.0160970
875.549	0.0161882
875.627	0.0161160
875.705	0.0162223
875.783	0.0161591
875.861	0.0160188
875.939	0.0158823
876.017	0.0162504
876.096	0.0161312
876.174	0.0159591
876.252	0.0160696
876.330	0.0159805
876.408	0.0159288
876.486	0.0161073
876.564	0.0159647
876.642	0.0160282
876.721	0.0159880
876.799	0.0160471
876.877	0.0159977
876.955	0.0159402
877.033	0.0160693
877.111	0.0160196
877.189	0.0159266
877.267	0.0158676
877.346	0.0159138
877.424	0.0158922
877.502	0.0161890
877.580	0.0160735
877.658	0.0160942
877.736	0.0159316
877.814	0.0159266
877.892	0.0160443
877.971	0.0160281
878.049	0.0158819
878.127	0.0159957
878.205	0.0160797
878.283	0.0161216
878.361	0.0160789
878.439	0.0159169
878.517	0.0158588
878.596	0.0160085
878.674	0.0158979
878.752	0.0161716
878.830	0.0160751
878.908	0.0161195
878.986	0.0161230
879.064	0.0160511
879.142	0.0159650
879.221	0.0160472
879.299	0.0160347
879.377	0.0161065
879.455	0.0160726
879.533	0.0160053
879.611	0.0160020
879.689	0.0158772
879.767	0.0159904
879.846	0.0160057
879.924	0.0161478
880.002	0.0160239
880.080	0.0159696
880.158	0.0161301
880.236	0.0160414
880.314	0.0161395
880.392	0.0160776
880.471	0.0160604
880.549	0.0159949
880.627	0.0161121
880.705	0.0160149
880.783	0.0159782
880.861	0.0160592
880.939	0.0160348
881.017	0.0161936
881.096	0.0161466
881.174	0.0160644
881.252	0.0161263
881.330	0.0161160
881.408	0.0161063
881.486	0.0162373
881.564	0.0160965
881.642	0.0160222
881.721	0.0161295
881.799	0.0161816
881.877	0.0161437
881.955	0.0161929
882.033	0.0161060
882.111	0.0160783
882.189	0.0161621
882.267	0.0162485
882.346	0.0160905
882.424	0.0161680
882.502	0.0161577
882.580	0.0160723
882.658	0.0160970
882.736	0.0160682
882.814	0.0160626
882.892	0.0161297
882.971	0.0160927
883.049	0.0161365
883.127	0.0160594
883.205	0.0161134
883.283	0.0160595
883.361	0.0162661
883.439	0.0160764
883.517	0.0160573
883.596	0.0161339
883.674	0.0160897
883.752	0.0161545
883.830	0.0160708
883.908	0.0160444
883.986	0.0160960
884.064	0.0162032
884.142	0.0160940
884.221	0.0160108
884.299	0.0161312
884.377	0.0162908
884.455	0.0159394
884.533	0.0159940
884.611	0.0160824
884.689	0.0161079
884.767	0.0159956
884.846	0.0161153
884.924	0.0160146
885.002	0.0160630
885.080	0.0159770
885.158	0.0160314
885.236	0.0161073
885.314	0.0161941
885.392	0.0159052
885.471	0.0160600
885.549	0.0159581
885.627	0.0159785
885.705	0.0161748
885.783	0.0161134
885.861	0.0159109
885.939	0.0160654
886.017	0.0161839
886.096	0.0160949
886.174	0.0159876
886.252	0.0159963
886.330	0.0160523
886.408	0.0160229
886.486	0.0159576
886.564	0.0159554
886.642	0.0160064
886.721	0.0159717
886.799	0.0161523
886.877	0.0160582
886.955	0.0159617
887.033	0.0159769
887.111	0.0160787
887.189	0.0159422
887.267	0.0160093
887.346	0.0160420
887.424	0.0159730
887.502	0.0160440
887.580	0.0160011
887.658	0.0160125
887.736	0.0160048
887.814	0.0160500
887.892	0.0160466
887.971	0.0160793
888.049	0.0159560
888.127	0.0160141
888.205	0.0162400
888.283	0.0159683
888.361	0.0160049
888.439	0.0161056
888.517	0.0160493
888.596	0.0161276
888.674	0.0160912
888.752	0.0160640
888.830	0.0162054
888.908	0.0161312
888.986	0.0161938
889.064	0.0161972
889.142	0.0161840
889.221	0.0161367
889.299	0.0159567
889.377	0.0161479
889.455	0.0160783
889.533	0.0161909
889.611	0.0161153
889.689	0.0160564
889.767	0.0160680
889.846	0.0161920
889.924	0.0160506
890.002	0.0160410
890.080	0.0161789
890.158	0.0161205
890.236	0.0161350
890.314	0.0161326
890.392	0.0159782
890.471	0.0161333
890.549	0.0160947
890.627	0.0160382
890.705	0.0160375
890.783	0.0160023
890.861	0.0161918
890.939	0.0161657
891.017	0.0158413
891.096	0.0161926
891.174	0.0160014
891.252	0.0160351
891.330	0.0159528
891.408	0.0160582
891.486	0.0160762
891.564	0.0160802
891.642	0.0160092
891.721	0.0161820
891.799	0.0161362
891.877	0.0160288
891.955	0.0159778
892.033	0.0160997
892.111	0.0161834
892.189	0.0162157
892.267	0.0162186
892.346	0.0161713
892.424	0.0161659
892.502	0.0160369
892.580	0.0160478
892.658	0.0161141
892.736	0.0161103
892.814	0.0160539
892.892	0.0161250
892.971	0.0159679
893.049	0.0159945
893.127	0.0159698
893.205	0.0160479
893.283	0.0160432
893.361	0.0160654
893.439	0.0160401
893.517	0.0160725
893.596	0.0160136
893.674	0.0159770
893.752	0.0159082
893.830	0.0160802
893.908	0.0160753
893.986	0.0159071
894.064	0.0159963
894.142	0.0160248
894.221	0.0159937
894.299	0.0160079
894.377	0.0160837
894.455	0.0160166
894.533	0.0159190
894.611	0.0160742
894.689	0.0160075
894.767	0.0159643
894.846	0.0160202
894.924	0.0161245
895.002	0.0160697
895.080	0.0159919
895.158	0.0160081
895.236	0.0160761
895.314	0.0159615
895.392	0.0159939
895.471	0.0160333
895.549	0.0160583
895.627	0.0159666
895.705	0.0160686
895.783	0.0161349
895.861	0.0161953
895.939	0.0160642
896.017	0.0160419
896.096	0.0162734
896.174	0.0160574
896.252	0.0161103
896.330	0.0161674
896.408	0.0161745
896.486	0.0161584
896.564	0.0160809
896.642	0.0160666
896.721	0.0161315
896.799	0.0160329
896.877	0.0161166
896.955	0.0159418
897.033	0.0160242
897.111	0.0161285
897.189	0.0160120
897.267	0.0159674
897.346	0.0160202
897.424	0.0160461
897.502	0.0160078
897.580	0.0159536
897.658	0.0161326
897.736	0.0160671
897.814	0.0160789
897.892	0.0161001
897.971	0.0160321
898.049	0.0160672
898.127	0.0159385
898.205	0.0160962
898.283	0.0161098
898.361	0.0159491
898.439	0.0159553
898.517	0.0160658
898.596	0.0160632
898.674	0.0159257
898.752	0.0160529
898.830	0.0160799
898.908	0.0159523
898.986	0.0160719
899.064	0.0160767
899.142	0.0160219
899.221	0.0159510
899.299	0.0158936
899.377	0.0159499
899.455	0.0160526
899.533	0.0160018
899.611	0.0159927
899.689	0.0158901
899.767	0.0160455
899.846	0.0160680
899.924	0.0160463
900.002	0.0160568
900.080	0.0160742
900.158	0.0160555
900.236	0.0162026
900.314	0.0160711
900.392	0.0160738
900.471	0.0160281
900.549	0.0159946
900.627	0.0161485
900.705	0.0160963
900.783	0.0160175
900.861	0.0159718
900.939	0.0160627
901.017	0.0159902
901.096	0.0159464
901.174	0.0159441
901.252	0.0159966
901.330	0.0160503
901.408	0.0160519
901.486	0.0161596
901.564	0.0160456
901.642	0.0160067
901.721	0.0159873
901.799	0.0159187
901.877	0.0161481
901.955	0.0160496
902.033	0.0161546
902.111	0.0160191
902.189	0.0160572
902.267	0.0160825
902.346	0.0162269
902.424	0.0161749
902.502	0.0160897
902.580	0.0160626
902.658	0.0161523
902.736	0.0160367
902.814	0.0159523
902.892	0.0161520
902.971	0.0160385
903.049	0.0160825
903.127	0.0161056
903.205	0.0160060
903.283	0.0161420
903.361	0.0160691
903.439	0.0160320
903.517	0.0158775
903.596	0.0160626
903.674	0.0161089
903.752	0.0159190
903.830	0.0160808
903.908	0.0160597
903.986	0.0159787
904.064	0.0160840
904.142	0.0159880
904.221	0.0159655
904.299	0.0160538
904.377	0.0160863
904.455	0.0160051
904.533	0.0160879
904.611	0.0159361
904.689	0.0159710
904.767	0.0161531
904.846	0.0159160
904.924	0.0161394
905.002	0.0161851
905.080	0.0160796
905.158	0.0160925
905.236	0.0160312
905.314	0.0159550
905.392	0.0159748
905.471	0.0160806
905.549	0.0160734
905.627	0.0160598
905.705	0.0160860
905.783	0.0160443
905.861	0.0160184
905.939	0.0160448
906.017	0.0160203
906.096	0.0160882
906.174	0.0160861
906.252	0.0160672
906.330	0.0159598
906.408	0.0160408
906.486	0.0160938
906.564	0.0160825
906.642	0.0159117
906.721	0.0161940
906.799	0.0160788
906.877	0.0161244
906.955	0.0160551
907.033	0.0160863
907.111	0.0161248
907.189	0.0159666
907.267	0.0160960
907.346	0.0160496
907.424	0.0160114
907.502	0.0160849
907.580	0.0161312
907.658	0.0161337
907.736	0.0160325
907.814	0.0160927
907.892	0.0161592
907.971	0.0159312
908.049	0.0160290
908.127	0.0161206
908.205	0.0160066
908.283	0.0159481
908.361	0.0160230
908.439	0.0159404
908.517	0.0159245
908.596	0.0159653
908.674	0.0159988
908.752	0.0159985
908.830	0.0160751
908.908	0.0161610
908.986	0.0160571
909.064	0.0159429
909.142	0.0160773
909.221	0.0159480
909.299	0.0159790
909.377	0.0160712
909.455	0.0158833
909.533	0.0159827
909.611	0.0160749
909.689	0.0159061
909.767	0.0159663
909.846	0.0159499
909.924	0.0159647
910.002	0.0159547
910.080	0.0160271
910.158	0.0161069
910.236	0.0159895
910.314	0.0160514
910.392	0.0160810
910.471	0.0159834
910.549	0.0159306
910.627	0.0160417
910.705	0.0158110
910.783	0.0159878
910.861	0.0160625
910.939	0.0159864
911.017	0.0159879
911.096	0.0159663
911.174	0.0160360
911.252	0.0161230
911.330	0.0159528
911.408	0.0159977
911.486	0.0160464
911.564	0.0160488
911.642	0.0161031
911.721	0.0161490
911.799	0.0159354
911.877	0.0160504
911.955	0.0160873
912.033	0.0159529
912.111	0.0161027
912.189	0.0160860
912.267	0.0160001
912.346	0.0159913
912.424	0.0158899
912.502	0.0160651
912.580	0.0159830
912.658	0.0159335
912.736	0.0158916
912.814	0.0158811
912.892	0.0159806
912.971	0.0160203
913.049	0.0158876
913.127	0.0159705
913.205	0.0161057
913.283	0.0160186
913.361	0.0159855
913.439	0.0159902
913.517	0.0159393
913.596	0.0160373
913.674	0.0160284
913.752	0.0159705
913.830	0.0159473
913.908	0.0160062
913.986	0.0160616
914.064	0.0160157
914.142	0.0158427
914.221	0.0158115
914.299	0.0158630
914.377	0.0159802
914.455	0.0159573
914.533	0.0159751
914.611	0.0158200
914.689	0.0160295
914.767	0.0160239
914.846	0.0158980
914.924	0.0159711
915.002	0.0159216
915.080	0.0158875
915.158	0.0161243
915.236	0.0159785
915.314	0.0158791
915.392	0.0159113
915.471	0.0160367
915.549	0.0159176
915.627	0.0158700
915.705	0.0160273
915.783	0.0159980
915.861	0.0159226
915.939	0.0159140
916.017	0.0159293
916.096	0.0160558
916.174	0.0159541
916.252	0.0158836
916.330	0.0159027
916.408	0.0159449
916.486	0.0158642
916.564	0.0158154
916.642	0.0159052
916.721	0.0158150
916.799	0.0158842
916.877	0.0160975
916.955	0.0160133
917.033	0.0159798
917.111	0.0161214
917.189	0.0160507
917.267	0.0159632
917.346	0.0159484
917.424	0.0160111
917.502	0.0160959
917.580	0.0161207
917.658	0.0159311
917.736	0.0160519
917.814	0.0160333
917.892	0.0159161
917.971	0.0160533
918.049	0.0159763
918.127	0.0160381
918.205	0.0160880
918.283	0.0159437
918.361	0.0159638
918.439	0.0158894
918.517	0.0160519
918.596	0.0159879
918.674	0.0160300
918.752	0.0161079
918.830	0.0160217
918.908	0.0158907
918.986	0.0160630
919.064	0.0159616
919.142	0.0159015
919.221	0.0158996
919.299	0.0160748
919.377	0.0159093
919.455	0.0160196
919.533	0.0160326
919.611	0.0160968
919.689	0.0159338
919.767	0.0160242
919.846	0.0160820
919.924	0.0160049
