06/29/2022	21:35:39	Ver.	4.1	UNKNOWN
Optical Delay	600.001752	Delta X		0.078125	Sweeps	1	Scan Rate	0/0
Coordinates	Axis 1	NaN	Axis 2	NaN	Axis 3	NaN	Axis 4	NaN	Axis 5	NaN	Axis 6	0.000000
TX Power	0.000000	RX Power	0.000000

600.002	0.0164773
600.080	0.0164442
600.158	0.0163922
600.236	0.0164435
600.314	0.0163557
600.392	0.0165582
600.471	0.0163892
600.549	0.0162917
600.627	0.0163435
600.705	0.0163559
600.783	0.0164404
600.861	0.0165170
600.939	0.0163587
601.017	0.0164272
601.096	0.0163783
601.174	0.0164647
601.252	0.0163668
601.330	0.0163750
601.408	0.0165725
601.486	0.0164080
601.564	0.0163742
601.642	0.0163984
601.721	0.0164807
601.799	0.0163216
601.877	0.0165049
601.955	0.0163876
602.033	0.0164765
602.111	0.0164470
602.189	0.0164336
602.267	0.0164104
602.346	0.0163822
602.424	0.0164604
602.502	0.0164223
602.580	0.0163677
602.658	0.0163792
602.736	0.0164603
602.814	0.0163924
602.892	0.0162988
602.971	0.0165131
603.049	0.0166100
603.127	0.0163648
603.205	0.0164816
603.283	0.0164948
603.361	0.0164253
603.439	0.0163206
603.517	0.0163596
603.596	0.0165577
603.674	0.0164764
603.752	0.0164433
603.830	0.0163433
603.908	0.0165321
603.986	0.0165218
604.064	0.0163322
604.142	0.0164158
604.221	0.0164864
604.299	0.0165040
604.377	0.0165409
604.455	0.0164886
604.533	0.0164365
604.611	0.0164536
604.689	0.0165849
604.767	0.0165280
604.846	0.0165470
604.924	0.0164925
605.002	0.0165182
605.080	0.0164072
605.158	0.0166005
605.236	0.0164507
605.314	0.0164620
605.392	0.0165175
605.471	0.0166132
605.549	0.0165665
605.627	0.0165366
605.705	0.0166206
605.783	0.0165174
605.861	0.0164522
605.939	0.0163933
606.017	0.0166266
606.096	0.0163410
606.174	0.0165649
606.252	0.0165863
606.330	0.0163692
606.408	0.0165839
606.486	0.0165250
606.564	0.0165172
606.642	0.0165471
606.721	0.0164671
606.799	0.0164148
606.877	0.0166020
606.955	0.0164604
607.033	0.0164355
607.111	0.0164590
607.189	0.0164276
607.267	0.0164531
607.346	0.0164624
607.424	0.0165356
607.502	0.0163345
607.580	0.0163357
607.658	0.0163158
607.736	0.0163299
607.814	0.0163934
607.892	0.0164476
607.971	0.0164099
608.049	0.0164991
608.127	0.0165022
608.205	0.0164598
608.283	0.0164402
608.361	0.0163564
608.439	0.0164445
608.517	0.0163167
608.596	0.0162946
608.674	0.0163197
608.752	0.0164022
608.830	0.0162968
608.908	0.0163459
608.986	0.0162477
609.064	0.0163046
609.142	0.0163084
609.221	0.0164747
609.299	0.0164426
609.377	0.0163363
609.455	0.0162303
609.533	0.0163995
609.611	0.0163039
609.689	0.0163866
609.767	0.0163148
609.846	0.0164157
609.924	0.0162618
610.002	0.0164920
610.080	0.0162975
610.158	0.0163249
610.236	0.0164594
610.314	0.0163754
610.392	0.0163054
610.471	0.0165195
610.549	0.0164063
610.627	0.0163361
610.705	0.0165157
610.783	0.0164770
610.861	0.0163242
610.939	0.0164624
611.017	0.0163491
611.096	0.0163543
611.174	0.0165083
611.252	0.0164139
611.330	0.0162679
611.408	0.0163004
611.486	0.0165710
611.564	0.0164291
611.642	0.0163507
611.721	0.0163706
611.799	0.0163333
611.877	0.0162611
611.955	0.0164889
612.033	0.0164571
612.111	0.0165282
612.189	0.0164229
612.267	0.0164366
612.346	0.0166013
612.424	0.0164655
612.502	0.0164363
612.580	0.0164467
612.658	0.0164547
612.736	0.0163596
612.814	0.0163087
612.892	0.0164410
612.971	0.0163632
613.049	0.0164883
613.127	0.0163580
613.205	0.0164763
613.283	0.0163535
613.361	0.0163295
613.439	0.0163892
613.517	0.0164877
613.596	0.0164964
613.674	0.0163551
613.752	0.0165139
613.830	0.0165084
613.908	0.0165715
613.986	0.0164069
614.064	0.0164209
614.142	0.0164450
614.221	0.0164618
614.299	0.0166189
614.377	0.0166078
614.455	0.0164571
614.533	0.0164407
614.611	0.0164700
614.689	0.0165385
614.767	0.0166099
614.846	0.0166356
614.924	0.0164503
615.002	0.0163998
615.080	0.0164809
615.158	0.0164906
615.236	0.0163405
615.314	0.0164814
615.392	0.0164388
615.471	0.0165772
615.549	0.0164224
615.627	0.0165432
615.705	0.0166019
615.783	0.0165163
615.861	0.0163955
615.939	0.0165264
616.017	0.0164935
616.096	0.0164890
616.174	0.0164687
616.252	0.0164886
616.330	0.0165468
616.408	0.0164135
616.486	0.0165141
616.564	0.0164434
616.642	0.0164003
616.721	0.0165410
616.799	0.0166473
616.877	0.0163677
616.955	0.0164945
617.033	0.0163834
617.111	0.0164787
617.189	0.0165958
617.267	0.0164542
617.346	0.0165778
617.424	0.0164167
617.502	0.0166281
617.580	0.0166579
617.658	0.0164135
617.736	0.0165479
617.814	0.0165884
617.892	0.0166055
617.971	0.0164194
618.049	0.0165215
618.127	0.0165295
618.205	0.0164903
618.283	0.0166052
618.361	0.0166218
618.439	0.0166629
618.517	0.0166137
618.596	0.0166731
618.674	0.0164433
618.752	0.0164478
618.830	0.0166639
618.908	0.0164628
618.986	0.0166028
619.064	0.0166208
619.142	0.0165276
619.221	0.0165375
619.299	0.0164833
619.377	0.0165434
619.455	0.0165025
619.533	0.0163336
619.611	0.0164600
619.689	0.0164070
619.767	0.0164917
619.846	0.0163838
619.924	0.0163673
620.002	0.0164893
620.080	0.0166786
620.158	0.0164502
620.236	0.0164351
620.314	0.0165349
620.392	0.0164546
620.471	0.0164604
620.549	0.0163924
620.627	0.0165876
620.705	0.0164227
620.783	0.0162994
620.861	0.0164999
620.939	0.0163588
621.017	0.0165523
621.096	0.0163365
621.174	0.0163449
621.252	0.0165475
621.330	0.0164404
621.408	0.0163832
621.486	0.0164870
621.564	0.0166044
621.642	0.0165739
621.721	0.0164766
621.799	0.0163866
621.877	0.0164500
621.955	0.0165666
622.033	0.0164316
622.111	0.0163372
622.189	0.0165240
622.267	0.0163678
622.346	0.0163802
622.424	0.0164022
622.502	0.0163970
622.580	0.0162917
622.658	0.0164354
622.736	0.0164951
622.814	0.0163715
622.892	0.0164016
622.971	0.0165314
623.049	0.0164387
623.127	0.0163800
623.205	0.0163654
623.283	0.0165099
623.361	0.0164407
623.439	0.0164500
623.517	0.0164677
623.596	0.0165529
623.674	0.0164102
623.752	0.0163802
623.830	0.0165019
623.908	0.0164351
623.986	0.0163823
624.064	0.0163074
624.142	0.0163725
624.221	0.0163699
624.299	0.0163460
624.377	0.0165063
624.455	0.0165009
624.533	0.0164594
624.611	0.0164830
624.689	0.0165417
624.767	0.0165178
624.846	0.0164935
624.924	0.0165745
625.002	0.0165253
625.080	0.0164066
625.158	0.0166212
625.236	0.0166103
625.314	0.0165041
625.392	0.0165003
625.471	0.0163783
625.549	0.0166044
625.627	0.0165305
625.705	0.0166124
625.783	0.0163452
625.861	0.0164922
625.939	0.0164086
626.017	0.0165033
626.096	0.0163121
626.174	0.0164843
626.252	0.0165907
626.330	0.0163889
626.408	0.0164426
626.486	0.0163844
626.564	0.0165432
626.642	0.0165372
626.721	0.0165318
626.799	0.0164800
626.877	0.0165157
626.955	0.0165704
627.033	0.0165719
627.111	0.0166127
627.189	0.0165420
627.267	0.0165730
627.346	0.0166517
627.424	0.0166114
627.502	0.0164186
627.580	0.0165517
627.658	0.0165842
627.736	0.0165871
627.814	0.0165528
627.892	0.0164125
627.971	0.0164957
628.049	0.0165200
628.127	0.0164649
628.205	0.0164977
628.283	0.0165974
628.361	0.0165826
628.439	0.0165649
628.517	0.0165642
628.596	0.0164697
628.674	0.0163441
628.752	0.0165022
628.830	0.0165185
628.908	0.0165730
628.986	0.0165508
629.064	0.0166064
629.142	0.0166005
629.221	0.0165043
629.299	0.0165685
629.377	0.0165360
629.455	0.0165453
629.533	0.0164671
629.611	0.0166551
629.689	0.0164958
629.767	0.0165376
629.846	0.0164365
629.924	0.0164618
630.002	0.0163801
630.080	0.0163854
630.158	0.0163830
630.236	0.0165207
630.314	0.0165838
630.392	0.0165125
630.471	0.0165015
630.549	0.0164467
630.627	0.0164602
630.705	0.0163869
630.783	0.0164449
630.861	0.0164014
630.939	0.0164337
631.017	0.0163757
631.096	0.0165205
631.174	0.0164056
631.252	0.0164201
631.330	0.0162753
631.408	0.0165144
631.486	0.0165099
631.564	0.0162891
631.642	0.0163971
631.721	0.0166084
631.799	0.0163065
631.877	0.0164066
631.955	0.0164204
632.033	0.0163686
632.111	0.0163213
632.189	0.0163739
632.267	0.0163163
632.346	0.0164742
632.424	0.0163167
632.502	0.0164542
632.580	0.0164695
632.658	0.0163952
632.736	0.0163754
632.814	0.0163689
632.892	0.0163821
632.971	0.0163634
633.049	0.0162811
633.127	0.0162986
633.205	0.0164771
633.283	0.0164238
633.361	0.0162894
633.439	0.0161996
633.517	0.0163567
633.596	0.0163236
633.674	0.0162644
633.752	0.0163459
633.830	0.0163393
633.908	0.0162317
633.986	0.0163524
634.064	0.0163656
634.142	0.0162536
634.221	0.0162590
634.299	0.0163083
634.377	0.0163672
634.455	0.0162433
634.533	0.0162753
634.611	0.0164270
634.689	0.0162814
634.767	0.0162222
634.846	0.0163013
634.924	0.0163773
635.002	0.0163428
635.080	0.0163910
635.158	0.0163172
635.236	0.0162511
635.314	0.0163271
635.392	0.0163851
635.471	0.0162297
635.549	0.0163488
635.627	0.0163706
635.705	0.0162539
635.783	0.0162561
635.861	0.0164883
635.939	0.0164351
636.017	0.0162701
636.096	0.0161686
636.174	0.0163090
636.252	0.0162690
636.330	0.0165044
636.408	0.0163709
636.486	0.0163863
636.564	0.0164040
636.642	0.0163803
636.721	0.0163372
636.799	0.0164005
636.877	0.0162334
636.955	0.0163711
637.033	0.0163052
637.111	0.0163921
637.189	0.0162743
637.267	0.0164464
637.346	0.0163408
637.424	0.0164377
637.502	0.0164743
637.580	0.0162770
637.658	0.0162287
637.736	0.0162862
637.814	0.0163597
637.892	0.0163472
637.971	0.0164050
638.049	0.0163264
638.127	0.0163273
638.205	0.0162260
638.283	0.0163908
638.361	0.0164729
638.439	0.0164154
638.517	0.0163242
638.596	0.0164642
638.674	0.0164084
638.752	0.0163205
638.830	0.0162230
638.908	0.0163046
638.986	0.0163728
639.064	0.0162783
639.142	0.0164231
639.221	0.0164188
639.299	0.0163911
639.377	0.0164522
639.455	0.0163067
639.533	0.0164338
639.611	0.0162994
639.689	0.0163708
639.767	0.0164874
639.846	0.0163327
639.924	0.0163988
640.002	0.0164131
640.080	0.0163782
640.158	0.0163280
640.236	0.0163507
640.314	0.0163770
640.392	0.0162663
640.471	0.0163341
640.549	0.0164088
640.627	0.0163918
640.705	0.0163542
640.783	0.0163203
640.861	0.0164886
640.939	0.0162822
641.017	0.0163985
641.096	0.0164157
641.174	0.0164667
641.252	0.0163918
641.330	0.0164369
641.408	0.0163412
641.486	0.0162300
641.564	0.0163194
641.642	0.0164864
641.721	0.0163180
641.799	0.0164082
641.877	0.0164577
641.955	0.0163805
642.033	0.0163031
642.111	0.0162805
642.189	0.0162192
642.267	0.0163143
642.346	0.0163062
642.424	0.0163734
642.502	0.0163537
642.580	0.0164079
642.658	0.0163214
642.736	0.0162962
642.814	0.0164439
642.892	0.0162798
642.971	0.0164430
643.049	0.0164846
643.127	0.0163159
643.205	0.0162728
643.283	0.0164393
643.361	0.0163459
643.439	0.0163337
643.517	0.0163821
643.596	0.0163120
643.674	0.0162741
643.752	0.0163184
643.830	0.0163523
643.908	0.0162824
643.986	0.0163975
644.064	0.0163145
644.142	0.0162305
644.221	0.0164828
644.299	0.0164834
644.377	0.0163769
644.455	0.0164172
644.533	0.0165303
644.611	0.0163912
644.689	0.0163538
644.767	0.0163988
644.846	0.0163531
644.924	0.0163266
645.002	0.0162643
645.080	0.0164199
645.158	0.0163953
645.236	0.0163557
645.314	0.0164851
645.392	0.0163696
645.471	0.0161723
645.549	0.0163773
645.627	0.0163417
645.705	0.0163434
645.783	0.0162393
645.861	0.0163561
645.939	0.0163359
646.017	0.0164532
646.096	0.0163330
646.174	0.0162522
646.252	0.0164130
646.330	0.0164700
646.408	0.0164290
646.486	0.0163790
646.564	0.0163928
646.642	0.0163264
646.721	0.0162968
646.799	0.0164207
646.877	0.0163158
646.955	0.0163076
647.033	0.0162828
647.111	0.0164732
647.189	0.0163912
647.267	0.0163502
647.346	0.0163919
647.424	0.0163670
647.502	0.0164025
647.580	0.0163813
647.658	0.0163082
647.736	0.0162102
647.814	0.0163972
647.892	0.0163001
647.971	0.0164831
648.049	0.0163567
648.127	0.0163914
648.205	0.0163238
648.283	0.0163569
648.361	0.0163873
648.439	0.0164353
648.517	0.0164359
648.596	0.0163551
648.674	0.0163872
648.752	0.0163216
648.830	0.0164183
648.908	0.0164127
648.986	0.0161488
649.064	0.0163124
649.142	0.0163771
649.221	0.0163622
649.299	0.0164327
649.377	0.0165060
649.455	0.0163664
649.533	0.0164133
649.611	0.0163364
649.689	0.0164431
649.767	0.0164396
649.846	0.0163783
649.924	0.0162772
650.002	0.0164260
650.080	0.0163242
650.158	0.0164375
650.236	0.0164262
650.314	0.0164230
650.392	0.0163305
650.471	0.0162645
650.549	0.0163303
650.627	0.0165156
650.705	0.0164703
650.783	0.0163241
650.861	0.0163712
650.939	0.0164159
651.017	0.0162811
651.096	0.0163163
651.174	0.0165614
651.252	0.0164325
651.330	0.0163436
651.408	0.0164757
651.486	0.0164242
651.564	0.0164864
651.642	0.0164509
651.721	0.0165440
651.799	0.0163805
651.877	0.0166026
651.955	0.0164642
652.033	0.0164323
652.111	0.0163040
652.189	0.0164685
652.267	0.0163180
652.346	0.0165427
652.424	0.0164435
652.502	0.0164977
652.580	0.0164423
652.658	0.0165466
652.736	0.0163480
652.814	0.0163078
652.892	0.0164350
652.971	0.0165150
653.049	0.0164202
653.127	0.0164261
653.205	0.0165078
653.283	0.0165379
653.361	0.0164606
653.439	0.0163248
653.517	0.0164213
653.596	0.0163213
653.674	0.0163680
653.752	0.0164744
653.830	0.0164175
653.908	0.0162373
653.986	0.0162977
654.064	0.0164384
654.142	0.0163179
654.221	0.0164423
654.299	0.0164001
654.377	0.0163480
654.455	0.0163709
654.533	0.0165102
654.611	0.0163155
654.689	0.0162796
654.767	0.0164094
654.846	0.0163760
654.924	0.0164204
655.002	0.0163760
655.080	0.0162717
655.158	0.0163313
655.236	0.0163865
655.314	0.0164303
655.392	0.0163579
655.471	0.0163167
655.549	0.0163784
655.627	0.0164013
655.705	0.0163375
655.783	0.0163612
655.861	0.0163579
655.939	0.0164267
656.017	0.0162314
656.096	0.0165758
656.174	0.0162920
656.252	0.0162283
656.330	0.0162899
656.408	0.0163519
656.486	0.0163733
656.564	0.0163951
656.642	0.0163690
656.721	0.0162946
656.799	0.0163249
656.877	0.0162132
656.955	0.0163110
657.033	0.0163390
657.111	0.0163970
657.189	0.0163721
657.267	0.0163134
657.346	0.0164141
657.424	0.0163512
657.502	0.0162990
657.580	0.0163332
657.658	0.0163843
657.736	0.0162853
657.814	0.0164346
657.892	0.0164372
657.971	0.0164085
658.049	0.0163229
658.127	0.0163612
658.205	0.0163444
658.283	0.0163467
658.361	0.0165350
658.439	0.0164028
658.517	0.0163440
658.596	0.0163647
658.674	0.0164288
658.752	0.0162947
658.830	0.0163483
658.908	0.0163976
658.986	0.0164673
659.064	0.0162902
659.142	0.0163002
659.221	0.0162460
659.299	0.0163451
659.377	0.0163598
659.455	0.0163955
659.533	0.0164699
659.611	0.0162653
659.689	0.0165035
659.767	0.0164156
659.846	0.0163520
659.924	0.0162363
660.002	0.0164497
660.080	0.0163287
660.158	0.0164053
660.236	0.0164767
660.314	0.0164334
660.392	0.0163461
660.471	0.0162599
660.549	0.0163100
660.627	0.0164318
660.705	0.0164092
660.783	0.0162302
660.861	0.0162656
660.939	0.0163692
661.017	0.0163510
661.096	0.0162746
661.174	0.0163294
661.252	0.0162354
661.330	0.0162792
661.408	0.0163025
661.486	0.0163731
661.564	0.0162948
661.642	0.0162264
661.721	0.0163169
661.799	0.0162288
661.877	0.0163019
661.955	0.0163196
662.033	0.0164045
662.111	0.0164057
662.189	0.0162984
662.267	0.0163663
662.346	0.0163943
662.424	0.0164362
662.502	0.0163443
662.580	0.0162317
662.658	0.0162703
662.736	0.0163880
662.814	0.0163009
662.892	0.0164859
662.971	0.0164052
663.049	0.0163571
663.127	0.0164446
663.205	0.0163088
663.283	0.0163779
663.361	0.0163210
663.439	0.0163788
663.517	0.0164335
663.596	0.0164546
663.674	0.0165276
663.752	0.0163987
663.830	0.0163634
663.908	0.0163690
663.986	0.0164026
664.064	0.0163597
664.142	0.0163145
664.221	0.0162709
664.299	0.0162107
664.377	0.0164532
664.455	0.0164666
664.533	0.0163692
664.611	0.0163857
664.689	0.0164309
664.767	0.0164865
664.846	0.0163023
664.924	0.0163660
665.002	0.0163220
665.080	0.0163377
665.158	0.0163989
665.236	0.0164051
665.314	0.0164455
665.392	0.0163057
665.471	0.0162919
665.549	0.0163930
665.627	0.0164574
665.705	0.0162449
665.783	0.0164071
665.861	0.0164904
665.939	0.0163368
666.017	0.0163784
666.096	0.0163482
666.174	0.0164461
666.252	0.0163894
666.330	0.0164097
666.408	0.0163084
666.486	0.0162997
666.564	0.0164642
666.642	0.0163062
666.721	0.0165349
666.799	0.0164169
666.877	0.0164362
666.955	0.0163170
667.033	0.0163734
667.111	0.0163604
667.189	0.0163694
667.267	0.0164369
667.346	0.0164787
667.424	0.0163658
667.502	0.0163650
667.580	0.0164738
667.658	0.0163706
667.736	0.0163602
667.814	0.0164069
667.892	0.0164666
667.971	0.0164352
668.049	0.0164872
668.127	0.0163418
668.205	0.0164457
668.283	0.0163614
668.361	0.0162882
668.439	0.0164115
668.517	0.0163592
668.596	0.0164383
668.674	0.0162710
668.752	0.0164624
668.830	0.0164357
668.908	0.0164356
668.986	0.0165723
669.064	0.0164743
669.142	0.0163879
669.221	0.0165402
669.299	0.0164393
669.377	0.0163911
669.455	0.0165031
669.533	0.0164207
669.611	0.0164707
669.689	0.0164680
669.767	0.0163253
669.846	0.0163077
669.924	0.0163908
670.002	0.0163652
670.080	0.0163017
670.158	0.0164951
670.236	0.0164587
670.314	0.0163937
670.392	0.0165409
670.471	0.0165117
670.549	0.0163416
670.627	0.0164303
670.705	0.0164670
670.783	0.0165349
670.861	0.0165480
670.939	0.0164059
671.017	0.0163208
671.096	0.0164748
671.174	0.0164683
671.252	0.0165630
671.330	0.0164683
671.408	0.0164357
671.486	0.0165073
671.564	0.0164617
671.642	0.0163164
671.721	0.0164209
671.799	0.0163010
671.877	0.0164314
671.955	0.0165333
672.033	0.0162749
672.111	0.0163460
672.189	0.0164133
672.267	0.0164541
672.346	0.0163715
672.424	0.0164510
672.502	0.0164406
672.580	0.0164868
672.658	0.0164071
672.736	0.0164781
672.814	0.0163522
672.892	0.0164198
672.971	0.0164318
673.049	0.0164310
673.127	0.0164301
673.205	0.0164430
673.283	0.0163807
673.361	0.0165993
673.439	0.0165619
673.517	0.0164798
673.596	0.0163748
673.674	0.0164468
673.752	0.0164911
673.830	0.0165356
673.908	0.0164633
673.986	0.0163989
674.064	0.0164715
674.142	0.0164475
674.221	0.0164154
674.299	0.0163761
674.377	0.0165130
674.455	0.0163773
674.533	0.0164277
674.611	0.0165285
674.689	0.0164323
674.767	0.0164870
674.846	0.0163915
674.924	0.0164687
675.002	0.0164050
675.080	0.0164000
675.158	0.0164530
675.236	0.0165060
675.314	0.0163161
675.392	0.0165011
675.471	0.0164194
675.549	0.0163845
675.627	0.0165360
675.705	0.0164809
675.783	0.0163190
675.861	0.0164993
675.939	0.0164046
676.017	0.0162913
676.096	0.0164633
676.174	0.0164821
676.252	0.0163947
676.330	0.0165742
676.408	0.0164227
676.486	0.0163861
676.564	0.0165205
676.642	0.0164280
676.721	0.0164964
676.799	0.0163890
676.877	0.0164443
676.955	0.0163815
677.033	0.0164529
677.111	0.0163641
677.189	0.0165121
677.267	0.0163696
677.346	0.0164698
677.424	0.0163873
677.502	0.0164210
677.580	0.0164928
677.658	0.0164320
677.736	0.0164538
677.814	0.0164758
677.892	0.0164314
677.971	0.0163987
678.049	0.0165343
678.127	0.0164840
678.205	0.0164133
678.283	0.0164606
678.361	0.0163360
678.439	0.0165084
678.517	0.0164416
678.596	0.0163958
678.674	0.0163926
678.752	0.0163821
678.830	0.0164558
678.908	0.0164581
678.986	0.0164170
679.064	0.0163719
679.142	0.0164940
679.221	0.0164210
679.299	0.0164090
679.377	0.0165226
679.455	0.0165283
679.533	0.0164616
679.611	0.0163344
679.689	0.0165581
679.767	0.0166029
679.846	0.0163414
679.924	0.0164557
680.002	0.0165369
680.080	0.0165578
680.158	0.0164793
680.236	0.0165435
680.314	0.0165613
680.392	0.0165398
680.471	0.0165288
680.549	0.0165661
680.627	0.0164597
680.705	0.0163422
680.783	0.0165800
680.861	0.0165807
680.939	0.0164887
681.017	0.0164496
681.096	0.0164922
681.174	0.0163500
681.252	0.0164608
681.330	0.0163919
681.408	0.0164080
681.486	0.0164125
681.564	0.0165942
681.642	0.0164042
681.721	0.0163432
681.799	0.0162746
681.877	0.0165104
681.955	0.0163937
682.033	0.0164594
682.111	0.0164862
682.189	0.0165557
682.267	0.0165744
682.346	0.0164082
682.424	0.0164950
682.502	0.0163781
682.580	0.0165575
682.658	0.0164623
682.736	0.0164709
682.814	0.0163558
682.892	0.0164908
682.971	0.0164543
683.049	0.0163718
683.127	0.0164942
683.205	0.0165025
683.283	0.0165382
683.361	0.0165148
683.439	0.0165312
683.517	0.0164603
683.596	0.0165077
683.674	0.0163307
683.752	0.0165093
683.830	0.0166286
683.908	0.0164352
683.986	0.0163371
684.064	0.0165100
684.142	0.0164906
684.221	0.0165379
684.299	0.0165916
684.377	0.0164161
684.455	0.0164839
684.533	0.0165672
684.611	0.0165090
684.689	0.0164737
684.767	0.0164504
684.846	0.0164015
684.924	0.0163187
685.002	0.0162981
685.080	0.0162919
685.158	0.0163874
685.236	0.0163808
685.314	0.0164786
685.392	0.0163728
685.471	0.0163907
685.549	0.0163255
685.627	0.0163934
685.705	0.0164718
685.783	0.0162061
685.861	0.0162207
685.939	0.0164259
686.017	0.0163544
686.096	0.0164024
686.174	0.0163622
686.252	0.0163963
686.330	0.0164225
686.408	0.0163924
686.486	0.0163817
686.564	0.0163579
686.642	0.0162949
686.721	0.0165037
686.799	0.0163907
686.877	0.0162798
686.955	0.0163676
687.033	0.0163906
687.111	0.0163847
687.189	0.0164467
687.267	0.0165266
687.346	0.0164219
687.424	0.0163511
687.502	0.0165008
687.580	0.0165623
687.658	0.0164855
687.736	0.0165139
687.814	0.0164584
687.892	0.0164757
687.971	0.0165131
688.049	0.0165761
688.127	0.0164924
688.205	0.0165839
688.283	0.0164661
688.361	0.0164571
688.439	0.0165257
688.517	0.0166434
688.596	0.0164295
688.674	0.0164830
688.752	0.0164547
688.830	0.0165312
688.908	0.0164697
688.986	0.0165568
689.064	0.0165163
689.142	0.0165331
689.221	0.0164951
689.299	0.0164526
689.377	0.0164910
689.455	0.0164535
689.533	0.0163926
689.611	0.0164732
689.689	0.0164049
689.767	0.0163417
689.846	0.0164536
689.924	0.0166482
690.002	0.0166443
690.080	0.0163913
690.158	0.0165067
690.236	0.0165276
690.314	0.0166058
690.392	0.0165152
690.471	0.0165619
690.549	0.0165343
690.627	0.0166615
690.705	0.0165263
690.783	0.0164247
690.861	0.0166924
690.939	0.0165775
691.017	0.0165263
691.096	0.0165250
691.174	0.0165005
691.252	0.0165343
691.330	0.0164653
691.408	0.0164825
691.486	0.0164817
691.564	0.0164257
691.642	0.0163953
691.721	0.0164314
691.799	0.0163829
691.877	0.0164470
691.955	0.0166254
692.033	0.0164039
692.111	0.0164341
692.189	0.0164570
692.267	0.0164489
692.346	0.0165665
692.424	0.0165941
692.502	0.0166245
692.580	0.0165469
692.658	0.0165773
692.736	0.0164967
692.814	0.0164106
692.892	0.0164885
692.971	0.0165079
693.049	0.0166290
693.127	0.0164544
693.205	0.0166043
693.283	0.0165209
693.361	0.0166653
693.439	0.0165250
693.517	0.0164397
693.596	0.0165186
693.674	0.0166671
693.752	0.0165226
693.830	0.0163462
693.908	0.0165692
693.986	0.0166592
694.064	0.0166972
694.142	0.0165090
694.221	0.0165934
694.299	0.0165972
694.377	0.0165747
694.455	0.0166480
694.533	0.0166368
694.611	0.0165159
694.689	0.0165882
694.767	0.0165209
694.846	0.0166833
694.924	0.0164954
695.002	0.0165042
695.080	0.0164194
695.158	0.0164535
695.236	0.0163749
695.314	0.0164821
695.392	0.0165074
695.471	0.0164429
695.549	0.0165073
695.627	0.0163078
695.705	0.0163513
695.783	0.0162137
695.861	0.0162840
695.939	0.0162685
696.017	0.0163253
696.096	0.0162913
696.174	0.0163330
696.252	0.0164399
696.330	0.0163359
696.408	0.0165892
696.486	0.0163818
696.564	0.0165391
696.642	0.0165369
696.721	0.0165810
696.799	0.0165376
696.877	0.0165541
696.955	0.0166087
697.033	0.0165645
697.111	0.0166716
697.189	0.0166473
697.267	0.0165788
697.346	0.0166158
697.424	0.0166183
697.502	0.0166759
697.580	0.0165167
697.658	0.0166082
697.736	0.0167371
697.814	0.0166715
697.892	0.0165827
697.971	0.0167186
698.049	0.0166151
698.127	0.0164709
698.205	0.0166668
698.283	0.0168266
698.361	0.0165939
698.439	0.0165472
698.517	0.0168559
698.596	0.0166594
698.674	0.0165806
698.752	0.0165542
698.830	0.0167599
698.908	0.0167010
698.986	0.0167130
699.064	0.0167174
699.142	0.0167322
699.221	0.0167541
699.299	0.0167774
699.377	0.0165526
699.455	0.0165910
699.533	0.0166329
699.611	0.0166875
699.689	0.0165659
699.767	0.0166063
699.846	0.0166249
699.924	0.0165310
700.002	0.0164648
700.080	0.0166016
700.158	0.0165895
700.236	0.0165785
700.314	0.0165195
700.392	0.0165462
700.471	0.0166100
700.549	0.0165015
700.627	0.0165550
700.705	0.0165399
700.783	0.0164775
700.861	0.0164285
700.939	0.0164680
701.017	0.0164508
701.096	0.0164574
701.174	0.0164439
701.252	0.0164010
701.330	0.0163633
701.408	0.0164285
701.486	0.0163692
701.564	0.0162105
701.642	0.0162950
701.721	0.0164014
701.799	0.0163719
701.877	0.0163595
701.955	0.0163947
702.033	0.0164359
702.111	0.0162270
702.189	0.0163675
702.267	0.0164675
702.346	0.0163864
702.424	0.0163665
702.502	0.0165717
702.580	0.0164777
702.658	0.0165749
702.736	0.0166495
702.814	0.0164852
702.892	0.0166133
702.971	0.0165609
703.049	0.0166189
703.127	0.0165574
703.205	0.0166240
703.283	0.0166151
703.361	0.0167019
703.439	0.0167622
703.517	0.0167598
703.596	0.0166936
703.674	0.0166557
703.752	0.0165923
703.830	0.0167470
703.908	0.0166380
703.986	0.0165389
704.064	0.0166535
704.142	0.0164688
704.221	0.0164520
704.299	0.0164845
704.377	0.0164211
704.455	0.0162806
704.533	0.0164742
704.611	0.0164377
704.689	0.0163151
704.767	0.0162960
704.846	0.0163994
704.924	0.0164498
705.002	0.0164178
705.080	0.0164328
705.158	0.0163516
705.236	0.0164225
705.314	0.0164246
705.392	0.0164727
705.471	0.0165970
705.549	0.0163905
705.627	0.0165406
705.705	0.0164339
705.783	0.0165089
705.861	0.0165417
705.939	0.0163280
706.017	0.0163212
706.096	0.0164580
706.174	0.0163115
706.252	0.0162512
706.330	0.0162381
706.408	0.0163343
706.486	0.0162720
706.564	0.0163479
706.642	0.0161848
706.721	0.0161522
706.799	0.0162409
706.877	0.0160312
706.955	0.0162802
707.033	0.0163998
707.111	0.0161680
707.189	0.0163150
707.267	0.0163274
707.346	0.0163130
707.424	0.0162595
707.502	0.0162857
707.580	0.0163110
707.658	0.0163339
707.736	0.0162506
707.814	0.0163307
707.892	0.0163786
707.971	0.0163564
708.049	0.0163441
708.127	0.0164450
708.205	0.0164725
708.283	0.0162453
708.361	0.0164719
708.439	0.0164520
708.517	0.0163871
708.596	0.0163866
708.674	0.0163822
708.752	0.0164197
708.830	0.0164085
708.908	0.0164584
708.986	0.0163341
709.064	0.0163251
709.142	0.0162563
709.221	0.0163577
709.299	0.0164852
709.377	0.0163062
709.455	0.0163061
709.533	0.0162438
709.611	0.0161678
709.689	0.0161395
709.767	0.0160796
709.846	0.0161138
709.924	0.0163232
710.002	0.0161279
710.080	0.0161928
710.158	0.0162109
710.236	0.0162994
710.314	0.0163607
710.392	0.0163242
710.471	0.0163681
710.549	0.0164401
710.627	0.0165407
710.705	0.0165368
710.783	0.0164310
710.861	0.0165754
710.939	0.0167968
711.017	0.0166872
711.096	0.0166038
711.174	0.0166904
711.252	0.0166199
711.330	0.0165307
711.408	0.0165990
711.486	0.0166484
711.564	0.0165098
711.642	0.0165903
711.721	0.0163134
711.799	0.0163619
711.877	0.0162696
711.955	0.0162634
712.033	0.0164861
712.111	0.0163424
712.189	0.0163828
712.267	0.0163694
712.346	0.0161768
712.424	0.0164584
712.502	0.0165181
712.580	0.0165829
712.658	0.0165010
712.736	0.0166008
712.814	0.0166142
712.892	0.0166756
712.971	0.0164898
713.049	0.0165007
713.127	0.0165424
713.205	0.0163711
713.283	0.0164157
713.361	0.0162779
713.439	0.0163546
713.517	0.0162139
713.596	0.0160152
713.674	0.0160339
713.752	0.0162268
713.830	0.0160760
713.908	0.0159448
713.986	0.0158443
714.064	0.0158819
714.142	0.0161108
714.221	0.0160767
714.299	0.0161314
714.377	0.0161443
714.455	0.0160951
714.533	0.0162083
714.611	0.0162758
714.689	0.0163579
714.767	0.0163963
714.846	0.0165593
714.924	0.0165276
715.002	0.0164537
715.080	0.0165542
715.158	0.0165867
715.236	0.0165189
715.314	0.0165030
715.392	0.0165439
715.471	0.0164626
715.549	0.0166958
715.627	0.0165013
715.705	0.0163876
715.783	0.0163912
715.861	0.0164062
715.939	0.0164596
716.017	0.0162587
716.096	0.0164253
716.174	0.0163480
716.252	0.0163586
716.330	0.0162822
716.408	0.0162386
716.486	0.0162507
716.564	0.0164746
716.642	0.0163017
716.721	0.0163101
716.799	0.0165446
716.877	0.0165127
716.955	0.0164822
717.033	0.0164944
717.111	0.0164482
717.189	0.0165337
717.267	0.0165885
717.346	0.0165799
717.424	0.0163906
717.502	0.0166277
717.580	0.0166037
717.658	0.0163873
717.736	0.0165798
717.814	0.0165218
717.892	0.0167942
717.971	0.0167831
718.049	0.0166154
718.127	0.0166386
718.205	0.0166251
718.283	0.0166483
718.361	0.0165398
718.439	0.0164397
718.517	0.0164233
718.596	0.0164102
718.674	0.0162876
718.752	0.0161961
718.830	0.0162845
718.908	0.0162218
718.986	0.0160622
719.064	0.0161130
719.142	0.0161151
719.221	0.0160566
719.299	0.0161330
719.377	0.0161450
719.455	0.0162549
719.533	0.0161906
719.611	0.0161808
719.689	0.0161775
719.767	0.0162840
719.846	0.0162943
719.924	0.0162572
720.002	0.0163224
720.080	0.0164072
720.158	0.0165308
720.236	0.0164969
720.314	0.0164335
720.392	0.0164256
720.471	0.0166241
720.549	0.0164478
720.627	0.0164623
720.705	0.0165703
720.783	0.0164070
720.861	0.0164646
720.939	0.0164095
721.017	0.0162145
721.096	0.0163601
721.174	0.0163269
721.252	0.0163304
721.330	0.0163599
721.408	0.0163133
721.486	0.0164772
721.564	0.0164491
721.642	0.0164635
721.721	0.0164532
721.799	0.0165224
721.877	0.0165592
721.955	0.0168419
722.033	0.0167522
722.111	0.0167401
722.189	0.0167918
722.267	0.0168399
722.346	0.0169436
722.424	0.0168600
722.502	0.0167693
722.580	0.0166315
722.658	0.0166872
722.736	0.0167296
722.814	0.0168204
722.892	0.0166311
722.971	0.0166261
723.049	0.0167450
723.127	0.0164705
723.205	0.0164802
723.283	0.0165240
723.361	0.0162624
723.439	0.0163685
723.517	0.0164056
723.596	0.0162899
723.674	0.0161343
723.752	0.0162030
723.830	0.0162314
723.908	0.0162426
723.986	0.0163466
724.064	0.0162309
724.142	0.0163490
724.221	0.0160831
724.299	0.0163784
724.377	0.0163322
724.455	0.0162833
724.533	0.0162399
724.611	0.0164103
724.689	0.0165771
724.767	0.0164179
724.846	0.0165734
724.924	0.0166029
725.002	0.0166376
725.080	0.0165631
725.158	0.0164854
725.236	0.0165054
725.314	0.0165708
725.392	0.0166299
725.471	0.0166759
725.549	0.0166981
725.627	0.0166811
725.705	0.0166312
725.783	0.0165288
725.861	0.0165883
725.939	0.0165429
726.017	0.0164031
726.096	0.0164651
726.174	0.0163670
726.252	0.0163851
726.330	0.0163959
726.408	0.0163208
726.486	0.0163109
726.564	0.0162015
726.642	0.0162029
726.721	0.0161609
726.799	0.0161882
726.877	0.0160107
726.955	0.0162020
727.033	0.0161494
727.111	0.0161940
727.189	0.0161231
727.267	0.0161444
727.346	0.0161446
727.424	0.0161304
727.502	0.0160990
727.580	0.0163082
727.658	0.0162238
727.736	0.0161602
727.814	0.0161385
727.892	0.0162135
727.971	0.0163574
728.049	0.0163043
728.127	0.0165404
728.205	0.0164879
728.283	0.0165116
728.361	0.0164812
728.439	0.0165322
728.517	0.0166494
728.596	0.0165613
728.674	0.0166219
728.752	0.0164211
728.830	0.0164785
728.908	0.0166356
728.986	0.0165300
729.064	0.0164928
729.142	0.0164613
729.221	0.0165212
729.299	0.0162099
729.377	0.0164375
729.455	0.0165116
729.533	0.0163006
729.611	0.0162930
729.689	0.0165266
729.767	0.0163991
729.846	0.0163041
729.924	0.0163305
730.002	0.0164330
730.080	0.0163044
730.158	0.0162682
730.236	0.0163208
730.314	0.0164153
730.392	0.0164918
730.471	0.0164970
730.549	0.0165025
730.627	0.0163952
730.705	0.0164465
730.783	0.0163673
730.861	0.0164919
730.939	0.0163884
731.017	0.0164663
731.096	0.0163845
731.174	0.0163512
731.252	0.0164175
731.330	0.0163468
731.408	0.0163760
731.486	0.0165201
731.564	0.0164931
731.642	0.0165323
731.721	0.0164423
731.799	0.0163316
731.877	0.0162998
731.955	0.0162509
732.033	0.0163037
732.111	0.0163152
732.189	0.0162860
732.267	0.0161320
732.346	0.0161468
732.424	0.0161144
732.502	0.0163152
732.580	0.0160900
732.658	0.0161427
732.736	0.0162164
732.814	0.0160859
732.892	0.0161725
732.971	0.0161431
733.049	0.0162547
733.127	0.0162388
733.205	0.0161237
733.283	0.0162863
733.361	0.0163086
733.439	0.0164667
733.517	0.0165356
733.596	0.0164346
733.674	0.0163042
733.752	0.0165749
733.830	0.0164677
733.908	0.0165178
733.986	0.0164884
734.064	0.0165054
734.142	0.0164520
734.221	0.0165311
734.299	0.0166835
734.377	0.0165163
734.455	0.0164668
734.533	0.0164258
734.611	0.0163362
734.689	0.0164928
734.767	0.0164992
734.846	0.0164173
734.924	0.0163123
735.002	0.0164310
735.080	0.0164142
735.158	0.0162778
735.236	0.0162443
735.314	0.0162660
735.392	0.0161732
735.471	0.0161176
735.549	0.0161131
735.627	0.0160505
735.705	0.0161752
735.783	0.0160413
735.861	0.0160327
735.939	0.0158710
736.017	0.0159245
736.096	0.0158161
736.174	0.0158139
736.252	0.0160587
736.330	0.0159702
736.408	0.0161448
736.486	0.0160416
736.564	0.0160197
736.642	0.0160863
736.721	0.0162463
736.799	0.0163479
736.877	0.0162910
736.955	0.0164474
737.033	0.0164057
737.111	0.0165585
737.189	0.0164661
737.267	0.0165780
737.346	0.0165306
737.424	0.0165401
737.502	0.0165131
737.580	0.0166565
737.658	0.0166355
737.736	0.0167395
737.814	0.0167245
737.892	0.0167979
737.971	0.0166212
738.049	0.0166530
738.127	0.0165342
738.205	0.0165302
738.283	0.0164323
738.361	0.0164803
738.439	0.0164675
738.517	0.0162439
738.596	0.0163371
738.674	0.0163107
738.752	0.0161357
738.830	0.0161064
738.908	0.0162487
738.986	0.0160189
739.064	0.0159220
739.142	0.0161532
739.221	0.0159473
739.299	0.0159992
739.377	0.0161320
739.455	0.0160368
739.533	0.0159785
739.611	0.0162032
739.689	0.0161337
739.767	0.0160558
739.846	0.0162254
739.924	0.0163468
740.002	0.0163503
740.080	0.0163319
740.158	0.0164824
740.236	0.0164375
740.314	0.0164387
740.392	0.0163940
740.471	0.0164968
740.549	0.0166048
740.627	0.0164716
740.705	0.0165031
740.783	0.0165201
740.861	0.0164539
740.939	0.0165688
741.017	0.0164919
741.096	0.0165907
741.174	0.0164484
741.252	0.0164917
741.330	0.0164524
741.408	0.0164417
741.486	0.0164246
741.564	0.0162704
741.642	0.0161962
741.721	0.0162827
741.799	0.0163697
741.877	0.0162999
741.955	0.0163358
742.033	0.0162531
742.111	0.0162696
742.189	0.0163260
742.267	0.0163387
742.346	0.0163222
742.424	0.0165063
742.502	0.0165167
742.580	0.0164024
742.658	0.0165618
742.736	0.0165562
742.814	0.0167519
742.892	0.0168209
742.971	0.0167113
743.049	0.0167110
743.127	0.0168362
743.205	0.0168069
743.283	0.0167059
743.361	0.0167394
743.439	0.0167677
743.517	0.0167062
743.596	0.0166932
743.674	0.0165126
743.752	0.0165546
743.830	0.0163473
743.908	0.0163145
743.986	0.0163243
744.064	0.0163260
744.142	0.0163042
744.221	0.0162166
744.299	0.0160897
744.377	0.0160448
744.455	0.0160049
744.533	0.0161194
744.611	0.0159375
744.689	0.0160138
744.767	0.0160629
744.846	0.0159682
744.924	0.0159131
745.002	0.0159036
745.080	0.0160080
745.158	0.0160290
745.236	0.0161808
745.314	0.0161411
745.392	0.0162235
745.471	0.0162955
745.549	0.0163309
745.627	0.0163735
745.705	0.0163357
745.783	0.0164462
745.861	0.0164246
745.939	0.0166474
746.017	0.0167647
746.096	0.0167440
746.174	0.0165778
746.252	0.0168874
746.330	0.0168063
746.408	0.0167234
746.486	0.0168062
746.564	0.0167999
746.642	0.0167241
746.721	0.0167162
746.799	0.0168649
746.877	0.0168359
746.955	0.0166557
747.033	0.0167020
747.111	0.0165947
747.189	0.0166323
747.267	0.0166850
747.346	0.0165905
747.424	0.0165419
747.502	0.0165881
747.580	0.0166254
747.658	0.0165448
747.736	0.0165129
747.814	0.0164813
747.892	0.0163745
747.971	0.0163109
748.049	0.0164600
748.127	0.0164297
748.205	0.0164247
748.283	0.0163197
748.361	0.0163541
748.439	0.0163779
748.517	0.0163107
748.596	0.0161521
748.674	0.0163610
748.752	0.0162150
748.830	0.0161694
748.908	0.0162943
748.986	0.0163414
749.064	0.0163687
749.142	0.0162162
749.221	0.0162006
749.299	0.0162850
749.377	0.0162051
749.455	0.0162326
749.533	0.0161475
749.611	0.0162538
749.689	0.0163300
749.767	0.0162114
749.846	0.0162173
749.924	0.0162026
750.002	0.0161578
750.080	0.0161940
750.158	0.0162615
750.236	0.0163120
750.314	0.0161356
750.392	0.0162364
750.471	0.0162898
750.549	0.0163701
750.627	0.0164265
750.705	0.0163844
750.783	0.0165281
750.861	0.0165321
750.939	0.0164169
751.017	0.0165252
751.096	0.0165253
751.174	0.0165117
751.252	0.0165675
751.330	0.0165929
751.408	0.0167274
751.486	0.0166837
751.564	0.0166283
751.642	0.0166377
751.721	0.0166460
751.799	0.0167739
751.877	0.0167548
751.955	0.0166458
752.033	0.0166418
752.111	0.0167221
752.189	0.0167932
752.267	0.0167377
752.346	0.0166667
752.424	0.0166323
752.502	0.0163676
752.580	0.0164050
752.658	0.0165720
752.736	0.0165321
752.814	0.0163230
752.892	0.0166166
752.971	0.0164055
753.049	0.0164613
753.127	0.0164053
753.205	0.0161782
753.283	0.0164063
753.361	0.0163319
753.439	0.0163599
753.517	0.0164536
753.596	0.0164068
753.674	0.0161692
753.752	0.0163104
753.830	0.0163686
753.908	0.0163067
753.986	0.0162637
754.064	0.0163447
754.142	0.0161958
754.221	0.0161664
754.299	0.0162321
754.377	0.0161372
754.455	0.0162869
754.533	0.0162466
754.611	0.0162607
754.689	0.0162254
754.767	0.0162816
754.846	0.0161900
754.924	0.0163351
755.002	0.0164246
755.080	0.0162738
755.158	0.0163402
755.236	0.0165498
755.314	0.0164857
755.392	0.0163490
755.471	0.0164253
755.549	0.0164716
755.627	0.0165563
755.705	0.0165502
755.783	0.0165936
755.861	0.0165771
755.939	0.0165224
756.017	0.0165078
756.096	0.0164841
756.174	0.0165335
756.252	0.0165867
756.330	0.0166275
756.408	0.0165729
756.486	0.0165726
756.564	0.0167061
756.642	0.0166648
756.721	0.0166572
756.799	0.0165290
756.877	0.0166574
756.955	0.0166094
757.033	0.0165267
757.111	0.0165469
757.189	0.0165321
757.267	0.0164673
757.346	0.0164823
757.424	0.0165187
757.502	0.0164669
757.580	0.0163660
757.658	0.0163718
757.736	0.0163345
757.814	0.0163580
757.892	0.0165524
757.971	0.0164648
758.049	0.0165531
758.127	0.0164972
758.205	0.0164504
758.283	0.0165764
758.361	0.0165774
758.439	0.0165625
758.517	0.0164964
758.596	0.0167010
758.674	0.0166732
758.752	0.0166440
758.830	0.0165546
758.908	0.0166103
758.986	0.0166291
759.064	0.0165395
759.142	0.0164902
759.221	0.0164231
759.299	0.0166004
759.377	0.0164536
759.455	0.0164136
759.533	0.0163861
759.611	0.0164479
759.689	0.0163142
759.767	0.0163274
759.846	0.0164277
759.924	0.0164362
760.002	0.0163718
760.080	0.0163869
760.158	0.0163624
760.236	0.0164145
760.314	0.0163210
760.392	0.0163206
760.471	0.0163614
760.549	0.0163039
760.627	0.0163850
760.705	0.0163760
760.783	0.0163386
760.861	0.0162941
760.939	0.0163853
761.017	0.0162994
761.096	0.0163779
761.174	0.0164416
761.252	0.0162868
761.330	0.0164048
761.408	0.0164769
761.486	0.0165533
761.564	0.0165677
761.642	0.0166682
761.721	0.0165601
761.799	0.0164113
761.877	0.0164819
761.955	0.0167850
762.033	0.0167007
762.111	0.0165953
762.189	0.0165384
762.267	0.0165851
762.346	0.0165829
762.424	0.0165151
762.502	0.0165467
762.580	0.0164907
762.658	0.0163787
762.736	0.0166195
762.814	0.0164738
762.892	0.0163930
762.971	0.0163943
763.049	0.0164631
763.127	0.0163897
763.205	0.0162827
763.283	0.0165305
763.361	0.0164560
763.439	0.0163519
763.517	0.0164227
763.596	0.0163524
763.674	0.0164706
763.752	0.0165607
763.830	0.0165720
763.908	0.0166089
763.986	0.0164409
764.064	0.0163974
764.142	0.0164835
764.221	0.0165415
764.299	0.0165559
764.377	0.0164255
764.455	0.0164976
764.533	0.0165333
764.611	0.0164601
764.689	0.0163668
764.767	0.0164933
764.846	0.0164217
764.924	0.0163130
765.002	0.0163574
765.080	0.0164300
765.158	0.0163952
765.236	0.0162943
765.314	0.0165111
765.392	0.0163368
765.471	0.0162722
765.549	0.0163697
765.627	0.0163750
765.705	0.0164997
765.783	0.0165162
765.861	0.0164857
765.939	0.0166021
766.017	0.0167284
766.096	0.0166210
766.174	0.0165699
766.252	0.0166599
766.330	0.0167551
766.408	0.0166859
766.486	0.0166179
766.564	0.0167999
766.642	0.0166962
766.721	0.0166254
766.799	0.0166863
766.877	0.0167020
766.955	0.0165245
767.033	0.0165026
767.111	0.0165407
767.189	0.0165576
767.267	0.0165194
767.346	0.0164957
767.424	0.0164700
767.502	0.0164768
767.580	0.0165565
767.658	0.0163173
767.736	0.0164038
767.814	0.0163935
767.892	0.0163593
767.971	0.0164271
768.049	0.0163818
768.127	0.0163270
768.205	0.0164425
768.283	0.0165465
768.361	0.0163752
768.439	0.0163749
768.517	0.0163418
768.596	0.0165027
768.674	0.0163316
768.752	0.0164826
768.830	0.0165140
768.908	0.0165408
768.986	0.0164815
769.064	0.0164043
769.142	0.0166367
769.221	0.0166785
769.299	0.0166425
769.377	0.0165309
769.455	0.0166443
769.533	0.0167180
769.611	0.0165777
769.689	0.0163699
769.767	0.0165205
769.846	0.0165266
769.924	0.0166558
770.002	0.0164389
770.080	0.0163649
770.158	0.0164708
770.236	0.0164836
770.314	0.0164620
770.392	0.0163715
770.471	0.0162946
770.549	0.0164133
770.627	0.0164003
770.705	0.0164774
770.783	0.0163792
770.861	0.0163548
770.939	0.0164847
771.017	0.0164429
771.096	0.0163993
771.174	0.0162988
771.252	0.0164879
771.330	0.0164154
771.408	0.0165590
771.486	0.0165260
771.564	0.0164326
771.642	0.0165226
771.721	0.0164568
771.799	0.0164262
771.877	0.0163875
771.955	0.0164742
772.033	0.0163299
772.111	0.0164221
772.189	0.0163512
772.267	0.0162919
772.346	0.0164152
772.424	0.0161978
772.502	0.0162322
772.580	0.0162038
772.658	0.0161465
772.736	0.0163109
772.814	0.0163329
772.892	0.0163428
772.971	0.0161260
773.049	0.0163109
773.127	0.0163731
773.205	0.0161700
773.283	0.0163229
773.361	0.0163888
773.439	0.0163554
773.517	0.0164304
773.596	0.0164583
773.674	0.0162585
773.752	0.0165075
773.830	0.0164790
773.908	0.0165848
773.986	0.0165691
774.064	0.0165240
774.142	0.0165823
774.221	0.0165333
774.299	0.0165987
774.377	0.0166418
774.455	0.0166094
774.533	0.0165602
774.611	0.0165673
774.689	0.0165076
774.767	0.0164135
774.846	0.0166469
774.924	0.0165031
775.002	0.0164929
775.080	0.0163700
775.158	0.0164658
775.236	0.0164152
775.314	0.0165166
775.392	0.0163955
775.471	0.0165182
775.549	0.0164810
775.627	0.0164274
775.705	0.0164712
775.783	0.0163719
775.861	0.0163097
775.939	0.0162547
776.017	0.0163120
776.096	0.0163342
776.174	0.0163264
776.252	0.0163040
776.330	0.0163647
776.408	0.0164779
776.486	0.0164758
776.564	0.0164082
776.642	0.0164977
776.721	0.0162521
776.799	0.0164190
776.877	0.0164160
776.955	0.0165083
777.033	0.0164846
777.111	0.0165739
777.189	0.0166319
777.267	0.0166277
777.346	0.0165804
777.424	0.0165519
777.502	0.0164775
777.580	0.0166116
777.658	0.0166303
777.736	0.0165081
777.814	0.0163808
777.892	0.0164127
777.971	0.0165366
778.049	0.0165234
778.127	0.0164448
778.205	0.0164301
778.283	0.0164353
778.361	0.0163490
778.439	0.0163490
778.517	0.0163411
778.596	0.0163815
778.674	0.0162770
778.752	0.0164965
778.830	0.0163158
778.908	0.0162623
778.986	0.0163293
779.064	0.0164719
779.142	0.0164124
779.221	0.0163403
779.299	0.0163899
779.377	0.0164750
779.455	0.0165168
779.533	0.0164202
779.611	0.0164357
779.689	0.0164679
779.767	0.0165029
779.846	0.0164946
779.924	0.0165950
780.002	0.0164768
780.080	0.0164912
780.158	0.0166706
780.236	0.0165405
780.314	0.0165022
780.392	0.0164810
780.471	0.0163417
780.549	0.0164586
780.627	0.0166403
780.705	0.0164066
780.783	0.0164112
780.861	0.0164967
780.939	0.0165213
781.017	0.0165087
781.096	0.0164528
781.174	0.0164907
781.252	0.0165824
781.330	0.0165486
781.408	0.0165266
781.486	0.0166081
781.564	0.0164795
781.642	0.0166058
781.721	0.0165806
781.799	0.0166223
781.877	0.0165685
781.955	0.0165099
782.033	0.0165361
782.111	0.0165471
782.189	0.0164377
782.267	0.0164035
782.346	0.0164316
782.424	0.0163692
782.502	0.0163324
782.580	0.0163707
782.658	0.0162582
782.736	0.0165673
782.814	0.0164005
782.892	0.0164464
782.971	0.0165013
783.049	0.0164146
783.127	0.0165653
783.205	0.0164783
783.283	0.0164219
783.361	0.0164070
783.439	0.0163368
783.517	0.0164403
783.596	0.0164442
783.674	0.0164658
783.752	0.0164134
783.830	0.0163678
783.908	0.0164309
783.986	0.0164014
784.064	0.0164054
784.142	0.0164017
784.221	0.0164557
784.299	0.0164416
784.377	0.0165113
784.455	0.0165592
784.533	0.0162862
784.611	0.0165330
784.689	0.0164746
784.767	0.0163931
784.846	0.0165688
784.924	0.0165623
785.002	0.0164674
785.080	0.0166167
785.158	0.0164218
785.236	0.0164983
785.314	0.0164729
785.392	0.0166032
785.471	0.0166031
785.549	0.0164398
785.627	0.0164701
785.705	0.0164334
785.783	0.0165356
785.861	0.0166433
785.939	0.0164977
786.017	0.0165083
786.096	0.0164494
786.174	0.0164307
786.252	0.0166029
786.330	0.0165746
786.408	0.0164867
786.486	0.0164956
786.564	0.0165525
786.642	0.0164669
786.721	0.0165173
786.799	0.0166360
786.877	0.0165858
786.955	0.0166972
787.033	0.0166657
787.111	0.0166105
787.189	0.0167063
787.267	0.0165770
787.346	0.0165186
787.424	0.0167280
787.502	0.0165813
787.580	0.0165276
787.658	0.0164906
787.736	0.0163969
787.814	0.0166016
787.892	0.0166186
787.971	0.0165427
788.049	0.0165295
788.127	0.0165156
788.205	0.0164407
788.283	0.0164774
788.361	0.0163895
788.439	0.0164556
788.517	0.0164823
788.596	0.0164413
788.674	0.0163062
788.752	0.0162392
788.830	0.0165298
788.908	0.0164674
788.986	0.0163307
789.064	0.0163138
789.142	0.0164249
789.221	0.0163547
789.299	0.0164493
789.377	0.0164232
789.455	0.0163535
789.533	0.0163714
789.611	0.0163684
789.689	0.0165363
789.767	0.0164100
789.846	0.0165141
789.924	0.0164684
790.002	0.0164696
790.080	0.0164745
790.158	0.0163815
790.236	0.0164044
790.314	0.0164998
790.392	0.0167238
790.471	0.0165139
790.549	0.0163751
790.627	0.0166324
790.705	0.0165780
790.783	0.0164509
790.861	0.0165404
790.939	0.0164606
791.017	0.0163480
791.096	0.0164922
791.174	0.0164366
791.252	0.0162183
791.330	0.0162254
791.408	0.0162576
791.486	0.0164608
791.564	0.0162936
791.642	0.0163751
791.721	0.0163928
791.799	0.0164716
791.877	0.0163757
791.955	0.0164317
792.033	0.0164352
792.111	0.0164314
792.189	0.0164276
792.267	0.0165301
792.346	0.0163943
792.424	0.0164407
792.502	0.0165613
792.580	0.0163618
792.658	0.0164678
792.736	0.0165608
792.814	0.0163514
792.892	0.0165458
792.971	0.0164012
793.049	0.0164606
793.127	0.0163934
793.205	0.0165126
793.283	0.0162103
793.361	0.0163719
793.439	0.0164020
793.517	0.0162032
793.596	0.0164264
793.674	0.0163291
793.752	0.0163384
793.830	0.0164300
793.908	0.0163821
793.986	0.0164658
794.064	0.0165296
794.142	0.0164765
794.221	0.0163599
794.299	0.0162986
794.377	0.0163425
794.455	0.0165314
794.533	0.0164838
794.611	0.0163482
794.689	0.0164067
794.767	0.0162997
794.846	0.0162384
794.924	0.0165154
795.002	0.0164808
795.080	0.0165465
795.158	0.0165206
795.236	0.0164237
795.314	0.0163511
795.392	0.0164036
795.471	0.0166126
795.549	0.0164739
795.627	0.0164513
795.705	0.0164664
795.783	0.0164745
795.861	0.0164597
795.939	0.0165973
796.017	0.0164884
796.096	0.0164513
796.174	0.0164785
796.252	0.0164638
796.330	0.0164400
796.408	0.0164789
796.486	0.0163126
796.564	0.0163696
796.642	0.0162951
796.721	0.0162980
796.799	0.0162980
796.877	0.0162711
796.955	0.0162963
797.033	0.0162811
797.111	0.0162134
797.189	0.0162924
797.267	0.0162653
797.346	0.0163737
797.424	0.0163911
797.502	0.0161585
797.580	0.0163068
797.658	0.0162622
797.736	0.0163943
797.814	0.0162663
797.892	0.0162366
797.971	0.0163952
798.049	0.0162325
798.127	0.0162951
798.205	0.0163669
798.283	0.0163815
798.361	0.0163229
798.439	0.0163153
798.517	0.0164030
798.596	0.0163529
798.674	0.0164272
798.752	0.0162582
798.830	0.0162617
798.908	0.0163689
798.986	0.0162020
799.064	0.0163011
799.142	0.0163451
799.221	0.0162817
799.299	0.0162279
799.377	0.0162179
799.455	0.0162728
799.533	0.0163744
799.611	0.0162753
799.689	0.0163522
799.767	0.0164488
799.846	0.0164634
799.924	0.0161897
800.002	0.0162785
800.080	0.0164185
800.158	0.0164739
800.236	0.0163928
800.314	0.0164444
800.392	0.0164577
800.471	0.0164037
800.549	0.0164928
800.627	0.0164129
800.705	0.0164908
800.783	0.0164516
800.861	0.0163936
800.939	0.0165623
801.017	0.0165471
801.096	0.0163929
801.174	0.0164009
801.252	0.0164191
801.330	0.0163652
801.408	0.0164227
801.486	0.0163112
801.564	0.0164314
801.642	0.0163527
801.721	0.0162785
801.799	0.0163126
801.877	0.0163062
801.955	0.0163630
802.033	0.0164089
802.111	0.0162993
802.189	0.0162636
802.267	0.0163042
802.346	0.0162276
802.424	0.0163821
802.502	0.0163577
802.580	0.0162724
802.658	0.0163618
802.736	0.0164220
802.814	0.0162502
802.892	0.0163513
802.971	0.0164924
803.049	0.0163414
803.127	0.0163824
803.205	0.0163587
803.283	0.0165309
803.361	0.0165102
803.439	0.0163608
803.517	0.0163846
803.596	0.0164142
803.674	0.0162650
803.752	0.0164323
803.830	0.0164425
803.908	0.0164895
803.986	0.0164679
804.064	0.0164312
804.142	0.0163616
804.221	0.0164469
804.299	0.0164048
804.377	0.0163535
804.455	0.0163177
804.533	0.0165138
804.611	0.0163721
804.689	0.0164245
804.767	0.0163137
804.846	0.0164245
804.924	0.0162613
805.002	0.0163197
805.080	0.0164967
805.158	0.0162882
805.236	0.0162841
805.314	0.0163338
805.392	0.0164013
805.471	0.0162707
805.549	0.0163536
805.627	0.0164232
805.705	0.0163316
805.783	0.0162083
805.861	0.0163452
805.939	0.0164287
806.017	0.0162346
806.096	0.0162939
806.174	0.0163381
806.252	0.0164643
806.330	0.0163079
806.408	0.0165004
806.486	0.0164439
806.564	0.0164199
806.642	0.0164700
806.721	0.0164219
806.799	0.0164833
806.877	0.0164548
806.955	0.0165453
807.033	0.0164178
807.111	0.0164411
807.189	0.0164788
807.267	0.0163631
807.346	0.0164983
807.424	0.0164505
807.502	0.0164276
807.580	0.0163601
807.658	0.0163397
807.736	0.0164280
807.814	0.0164013
807.892	0.0163907
807.971	0.0163065
808.049	0.0164544
808.127	0.0162212
808.205	0.0163657
808.283	0.0163737
808.361	0.0163365
808.439	0.0163843
808.517	0.0164131
808.596	0.0164297
808.674	0.0165331
808.752	0.0165211
808.830	0.0163367
808.908	0.0163686
808.986	0.0164050
809.064	0.0163714
809.142	0.0165071
809.221	0.0163091
809.299	0.0164246
809.377	0.0164342
809.455	0.0163594
809.533	0.0162462
809.611	0.0162016
809.689	0.0162716
809.767	0.0162909
809.846	0.0162466
809.924	0.0163684
810.002	0.0163624
810.080	0.0162254
810.158	0.0162472
810.236	0.0161587
810.314	0.0163609
810.392	0.0164019
810.471	0.0162435
810.549	0.0162687
810.627	0.0163568
810.705	0.0163263
810.783	0.0162554
810.861	0.0163769
810.939	0.0164973
811.017	0.0162334
811.096	0.0162260
811.174	0.0163319
811.252	0.0165224
811.330	0.0165422
811.408	0.0164975
811.486	0.0164747
811.564	0.0164301
811.642	0.0164386
811.721	0.0163457
811.799	0.0163048
811.877	0.0164520
811.955	0.0164484
812.033	0.0163594
812.111	0.0164017
812.189	0.0163638
812.267	0.0164930
812.346	0.0164941
812.424	0.0165633
812.502	0.0163518
812.580	0.0163814
812.658	0.0165877
812.736	0.0165674
812.814	0.0164667
812.892	0.0163692
812.971	0.0163644
813.049	0.0165155
813.127	0.0163704
813.205	0.0163658
813.283	0.0164612
813.361	0.0164413
813.439	0.0164590
813.517	0.0164658
813.596	0.0164267
813.674	0.0165529
813.752	0.0162859
813.830	0.0163283
813.908	0.0165018
813.986	0.0164601
814.064	0.0164842
814.142	0.0164705
814.221	0.0164410
814.299	0.0164438
814.377	0.0164362
814.455	0.0164308
814.533	0.0163869
814.611	0.0164205
814.689	0.0164339
814.767	0.0164460
814.846	0.0165072
814.924	0.0164939
815.002	0.0164781
815.080	0.0163683
815.158	0.0163196
815.236	0.0162729
815.314	0.0162188
815.392	0.0163065
815.471	0.0164615
815.549	0.0163663
815.627	0.0164400
815.705	0.0162981
815.783	0.0163261
815.861	0.0163366
815.939	0.0163090
816.017	0.0162785
816.096	0.0163981
816.174	0.0166419
816.252	0.0163674
816.330	0.0162715
816.408	0.0163325
816.486	0.0163900
816.564	0.0164012
816.642	0.0163127
816.721	0.0162236
816.799	0.0162148
816.877	0.0164409
816.955	0.0163497
817.033	0.0163502
817.111	0.0163486
817.189	0.0162064
817.267	0.0163571
817.346	0.0163533
817.424	0.0163757
817.502	0.0162730
817.580	0.0163360
817.658	0.0162709
817.736	0.0162222
817.814	0.0163779
817.892	0.0163638
817.971	0.0163689
818.049	0.0162780
818.127	0.0164253
818.205	0.0162795
818.283	0.0163684
818.361	0.0163239
818.439	0.0164359
818.517	0.0164939
818.596	0.0162167
818.674	0.0163922
818.752	0.0164086
818.830	0.0164853
818.908	0.0163715
818.986	0.0163696
819.064	0.0163158
819.142	0.0162933
819.221	0.0164837
819.299	0.0165303
819.377	0.0163222
819.455	0.0163103
819.533	0.0162292
819.611	0.0162107
819.689	0.0161745
819.767	0.0163172
819.846	0.0163078
819.924	0.0163067
820.002	0.0160870
820.080	0.0162441
820.158	0.0161877
820.236	0.0163335
820.314	0.0162728
820.392	0.0163410
820.471	0.0164166
820.549	0.0163413
820.627	0.0163230
820.705	0.0163612
820.783	0.0163902
820.861	0.0163287
820.939	0.0164012
821.017	0.0163210
821.096	0.0161943
821.174	0.0162485
821.252	0.0163682
821.330	0.0164128
821.408	0.0163689
821.486	0.0163604
821.564	0.0164902
821.642	0.0165445
821.721	0.0165334
821.799	0.0162522
821.877	0.0165086
821.955	0.0164036
822.033	0.0163682
822.111	0.0163589
822.189	0.0164919
822.267	0.0162704
822.346	0.0163680
822.424	0.0165299
822.502	0.0164405
822.580	0.0164190
822.658	0.0164431
822.736	0.0163780
822.814	0.0164988
822.892	0.0165302
822.971	0.0164751
823.049	0.0165360
823.127	0.0165021
823.205	0.0163954
823.283	0.0163222
823.361	0.0164426
823.439	0.0164341
823.517	0.0164375
823.596	0.0163461
823.674	0.0164861
823.752	0.0162572
823.830	0.0162292
823.908	0.0164498
823.986	0.0164357
824.064	0.0164065
824.142	0.0163764
824.221	0.0163657
824.299	0.0165069
824.377	0.0164383
824.455	0.0164632
824.533	0.0164471
824.611	0.0165330
824.689	0.0164243
824.767	0.0163948
824.846	0.0164297
824.924	0.0164759
825.002	0.0165169
825.080	0.0162783
825.158	0.0163470
825.236	0.0164273
825.314	0.0164751
825.392	0.0164886
825.471	0.0162791
825.549	0.0165310
825.627	0.0164832
825.705	0.0165240
825.783	0.0163982
825.861	0.0163723
825.939	0.0164498
826.017	0.0164211
826.096	0.0163297
826.174	0.0163769
826.252	0.0164612
826.330	0.0163319
826.408	0.0164143
826.486	0.0164160
826.564	0.0164634
826.642	0.0164111
826.721	0.0163296
826.799	0.0164124
826.877	0.0163944
826.955	0.0164389
827.033	0.0163905
827.111	0.0163918
827.189	0.0163278
827.267	0.0163604
827.346	0.0163956
827.424	0.0163744
827.502	0.0164405
827.580	0.0164734
827.658	0.0163873
827.736	0.0162914
827.814	0.0163778
827.892	0.0163502
827.971	0.0164342
828.049	0.0162763
828.127	0.0164066
828.205	0.0164133
828.283	0.0164017
828.361	0.0164019
828.439	0.0164249
828.517	0.0163890
828.596	0.0162363
828.674	0.0163412
828.752	0.0164784
828.830	0.0164023
828.908	0.0163213
828.986	0.0161918
829.064	0.0163960
829.142	0.0163929
829.221	0.0163103
829.299	0.0162196
829.377	0.0161946
829.455	0.0164253
829.533	0.0162636
829.611	0.0162363
829.689	0.0162939
829.767	0.0163020
829.846	0.0163420
829.924	0.0162936
830.002	0.0162261
830.080	0.0163974
830.158	0.0162827
830.236	0.0162711
830.314	0.0164027
830.392	0.0162870
830.471	0.0162999
830.549	0.0163002
830.627	0.0163463
830.705	0.0164117
830.783	0.0164110
830.861	0.0162669
830.939	0.0162916
831.017	0.0164702
831.096	0.0164063
831.174	0.0164230
831.252	0.0164290
831.330	0.0164106
831.408	0.0164720
831.486	0.0163860
831.564	0.0163877
831.642	0.0163562
831.721	0.0161904
831.799	0.0163363
831.877	0.0164190
831.955	0.0163580
832.033	0.0162936
832.111	0.0161543
832.189	0.0162590
832.267	0.0163393
832.346	0.0163167
832.424	0.0164176
832.502	0.0162379
832.580	0.0164174
832.658	0.0163316
832.736	0.0161667
832.814	0.0163328
832.892	0.0162791
832.971	0.0162671
833.049	0.0163705
833.127	0.0164152
833.205	0.0164359
833.283	0.0165416
833.361	0.0163954
833.439	0.0163248
833.517	0.0163465
833.596	0.0163937
833.674	0.0165199
833.752	0.0165604
833.830	0.0163820
833.908	0.0164870
833.986	0.0166084
834.064	0.0166432
834.142	0.0164678
834.221	0.0163983
834.299	0.0165681
834.377	0.0165556
834.455	0.0165057
834.533	0.0164803
834.611	0.0165744
834.689	0.0165687
834.767	0.0164790
834.846	0.0165397
834.924	0.0163809
835.002	0.0166196
835.080	0.0164561
835.158	0.0165137
835.236	0.0165162
835.314	0.0163894
835.392	0.0164689
835.471	0.0164761
835.549	0.0165443
835.627	0.0164748
835.705	0.0164953
835.783	0.0165434
835.861	0.0164227
835.939	0.0164839
836.017	0.0164045
836.096	0.0164884
836.174	0.0164259
836.252	0.0165086
836.330	0.0164034
836.408	0.0165818
836.486	0.0165287
836.564	0.0166222
836.642	0.0164114
836.721	0.0165270
836.799	0.0165336
836.877	0.0164529
836.955	0.0164326
837.033	0.0164096
837.111	0.0164439
837.189	0.0164417
837.267	0.0164201
837.346	0.0164764
837.424	0.0163323
837.502	0.0165359
837.580	0.0163911
837.658	0.0163354
837.736	0.0163739
837.814	0.0163136
837.892	0.0164597
837.971	0.0164866
838.049	0.0163621
838.127	0.0163858
838.205	0.0164718
838.283	0.0164195
838.361	0.0165208
838.439	0.0166612
838.517	0.0165271
838.596	0.0163665
838.674	0.0163934
838.752	0.0163821
838.830	0.0164425
838.908	0.0164343
838.986	0.0165462
839.064	0.0163701
839.142	0.0163809
839.221	0.0164556
839.299	0.0164498
839.377	0.0163649
839.455	0.0163957
839.533	0.0165121
839.611	0.0163429
839.689	0.0163677
839.767	0.0163936
839.846	0.0162648
839.924	0.0163635
840.002	0.0163751
840.080	0.0162363
840.158	0.0164174
840.236	0.0164040
840.314	0.0164516
840.392	0.0162737
840.471	0.0163337
840.549	0.0164360
840.627	0.0162607
840.705	0.0162755
840.783	0.0163600
840.861	0.0162814
840.939	0.0163139
841.017	0.0162743
841.096	0.0163239
841.174	0.0163775
841.252	0.0162342
841.330	0.0162450
841.408	0.0163478
841.486	0.0164046
841.564	0.0163141
841.642	0.0163966
841.721	0.0163437
841.799	0.0163242
841.877	0.0162874
841.955	0.0162652
842.033	0.0163114
842.111	0.0164075
842.189	0.0163496
842.267	0.0163520
842.346	0.0165308
842.424	0.0164040
842.502	0.0164336
842.580	0.0165395
842.658	0.0165643
842.736	0.0164359
842.814	0.0165311
842.892	0.0164349
842.971	0.0165044
843.049	0.0164869
843.127	0.0164121
843.205	0.0166121
843.283	0.0164934
843.361	0.0166167
843.439	0.0165269
843.517	0.0165459
843.596	0.0165362
843.674	0.0164677
843.752	0.0164693
843.830	0.0164742
843.908	0.0164455
843.986	0.0163255
844.064	0.0164808
844.142	0.0163663
844.221	0.0163213
844.299	0.0164328
844.377	0.0163912
844.455	0.0164625
844.533	0.0163828
844.611	0.0163564
844.689	0.0163820
844.767	0.0164579
844.846	0.0164318
844.924	0.0162787
845.002	0.0163466
845.080	0.0163172
845.158	0.0163421
845.236	0.0162831
845.314	0.0163166
845.392	0.0163615
845.471	0.0162366
845.549	0.0163033
845.627	0.0163156
845.705	0.0162810
845.783	0.0162820
845.861	0.0161917
845.939	0.0163319
846.017	0.0163404
846.096	0.0163581
846.174	0.0163165
846.252	0.0162147
846.330	0.0163477
846.408	0.0162895
846.486	0.0162691
846.564	0.0163959
846.642	0.0164235
846.721	0.0163554
846.799	0.0163709
846.877	0.0162962
846.955	0.0163314
847.033	0.0162889
847.111	0.0163885
847.189	0.0162704
847.267	0.0162505
847.346	0.0162599
847.424	0.0164259
847.502	0.0162983
847.580	0.0163634
847.658	0.0165041
847.736	0.0164194
847.814	0.0164787
847.892	0.0163564
847.971	0.0163657
848.049	0.0164162
848.127	0.0164034
848.205	0.0163130
848.283	0.0164297
848.361	0.0163611
848.439	0.0163895
848.517	0.0163296
848.596	0.0163411
848.674	0.0164174
848.752	0.0163789
848.830	0.0164214
848.908	0.0164372
848.986	0.0162353
849.064	0.0164404
849.142	0.0163319
849.221	0.0163049
849.299	0.0163242
849.377	0.0162994
849.455	0.0162765
849.533	0.0164350
849.611	0.0163293
849.689	0.0161217
849.767	0.0163248
849.846	0.0163922
849.924	0.0163915
850.002	0.0164281
850.080	0.0164159
850.158	0.0164569
850.236	0.0162721
850.314	0.0163079
850.392	0.0162873
850.471	0.0162132
850.549	0.0162899
850.627	0.0163153
850.705	0.0163184
850.783	0.0162873
850.861	0.0163509
850.939	0.0163970
851.017	0.0163860
851.096	0.0161400
851.174	0.0162126
851.252	0.0162153
851.330	0.0163109
851.408	0.0162480
851.486	0.0162380
851.564	0.0163940
851.642	0.0162450
851.721	0.0163116
851.799	0.0163273
851.877	0.0161481
851.955	0.0161337
852.033	0.0163654
852.111	0.0163745
852.189	0.0163208
852.267	0.0164451
852.346	0.0164587
852.424	0.0164006
852.502	0.0164233
852.580	0.0164235
852.658	0.0165172
852.736	0.0164011
852.814	0.0164514
852.892	0.0164812
852.971	0.0165268
853.049	0.0165112
853.127	0.0164807
853.205	0.0165488
853.283	0.0165613
853.361	0.0164703
853.439	0.0164642
853.517	0.0165541
853.596	0.0164689
853.674	0.0165284
853.752	0.0164733
853.830	0.0164053
853.908	0.0164644
853.986	0.0165020
854.064	0.0165115
854.142	0.0164689
854.221	0.0164885
854.299	0.0163361
854.377	0.0163992
854.455	0.0164198
854.533	0.0164601
854.611	0.0164831
854.689	0.0164120
854.767	0.0165740
854.846	0.0164284
854.924	0.0164045
855.002	0.0166145
855.080	0.0164061
855.158	0.0165740
855.236	0.0165759
855.314	0.0164722
855.392	0.0167146
855.471	0.0165970
855.549	0.0164372
855.627	0.0165835
855.705	0.0166167
855.783	0.0165738
855.861	0.0165801
855.939	0.0165124
856.017	0.0165330
856.096	0.0163920
856.174	0.0165090
856.252	0.0166750
856.330	0.0164395
856.408	0.0163317
856.486	0.0164665
856.564	0.0165157
856.642	0.0164440
856.721	0.0163697
856.799	0.0164352
856.877	0.0165603
856.955	0.0164644
857.033	0.0163129
857.111	0.0165211
857.189	0.0164573
857.267	0.0164792
857.346	0.0165395
857.424	0.0165035
857.502	0.0165179
857.580	0.0165437
857.658	0.0164988
857.736	0.0165730
857.814	0.0164965
857.892	0.0164656
857.971	0.0165366
858.049	0.0165391
858.127	0.0166901
858.205	0.0164275
858.283	0.0163416
858.361	0.0163941
858.439	0.0164420
858.517	0.0164537
858.596	0.0165720
858.674	0.0165999
858.752	0.0164339
858.830	0.0165280
858.908	0.0163910
858.986	0.0164629
859.064	0.0164365
859.142	0.0164155
859.221	0.0164532
859.299	0.0166195
859.377	0.0164725
859.455	0.0163998
859.533	0.0164017
859.611	0.0164399
859.689	0.0163574
859.767	0.0164248
859.846	0.0165398
859.924	0.0165076
860.002	0.0163130
860.080	0.0165502
860.158	0.0165105
860.236	0.0164150
860.314	0.0165521
860.392	0.0165632
860.471	0.0164930
860.549	0.0163754
860.627	0.0164897
860.705	0.0164532
860.783	0.0165659
860.861	0.0165797
860.939	0.0164297
861.017	0.0164011
861.096	0.0165562
861.174	0.0165520
861.252	0.0164787
861.330	0.0164917
861.408	0.0165737
861.486	0.0163284
861.564	0.0161897
861.642	0.0163499
861.721	0.0163381
861.799	0.0164355
861.877	0.0164232
861.955	0.0164538
862.033	0.0163694
862.111	0.0164194
862.189	0.0165147
862.267	0.0164085
862.346	0.0165484
862.424	0.0165781
862.502	0.0164307
862.580	0.0164528
862.658	0.0165302
862.736	0.0165879
862.814	0.0164758
862.892	0.0164742
862.971	0.0165063
863.049	0.0164297
863.127	0.0165289
863.205	0.0164770
863.283	0.0165635
863.361	0.0165627
863.439	0.0164624
863.517	0.0163537
863.596	0.0164563
863.674	0.0164173
863.752	0.0165070
863.830	0.0165623
863.908	0.0163977
863.986	0.0163771
864.064	0.0164590
864.142	0.0164751
864.221	0.0164120
864.299	0.0164127
864.377	0.0164581
864.455	0.0162934
864.533	0.0164376
864.611	0.0164339
864.689	0.0163451
864.767	0.0163357
864.846	0.0163747
864.924	0.0164191
865.002	0.0164132
865.080	0.0164320
865.158	0.0164495
865.236	0.0165302
865.314	0.0165210
865.392	0.0164157
865.471	0.0164163
865.549	0.0164425
865.627	0.0165249
865.705	0.0165247
865.783	0.0164846
865.861	0.0164813
865.939	0.0163869
866.017	0.0164037
866.096	0.0164834
866.174	0.0163754
866.252	0.0163345
866.330	0.0163445
866.408	0.0164577
866.486	0.0163947
866.564	0.0163597
866.642	0.0163223
866.721	0.0164623
866.799	0.0164359
866.877	0.0162155
866.955	0.0163126
867.033	0.0164893
867.111	0.0165014
867.189	0.0163979
867.267	0.0163779
867.346	0.0164462
867.424	0.0165367
867.502	0.0164459
867.580	0.0163986
867.658	0.0164356
867.736	0.0165244
867.814	0.0163737
867.892	0.0163686
867.971	0.0164987
868.049	0.0163166
868.127	0.0163818
868.205	0.0164770
868.283	0.0163324
868.361	0.0164381
868.439	0.0165089
868.517	0.0163724
868.596	0.0162453
868.674	0.0162706
868.752	0.0163608
868.830	0.0163641
868.908	0.0164098
868.986	0.0163246
869.064	0.0164223
869.142	0.0163508
869.221	0.0163666
869.299	0.0164256
869.377	0.0162795
869.455	0.0162243
869.533	0.0161991
869.611	0.0162668
869.689	0.0163503
869.767	0.0164141
869.846	0.0163746
869.924	0.0162890
870.002	0.0164426
870.080	0.0163908
870.158	0.0163277
870.236	0.0164730
870.314	0.0163132
870.392	0.0164398
870.471	0.0163969
870.549	0.0164413
870.627	0.0163203
870.705	0.0164345
870.783	0.0164205
870.861	0.0165038
870.939	0.0162864
871.017	0.0163014
871.096	0.0163931
871.174	0.0164526
871.252	0.0162401
871.330	0.0163735
871.408	0.0164351
871.486	0.0163815
871.564	0.0163646
871.642	0.0164488
871.721	0.0163622
871.799	0.0162956
871.877	0.0162857
871.955	0.0162674
872.033	0.0162778
872.111	0.0163369
872.189	0.0163998
872.267	0.0163181
872.346	0.0163074
872.424	0.0164889
872.502	0.0163335
872.580	0.0164693
872.658	0.0164622
872.736	0.0163546
872.814	0.0164766
872.892	0.0165072
872.971	0.0164034
873.049	0.0164056
873.127	0.0165870
873.205	0.0164074
873.283	0.0164147
873.361	0.0165047
873.439	0.0164137
873.517	0.0165046
873.596	0.0164165
873.674	0.0163667
873.752	0.0164938
873.830	0.0165742
873.908	0.0164309
873.986	0.0164616
874.064	0.0162557
874.142	0.0163202
874.221	0.0163796
874.299	0.0164016
874.377	0.0164403
874.455	0.0164015
874.533	0.0163318
874.611	0.0163316
874.689	0.0163242
874.767	0.0164380
874.846	0.0163126
874.924	0.0163092
875.002	0.0163873
875.080	0.0164885
875.158	0.0162602
875.236	0.0164648
875.314	0.0163768
875.392	0.0163657
875.471	0.0165510
875.549	0.0165941
875.627	0.0164883
875.705	0.0164257
875.783	0.0164480
875.861	0.0165065
875.939	0.0164484
876.017	0.0162748
876.096	0.0164748
876.174	0.0164642
876.252	0.0163589
876.330	0.0164902
876.408	0.0164299
876.486	0.0164420
876.564	0.0163546
876.642	0.0163374
876.721	0.0165862
876.799	0.0164211
876.877	0.0163450
876.955	0.0164149
877.033	0.0164458
877.111	0.0163671
877.189	0.0164344
877.267	0.0165952
877.346	0.0163619
877.424	0.0165113
877.502	0.0166512
877.580	0.0164830
877.658	0.0163965
877.736	0.0164844
877.814	0.0165001
877.892	0.0165213
877.971	0.0163902
878.049	0.0165083
878.127	0.0164690
878.205	0.0165500
878.283	0.0163930
878.361	0.0165928
878.439	0.0165573
878.517	0.0165070
878.596	0.0164081
878.674	0.0165878
878.752	0.0164158
878.830	0.0164545
878.908	0.0164684
878.986	0.0165643
879.064	0.0163892
879.142	0.0164365
879.221	0.0166881
879.299	0.0164580
879.377	0.0165209
879.455	0.0163870
879.533	0.0164821
879.611	0.0165127
879.689	0.0166448
879.767	0.0164875
879.846	0.0163759
879.924	0.0164845
880.002	0.0164116
880.080	0.0164323
880.158	0.0166307
880.236	0.0165417
880.314	0.0164748
880.392	0.0164811
880.471	0.0165139
880.549	0.0164854
880.627	0.0165945
880.705	0.0164094
880.783	0.0164843
880.861	0.0164378
880.939	0.0164998
881.017	0.0164388
881.096	0.0164945
881.174	0.0164111
881.252	0.0164322
881.330	0.0166207
881.408	0.0165397
881.486	0.0164526
881.564	0.0163412
881.642	0.0164504
881.721	0.0164739
881.799	0.0164800
881.877	0.0164022
881.955	0.0163933
882.033	0.0163657
882.111	0.0163148
882.189	0.0163198
882.267	0.0165010
882.346	0.0163399
882.424	0.0164508
882.502	0.0164331
882.580	0.0164624
882.658	0.0165072
882.736	0.0164400
882.814	0.0164019
882.892	0.0163741
882.971	0.0164340
883.049	0.0164275
883.127	0.0164319
883.205	0.0164597
883.283	0.0163509
883.361	0.0164342
883.439	0.0164432
883.517	0.0164496
883.596	0.0163107
883.674	0.0164472
883.752	0.0165202
883.830	0.0164146
883.908	0.0164957
883.986	0.0164834
884.064	0.0165518
884.142	0.0165126
884.221	0.0163169
884.299	0.0164595
884.377	0.0164835
884.455	0.0162881
884.533	0.0164334
884.611	0.0164741
884.689	0.0164265
884.767	0.0163262
884.846	0.0162849
884.924	0.0163190
885.002	0.0164114
885.080	0.0162941
885.158	0.0163438
885.236	0.0163837
885.314	0.0163538
885.392	0.0164123
885.471	0.0163935
885.549	0.0164882
885.627	0.0163889
885.705	0.0163271
885.783	0.0165209
885.861	0.0164346
885.939	0.0164484
886.017	0.0164810
886.096	0.0163474
886.174	0.0164314
886.252	0.0164162
886.330	0.0162675
886.408	0.0163902
886.486	0.0162940
886.564	0.0163300
886.642	0.0164885
886.721	0.0164319
886.799	0.0164028
886.877	0.0163586
886.955	0.0163078
887.033	0.0164028
887.111	0.0164098
887.189	0.0163779
887.267	0.0163195
887.346	0.0164008
887.424	0.0165111
887.502	0.0164294
887.580	0.0162511
887.658	0.0163849
887.736	0.0164079
887.814	0.0164429
887.892	0.0165359
887.971	0.0165089
888.049	0.0164417
888.127	0.0164893
888.205	0.0164423
888.283	0.0164482
888.361	0.0164391
888.439	0.0165306
888.517	0.0165312
888.596	0.0164766
888.674	0.0164194
888.752	0.0165683
888.830	0.0165311
888.908	0.0164653
888.986	0.0164780
889.064	0.0165320
889.142	0.0164458
889.221	0.0163768
889.299	0.0163976
889.377	0.0165499
889.455	0.0165779
889.533	0.0162891
889.611	0.0164632
889.689	0.0164103
889.767	0.0164404
889.846	0.0165190
889.924	0.0165778
890.002	0.0164628
890.080	0.0164795
890.158	0.0164192
890.236	0.0165409
890.314	0.0166364
890.392	0.0165369
890.471	0.0165839
890.549	0.0164310
890.627	0.0164651
890.705	0.0163228
890.783	0.0165238
890.861	0.0166343
890.939	0.0164242
891.017	0.0165109
891.096	0.0165754
891.174	0.0164779
891.252	0.0164420
891.330	0.0164912
891.408	0.0164494
891.486	0.0164713
891.564	0.0164761
891.642	0.0164351
891.721	0.0164102
891.799	0.0164637
891.877	0.0165075
891.955	0.0164729
892.033	0.0163522
892.111	0.0163987
892.189	0.0163918
892.267	0.0163908
892.346	0.0163088
892.424	0.0165393
892.502	0.0163882
892.580	0.0162891
892.658	0.0163878
892.736	0.0163518
892.814	0.0163863
892.892	0.0162946
892.971	0.0162920
893.049	0.0163330
893.127	0.0162760
893.205	0.0163114
893.283	0.0163734
893.361	0.0164676
893.439	0.0162728
893.517	0.0163887
893.596	0.0165965
893.674	0.0163522
893.752	0.0164536
893.830	0.0163953
893.908	0.0165228
893.986	0.0164265
894.064	0.0163985
894.142	0.0163256
894.221	0.0163305
894.299	0.0163649
894.377	0.0164218
894.455	0.0164567
894.533	0.0165586
894.611	0.0164285
894.689	0.0163115
894.767	0.0163980
894.846	0.0163519
894.924	0.0165016
895.002	0.0164341
895.080	0.0164713
895.158	0.0165380
895.236	0.0165009
895.314	0.0163886
895.392	0.0164171
895.471	0.0164355
895.549	0.0165317
895.627	0.0164161
895.705	0.0164003
895.783	0.0164317
895.861	0.0164987
895.939	0.0165218
896.017	0.0165511
896.096	0.0165443
896.174	0.0165439
896.252	0.0164098
896.330	0.0164259
896.408	0.0164871
896.486	0.0164819
896.564	0.0164616
896.642	0.0164058
896.721	0.0164825
896.799	0.0163923
896.877	0.0164716
896.955	0.0162968
897.033	0.0162581
897.111	0.0164019
897.189	0.0164290
897.267	0.0163895
897.346	0.0165122
897.424	0.0163325
897.502	0.0163081
897.580	0.0163148
897.658	0.0164075
897.736	0.0164204
897.814	0.0164046
897.892	0.0164297
897.971	0.0163341
898.049	0.0163585
898.127	0.0163584
898.205	0.0162904
898.283	0.0164777
898.361	0.0165099
898.439	0.0164865
898.517	0.0163006
898.596	0.0164733
898.674	0.0163412
898.752	0.0165078
898.830	0.0164214
898.908	0.0164931
898.986	0.0164677
899.064	0.0165974
899.142	0.0163048
899.221	0.0164390
899.299	0.0164037
899.377	0.0163522
899.455	0.0163753
899.533	0.0164803
899.611	0.0164593
899.689	0.0162582
899.767	0.0164092
899.846	0.0164389
899.924	0.0165476
900.002	0.0164959
900.080	0.0163535
900.158	0.0164839
900.236	0.0165210
900.314	0.0163663
900.392	0.0163540
900.471	0.0163544
900.549	0.0163998
900.627	0.0163991
900.705	0.0163238
900.783	0.0164063
900.861	0.0163342
900.939	0.0165103
901.017	0.0164271
901.096	0.0164765
901.174	0.0163958
901.252	0.0162868
901.330	0.0164686
901.408	0.0164614
901.486	0.0163722
901.564	0.0164497
901.642	0.0163404
901.721	0.0163474
901.799	0.0164825
901.877	0.0163137
901.955	0.0164027
902.033	0.0163698
902.111	0.0163751
902.189	0.0163639
902.267	0.0162516
902.346	0.0165845
902.424	0.0164152
902.502	0.0162486
902.580	0.0165260
902.658	0.0164713
902.736	0.0163737
902.814	0.0164277
902.892	0.0163420
902.971	0.0164377
903.049	0.0163529
903.127	0.0164579
903.205	0.0163252
903.283	0.0163857
903.361	0.0163651
903.439	0.0163504
903.517	0.0164948
903.596	0.0164968
903.674	0.0164401
903.752	0.0162949
903.830	0.0163783
903.908	0.0163973
903.986	0.0163551
904.064	0.0165083
904.142	0.0164398
904.221	0.0163437
904.299	0.0164880
904.377	0.0164109
904.455	0.0165543
904.533	0.0164556
904.611	0.0164737
904.689	0.0165248
904.767	0.0166281
904.846	0.0164908
904.924	0.0165739
905.002	0.0164201
905.080	0.0163343
905.158	0.0164310
905.236	0.0163704
905.314	0.0164178
905.392	0.0163492
905.471	0.0164555
905.549	0.0164558
905.627	0.0164285
905.705	0.0165267
905.783	0.0164716
905.861	0.0164687
905.939	0.0164544
906.017	0.0164228
906.096	0.0165172
906.174	0.0163850
906.252	0.0164925
906.330	0.0164680
906.408	0.0163828
906.486	0.0164344
906.564	0.0164587
906.642	0.0164686
906.721	0.0165081
906.799	0.0164158
906.877	0.0164172
906.955	0.0164251
907.033	0.0163917
907.111	0.0163947
907.189	0.0162888
907.267	0.0164236
907.346	0.0163885
907.424	0.0162617
907.502	0.0164754
907.580	0.0162479
907.658	0.0162903
907.736	0.0164133
907.814	0.0163516
907.892	0.0164279
907.971	0.0163834
908.049	0.0163789
908.127	0.0163188
908.205	0.0164121
908.283	0.0162413
908.361	0.0163284
908.439	0.0161961
908.517	0.0162184
908.596	0.0163319
908.674	0.0162914
908.752	0.0162884
908.830	0.0161730
908.908	0.0162489
908.986	0.0163830
909.064	0.0163338
909.142	0.0163042
909.221	0.0163785
909.299	0.0164934
909.377	0.0163647
909.455	0.0163214
909.533	0.0164581
909.611	0.0162953
909.689	0.0163786
909.767	0.0161924
909.846	0.0163474
909.924	0.0162906
910.002	0.0164787
910.080	0.0164239
910.158	0.0162122
910.236	0.0163432
910.314	0.0164687
910.392	0.0164025
910.471	0.0163807
910.549	0.0163712
910.627	0.0164462
910.705	0.0164642
910.783	0.0164100
910.861	0.0165012
910.939	0.0165036
911.017	0.0163264
911.096	0.0164640
911.174	0.0163232
911.252	0.0164509
911.330	0.0163593
911.408	0.0163898
911.486	0.0165115
911.564	0.0164667
911.642	0.0165724
911.721	0.0164088
911.799	0.0164134
911.877	0.0165604
911.955	0.0164649
912.033	0.0164510
912.111	0.0165267
912.189	0.0163019
912.267	0.0163887
912.346	0.0164095
912.424	0.0164636
912.502	0.0163452
912.580	0.0164389
912.658	0.0164152
912.736	0.0163600
912.814	0.0164160
912.892	0.0163651
912.971	0.0161665
913.049	0.0163618
913.127	0.0163169
913.205	0.0163428
913.283	0.0164185
913.361	0.0162498
913.439	0.0164178
913.517	0.0164121
913.596	0.0164317
913.674	0.0163545
913.752	0.0164062
913.830	0.0164900
913.908	0.0164893
913.986	0.0165586
914.064	0.0164281
914.142	0.0163549
914.221	0.0165531
914.299	0.0164445
914.377	0.0163305
914.455	0.0165017
914.533	0.0163087
914.611	0.0164027
914.689	0.0164835
914.767	0.0163948
914.846	0.0164879
914.924	0.0163229
915.002	0.0165257
915.080	0.0165098
915.158	0.0163380
915.236	0.0163367
915.314	0.0165395
915.392	0.0165729
915.471	0.0165559
915.549	0.0164717
915.627	0.0163660
915.705	0.0164800
915.783	0.0164926
915.861	0.0165337
915.939	0.0164469
916.017	0.0163710
916.096	0.0165112
916.174	0.0163869
916.252	0.0164440
916.330	0.0164143
916.408	0.0163904
916.486	0.0163121
916.564	0.0163918
916.642	0.0164535
916.721	0.0164926
916.799	0.0164431
916.877	0.0163918
916.955	0.0164940
917.033	0.0164721
917.111	0.0165450
917.189	0.0163889
917.267	0.0164515
917.346	0.0164858
917.424	0.0165561
917.502	0.0165401
917.580	0.0164782
917.658	0.0163908
917.736	0.0164735
917.814	0.0165834
917.892	0.0164870
917.971	0.0164449
918.049	0.0164072
918.127	0.0163599
918.205	0.0164641
918.283	0.0165198
918.361	0.0164739
918.439	0.0164508
918.517	0.0164801
918.596	0.0163662
918.674	0.0164448
918.752	0.0162377
918.830	0.0163625
918.908	0.0163862
918.986	0.0162933
919.064	0.0163462
919.142	0.0163596
919.221	0.0164790
919.299	0.0163336
919.377	0.0163985
919.455	0.0162767
919.533	0.0162997
919.611	0.0164017
919.689	0.0164673
919.767	0.0164838
919.846	0.0164580
919.924	0.0163992
