06/29/2022	21:35:54	Ver.	4.1	UNKNOWN
Optical Delay	600.001752	Delta X		0.078125	Sweeps	1	Scan Rate	0/0
Coordinates	Axis 1	NaN	Axis 2	NaN	Axis 3	NaN	Axis 4	NaN	Axis 5	NaN	Axis 6	0.000000
TX Power	0.000000	RX Power	0.000000

600.002	0.0163466
600.080	0.0163503
600.158	0.0163025
600.236	0.0164246
600.314	0.0162740
600.392	0.0164283
600.471	0.0163271
600.549	0.0162366
600.627	0.0163805
600.705	0.0164077
600.783	0.0163457
600.861	0.0164234
600.939	0.0163603
601.017	0.0165053
601.096	0.0163234
601.174	0.0164396
601.252	0.0163538
601.330	0.0163321
601.408	0.0164240
601.486	0.0165192
601.564	0.0162785
601.642	0.0164628
601.721	0.0163696
601.799	0.0163651
601.877	0.0164333
601.955	0.0163780
602.033	0.0164083
602.111	0.0162740
602.189	0.0162804
602.267	0.0164323
602.346	0.0164059
602.424	0.0165037
602.502	0.0164265
602.580	0.0163847
602.658	0.0164632
602.736	0.0164323
602.814	0.0164720
602.892	0.0165658
602.971	0.0163136
603.049	0.0164077
603.127	0.0164487
603.205	0.0165041
603.283	0.0164197
603.361	0.0165182
603.439	0.0164925
603.517	0.0163202
603.596	0.0163655
603.674	0.0165511
603.752	0.0165446
603.830	0.0165076
603.908	0.0165166
603.986	0.0164745
604.064	0.0164069
604.142	0.0164267
604.221	0.0162970
604.299	0.0162828
604.377	0.0164992
604.455	0.0163524
604.533	0.0163103
604.611	0.0164615
604.689	0.0164822
604.767	0.0163258
604.846	0.0163737
604.924	0.0164584
605.002	0.0163893
605.080	0.0163239
605.158	0.0164295
605.236	0.0163960
605.314	0.0165716
605.392	0.0162842
605.471	0.0163196
605.549	0.0164204
605.627	0.0164174
605.705	0.0163926
605.783	0.0162533
605.861	0.0162881
605.939	0.0164784
606.017	0.0163370
606.096	0.0163871
606.174	0.0163516
606.252	0.0162941
606.330	0.0163296
606.408	0.0162164
606.486	0.0162762
606.564	0.0162198
606.642	0.0163274
606.721	0.0163667
606.799	0.0164122
606.877	0.0162988
606.955	0.0163166
607.033	0.0161994
607.111	0.0163503
607.189	0.0162405
607.267	0.0163133
607.346	0.0163882
607.424	0.0162848
607.502	0.0162579
607.580	0.0163449
607.658	0.0162897
607.736	0.0162727
607.814	0.0162518
607.892	0.0164218
607.971	0.0164408
608.049	0.0162914
608.127	0.0162284
608.205	0.0162759
608.283	0.0162955
608.361	0.0162756
608.439	0.0163050
608.517	0.0163860
608.596	0.0161466
608.674	0.0161730
608.752	0.0162917
608.830	0.0163308
608.908	0.0162746
608.986	0.0162448
609.064	0.0161499
609.142	0.0161038
609.221	0.0162768
609.299	0.0164514
609.377	0.0162192
609.455	0.0162399
609.533	0.0163000
609.611	0.0162495
609.689	0.0163186
609.767	0.0163373
609.846	0.0162979
609.924	0.0164103
610.002	0.0163645
610.080	0.0163068
610.158	0.0162782
610.236	0.0163454
610.314	0.0163784
610.392	0.0163813
610.471	0.0163055
610.549	0.0163094
610.627	0.0163752
610.705	0.0163235
610.783	0.0163731
610.861	0.0164016
610.939	0.0163218
611.017	0.0163542
611.096	0.0163131
611.174	0.0164029
611.252	0.0164019
611.330	0.0164787
611.408	0.0163757
611.486	0.0165661
611.564	0.0165803
611.642	0.0164496
611.721	0.0162881
611.799	0.0165461
611.877	0.0164671
611.955	0.0164822
612.033	0.0163593
612.111	0.0164278
612.189	0.0166142
612.267	0.0164999
612.346	0.0164413
612.424	0.0165252
612.502	0.0164262
612.580	0.0165116
612.658	0.0165477
612.736	0.0165147
612.814	0.0164855
612.892	0.0166331
612.971	0.0165681
613.049	0.0165224
613.127	0.0165518
613.205	0.0166021
613.283	0.0164790
613.361	0.0165234
613.439	0.0165143
613.517	0.0164240
613.596	0.0165182
613.674	0.0164853
613.752	0.0163442
613.830	0.0165297
613.908	0.0164149
613.986	0.0163099
614.064	0.0164789
614.142	0.0164449
614.221	0.0164085
614.299	0.0163413
614.377	0.0164851
614.455	0.0163647
614.533	0.0164001
614.611	0.0162910
614.689	0.0162842
614.767	0.0165550
614.846	0.0165170
614.924	0.0165129
615.002	0.0163905
615.080	0.0163402
615.158	0.0163523
615.236	0.0164412
615.314	0.0164642
615.392	0.0164828
615.471	0.0163646
615.549	0.0164223
615.627	0.0164277
615.705	0.0163678
615.783	0.0165282
615.861	0.0164246
615.939	0.0164661
616.017	0.0165170
616.096	0.0164057
616.174	0.0164234
616.252	0.0164413
616.330	0.0164609
616.408	0.0164471
616.486	0.0163844
616.564	0.0164755
616.642	0.0163036
616.721	0.0163780
616.799	0.0163580
616.877	0.0164374
616.955	0.0164262
617.033	0.0165363
617.111	0.0163479
617.189	0.0164527
617.267	0.0164676
617.346	0.0165927
617.424	0.0164040
617.502	0.0164198
617.580	0.0164822
617.658	0.0164062
617.736	0.0165785
617.814	0.0162943
617.892	0.0163097
617.971	0.0164652
618.049	0.0164276
618.127	0.0163647
618.205	0.0164871
618.283	0.0163590
618.361	0.0165081
618.439	0.0163595
618.517	0.0164185
618.596	0.0165614
618.674	0.0164980
618.752	0.0163893
618.830	0.0163408
618.908	0.0164666
618.986	0.0164881
619.064	0.0164286
619.142	0.0164452
619.221	0.0163535
619.299	0.0163039
619.377	0.0163423
619.455	0.0163854
619.533	0.0164599
619.611	0.0164240
619.689	0.0163379
619.767	0.0163525
619.846	0.0163518
619.924	0.0164200
620.002	0.0164147
620.080	0.0164056
620.158	0.0163989
620.236	0.0163307
620.314	0.0163739
620.392	0.0164801
620.471	0.0164307
620.549	0.0163536
620.627	0.0163497
620.705	0.0163974
620.783	0.0163359
620.861	0.0164089
620.939	0.0164739
621.017	0.0164442
621.096	0.0163670
621.174	0.0164344
621.252	0.0164941
621.330	0.0164104
621.408	0.0162356
621.486	0.0164127
621.564	0.0162903
621.642	0.0163716
621.721	0.0164085
621.799	0.0163371
621.877	0.0163753
621.955	0.0164822
622.033	0.0163058
622.111	0.0165004
622.189	0.0164439
622.267	0.0162541
622.346	0.0164513
622.424	0.0164010
622.502	0.0162730
622.580	0.0165059
622.658	0.0164582
622.736	0.0164774
622.814	0.0163975
622.892	0.0163738
622.971	0.0163971
623.049	0.0164117
623.127	0.0164905
623.205	0.0163322
623.283	0.0163618
623.361	0.0164170
623.439	0.0164375
623.517	0.0165310
623.596	0.0162742
623.674	0.0164337
623.752	0.0165052
623.830	0.0165362
623.908	0.0165784
623.986	0.0164577
624.064	0.0164364
624.142	0.0164473
624.221	0.0163773
624.299	0.0166151
624.377	0.0163788
624.455	0.0163287
624.533	0.0164670
624.611	0.0164839
624.689	0.0164340
624.767	0.0164055
624.846	0.0164242
624.924	0.0164907
625.002	0.0163891
625.080	0.0164502
625.158	0.0162189
625.236	0.0163778
625.314	0.0163232
625.392	0.0163892
625.471	0.0164169
625.549	0.0164568
625.627	0.0164332
625.705	0.0164424
625.783	0.0164711
625.861	0.0164889
625.939	0.0164362
626.017	0.0163949
626.096	0.0165120
626.174	0.0165233
626.252	0.0164455
626.330	0.0164746
626.408	0.0163376
626.486	0.0164562
626.564	0.0164801
626.642	0.0164600
626.721	0.0163269
626.799	0.0164361
626.877	0.0164188
626.955	0.0163750
627.033	0.0164243
627.111	0.0163997
627.189	0.0165120
627.267	0.0164231
627.346	0.0164842
627.424	0.0163158
627.502	0.0164719
627.580	0.0163513
627.658	0.0164649
627.736	0.0163023
627.814	0.0164861
627.892	0.0165112
627.971	0.0163853
628.049	0.0164103
628.127	0.0163088
628.205	0.0165186
628.283	0.0164079
628.361	0.0161806
628.439	0.0164716
628.517	0.0163472
628.596	0.0163418
628.674	0.0163731
628.752	0.0164624
628.830	0.0163235
628.908	0.0162527
628.986	0.0162578
629.064	0.0164635
629.142	0.0165375
629.221	0.0164280
629.299	0.0164613
629.377	0.0163152
629.455	0.0164081
629.533	0.0164706
629.611	0.0164147
629.689	0.0164433
629.767	0.0162861
629.846	0.0162370
629.924	0.0163659
630.002	0.0163572
630.080	0.0162335
630.158	0.0163293
630.236	0.0162043
630.314	0.0163111
630.392	0.0161564
630.471	0.0163973
630.549	0.0162888
630.627	0.0163045
630.705	0.0163094
630.783	0.0163258
630.861	0.0162570
630.939	0.0163638
631.017	0.0163622
631.096	0.0162929
631.174	0.0162728
631.252	0.0163001
631.330	0.0163159
631.408	0.0161633
631.486	0.0162575
631.564	0.0163189
631.642	0.0163506
631.721	0.0162195
631.799	0.0162707
631.877	0.0164139
631.955	0.0161565
632.033	0.0164398
632.111	0.0163021
632.189	0.0162121
632.267	0.0162019
632.346	0.0162611
632.424	0.0162970
632.502	0.0162223
632.580	0.0162933
632.658	0.0162494
632.736	0.0162507
632.814	0.0162792
632.892	0.0162505
632.971	0.0162525
633.049	0.0163273
633.127	0.0163065
633.205	0.0162901
633.283	0.0162534
633.361	0.0162792
633.439	0.0162039
633.517	0.0163242
633.596	0.0162367
633.674	0.0161760
633.752	0.0162971
633.830	0.0162038
633.908	0.0162349
633.986	0.0164185
634.064	0.0162404
634.142	0.0162441
634.221	0.0162675
634.299	0.0161326
634.377	0.0162540
634.455	0.0163721
634.533	0.0163831
634.611	0.0164164
634.689	0.0161562
634.767	0.0163405
634.846	0.0163779
634.924	0.0164234
635.002	0.0163628
635.080	0.0161572
635.158	0.0163155
635.236	0.0165115
635.314	0.0162198
635.392	0.0161101
635.471	0.0165333
635.549	0.0164079
635.627	0.0163956
635.705	0.0164323
635.783	0.0164188
635.861	0.0162992
635.939	0.0163101
636.017	0.0163566
636.096	0.0162712
636.174	0.0164238
636.252	0.0163531
636.330	0.0162611
636.408	0.0162553
636.486	0.0163576
636.564	0.0162787
636.642	0.0161993
636.721	0.0163644
636.799	0.0163850
636.877	0.0164059
636.955	0.0163371
637.033	0.0162016
637.111	0.0162823
637.189	0.0164013
637.267	0.0163165
637.346	0.0163187
637.424	0.0162016
637.502	0.0164601
637.580	0.0164159
637.658	0.0163353
637.736	0.0163578
637.814	0.0162416
637.892	0.0162101
637.971	0.0162611
638.049	0.0164335
638.127	0.0163497
638.205	0.0163722
638.283	0.0164497
638.361	0.0163507
638.439	0.0163338
638.517	0.0164388
638.596	0.0163161
638.674	0.0161919
638.752	0.0162685
638.830	0.0163313
638.908	0.0163178
638.986	0.0161750
639.064	0.0162286
639.142	0.0163593
639.221	0.0163025
639.299	0.0163427
639.377	0.0161996
639.455	0.0162674
639.533	0.0162313
639.611	0.0162537
639.689	0.0163284
639.767	0.0163560
639.846	0.0163136
639.924	0.0164178
640.002	0.0163335
640.080	0.0162422
640.158	0.0162203
640.236	0.0162903
640.314	0.0162835
640.392	0.0163903
640.471	0.0163866
640.549	0.0162837
640.627	0.0163819
640.705	0.0164156
640.783	0.0162125
640.861	0.0162570
640.939	0.0164224
641.017	0.0162907
641.096	0.0162099
641.174	0.0162511
641.252	0.0163244
641.330	0.0163499
641.408	0.0162308
641.486	0.0163583
641.564	0.0163638
641.642	0.0162597
641.721	0.0162924
641.799	0.0162743
641.877	0.0164520
641.955	0.0163787
642.033	0.0163345
642.111	0.0163332
642.189	0.0164059
642.267	0.0164166
642.346	0.0162534
642.424	0.0163042
642.502	0.0162198
642.580	0.0163142
642.658	0.0163139
642.736	0.0163998
642.814	0.0163121
642.892	0.0163239
642.971	0.0164040
643.049	0.0162388
643.127	0.0162820
643.205	0.0164556
643.283	0.0162865
643.361	0.0163421
643.439	0.0163084
643.517	0.0164243
643.596	0.0163429
643.674	0.0164046
643.752	0.0163612
643.830	0.0162653
643.908	0.0162968
643.986	0.0162339
644.064	0.0163139
644.142	0.0162636
644.221	0.0162229
644.299	0.0162892
644.377	0.0163139
644.455	0.0162968
644.533	0.0163183
644.611	0.0163195
644.689	0.0163133
644.767	0.0162235
644.846	0.0163197
644.924	0.0162170
645.002	0.0164201
645.080	0.0162220
645.158	0.0163181
645.236	0.0162760
645.314	0.0162683
645.392	0.0164196
645.471	0.0162868
645.549	0.0164142
645.627	0.0163615
645.705	0.0162811
645.783	0.0163297
645.861	0.0163314
645.939	0.0161958
646.017	0.0162066
646.096	0.0163709
646.174	0.0163266
646.252	0.0164106
646.330	0.0163451
646.408	0.0163286
646.486	0.0164362
646.564	0.0163504
646.642	0.0163732
646.721	0.0164033
646.799	0.0163809
646.877	0.0163461
646.955	0.0164491
647.033	0.0164163
647.111	0.0162650
647.189	0.0162328
647.267	0.0165357
647.346	0.0162518
647.424	0.0163624
647.502	0.0164020
647.580	0.0163926
647.658	0.0163951
647.736	0.0164095
647.814	0.0164814
647.892	0.0164970
647.971	0.0165992
648.049	0.0163141
648.127	0.0162661
648.205	0.0165103
648.283	0.0163228
648.361	0.0163060
648.439	0.0162249
648.517	0.0164061
648.596	0.0164696
648.674	0.0163907
648.752	0.0164530
648.830	0.0163990
648.908	0.0163486
648.986	0.0164191
649.064	0.0163876
649.142	0.0163943
649.221	0.0161574
649.299	0.0163181
649.377	0.0164613
649.455	0.0163625
649.533	0.0164015
649.611	0.0163396
649.689	0.0162637
649.767	0.0163228
649.846	0.0162833
649.924	0.0164195
650.002	0.0162557
650.080	0.0163557
650.158	0.0163342
650.236	0.0163879
650.314	0.0163461
650.392	0.0162804
650.471	0.0163716
650.549	0.0164539
650.627	0.0163249
650.705	0.0163864
650.783	0.0163650
650.861	0.0162711
650.939	0.0162656
651.017	0.0162760
651.096	0.0163314
651.174	0.0163748
651.252	0.0163655
651.330	0.0164260
651.408	0.0164109
651.486	0.0163471
651.564	0.0163297
651.642	0.0165047
651.721	0.0163905
651.799	0.0165126
651.877	0.0163660
651.955	0.0163877
652.033	0.0163383
652.111	0.0163840
652.189	0.0165018
652.267	0.0162843
652.346	0.0163793
652.424	0.0164081
652.502	0.0164082
652.580	0.0164432
652.658	0.0164100
652.736	0.0163633
652.814	0.0163517
652.892	0.0164739
652.971	0.0162926
653.049	0.0164357
653.127	0.0164482
653.205	0.0164787
653.283	0.0164996
653.361	0.0165672
653.439	0.0164497
653.517	0.0164091
653.596	0.0165023
653.674	0.0163613
653.752	0.0163203
653.830	0.0164548
653.908	0.0165302
653.986	0.0163834
654.064	0.0164672
654.142	0.0164165
654.221	0.0162579
654.299	0.0165293
654.377	0.0163048
654.455	0.0162088
654.533	0.0164949
654.611	0.0162234
654.689	0.0162340
654.767	0.0164063
654.846	0.0163573
654.924	0.0163773
655.002	0.0164948
655.080	0.0162872
655.158	0.0163352
655.236	0.0161674
655.314	0.0163088
655.392	0.0164037
655.471	0.0163026
655.549	0.0163820
655.627	0.0163090
655.705	0.0162074
655.783	0.0162970
655.861	0.0163702
655.939	0.0163818
656.017	0.0163762
656.096	0.0162963
656.174	0.0162906
656.252	0.0163734
656.330	0.0162727
656.408	0.0162943
656.486	0.0162125
656.564	0.0162513
656.642	0.0162292
656.721	0.0163261
656.799	0.0163737
656.877	0.0161999
656.955	0.0162724
657.033	0.0164762
657.111	0.0161460
657.189	0.0162363
657.267	0.0163000
657.346	0.0164035
657.424	0.0163924
657.502	0.0161671
657.580	0.0162708
657.658	0.0163685
657.736	0.0161911
657.814	0.0161815
657.892	0.0162315
657.971	0.0163097
658.049	0.0163665
658.127	0.0161960
658.205	0.0162933
658.283	0.0162904
658.361	0.0162054
658.439	0.0162954
658.517	0.0162307
658.596	0.0161799
658.674	0.0163473
658.752	0.0163811
658.830	0.0162434
658.908	0.0163608
658.986	0.0162189
659.064	0.0162730
659.142	0.0164133
659.221	0.0161677
659.299	0.0161644
659.377	0.0164153
659.455	0.0162911
659.533	0.0163033
659.611	0.0163848
659.689	0.0163326
659.767	0.0164065
659.846	0.0162644
659.924	0.0162479
660.002	0.0163586
660.080	0.0162003
660.158	0.0163248
660.236	0.0162537
660.314	0.0162759
660.392	0.0163260
660.471	0.0165207
660.549	0.0163927
660.627	0.0162505
660.705	0.0162350
660.783	0.0164245
660.861	0.0163602
660.939	0.0162033
661.017	0.0162359
661.096	0.0162208
661.174	0.0163178
661.252	0.0162978
661.330	0.0162874
661.408	0.0163602
661.486	0.0164156
661.564	0.0162395
661.642	0.0162743
661.721	0.0163544
661.799	0.0163275
661.877	0.0162715
661.955	0.0163122
662.033	0.0164268
662.111	0.0164075
662.189	0.0163795
662.267	0.0163832
662.346	0.0163728
662.424	0.0163596
662.502	0.0165650
662.580	0.0163139
662.658	0.0163913
662.736	0.0163968
662.814	0.0163103
662.892	0.0163792
662.971	0.0164307
663.049	0.0163688
663.127	0.0162947
663.205	0.0164063
663.283	0.0164206
663.361	0.0164097
663.439	0.0163459
663.517	0.0164805
663.596	0.0165089
663.674	0.0163612
663.752	0.0163170
663.830	0.0164539
663.908	0.0163951
663.986	0.0165059
664.064	0.0163378
664.142	0.0163371
664.221	0.0162401
664.299	0.0161793
664.377	0.0162957
664.455	0.0162549
664.533	0.0164270
664.611	0.0163615
664.689	0.0162383
664.767	0.0164667
664.846	0.0164150
664.924	0.0164281
665.002	0.0164221
665.080	0.0164049
665.158	0.0163998
665.236	0.0162308
665.314	0.0163292
665.392	0.0163901
665.471	0.0164719
665.549	0.0164460
665.627	0.0163025
665.705	0.0162944
665.783	0.0161558
665.861	0.0164113
665.939	0.0162174
666.017	0.0163779
666.096	0.0163438
666.174	0.0163743
666.252	0.0163742
666.330	0.0164366
666.408	0.0164093
666.486	0.0164390
666.564	0.0163204
666.642	0.0163049
666.721	0.0162827
666.799	0.0162466
666.877	0.0163853
666.955	0.0164344
667.033	0.0164679
667.111	0.0162827
667.189	0.0161546
667.267	0.0163139
667.346	0.0162325
667.424	0.0164013
667.502	0.0161919
667.580	0.0162556
667.658	0.0162903
667.736	0.0163988
667.814	0.0162792
667.892	0.0163171
667.971	0.0163544
668.049	0.0162626
668.127	0.0163074
668.205	0.0164282
668.283	0.0163203
668.361	0.0163010
668.439	0.0163438
668.517	0.0163008
668.596	0.0163276
668.674	0.0163182
668.752	0.0162782
668.830	0.0162232
668.908	0.0164171
668.986	0.0162528
669.064	0.0162672
669.142	0.0163552
669.221	0.0163336
669.299	0.0163942
669.377	0.0163739
669.455	0.0162871
669.533	0.0165241
669.611	0.0162605
669.689	0.0163911
669.767	0.0163779
669.846	0.0163050
669.924	0.0163287
670.002	0.0163580
670.080	0.0163650
670.158	0.0162057
670.236	0.0164743
670.314	0.0165340
670.392	0.0165232
670.471	0.0163224
670.549	0.0163990
670.627	0.0163533
670.705	0.0165036
670.783	0.0164542
670.861	0.0164168
670.939	0.0164546
671.017	0.0163786
671.096	0.0163917
671.174	0.0163935
671.252	0.0163125
671.330	0.0164007
671.408	0.0164169
671.486	0.0164027
671.564	0.0163602
671.642	0.0165165
671.721	0.0164783
671.799	0.0163573
671.877	0.0163911
671.955	0.0162989
672.033	0.0163673
672.111	0.0165215
672.189	0.0164362
672.267	0.0164833
672.346	0.0163550
672.424	0.0163696
672.502	0.0164471
672.580	0.0163341
672.658	0.0163468
672.736	0.0162312
672.814	0.0163944
672.892	0.0163226
672.971	0.0164629
673.049	0.0166035
673.127	0.0163199
673.205	0.0163580
673.283	0.0165091
673.361	0.0164520
673.439	0.0163832
673.517	0.0163490
673.596	0.0165278
673.674	0.0164354
673.752	0.0164228
673.830	0.0164529
673.908	0.0164697
673.986	0.0164653
674.064	0.0164110
674.142	0.0164382
674.221	0.0163357
674.299	0.0163525
674.377	0.0165885
674.455	0.0164228
674.533	0.0164386
674.611	0.0163711
674.689	0.0164548
674.767	0.0164037
674.846	0.0164072
674.924	0.0165105
675.002	0.0165684
675.080	0.0164504
675.158	0.0162047
675.236	0.0164063
675.314	0.0165175
675.392	0.0164446
675.471	0.0163497
675.549	0.0162990
675.627	0.0165195
675.705	0.0163790
675.783	0.0163804
675.861	0.0164435
675.939	0.0164311
676.017	0.0163023
676.096	0.0164855
676.174	0.0164523
676.252	0.0163322
676.330	0.0164808
676.408	0.0162844
676.486	0.0164471
676.564	0.0164430
676.642	0.0163912
676.721	0.0163441
676.799	0.0163532
676.877	0.0165401
676.955	0.0163158
677.033	0.0163574
677.111	0.0164413
677.189	0.0163699
677.267	0.0165450
677.346	0.0164359
677.424	0.0164015
677.502	0.0164919
677.580	0.0163828
677.658	0.0162777
677.736	0.0165034
677.814	0.0163372
677.892	0.0164592
677.971	0.0164377
678.049	0.0163586
678.127	0.0164917
678.205	0.0164182
678.283	0.0163816
678.361	0.0163058
678.439	0.0165893
678.517	0.0164709
678.596	0.0163712
678.674	0.0164902
678.752	0.0164379
678.830	0.0164259
678.908	0.0163267
678.986	0.0164225
679.064	0.0163953
679.142	0.0164024
679.221	0.0163699
679.299	0.0163474
679.377	0.0164651
679.455	0.0164149
679.533	0.0162902
679.611	0.0163982
679.689	0.0164574
679.767	0.0164283
679.846	0.0163039
679.924	0.0163438
680.002	0.0164830
680.080	0.0165305
680.158	0.0165336
680.236	0.0164268
680.314	0.0162566
680.392	0.0163822
680.471	0.0164141
680.549	0.0164869
680.627	0.0163477
680.705	0.0163589
680.783	0.0163876
680.861	0.0163132
680.939	0.0162611
681.017	0.0163396
681.096	0.0164744
681.174	0.0162971
681.252	0.0162978
681.330	0.0163729
681.408	0.0164278
681.486	0.0164301
681.564	0.0163991
681.642	0.0163622
681.721	0.0163432
681.799	0.0164944
681.877	0.0162344
681.955	0.0163391
682.033	0.0162691
682.111	0.0163171
682.189	0.0163939
682.267	0.0164015
682.346	0.0164104
682.424	0.0163783
682.502	0.0163216
682.580	0.0163678
682.658	0.0163459
682.736	0.0164115
682.814	0.0163689
682.892	0.0164307
682.971	0.0164902
683.049	0.0164353
683.127	0.0163662
683.205	0.0162225
683.283	0.0162986
683.361	0.0162495
683.439	0.0164194
683.517	0.0163098
683.596	0.0163313
683.674	0.0163859
683.752	0.0162489
683.830	0.0163540
683.908	0.0163620
683.986	0.0164963
684.064	0.0164106
684.142	0.0163564
684.221	0.0164621
684.299	0.0163873
684.377	0.0163636
684.455	0.0164861
684.533	0.0165222
684.611	0.0163387
684.689	0.0164172
684.767	0.0163046
684.846	0.0163087
684.924	0.0165903
685.002	0.0164394
685.080	0.0163450
685.158	0.0163817
685.236	0.0163970
685.314	0.0164638
685.392	0.0164291
685.471	0.0163623
685.549	0.0163645
685.627	0.0164069
685.705	0.0163497
685.783	0.0163261
685.861	0.0163180
685.939	0.0164130
686.017	0.0163328
686.096	0.0164342
686.174	0.0163513
686.252	0.0161990
686.330	0.0163594
686.408	0.0163673
686.486	0.0165187
686.564	0.0164738
686.642	0.0162550
686.721	0.0163162
686.799	0.0163697
686.877	0.0164249
686.955	0.0164357
687.033	0.0163358
687.111	0.0165675
687.189	0.0164352
687.267	0.0166077
687.346	0.0164378
687.424	0.0164076
687.502	0.0165722
687.580	0.0165871
687.658	0.0164794
687.736	0.0165013
687.814	0.0165528
687.892	0.0165116
687.971	0.0166800
688.049	0.0166487
688.127	0.0164381
688.205	0.0164681
688.283	0.0165469
688.361	0.0166029
688.439	0.0163813
688.517	0.0163509
688.596	0.0164385
688.674	0.0164855
688.752	0.0163998
688.830	0.0165462
688.908	0.0163624
688.986	0.0163828
689.064	0.0163519
689.142	0.0165262
689.221	0.0163776
689.299	0.0162585
689.377	0.0164318
689.455	0.0164764
689.533	0.0163575
689.611	0.0164445
689.689	0.0164281
689.767	0.0164041
689.846	0.0164042
689.924	0.0163686
690.002	0.0164522
690.080	0.0164268
690.158	0.0165237
690.236	0.0163788
690.314	0.0164057
690.392	0.0165205
690.471	0.0164633
690.549	0.0164040
690.627	0.0165754
690.705	0.0165237
690.783	0.0162835
690.861	0.0165376
690.939	0.0165269
691.017	0.0163474
691.096	0.0164178
691.174	0.0164563
691.252	0.0163969
691.330	0.0165527
691.408	0.0164849
691.486	0.0164406
691.564	0.0162578
691.642	0.0164092
691.721	0.0164395
691.799	0.0164046
691.877	0.0163603
691.955	0.0164650
692.033	0.0165277
692.111	0.0164862
692.189	0.0164147
692.267	0.0164494
692.346	0.0164880
692.424	0.0164241
692.502	0.0163823
692.580	0.0164589
692.658	0.0161800
692.736	0.0163086
692.814	0.0163272
692.892	0.0165136
692.971	0.0166809
693.049	0.0165250
693.127	0.0163979
693.205	0.0163938
693.283	0.0163720
693.361	0.0164877
693.439	0.0165739
693.517	0.0164982
693.596	0.0166859
693.674	0.0164236
693.752	0.0163974
693.830	0.0165621
693.908	0.0166399
693.986	0.0165545
694.064	0.0165295
694.142	0.0165530
694.221	0.0166925
694.299	0.0166801
694.377	0.0165133
694.455	0.0165539
694.533	0.0166135
694.611	0.0165184
694.689	0.0165878
694.767	0.0167266
694.846	0.0165374
694.924	0.0165507
695.002	0.0165202
695.080	0.0165189
695.158	0.0164182
695.236	0.0164758
695.314	0.0163456
695.392	0.0163754
695.471	0.0165104
695.549	0.0163434
695.627	0.0162591
695.705	0.0163631
695.783	0.0163022
695.861	0.0162707
695.939	0.0162794
696.017	0.0162747
696.096	0.0164394
696.174	0.0163919
696.252	0.0162723
696.330	0.0164691
696.408	0.0163847
696.486	0.0164122
696.564	0.0165108
696.642	0.0164878
696.721	0.0164605
696.799	0.0164281
696.877	0.0164783
696.955	0.0166472
697.033	0.0165804
697.111	0.0164577
697.189	0.0164741
697.267	0.0164640
697.346	0.0166441
697.424	0.0165308
697.502	0.0165948
697.580	0.0166257
697.658	0.0166306
697.736	0.0165569
697.814	0.0165111
697.892	0.0165391
697.971	0.0165351
698.049	0.0164546
698.127	0.0165826
698.205	0.0167063
698.283	0.0167010
698.361	0.0165334
698.439	0.0165704
698.517	0.0164900
698.596	0.0165384
698.674	0.0165752
698.752	0.0165418
698.830	0.0165563
698.908	0.0165614
698.986	0.0164921
699.064	0.0164479
699.142	0.0165005
699.221	0.0165827
699.299	0.0166510
699.377	0.0166212
699.455	0.0165110
699.533	0.0165982
699.611	0.0164008
699.689	0.0163489
699.767	0.0163644
699.846	0.0163438
699.924	0.0164106
700.002	0.0163328
700.080	0.0164021
700.158	0.0163338
700.236	0.0164512
700.314	0.0164670
700.392	0.0163629
700.471	0.0162900
700.549	0.0162460
700.627	0.0164837
700.705	0.0163944
700.783	0.0163098
700.861	0.0163665
700.939	0.0162883
701.017	0.0161747
701.096	0.0162573
701.174	0.0161940
701.252	0.0161751
701.330	0.0160817
701.408	0.0161134
701.486	0.0162422
701.564	0.0162708
701.642	0.0162007
701.721	0.0160633
701.799	0.0163197
701.877	0.0163866
701.955	0.0160830
702.033	0.0162238
702.111	0.0163156
702.189	0.0163176
702.267	0.0163667
702.346	0.0164384
702.424	0.0162890
702.502	0.0164503
702.580	0.0168042
702.658	0.0167818
702.736	0.0165226
702.814	0.0166071
702.892	0.0166383
702.971	0.0166761
703.049	0.0167171
703.127	0.0166043
703.205	0.0165604
703.283	0.0167322
703.361	0.0166260
703.439	0.0164747
703.517	0.0165429
703.596	0.0165595
703.674	0.0163555
703.752	0.0164088
703.830	0.0163440
703.908	0.0162846
703.986	0.0163000
704.064	0.0161656
704.142	0.0160899
704.221	0.0162701
704.299	0.0161661
704.377	0.0161810
704.455	0.0161404
704.533	0.0162071
704.611	0.0162592
704.689	0.0161595
704.767	0.0161488
704.846	0.0161377
704.924	0.0162655
705.002	0.0163012
705.080	0.0161958
705.158	0.0163571
705.236	0.0163213
705.314	0.0162952
705.392	0.0162756
705.471	0.0163120
705.549	0.0162305
705.627	0.0163999
705.705	0.0163591
705.783	0.0163053
705.861	0.0161500
705.939	0.0161993
706.017	0.0162606
706.096	0.0162518
706.174	0.0161768
706.252	0.0160889
706.330	0.0161414
706.408	0.0160619
706.486	0.0161367
706.564	0.0160947
706.642	0.0161803
706.721	0.0161520
706.799	0.0161110
706.877	0.0161152
706.955	0.0161900
707.033	0.0163746
707.111	0.0161326
707.189	0.0161494
707.267	0.0162829
707.346	0.0163262
707.424	0.0162698
707.502	0.0162206
707.580	0.0161852
707.658	0.0162193
707.736	0.0162566
707.814	0.0162587
707.892	0.0162388
707.971	0.0162170
708.049	0.0161811
708.127	0.0164314
708.205	0.0162559
708.283	0.0162278
708.361	0.0163534
708.439	0.0163109
708.517	0.0162582
708.596	0.0162519
708.674	0.0163178
708.752	0.0163672
708.830	0.0163513
708.908	0.0162743
708.986	0.0164248
709.064	0.0162118
709.142	0.0162137
709.221	0.0162670
709.299	0.0162691
709.377	0.0160952
709.455	0.0161030
709.533	0.0161573
709.611	0.0160681
709.689	0.0160727
709.767	0.0159566
709.846	0.0160696
709.924	0.0159641
710.002	0.0161245
710.080	0.0162025
710.158	0.0162284
710.236	0.0162820
710.314	0.0162801
710.392	0.0161836
710.471	0.0163727
710.549	0.0165450
710.627	0.0163192
710.705	0.0165709
710.783	0.0166660
710.861	0.0164353
710.939	0.0165690
711.017	0.0167220
711.096	0.0164584
711.174	0.0164491
711.252	0.0164709
711.330	0.0164154
711.408	0.0164329
711.486	0.0163886
711.564	0.0164284
711.642	0.0163383
711.721	0.0162958
711.799	0.0162480
711.877	0.0161729
711.955	0.0161797
712.033	0.0162140
712.111	0.0163214
712.189	0.0164194
712.267	0.0162489
712.346	0.0163174
712.424	0.0163047
712.502	0.0164443
712.580	0.0163898
712.658	0.0163372
712.736	0.0164653
712.814	0.0165251
712.892	0.0163835
712.971	0.0164664
713.049	0.0162817
713.127	0.0163149
713.205	0.0162479
713.283	0.0162530
713.361	0.0161925
713.439	0.0162874
713.517	0.0161128
713.596	0.0159787
713.674	0.0161386
713.752	0.0160773
713.830	0.0160817
713.908	0.0161193
713.986	0.0161050
714.064	0.0161185
714.142	0.0161028
714.221	0.0162305
714.299	0.0162688
714.377	0.0161806
714.455	0.0162556
714.533	0.0163498
714.611	0.0164695
714.689	0.0164541
714.767	0.0165095
714.846	0.0164137
714.924	0.0165047
715.002	0.0166875
715.080	0.0165221
715.158	0.0165956
715.236	0.0165091
715.314	0.0165900
715.392	0.0164558
715.471	0.0164731
715.549	0.0165116
715.627	0.0164908
715.705	0.0164186
715.783	0.0163505
715.861	0.0164532
715.939	0.0164194
716.017	0.0164242
716.096	0.0163631
716.174	0.0163808
716.252	0.0163627
716.330	0.0164180
716.408	0.0165182
716.486	0.0163896
716.564	0.0165012
716.642	0.0165730
716.721	0.0164896
716.799	0.0164686
716.877	0.0165749
716.955	0.0165453
717.033	0.0166265
717.111	0.0167864
717.189	0.0166178
717.267	0.0166998
717.346	0.0166518
717.424	0.0167339
717.502	0.0165453
717.580	0.0166669
717.658	0.0166969
717.736	0.0165618
717.814	0.0164854
717.892	0.0166712
717.971	0.0164934
718.049	0.0164268
718.127	0.0164602
718.205	0.0164333
718.283	0.0163531
718.361	0.0164565
718.439	0.0164157
718.517	0.0162388
718.596	0.0164593
718.674	0.0163867
718.752	0.0162131
718.830	0.0160977
718.908	0.0160355
718.986	0.0162293
719.064	0.0160619
719.142	0.0159877
719.221	0.0160961
719.299	0.0160464
719.377	0.0160952
719.455	0.0160205
719.533	0.0162155
719.611	0.0162372
719.689	0.0162263
719.767	0.0162740
719.846	0.0162986
719.924	0.0163609
720.002	0.0162665
720.080	0.0165289
720.158	0.0162796
720.236	0.0163084
720.314	0.0164268
720.392	0.0164201
720.471	0.0163825
720.549	0.0163974
720.627	0.0163003
720.705	0.0162548
720.783	0.0164857
720.861	0.0163234
720.939	0.0161950
721.017	0.0161990
721.096	0.0164062
721.174	0.0161425
721.252	0.0162753
721.330	0.0162650
721.408	0.0163129
721.486	0.0163650
721.564	0.0164561
721.642	0.0164259
721.721	0.0164812
721.799	0.0164911
721.877	0.0164985
721.955	0.0166467
722.033	0.0166928
722.111	0.0167278
722.189	0.0166702
722.267	0.0166546
722.346	0.0166259
722.424	0.0166403
722.502	0.0164759
722.580	0.0166479
722.658	0.0165567
722.736	0.0165448
722.814	0.0163345
722.892	0.0162688
722.971	0.0163407
723.049	0.0164482
723.127	0.0163618
723.205	0.0163674
723.283	0.0162407
723.361	0.0163355
723.439	0.0160712
723.517	0.0162317
723.596	0.0163033
723.674	0.0162600
723.752	0.0162600
723.830	0.0162837
723.908	0.0161337
723.986	0.0163568
724.064	0.0163542
724.142	0.0163061
724.221	0.0162383
724.299	0.0162920
724.377	0.0163776
724.455	0.0163305
724.533	0.0162642
724.611	0.0163468
724.689	0.0162845
724.767	0.0163933
724.846	0.0164950
724.924	0.0164780
725.002	0.0165094
725.080	0.0166154
725.158	0.0165144
725.236	0.0163379
725.314	0.0163927
725.392	0.0165356
725.471	0.0165085
725.549	0.0165291
725.627	0.0165455
725.705	0.0166042
725.783	0.0164542
725.861	0.0164333
725.939	0.0163636
726.017	0.0164000
726.096	0.0163174
726.174	0.0162710
726.252	0.0163629
726.330	0.0162552
726.408	0.0162091
726.486	0.0161934
726.564	0.0161202
726.642	0.0162475
726.721	0.0160326
726.799	0.0161688
726.877	0.0160778
726.955	0.0161757
727.033	0.0161794
727.111	0.0161546
727.189	0.0160768
727.267	0.0161016
727.346	0.0160450
727.424	0.0162492
727.502	0.0162472
727.580	0.0161574
727.658	0.0161809
727.736	0.0163560
727.814	0.0165289
727.892	0.0163055
727.971	0.0163265
728.049	0.0164363
728.127	0.0163753
728.205	0.0164092
728.283	0.0165636
728.361	0.0165096
728.439	0.0164955
728.517	0.0164758
728.596	0.0163466
728.674	0.0165732
728.752	0.0165126
728.830	0.0164151
728.908	0.0165845
728.986	0.0166233
729.064	0.0164554
729.142	0.0163282
729.221	0.0163247
729.299	0.0163531
729.377	0.0163503
729.455	0.0165206
729.533	0.0164194
729.611	0.0162951
729.689	0.0163046
729.767	0.0162318
729.846	0.0163612
729.924	0.0164337
730.002	0.0163608
730.080	0.0162054
730.158	0.0162726
730.236	0.0161992
730.314	0.0161632
730.392	0.0161179
730.471	0.0162420
730.549	0.0160670
730.627	0.0160347
730.705	0.0161672
730.783	0.0163437
730.861	0.0162969
730.939	0.0163075
731.017	0.0162537
731.096	0.0163484
731.174	0.0165125
731.252	0.0164120
731.330	0.0163889
731.408	0.0164237
731.486	0.0164631
731.564	0.0163203
731.642	0.0164816
731.721	0.0164767
731.799	0.0165656
731.877	0.0164024
731.955	0.0164103
732.033	0.0164886
732.111	0.0163154
732.189	0.0161224
732.267	0.0163017
732.346	0.0161504
732.424	0.0161220
732.502	0.0162148
732.580	0.0160704
732.658	0.0159898
732.736	0.0159455
732.814	0.0160038
732.892	0.0159556
732.971	0.0159515
733.049	0.0159824
733.127	0.0159963
733.205	0.0161838
733.283	0.0162504
733.361	0.0160777
733.439	0.0162775
733.517	0.0162698
733.596	0.0162681
733.674	0.0162263
733.752	0.0163155
733.830	0.0163517
733.908	0.0164864
733.986	0.0165804
734.064	0.0163902
734.142	0.0165021
734.221	0.0166004
734.299	0.0165708
734.377	0.0166454
734.455	0.0167454
734.533	0.0166150
734.611	0.0166489
734.689	0.0166464
734.767	0.0167048
734.846	0.0166414
734.924	0.0165414
735.002	0.0164751
735.080	0.0166281
735.158	0.0164117
735.236	0.0163367
735.314	0.0163927
735.392	0.0164303
735.471	0.0163341
735.549	0.0163025
735.627	0.0161917
735.705	0.0160940
735.783	0.0160764
735.861	0.0159963
735.939	0.0160339
736.017	0.0160777
736.096	0.0160271
736.174	0.0159538
736.252	0.0160779
736.330	0.0160866
736.408	0.0160419
736.486	0.0161515
736.564	0.0160865
736.642	0.0161903
736.721	0.0162218
736.799	0.0162370
736.877	0.0163101
736.955	0.0163575
737.033	0.0164051
737.111	0.0166197
737.189	0.0165941
737.267	0.0165327
737.346	0.0166663
737.424	0.0167345
737.502	0.0167114
737.580	0.0167720
737.658	0.0168955
737.736	0.0167822
737.814	0.0168375
737.892	0.0169429
737.971	0.0166876
738.049	0.0166961
738.127	0.0168455
738.205	0.0165648
738.283	0.0167375
738.361	0.0166592
738.439	0.0165410
738.517	0.0164758
738.596	0.0165250
738.674	0.0164220
738.752	0.0163484
738.830	0.0164291
738.908	0.0161991
738.986	0.0161195
739.064	0.0162777
739.142	0.0160735
739.221	0.0160241
739.299	0.0160225
739.377	0.0160973
739.455	0.0159885
739.533	0.0160928
739.611	0.0160882
739.689	0.0160386
739.767	0.0160770
739.846	0.0162624
739.924	0.0161390
740.002	0.0162754
740.080	0.0163715
740.158	0.0163569
740.236	0.0163653
740.314	0.0165221
740.392	0.0163860
740.471	0.0166099
740.549	0.0166167
740.627	0.0165527
740.705	0.0165423
740.783	0.0165244
740.861	0.0164922
740.939	0.0166215
741.017	0.0165623
741.096	0.0164273
741.174	0.0164797
741.252	0.0164641
741.330	0.0162784
741.408	0.0162908
741.486	0.0162102
741.564	0.0162375
741.642	0.0162535
741.721	0.0162156
741.799	0.0162572
741.877	0.0161219
741.955	0.0161447
742.033	0.0161837
742.111	0.0162315
742.189	0.0161627
742.267	0.0162079
742.346	0.0162937
742.424	0.0163782
742.502	0.0163850
742.580	0.0163202
742.658	0.0165033
742.736	0.0165907
742.814	0.0167073
742.892	0.0164577
742.971	0.0165636
743.049	0.0166098
743.127	0.0167507
743.205	0.0167047
743.283	0.0165865
743.361	0.0166991
743.439	0.0166216
743.517	0.0166444
743.596	0.0165100
743.674	0.0164911
743.752	0.0163698
743.830	0.0163902
743.908	0.0162882
743.986	0.0162700
744.064	0.0161102
744.142	0.0159759
744.221	0.0159183
744.299	0.0158894
744.377	0.0159747
744.455	0.0158860
744.533	0.0158672
744.611	0.0157599
744.689	0.0157351
744.767	0.0158411
744.846	0.0159066
744.924	0.0158634
745.002	0.0159530
745.080	0.0159196
745.158	0.0157967
745.236	0.0160250
745.314	0.0160375
745.392	0.0160970
745.471	0.0161732
745.549	0.0163052
745.627	0.0160898
745.705	0.0162540
745.783	0.0163805
745.861	0.0165127
745.939	0.0165536
746.017	0.0166658
746.096	0.0166615
746.174	0.0166433
746.252	0.0166486
746.330	0.0167338
746.408	0.0166494
746.486	0.0166422
746.564	0.0166424
746.642	0.0167338
746.721	0.0167955
746.799	0.0165836
746.877	0.0166951
746.955	0.0166467
747.033	0.0164658
747.111	0.0165200
747.189	0.0164327
747.267	0.0166251
747.346	0.0165656
747.424	0.0164457
747.502	0.0165656
747.580	0.0165781
747.658	0.0163857
747.736	0.0165424
747.814	0.0163994
747.892	0.0164892
747.971	0.0164989
748.049	0.0164925
748.127	0.0164320
748.205	0.0164637
748.283	0.0163741
748.361	0.0164137
748.439	0.0163287
748.517	0.0162373
748.596	0.0161880
748.674	0.0163171
748.752	0.0162862
748.830	0.0162968
748.908	0.0162308
748.986	0.0161761
749.064	0.0161132
749.142	0.0161295
749.221	0.0161129
749.299	0.0160841
749.377	0.0160426
749.455	0.0162384
749.533	0.0160348
749.611	0.0160799
749.689	0.0163193
749.767	0.0162706
749.846	0.0161456
749.924	0.0160970
750.002	0.0163200
750.080	0.0162716
750.158	0.0161238
750.236	0.0160732
750.314	0.0161864
750.392	0.0162537
750.471	0.0162311
750.549	0.0164035
750.627	0.0163619
750.705	0.0163394
750.783	0.0162619
750.861	0.0165116
750.939	0.0164019
751.017	0.0165801
751.096	0.0164716
751.174	0.0164183
751.252	0.0163757
751.330	0.0164939
751.408	0.0165794
751.486	0.0164030
751.564	0.0166003
751.642	0.0166778
751.721	0.0166241
751.799	0.0167130
751.877	0.0167072
751.955	0.0164727
752.033	0.0165184
752.111	0.0165629
752.189	0.0165586
752.267	0.0166755
752.346	0.0164917
752.424	0.0164516
752.502	0.0166960
752.580	0.0166572
752.658	0.0165394
752.736	0.0165678
752.814	0.0164819
752.892	0.0165442
752.971	0.0166245
753.049	0.0165046
753.127	0.0163837
753.205	0.0165465
753.283	0.0165327
753.361	0.0165390
753.439	0.0163532
753.517	0.0163976
753.596	0.0163637
753.674	0.0163663
753.752	0.0163084
753.830	0.0163081
753.908	0.0163604
753.986	0.0162634
754.064	0.0163757
754.142	0.0163306
754.221	0.0162995
754.299	0.0162960
754.377	0.0161449
754.455	0.0162491
754.533	0.0162081
754.611	0.0162602
754.689	0.0161079
754.767	0.0162650
754.846	0.0162306
754.924	0.0162397
755.002	0.0162173
755.080	0.0162871
755.158	0.0161666
755.236	0.0163336
755.314	0.0164096
755.392	0.0164436
755.471	0.0165152
755.549	0.0164182
755.627	0.0164435
755.705	0.0163107
755.783	0.0165199
755.861	0.0164622
755.939	0.0164260
756.017	0.0164339
756.096	0.0164328
756.174	0.0164589
756.252	0.0164968
756.330	0.0165490
756.408	0.0164577
756.486	0.0164946
756.564	0.0165591
756.642	0.0163386
756.721	0.0165205
756.799	0.0165907
756.877	0.0164151
756.955	0.0165154
757.033	0.0164616
757.111	0.0164888
757.189	0.0164557
757.267	0.0163740
757.346	0.0164650
757.424	0.0164002
757.502	0.0163367
757.580	0.0163985
757.658	0.0164884
757.736	0.0164198
757.814	0.0164323
757.892	0.0165150
757.971	0.0165045
758.049	0.0164916
758.127	0.0165123
758.205	0.0163972
758.283	0.0166490
758.361	0.0165764
758.439	0.0164977
758.517	0.0165747
758.596	0.0166206
758.674	0.0165718
758.752	0.0164481
758.830	0.0166704
758.908	0.0166227
758.986	0.0166397
759.064	0.0165591
759.142	0.0164358
759.221	0.0164862
759.299	0.0162899
759.377	0.0163908
759.455	0.0164446
759.533	0.0163689
759.611	0.0163247
759.689	0.0164371
759.767	0.0162093
759.846	0.0163457
759.924	0.0163071
760.002	0.0162491
760.080	0.0163457
760.158	0.0161885
760.236	0.0162679
760.314	0.0163181
760.392	0.0162530
760.471	0.0161884
760.549	0.0163559
760.627	0.0163816
760.705	0.0161379
760.783	0.0163828
760.861	0.0163569
760.939	0.0162844
761.017	0.0162994
761.096	0.0164207
761.174	0.0163134
761.252	0.0163628
761.330	0.0164971
761.408	0.0164441
761.486	0.0166479
761.564	0.0165211
761.642	0.0164981
761.721	0.0164227
761.799	0.0165408
761.877	0.0165237
761.955	0.0165440
762.033	0.0166270
762.111	0.0166521
762.189	0.0165614
762.267	0.0166104
762.346	0.0165758
762.424	0.0166096
762.502	0.0165958
762.580	0.0166075
762.658	0.0165942
762.736	0.0166927
762.814	0.0164736
762.892	0.0164582
762.971	0.0164203
763.049	0.0164993
763.127	0.0165105
763.205	0.0165552
763.283	0.0164626
763.361	0.0166067
763.439	0.0164714
763.517	0.0165089
763.596	0.0164950
763.674	0.0164956
763.752	0.0163934
763.830	0.0165141
763.908	0.0165707
763.986	0.0166609
764.064	0.0164747
764.142	0.0164907
764.221	0.0164996
764.299	0.0164236
764.377	0.0164270
764.455	0.0165717
764.533	0.0164384
764.611	0.0164410
764.689	0.0164428
764.767	0.0163713
764.846	0.0163701
764.924	0.0163203
765.002	0.0164280
765.080	0.0163018
765.158	0.0163240
765.236	0.0163551
765.314	0.0163157
765.392	0.0163430
765.471	0.0163857
765.549	0.0163315
765.627	0.0162858
765.705	0.0163757
765.783	0.0163998
765.861	0.0165826
765.939	0.0164922
766.017	0.0165070
766.096	0.0165859
766.174	0.0167110
766.252	0.0166522
766.330	0.0165937
766.408	0.0166595
766.486	0.0165464
766.564	0.0166252
766.642	0.0165439
766.721	0.0166109
766.799	0.0165537
766.877	0.0165388
766.955	0.0165097
767.033	0.0165540
767.111	0.0164293
767.189	0.0163608
767.267	0.0162740
767.346	0.0162364
767.424	0.0163073
767.502	0.0163331
767.580	0.0161487
767.658	0.0160743
767.736	0.0162075
767.814	0.0162392
767.892	0.0161895
767.971	0.0161224
768.049	0.0162840
768.127	0.0162163
768.205	0.0163263
768.283	0.0164006
768.361	0.0162752
768.439	0.0161322
768.517	0.0163438
768.596	0.0163607
768.674	0.0165662
768.752	0.0163769
768.830	0.0162875
768.908	0.0164369
768.986	0.0164063
769.064	0.0164311
769.142	0.0165047
769.221	0.0165369
769.299	0.0165049
769.377	0.0164499
769.455	0.0165570
769.533	0.0166023
769.611	0.0164375
769.689	0.0165056
769.767	0.0164361
769.846	0.0166460
769.924	0.0165874
770.002	0.0166353
770.080	0.0163548
770.158	0.0163436
770.236	0.0164175
770.314	0.0164587
770.392	0.0163560
770.471	0.0163514
770.549	0.0163850
770.627	0.0162899
770.705	0.0164034
770.783	0.0163762
770.861	0.0164418
770.939	0.0164240
771.017	0.0164169
771.096	0.0165132
771.174	0.0164610
771.252	0.0163176
771.330	0.0164292
771.408	0.0165422
771.486	0.0162852
771.564	0.0164053
771.642	0.0163558
771.721	0.0163446
771.799	0.0164861
771.877	0.0162770
771.955	0.0163484
772.033	0.0162604
772.111	0.0162722
772.189	0.0163734
772.267	0.0162499
772.346	0.0162894
772.424	0.0163712
772.502	0.0162580
772.580	0.0162414
772.658	0.0162756
772.736	0.0162032
772.814	0.0162701
772.892	0.0161774
772.971	0.0165236
773.049	0.0162128
773.127	0.0161897
773.205	0.0162817
773.283	0.0163331
773.361	0.0162701
773.439	0.0163684
773.517	0.0163654
773.596	0.0164769
773.674	0.0162963
773.752	0.0163020
773.830	0.0164314
773.908	0.0164678
773.986	0.0164502
774.064	0.0165130
774.142	0.0164640
774.221	0.0165417
774.299	0.0164489
774.377	0.0166594
774.455	0.0165884
774.533	0.0164802
774.611	0.0165575
774.689	0.0164542
774.767	0.0165586
774.846	0.0166151
774.924	0.0164147
775.002	0.0164460
775.080	0.0165558
775.158	0.0165325
775.236	0.0163850
775.314	0.0162261
775.392	0.0161973
775.471	0.0163754
775.549	0.0164193
775.627	0.0163198
775.705	0.0163405
775.783	0.0163258
775.861	0.0162995
775.939	0.0163577
776.017	0.0164039
776.096	0.0163952
776.174	0.0164033
776.252	0.0162517
776.330	0.0162677
776.408	0.0162827
776.486	0.0164687
776.564	0.0163927
776.642	0.0164083
776.721	0.0162434
776.799	0.0162502
776.877	0.0164339
776.955	0.0164877
777.033	0.0164603
777.111	0.0164867
777.189	0.0164774
777.267	0.0165749
777.346	0.0164612
777.424	0.0165520
777.502	0.0164874
777.580	0.0165525
777.658	0.0165538
777.736	0.0166146
777.814	0.0165256
777.892	0.0166670
777.971	0.0165643
778.049	0.0164935
778.127	0.0165282
778.205	0.0164913
778.283	0.0164631
778.361	0.0163667
778.439	0.0164771
778.517	0.0163273
778.596	0.0162864
778.674	0.0164532
778.752	0.0164895
778.830	0.0164230
778.908	0.0163400
778.986	0.0163459
779.064	0.0162213
779.142	0.0162614
779.221	0.0163140
779.299	0.0161208
779.377	0.0161683
779.455	0.0163733
779.533	0.0163443
779.611	0.0163004
779.689	0.0163307
779.767	0.0162979
779.846	0.0163603
779.924	0.0163684
780.002	0.0164099
780.080	0.0163500
780.158	0.0165055
780.236	0.0165093
780.314	0.0165456
780.392	0.0166228
780.471	0.0165953
780.549	0.0165507
780.627	0.0165696
780.705	0.0164647
780.783	0.0165014
780.861	0.0165906
780.939	0.0165070
781.017	0.0163152
781.096	0.0164928
781.174	0.0163866
781.252	0.0164858
781.330	0.0163932
781.408	0.0165220
781.486	0.0164614
781.564	0.0164743
781.642	0.0164269
781.721	0.0164902
781.799	0.0164613
781.877	0.0165395
781.955	0.0164678
782.033	0.0164095
782.111	0.0164065
782.189	0.0164896
782.267	0.0165529
782.346	0.0165082
782.424	0.0163657
782.502	0.0164690
782.580	0.0164150
782.658	0.0164125
782.736	0.0164760
782.814	0.0163757
782.892	0.0164951
782.971	0.0165408
783.049	0.0164259
783.127	0.0164560
783.205	0.0164516
783.283	0.0165276
783.361	0.0165623
783.439	0.0164365
783.517	0.0164496
783.596	0.0166428
783.674	0.0165396
783.752	0.0165298
783.830	0.0165316
783.908	0.0163187
783.986	0.0166129
784.064	0.0165858
784.142	0.0164497
784.221	0.0163113
784.299	0.0165701
784.377	0.0164014
784.455	0.0163996
784.533	0.0163661
784.611	0.0164606
784.689	0.0164835
784.767	0.0164944
784.846	0.0164165
784.924	0.0162946
785.002	0.0164359
785.080	0.0165725
785.158	0.0163374
785.236	0.0164023
785.314	0.0162234
785.392	0.0163004
785.471	0.0163617
785.549	0.0162853
785.627	0.0164388
785.705	0.0164342
785.783	0.0162996
785.861	0.0163091
785.939	0.0163269
786.017	0.0162701
786.096	0.0163737
786.174	0.0163361
786.252	0.0164107
786.330	0.0165228
786.408	0.0165069
786.486	0.0165159
786.564	0.0164343
786.642	0.0164636
786.721	0.0163406
786.799	0.0164153
786.877	0.0164619
786.955	0.0165464
787.033	0.0164980
787.111	0.0163651
787.189	0.0165158
787.267	0.0166010
787.346	0.0165446
787.424	0.0163354
787.502	0.0165035
787.580	0.0164285
787.658	0.0164111
787.736	0.0164062
787.814	0.0164046
787.892	0.0163205
787.971	0.0163474
788.049	0.0162586
788.127	0.0162579
788.205	0.0162173
788.283	0.0163772
788.361	0.0162789
788.439	0.0162368
788.517	0.0163715
788.596	0.0163001
788.674	0.0162573
788.752	0.0164225
788.830	0.0163729
788.908	0.0164915
788.986	0.0164038
789.064	0.0162622
789.142	0.0163823
789.221	0.0164438
789.299	0.0163605
789.377	0.0164132
789.455	0.0164680
789.533	0.0164542
789.611	0.0164589
789.689	0.0165497
789.767	0.0165356
789.846	0.0165148
789.924	0.0164013
790.002	0.0164682
790.080	0.0165464
790.158	0.0164621
790.236	0.0165259
790.314	0.0164733
790.392	0.0165882
790.471	0.0165346
790.549	0.0165287
790.627	0.0165762
790.705	0.0164024
790.783	0.0164137
790.861	0.0164978
790.939	0.0164697
791.017	0.0163662
791.096	0.0164035
791.174	0.0163466
791.252	0.0164279
791.330	0.0164825
791.408	0.0163918
791.486	0.0162402
791.564	0.0163462
791.642	0.0163188
791.721	0.0164162
791.799	0.0162450
791.877	0.0163085
791.955	0.0163317
792.033	0.0164084
792.111	0.0164828
792.189	0.0164287
792.267	0.0163007
792.346	0.0164506
792.424	0.0164207
792.502	0.0164583
792.580	0.0164559
792.658	0.0163123
792.736	0.0164388
792.814	0.0162965
792.892	0.0163718
792.971	0.0163594
793.049	0.0163172
793.127	0.0163616
793.205	0.0162519
793.283	0.0163210
793.361	0.0162313
793.439	0.0162205
793.517	0.0163584
793.596	0.0161784
793.674	0.0163481
793.752	0.0161979
793.830	0.0162186
793.908	0.0162444
793.986	0.0162994
794.064	0.0163562
794.142	0.0163235
794.221	0.0162876
794.299	0.0163108
794.377	0.0163509
794.455	0.0161715
794.533	0.0162231
794.611	0.0162639
794.689	0.0163528
794.767	0.0162570
794.846	0.0163262
794.924	0.0162406
795.002	0.0163900
795.080	0.0163056
795.158	0.0163425
795.236	0.0163623
795.314	0.0163296
795.392	0.0161754
795.471	0.0163843
795.549	0.0165034
795.627	0.0162530
795.705	0.0163639
795.783	0.0163683
795.861	0.0163764
795.939	0.0162821
796.017	0.0164693
796.096	0.0164149
796.174	0.0162487
796.252	0.0163276
796.330	0.0165072
796.408	0.0162588
796.486	0.0162757
796.564	0.0162364
796.642	0.0162966
796.721	0.0162849
796.799	0.0162424
796.877	0.0162335
796.955	0.0164033
797.033	0.0163028
797.111	0.0162262
797.189	0.0161991
797.267	0.0162553
797.346	0.0163071
797.424	0.0162747
797.502	0.0164463
797.580	0.0162802
797.658	0.0164375
797.736	0.0165122
797.814	0.0161793
797.892	0.0162431
797.971	0.0162945
798.049	0.0164770
798.127	0.0163791
798.205	0.0164191
798.283	0.0163510
798.361	0.0163167
798.439	0.0163943
798.517	0.0164241
798.596	0.0163126
798.674	0.0163149
798.752	0.0163321
798.830	0.0163781
798.908	0.0162257
798.986	0.0161198
799.064	0.0162474
799.142	0.0163139
799.221	0.0162711
799.299	0.0162298
799.377	0.0161778
799.455	0.0162627
799.533	0.0163165
799.611	0.0162442
799.689	0.0162775
799.767	0.0163232
799.846	0.0163775
799.924	0.0162972
800.002	0.0164558
800.080	0.0165271
800.158	0.0164690
800.236	0.0163406
800.314	0.0165087
800.392	0.0164137
800.471	0.0164397
800.549	0.0165836
800.627	0.0164642
800.705	0.0164828
800.783	0.0163892
800.861	0.0164084
800.939	0.0164519
801.017	0.0165063
801.096	0.0165361
801.174	0.0164656
801.252	0.0164195
801.330	0.0163803
801.408	0.0163612
801.486	0.0163560
801.564	0.0164523
801.642	0.0164191
801.721	0.0163780
801.799	0.0162719
801.877	0.0162765
801.955	0.0163055
802.033	0.0162717
802.111	0.0162582
802.189	0.0162938
802.267	0.0162373
802.346	0.0162295
802.424	0.0163290
802.502	0.0161945
802.580	0.0163570
802.658	0.0162357
802.736	0.0162796
802.814	0.0163087
802.892	0.0161324
802.971	0.0163570
803.049	0.0163145
803.127	0.0163676
803.205	0.0163915
803.283	0.0163845
803.361	0.0165398
803.439	0.0165079
803.517	0.0163885
803.596	0.0163174
803.674	0.0163435
803.752	0.0163062
803.830	0.0163698
803.908	0.0164553
803.986	0.0164531
804.064	0.0162119
804.142	0.0162682
804.221	0.0163358
804.299	0.0163642
804.377	0.0163013
804.455	0.0163667
804.533	0.0162918
804.611	0.0162528
804.689	0.0163812
804.767	0.0163428
804.846	0.0164137
804.924	0.0163326
805.002	0.0163657
805.080	0.0163654
805.158	0.0162820
805.236	0.0163314
805.314	0.0163135
805.392	0.0163185
805.471	0.0162231
805.549	0.0162993
805.627	0.0163699
805.705	0.0163968
805.783	0.0163017
805.861	0.0162675
805.939	0.0163373
806.017	0.0162946
806.096	0.0165855
806.174	0.0163883
806.252	0.0164190
806.330	0.0164687
806.408	0.0163899
806.486	0.0165505
806.564	0.0163572
806.642	0.0163088
806.721	0.0163737
806.799	0.0163023
806.877	0.0164478
806.955	0.0164674
807.033	0.0164472
807.111	0.0164194
807.189	0.0165236
807.267	0.0165009
807.346	0.0164484
807.424	0.0165479
807.502	0.0164017
807.580	0.0164835
807.658	0.0163890
807.736	0.0165823
807.814	0.0164678
807.892	0.0164223
807.971	0.0164276
808.049	0.0164416
808.127	0.0164104
808.205	0.0165424
808.283	0.0164589
808.361	0.0164674
808.439	0.0162835
808.517	0.0164082
808.596	0.0163934
808.674	0.0163783
808.752	0.0164982
808.830	0.0162556
808.908	0.0162991
808.986	0.0165179
809.064	0.0163052
809.142	0.0163070
809.221	0.0163921
809.299	0.0162224
809.377	0.0163187
809.455	0.0162781
809.533	0.0163943
809.611	0.0164114
809.689	0.0161790
809.767	0.0163044
809.846	0.0163091
809.924	0.0163465
810.002	0.0163347
810.080	0.0162943
810.158	0.0164641
810.236	0.0164115
810.314	0.0164621
810.392	0.0163911
810.471	0.0163186
810.549	0.0162400
810.627	0.0163529
810.705	0.0165424
810.783	0.0163766
810.861	0.0162103
810.939	0.0163995
811.017	0.0162903
811.096	0.0163326
811.174	0.0163345
811.252	0.0164287
811.330	0.0163417
811.408	0.0163256
811.486	0.0164682
811.564	0.0163333
811.642	0.0163227
811.721	0.0164404
811.799	0.0164963
811.877	0.0162962
811.955	0.0164361
812.033	0.0163931
812.111	0.0161862
812.189	0.0163834
812.267	0.0163893
812.346	0.0163181
812.424	0.0162183
812.502	0.0162797
812.580	0.0162996
812.658	0.0162830
812.736	0.0163364
812.814	0.0161615
812.892	0.0164003
812.971	0.0164291
813.049	0.0163032
813.127	0.0162321
813.205	0.0162502
813.283	0.0163957
813.361	0.0164208
813.439	0.0164407
813.517	0.0163674
813.596	0.0164124
813.674	0.0164715
813.752	0.0164272
813.830	0.0164125
813.908	0.0164717
813.986	0.0164530
814.064	0.0164604
814.142	0.0161897
814.221	0.0164211
814.299	0.0163235
814.377	0.0164784
814.455	0.0163699
814.533	0.0164268
814.611	0.0164523
814.689	0.0163303
814.767	0.0162385
814.846	0.0164464
814.924	0.0163136
815.002	0.0163504
815.080	0.0162222
815.158	0.0163171
815.236	0.0162463
815.314	0.0163055
815.392	0.0161931
815.471	0.0162424
815.549	0.0163110
815.627	0.0162563
815.705	0.0162391
815.783	0.0162151
815.861	0.0161226
815.939	0.0164108
816.017	0.0162560
816.096	0.0163168
816.174	0.0162420
816.252	0.0163915
816.330	0.0163689
816.408	0.0164265
816.486	0.0162806
816.564	0.0162755
816.642	0.0162497
816.721	0.0164716
816.799	0.0163200
816.877	0.0163245
816.955	0.0164040
817.033	0.0163156
817.111	0.0163425
817.189	0.0163519
817.267	0.0163351
817.346	0.0163394
817.424	0.0163200
817.502	0.0164077
817.580	0.0163649
817.658	0.0162835
817.736	0.0164081
817.814	0.0162568
817.892	0.0163538
817.971	0.0164028
818.049	0.0164607
818.127	0.0163195
818.205	0.0163370
818.283	0.0163760
818.361	0.0163062
818.439	0.0164277
818.517	0.0163153
818.596	0.0163651
818.674	0.0164610
818.752	0.0163471
818.830	0.0163686
818.908	0.0164322
818.986	0.0162672
819.064	0.0164077
819.142	0.0163628
819.221	0.0163680
819.299	0.0164919
819.377	0.0162916
819.455	0.0162537
819.533	0.0164801
819.611	0.0162602
819.689	0.0163881
819.767	0.0163336
819.846	0.0164075
819.924	0.0164042
820.002	0.0162707
820.080	0.0163869
820.158	0.0163387
820.236	0.0163031
820.314	0.0164511
820.392	0.0164259
820.471	0.0163494
820.549	0.0165146
820.627	0.0164073
820.705	0.0163829
820.783	0.0163050
820.861	0.0163706
820.939	0.0164093
821.017	0.0164247
821.096	0.0162399
821.174	0.0163298
821.252	0.0163542
821.330	0.0164577
821.408	0.0164305
821.486	0.0163135
821.564	0.0165340
821.642	0.0164943
821.721	0.0163676
821.799	0.0164555
821.877	0.0164189
821.955	0.0162263
822.033	0.0164925
822.111	0.0164043
822.189	0.0164458
822.267	0.0164737
822.346	0.0164516
822.424	0.0163920
822.502	0.0163914
822.580	0.0163764
822.658	0.0162471
822.736	0.0162905
822.814	0.0163656
822.892	0.0162846
822.971	0.0163724
823.049	0.0163265
823.127	0.0163148
823.205	0.0163326
823.283	0.0163139
823.361	0.0163087
823.439	0.0162826
823.517	0.0163545
823.596	0.0164082
823.674	0.0163979
823.752	0.0163210
823.830	0.0162675
823.908	0.0163747
823.986	0.0162849
824.064	0.0164600
824.142	0.0163620
824.221	0.0163852
824.299	0.0164246
824.377	0.0162915
824.455	0.0163678
824.533	0.0163347
824.611	0.0164799
824.689	0.0162301
824.767	0.0163889
824.846	0.0163494
824.924	0.0163885
825.002	0.0163934
825.080	0.0164447
825.158	0.0164069
825.236	0.0163400
825.314	0.0163731
825.392	0.0163160
825.471	0.0164392
825.549	0.0162061
825.627	0.0162852
825.705	0.0163689
825.783	0.0162989
825.861	0.0164371
825.939	0.0163030
826.017	0.0161868
826.096	0.0161607
826.174	0.0162755
826.252	0.0162016
826.330	0.0163479
826.408	0.0160931
826.486	0.0161748
826.564	0.0163612
826.642	0.0163322
826.721	0.0163345
826.799	0.0162697
826.877	0.0164199
826.955	0.0162814
827.033	0.0162898
827.111	0.0163564
827.189	0.0161929
827.267	0.0161849
827.346	0.0162708
827.424	0.0163319
827.502	0.0163335
827.580	0.0163799
827.658	0.0163507
827.736	0.0163445
827.814	0.0163008
827.892	0.0162807
827.971	0.0162156
828.049	0.0163410
828.127	0.0163829
828.205	0.0163424
828.283	0.0162515
828.361	0.0163452
828.439	0.0163624
828.517	0.0163867
828.596	0.0164355
828.674	0.0163258
828.752	0.0161645
828.830	0.0162724
828.908	0.0163445
828.986	0.0164375
829.064	0.0162199
829.142	0.0163419
829.221	0.0162584
829.299	0.0163098
829.377	0.0164088
829.455	0.0163651
829.533	0.0162198
829.611	0.0164055
829.689	0.0164274
829.767	0.0164094
829.846	0.0162522
829.924	0.0164857
830.002	0.0165237
830.080	0.0164304
830.158	0.0163369
830.236	0.0164433
830.314	0.0163467
830.392	0.0163979
830.471	0.0165532
830.549	0.0166089
830.627	0.0165788
830.705	0.0164255
830.783	0.0164410
830.861	0.0164080
830.939	0.0166357
831.017	0.0164896
831.096	0.0166681
831.174	0.0164560
831.252	0.0163685
831.330	0.0165054
831.408	0.0165958
831.486	0.0164964
831.564	0.0164241
831.642	0.0164845
831.721	0.0164214
831.799	0.0165479
831.877	0.0164928
831.955	0.0164508
832.033	0.0163977
832.111	0.0163426
832.189	0.0163352
832.267	0.0164302
832.346	0.0164168
832.424	0.0164390
832.502	0.0164934
832.580	0.0163155
832.658	0.0164689
832.736	0.0164716
832.814	0.0163051
832.892	0.0163603
832.971	0.0164157
833.049	0.0164455
833.127	0.0163207
833.205	0.0164666
833.283	0.0164737
833.361	0.0164760
833.439	0.0164722
833.517	0.0163055
833.596	0.0164404
833.674	0.0165419
833.752	0.0164790
833.830	0.0164355
833.908	0.0164180
833.986	0.0164648
834.064	0.0163296
834.142	0.0164171
834.221	0.0164548
834.299	0.0163281
834.377	0.0163104
834.455	0.0163412
834.533	0.0163612
834.611	0.0164138
834.689	0.0163962
834.767	0.0162734
834.846	0.0164720
834.924	0.0164995
835.002	0.0163973
835.080	0.0163940
835.158	0.0164858
835.236	0.0163851
835.314	0.0165432
835.392	0.0165173
835.471	0.0164431
835.549	0.0164328
835.627	0.0164007
835.705	0.0164653
835.783	0.0165193
835.861	0.0164190
835.939	0.0164963
836.017	0.0165452
836.096	0.0164446
836.174	0.0164771
836.252	0.0165955
836.330	0.0164511
836.408	0.0164758
836.486	0.0165305
836.564	0.0162870
836.642	0.0164389
836.721	0.0164359
836.799	0.0163236
836.877	0.0162874
836.955	0.0166100
837.033	0.0164551
837.111	0.0164152
837.189	0.0165012
837.267	0.0164038
837.346	0.0164311
837.424	0.0165126
837.502	0.0164764
837.580	0.0164080
837.658	0.0163585
837.736	0.0164542
837.814	0.0164737
837.892	0.0162651
837.971	0.0162954
838.049	0.0163836
838.127	0.0163663
838.205	0.0163885
838.283	0.0164772
838.361	0.0162418
838.439	0.0163423
838.517	0.0164085
838.596	0.0163332
838.674	0.0164636
838.752	0.0164117
838.830	0.0163595
838.908	0.0163405
838.986	0.0165138
839.064	0.0163352
839.142	0.0163573
839.221	0.0162843
839.299	0.0163676
839.377	0.0163870
839.455	0.0163813
839.533	0.0164090
839.611	0.0163466
839.689	0.0163612
839.767	0.0163825
839.846	0.0163775
839.924	0.0164736
840.002	0.0164799
840.080	0.0163455
840.158	0.0163145
840.236	0.0163958
840.314	0.0163486
840.392	0.0164854
840.471	0.0163557
840.549	0.0162717
840.627	0.0163483
840.705	0.0163582
840.783	0.0163566
840.861	0.0163123
840.939	0.0163601
841.017	0.0163352
841.096	0.0164413
841.174	0.0163467
841.252	0.0162791
841.330	0.0161875
841.408	0.0164030
841.486	0.0163896
841.564	0.0163327
841.642	0.0161865
841.721	0.0162753
841.799	0.0162448
841.877	0.0162502
841.955	0.0162307
842.033	0.0163539
842.111	0.0163213
842.189	0.0164182
842.267	0.0164348
842.346	0.0162957
842.424	0.0162727
842.502	0.0163170
842.580	0.0162566
842.658	0.0163918
842.736	0.0165125
842.814	0.0164716
842.892	0.0161861
842.971	0.0163053
843.049	0.0163752
843.127	0.0164309
843.205	0.0164685
843.283	0.0164664
843.361	0.0164212
843.439	0.0163381
843.517	0.0163595
843.596	0.0164905
843.674	0.0164664
843.752	0.0163116
843.830	0.0163786
843.908	0.0163687
843.986	0.0164861
844.064	0.0162557
844.142	0.0162780
844.221	0.0162910
844.299	0.0163012
844.377	0.0163251
844.455	0.0162543
844.533	0.0161208
844.611	0.0162369
844.689	0.0162375
844.767	0.0162172
844.846	0.0160056
844.924	0.0161869
845.002	0.0162443
845.080	0.0160663
845.158	0.0161866
845.236	0.0160905
845.314	0.0161784
845.392	0.0160599
845.471	0.0161742
845.549	0.0161840
845.627	0.0162651
845.705	0.0162599
845.783	0.0161382
845.861	0.0162507
845.939	0.0162321
846.017	0.0163090
846.096	0.0163046
846.174	0.0161716
846.252	0.0160857
846.330	0.0162223
846.408	0.0162173
846.486	0.0161584
846.564	0.0161934
846.642	0.0162983
846.721	0.0163764
846.799	0.0163023
846.877	0.0162759
846.955	0.0162664
847.033	0.0162144
847.111	0.0163311
847.189	0.0163148
847.267	0.0162307
847.346	0.0161634
847.424	0.0163383
847.502	0.0162258
847.580	0.0162102
847.658	0.0162442
847.736	0.0163692
847.814	0.0164709
847.892	0.0164459
847.971	0.0163580
848.049	0.0162971
848.127	0.0163885
848.205	0.0164048
848.283	0.0163709
848.361	0.0164742
848.439	0.0164495
848.517	0.0164897
848.596	0.0163493
848.674	0.0163130
848.752	0.0163505
848.830	0.0164914
848.908	0.0164212
848.986	0.0163000
849.064	0.0164384
849.142	0.0164464
849.221	0.0165527
849.299	0.0162953
849.377	0.0164214
849.455	0.0163045
849.533	0.0163107
849.611	0.0164832
849.689	0.0164127
849.767	0.0163238
849.846	0.0164698
849.924	0.0164613
850.002	0.0164526
850.080	0.0165123
850.158	0.0164122
850.236	0.0164301
850.314	0.0164568
850.392	0.0164981
850.471	0.0165836
850.549	0.0164699
850.627	0.0164994
850.705	0.0164266
850.783	0.0163599
850.861	0.0163253
850.939	0.0163303
851.017	0.0162736
851.096	0.0165878
851.174	0.0163900
851.252	0.0162515
851.330	0.0164248
851.408	0.0163741
851.486	0.0163658
851.564	0.0163776
851.642	0.0164179
851.721	0.0163719
851.799	0.0164455
851.877	0.0164254
851.955	0.0164753
852.033	0.0165752
852.111	0.0164759
852.189	0.0164010
852.267	0.0165178
852.346	0.0166189
852.424	0.0165546
852.502	0.0165404
852.580	0.0166206
852.658	0.0165540
852.736	0.0166176
852.814	0.0164774
852.892	0.0165961
852.971	0.0165715
853.049	0.0165410
853.127	0.0164887
853.205	0.0164960
853.283	0.0165587
853.361	0.0165195
853.439	0.0164378
853.517	0.0164622
853.596	0.0164556
853.674	0.0164587
853.752	0.0165160
853.830	0.0166230
853.908	0.0165141
853.986	0.0166281
854.064	0.0166652
854.142	0.0165524
854.221	0.0165870
854.299	0.0165698
854.377	0.0165269
854.455	0.0166304
854.533	0.0165192
854.611	0.0166005
854.689	0.0164832
854.767	0.0164126
854.846	0.0165132
854.924	0.0165516
855.002	0.0165121
855.080	0.0164655
855.158	0.0164011
855.236	0.0164928
855.314	0.0163782
855.392	0.0164258
855.471	0.0165902
855.549	0.0166508
855.627	0.0165797
855.705	0.0164500
855.783	0.0163754
855.861	0.0164627
855.939	0.0165015
856.017	0.0164182
856.096	0.0163225
856.174	0.0165489
856.252	0.0163410
856.330	0.0164207
856.408	0.0163112
856.486	0.0164371
856.564	0.0162661
856.642	0.0163038
856.721	0.0163949
856.799	0.0162590
856.877	0.0164035
856.955	0.0165730
857.033	0.0164474
857.111	0.0163306
857.189	0.0164901
857.267	0.0164764
857.346	0.0164288
857.424	0.0164458
857.502	0.0163756
857.580	0.0162896
857.658	0.0162991
857.736	0.0163430
857.814	0.0164750
857.892	0.0164446
857.971	0.0164684
858.049	0.0163206
858.127	0.0163432
858.205	0.0163080
858.283	0.0163775
858.361	0.0164677
858.439	0.0164690
858.517	0.0164162
858.596	0.0164523
858.674	0.0163711
858.752	0.0163734
858.830	0.0164569
858.908	0.0165013
858.986	0.0164692
859.064	0.0163698
859.142	0.0164219
859.221	0.0163988
859.299	0.0163540
859.377	0.0163564
859.455	0.0164448
859.533	0.0164439
859.611	0.0163686
859.689	0.0165576
859.767	0.0165199
859.846	0.0163578
859.924	0.0165340
860.002	0.0164356
860.080	0.0163996
860.158	0.0165067
860.236	0.0165113
860.314	0.0165293
860.392	0.0164158
860.471	0.0163728
860.549	0.0165118
860.627	0.0164995
860.705	0.0164689
860.783	0.0164558
860.861	0.0165446
860.939	0.0164105
861.017	0.0164484
861.096	0.0164128
861.174	0.0162959
861.252	0.0164672
861.330	0.0163364
861.408	0.0163389
861.486	0.0163228
861.564	0.0164330
861.642	0.0162954
861.721	0.0164462
861.799	0.0162003
861.877	0.0163339
861.955	0.0164191
862.033	0.0164194
862.111	0.0164378
862.189	0.0163213
862.267	0.0164091
862.346	0.0164774
862.424	0.0164285
862.502	0.0165071
862.580	0.0164893
862.658	0.0164741
862.736	0.0164942
862.814	0.0165639
862.892	0.0165376
862.971	0.0165907
863.049	0.0165459
863.127	0.0164175
863.205	0.0165069
863.283	0.0164559
863.361	0.0163425
863.439	0.0164150
863.517	0.0163968
863.596	0.0164287
863.674	0.0163358
863.752	0.0165311
863.830	0.0165195
863.908	0.0163752
863.986	0.0163116
864.064	0.0163537
864.142	0.0162765
864.221	0.0164000
864.299	0.0164748
864.377	0.0163795
864.455	0.0162733
864.533	0.0163856
864.611	0.0163828
864.689	0.0163963
864.767	0.0163730
864.846	0.0164112
864.924	0.0163747
865.002	0.0162350
865.080	0.0163885
865.158	0.0164325
865.236	0.0162589
865.314	0.0163120
865.392	0.0162138
865.471	0.0162088
865.549	0.0163592
865.627	0.0164322
865.705	0.0163097
865.783	0.0163941
865.861	0.0161641
865.939	0.0163435
866.017	0.0163731
866.096	0.0161777
866.174	0.0161395
866.252	0.0163321
866.330	0.0163055
866.408	0.0161868
866.486	0.0162670
866.564	0.0163013
866.642	0.0163128
866.721	0.0163389
866.799	0.0161576
866.877	0.0162352
866.955	0.0162357
867.033	0.0162659
867.111	0.0161920
867.189	0.0164236
867.267	0.0162962
867.346	0.0163286
867.424	0.0164732
867.502	0.0164198
867.580	0.0163152
867.658	0.0162559
867.736	0.0163097
867.814	0.0163050
867.892	0.0163885
867.971	0.0164865
868.049	0.0162527
868.127	0.0162212
868.205	0.0162504
868.283	0.0164207
868.361	0.0163552
868.439	0.0163126
868.517	0.0164159
868.596	0.0162746
868.674	0.0162831
868.752	0.0161962
868.830	0.0161373
868.908	0.0162138
868.986	0.0162869
869.064	0.0161754
869.142	0.0162000
869.221	0.0162622
869.299	0.0161095
869.377	0.0162260
869.455	0.0162651
869.533	0.0164014
869.611	0.0161884
869.689	0.0162051
869.767	0.0163838
869.846	0.0163274
869.924	0.0161838
870.002	0.0163297
870.080	0.0164105
870.158	0.0162640
870.236	0.0163485
870.314	0.0164658
870.392	0.0163143
870.471	0.0164075
870.549	0.0164980
870.627	0.0163625
870.705	0.0164617
870.783	0.0164564
870.861	0.0163789
870.939	0.0163178
871.017	0.0163590
871.096	0.0165447
871.174	0.0162609
871.252	0.0163717
871.330	0.0165248
871.408	0.0162565
871.486	0.0163509
871.564	0.0162209
871.642	0.0164554
871.721	0.0162154
871.799	0.0162902
871.877	0.0163338
871.955	0.0162942
872.033	0.0163795
872.111	0.0164970
872.189	0.0162840
872.267	0.0162426
872.346	0.0163203
872.424	0.0162902
872.502	0.0164204
872.580	0.0163358
872.658	0.0164665
872.736	0.0163541
872.814	0.0164223
872.892	0.0164037
872.971	0.0163264
873.049	0.0164197
873.127	0.0164212
873.205	0.0164071
873.283	0.0164027
873.361	0.0164592
873.439	0.0163312
873.517	0.0163282
873.596	0.0164793
873.674	0.0163680
873.752	0.0163672
873.830	0.0163374
873.908	0.0163216
873.986	0.0163905
874.064	0.0162688
874.142	0.0163054
874.221	0.0164258
874.299	0.0163234
874.377	0.0163777
874.455	0.0163676
874.533	0.0163132
874.611	0.0163543
874.689	0.0163422
874.767	0.0163512
874.846	0.0164092
874.924	0.0164275
875.002	0.0163747
875.080	0.0164365
875.158	0.0163586
875.236	0.0165631
875.314	0.0165102
875.392	0.0162577
875.471	0.0163741
875.549	0.0163751
875.627	0.0163616
875.705	0.0165421
875.783	0.0164793
875.861	0.0164246
875.939	0.0165667
876.017	0.0163803
876.096	0.0163429
876.174	0.0162930
876.252	0.0163601
876.330	0.0164605
876.408	0.0163416
876.486	0.0162492
876.564	0.0164349
876.642	0.0164096
876.721	0.0163083
876.799	0.0163822
876.877	0.0164008
876.955	0.0162957
877.033	0.0163311
877.111	0.0161798
877.189	0.0162517
877.267	0.0163255
877.346	0.0162816
877.424	0.0162762
877.502	0.0161864
877.580	0.0163773
877.658	0.0163744
877.736	0.0163948
877.814	0.0162623
877.892	0.0163934
877.971	0.0164301
878.049	0.0164088
878.127	0.0162492
878.205	0.0164948
878.283	0.0163761
878.361	0.0163651
878.439	0.0164457
878.517	0.0164285
878.596	0.0164165
878.674	0.0164729
878.752	0.0164710
878.830	0.0163898
878.908	0.0164757
878.986	0.0163887
879.064	0.0164320
879.142	0.0165013
879.221	0.0165952
879.299	0.0163990
879.377	0.0163446
879.455	0.0164071
879.533	0.0164619
879.611	0.0164529
879.689	0.0164271
879.767	0.0163878
879.846	0.0164077
879.924	0.0164812
880.002	0.0163691
880.080	0.0164583
880.158	0.0164302
880.236	0.0164705
880.314	0.0163876
880.392	0.0164380
880.471	0.0165059
880.549	0.0164240
880.627	0.0163618
880.705	0.0162595
880.783	0.0163878
880.861	0.0164251
880.939	0.0164004
881.017	0.0163842
881.096	0.0164722
881.174	0.0163859
881.252	0.0165066
881.330	0.0165410
881.408	0.0164167
881.486	0.0163481
881.564	0.0164458
881.642	0.0164477
881.721	0.0164532
881.799	0.0163241
881.877	0.0163184
881.955	0.0162926
882.033	0.0163395
882.111	0.0162294
882.189	0.0162467
882.267	0.0163047
882.346	0.0163869
882.424	0.0162817
882.502	0.0162504
882.580	0.0163495
882.658	0.0161845
882.736	0.0162843
882.814	0.0162704
882.892	0.0162560
882.971	0.0164408
883.049	0.0164006
883.127	0.0163110
883.205	0.0164258
883.283	0.0163927
883.361	0.0163696
883.439	0.0162874
883.517	0.0162636
883.596	0.0163849
883.674	0.0162707
883.752	0.0163310
883.830	0.0163535
883.908	0.0163982
883.986	0.0163818
884.064	0.0164246
884.142	0.0164175
884.221	0.0164012
884.299	0.0162494
884.377	0.0163560
884.455	0.0162816
884.533	0.0162600
884.611	0.0162727
884.689	0.0162511
884.767	0.0162634
884.846	0.0163232
884.924	0.0162765
885.002	0.0162479
885.080	0.0164037
885.158	0.0163690
885.236	0.0163677
885.314	0.0163342
885.392	0.0164194
885.471	0.0164672
885.549	0.0164220
885.627	0.0164306
885.705	0.0164272
885.783	0.0164247
885.861	0.0163278
885.939	0.0165073
886.017	0.0164546
886.096	0.0163425
886.174	0.0163827
886.252	0.0163577
886.330	0.0164616
886.408	0.0164744
886.486	0.0163085
886.564	0.0163445
886.642	0.0163998
886.721	0.0162005
886.799	0.0161767
886.877	0.0163102
886.955	0.0163927
887.033	0.0162801
887.111	0.0161153
887.189	0.0162306
887.267	0.0162735
887.346	0.0162148
887.424	0.0163155
887.502	0.0164217
887.580	0.0164545
887.658	0.0162861
887.736	0.0162862
887.814	0.0164522
887.892	0.0164198
887.971	0.0162263
888.049	0.0164035
888.127	0.0165459
888.205	0.0164534
888.283	0.0164212
888.361	0.0165208
888.439	0.0165293
888.517	0.0165259
888.596	0.0164149
888.674	0.0164403
888.752	0.0165291
888.830	0.0165219
888.908	0.0164098
888.986	0.0164406
889.064	0.0164568
889.142	0.0165136
889.221	0.0163045
889.299	0.0162176
889.377	0.0164809
889.455	0.0163647
889.533	0.0163716
889.611	0.0164809
889.689	0.0163136
889.767	0.0163658
889.846	0.0162905
889.924	0.0163154
890.002	0.0164518
890.080	0.0163823
890.158	0.0163296
890.236	0.0164036
890.314	0.0164211
890.392	0.0163451
890.471	0.0162858
890.549	0.0163078
890.627	0.0163576
890.705	0.0163137
890.783	0.0163284
890.861	0.0162891
890.939	0.0163104
891.017	0.0163791
891.096	0.0165531
891.174	0.0164259
891.252	0.0163420
891.330	0.0164851
891.408	0.0164307
891.486	0.0162555
891.564	0.0164689
891.642	0.0163586
891.721	0.0163687
891.799	0.0164365
891.877	0.0164026
891.955	0.0163750
892.033	0.0164539
892.111	0.0163715
892.189	0.0163722
892.267	0.0164285
892.346	0.0164236
892.424	0.0164025
892.502	0.0163633
892.580	0.0164872
892.658	0.0163026
892.736	0.0164140
892.814	0.0162592
892.892	0.0162139
892.971	0.0163992
893.049	0.0163664
893.127	0.0162955
893.205	0.0162279
893.283	0.0163902
893.361	0.0163693
893.439	0.0163924
893.517	0.0162791
893.596	0.0164013
893.674	0.0163366
893.752	0.0162896
893.830	0.0163103
893.908	0.0162586
893.986	0.0163239
894.064	0.0162781
894.142	0.0161762
894.221	0.0163961
894.299	0.0162474
894.377	0.0161359
894.455	0.0161737
894.533	0.0162563
894.611	0.0162062
894.689	0.0162274
894.767	0.0161907
894.846	0.0162553
894.924	0.0162022
895.002	0.0162447
895.080	0.0162611
895.158	0.0162816
895.236	0.0162292
895.314	0.0161850
895.392	0.0163368
895.471	0.0162009
895.549	0.0162511
895.627	0.0162303
895.705	0.0163187
895.783	0.0163343
895.861	0.0163431
895.939	0.0164027
896.017	0.0163409
896.096	0.0162746
896.174	0.0163372
896.252	0.0163337
896.330	0.0163371
896.408	0.0162243
896.486	0.0163287
896.564	0.0162843
896.642	0.0163177
896.721	0.0163654
896.799	0.0162075
896.877	0.0163163
896.955	0.0162310
897.033	0.0162318
897.111	0.0163629
897.189	0.0162608
897.267	0.0161864
897.346	0.0163744
897.424	0.0163724
897.502	0.0163388
897.580	0.0162947
897.658	0.0162531
897.736	0.0163516
897.814	0.0162433
897.892	0.0163443
897.971	0.0162537
898.049	0.0163152
898.127	0.0162572
898.205	0.0164523
898.283	0.0163195
898.361	0.0162424
898.439	0.0165540
898.517	0.0163688
898.596	0.0163667
898.674	0.0163336
898.752	0.0164277
898.830	0.0164838
898.908	0.0163178
898.986	0.0163705
899.064	0.0164024
899.142	0.0164709
899.221	0.0164066
899.299	0.0162511
899.377	0.0163139
899.455	0.0163142
899.533	0.0162603
899.611	0.0163387
899.689	0.0164562
899.767	0.0164145
899.846	0.0164198
899.924	0.0163292
900.002	0.0162301
900.080	0.0163708
900.158	0.0163508
900.236	0.0162450
900.314	0.0163493
900.392	0.0162646
900.471	0.0163821
900.549	0.0162682
900.627	0.0162508
900.705	0.0162849
900.783	0.0162802
900.861	0.0163681
900.939	0.0162327
901.017	0.0161568
901.096	0.0162993
901.174	0.0163966
901.252	0.0164957
901.330	0.0162845
901.408	0.0162734
901.486	0.0163212
901.564	0.0162621
901.642	0.0162241
901.721	0.0163351
901.799	0.0162696
901.877	0.0164033
901.955	0.0164451
902.033	0.0164411
902.111	0.0163100
902.189	0.0163361
902.267	0.0163645
902.346	0.0163007
902.424	0.0162112
902.502	0.0162711
902.580	0.0162344
902.658	0.0164266
902.736	0.0163798
902.814	0.0163632
902.892	0.0164120
902.971	0.0162789
903.049	0.0163659
903.127	0.0164919
903.205	0.0164234
903.283	0.0163290
903.361	0.0164164
903.439	0.0163766
903.517	0.0163775
903.596	0.0162903
903.674	0.0161900
903.752	0.0163463
903.830	0.0162891
903.908	0.0162344
903.986	0.0163255
904.064	0.0163287
904.142	0.0162660
904.221	0.0163025
904.299	0.0163084
904.377	0.0163195
904.455	0.0162984
904.533	0.0162867
904.611	0.0163838
904.689	0.0163232
904.767	0.0163607
904.846	0.0162722
904.924	0.0162979
905.002	0.0162167
905.080	0.0163113
905.158	0.0162958
905.236	0.0162657
905.314	0.0161621
905.392	0.0164325
905.471	0.0164583
905.549	0.0163386
905.627	0.0162455
905.705	0.0162819
905.783	0.0162913
905.861	0.0162643
905.939	0.0161918
906.017	0.0161675
906.096	0.0162633
906.174	0.0164069
906.252	0.0163586
906.330	0.0163284
906.408	0.0161688
906.486	0.0162901
906.564	0.0163570
906.642	0.0163342
906.721	0.0162245
906.799	0.0163004
906.877	0.0163827
906.955	0.0161839
907.033	0.0162831
907.111	0.0162550
907.189	0.0162563
907.267	0.0162865
907.346	0.0162998
907.424	0.0162568
907.502	0.0161504
907.580	0.0161963
907.658	0.0162815
907.736	0.0162073
907.814	0.0162418
907.892	0.0162507
907.971	0.0161626
908.049	0.0162470
908.127	0.0162072
908.205	0.0161939
908.283	0.0163380
908.361	0.0164085
908.439	0.0162252
908.517	0.0163096
908.596	0.0163466
908.674	0.0162933
908.752	0.0162895
908.830	0.0164296
908.908	0.0163138
908.986	0.0162922
909.064	0.0164273
909.142	0.0161876
909.221	0.0164596
909.299	0.0164163
909.377	0.0162346
909.455	0.0163696
909.533	0.0163829
909.611	0.0164079
909.689	0.0164445
909.767	0.0164246
909.846	0.0163645
909.924	0.0164275
910.002	0.0163577
910.080	0.0163644
910.158	0.0162470
910.236	0.0163513
910.314	0.0163010
910.392	0.0162625
910.471	0.0163367
910.549	0.0163556
910.627	0.0163248
910.705	0.0161378
910.783	0.0164044
910.861	0.0162990
910.939	0.0163642
911.017	0.0163711
911.096	0.0163329
911.174	0.0163984
911.252	0.0163837
911.330	0.0163908
911.408	0.0162075
911.486	0.0163965
911.564	0.0164041
911.642	0.0164323
911.721	0.0164156
911.799	0.0164129
911.877	0.0164068
911.955	0.0164436
912.033	0.0163483
912.111	0.0162300
912.189	0.0162976
912.267	0.0163422
912.346	0.0163438
912.424	0.0162925
912.502	0.0163500
912.580	0.0164336
912.658	0.0163499
912.736	0.0162823
912.814	0.0164264
912.892	0.0164079
912.971	0.0164491
913.049	0.0163277
913.127	0.0163826
913.205	0.0164253
913.283	0.0164368
913.361	0.0164945
913.439	0.0164819
913.517	0.0163004
913.596	0.0164371
913.674	0.0163971
913.752	0.0163354
913.830	0.0164360
913.908	0.0163848
913.986	0.0162961
914.064	0.0163242
914.142	0.0163510
914.221	0.0162302
914.299	0.0162403
914.377	0.0161217
914.455	0.0162051
914.533	0.0162496
914.611	0.0162404
914.689	0.0161774
914.767	0.0161962
914.846	0.0162307
914.924	0.0160610
915.002	0.0160509
915.080	0.0162862
915.158	0.0162520
915.236	0.0162481
915.314	0.0162392
915.392	0.0162586
915.471	0.0164657
915.549	0.0163712
915.627	0.0162572
915.705	0.0163238
915.783	0.0164139
915.861	0.0163276
915.939	0.0161456
916.017	0.0163851
916.096	0.0164334
916.174	0.0164569
916.252	0.0163294
916.330	0.0163012
916.408	0.0162498
916.486	0.0162444
916.564	0.0162428
916.642	0.0163300
916.721	0.0162693
916.799	0.0163830
916.877	0.0162130
916.955	0.0162538
917.033	0.0163539
917.111	0.0163461
917.189	0.0163495
917.267	0.0164068
917.346	0.0162757
917.424	0.0163716
917.502	0.0163625
917.580	0.0161967
917.658	0.0162920
917.736	0.0163612
917.814	0.0162796
917.892	0.0163737
917.971	0.0163499
918.049	0.0162877
918.127	0.0161157
918.205	0.0162086
918.283	0.0163524
918.361	0.0161638
918.439	0.0161700
918.517	0.0162559
918.596	0.0162003
918.674	0.0162209
918.752	0.0162492
918.830	0.0163021
918.908	0.0163200
918.986	0.0163113
919.064	0.0163138
919.142	0.0163567
919.221	0.0161703
919.299	0.0163051
919.377	0.0164230
919.455	0.0163135
919.533	0.0162641
919.611	0.0164055
919.689	0.0162919
919.767	0.0164496
919.846	0.0162351
919.924	0.0163557
