06/29/2022	21:36:29	Ver.	4.1	UNKNOWN
Optical Delay	600.001752	Delta X		0.078125	Sweeps	1	Scan Rate	0/0
Coordinates	Axis 1	NaN	Axis 2	NaN	Axis 3	NaN	Axis 4	NaN	Axis 5	NaN	Axis 6	0.000000
TX Power	0.000000	RX Power	0.000000

600.002	0.0162315
600.080	0.0161446
600.158	0.0161508
600.236	0.0160881
600.314	0.0160929
600.392	0.0161851
600.471	0.0161776
600.549	0.0160993
600.627	0.0161683
600.705	0.0160811
600.783	0.0160591
600.861	0.0161691
600.939	0.0160401
601.017	0.0159451
601.096	0.0160503
601.174	0.0159660
601.252	0.0159750
601.330	0.0160487
601.408	0.0161455
601.486	0.0159809
601.564	0.0159811
601.642	0.0159330
601.721	0.0160715
601.799	0.0160139
601.877	0.0159386
601.955	0.0159542
602.033	0.0160748
602.111	0.0159341
602.189	0.0159729
602.267	0.0160591
602.346	0.0161716
602.424	0.0160738
602.502	0.0160736
602.580	0.0160430
602.658	0.0160531
602.736	0.0160354
602.814	0.0159319
602.892	0.0160223
602.971	0.0159839
603.049	0.0159596
603.127	0.0159720
603.205	0.0159976
603.283	0.0160621
603.361	0.0160866
603.439	0.0159290
603.517	0.0160748
603.596	0.0160799
603.674	0.0159975
603.752	0.0160883
603.830	0.0161012
603.908	0.0160269
603.986	0.0159551
604.064	0.0160918
604.142	0.0161388
604.221	0.0160323
604.299	0.0159793
604.377	0.0161106
604.455	0.0160573
604.533	0.0160707
604.611	0.0161349
604.689	0.0161303
604.767	0.0160652
604.846	0.0160283
604.924	0.0160987
605.002	0.0160125
605.080	0.0161712
605.158	0.0160441
605.236	0.0161104
605.314	0.0161306
605.392	0.0160542
605.471	0.0161572
605.549	0.0162077
605.627	0.0160367
605.705	0.0161494
605.783	0.0161807
605.861	0.0161409
605.939	0.0162415
606.017	0.0160519
606.096	0.0162313
606.174	0.0162009
606.252	0.0161113
606.330	0.0161180
606.408	0.0162685
606.486	0.0161262
606.564	0.0162164
606.642	0.0162302
606.721	0.0163673
606.799	0.0161137
606.877	0.0160751
606.955	0.0159872
607.033	0.0162402
607.111	0.0162359
607.189	0.0162978
607.267	0.0162740
607.346	0.0164308
607.424	0.0161379
607.502	0.0160790
607.580	0.0163354
607.658	0.0161881
607.736	0.0162272
607.814	0.0163076
607.892	0.0162841
607.971	0.0163801
608.049	0.0162537
608.127	0.0163064
608.205	0.0162611
608.283	0.0162677
608.361	0.0163288
608.439	0.0163949
608.517	0.0162575
608.596	0.0162016
608.674	0.0162600
608.752	0.0162113
608.830	0.0162688
608.908	0.0161848
608.986	0.0161103
609.064	0.0162222
609.142	0.0161308
609.221	0.0161689
609.299	0.0164050
609.377	0.0161350
609.455	0.0161019
609.533	0.0162373
609.611	0.0163341
609.689	0.0162103
609.767	0.0161591
609.846	0.0162234
609.924	0.0161340
610.002	0.0164104
610.080	0.0162015
610.158	0.0161341
610.236	0.0161597
610.314	0.0161217
610.392	0.0162721
610.471	0.0162658
610.549	0.0161758
610.627	0.0163206
610.705	0.0162471
610.783	0.0161568
610.861	0.0161346
610.939	0.0162463
611.017	0.0162020
611.096	0.0160988
611.174	0.0159663
611.252	0.0161010
611.330	0.0161601
611.408	0.0160827
611.486	0.0162752
611.564	0.0161858
611.642	0.0160711
611.721	0.0161363
611.799	0.0161970
611.877	0.0161853
611.955	0.0163351
612.033	0.0161645
612.111	0.0160075
612.189	0.0160986
612.267	0.0160722
612.346	0.0161765
612.424	0.0160021
612.502	0.0160823
612.580	0.0160938
612.658	0.0159964
612.736	0.0160889
612.814	0.0159973
612.892	0.0161097
612.971	0.0161333
613.049	0.0162101
613.127	0.0161774
613.205	0.0160783
613.283	0.0160613
613.361	0.0160310
613.439	0.0160228
613.517	0.0161933
613.596	0.0160873
613.674	0.0160816
613.752	0.0161150
613.830	0.0161071
613.908	0.0160175
613.986	0.0160954
614.064	0.0161430
614.142	0.0161024
614.221	0.0159820
614.299	0.0160612
614.377	0.0160638
614.455	0.0160236
614.533	0.0159510
614.611	0.0161620
614.689	0.0161674
614.767	0.0159823
614.846	0.0158482
614.924	0.0160561
615.002	0.0160375
615.080	0.0160570
615.158	0.0158961
615.236	0.0160645
615.314	0.0160555
615.392	0.0161607
615.471	0.0161189
615.549	0.0159718
615.627	0.0163004
615.705	0.0161350
615.783	0.0161491
615.861	0.0160300
615.939	0.0159574
616.017	0.0161179
616.096	0.0162495
616.174	0.0161830
616.252	0.0160327
616.330	0.0161455
616.408	0.0161341
616.486	0.0161942
616.564	0.0162051
616.642	0.0160157
616.721	0.0162639
616.799	0.0161726
616.877	0.0160730
616.955	0.0161446
617.033	0.0161526
617.111	0.0162605
617.189	0.0160741
617.267	0.0159924
617.346	0.0161328
617.424	0.0162151
617.502	0.0160518
617.580	0.0161037
617.658	0.0162261
617.736	0.0161128
617.814	0.0161909
617.892	0.0161170
617.971	0.0163029
618.049	0.0160661
618.127	0.0159338
618.205	0.0160967
618.283	0.0160958
618.361	0.0161479
618.439	0.0161350
618.517	0.0160894
618.596	0.0160812
618.674	0.0161212
618.752	0.0162256
618.830	0.0160242
618.908	0.0161300
618.986	0.0161803
619.064	0.0161550
619.142	0.0161176
619.221	0.0161098
619.299	0.0162215
619.377	0.0161421
619.455	0.0162253
619.533	0.0163247
619.611	0.0160558
619.689	0.0160689
619.767	0.0161893
619.846	0.0161187
619.924	0.0160851
620.002	0.0161348
620.080	0.0161224
620.158	0.0161960
620.236	0.0162126
620.314	0.0161881
620.392	0.0161142
620.471	0.0160583
620.549	0.0161089
620.627	0.0163699
620.705	0.0161701
620.783	0.0161114
620.861	0.0162145
620.939	0.0162556
621.017	0.0162595
621.096	0.0162350
621.174	0.0163464
621.252	0.0162133
621.330	0.0161913
621.408	0.0162756
621.486	0.0161967
621.564	0.0162323
621.642	0.0160601
621.721	0.0162113
621.799	0.0163328
621.877	0.0160680
621.955	0.0160943
622.033	0.0162754
622.111	0.0162257
622.189	0.0160833
622.267	0.0162088
622.346	0.0160854
622.424	0.0161369
622.502	0.0161958
622.580	0.0162370
622.658	0.0162236
622.736	0.0163017
622.814	0.0161242
622.892	0.0159801
622.971	0.0161493
623.049	0.0161223
623.127	0.0160883
623.205	0.0162077
623.283	0.0161295
623.361	0.0161337
623.439	0.0161533
623.517	0.0161795
623.596	0.0161581
623.674	0.0160287
623.752	0.0161538
623.830	0.0162743
623.908	0.0159286
623.986	0.0160094
624.064	0.0160818
624.142	0.0161052
624.221	0.0162078
624.299	0.0160891
624.377	0.0161226
624.455	0.0161146
624.533	0.0160475
624.611	0.0161214
624.689	0.0160702
624.767	0.0161348
624.846	0.0161020
624.924	0.0161561
625.002	0.0161792
625.080	0.0162264
625.158	0.0160838
625.236	0.0160931
625.314	0.0161111
625.392	0.0161433
625.471	0.0161648
625.549	0.0161835
625.627	0.0160471
625.705	0.0161855
625.783	0.0160699
625.861	0.0160213
625.939	0.0160546
626.017	0.0158910
626.096	0.0160638
626.174	0.0161341
626.252	0.0160023
626.330	0.0160748
626.408	0.0161919
626.486	0.0161172
626.564	0.0160729
626.642	0.0160334
626.721	0.0160300
626.799	0.0161436
626.877	0.0160284
626.955	0.0161732
627.033	0.0161020
627.111	0.0158942
627.189	0.0161024
627.267	0.0160381
627.346	0.0160738
627.424	0.0160832
627.502	0.0159883
627.580	0.0159413
627.658	0.0159853
627.736	0.0161640
627.814	0.0160654
627.892	0.0161016
627.971	0.0160677
628.049	0.0159169
628.127	0.0160324
628.205	0.0160857
628.283	0.0159661
628.361	0.0160787
628.439	0.0160249
628.517	0.0161393
628.596	0.0161210
628.674	0.0161124
628.752	0.0161214
628.830	0.0161185
628.908	0.0159642
628.986	0.0159754
629.064	0.0161668
629.142	0.0160429
629.221	0.0162407
629.299	0.0160938
629.377	0.0160956
629.455	0.0159480
629.533	0.0161398
629.611	0.0161935
629.689	0.0161806
629.767	0.0162114
629.846	0.0160806
629.924	0.0160723
630.002	0.0163033
630.080	0.0160481
630.158	0.0160010
630.236	0.0160610
630.314	0.0161317
630.392	0.0161927
630.471	0.0161650
630.549	0.0160967
630.627	0.0160271
630.705	0.0160092
630.783	0.0160685
630.861	0.0161175
630.939	0.0161048
631.017	0.0158987
631.096	0.0160482
631.174	0.0160265
631.252	0.0160922
631.330	0.0161854
631.408	0.0161972
631.486	0.0161649
631.564	0.0160343
631.642	0.0160015
631.721	0.0161609
631.799	0.0160515
631.877	0.0159221
631.955	0.0160464
632.033	0.0161880
632.111	0.0161238
632.189	0.0161522
632.267	0.0160580
632.346	0.0159805
632.424	0.0161079
632.502	0.0161965
632.580	0.0161127
632.658	0.0160624
632.736	0.0160265
632.814	0.0160883
632.892	0.0159858
632.971	0.0160979
633.049	0.0160790
633.127	0.0160156
633.205	0.0160639
633.283	0.0161217
633.361	0.0160236
633.439	0.0160506
633.517	0.0159898
633.596	0.0161239
633.674	0.0160678
633.752	0.0160387
633.830	0.0160820
633.908	0.0161288
633.986	0.0160202
634.064	0.0160378
634.142	0.0160116
634.221	0.0160509
634.299	0.0160486
634.377	0.0159583
634.455	0.0160632
634.533	0.0160717
634.611	0.0159242
634.689	0.0159988
634.767	0.0160552
634.846	0.0160907
634.924	0.0160237
635.002	0.0159486
635.080	0.0159528
635.158	0.0159481
635.236	0.0159721
635.314	0.0160851
635.392	0.0160622
635.471	0.0161177
635.549	0.0158286
635.627	0.0158925
635.705	0.0159946
635.783	0.0160394
635.861	0.0159785
635.939	0.0161549
636.017	0.0159617
636.096	0.0158829
636.174	0.0160097
636.252	0.0160307
636.330	0.0159835
636.408	0.0160201
636.486	0.0159026
636.564	0.0158369
636.642	0.0159076
636.721	0.0159031
636.799	0.0160462
636.877	0.0160419
636.955	0.0160950
637.033	0.0160887
637.111	0.0161496
637.189	0.0159560
637.267	0.0160283
637.346	0.0160521
637.424	0.0160353
637.502	0.0161924
637.580	0.0159554
637.658	0.0160608
637.736	0.0160014
637.814	0.0161234
637.892	0.0159591
637.971	0.0160340
638.049	0.0159959
638.127	0.0159364
638.205	0.0159304
638.283	0.0160567
638.361	0.0159930
638.439	0.0160407
638.517	0.0159785
638.596	0.0160586
638.674	0.0160477
638.752	0.0159148
638.830	0.0158543
638.908	0.0160452
638.986	0.0161105
639.064	0.0161039
639.142	0.0160347
639.221	0.0160873
639.299	0.0160184
639.377	0.0160923
639.455	0.0160738
639.533	0.0159799
639.611	0.0160007
639.689	0.0160043
639.767	0.0160484
639.846	0.0161198
639.924	0.0160880
640.002	0.0160400
640.080	0.0160957
640.158	0.0162766
640.236	0.0162026
640.314	0.0160759
640.392	0.0161611
640.471	0.0161866
640.549	0.0161392
640.627	0.0162041
640.705	0.0162409
640.783	0.0161226
640.861	0.0161076
640.939	0.0162118
641.017	0.0162159
641.096	0.0161306
641.174	0.0161212
641.252	0.0161440
641.330	0.0160296
641.408	0.0162057
641.486	0.0161781
641.564	0.0160748
641.642	0.0161025
641.721	0.0160940
641.799	0.0161999
641.877	0.0162038
641.955	0.0161344
642.033	0.0161337
642.111	0.0162222
642.189	0.0161150
642.267	0.0161493
642.346	0.0161572
642.424	0.0162041
642.502	0.0162801
642.580	0.0161650
642.658	0.0160709
642.736	0.0163181
642.814	0.0162714
642.892	0.0162398
642.971	0.0162733
643.049	0.0161415
643.127	0.0161871
643.205	0.0162613
643.283	0.0162689
643.361	0.0161713
643.439	0.0161628
643.517	0.0161691
643.596	0.0162553
643.674	0.0162698
643.752	0.0163291
643.830	0.0161251
643.908	0.0161013
643.986	0.0162412
644.064	0.0161932
644.142	0.0161386
644.221	0.0160832
644.299	0.0161595
644.377	0.0163610
644.455	0.0162196
644.533	0.0162596
644.611	0.0161461
644.689	0.0162353
644.767	0.0161416
644.846	0.0161100
644.924	0.0163876
645.002	0.0162586
645.080	0.0162194
645.158	0.0161681
645.236	0.0161056
645.314	0.0161246
645.392	0.0161391
645.471	0.0162085
645.549	0.0162236
645.627	0.0161594
645.705	0.0161285
645.783	0.0161683
645.861	0.0160957
645.939	0.0161346
646.017	0.0162450
646.096	0.0161712
646.174	0.0161330
646.252	0.0161417
646.330	0.0160914
646.408	0.0161700
646.486	0.0161078
646.564	0.0160881
646.642	0.0160606
646.721	0.0161514
646.799	0.0160597
646.877	0.0160496
646.955	0.0160288
647.033	0.0161728
647.111	0.0160769
647.189	0.0161335
647.267	0.0159865
647.346	0.0161220
647.424	0.0162498
647.502	0.0161669
647.580	0.0159760
647.658	0.0160953
647.736	0.0160381
647.814	0.0160472
647.892	0.0160719
647.971	0.0161118
648.049	0.0160903
648.127	0.0161068
648.205	0.0161797
648.283	0.0160237
648.361	0.0160958
648.439	0.0161503
648.517	0.0163117
648.596	0.0160749
648.674	0.0160639
648.752	0.0161093
648.830	0.0160935
648.908	0.0159645
648.986	0.0161384
649.064	0.0160649
649.142	0.0159612
649.221	0.0160885
649.299	0.0162959
649.377	0.0161330
649.455	0.0160184
649.533	0.0161580
649.611	0.0160561
649.689	0.0160017
649.767	0.0160503
649.846	0.0160300
649.924	0.0160886
650.002	0.0160378
650.080	0.0160620
650.158	0.0162052
650.236	0.0160063
650.314	0.0161136
650.392	0.0161354
650.471	0.0161225
650.549	0.0161332
650.627	0.0160772
650.705	0.0161696
650.783	0.0161467
650.861	0.0158377
650.939	0.0159574
651.017	0.0160818
651.096	0.0162285
651.174	0.0159250
651.252	0.0160001
651.330	0.0160347
651.408	0.0161122
651.486	0.0161096
651.564	0.0159127
651.642	0.0160655
651.721	0.0162284
651.799	0.0160615
651.877	0.0161055
651.955	0.0160011
652.033	0.0159823
652.111	0.0161582
652.189	0.0162845
652.267	0.0159789
652.346	0.0160940
652.424	0.0159964
652.502	0.0160633
652.580	0.0162174
652.658	0.0161414
652.736	0.0160569
652.814	0.0159547
652.892	0.0160603
652.971	0.0161666
653.049	0.0157520
653.127	0.0160088
653.205	0.0161724
653.283	0.0160264
653.361	0.0160947
653.439	0.0160429
653.517	0.0161398
653.596	0.0162168
653.674	0.0161118
653.752	0.0161286
653.830	0.0160075
653.908	0.0159876
653.986	0.0161571
654.064	0.0160190
654.142	0.0161045
654.221	0.0162124
654.299	0.0162609
654.377	0.0160431
654.455	0.0159865
654.533	0.0160221
654.611	0.0160206
654.689	0.0160889
654.767	0.0161857
654.846	0.0160265
654.924	0.0160880
655.002	0.0160738
655.080	0.0159975
655.158	0.0161231
655.236	0.0160684
655.314	0.0160982
655.392	0.0159498
655.471	0.0160386
655.549	0.0161475
655.627	0.0161517
655.705	0.0160396
655.783	0.0160187
655.861	0.0160958
655.939	0.0161343
656.017	0.0161446
656.096	0.0160922
656.174	0.0161349
656.252	0.0162212
656.330	0.0161779
656.408	0.0161336
656.486	0.0160271
656.564	0.0160239
656.642	0.0160880
656.721	0.0160316
656.799	0.0161531
656.877	0.0160366
656.955	0.0160799
657.033	0.0160631
657.111	0.0160780
657.189	0.0161183
657.267	0.0161047
657.346	0.0160697
657.424	0.0160992
657.502	0.0162008
657.580	0.0161219
657.658	0.0161131
657.736	0.0160091
657.814	0.0161775
657.892	0.0161971
657.971	0.0161523
658.049	0.0161155
658.127	0.0160175
658.205	0.0161466
658.283	0.0162090
658.361	0.0162214
658.439	0.0161032
658.517	0.0160541
658.596	0.0160432
658.674	0.0161659
658.752	0.0161209
658.830	0.0160215
658.908	0.0160534
658.986	0.0161448
659.064	0.0160980
659.142	0.0160372
659.221	0.0160974
659.299	0.0160902
659.377	0.0161192
659.455	0.0161855
659.533	0.0161940
659.611	0.0160219
659.689	0.0160830
659.767	0.0161583
659.846	0.0161338
659.924	0.0160700
660.002	0.0161543
660.080	0.0162255
660.158	0.0160732
660.236	0.0160300
660.314	0.0160086
660.392	0.0160777
660.471	0.0161241
660.549	0.0160906
660.627	0.0160590
660.705	0.0160461
660.783	0.0160970
660.861	0.0160511
660.939	0.0161531
661.017	0.0161039
661.096	0.0158900
661.174	0.0160524
661.252	0.0160538
661.330	0.0160965
661.408	0.0160593
661.486	0.0161138
661.564	0.0160529
661.642	0.0160811
661.721	0.0160691
661.799	0.0160170
661.877	0.0160947
661.955	0.0160897
662.033	0.0160570
662.111	0.0159637
662.189	0.0159089
662.267	0.0161228
662.346	0.0160443
662.424	0.0159451
662.502	0.0160696
662.580	0.0160478
662.658	0.0161027
662.736	0.0161085
662.814	0.0161482
662.892	0.0160511
662.971	0.0158268
663.049	0.0160600
663.127	0.0160139
663.205	0.0159534
663.283	0.0161394
663.361	0.0160693
663.439	0.0159559
663.517	0.0160069
663.596	0.0161411
663.674	0.0160603
663.752	0.0160278
663.830	0.0161369
663.908	0.0161404
663.986	0.0161165
664.064	0.0160652
664.142	0.0160390
664.221	0.0161205
664.299	0.0161469
664.377	0.0161760
664.455	0.0162057
664.533	0.0160656
664.611	0.0161770
664.689	0.0160184
664.767	0.0162001
664.846	0.0162464
664.924	0.0160781
665.002	0.0162324
665.080	0.0161028
665.158	0.0161613
665.236	0.0161875
665.314	0.0160909
665.392	0.0162527
665.471	0.0162180
665.549	0.0162086
665.627	0.0161283
665.705	0.0161633
665.783	0.0161132
665.861	0.0162249
665.939	0.0161029
666.017	0.0161784
666.096	0.0163122
666.174	0.0162535
666.252	0.0162492
666.330	0.0161814
666.408	0.0163969
666.486	0.0161889
666.564	0.0162910
666.642	0.0162401
666.721	0.0161156
666.799	0.0161971
666.877	0.0162708
666.955	0.0160329
667.033	0.0161171
667.111	0.0162068
667.189	0.0161576
667.267	0.0162455
667.346	0.0163586
667.424	0.0163497
667.502	0.0162422
667.580	0.0162315
667.658	0.0161361
667.736	0.0161992
667.814	0.0162598
667.892	0.0161982
667.971	0.0162862
668.049	0.0163624
668.127	0.0162714
668.205	0.0162740
668.283	0.0160947
668.361	0.0163842
668.439	0.0162824
668.517	0.0162302
668.596	0.0161700
668.674	0.0162949
668.752	0.0161666
668.830	0.0161613
668.908	0.0164206
668.986	0.0163006
669.064	0.0162262
669.142	0.0162484
669.221	0.0162179
669.299	0.0160874
669.377	0.0161670
669.455	0.0160898
669.533	0.0162909
669.611	0.0162249
669.689	0.0161648
669.767	0.0162468
669.846	0.0162634
669.924	0.0161826
670.002	0.0160822
670.080	0.0161221
670.158	0.0161401
670.236	0.0161556
670.314	0.0161011
670.392	0.0160571
670.471	0.0163072
670.549	0.0160893
670.627	0.0158881
670.705	0.0160742
670.783	0.0161983
670.861	0.0162376
670.939	0.0162193
671.017	0.0161766
671.096	0.0162206
671.174	0.0161447
671.252	0.0160990
671.330	0.0160480
671.408	0.0160553
671.486	0.0160924
671.564	0.0161453
671.642	0.0162379
671.721	0.0161833
671.799	0.0160086
671.877	0.0160820
671.955	0.0161276
672.033	0.0162189
672.111	0.0161465
672.189	0.0161498
672.267	0.0161201
672.346	0.0160893
672.424	0.0160175
672.502	0.0161455
672.580	0.0160234
672.658	0.0161839
672.736	0.0161579
672.814	0.0162181
672.892	0.0162131
672.971	0.0160287
673.049	0.0160355
673.127	0.0162530
673.205	0.0161523
673.283	0.0161300
673.361	0.0161948
673.439	0.0161439
673.517	0.0162257
673.596	0.0159818
673.674	0.0161494
673.752	0.0161698
673.830	0.0161206
673.908	0.0160774
673.986	0.0162331
674.064	0.0161925
674.142	0.0160684
674.221	0.0161174
674.299	0.0161183
674.377	0.0161127
674.455	0.0161979
674.533	0.0160545
674.611	0.0160393
674.689	0.0161473
674.767	0.0159717
674.846	0.0160395
674.924	0.0161691
675.002	0.0160847
675.080	0.0161658
675.158	0.0161197
675.236	0.0162868
675.314	0.0161558
675.392	0.0161334
675.471	0.0160770
675.549	0.0162450
675.627	0.0162612
675.705	0.0162223
675.783	0.0162098
675.861	0.0160924
675.939	0.0161240
676.017	0.0161251
676.096	0.0161388
676.174	0.0161619
676.252	0.0160825
676.330	0.0161941
676.408	0.0161881
676.486	0.0161092
676.564	0.0160009
676.642	0.0163371
676.721	0.0161065
676.799	0.0160120
676.877	0.0160651
676.955	0.0162082
677.033	0.0162223
677.111	0.0160397
677.189	0.0162110
677.267	0.0160428
677.346	0.0161230
677.424	0.0162073
677.502	0.0161166
677.580	0.0159924
677.658	0.0161067
677.736	0.0161082
677.814	0.0161263
677.892	0.0161254
677.971	0.0161108
678.049	0.0162264
678.127	0.0161610
678.205	0.0160522
678.283	0.0161031
678.361	0.0161928
678.439	0.0161301
678.517	0.0160616
678.596	0.0161694
678.674	0.0161504
678.752	0.0160533
678.830	0.0161022
678.908	0.0160524
678.986	0.0160594
679.064	0.0162697
679.142	0.0161218
679.221	0.0160210
679.299	0.0160549
679.377	0.0161051
679.455	0.0162376
679.533	0.0161856
679.611	0.0162393
679.689	0.0162057
679.767	0.0162337
679.846	0.0161043
679.924	0.0160798
680.002	0.0161749
680.080	0.0162084
680.158	0.0161424
680.236	0.0160583
680.314	0.0160867
680.392	0.0161521
680.471	0.0160693
680.549	0.0161155
680.627	0.0160146
680.705	0.0160040
680.783	0.0161517
680.861	0.0161124
680.939	0.0161253
681.017	0.0161645
681.096	0.0161140
681.174	0.0161420
681.252	0.0161846
681.330	0.0161438
681.408	0.0160315
681.486	0.0162565
681.564	0.0161509
681.642	0.0161774
681.721	0.0160602
681.799	0.0161810
681.877	0.0160985
681.955	0.0161191
682.033	0.0162130
682.111	0.0161716
682.189	0.0161143
682.267	0.0161846
682.346	0.0160805
682.424	0.0159309
682.502	0.0161817
682.580	0.0161740
682.658	0.0161788
682.736	0.0162224
682.814	0.0162188
682.892	0.0161697
682.971	0.0160212
683.049	0.0160993
683.127	0.0161070
683.205	0.0161084
683.283	0.0161211
683.361	0.0162253
683.439	0.0161636
683.517	0.0160645
683.596	0.0160764
683.674	0.0161703
683.752	0.0161201
683.830	0.0161412
683.908	0.0160941
683.986	0.0159921
684.064	0.0160349
684.142	0.0160702
684.221	0.0161407
684.299	0.0161819
684.377	0.0160715
684.455	0.0161624
684.533	0.0162004
684.611	0.0160484
684.689	0.0160528
684.767	0.0160692
684.846	0.0161454
684.924	0.0161034
685.002	0.0161172
685.080	0.0160517
685.158	0.0162428
685.236	0.0160619
685.314	0.0160255
685.392	0.0161977
685.471	0.0161286
685.549	0.0160637
685.627	0.0161945
685.705	0.0160979
685.783	0.0160368
685.861	0.0160709
685.939	0.0161162
686.017	0.0161610
686.096	0.0161084
686.174	0.0161089
686.252	0.0161544
686.330	0.0160681
686.408	0.0162131
686.486	0.0163272
686.564	0.0163811
686.642	0.0163866
686.721	0.0162420
686.799	0.0162466
686.877	0.0161720
686.955	0.0162426
687.033	0.0163082
687.111	0.0162492
687.189	0.0162132
687.267	0.0161815
687.346	0.0163390
687.424	0.0163197
687.502	0.0161626
687.580	0.0161565
687.658	0.0162716
687.736	0.0161472
687.814	0.0162550
687.892	0.0161108
687.971	0.0162074
688.049	0.0162024
688.127	0.0161971
688.205	0.0162555
688.283	0.0161786
688.361	0.0162035
688.439	0.0162118
688.517	0.0162910
688.596	0.0161449
688.674	0.0162282
688.752	0.0161870
688.830	0.0161631
688.908	0.0162360
688.986	0.0163164
689.064	0.0162103
689.142	0.0162543
689.221	0.0161831
689.299	0.0162096
689.377	0.0163535
689.455	0.0162581
689.533	0.0162872
689.611	0.0162301
689.689	0.0161958
689.767	0.0161493
689.846	0.0161924
689.924	0.0162248
690.002	0.0162021
690.080	0.0161971
690.158	0.0161214
690.236	0.0161263
690.314	0.0161330
690.392	0.0161862
690.471	0.0162556
690.549	0.0162172
690.627	0.0161420
690.705	0.0161271
690.783	0.0161057
690.861	0.0160104
690.939	0.0161086
691.017	0.0161765
691.096	0.0160691
691.174	0.0161125
691.252	0.0161281
691.330	0.0161298
691.408	0.0160766
691.486	0.0161174
691.564	0.0161186
691.642	0.0160915
691.721	0.0161446
691.799	0.0160947
691.877	0.0161170
691.955	0.0163357
692.033	0.0161270
692.111	0.0161922
692.189	0.0161529
692.267	0.0161485
692.346	0.0162777
692.424	0.0162234
692.502	0.0160714
692.580	0.0161312
692.658	0.0163571
692.736	0.0162536
692.814	0.0161803
692.892	0.0162334
692.971	0.0161721
693.049	0.0161652
693.127	0.0163554
693.205	0.0163358
693.283	0.0161619
693.361	0.0162692
693.439	0.0162478
693.517	0.0162222
693.596	0.0161565
693.674	0.0161565
693.752	0.0162547
693.830	0.0162350
693.908	0.0161413
693.986	0.0160798
694.064	0.0162453
694.142	0.0161163
694.221	0.0162581
694.299	0.0163028
694.377	0.0161514
694.455	0.0159828
694.533	0.0161347
694.611	0.0159911
694.689	0.0161304
694.767	0.0159263
694.846	0.0158742
694.924	0.0159881
695.002	0.0158713
695.080	0.0158705
695.158	0.0158522
695.236	0.0159031
695.314	0.0160706
695.392	0.0159200
695.471	0.0159391
695.549	0.0158176
695.627	0.0159171
695.705	0.0160414
695.783	0.0160309
695.861	0.0160713
695.939	0.0160728
696.017	0.0162325
696.096	0.0161961
696.174	0.0161647
696.252	0.0161202
696.330	0.0161702
696.408	0.0160394
696.486	0.0161294
696.564	0.0162582
696.642	0.0162206
696.721	0.0161566
696.799	0.0161550
696.877	0.0162196
696.955	0.0161944
697.033	0.0161752
697.111	0.0161805
697.189	0.0162390
697.267	0.0162653
697.346	0.0162404
697.424	0.0160728
697.502	0.0159979
697.580	0.0162258
697.658	0.0162320
697.736	0.0161283
697.814	0.0161520
697.892	0.0161588
697.971	0.0161588
698.049	0.0161515
698.127	0.0162135
698.205	0.0161919
698.283	0.0161470
698.361	0.0161336
698.439	0.0161354
698.517	0.0162245
698.596	0.0161858
698.674	0.0162341
698.752	0.0161829
698.830	0.0162183
698.908	0.0160966
698.986	0.0160886
699.064	0.0159875
699.142	0.0159142
699.221	0.0161103
699.299	0.0161210
699.377	0.0160992
699.455	0.0160864
699.533	0.0161225
699.611	0.0159614
699.689	0.0160193
699.767	0.0159731
699.846	0.0158928
699.924	0.0159113
700.002	0.0159535
700.080	0.0159866
700.158	0.0160188
700.236	0.0160011
700.314	0.0158406
700.392	0.0159123
700.471	0.0158739
700.549	0.0159505
700.627	0.0158121
700.705	0.0157650
700.783	0.0158377
700.861	0.0158157
700.939	0.0157004
701.017	0.0156676
701.096	0.0159166
701.174	0.0157788
701.252	0.0159058
701.330	0.0158475
701.408	0.0158438
701.486	0.0160052
701.564	0.0159330
701.642	0.0159870
701.721	0.0158860
701.799	0.0160794
701.877	0.0161205
701.955	0.0162164
702.033	0.0162777
702.111	0.0162697
702.189	0.0162088
702.267	0.0163734
702.346	0.0163802
702.424	0.0163335
702.502	0.0163425
702.580	0.0162025
702.658	0.0164112
702.736	0.0165435
702.814	0.0163792
702.892	0.0163044
702.971	0.0162428
703.049	0.0162435
703.127	0.0161337
703.205	0.0161858
703.283	0.0160108
703.361	0.0159586
703.439	0.0158544
703.517	0.0159337
703.596	0.0157759
703.674	0.0159422
703.752	0.0159470
703.830	0.0157642
703.908	0.0156764
703.986	0.0157587
704.064	0.0156936
704.142	0.0158313
704.221	0.0157063
704.299	0.0158476
704.377	0.0158670
704.455	0.0159075
704.533	0.0159899
704.611	0.0159840
704.689	0.0159915
704.767	0.0159882
704.846	0.0162698
704.924	0.0161702
705.002	0.0161671
705.080	0.0161877
705.158	0.0161790
705.236	0.0161851
705.314	0.0162405
705.392	0.0161066
705.471	0.0160810
705.549	0.0159241
705.627	0.0159715
705.705	0.0158597
705.783	0.0159603
705.861	0.0158433
705.939	0.0159814
706.017	0.0158567
706.096	0.0158887
706.174	0.0158746
706.252	0.0159248
706.330	0.0158507
706.408	0.0160040
706.486	0.0160378
706.564	0.0160262
706.642	0.0160503
706.721	0.0159676
706.799	0.0160809
706.877	0.0160561
706.955	0.0161467
707.033	0.0161637
707.111	0.0161491
707.189	0.0160626
707.267	0.0159726
707.346	0.0160184
707.424	0.0162473
707.502	0.0160771
707.580	0.0160894
707.658	0.0160970
707.736	0.0161492
707.814	0.0160614
707.892	0.0159706
707.971	0.0161135
708.049	0.0163433
708.127	0.0162294
708.205	0.0162455
708.283	0.0161199
708.361	0.0162216
708.439	0.0162848
708.517	0.0164280
708.596	0.0162293
708.674	0.0162161
708.752	0.0162531
708.830	0.0164019
708.908	0.0161276
708.986	0.0161143
709.064	0.0161217
709.142	0.0160917
709.221	0.0159980
709.299	0.0159422
709.377	0.0160840
709.455	0.0160690
709.533	0.0160407
709.611	0.0158483
709.689	0.0160271
709.767	0.0160412
709.846	0.0160429
709.924	0.0161410
710.002	0.0160122
710.080	0.0160049
710.158	0.0161893
710.236	0.0161514
710.314	0.0163202
710.392	0.0162727
710.471	0.0163311
710.549	0.0162870
710.627	0.0164096
710.705	0.0164642
710.783	0.0163222
710.861	0.0163319
710.939	0.0163728
711.017	0.0161889
711.096	0.0161267
711.174	0.0162822
711.252	0.0162096
711.330	0.0160521
711.408	0.0160342
711.486	0.0160480
711.564	0.0161189
711.642	0.0160066
711.721	0.0160040
711.799	0.0159708
711.877	0.0161050
711.955	0.0160436
712.033	0.0160258
712.111	0.0159535
712.189	0.0160678
712.267	0.0161532
712.346	0.0162395
712.424	0.0161771
712.502	0.0162028
712.580	0.0161825
712.658	0.0161657
712.736	0.0162238
712.814	0.0161637
712.892	0.0162239
712.971	0.0160075
713.049	0.0160130
713.127	0.0159970
713.205	0.0159958
713.283	0.0160054
713.361	0.0158614
713.439	0.0160599
713.517	0.0158380
713.596	0.0159207
713.674	0.0160619
713.752	0.0159340
713.830	0.0158645
713.908	0.0159180
713.986	0.0160569
714.064	0.0160892
714.142	0.0160839
714.221	0.0161199
714.299	0.0160776
714.377	0.0160686
714.455	0.0161935
714.533	0.0162315
714.611	0.0159624
714.689	0.0161203
714.767	0.0160912
714.846	0.0159766
714.924	0.0159770
715.002	0.0161263
715.080	0.0160043
715.158	0.0160347
715.236	0.0159057
715.314	0.0160052
715.392	0.0159608
715.471	0.0160796
715.549	0.0159645
715.627	0.0159446
715.705	0.0159380
715.783	0.0159831
715.861	0.0160558
715.939	0.0161759
716.017	0.0160658
716.096	0.0162462
716.174	0.0163182
716.252	0.0163232
716.330	0.0164256
716.408	0.0165449
716.486	0.0164016
716.564	0.0165593
716.642	0.0165995
716.721	0.0164748
716.799	0.0164854
716.877	0.0164734
716.955	0.0164462
717.033	0.0164166
717.111	0.0163980
717.189	0.0160806
717.267	0.0162948
717.346	0.0162646
717.424	0.0160983
717.502	0.0160624
717.580	0.0160522
717.658	0.0159602
717.736	0.0158190
717.814	0.0159150
717.892	0.0159408
717.971	0.0160748
718.049	0.0159187
718.127	0.0161284
718.205	0.0160713
718.283	0.0159808
718.361	0.0159680
718.439	0.0160190
718.517	0.0160878
718.596	0.0160659
718.674	0.0159607
718.752	0.0159233
718.830	0.0160770
718.908	0.0161488
718.986	0.0160481
719.064	0.0159329
719.142	0.0159248
719.221	0.0159576
719.299	0.0157477
719.377	0.0158197
719.455	0.0158530
719.533	0.0159560
719.611	0.0159798
719.689	0.0161131
719.767	0.0159525
719.846	0.0159791
719.924	0.0159628
720.002	0.0160011
720.080	0.0160597
720.158	0.0162053
720.236	0.0161248
720.314	0.0159555
720.392	0.0160210
720.471	0.0160361
720.549	0.0160939
720.627	0.0160512
720.705	0.0160775
720.783	0.0161146
720.861	0.0160043
720.939	0.0161523
721.017	0.0161435
721.096	0.0161548
721.174	0.0161282
721.252	0.0162703
721.330	0.0163297
721.408	0.0162407
721.486	0.0162603
721.564	0.0163926
721.642	0.0163024
721.721	0.0164053
721.799	0.0165294
721.877	0.0165086
721.955	0.0163599
722.033	0.0163992
722.111	0.0163191
722.189	0.0161871
722.267	0.0163103
722.346	0.0161579
722.424	0.0160635
722.502	0.0161124
722.580	0.0161453
722.658	0.0161060
722.736	0.0160645
722.814	0.0158549
722.892	0.0160772
722.971	0.0160224
723.049	0.0159254
723.127	0.0161300
723.205	0.0161745
723.283	0.0161135
723.361	0.0163003
723.439	0.0161702
723.517	0.0162341
723.596	0.0161998
723.674	0.0162866
723.752	0.0162537
723.830	0.0162553
723.908	0.0161935
723.986	0.0163100
724.064	0.0162119
724.142	0.0162228
724.221	0.0160450
724.299	0.0162885
724.377	0.0162187
724.455	0.0160870
724.533	0.0160604
724.611	0.0161383
724.689	0.0160928
724.767	0.0161114
724.846	0.0161572
724.924	0.0161906
725.002	0.0162543
725.080	0.0161037
725.158	0.0160325
725.236	0.0161677
725.314	0.0160950
725.392	0.0161691
725.471	0.0162654
725.549	0.0162018
725.627	0.0161301
725.705	0.0160586
725.783	0.0160241
725.861	0.0161591
725.939	0.0160493
726.017	0.0161729
726.096	0.0161223
726.174	0.0160735
726.252	0.0160338
726.330	0.0159446
726.408	0.0158176
726.486	0.0159690
726.564	0.0160329
726.642	0.0158123
726.721	0.0157803
726.799	0.0158007
726.877	0.0159294
726.955	0.0159230
727.033	0.0159300
727.111	0.0159422
727.189	0.0159501
727.267	0.0159251
727.346	0.0159630
727.424	0.0158976
727.502	0.0159653
727.580	0.0160117
727.658	0.0160225
727.736	0.0159559
727.814	0.0159281
727.892	0.0158479
727.971	0.0159827
728.049	0.0159994
728.127	0.0161196
728.205	0.0161662
728.283	0.0161404
728.361	0.0161279
728.439	0.0160221
728.517	0.0160819
728.596	0.0160672
728.674	0.0161584
728.752	0.0161260
728.830	0.0162623
728.908	0.0163055
728.986	0.0161700
729.064	0.0162505
729.142	0.0163061
729.221	0.0163377
729.299	0.0162857
729.377	0.0162507
729.455	0.0160670
729.533	0.0160223
729.611	0.0161520
729.689	0.0162025
729.767	0.0161016
729.846	0.0160561
729.924	0.0159824
730.002	0.0158062
730.080	0.0159584
730.158	0.0159185
730.236	0.0158782
730.314	0.0158175
730.392	0.0158461
730.471	0.0158652
730.549	0.0157719
730.627	0.0157665
730.705	0.0159277
730.783	0.0159579
730.861	0.0158917
730.939	0.0160542
731.017	0.0160925
731.096	0.0161697
731.174	0.0163638
731.252	0.0163259
731.330	0.0161787
731.408	0.0164560
731.486	0.0166664
731.564	0.0165565
731.642	0.0166003
731.721	0.0164338
731.799	0.0165836
731.877	0.0165873
731.955	0.0163728
732.033	0.0162244
732.111	0.0162967
732.189	0.0162639
732.267	0.0161013
732.346	0.0160114
732.424	0.0159315
732.502	0.0158704
732.580	0.0157730
732.658	0.0156519
732.736	0.0157858
732.814	0.0156239
732.892	0.0157319
732.971	0.0155807
733.049	0.0155028
733.127	0.0157010
733.205	0.0157166
733.283	0.0156860
733.361	0.0158559
733.439	0.0157304
733.517	0.0160199
733.596	0.0159443
733.674	0.0158876
733.752	0.0161059
733.830	0.0161879
733.908	0.0163234
733.986	0.0162832
734.064	0.0163257
734.142	0.0163187
734.221	0.0163837
734.299	0.0164518
734.377	0.0165009
734.455	0.0164471
734.533	0.0164462
734.611	0.0165443
734.689	0.0165202
734.767	0.0163860
734.846	0.0165022
734.924	0.0164761
735.002	0.0162196
735.080	0.0162478
735.158	0.0162233
735.236	0.0162933
735.314	0.0161305
735.392	0.0160229
735.471	0.0160466
735.549	0.0159294
735.627	0.0159030
735.705	0.0157246
735.783	0.0157729
735.861	0.0156888
735.939	0.0157875
736.017	0.0156120
736.096	0.0155636
736.174	0.0155411
736.252	0.0155980
736.330	0.0155834
736.408	0.0155718
736.486	0.0155997
736.564	0.0156699
736.642	0.0157111
736.721	0.0158288
736.799	0.0157328
736.877	0.0158610
736.955	0.0159606
737.033	0.0159334
737.111	0.0159310
737.189	0.0159656
737.267	0.0161610
737.346	0.0161002
737.424	0.0162078
737.502	0.0162210
737.580	0.0162901
737.658	0.0164339
737.736	0.0163874
737.814	0.0162731
737.892	0.0163781
737.971	0.0164398
738.049	0.0162579
738.127	0.0162913
738.205	0.0162584
738.283	0.0164165
738.361	0.0163878
738.439	0.0163864
738.517	0.0163136
738.596	0.0160989
738.674	0.0161446
738.752	0.0160156
738.830	0.0161310
738.908	0.0159969
738.986	0.0159556
739.064	0.0159145
739.142	0.0159019
739.221	0.0159241
739.299	0.0158533
739.377	0.0156818
739.455	0.0155953
739.533	0.0156418
739.611	0.0156475
739.689	0.0156699
739.767	0.0156931
739.846	0.0156960
739.924	0.0158436
740.002	0.0157532
740.080	0.0156812
740.158	0.0158689
740.236	0.0159035
740.314	0.0160461
740.392	0.0160588
740.471	0.0160711
740.549	0.0163673
740.627	0.0162807
740.705	0.0162048
740.783	0.0162656
740.861	0.0162557
740.939	0.0162904
741.017	0.0162052
741.096	0.0163935
741.174	0.0162659
741.252	0.0162859
741.330	0.0161481
741.408	0.0161040
741.486	0.0161149
741.564	0.0161037
741.642	0.0160419
741.721	0.0160689
741.799	0.0159836
741.877	0.0159774
741.955	0.0161679
742.033	0.0161658
742.111	0.0159686
742.189	0.0160787
742.267	0.0161133
742.346	0.0161975
742.424	0.0160833
742.502	0.0160975
742.580	0.0161977
742.658	0.0161881
742.736	0.0163071
742.814	0.0162839
742.892	0.0164574
742.971	0.0163605
743.049	0.0163574
743.127	0.0163963
743.205	0.0162829
743.283	0.0162629
743.361	0.0164985
743.439	0.0161877
743.517	0.0162970
743.596	0.0161933
743.674	0.0160801
743.752	0.0162086
743.830	0.0160753
743.908	0.0160547
743.986	0.0160895
744.064	0.0159933
744.142	0.0160502
744.221	0.0159177
744.299	0.0158681
744.377	0.0158461
744.455	0.0157424
744.533	0.0157168
744.611	0.0158562
744.689	0.0157619
744.767	0.0158319
744.846	0.0157711
744.924	0.0158655
745.002	0.0158659
745.080	0.0158340
745.158	0.0160235
745.236	0.0160607
745.314	0.0160307
745.392	0.0161476
745.471	0.0162365
745.549	0.0162520
745.627	0.0163053
745.705	0.0162996
745.783	0.0160309
745.861	0.0161501
745.939	0.0162772
746.017	0.0162214
746.096	0.0162756
746.174	0.0162274
746.252	0.0161496
746.330	0.0161286
746.408	0.0161771
746.486	0.0161380
746.564	0.0160944
746.642	0.0162270
746.721	0.0161382
746.799	0.0160894
746.877	0.0161254
746.955	0.0163153
747.033	0.0161056
747.111	0.0161276
747.189	0.0163451
747.267	0.0162669
747.346	0.0162528
747.424	0.0163649
747.502	0.0164209
747.580	0.0162946
747.658	0.0163792
747.736	0.0162778
747.814	0.0163871
747.892	0.0164342
747.971	0.0163173
748.049	0.0164244
748.127	0.0164870
748.205	0.0163865
748.283	0.0163311
748.361	0.0162816
748.439	0.0163478
748.517	0.0163902
748.596	0.0162437
748.674	0.0161742
748.752	0.0161187
748.830	0.0160435
748.908	0.0161174
748.986	0.0161121
749.064	0.0160085
749.142	0.0159191
749.221	0.0160231
749.299	0.0159537
749.377	0.0159023
749.455	0.0158883
749.533	0.0158591
749.611	0.0160046
749.689	0.0159212
749.767	0.0159361
749.846	0.0160713
749.924	0.0159104
750.002	0.0159756
750.080	0.0159920
750.158	0.0161309
750.236	0.0161086
750.314	0.0160471
750.392	0.0160999
750.471	0.0161139
750.549	0.0158897
750.627	0.0160211
750.705	0.0160674
750.783	0.0161207
750.861	0.0161446
750.939	0.0161299
751.017	0.0161221
751.096	0.0160101
751.174	0.0161410
751.252	0.0160406
751.330	0.0161650
751.408	0.0162093
751.486	0.0160938
751.564	0.0162332
751.642	0.0162756
751.721	0.0161315
751.799	0.0160600
751.877	0.0160493
751.955	0.0162468
752.033	0.0161782
752.111	0.0162959
752.189	0.0162900
752.267	0.0163272
752.346	0.0163994
752.424	0.0161657
752.502	0.0163672
752.580	0.0164113
752.658	0.0163207
752.736	0.0163805
752.814	0.0165385
752.892	0.0164999
752.971	0.0164614
753.049	0.0164496
753.127	0.0163544
753.205	0.0162630
753.283	0.0164453
753.361	0.0165404
753.439	0.0163874
753.517	0.0162473
753.596	0.0162788
753.674	0.0163271
753.752	0.0162911
753.830	0.0161769
753.908	0.0160704
753.986	0.0160708
754.064	0.0160378
754.142	0.0160104
754.221	0.0160091
754.299	0.0160307
754.377	0.0161053
754.455	0.0159595
754.533	0.0160234
754.611	0.0161246
754.689	0.0159218
754.767	0.0160868
754.846	0.0160521
754.924	0.0159263
755.002	0.0161715
755.080	0.0160475
755.158	0.0160448
755.236	0.0160871
755.314	0.0160435
755.392	0.0160787
755.471	0.0162325
755.549	0.0161140
755.627	0.0160561
755.705	0.0161234
755.783	0.0161179
755.861	0.0159555
755.939	0.0160029
756.017	0.0162115
756.096	0.0162807
756.174	0.0161335
756.252	0.0161725
756.330	0.0163324
756.408	0.0163637
756.486	0.0163453
756.564	0.0162199
756.642	0.0161732
756.721	0.0163217
756.799	0.0162373
756.877	0.0162999
756.955	0.0162939
757.033	0.0162090
757.111	0.0163857
757.189	0.0162886
757.267	0.0162314
757.346	0.0163158
757.424	0.0162733
757.502	0.0161433
757.580	0.0163376
757.658	0.0163516
757.736	0.0161906
757.814	0.0162711
757.892	0.0161785
757.971	0.0164209
758.049	0.0163177
758.127	0.0162002
758.205	0.0162174
758.283	0.0164325
758.361	0.0163066
758.439	0.0163608
758.517	0.0162827
758.596	0.0161582
758.674	0.0163307
758.752	0.0162247
758.830	0.0162727
758.908	0.0162470
758.986	0.0162218
759.064	0.0162305
759.142	0.0162270
759.221	0.0162569
759.299	0.0161707
759.377	0.0160471
759.455	0.0161422
759.533	0.0161694
759.611	0.0161253
759.689	0.0160886
759.767	0.0159093
759.846	0.0159568
759.924	0.0160243
760.002	0.0161089
760.080	0.0158949
760.158	0.0161091
760.236	0.0159866
760.314	0.0159213
760.392	0.0160799
760.471	0.0159937
760.549	0.0159966
760.627	0.0159361
760.705	0.0161045
760.783	0.0160524
760.861	0.0160962
760.939	0.0159812
761.017	0.0161069
761.096	0.0160790
761.174	0.0160822
761.252	0.0161548
761.330	0.0159901
761.408	0.0160436
761.486	0.0160248
761.564	0.0161011
761.642	0.0161179
761.721	0.0160783
761.799	0.0160252
761.877	0.0161299
761.955	0.0161073
762.033	0.0162094
762.111	0.0161217
762.189	0.0161153
762.267	0.0161095
762.346	0.0161996
762.424	0.0162681
762.502	0.0163217
762.580	0.0162555
762.658	0.0162504
762.736	0.0160934
762.814	0.0162749
762.892	0.0162749
762.971	0.0162441
763.049	0.0161710
763.127	0.0160951
763.205	0.0162366
763.283	0.0160901
763.361	0.0161257
763.439	0.0160843
763.517	0.0161111
763.596	0.0161550
763.674	0.0161343
763.752	0.0159923
763.830	0.0160696
763.908	0.0161127
763.986	0.0160509
764.064	0.0160209
764.142	0.0160983
764.221	0.0160455
764.299	0.0158815
764.377	0.0159513
764.455	0.0160446
764.533	0.0158933
764.611	0.0160440
764.689	0.0160078
764.767	0.0158787
764.846	0.0159840
764.924	0.0158627
765.002	0.0159212
765.080	0.0159300
765.158	0.0159698
765.236	0.0159419
765.314	0.0159011
765.392	0.0159468
765.471	0.0160204
765.549	0.0159555
765.627	0.0161383
765.705	0.0160640
765.783	0.0161679
765.861	0.0162657
765.939	0.0161369
766.017	0.0160986
766.096	0.0160881
766.174	0.0160737
766.252	0.0160104
766.330	0.0160023
766.408	0.0160909
766.486	0.0161217
766.564	0.0160981
766.642	0.0161732
766.721	0.0161943
766.799	0.0160864
766.877	0.0160068
766.955	0.0161839
767.033	0.0160381
767.111	0.0161217
767.189	0.0160532
767.267	0.0161790
767.346	0.0161225
767.424	0.0160051
767.502	0.0159309
767.580	0.0159939
767.658	0.0161100
767.736	0.0161074
767.814	0.0160296
767.892	0.0160914
767.971	0.0158905
768.049	0.0161729
768.127	0.0161896
768.205	0.0160197
768.283	0.0159914
768.361	0.0159918
768.439	0.0161168
768.517	0.0160528
768.596	0.0160054
768.674	0.0160356
768.752	0.0160519
768.830	0.0161559
768.908	0.0161221
768.986	0.0160440
769.064	0.0158943
769.142	0.0161758
769.221	0.0161707
769.299	0.0159713
769.377	0.0160214
769.455	0.0158359
769.533	0.0160905
769.611	0.0159028
769.689	0.0160887
769.767	0.0161209
769.846	0.0160162
769.924	0.0160869
770.002	0.0161411
770.080	0.0161220
770.158	0.0158934
770.236	0.0161780
770.314	0.0161816
770.392	0.0161494
770.471	0.0163858
770.549	0.0163909
770.627	0.0162621
770.705	0.0162383
770.783	0.0162543
770.861	0.0162541
770.939	0.0163721
771.017	0.0161984
771.096	0.0162895
771.174	0.0162028
771.252	0.0164099
771.330	0.0163232
771.408	0.0162714
771.486	0.0162742
771.564	0.0162366
771.642	0.0161823
771.721	0.0161237
771.799	0.0160500
771.877	0.0160207
771.955	0.0161866
772.033	0.0162314
772.111	0.0161651
772.189	0.0159710
772.267	0.0161531
772.346	0.0161081
772.424	0.0161302
772.502	0.0161328
772.580	0.0160696
772.658	0.0161827
772.736	0.0163345
772.814	0.0163071
772.892	0.0162375
772.971	0.0162224
773.049	0.0161098
773.127	0.0163077
773.205	0.0161897
773.283	0.0163819
773.361	0.0161817
773.439	0.0161318
773.517	0.0161709
773.596	0.0161716
773.674	0.0161585
773.752	0.0163189
773.830	0.0160995
773.908	0.0161320
773.986	0.0161530
774.064	0.0159925
774.142	0.0161024
774.221	0.0162061
774.299	0.0162173
774.377	0.0160101
774.455	0.0160342
774.533	0.0162714
774.611	0.0162624
774.689	0.0162098
774.767	0.0160827
774.846	0.0160835
774.924	0.0163271
775.002	0.0163058
775.080	0.0162626
775.158	0.0162906
775.236	0.0163084
775.314	0.0162545
775.392	0.0162720
775.471	0.0164234
775.549	0.0162695
775.627	0.0162695
775.705	0.0162294
775.783	0.0163381
775.861	0.0164359
775.939	0.0162084
776.017	0.0163426
776.096	0.0162309
776.174	0.0161729
776.252	0.0162234
776.330	0.0160783
776.408	0.0160672
776.486	0.0161073
776.564	0.0161524
776.642	0.0160462
776.721	0.0159758
776.799	0.0161160
776.877	0.0160509
776.955	0.0161498
777.033	0.0160733
777.111	0.0160802
777.189	0.0160613
777.267	0.0159507
777.346	0.0160602
777.424	0.0161121
777.502	0.0160457
777.580	0.0160963
777.658	0.0161703
777.736	0.0162159
777.814	0.0162209
777.892	0.0161356
777.971	0.0161929
778.049	0.0162075
778.127	0.0162410
778.205	0.0163339
778.283	0.0162135
778.361	0.0161726
778.439	0.0163112
778.517	0.0161760
778.596	0.0162746
778.674	0.0162122
778.752	0.0163051
778.830	0.0162050
778.908	0.0162786
778.986	0.0161018
779.064	0.0160870
779.142	0.0161602
779.221	0.0161880
779.299	0.0160239
779.377	0.0160147
779.455	0.0160757
779.533	0.0159890
779.611	0.0159860
779.689	0.0159016
779.767	0.0159198
779.846	0.0159812
779.924	0.0159562
780.002	0.0159621
780.080	0.0159948
780.158	0.0160297
780.236	0.0158668
780.314	0.0159620
780.392	0.0160255
780.471	0.0160660
780.549	0.0160993
780.627	0.0160568
780.705	0.0162520
780.783	0.0162914
780.861	0.0162855
780.939	0.0161358
781.017	0.0161000
781.096	0.0162052
781.174	0.0162946
781.252	0.0162524
781.330	0.0162589
781.408	0.0163025
781.486	0.0161551
781.564	0.0162617
781.642	0.0163094
781.721	0.0161996
781.799	0.0161790
781.877	0.0161324
781.955	0.0160973
782.033	0.0160839
782.111	0.0161105
782.189	0.0160586
782.267	0.0159552
782.346	0.0160062
782.424	0.0161294
782.502	0.0160757
782.580	0.0159671
782.658	0.0160934
782.736	0.0159368
782.814	0.0159563
782.892	0.0159814
782.971	0.0159366
783.049	0.0159473
783.127	0.0160957
783.205	0.0159539
783.283	0.0160738
783.361	0.0161563
783.439	0.0162026
783.517	0.0161110
783.596	0.0160501
783.674	0.0161468
783.752	0.0161652
783.830	0.0161084
783.908	0.0161265
783.986	0.0160596
784.064	0.0161381
784.142	0.0160878
784.221	0.0161948
784.299	0.0160889
784.377	0.0159396
784.455	0.0160818
784.533	0.0159477
784.611	0.0159011
784.689	0.0158863
784.767	0.0159780
784.846	0.0159913
784.924	0.0158807
785.002	0.0158062
785.080	0.0159708
785.158	0.0160056
785.236	0.0159151
785.314	0.0159135
785.392	0.0159809
785.471	0.0158947
785.549	0.0158136
785.627	0.0158836
785.705	0.0159074
785.783	0.0159846
785.861	0.0160471
785.939	0.0161404
786.017	0.0161336
786.096	0.0161530
786.174	0.0161031
786.252	0.0161509
786.330	0.0160893
786.408	0.0162323
786.486	0.0161367
786.564	0.0161405
786.642	0.0161823
786.721	0.0161545
786.799	0.0160803
786.877	0.0160715
786.955	0.0161308
787.033	0.0160944
787.111	0.0160691
787.189	0.0161645
787.267	0.0159539
787.346	0.0159373
787.424	0.0160258
787.502	0.0157819
787.580	0.0157877
787.658	0.0159056
787.736	0.0158600
787.814	0.0159488
787.892	0.0158530
787.971	0.0158198
788.049	0.0159413
788.127	0.0158124
788.205	0.0159373
788.283	0.0159013
788.361	0.0159429
788.439	0.0159675
788.517	0.0159135
788.596	0.0159666
788.674	0.0159371
788.752	0.0160653
788.830	0.0159186
788.908	0.0161729
788.986	0.0160851
789.064	0.0160453
789.142	0.0161227
789.221	0.0159961
789.299	0.0160168
789.377	0.0160457
789.455	0.0159004
789.533	0.0160027
789.611	0.0158679
789.689	0.0160590
789.767	0.0160688
789.846	0.0159707
789.924	0.0159050
790.002	0.0159756
790.080	0.0159478
790.158	0.0158092
790.236	0.0159041
790.314	0.0160473
790.392	0.0159550
790.471	0.0159634
790.549	0.0161805
790.627	0.0159933
790.705	0.0159072
790.783	0.0160963
790.861	0.0159791
790.939	0.0159977
791.017	0.0160427
791.096	0.0160822
791.174	0.0162119
791.252	0.0160772
791.330	0.0162007
791.408	0.0161855
791.486	0.0161729
791.564	0.0160886
791.642	0.0161281
791.721	0.0162318
791.799	0.0161500
791.877	0.0161805
791.955	0.0161857
792.033	0.0161504
792.111	0.0161351
792.189	0.0160914
792.267	0.0161385
792.346	0.0162030
792.424	0.0160984
792.502	0.0159903
792.580	0.0161320
792.658	0.0160210
792.736	0.0159579
792.814	0.0160367
792.892	0.0160368
792.971	0.0159640
793.049	0.0160964
793.127	0.0159627
793.205	0.0159757
793.283	0.0160374
793.361	0.0159447
793.439	0.0159122
793.517	0.0159658
793.596	0.0161739
793.674	0.0161311
793.752	0.0160055
793.830	0.0160350
793.908	0.0161405
793.986	0.0161553
794.064	0.0160800
794.142	0.0160322
794.221	0.0161851
794.299	0.0163590
794.377	0.0161018
794.455	0.0162177
794.533	0.0162685
794.611	0.0163013
794.689	0.0161980
794.767	0.0160839
794.846	0.0161383
794.924	0.0161886
795.002	0.0160743
795.080	0.0162145
795.158	0.0160843
795.236	0.0160388
795.314	0.0159588
795.392	0.0160441
795.471	0.0160208
795.549	0.0159570
795.627	0.0159578
795.705	0.0160219
795.783	0.0159489
795.861	0.0157950
795.939	0.0160892
796.017	0.0161176
796.096	0.0162039
796.174	0.0161173
796.252	0.0161974
796.330	0.0160610
796.408	0.0159873
796.486	0.0162052
796.564	0.0161697
796.642	0.0162475
796.721	0.0162811
796.799	0.0162334
796.877	0.0161567
796.955	0.0163329
797.033	0.0162444
797.111	0.0163441
797.189	0.0162268
797.267	0.0161760
797.346	0.0162409
797.424	0.0162267
797.502	0.0162162
797.580	0.0163076
797.658	0.0162031
797.736	0.0161633
797.814	0.0162410
797.892	0.0161106
797.971	0.0161429
798.049	0.0161696
798.127	0.0161269
798.205	0.0161740
798.283	0.0160591
798.361	0.0160165
798.439	0.0159002
798.517	0.0160088
798.596	0.0160886
798.674	0.0162067
798.752	0.0161519
798.830	0.0159846
798.908	0.0161051
798.986	0.0161703
799.064	0.0161446
799.142	0.0162598
799.221	0.0162975
799.299	0.0163006
799.377	0.0161901
799.455	0.0163413
799.533	0.0163021
799.611	0.0161572
799.689	0.0161465
799.767	0.0163197
799.846	0.0162936
799.924	0.0161833
800.002	0.0162038
800.080	0.0162218
800.158	0.0161595
800.236	0.0161291
800.314	0.0162088
800.392	0.0160731
800.471	0.0160752
800.549	0.0160273
800.627	0.0158964
800.705	0.0160035
800.783	0.0159996
800.861	0.0158483
800.939	0.0159400
801.017	0.0159832
801.096	0.0159767
801.174	0.0159837
801.252	0.0158945
801.330	0.0160210
801.408	0.0160469
801.486	0.0160254
801.564	0.0160874
801.642	0.0160390
801.721	0.0160315
801.799	0.0161062
801.877	0.0161385
801.955	0.0161439
802.033	0.0161311
802.111	0.0161842
802.189	0.0161647
802.267	0.0159998
802.346	0.0161755
802.424	0.0161138
802.502	0.0160809
802.580	0.0160816
802.658	0.0160353
802.736	0.0161555
802.814	0.0160262
802.892	0.0161883
802.971	0.0160731
803.049	0.0160593
803.127	0.0159109
803.205	0.0160988
803.283	0.0160970
803.361	0.0161013
803.439	0.0158872
803.517	0.0159303
803.596	0.0159039
803.674	0.0158880
803.752	0.0159444
803.830	0.0158545
803.908	0.0160056
803.986	0.0159959
804.064	0.0159957
804.142	0.0159262
804.221	0.0160287
804.299	0.0161394
804.377	0.0161448
804.455	0.0160978
804.533	0.0161094
804.611	0.0161174
804.689	0.0160235
804.767	0.0161206
804.846	0.0163218
804.924	0.0160104
805.002	0.0161251
805.080	0.0161634
805.158	0.0161862
805.236	0.0160114
805.314	0.0159002
805.392	0.0160764
805.471	0.0160845
805.549	0.0160935
805.627	0.0160295
805.705	0.0160650
805.783	0.0159871
805.861	0.0159856
805.939	0.0159699
806.017	0.0160839
806.096	0.0161056
806.174	0.0161443
806.252	0.0161067
806.330	0.0160250
806.408	0.0161275
806.486	0.0160810
806.564	0.0161971
806.642	0.0161011
806.721	0.0161442
806.799	0.0160815
806.877	0.0161986
806.955	0.0162012
807.033	0.0163120
807.111	0.0162511
807.189	0.0161546
807.267	0.0161884
807.346	0.0162093
807.424	0.0161829
807.502	0.0161243
807.580	0.0161469
807.658	0.0162488
807.736	0.0162429
807.814	0.0161632
807.892	0.0161818
807.971	0.0162837
808.049	0.0160726
808.127	0.0161267
808.205	0.0160526
808.283	0.0160249
808.361	0.0160365
808.439	0.0160622
808.517	0.0160072
808.596	0.0160151
808.674	0.0158493
808.752	0.0160248
808.830	0.0159132
808.908	0.0159359
808.986	0.0160480
809.064	0.0159325
809.142	0.0160092
809.221	0.0159586
809.299	0.0159563
809.377	0.0158086
809.455	0.0161035
809.533	0.0160992
809.611	0.0161142
809.689	0.0160667
809.767	0.0158867
809.846	0.0160762
809.924	0.0160870
810.002	0.0161433
810.080	0.0160168
810.158	0.0160587
810.236	0.0161165
810.314	0.0162388
810.392	0.0162016
810.471	0.0160091
810.549	0.0158972
810.627	0.0160948
810.705	0.0160442
810.783	0.0161254
810.861	0.0161124
810.939	0.0159357
811.017	0.0159345
811.096	0.0159906
811.174	0.0159121
811.252	0.0159749
811.330	0.0159866
811.408	0.0160426
811.486	0.0159919
811.564	0.0159201
811.642	0.0159348
811.721	0.0161019
811.799	0.0161072
811.877	0.0160697
811.955	0.0159647
812.033	0.0160485
812.111	0.0160421
812.189	0.0160261
812.267	0.0159696
812.346	0.0160542
812.424	0.0161619
812.502	0.0160791
812.580	0.0161575
812.658	0.0161327
812.736	0.0161826
812.814	0.0160943
812.892	0.0160990
812.971	0.0160818
813.049	0.0162312
813.127	0.0162132
813.205	0.0161181
813.283	0.0161168
813.361	0.0159501
813.439	0.0161824
813.517	0.0162026
813.596	0.0160826
813.674	0.0160858
813.752	0.0160362
813.830	0.0160998
813.908	0.0160466
813.986	0.0161136
814.064	0.0161696
814.142	0.0159088
814.221	0.0160236
814.299	0.0162807
814.377	0.0160688
814.455	0.0160756
814.533	0.0160363
814.611	0.0160518
814.689	0.0161811
814.767	0.0162031
814.846	0.0161498
814.924	0.0160402
815.002	0.0160484
815.080	0.0162006
815.158	0.0161467
815.236	0.0161497
815.314	0.0160247
815.392	0.0161374
815.471	0.0160929
815.549	0.0160241
815.627	0.0160813
815.705	0.0160567
815.783	0.0159903
815.861	0.0159825
815.939	0.0160835
816.017	0.0161644
816.096	0.0160994
816.174	0.0160636
816.252	0.0159930
816.330	0.0160110
816.408	0.0161501
816.486	0.0160648
816.564	0.0160638
816.642	0.0160940
816.721	0.0161105
816.799	0.0161077
816.877	0.0160944
816.955	0.0161346
817.033	0.0159870
817.111	0.0161015
817.189	0.0161928
817.267	0.0161105
817.346	0.0160475
817.424	0.0161507
817.502	0.0162598
817.580	0.0162292
817.658	0.0161468
817.736	0.0162488
817.814	0.0162698
817.892	0.0162135
817.971	0.0161729
818.049	0.0162782
818.127	0.0160731
818.205	0.0162718
818.283	0.0162413
818.361	0.0161606
818.439	0.0162968
818.517	0.0161236
818.596	0.0161890
818.674	0.0163891
818.752	0.0161454
818.830	0.0162076
818.908	0.0161249
818.986	0.0161461
819.064	0.0162542
819.142	0.0162446
819.221	0.0162854
819.299	0.0161490
819.377	0.0162263
819.455	0.0162268
819.533	0.0160587
819.611	0.0161361
819.689	0.0161508
819.767	0.0160558
819.846	0.0162613
819.924	0.0162154
820.002	0.0161897
820.080	0.0162341
820.158	0.0162303
820.236	0.0162042
820.314	0.0161843
820.392	0.0162022
820.471	0.0161256
820.549	0.0161626
820.627	0.0161782
820.705	0.0160278
820.783	0.0161551
820.861	0.0161068
820.939	0.0162225
821.017	0.0161865
821.096	0.0161578
821.174	0.0161472
821.252	0.0162722
821.330	0.0161290
821.408	0.0163257
821.486	0.0160980
821.564	0.0161113
821.642	0.0162615
821.721	0.0162716
821.799	0.0161504
821.877	0.0161897
821.955	0.0162205
822.033	0.0161073
822.111	0.0163003
822.189	0.0160537
822.267	0.0161987
822.346	0.0161224
822.424	0.0161907
822.502	0.0163005
822.580	0.0160823
822.658	0.0161177
822.736	0.0160996
822.814	0.0161701
822.892	0.0162250
822.971	0.0162190
823.049	0.0161969
823.127	0.0161787
823.205	0.0161579
823.283	0.0160980
823.361	0.0161523
823.439	0.0161127
823.517	0.0161362
823.596	0.0161263
823.674	0.0160799
823.752	0.0160498
823.830	0.0162871
823.908	0.0160692
823.986	0.0161416
824.064	0.0162286
824.142	0.0161452
824.221	0.0159820
824.299	0.0161613
824.377	0.0160400
824.455	0.0161534
824.533	0.0160946
824.611	0.0162433
824.689	0.0163686
824.767	0.0163188
824.846	0.0161420
824.924	0.0162688
825.002	0.0163444
825.080	0.0162605
825.158	0.0161690
825.236	0.0162041
825.314	0.0162671
825.392	0.0161916
825.471	0.0161430
825.549	0.0161738
825.627	0.0161304
825.705	0.0161569
825.783	0.0161456
825.861	0.0161146
825.939	0.0160903
826.017	0.0160714
826.096	0.0162235
826.174	0.0161544
826.252	0.0162247
826.330	0.0161808
826.408	0.0161574
826.486	0.0162119
826.564	0.0162238
826.642	0.0160207
826.721	0.0161365
826.799	0.0159367
826.877	0.0161674
826.955	0.0162159
827.033	0.0162476
827.111	0.0161555
827.189	0.0161520
827.267	0.0161432
827.346	0.0161938
827.424	0.0161848
827.502	0.0161574
827.580	0.0162312
827.658	0.0161593
827.736	0.0162938
827.814	0.0161632
827.892	0.0162177
827.971	0.0162210
828.049	0.0162428
828.127	0.0162972
828.205	0.0161244
828.283	0.0162785
828.361	0.0162189
828.439	0.0161969
828.517	0.0161459
828.596	0.0161251
828.674	0.0161072
828.752	0.0160091
828.830	0.0160685
828.908	0.0161563
828.986	0.0161480
829.064	0.0160516
829.142	0.0160587
829.221	0.0160178
829.299	0.0160584
829.377	0.0160702
829.455	0.0159491
829.533	0.0160530
829.611	0.0160480
829.689	0.0160770
829.767	0.0161735
829.846	0.0160211
829.924	0.0160722
830.002	0.0161111
830.080	0.0160117
830.158	0.0160971
830.236	0.0160210
830.314	0.0161967
830.392	0.0160429
830.471	0.0160022
830.549	0.0161172
830.627	0.0160838
830.705	0.0161510
830.783	0.0160799
830.861	0.0160211
830.939	0.0161258
831.017	0.0161253
831.096	0.0161335
831.174	0.0160664
831.252	0.0159879
831.330	0.0160439
831.408	0.0161241
831.486	0.0160966
831.564	0.0160971
831.642	0.0160964
831.721	0.0160962
831.799	0.0161076
831.877	0.0160287
831.955	0.0161038
832.033	0.0161054
832.111	0.0160342
832.189	0.0161491
832.267	0.0160198
832.346	0.0161276
832.424	0.0161898
832.502	0.0161668
832.580	0.0161119
832.658	0.0160571
832.736	0.0160549
832.814	0.0160846
832.892	0.0161010
832.971	0.0159940
833.049	0.0160953
833.127	0.0161452
833.205	0.0160645
833.283	0.0160558
833.361	0.0159847
833.439	0.0160427
833.517	0.0161163
833.596	0.0160818
833.674	0.0159788
833.752	0.0160057
833.830	0.0159873
833.908	0.0160196
833.986	0.0161455
834.064	0.0161156
834.142	0.0160473
834.221	0.0161497
834.299	0.0160831
834.377	0.0161346
834.455	0.0161635
834.533	0.0161293
834.611	0.0161635
834.689	0.0162491
834.767	0.0161261
834.846	0.0161310
834.924	0.0161021
835.002	0.0162785
835.080	0.0162016
835.158	0.0162556
835.236	0.0161385
835.314	0.0162030
835.392	0.0161864
835.471	0.0161707
835.549	0.0162516
835.627	0.0162341
835.705	0.0162923
835.783	0.0160136
835.861	0.0162730
835.939	0.0161791
836.017	0.0161642
836.096	0.0162411
836.174	0.0162572
836.252	0.0161952
836.330	0.0160971
836.408	0.0162219
836.486	0.0161604
836.564	0.0161661
836.642	0.0162334
836.721	0.0160754
836.799	0.0161230
836.877	0.0162118
836.955	0.0161578
837.033	0.0160355
837.111	0.0161366
837.189	0.0162238
837.267	0.0160858
837.346	0.0161862
837.424	0.0161478
837.502	0.0161086
837.580	0.0161180
837.658	0.0162512
837.736	0.0160799
837.814	0.0161880
837.892	0.0162113
837.971	0.0161427
838.049	0.0161843
838.127	0.0160949
838.205	0.0161795
838.283	0.0162566
838.361	0.0161095
838.439	0.0161801
838.517	0.0161724
838.596	0.0161168
838.674	0.0161155
838.752	0.0161213
838.830	0.0161391
838.908	0.0162508
838.986	0.0161569
839.064	0.0162794
839.142	0.0162019
839.221	0.0160807
839.299	0.0161327
839.377	0.0161214
839.455	0.0161572
839.533	0.0161538
839.611	0.0162019
839.689	0.0160134
839.767	0.0160812
839.846	0.0162431
839.924	0.0160803
840.002	0.0163014
840.080	0.0162257
840.158	0.0162342
840.236	0.0161874
840.314	0.0161570
840.392	0.0160974
840.471	0.0161376
840.549	0.0160028
840.627	0.0160196
840.705	0.0160667
840.783	0.0160003
840.861	0.0160102
840.939	0.0159601
841.017	0.0160096
841.096	0.0161353
841.174	0.0160588
841.252	0.0160733
841.330	0.0160401
841.408	0.0161121
841.486	0.0160690
841.564	0.0160593
841.642	0.0160837
841.721	0.0160663
841.799	0.0161120
841.877	0.0160659
841.955	0.0162460
842.033	0.0160929
842.111	0.0160051
842.189	0.0161823
842.267	0.0161024
842.346	0.0161494
842.424	0.0161985
842.502	0.0161960
842.580	0.0161041
842.658	0.0161597
842.736	0.0160026
842.814	0.0160169
842.892	0.0162200
842.971	0.0160595
843.049	0.0161730
843.127	0.0161898
843.205	0.0160174
843.283	0.0161511
843.361	0.0161175
843.439	0.0161395
843.517	0.0162962
843.596	0.0163195
843.674	0.0160925
843.752	0.0161333
843.830	0.0163090
843.908	0.0161611
843.986	0.0162415
844.064	0.0163184
844.142	0.0163110
844.221	0.0162605
844.299	0.0161668
844.377	0.0161420
844.455	0.0161523
844.533	0.0160854
844.611	0.0162393
844.689	0.0161289
844.767	0.0160870
844.846	0.0161173
844.924	0.0161674
845.002	0.0162635
845.080	0.0160375
845.158	0.0160713
845.236	0.0161385
845.314	0.0161394
845.392	0.0161140
845.471	0.0161981
845.549	0.0161766
845.627	0.0162706
845.705	0.0161884
845.783	0.0162744
845.861	0.0162776
845.939	0.0161111
846.017	0.0162525
846.096	0.0162720
846.174	0.0160897
846.252	0.0162559
846.330	0.0160688
846.408	0.0161671
846.486	0.0161990
846.564	0.0159818
846.642	0.0162969
846.721	0.0163386
846.799	0.0162029
846.877	0.0162083
846.955	0.0162815
847.033	0.0161805
847.111	0.0163770
847.189	0.0161867
847.267	0.0162315
847.346	0.0161359
847.424	0.0162753
847.502	0.0162693
847.580	0.0162820
847.658	0.0161806
847.736	0.0161920
847.814	0.0162605
847.892	0.0162555
847.971	0.0161656
848.049	0.0162455
848.127	0.0162097
848.205	0.0163061
848.283	0.0161722
848.361	0.0163142
848.439	0.0163065
848.517	0.0161840
848.596	0.0164250
848.674	0.0162722
848.752	0.0162705
848.830	0.0162627
848.908	0.0163357
848.986	0.0162122
849.064	0.0162350
849.142	0.0160753
849.221	0.0161450
849.299	0.0163016
849.377	0.0161781
849.455	0.0162594
849.533	0.0163293
849.611	0.0163207
849.689	0.0161712
849.767	0.0162631
849.846	0.0161787
849.924	0.0163440
850.002	0.0161851
850.080	0.0161629
850.158	0.0161549
850.236	0.0161622
850.314	0.0161320
850.392	0.0161269
850.471	0.0161472
850.549	0.0160609
850.627	0.0162247
850.705	0.0161644
850.783	0.0160727
850.861	0.0162027
850.939	0.0161714
851.017	0.0161633
851.096	0.0161292
851.174	0.0160891
851.252	0.0161607
851.330	0.0160847
851.408	0.0160996
851.486	0.0162199
851.564	0.0160165
851.642	0.0161189
851.721	0.0160385
851.799	0.0160270
851.877	0.0161319
851.955	0.0161849
852.033	0.0161437
852.111	0.0160374
852.189	0.0162099
852.267	0.0162341
852.346	0.0160683
852.424	0.0159747
852.502	0.0161220
852.580	0.0160710
852.658	0.0161098
852.736	0.0161072
852.814	0.0159111
852.892	0.0161702
852.971	0.0161533
853.049	0.0162500
853.127	0.0161614
853.205	0.0162553
853.283	0.0161488
853.361	0.0163026
853.439	0.0161200
853.517	0.0161270
853.596	0.0161881
853.674	0.0162210
853.752	0.0163245
853.830	0.0162795
853.908	0.0161258
853.986	0.0162711
854.064	0.0160885
854.142	0.0161639
854.221	0.0162633
854.299	0.0162845
854.377	0.0161466
854.455	0.0160822
854.533	0.0162415
854.611	0.0161234
854.689	0.0162006
854.767	0.0161446
854.846	0.0161858
854.924	0.0162364
855.002	0.0161275
855.080	0.0162298
855.158	0.0162389
855.236	0.0161932
855.314	0.0161260
855.392	0.0161110
855.471	0.0161359
855.549	0.0160876
855.627	0.0162959
855.705	0.0162463
855.783	0.0160314
855.861	0.0161456
855.939	0.0160819
856.017	0.0160352
856.096	0.0160798
856.174	0.0161507
856.252	0.0162241
856.330	0.0160649
856.408	0.0161696
856.486	0.0161847
856.564	0.0162260
856.642	0.0161848
856.721	0.0161684
856.799	0.0162681
856.877	0.0163623
856.955	0.0161172
857.033	0.0161225
857.111	0.0161781
857.189	0.0161935
857.267	0.0161527
857.346	0.0162482
857.424	0.0163132
857.502	0.0162858
857.580	0.0162149
857.658	0.0163361
857.736	0.0162115
857.814	0.0162267
857.892	0.0162859
857.971	0.0163853
858.049	0.0161876
858.127	0.0161005
858.205	0.0161529
858.283	0.0162515
858.361	0.0163226
858.439	0.0162404
858.517	0.0161643
858.596	0.0162107
858.674	0.0162410
858.752	0.0162392
858.830	0.0162514
858.908	0.0162111
858.986	0.0163090
859.064	0.0162823
859.142	0.0161236
859.221	0.0162353
859.299	0.0161980
859.377	0.0162202
859.455	0.0161240
859.533	0.0161517
859.611	0.0163115
859.689	0.0161694
859.767	0.0162840
859.846	0.0161813
859.924	0.0161648
860.002	0.0160991
860.080	0.0161593
860.158	0.0160979
860.236	0.0161261
860.314	0.0161958
860.392	0.0160108
860.471	0.0161092
860.549	0.0160358
860.627	0.0159631
860.705	0.0159850
860.783	0.0159680
860.861	0.0161402
860.939	0.0159709
861.017	0.0159982
861.096	0.0160615
861.174	0.0159798
861.252	0.0159296
861.330	0.0160553
861.408	0.0161772
861.486	0.0160246
861.564	0.0159351
861.642	0.0160384
861.721	0.0159964
861.799	0.0161566
861.877	0.0161854
861.955	0.0160210
862.033	0.0161115
862.111	0.0161989
862.189	0.0160871
862.267	0.0161182
862.346	0.0161002
862.424	0.0159863
862.502	0.0160516
862.580	0.0161236
862.658	0.0161068
862.736	0.0162135
862.814	0.0162910
862.892	0.0160413
862.971	0.0160606
863.049	0.0160876
863.127	0.0159689
863.205	0.0160020
863.283	0.0159221
863.361	0.0158666
863.439	0.0159737
863.517	0.0159821
863.596	0.0159787
863.674	0.0159837
863.752	0.0158250
863.830	0.0161226
863.908	0.0160104
863.986	0.0159892
864.064	0.0159969
864.142	0.0159469
864.221	0.0160074
864.299	0.0160613
864.377	0.0160448
864.455	0.0159779
864.533	0.0160304
864.611	0.0161184
864.689	0.0161079
864.767	0.0160629
864.846	0.0160934
864.924	0.0161240
865.002	0.0159200
865.080	0.0160444
865.158	0.0161543
865.236	0.0161793
865.314	0.0160548
865.392	0.0160232
865.471	0.0159953
865.549	0.0160307
865.627	0.0160570
865.705	0.0159975
865.783	0.0158796
865.861	0.0160154
865.939	0.0161208
866.017	0.0159519
866.096	0.0159995
866.174	0.0160303
866.252	0.0161166
866.330	0.0160397
866.408	0.0159905
866.486	0.0160096
866.564	0.0160454
866.642	0.0160542
866.721	0.0159740
866.799	0.0162043
866.877	0.0161189
866.955	0.0159886
867.033	0.0160399
867.111	0.0161065
867.189	0.0159460
867.267	0.0161103
867.346	0.0162123
867.424	0.0160560
867.502	0.0160935
867.580	0.0161666
867.658	0.0161780
867.736	0.0160124
867.814	0.0158944
867.892	0.0160316
867.971	0.0160490
868.049	0.0160927
868.127	0.0161019
868.205	0.0160855
868.283	0.0160870
868.361	0.0162260
868.439	0.0160478
868.517	0.0160130
868.596	0.0160448
868.674	0.0162426
868.752	0.0159352
868.830	0.0159110
868.908	0.0160947
868.986	0.0161436
869.064	0.0161011
869.142	0.0160442
869.221	0.0161198
869.299	0.0160069
869.377	0.0160386
869.455	0.0160640
869.533	0.0160429
869.611	0.0160784
869.689	0.0161921
869.767	0.0161334
869.846	0.0161220
869.924	0.0162351
870.002	0.0160346
870.080	0.0161564
870.158	0.0163214
870.236	0.0161893
870.314	0.0162537
870.392	0.0161663
870.471	0.0161499
870.549	0.0161504
870.627	0.0162350
870.705	0.0163315
870.783	0.0161393
870.861	0.0161543
870.939	0.0160346
871.017	0.0160349
871.096	0.0162475
871.174	0.0161222
871.252	0.0162383
871.330	0.0160824
871.408	0.0161447
871.486	0.0161275
871.564	0.0160987
871.642	0.0160259
871.721	0.0161040
871.799	0.0160937
871.877	0.0161881
871.955	0.0161207
872.033	0.0160886
872.111	0.0161684
872.189	0.0161530
872.267	0.0162359
872.346	0.0162749
872.424	0.0163006
872.502	0.0160931
872.580	0.0160690
872.658	0.0162443
872.736	0.0162042
872.814	0.0161916
872.892	0.0162407
872.971	0.0161716
873.049	0.0160960
873.127	0.0161187
873.205	0.0162222
873.283	0.0160624
873.361	0.0161074
873.439	0.0160995
873.517	0.0162246
873.596	0.0161122
873.674	0.0160994
873.752	0.0162368
873.830	0.0160840
873.908	0.0160652
873.986	0.0160609
874.064	0.0160002
874.142	0.0161480
874.221	0.0162347
874.299	0.0161271
874.377	0.0161136
874.455	0.0161691
874.533	0.0160580
874.611	0.0162465
874.689	0.0161845
874.767	0.0161227
874.846	0.0163007
874.924	0.0160075
875.002	0.0161114
875.080	0.0160631
875.158	0.0161266
875.236	0.0162998
875.314	0.0162206
875.392	0.0162527
875.471	0.0162206
875.549	0.0161339
875.627	0.0161865
875.705	0.0161540
875.783	0.0161914
875.861	0.0159203
875.939	0.0160275
876.017	0.0162758
876.096	0.0161041
876.174	0.0161557
876.252	0.0161112
876.330	0.0162636
876.408	0.0161744
876.486	0.0161339
876.564	0.0161669
876.642	0.0162585
876.721	0.0161539
876.799	0.0160745
876.877	0.0162096
876.955	0.0161906
877.033	0.0161269
877.111	0.0162656
877.189	0.0163154
877.267	0.0161452
877.346	0.0160614
877.424	0.0161179
877.502	0.0162773
877.580	0.0162395
877.658	0.0162034
877.736	0.0162270
877.814	0.0160613
877.892	0.0161001
877.971	0.0161792
878.049	0.0160866
878.127	0.0161614
878.205	0.0160876
878.283	0.0161349
878.361	0.0161594
878.439	0.0159583
878.517	0.0160886
878.596	0.0161636
878.674	0.0162495
878.752	0.0162261
878.830	0.0161044
878.908	0.0162122
878.986	0.0162633
879.064	0.0160110
879.142	0.0161945
879.221	0.0161842
879.299	0.0160974
879.377	0.0161937
879.455	0.0160863
879.533	0.0163029
879.611	0.0162208
879.689	0.0161672
879.767	0.0162958
879.846	0.0162000
879.924	0.0162706
880.002	0.0161652
880.080	0.0162562
880.158	0.0163280
880.236	0.0161970
880.314	0.0162657
880.392	0.0162191
880.471	0.0162609
880.549	0.0162392
880.627	0.0163384
880.705	0.0162385
880.783	0.0161813
880.861	0.0162130
880.939	0.0161295
881.017	0.0159570
881.096	0.0161690
881.174	0.0161710
881.252	0.0161549
881.330	0.0161976
881.408	0.0160700
881.486	0.0159872
881.564	0.0161212
881.642	0.0160506
881.721	0.0159891
881.799	0.0159893
881.877	0.0159689
881.955	0.0159991
882.033	0.0160788
882.111	0.0162045
882.189	0.0160838
882.267	0.0159826
882.346	0.0161056
882.424	0.0161914
882.502	0.0160818
882.580	0.0161468
882.658	0.0162049
882.736	0.0160564
882.814	0.0161410
882.892	0.0160345
882.971	0.0162065
883.049	0.0161357
883.127	0.0162395
883.205	0.0162203
883.283	0.0161421
883.361	0.0161331
883.439	0.0163393
883.517	0.0160532
883.596	0.0160177
883.674	0.0162143
883.752	0.0161815
883.830	0.0160722
883.908	0.0160841
883.986	0.0160445
884.064	0.0161221
884.142	0.0158640
884.221	0.0160454
884.299	0.0159615
884.377	0.0160341
884.455	0.0158474
884.533	0.0158353
884.611	0.0159800
884.689	0.0161018
884.767	0.0159164
884.846	0.0158877
884.924	0.0160924
885.002	0.0159769
885.080	0.0160969
885.158	0.0161076
885.236	0.0159400
885.314	0.0160544
885.392	0.0162128
885.471	0.0160458
885.549	0.0161671
885.627	0.0160696
885.705	0.0160323
885.783	0.0160434
885.861	0.0159560
885.939	0.0160853
886.017	0.0159734
886.096	0.0159485
886.174	0.0160367
886.252	0.0160957
886.330	0.0160368
886.408	0.0160216
886.486	0.0159666
886.564	0.0159782
886.642	0.0160088
886.721	0.0161153
886.799	0.0159641
886.877	0.0160437
886.955	0.0159930
887.033	0.0160091
887.111	0.0160471
887.189	0.0160226
887.267	0.0159625
887.346	0.0160566
887.424	0.0160876
887.502	0.0160696
887.580	0.0161375
887.658	0.0160055
887.736	0.0161764
887.814	0.0162253
887.892	0.0161086
887.971	0.0161601
888.049	0.0160475
888.127	0.0159983
888.205	0.0161357
888.283	0.0161008
888.361	0.0160799
888.439	0.0159358
888.517	0.0159739
888.596	0.0160546
888.674	0.0160273
888.752	0.0159594
888.830	0.0160571
888.908	0.0160393
888.986	0.0158936
889.064	0.0160469
889.142	0.0159817
889.221	0.0159862
889.299	0.0159201
889.377	0.0159084
889.455	0.0160278
889.533	0.0160275
889.611	0.0159681
889.689	0.0159568
889.767	0.0160251
889.846	0.0159103
889.924	0.0160232
890.002	0.0159789
890.080	0.0158983
890.158	0.0160120
890.236	0.0160548
890.314	0.0160807
890.392	0.0160565
890.471	0.0159998
890.549	0.0159043
890.627	0.0160008
890.705	0.0159742
890.783	0.0159868
890.861	0.0160028
890.939	0.0160253
891.017	0.0160322
891.096	0.0159566
891.174	0.0159414
891.252	0.0161434
891.330	0.0161101
891.408	0.0160053
891.486	0.0159300
891.564	0.0159818
891.642	0.0160352
891.721	0.0160825
891.799	0.0159450
891.877	0.0159975
891.955	0.0158963
892.033	0.0160397
892.111	0.0160255
892.189	0.0160886
892.267	0.0160283
892.346	0.0159483
892.424	0.0160559
892.502	0.0159045
892.580	0.0160883
892.658	0.0160273
892.736	0.0160756
892.814	0.0161441
892.892	0.0160945
892.971	0.0161541
893.049	0.0160811
893.127	0.0160220
893.205	0.0160986
893.283	0.0160474
893.361	0.0160691
893.439	0.0161025
893.517	0.0159804
893.596	0.0160455
893.674	0.0161618
893.752	0.0160297
893.830	0.0161011
893.908	0.0162168
893.986	0.0160612
894.064	0.0159706
894.142	0.0160394
894.221	0.0160027
894.299	0.0160126
894.377	0.0158978
894.455	0.0159345
894.533	0.0159949
894.611	0.0160784
894.689	0.0159969
894.767	0.0161600
894.846	0.0160876
894.924	0.0162333
895.002	0.0162221
895.080	0.0162630
895.158	0.0160032
895.236	0.0159782
895.314	0.0161079
895.392	0.0160683
895.471	0.0163824
895.549	0.0162118
895.627	0.0160718
895.705	0.0161475
895.783	0.0162150
895.861	0.0162943
895.939	0.0162744
896.017	0.0162022
896.096	0.0162428
896.174	0.0162033
896.252	0.0161224
896.330	0.0160777
896.408	0.0160952
896.486	0.0161768
896.564	0.0162991
896.642	0.0161559
896.721	0.0162087
896.799	0.0161840
896.877	0.0162313
896.955	0.0161812
897.033	0.0160963
897.111	0.0162042
897.189	0.0160870
897.267	0.0161411
897.346	0.0161962
897.424	0.0161053
897.502	0.0161044
897.580	0.0163527
897.658	0.0162163
897.736	0.0162085
897.814	0.0161646
897.892	0.0161092
897.971	0.0160811
898.049	0.0162754
898.127	0.0162330
898.205	0.0162852
898.283	0.0161560
898.361	0.0161642
898.439	0.0162367
898.517	0.0162080
898.596	0.0161720
898.674	0.0162164
898.752	0.0162200
898.830	0.0159984
898.908	0.0161110
898.986	0.0162402
899.064	0.0161268
899.142	0.0161732
899.221	0.0161756
899.299	0.0161444
899.377	0.0161597
899.455	0.0160629
899.533	0.0161978
899.611	0.0161470
899.689	0.0161648
899.767	0.0159790
899.846	0.0161066
899.924	0.0161771
900.002	0.0161874
900.080	0.0161551
900.158	0.0161958
900.236	0.0160622
900.314	0.0162005
900.392	0.0160291
900.471	0.0162000
900.549	0.0161162
900.627	0.0160152
900.705	0.0161192
900.783	0.0159908
900.861	0.0160802
900.939	0.0160335
901.017	0.0159650
901.096	0.0160917
901.174	0.0161266
901.252	0.0160910
901.330	0.0162479
901.408	0.0160358
901.486	0.0160723
901.564	0.0162085
901.642	0.0160902
901.721	0.0161449
901.799	0.0160389
901.877	0.0159933
901.955	0.0159794
902.033	0.0160547
902.111	0.0161926
902.189	0.0160696
902.267	0.0160387
902.346	0.0161853
902.424	0.0161021
902.502	0.0160847
902.580	0.0161295
902.658	0.0160188
902.736	0.0159766
902.814	0.0160184
902.892	0.0161975
902.971	0.0159664
903.049	0.0160495
903.127	0.0159565
903.205	0.0159266
903.283	0.0160089
903.361	0.0159136
903.439	0.0159950
903.517	0.0161106
903.596	0.0160795
903.674	0.0160276
903.752	0.0160088
903.830	0.0160609
903.908	0.0160590
903.986	0.0160293
904.064	0.0159156
904.142	0.0160724
904.221	0.0159827
904.299	0.0160371
904.377	0.0160159
904.455	0.0159425
904.533	0.0160476
904.611	0.0160020
904.689	0.0160355
904.767	0.0160131
904.846	0.0161510
904.924	0.0160692
905.002	0.0159585
905.080	0.0159691
905.158	0.0159908
905.236	0.0160516
905.314	0.0159506
905.392	0.0160667
905.471	0.0159794
905.549	0.0159637
905.627	0.0160382
905.705	0.0159535
905.783	0.0160218
905.861	0.0159222
905.939	0.0159660
906.017	0.0159019
906.096	0.0160984
906.174	0.0159087
906.252	0.0159414
906.330	0.0161710
906.408	0.0160311
906.486	0.0160811
906.564	0.0160376
906.642	0.0161333
906.721	0.0160941
906.799	0.0160291
906.877	0.0159957
906.955	0.0160612
907.033	0.0160624
907.111	0.0160261
907.189	0.0161343
907.267	0.0159921
907.346	0.0159863
907.424	0.0159450
907.502	0.0160757
907.580	0.0161467
907.658	0.0159749
907.736	0.0160218
907.814	0.0159943
907.892	0.0161552
907.971	0.0160681
908.049	0.0160202
908.127	0.0160181
908.205	0.0160782
908.283	0.0159834
908.361	0.0160158
908.439	0.0160464
908.517	0.0159937
908.596	0.0161587
908.674	0.0161400
908.752	0.0159702
908.830	0.0160128
908.908	0.0160834
908.986	0.0159980
909.064	0.0161543
909.142	0.0160614
909.221	0.0159502
909.299	0.0158867
909.377	0.0161443
909.455	0.0161272
909.533	0.0159251
909.611	0.0159981
909.689	0.0161719
909.767	0.0160918
909.846	0.0161145
909.924	0.0160490
910.002	0.0160081
910.080	0.0160799
910.158	0.0161346
910.236	0.0161519
910.314	0.0162629
910.392	0.0160255
910.471	0.0161393
910.549	0.0163052
910.627	0.0161967
910.705	0.0162235
910.783	0.0162215
910.861	0.0162094
910.939	0.0160567
911.017	0.0163051
911.096	0.0161686
911.174	0.0161362
911.252	0.0160714
911.330	0.0162196
911.408	0.0161476
911.486	0.0161518
911.564	0.0161197
911.642	0.0162037
911.721	0.0161813
911.799	0.0161308
911.877	0.0161624
911.955	0.0160764
912.033	0.0160188
912.111	0.0159932
912.189	0.0160948
912.267	0.0160456
912.346	0.0159776
912.424	0.0160818
912.502	0.0161420
912.580	0.0161123
912.658	0.0163142
912.736	0.0162498
912.814	0.0161658
912.892	0.0161399
912.971	0.0163401
913.049	0.0163352
913.127	0.0161720
913.205	0.0161395
913.283	0.0161500
913.361	0.0162495
913.439	0.0163467
913.517	0.0162511
913.596	0.0162492
913.674	0.0161976
913.752	0.0162426
913.830	0.0161606
913.908	0.0161399
913.986	0.0162029
914.064	0.0161884
914.142	0.0162988
914.221	0.0161719
914.299	0.0159035
914.377	0.0160358
914.455	0.0161021
914.533	0.0161769
914.611	0.0161507
914.689	0.0160899
914.767	0.0161488
914.846	0.0161553
914.924	0.0160324
915.002	0.0161507
915.080	0.0161987
915.158	0.0160493
915.236	0.0161562
915.314	0.0161216
915.392	0.0161629
915.471	0.0161941
915.549	0.0162338
915.627	0.0160780
915.705	0.0162674
915.783	0.0161104
915.861	0.0162029
915.939	0.0162837
916.017	0.0162835
916.096	0.0161565
916.174	0.0162521
916.252	0.0161970
916.330	0.0162437
916.408	0.0161633
916.486	0.0161294
916.564	0.0161099
916.642	0.0162093
916.721	0.0161739
916.799	0.0161774
916.877	0.0162059
916.955	0.0161745
917.033	0.0162680
917.111	0.0161472
917.189	0.0161429
917.267	0.0161375
917.346	0.0162999
917.424	0.0160933
917.502	0.0161652
917.580	0.0161900
917.658	0.0160944
917.736	0.0160786
917.814	0.0162864
917.892	0.0162334
917.971	0.0161595
918.049	0.0162411
918.127	0.0163539
918.205	0.0161695
918.283	0.0160418
918.361	0.0162030
918.439	0.0162160
918.517	0.0160584
918.596	0.0160764
918.674	0.0161304
918.752	0.0161893
918.830	0.0159992
918.908	0.0163212
918.986	0.0162041
919.064	0.0163126
919.142	0.0162048
919.221	0.0160908
919.299	0.0161092
919.377	0.0162801
919.455	0.0162917
919.533	0.0161715
919.611	0.0160845
919.689	0.0161625
919.767	0.0160957
919.846	0.0162734
919.924	0.0161104
