06/29/2022	21:36:44	Ver.	4.1	UNKNOWN
Optical Delay	600.001752	Delta X		0.078125	Sweeps	1	Scan Rate	0/0
Coordinates	Axis 1	NaN	Axis 2	NaN	Axis 3	NaN	Axis 4	NaN	Axis 5	NaN	Axis 6	0.000000
TX Power	0.000000	RX Power	0.000000

600.002	0.0164492
600.080	0.0162994
600.158	0.0163191
600.236	0.0164388
600.314	0.0163203
600.392	0.0164689
600.471	0.0162397
600.549	0.0163419
600.627	0.0165190
600.705	0.0162944
600.783	0.0163007
600.861	0.0162376
600.939	0.0162969
601.017	0.0163484
601.096	0.0164268
601.174	0.0163460
601.252	0.0163234
601.330	0.0164117
601.408	0.0162650
601.486	0.0163940
601.564	0.0164346
601.642	0.0163950
601.721	0.0162913
601.799	0.0164219
601.877	0.0164291
601.955	0.0162934
602.033	0.0163166
602.111	0.0164392
602.189	0.0165100
602.267	0.0163607
602.346	0.0163389
602.424	0.0162439
602.502	0.0163818
602.580	0.0164452
602.658	0.0165259
602.736	0.0163389
602.814	0.0162994
602.892	0.0163813
602.971	0.0163515
603.049	0.0164878
603.127	0.0164231
603.205	0.0163886
603.283	0.0165041
603.361	0.0164698
603.439	0.0166730
603.517	0.0165131
603.596	0.0164574
603.674	0.0163763
603.752	0.0164826
603.830	0.0165820
603.908	0.0166246
603.986	0.0164305
604.064	0.0165549
604.142	0.0164471
604.221	0.0164969
604.299	0.0165845
604.377	0.0165641
604.455	0.0166042
604.533	0.0165156
604.611	0.0165120
604.689	0.0165364
604.767	0.0166250
604.846	0.0166326
604.924	0.0165057
605.002	0.0165598
605.080	0.0165749
605.158	0.0164725
605.236	0.0166116
605.314	0.0167928
605.392	0.0163495
605.471	0.0164880
605.549	0.0167128
605.627	0.0165852
605.705	0.0165900
605.783	0.0167214
605.861	0.0165665
605.939	0.0166246
606.017	0.0166351
606.096	0.0166268
606.174	0.0165996
606.252	0.0165955
606.330	0.0165953
606.408	0.0166449
606.486	0.0167012
606.564	0.0166263
606.642	0.0166208
606.721	0.0165560
606.799	0.0166057
606.877	0.0165547
606.955	0.0165828
607.033	0.0165815
607.111	0.0166353
607.189	0.0166343
607.267	0.0165162
607.346	0.0165102
607.424	0.0165300
607.502	0.0166798
607.580	0.0166261
607.658	0.0166412
607.736	0.0166466
607.814	0.0166959
607.892	0.0164958
607.971	0.0165393
608.049	0.0166041
608.127	0.0165488
608.205	0.0165157
608.283	0.0165248
608.361	0.0165729
608.439	0.0163982
608.517	0.0166005
608.596	0.0167065
608.674	0.0165569
608.752	0.0165297
608.830	0.0165720
608.908	0.0165796
608.986	0.0164826
609.064	0.0165338
609.142	0.0165244
609.221	0.0162717
609.299	0.0164200
609.377	0.0165415
609.455	0.0163876
609.533	0.0163886
609.611	0.0163821
609.689	0.0164283
609.767	0.0164570
609.846	0.0164254
609.924	0.0164526
610.002	0.0165302
610.080	0.0162947
610.158	0.0163631
610.236	0.0163967
610.314	0.0164866
610.392	0.0163384
610.471	0.0163457
610.549	0.0164030
610.627	0.0163610
610.705	0.0163792
610.783	0.0164627
610.861	0.0162875
610.939	0.0164117
611.017	0.0164329
611.096	0.0164430
611.174	0.0165108
611.252	0.0164989
611.330	0.0163918
611.408	0.0164420
611.486	0.0164416
611.564	0.0164546
611.642	0.0164468
611.721	0.0164089
611.799	0.0163515
611.877	0.0164159
611.955	0.0163218
612.033	0.0163783
612.111	0.0162816
612.189	0.0163932
612.267	0.0163750
612.346	0.0164270
612.424	0.0164128
612.502	0.0164397
612.580	0.0164024
612.658	0.0162931
612.736	0.0163524
612.814	0.0165246
612.892	0.0162840
612.971	0.0163702
613.049	0.0164571
613.127	0.0163852
613.205	0.0164121
613.283	0.0163549
613.361	0.0164045
613.439	0.0165076
613.517	0.0163841
613.596	0.0163348
613.674	0.0164365
613.752	0.0165262
613.830	0.0163595
613.908	0.0163215
613.986	0.0164541
614.064	0.0164974
614.142	0.0165507
614.221	0.0164841
614.299	0.0164725
614.377	0.0164639
614.455	0.0163793
614.533	0.0165221
614.611	0.0165284
614.689	0.0164323
614.767	0.0163419
614.846	0.0164127
614.924	0.0164785
615.002	0.0165095
615.080	0.0165502
615.158	0.0166579
615.236	0.0165199
615.314	0.0163174
615.392	0.0165756
615.471	0.0165176
615.549	0.0166077
615.627	0.0165429
615.705	0.0164524
615.783	0.0164990
615.861	0.0164696
615.939	0.0165063
616.017	0.0166081
616.096	0.0165438
616.174	0.0165429
616.252	0.0165231
616.330	0.0165781
616.408	0.0166580
616.486	0.0165553
616.564	0.0166338
616.642	0.0165891
616.721	0.0167284
616.799	0.0164368
616.877	0.0164812
616.955	0.0165381
617.033	0.0165559
617.111	0.0164136
617.189	0.0165297
617.267	0.0167458
617.346	0.0166743
617.424	0.0165781
617.502	0.0165784
617.580	0.0165979
617.658	0.0164619
617.736	0.0165449
617.814	0.0166008
617.892	0.0165388
617.971	0.0166097
618.049	0.0165217
618.127	0.0165401
618.205	0.0165907
618.283	0.0166024
618.361	0.0166155
618.439	0.0164872
618.517	0.0165672
618.596	0.0166632
618.674	0.0165286
618.752	0.0166446
618.830	0.0167063
618.908	0.0166520
618.986	0.0165364
619.064	0.0166243
619.142	0.0165874
619.221	0.0165199
619.299	0.0165883
619.377	0.0165007
619.455	0.0164874
619.533	0.0166382
619.611	0.0164777
619.689	0.0164227
619.767	0.0165423
619.846	0.0166084
619.924	0.0165908
620.002	0.0165039
620.080	0.0166833
620.158	0.0165880
620.236	0.0164897
620.314	0.0164580
620.392	0.0165469
620.471	0.0165971
620.549	0.0165681
620.627	0.0166911
620.705	0.0164805
620.783	0.0165173
620.861	0.0165452
620.939	0.0165112
621.017	0.0165374
621.096	0.0164751
621.174	0.0164481
621.252	0.0165764
621.330	0.0164159
621.408	0.0164220
621.486	0.0164135
621.564	0.0164500
621.642	0.0164702
621.721	0.0165343
621.799	0.0165130
621.877	0.0164531
621.955	0.0164394
622.033	0.0164177
622.111	0.0163648
622.189	0.0165757
622.267	0.0164644
622.346	0.0165085
622.424	0.0164379
622.502	0.0164455
622.580	0.0164175
622.658	0.0163740
622.736	0.0164349
622.814	0.0165473
622.892	0.0165484
622.971	0.0164931
623.049	0.0165196
623.127	0.0165056
623.205	0.0164309
623.283	0.0163997
623.361	0.0163591
623.439	0.0164094
623.517	0.0163792
623.596	0.0164007
623.674	0.0165017
623.752	0.0163467
623.830	0.0164059
623.908	0.0163095
623.986	0.0164791
624.064	0.0164272
624.142	0.0163432
624.221	0.0163891
624.299	0.0163948
624.377	0.0164658
624.455	0.0162816
624.533	0.0163245
624.611	0.0164706
624.689	0.0164421
624.767	0.0165010
624.846	0.0164229
624.924	0.0164035
625.002	0.0162869
625.080	0.0164619
625.158	0.0165619
625.236	0.0165461
625.314	0.0164687
625.392	0.0164631
625.471	0.0164623
625.549	0.0164370
625.627	0.0165437
625.705	0.0165486
625.783	0.0165450
625.861	0.0164647
625.939	0.0164881
626.017	0.0165157
626.096	0.0164754
626.174	0.0164515
626.252	0.0164977
626.330	0.0164452
626.408	0.0164819
626.486	0.0164421
626.564	0.0164349
626.642	0.0164838
626.721	0.0163741
626.799	0.0163880
626.877	0.0165208
626.955	0.0164762
627.033	0.0163955
627.111	0.0163808
627.189	0.0165637
627.267	0.0165527
627.346	0.0164664
627.424	0.0163833
627.502	0.0163407
627.580	0.0164482
627.658	0.0163367
627.736	0.0164993
627.814	0.0163819
627.892	0.0163953
627.971	0.0163932
628.049	0.0163525
628.127	0.0164097
628.205	0.0163186
628.283	0.0162949
628.361	0.0163247
628.439	0.0164250
628.517	0.0162425
628.596	0.0162738
628.674	0.0164604
628.752	0.0163864
628.830	0.0163693
628.908	0.0164923
628.986	0.0163645
629.064	0.0163743
629.142	0.0163989
629.221	0.0164221
629.299	0.0163776
629.377	0.0164525
629.455	0.0163611
629.533	0.0165071
629.611	0.0163811
629.689	0.0163835
629.767	0.0163465
629.846	0.0164342
629.924	0.0163319
630.002	0.0164735
630.080	0.0164825
630.158	0.0164600
630.236	0.0164027
630.314	0.0163335
630.392	0.0163857
630.471	0.0163283
630.549	0.0162587
630.627	0.0164505
630.705	0.0162879
630.783	0.0163843
630.861	0.0164083
630.939	0.0163732
631.017	0.0163017
631.096	0.0163770
631.174	0.0164086
631.252	0.0162741
631.330	0.0162610
631.408	0.0163466
631.486	0.0164849
631.564	0.0164381
631.642	0.0163904
631.721	0.0163667
631.799	0.0165215
631.877	0.0162012
631.955	0.0163428
632.033	0.0164708
632.111	0.0163649
632.189	0.0164484
632.267	0.0164795
632.346	0.0162454
632.424	0.0163744
632.502	0.0164704
632.580	0.0163828
632.658	0.0164115
632.736	0.0164754
632.814	0.0164886
632.892	0.0164668
632.971	0.0164240
633.049	0.0163598
633.127	0.0164027
633.205	0.0164905
633.283	0.0164220
633.361	0.0162964
633.439	0.0164044
633.517	0.0163666
633.596	0.0163726
633.674	0.0163109
633.752	0.0163430
633.830	0.0163503
633.908	0.0163430
633.986	0.0162744
634.064	0.0164046
634.142	0.0164270
634.221	0.0163000
634.299	0.0162936
634.377	0.0162342
634.455	0.0164053
634.533	0.0163816
634.611	0.0163063
634.689	0.0163334
634.767	0.0162926
634.846	0.0163397
634.924	0.0163968
635.002	0.0162799
635.080	0.0163372
635.158	0.0163286
635.236	0.0165456
635.314	0.0164075
635.392	0.0163542
635.471	0.0164357
635.549	0.0164595
635.627	0.0162421
635.705	0.0164573
635.783	0.0165416
635.861	0.0165192
635.939	0.0164461
636.017	0.0163682
636.096	0.0165459
636.174	0.0164958
636.252	0.0164983
636.330	0.0165458
636.408	0.0165292
636.486	0.0164744
636.564	0.0165567
636.642	0.0164863
636.721	0.0164893
636.799	0.0165908
636.877	0.0166508
636.955	0.0163986
637.033	0.0165032
637.111	0.0164738
637.189	0.0164565
637.267	0.0164729
637.346	0.0165513
637.424	0.0166193
637.502	0.0164618
637.580	0.0164687
637.658	0.0164695
637.736	0.0165829
637.814	0.0165291
637.892	0.0164812
637.971	0.0164810
638.049	0.0164741
638.127	0.0165372
638.205	0.0165067
638.283	0.0164603
638.361	0.0163795
638.439	0.0165257
638.517	0.0165559
638.596	0.0164403
638.674	0.0165275
638.752	0.0164990
638.830	0.0163312
638.908	0.0164581
638.986	0.0164713
639.064	0.0165752
639.142	0.0165985
639.221	0.0164909
639.299	0.0165024
639.377	0.0163908
639.455	0.0164358
639.533	0.0165750
639.611	0.0165079
639.689	0.0165355
639.767	0.0165168
639.846	0.0164574
639.924	0.0164157
640.002	0.0166682
640.080	0.0165832
640.158	0.0164631
640.236	0.0165183
640.314	0.0165218
640.392	0.0164566
640.471	0.0165067
640.549	0.0165186
640.627	0.0165515
640.705	0.0166183
640.783	0.0165300
640.861	0.0165967
640.939	0.0165233
641.017	0.0164487
641.096	0.0165714
641.174	0.0164977
641.252	0.0164561
641.330	0.0165726
641.408	0.0165517
641.486	0.0165128
641.564	0.0165530
641.642	0.0165789
641.721	0.0164996
641.799	0.0166248
641.877	0.0166063
641.955	0.0164368
642.033	0.0165172
642.111	0.0165387
642.189	0.0165155
642.267	0.0166222
642.346	0.0164676
642.424	0.0165246
642.502	0.0165640
642.580	0.0165250
642.658	0.0167339
642.736	0.0164862
642.814	0.0164909
642.892	0.0165427
642.971	0.0165636
643.049	0.0165636
643.127	0.0166225
643.205	0.0165932
643.283	0.0165932
643.361	0.0166400
643.439	0.0166965
643.517	0.0165258
643.596	0.0167552
643.674	0.0165237
643.752	0.0164182
643.830	0.0164552
643.908	0.0163427
643.986	0.0164642
644.064	0.0165993
644.142	0.0165397
644.221	0.0164905
644.299	0.0165348
644.377	0.0164378
644.455	0.0165996
644.533	0.0164927
644.611	0.0164181
644.689	0.0165022
644.767	0.0165725
644.846	0.0163879
644.924	0.0166438
645.002	0.0164939
645.080	0.0163950
645.158	0.0164700
645.236	0.0164252
645.314	0.0164663
645.392	0.0165467
645.471	0.0165269
645.549	0.0165411
645.627	0.0165353
645.705	0.0163430
645.783	0.0163655
645.861	0.0162437
645.939	0.0164467
646.017	0.0165837
646.096	0.0165013
646.174	0.0163866
646.252	0.0163740
646.330	0.0164677
646.408	0.0164555
646.486	0.0164566
646.564	0.0163148
646.642	0.0164917
646.721	0.0163516
646.799	0.0164976
646.877	0.0164064
646.955	0.0165031
647.033	0.0164904
647.111	0.0164788
647.189	0.0163193
647.267	0.0163956
647.346	0.0165295
647.424	0.0164019
647.502	0.0164377
647.580	0.0162714
647.658	0.0164481
647.736	0.0163670
647.814	0.0163982
647.892	0.0165266
647.971	0.0162914
648.049	0.0162083
648.127	0.0164440
648.205	0.0164822
648.283	0.0164490
648.361	0.0164182
648.439	0.0162908
648.517	0.0164448
648.596	0.0164003
648.674	0.0164031
648.752	0.0162100
648.830	0.0164463
648.908	0.0164934
648.986	0.0163641
649.064	0.0164206
649.142	0.0163152
649.221	0.0163368
649.299	0.0164984
649.377	0.0164206
649.455	0.0164577
649.533	0.0163387
649.611	0.0164695
649.689	0.0163972
649.767	0.0164451
649.846	0.0164160
649.924	0.0164332
650.002	0.0162934
650.080	0.0163460
650.158	0.0163353
650.236	0.0163496
650.314	0.0164298
650.392	0.0164280
650.471	0.0165405
650.549	0.0165179
650.627	0.0164353
650.705	0.0163544
650.783	0.0163540
650.861	0.0162727
650.939	0.0164567
651.017	0.0165410
651.096	0.0164638
651.174	0.0164041
651.252	0.0165049
651.330	0.0165568
651.408	0.0164799
651.486	0.0163013
651.564	0.0164603
651.642	0.0164266
651.721	0.0163770
651.799	0.0163508
651.877	0.0164077
651.955	0.0163258
652.033	0.0165100
652.111	0.0163551
652.189	0.0163203
652.267	0.0164063
652.346	0.0164223
652.424	0.0163531
652.502	0.0162651
652.580	0.0163717
652.658	0.0163245
652.736	0.0163622
652.814	0.0163470
652.892	0.0164596
652.971	0.0164521
653.049	0.0163565
653.127	0.0162880
653.205	0.0163500
653.283	0.0164485
653.361	0.0164943
653.439	0.0163865
653.517	0.0162481
653.596	0.0163686
653.674	0.0163797
653.752	0.0164136
653.830	0.0164472
653.908	0.0164191
653.986	0.0164418
654.064	0.0164140
654.142	0.0164899
654.221	0.0163309
654.299	0.0163909
654.377	0.0163618
654.455	0.0163852
654.533	0.0164417
654.611	0.0164299
654.689	0.0163305
654.767	0.0164566
654.846	0.0162917
654.924	0.0164645
655.002	0.0164732
655.080	0.0164529
655.158	0.0165707
655.236	0.0164288
655.314	0.0164960
655.392	0.0165347
655.471	0.0164287
655.549	0.0164822
655.627	0.0164594
655.705	0.0164950
655.783	0.0165244
655.861	0.0163996
655.939	0.0164888
656.017	0.0163662
656.096	0.0163529
656.174	0.0163274
656.252	0.0163757
656.330	0.0164066
656.408	0.0164383
656.486	0.0165457
656.564	0.0164023
656.642	0.0163675
656.721	0.0164445
656.799	0.0164806
656.877	0.0163992
656.955	0.0165128
657.033	0.0165180
657.111	0.0163226
657.189	0.0164350
657.267	0.0164771
657.346	0.0165565
657.424	0.0164040
657.502	0.0166145
657.580	0.0165329
657.658	0.0164230
657.736	0.0165122
657.814	0.0162630
657.892	0.0163213
657.971	0.0163055
658.049	0.0163724
658.127	0.0163372
658.205	0.0163566
658.283	0.0164457
658.361	0.0164983
658.439	0.0163059
658.517	0.0165637
658.596	0.0163451
658.674	0.0163808
658.752	0.0163132
658.830	0.0163264
658.908	0.0164124
658.986	0.0162941
659.064	0.0164215
659.142	0.0162758
659.221	0.0164352
659.299	0.0164507
659.377	0.0164030
659.455	0.0163201
659.533	0.0164180
659.611	0.0163885
659.689	0.0163200
659.767	0.0165141
659.846	0.0164703
659.924	0.0163733
660.002	0.0163925
660.080	0.0164871
660.158	0.0163743
660.236	0.0164471
660.314	0.0163979
660.392	0.0165327
660.471	0.0165818
660.549	0.0162418
660.627	0.0163881
660.705	0.0164559
660.783	0.0163907
660.861	0.0165694
660.939	0.0164952
661.017	0.0164729
661.096	0.0164545
661.174	0.0164703
661.252	0.0163437
661.330	0.0164603
661.408	0.0164914
661.486	0.0165287
661.564	0.0164320
661.642	0.0165025
661.721	0.0165517
661.799	0.0163987
661.877	0.0163936
661.955	0.0164049
662.033	0.0164290
662.111	0.0164629
662.189	0.0163793
662.267	0.0164320
662.346	0.0165549
662.424	0.0164970
662.502	0.0164890
662.580	0.0164274
662.658	0.0166270
662.736	0.0165234
662.814	0.0165536
662.892	0.0163625
662.971	0.0166523
663.049	0.0165091
663.127	0.0164915
663.205	0.0165391
663.283	0.0167070
663.361	0.0164890
663.439	0.0165209
663.517	0.0165498
663.596	0.0165838
663.674	0.0166032
663.752	0.0167551
663.830	0.0166624
663.908	0.0164738
663.986	0.0165805
664.064	0.0166248
664.142	0.0165751
664.221	0.0165524
664.299	0.0165086
664.377	0.0165112
664.455	0.0164610
664.533	0.0165163
664.611	0.0165936
664.689	0.0165014
664.767	0.0165999
664.846	0.0166741
664.924	0.0166541
665.002	0.0166546
665.080	0.0164643
665.158	0.0164395
665.236	0.0165264
665.314	0.0164537
665.392	0.0165839
665.471	0.0165382
665.549	0.0164975
665.627	0.0165215
665.705	0.0165333
665.783	0.0165150
665.861	0.0165173
665.939	0.0164986
666.017	0.0166895
666.096	0.0165495
666.174	0.0167096
666.252	0.0164706
666.330	0.0165017
666.408	0.0165816
666.486	0.0164936
666.564	0.0165327
666.642	0.0166122
666.721	0.0164842
666.799	0.0165478
666.877	0.0164906
666.955	0.0166058
667.033	0.0166412
667.111	0.0165383
667.189	0.0165221
667.267	0.0164455
667.346	0.0164876
667.424	0.0165665
667.502	0.0165658
667.580	0.0165485
667.658	0.0164841
667.736	0.0167022
667.814	0.0165685
667.892	0.0165967
667.971	0.0164188
668.049	0.0164404
668.127	0.0166253
668.205	0.0165754
668.283	0.0165472
668.361	0.0166203
668.439	0.0165133
668.517	0.0165035
668.596	0.0164566
668.674	0.0165170
668.752	0.0164563
668.830	0.0164249
668.908	0.0165160
668.986	0.0165396
669.064	0.0164831
669.142	0.0164690
669.221	0.0167039
669.299	0.0165695
669.377	0.0164785
669.455	0.0164619
669.533	0.0165756
669.611	0.0165736
669.689	0.0164792
669.767	0.0166628
669.846	0.0165810
669.924	0.0165590
670.002	0.0164793
670.080	0.0163712
670.158	0.0165845
670.236	0.0164748
670.314	0.0164368
670.392	0.0164353
670.471	0.0164227
670.549	0.0166424
670.627	0.0165285
670.705	0.0164803
670.783	0.0164587
670.861	0.0164625
670.939	0.0164402
671.017	0.0166010
671.096	0.0165308
671.174	0.0165165
671.252	0.0164970
671.330	0.0165163
671.408	0.0164767
671.486	0.0164938
671.564	0.0165697
671.642	0.0164874
671.721	0.0165115
671.799	0.0165108
671.877	0.0165211
671.955	0.0165476
672.033	0.0164906
672.111	0.0165401
672.189	0.0165421
672.267	0.0165240
672.346	0.0165562
672.424	0.0163985
672.502	0.0166434
672.580	0.0165639
672.658	0.0165205
672.736	0.0165613
672.814	0.0164801
672.892	0.0165836
672.971	0.0166526
673.049	0.0164571
673.127	0.0164880
673.205	0.0165940
673.283	0.0164693
673.361	0.0164717
673.439	0.0165076
673.517	0.0165990
673.596	0.0164419
673.674	0.0165487
673.752	0.0165974
673.830	0.0164861
673.908	0.0164682
673.986	0.0164100
674.064	0.0163757
674.142	0.0164647
674.221	0.0164428
674.299	0.0164234
674.377	0.0163177
674.455	0.0163665
674.533	0.0164727
674.611	0.0164505
674.689	0.0164253
674.767	0.0163869
674.846	0.0164593
674.924	0.0164648
675.002	0.0164079
675.080	0.0163884
675.158	0.0163606
675.236	0.0163464
675.314	0.0164127
675.392	0.0163183
675.471	0.0163125
675.549	0.0163984
675.627	0.0162742
675.705	0.0162940
675.783	0.0163708
675.861	0.0163957
675.939	0.0163332
676.017	0.0163711
676.096	0.0162633
676.174	0.0164306
676.252	0.0164083
676.330	0.0163850
676.408	0.0164255
676.486	0.0163168
676.564	0.0163291
676.642	0.0163362
676.721	0.0165179
676.799	0.0163617
676.877	0.0163997
676.955	0.0164850
677.033	0.0164114
677.111	0.0165381
677.189	0.0163475
677.267	0.0163643
677.346	0.0164960
677.424	0.0164124
677.502	0.0164777
677.580	0.0163326
677.658	0.0162975
677.736	0.0163459
677.814	0.0163754
677.892	0.0165585
677.971	0.0164550
678.049	0.0164119
678.127	0.0164349
678.205	0.0165811
678.283	0.0164376
678.361	0.0164828
678.439	0.0163658
678.517	0.0164146
678.596	0.0164533
678.674	0.0164867
678.752	0.0164053
678.830	0.0164937
678.908	0.0165050
678.986	0.0165172
679.064	0.0165204
679.142	0.0164406
679.221	0.0165463
679.299	0.0165032
679.377	0.0165420
679.455	0.0165070
679.533	0.0165105
679.611	0.0164754
679.689	0.0166316
679.767	0.0165903
679.846	0.0163582
679.924	0.0164436
680.002	0.0164886
680.080	0.0165370
680.158	0.0165273
680.236	0.0164988
680.314	0.0165395
680.392	0.0165957
680.471	0.0164555
680.549	0.0165967
680.627	0.0165929
680.705	0.0164203
680.783	0.0165057
680.861	0.0165175
680.939	0.0165601
681.017	0.0164125
681.096	0.0165884
681.174	0.0165226
681.252	0.0165456
681.330	0.0166370
681.408	0.0164130
681.486	0.0164594
681.564	0.0165121
681.642	0.0165028
681.721	0.0166309
681.799	0.0165562
681.877	0.0166735
681.955	0.0166536
682.033	0.0166309
682.111	0.0165827
682.189	0.0165046
682.267	0.0166458
682.346	0.0166702
682.424	0.0165101
682.502	0.0165249
682.580	0.0166869
682.658	0.0166911
682.736	0.0164980
682.814	0.0165874
682.892	0.0164522
682.971	0.0166090
683.049	0.0166071
683.127	0.0165849
683.205	0.0165030
683.283	0.0165289
683.361	0.0166909
683.439	0.0166444
683.517	0.0166570
683.596	0.0165227
683.674	0.0165012
683.752	0.0165462
683.830	0.0164992
683.908	0.0164317
683.986	0.0165368
684.064	0.0166237
684.142	0.0165213
684.221	0.0165981
684.299	0.0164437
684.377	0.0164410
684.455	0.0165775
684.533	0.0165487
684.611	0.0165266
684.689	0.0164266
684.767	0.0164491
684.846	0.0165203
684.924	0.0164875
685.002	0.0165028
685.080	0.0165493
685.158	0.0164632
685.236	0.0164844
685.314	0.0164600
685.392	0.0165654
685.471	0.0165112
685.549	0.0164813
685.627	0.0166303
685.705	0.0165172
685.783	0.0165654
685.861	0.0165431
685.939	0.0163500
686.017	0.0165476
686.096	0.0165979
686.174	0.0165749
686.252	0.0164536
686.330	0.0165919
686.408	0.0167537
686.486	0.0166909
686.564	0.0165661
686.642	0.0166216
686.721	0.0167348
686.799	0.0165813
686.877	0.0165083
686.955	0.0166166
687.033	0.0165989
687.111	0.0165977
687.189	0.0167330
687.267	0.0166325
687.346	0.0163993
687.424	0.0165423
687.502	0.0166016
687.580	0.0165408
687.658	0.0165450
687.736	0.0166114
687.814	0.0165903
687.892	0.0165737
687.971	0.0165067
688.049	0.0165668
688.127	0.0165765
688.205	0.0165786
688.283	0.0164899
688.361	0.0163686
688.439	0.0165730
688.517	0.0165185
688.596	0.0165664
688.674	0.0165716
688.752	0.0165461
688.830	0.0164635
688.908	0.0164802
688.986	0.0165360
689.064	0.0166797
689.142	0.0166006
689.221	0.0167872
689.299	0.0166741
689.377	0.0166032
689.455	0.0165588
689.533	0.0166623
689.611	0.0166312
689.689	0.0166093
689.767	0.0166178
689.846	0.0166495
689.924	0.0165350
690.002	0.0165231
690.080	0.0165900
690.158	0.0164526
690.236	0.0164477
690.314	0.0165306
690.392	0.0166906
690.471	0.0165718
690.549	0.0164341
690.627	0.0166436
690.705	0.0165276
690.783	0.0165835
690.861	0.0164641
690.939	0.0163651
691.017	0.0165430
691.096	0.0164677
691.174	0.0164952
691.252	0.0165717
691.330	0.0164184
691.408	0.0165301
691.486	0.0165058
691.564	0.0165204
691.642	0.0166888
691.721	0.0165422
691.799	0.0164378
691.877	0.0165475
691.955	0.0167015
692.033	0.0164797
692.111	0.0165588
692.189	0.0165325
692.267	0.0166232
692.346	0.0166042
692.424	0.0165809
692.502	0.0165625
692.580	0.0165149
692.658	0.0165431
692.736	0.0166911
692.814	0.0166425
692.892	0.0165887
692.971	0.0166287
693.049	0.0165977
693.127	0.0166577
693.205	0.0166690
693.283	0.0165212
693.361	0.0166461
693.439	0.0166248
693.517	0.0166956
693.596	0.0166193
693.674	0.0166574
693.752	0.0165806
693.830	0.0165095
693.908	0.0165678
693.986	0.0165247
694.064	0.0165330
694.142	0.0163983
694.221	0.0164668
694.299	0.0164394
694.377	0.0165025
694.455	0.0164145
694.533	0.0163305
694.611	0.0162891
694.689	0.0162842
694.767	0.0162672
694.846	0.0165431
694.924	0.0164372
695.002	0.0163828
695.080	0.0163644
695.158	0.0163798
695.236	0.0163653
695.314	0.0164294
695.392	0.0164718
695.471	0.0166481
695.549	0.0165788
695.627	0.0163759
695.705	0.0165238
695.783	0.0165404
695.861	0.0165926
695.939	0.0166082
696.017	0.0166534
696.096	0.0164565
696.174	0.0164745
696.252	0.0166293
696.330	0.0165606
696.408	0.0164284
696.486	0.0166763
696.564	0.0165008
696.642	0.0163559
696.721	0.0164928
696.799	0.0163731
696.877	0.0163626
696.955	0.0162920
697.033	0.0165202
697.111	0.0164651
697.189	0.0163477
697.267	0.0164627
697.346	0.0163943
697.424	0.0163812
697.502	0.0165114
697.580	0.0164946
697.658	0.0165009
697.736	0.0165601
697.814	0.0164289
697.892	0.0163567
697.971	0.0165408
698.049	0.0165211
698.127	0.0165381
698.205	0.0166502
698.283	0.0165213
698.361	0.0164812
698.439	0.0165244
698.517	0.0165313
698.596	0.0163515
698.674	0.0163552
698.752	0.0164738
698.830	0.0164666
698.908	0.0163413
698.986	0.0164494
699.064	0.0164587
699.142	0.0165517
699.221	0.0164138
699.299	0.0162837
699.377	0.0163625
699.455	0.0163969
699.533	0.0165231
699.611	0.0161721
699.689	0.0163814
699.767	0.0162876
699.846	0.0164284
699.924	0.0163142
700.002	0.0161929
700.080	0.0161478
700.158	0.0162012
700.236	0.0163147
700.314	0.0162400
700.392	0.0160874
700.471	0.0161430
700.549	0.0161275
700.627	0.0160775
700.705	0.0161329
700.783	0.0160900
700.861	0.0159186
700.939	0.0163004
701.017	0.0161311
701.096	0.0162251
701.174	0.0162127
701.252	0.0162244
701.330	0.0163951
701.408	0.0164225
701.486	0.0165022
701.564	0.0165031
701.642	0.0165738
701.721	0.0166188
701.799	0.0164905
701.877	0.0165816
701.955	0.0167929
702.033	0.0167126
702.111	0.0167263
702.189	0.0167724
702.267	0.0168454
702.346	0.0166570
702.424	0.0166592
702.502	0.0166755
702.580	0.0166208
702.658	0.0166580
702.736	0.0165974
702.814	0.0166361
702.892	0.0164172
702.971	0.0164014
703.049	0.0163566
703.127	0.0163004
703.205	0.0163091
703.283	0.0162619
703.361	0.0161225
703.439	0.0161417
703.517	0.0162053
703.596	0.0160291
703.674	0.0161510
703.752	0.0161018
703.830	0.0162492
703.908	0.0162428
703.986	0.0160179
704.064	0.0161724
704.142	0.0162582
704.221	0.0164402
704.299	0.0162659
704.377	0.0163241
704.455	0.0164169
704.533	0.0164941
704.611	0.0166241
704.689	0.0166235
704.767	0.0165916
704.846	0.0165270
704.924	0.0165323
705.002	0.0166141
705.080	0.0165446
705.158	0.0164211
705.236	0.0165801
705.314	0.0164796
705.392	0.0164204
705.471	0.0164218
705.549	0.0164192
705.627	0.0163177
705.705	0.0162022
705.783	0.0161649
705.861	0.0162344
705.939	0.0163478
706.017	0.0163323
706.096	0.0163013
706.174	0.0164730
706.252	0.0164342
706.330	0.0163730
706.408	0.0164513
706.486	0.0164483
706.564	0.0165017
706.642	0.0164861
706.721	0.0164100
706.799	0.0165461
706.877	0.0165963
706.955	0.0165150
707.033	0.0164262
707.111	0.0166413
707.189	0.0165643
707.267	0.0163975
707.346	0.0163615
707.424	0.0164984
707.502	0.0164285
707.580	0.0163864
707.658	0.0163789
707.736	0.0164453
707.814	0.0163861
707.892	0.0164233
707.971	0.0164808
708.049	0.0164874
708.127	0.0166096
708.205	0.0166508
708.283	0.0165985
708.361	0.0165062
708.439	0.0166160
708.517	0.0165572
708.596	0.0166090
708.674	0.0164807
708.752	0.0165426
708.830	0.0164614
708.908	0.0164386
708.986	0.0163155
709.064	0.0164425
709.142	0.0164048
709.221	0.0163358
709.299	0.0162650
709.377	0.0162434
709.455	0.0162120
709.533	0.0162821
709.611	0.0164361
709.689	0.0165173
709.767	0.0164874
709.846	0.0164087
709.924	0.0163577
710.002	0.0166325
710.080	0.0165616
710.158	0.0165202
710.236	0.0168047
710.314	0.0166864
710.392	0.0166802
710.471	0.0167506
710.549	0.0167258
710.627	0.0167295
710.705	0.0167950
710.783	0.0167067
710.861	0.0167216
710.939	0.0166902
711.017	0.0165166
711.096	0.0166492
711.174	0.0165073
711.252	0.0163670
711.330	0.0164217
711.408	0.0163611
711.486	0.0164466
711.564	0.0163190
711.642	0.0164794
711.721	0.0163484
711.799	0.0163724
711.877	0.0163935
711.955	0.0163937
712.033	0.0164818
712.111	0.0164858
712.189	0.0164526
712.267	0.0164497
712.346	0.0166188
712.424	0.0165157
712.502	0.0165117
712.580	0.0165968
712.658	0.0164219
712.736	0.0164951
712.814	0.0165418
712.892	0.0164406
712.971	0.0164006
713.049	0.0164433
713.127	0.0164135
713.205	0.0163132
713.283	0.0163597
713.361	0.0162408
713.439	0.0162022
713.517	0.0162114
713.596	0.0163256
713.674	0.0162282
713.752	0.0162669
713.830	0.0163176
713.908	0.0163273
713.986	0.0162652
714.064	0.0162945
714.142	0.0163313
714.221	0.0163374
714.299	0.0165957
714.377	0.0163480
714.455	0.0164641
714.533	0.0164401
714.611	0.0164202
714.689	0.0164136
714.767	0.0165308
714.846	0.0163353
714.924	0.0163445
715.002	0.0164146
715.080	0.0164497
715.158	0.0164055
715.236	0.0163311
715.314	0.0163257
715.392	0.0163760
715.471	0.0165662
715.549	0.0165925
715.627	0.0164731
715.705	0.0165522
715.783	0.0167170
715.861	0.0166405
715.939	0.0167631
716.017	0.0168007
716.096	0.0167871
716.174	0.0169583
716.252	0.0169559
716.330	0.0170076
716.408	0.0168272
716.486	0.0167997
716.564	0.0169521
716.642	0.0169092
716.721	0.0167599
716.799	0.0167710
716.877	0.0167446
716.955	0.0164641
717.033	0.0167001
717.111	0.0163857
717.189	0.0163527
717.267	0.0163447
717.346	0.0161440
717.424	0.0161205
717.502	0.0162477
717.580	0.0161266
717.658	0.0162999
717.736	0.0162737
717.814	0.0162315
717.892	0.0162995
717.971	0.0164632
718.049	0.0163330
718.127	0.0164122
718.205	0.0165342
718.283	0.0164697
718.361	0.0164725
718.439	0.0166726
718.517	0.0163865
718.596	0.0165381
718.674	0.0165004
718.752	0.0165273
718.830	0.0164817
718.908	0.0163631
718.986	0.0162747
719.064	0.0162217
719.142	0.0163737
719.221	0.0162230
719.299	0.0160815
719.377	0.0163658
719.455	0.0162988
719.533	0.0162407
719.611	0.0163195
719.689	0.0164277
719.767	0.0165417
719.846	0.0164146
719.924	0.0165229
720.002	0.0163736
720.080	0.0164199
720.158	0.0164195
720.236	0.0164705
720.314	0.0165883
720.392	0.0166412
720.471	0.0165079
720.549	0.0165665
720.627	0.0165251
720.705	0.0166578
720.783	0.0166159
720.861	0.0165716
720.939	0.0166795
721.017	0.0167261
721.096	0.0167191
721.174	0.0168093
721.252	0.0167348
721.330	0.0166785
721.408	0.0166978
721.486	0.0167073
721.564	0.0166582
721.642	0.0167006
721.721	0.0166058
721.799	0.0167492
721.877	0.0165788
721.955	0.0164521
722.033	0.0165977
722.111	0.0164675
722.189	0.0164417
722.267	0.0163882
722.346	0.0162934
722.424	0.0163030
722.502	0.0163043
722.580	0.0161926
722.658	0.0163956
722.736	0.0163162
722.814	0.0163549
722.892	0.0163641
722.971	0.0162833
723.049	0.0164036
723.127	0.0162927
723.205	0.0164705
723.283	0.0164799
723.361	0.0166056
723.439	0.0164610
723.517	0.0165372
723.596	0.0167213
723.674	0.0165961
723.752	0.0164278
723.830	0.0165197
723.908	0.0163997
723.986	0.0164231
724.064	0.0163114
724.142	0.0164359
724.221	0.0163199
724.299	0.0164452
724.377	0.0162567
724.455	0.0162338
724.533	0.0163429
724.611	0.0162809
724.689	0.0161970
724.767	0.0162713
724.846	0.0162041
724.924	0.0162901
725.002	0.0163058
725.080	0.0164019
725.158	0.0163509
725.236	0.0163898
725.314	0.0163438
725.392	0.0163794
725.471	0.0163634
725.549	0.0164751
725.627	0.0164510
725.705	0.0165150
725.783	0.0165537
725.861	0.0163723
725.939	0.0163493
726.017	0.0163189
726.096	0.0162508
726.174	0.0163590
726.252	0.0162136
726.330	0.0161768
726.408	0.0161388
726.486	0.0162442
726.564	0.0162057
726.642	0.0163391
726.721	0.0161812
726.799	0.0162458
726.877	0.0163371
726.955	0.0163423
727.033	0.0163273
727.111	0.0163634
727.189	0.0163314
727.267	0.0163858
727.346	0.0163495
727.424	0.0163925
727.502	0.0165186
727.580	0.0163778
727.658	0.0165168
727.736	0.0164417
727.814	0.0165166
727.892	0.0165912
727.971	0.0164017
728.049	0.0165700
728.127	0.0165939
728.205	0.0165079
728.283	0.0165082
728.361	0.0165880
728.439	0.0165952
728.517	0.0166278
728.596	0.0167249
728.674	0.0166328
728.752	0.0165879
728.830	0.0166297
728.908	0.0167809
728.986	0.0167014
729.064	0.0165087
729.142	0.0165475
729.221	0.0166102
729.299	0.0166605
729.377	0.0165608
729.455	0.0165546
729.533	0.0164963
729.611	0.0164696
729.689	0.0164523
729.767	0.0163439
729.846	0.0163617
729.924	0.0163872
730.002	0.0163393
730.080	0.0162124
730.158	0.0163440
730.236	0.0162146
730.314	0.0161311
730.392	0.0161326
730.471	0.0161710
730.549	0.0161201
730.627	0.0161224
730.705	0.0162886
730.783	0.0163004
730.861	0.0164554
730.939	0.0165108
731.017	0.0165568
731.096	0.0165963
731.174	0.0167265
731.252	0.0167637
731.330	0.0169125
731.408	0.0168143
731.486	0.0167886
731.564	0.0167167
731.642	0.0167936
731.721	0.0166110
731.799	0.0166837
731.877	0.0167669
731.955	0.0165712
732.033	0.0165658
732.111	0.0165240
732.189	0.0163580
732.267	0.0162903
732.346	0.0162285
732.424	0.0161485
732.502	0.0161391
732.580	0.0162123
732.658	0.0161243
732.736	0.0160656
732.814	0.0159063
732.892	0.0159978
732.971	0.0159501
733.049	0.0158932
733.127	0.0158743
733.205	0.0160104
733.283	0.0160330
733.361	0.0161190
733.439	0.0161634
733.517	0.0162450
733.596	0.0165050
733.674	0.0164469
733.752	0.0162914
733.830	0.0165887
733.908	0.0165011
733.986	0.0165401
734.064	0.0167398
734.142	0.0168229
734.221	0.0166921
734.299	0.0167648
734.377	0.0168576
734.455	0.0169031
734.533	0.0168830
734.611	0.0169038
734.689	0.0169624
734.767	0.0168125
734.846	0.0168103
734.924	0.0168378
735.002	0.0167017
735.080	0.0167802
735.158	0.0165771
735.236	0.0165237
735.314	0.0165037
735.392	0.0165019
735.471	0.0163718
735.549	0.0162720
735.627	0.0161074
735.705	0.0161208
735.783	0.0162093
735.861	0.0160636
735.939	0.0160523
736.017	0.0159371
736.096	0.0159274
736.174	0.0160119
736.252	0.0160858
736.330	0.0160903
736.408	0.0161111
736.486	0.0160587
736.564	0.0160719
736.642	0.0160798
736.721	0.0161674
736.799	0.0162821
736.877	0.0163189
736.955	0.0163830
737.033	0.0163823
737.111	0.0164176
737.189	0.0165311
737.267	0.0165896
737.346	0.0166338
737.424	0.0165791
737.502	0.0166339
737.580	0.0167305
737.658	0.0168721
737.736	0.0167540
737.814	0.0167089
737.892	0.0168364
737.971	0.0167540
738.049	0.0167100
738.127	0.0167568
738.205	0.0169048
738.283	0.0167511
738.361	0.0169193
738.439	0.0168452
738.517	0.0168790
738.596	0.0167877
738.674	0.0165918
738.752	0.0165843
738.830	0.0166606
738.908	0.0166449
738.986	0.0167113
739.064	0.0164741
739.142	0.0162470
739.221	0.0164036
739.299	0.0164445
739.377	0.0162115
739.455	0.0163599
739.533	0.0163156
739.611	0.0163056
739.689	0.0162218
739.767	0.0162158
739.846	0.0162626
739.924	0.0162128
740.002	0.0162260
740.080	0.0162925
740.158	0.0162904
740.236	0.0163616
740.314	0.0165223
740.392	0.0163661
740.471	0.0163581
740.549	0.0164314
740.627	0.0167688
740.705	0.0164457
740.783	0.0165594
740.861	0.0165737
740.939	0.0166775
741.017	0.0166013
741.096	0.0165625
741.174	0.0165719
741.252	0.0166146
741.330	0.0164867
741.408	0.0164814
741.486	0.0164571
741.564	0.0165105
741.642	0.0164982
741.721	0.0165950
741.799	0.0165323
741.877	0.0164300
741.955	0.0163969
742.033	0.0164518
742.111	0.0163892
742.189	0.0163457
742.267	0.0165865
742.346	0.0166601
742.424	0.0165538
742.502	0.0165836
742.580	0.0166409
742.658	0.0167165
742.736	0.0166564
742.814	0.0167740
742.892	0.0166740
742.971	0.0168204
743.049	0.0167159
743.127	0.0167798
743.205	0.0167197
743.283	0.0166492
743.361	0.0166001
743.439	0.0165302
743.517	0.0164832
743.596	0.0166119
743.674	0.0164166
743.752	0.0165151
743.830	0.0163695
743.908	0.0163403
743.986	0.0162584
744.064	0.0161779
744.142	0.0162489
744.221	0.0163660
744.299	0.0163194
744.377	0.0162299
744.455	0.0162677
744.533	0.0161951
744.611	0.0163339
744.689	0.0163134
744.767	0.0163435
744.846	0.0163781
744.924	0.0163393
745.002	0.0164032
745.080	0.0165507
745.158	0.0165190
745.236	0.0165945
745.314	0.0166302
745.392	0.0165141
745.471	0.0166383
745.549	0.0166375
745.627	0.0165213
745.705	0.0166491
745.783	0.0166391
745.861	0.0164058
745.939	0.0165510
746.017	0.0165171
746.096	0.0165757
746.174	0.0164690
746.252	0.0164541
746.330	0.0165202
746.408	0.0164822
746.486	0.0164366
746.564	0.0164706
746.642	0.0164790
746.721	0.0165114
746.799	0.0165496
746.877	0.0166325
746.955	0.0164716
747.033	0.0166088
747.111	0.0166530
747.189	0.0167227
747.267	0.0167267
747.346	0.0166645
747.424	0.0166145
747.502	0.0168685
747.580	0.0168314
747.658	0.0169073
747.736	0.0169057
747.814	0.0167734
747.892	0.0168284
747.971	0.0168671
748.049	0.0168559
748.127	0.0167024
748.205	0.0169030
748.283	0.0168361
748.361	0.0167483
748.439	0.0166236
748.517	0.0166396
748.596	0.0167463
748.674	0.0166624
748.752	0.0165424
748.830	0.0165561
748.908	0.0165466
748.986	0.0163677
749.064	0.0164368
749.142	0.0164848
749.221	0.0164938
749.299	0.0162337
749.377	0.0162733
749.455	0.0163572
749.533	0.0162918
749.611	0.0162553
749.689	0.0163223
749.767	0.0164731
749.846	0.0163104
749.924	0.0162516
750.002	0.0162674
750.080	0.0162772
750.158	0.0164444
750.236	0.0165616
750.314	0.0163197
750.392	0.0164516
750.471	0.0164949
750.549	0.0164307
750.627	0.0164395
750.705	0.0164718
750.783	0.0164320
750.861	0.0164632
750.939	0.0164341
751.017	0.0164799
751.096	0.0163023
751.174	0.0164240
751.252	0.0165321
751.330	0.0163768
751.408	0.0164059
751.486	0.0164626
751.564	0.0164970
751.642	0.0165258
751.721	0.0166312
751.799	0.0165250
751.877	0.0165878
751.955	0.0165995
752.033	0.0166312
752.111	0.0165940
752.189	0.0166119
752.267	0.0166756
752.346	0.0167027
752.424	0.0165926
752.502	0.0166575
752.580	0.0167812
752.658	0.0167932
752.736	0.0167337
752.814	0.0167696
752.892	0.0168106
752.971	0.0169066
753.049	0.0166811
753.127	0.0167034
753.205	0.0169293
753.283	0.0167714
753.361	0.0165794
753.439	0.0166960
753.517	0.0166977
753.596	0.0167526
753.674	0.0164316
753.752	0.0166402
753.830	0.0165775
753.908	0.0165106
753.986	0.0164373
754.064	0.0165783
754.142	0.0163657
754.221	0.0164555
754.299	0.0164662
754.377	0.0164650
754.455	0.0162355
754.533	0.0164434
754.611	0.0163368
754.689	0.0162924
754.767	0.0164659
754.846	0.0163863
754.924	0.0165226
755.002	0.0163393
755.080	0.0163443
755.158	0.0165373
755.236	0.0163184
755.314	0.0163508
755.392	0.0162596
755.471	0.0164272
755.549	0.0164983
755.627	0.0162354
755.705	0.0164396
755.783	0.0165321
755.861	0.0164664
755.939	0.0163309
756.017	0.0163526
756.096	0.0164837
756.174	0.0165610
756.252	0.0165234
756.330	0.0165430
756.408	0.0165584
756.486	0.0164879
756.564	0.0167213
756.642	0.0166928
756.721	0.0167398
756.799	0.0166803
756.877	0.0168001
756.955	0.0165457
757.033	0.0165472
757.111	0.0166966
757.189	0.0167351
757.267	0.0167125
757.346	0.0166175
757.424	0.0166483
757.502	0.0166079
757.580	0.0166996
757.658	0.0165628
757.736	0.0165449
757.814	0.0164342
757.892	0.0164853
757.971	0.0164689
758.049	0.0165122
758.127	0.0167047
758.205	0.0165690
758.283	0.0166084
758.361	0.0165640
758.439	0.0163909
758.517	0.0165954
758.596	0.0166142
758.674	0.0165879
758.752	0.0165730
758.830	0.0166456
758.908	0.0164757
758.986	0.0166257
759.064	0.0166299
759.142	0.0164622
759.221	0.0164648
759.299	0.0164960
759.377	0.0163995
759.455	0.0163924
759.533	0.0163281
759.611	0.0162100
759.689	0.0162983
759.767	0.0163641
759.846	0.0166096
759.924	0.0163247
760.002	0.0163277
760.080	0.0163440
760.158	0.0162885
760.236	0.0163988
760.314	0.0163950
760.392	0.0163298
760.471	0.0163891
760.549	0.0162069
760.627	0.0162742
760.705	0.0163403
760.783	0.0162858
760.861	0.0163808
760.939	0.0163176
761.017	0.0162160
761.096	0.0162299
761.174	0.0163253
761.252	0.0163183
761.330	0.0160868
761.408	0.0162929
761.486	0.0162363
761.564	0.0163298
761.642	0.0163622
761.721	0.0163622
761.799	0.0164077
761.877	0.0163751
761.955	0.0164806
762.033	0.0163932
762.111	0.0164809
762.189	0.0164048
762.267	0.0164982
762.346	0.0166991
762.424	0.0165005
762.502	0.0164754
762.580	0.0164936
762.658	0.0164523
762.736	0.0166610
762.814	0.0165073
762.892	0.0163250
762.971	0.0164940
763.049	0.0165112
763.127	0.0165461
763.205	0.0165308
763.283	0.0164725
763.361	0.0164821
763.439	0.0165241
763.517	0.0163676
763.596	0.0162868
763.674	0.0164435
763.752	0.0163047
763.830	0.0164466
763.908	0.0162213
763.986	0.0162366
764.064	0.0163542
764.142	0.0162918
764.221	0.0162081
764.299	0.0162549
764.377	0.0162717
764.455	0.0162669
764.533	0.0163237
764.611	0.0164524
764.689	0.0163800
764.767	0.0163093
764.846	0.0163904
764.924	0.0163269
765.002	0.0164241
765.080	0.0164994
765.158	0.0164700
765.236	0.0165390
765.314	0.0163839
765.392	0.0165121
765.471	0.0166256
765.549	0.0164289
765.627	0.0164810
765.705	0.0165323
765.783	0.0164933
765.861	0.0164406
765.939	0.0165628
766.017	0.0165863
766.096	0.0166859
766.174	0.0166181
766.252	0.0166090
766.330	0.0165532
766.408	0.0165780
766.486	0.0166143
766.564	0.0166033
766.642	0.0164786
766.721	0.0165266
766.799	0.0166299
766.877	0.0165641
766.955	0.0165791
767.033	0.0165588
767.111	0.0165447
767.189	0.0164629
767.267	0.0164974
767.346	0.0165926
767.424	0.0165946
767.502	0.0165696
767.580	0.0165849
767.658	0.0166026
767.736	0.0166277
767.814	0.0166364
767.892	0.0167051
767.971	0.0164806
768.049	0.0166298
768.127	0.0166412
768.205	0.0167376
768.283	0.0166335
768.361	0.0167081
768.439	0.0166532
768.517	0.0165350
768.596	0.0166545
768.674	0.0165200
768.752	0.0165090
768.830	0.0166568
768.908	0.0166414
768.986	0.0164735
769.064	0.0164181
769.142	0.0163082
769.221	0.0162281
769.299	0.0163406
769.377	0.0163530
769.455	0.0163904
769.533	0.0164394
769.611	0.0162494
769.689	0.0163641
769.767	0.0164800
769.846	0.0165898
769.924	0.0164646
770.002	0.0165547
770.080	0.0165765
770.158	0.0165997
770.236	0.0166665
770.314	0.0165924
770.392	0.0166831
770.471	0.0165972
770.549	0.0166679
770.627	0.0167801
770.705	0.0167780
770.783	0.0166328
770.861	0.0165081
770.939	0.0167245
771.017	0.0166229
771.096	0.0166044
771.174	0.0165063
771.252	0.0165563
771.330	0.0163541
771.408	0.0165205
771.486	0.0164183
771.564	0.0164439
771.642	0.0164072
771.721	0.0164362
771.799	0.0164155
771.877	0.0164300
771.955	0.0163785
772.033	0.0164156
772.111	0.0163320
772.189	0.0164214
772.267	0.0164341
772.346	0.0164919
772.424	0.0165591
772.502	0.0163859
772.580	0.0163552
772.658	0.0164095
772.736	0.0164907
772.814	0.0165566
772.892	0.0164104
772.971	0.0165089
773.049	0.0166322
773.127	0.0165663
773.205	0.0165356
773.283	0.0163875
773.361	0.0165347
773.439	0.0165261
773.517	0.0165099
773.596	0.0166475
773.674	0.0165593
773.752	0.0163754
773.830	0.0165536
773.908	0.0165530
773.986	0.0164737
774.064	0.0164795
774.142	0.0164033
774.221	0.0164051
774.299	0.0166076
774.377	0.0165302
774.455	0.0164757
774.533	0.0164803
774.611	0.0166243
774.689	0.0165554
774.767	0.0164671
774.846	0.0167015
774.924	0.0166401
775.002	0.0166379
775.080	0.0165031
775.158	0.0166805
775.236	0.0168053
775.314	0.0165323
775.392	0.0167078
775.471	0.0166998
775.549	0.0166519
775.627	0.0167554
775.705	0.0167052
775.783	0.0168355
775.861	0.0167106
775.939	0.0166535
776.017	0.0165656
776.096	0.0165456
776.174	0.0165416
776.252	0.0165005
776.330	0.0165952
776.408	0.0165102
776.486	0.0164539
776.564	0.0165607
776.642	0.0163717
776.721	0.0162367
776.799	0.0163565
776.877	0.0163484
776.955	0.0163711
777.033	0.0163394
777.111	0.0162044
777.189	0.0162923
777.267	0.0163065
777.346	0.0161517
777.424	0.0161893
777.502	0.0162252
777.580	0.0163679
777.658	0.0164347
777.736	0.0164637
777.814	0.0164349
777.892	0.0165034
777.971	0.0163680
778.049	0.0165765
778.127	0.0165945
778.205	0.0164341
778.283	0.0166685
778.361	0.0166618
778.439	0.0166139
778.517	0.0166502
778.596	0.0165355
778.674	0.0166116
778.752	0.0165662
778.830	0.0164866
778.908	0.0165520
778.986	0.0166589
779.064	0.0164529
779.142	0.0164030
779.221	0.0164313
779.299	0.0163838
779.377	0.0163604
779.455	0.0162167
779.533	0.0162491
779.611	0.0163088
779.689	0.0163914
779.767	0.0164177
779.846	0.0163464
779.924	0.0162489
780.002	0.0162681
780.080	0.0163854
780.158	0.0163473
780.236	0.0163531
780.314	0.0162762
780.392	0.0162972
780.471	0.0162478
780.549	0.0163780
780.627	0.0163524
780.705	0.0164691
780.783	0.0163467
780.861	0.0164574
780.939	0.0164682
781.017	0.0164658
781.096	0.0163684
781.174	0.0166381
781.252	0.0165235
781.330	0.0164548
781.408	0.0166024
781.486	0.0166449
781.564	0.0165013
781.642	0.0165902
781.721	0.0165597
781.799	0.0164385
781.877	0.0164664
781.955	0.0163510
782.033	0.0164180
782.111	0.0163710
782.189	0.0163662
782.267	0.0164079
782.346	0.0164769
782.424	0.0163474
782.502	0.0162626
782.580	0.0162503
782.658	0.0163425
782.736	0.0163482
782.814	0.0162573
782.892	0.0163144
782.971	0.0163614
783.049	0.0163230
783.127	0.0163385
783.205	0.0163300
783.283	0.0162596
783.361	0.0163276
783.439	0.0163481
783.517	0.0163969
783.596	0.0164010
783.674	0.0164023
783.752	0.0165034
783.830	0.0165095
783.908	0.0165069
783.986	0.0164902
784.064	0.0164847
784.142	0.0165902
784.221	0.0165816
784.299	0.0165913
784.377	0.0163759
784.455	0.0165679
784.533	0.0164824
784.611	0.0165055
784.689	0.0163628
784.767	0.0163896
784.846	0.0163318
784.924	0.0162717
785.002	0.0163765
785.080	0.0164349
785.158	0.0164192
785.236	0.0162462
785.314	0.0162749
785.392	0.0162584
785.471	0.0163899
785.549	0.0163776
785.627	0.0164468
785.705	0.0163258
785.783	0.0164439
785.861	0.0164949
785.939	0.0163861
786.017	0.0164388
786.096	0.0164005
786.174	0.0165209
786.252	0.0166476
786.330	0.0164693
786.408	0.0164915
786.486	0.0164883
786.564	0.0165816
786.642	0.0163655
786.721	0.0163402
786.799	0.0165332
786.877	0.0165598
786.955	0.0164349
787.033	0.0164722
787.111	0.0164935
787.189	0.0165615
787.267	0.0162238
787.346	0.0163051
787.424	0.0162907
787.502	0.0161608
787.580	0.0162038
787.658	0.0162392
787.736	0.0162169
787.814	0.0163069
787.892	0.0161022
787.971	0.0161671
788.049	0.0162048
788.127	0.0162000
788.205	0.0162820
788.283	0.0162547
788.361	0.0163052
788.439	0.0163196
788.517	0.0164700
788.596	0.0164134
788.674	0.0165636
788.752	0.0164714
788.830	0.0164739
788.908	0.0165175
788.986	0.0164835
789.064	0.0163383
789.142	0.0165751
789.221	0.0166712
789.299	0.0164077
789.377	0.0164020
789.455	0.0164121
789.533	0.0164356
789.611	0.0165210
789.689	0.0164236
789.767	0.0165485
789.846	0.0165163
789.924	0.0164405
790.002	0.0165564
790.080	0.0165429
790.158	0.0163396
790.236	0.0163684
790.314	0.0164424
790.392	0.0164479
790.471	0.0164780
790.549	0.0164967
790.627	0.0164623
790.705	0.0165013
790.783	0.0164892
790.861	0.0164995
790.939	0.0164101
791.017	0.0164082
791.096	0.0164762
791.174	0.0164308
791.252	0.0166669
791.330	0.0165712
791.408	0.0164414
791.486	0.0165759
791.564	0.0164735
791.642	0.0165913
791.721	0.0165108
791.799	0.0165796
791.877	0.0165550
791.955	0.0165575
792.033	0.0165454
792.111	0.0164639
792.189	0.0165884
792.267	0.0164825
792.346	0.0164037
792.424	0.0164547
792.502	0.0165082
792.580	0.0164224
792.658	0.0164762
792.736	0.0165228
792.814	0.0164223
792.892	0.0163290
792.971	0.0163107
793.049	0.0163280
793.127	0.0164777
793.205	0.0164411
793.283	0.0164679
793.361	0.0163929
793.439	0.0163129
793.517	0.0165111
793.596	0.0164482
793.674	0.0165286
793.752	0.0165313
793.830	0.0165511
793.908	0.0165771
793.986	0.0166124
794.064	0.0167001
794.142	0.0167474
794.221	0.0166929
794.299	0.0166805
794.377	0.0167128
794.455	0.0166777
794.533	0.0166937
794.611	0.0168068
794.689	0.0165893
794.767	0.0165333
794.846	0.0167381
794.924	0.0165107
795.002	0.0164718
795.080	0.0164644
795.158	0.0164483
795.236	0.0164700
795.314	0.0164344
795.392	0.0163792
795.471	0.0164977
795.549	0.0164167
795.627	0.0164259
795.705	0.0163529
795.783	0.0163460
795.861	0.0163426
795.939	0.0164217
796.017	0.0162266
796.096	0.0162001
796.174	0.0165124
796.252	0.0165067
796.330	0.0163658
796.408	0.0162735
796.486	0.0164759
796.564	0.0165154
796.642	0.0164805
796.721	0.0165598
796.799	0.0164699
796.877	0.0165794
796.955	0.0166099
797.033	0.0165940
797.111	0.0165495
797.189	0.0165704
797.267	0.0164989
797.346	0.0164169
797.424	0.0165343
797.502	0.0165887
797.580	0.0164655
797.658	0.0164595
797.736	0.0163888
797.814	0.0164326
797.892	0.0165390
797.971	0.0163468
798.049	0.0164033
798.127	0.0163811
798.205	0.0163909
798.283	0.0163471
798.361	0.0163812
798.439	0.0164486
798.517	0.0165781
798.596	0.0164779
798.674	0.0163972
798.752	0.0164127
798.830	0.0164972
798.908	0.0164792
798.986	0.0164642
799.064	0.0165286
799.142	0.0165987
799.221	0.0165051
799.299	0.0165433
799.377	0.0165208
799.455	0.0165755
799.533	0.0165872
799.611	0.0165043
799.689	0.0165993
799.767	0.0164159
799.846	0.0164881
799.924	0.0164094
800.002	0.0164472
800.080	0.0163525
800.158	0.0162224
800.236	0.0163136
800.314	0.0163145
800.392	0.0163393
800.471	0.0162515
800.549	0.0162592
800.627	0.0161967
800.705	0.0162480
800.783	0.0162171
800.861	0.0162503
800.939	0.0162761
801.017	0.0161246
801.096	0.0161891
801.174	0.0164041
801.252	0.0163154
801.330	0.0164819
801.408	0.0163702
801.486	0.0164340
801.564	0.0164539
801.642	0.0163621
801.721	0.0163532
801.799	0.0164314
801.877	0.0163367
801.955	0.0163609
802.033	0.0165557
802.111	0.0164457
802.189	0.0163297
802.267	0.0164815
802.346	0.0164856
802.424	0.0164843
802.502	0.0163960
802.580	0.0162888
802.658	0.0163851
802.736	0.0164577
802.814	0.0164597
802.892	0.0163692
802.971	0.0163889
803.049	0.0164375
803.127	0.0162930
803.205	0.0162209
803.283	0.0163628
803.361	0.0164721
803.439	0.0164054
803.517	0.0162745
803.596	0.0162916
803.674	0.0162257
803.752	0.0163286
803.830	0.0163848
803.908	0.0164716
803.986	0.0162453
804.064	0.0162183
804.142	0.0164979
804.221	0.0162782
804.299	0.0163486
804.377	0.0165228
804.455	0.0163732
804.533	0.0163128
804.611	0.0164403
804.689	0.0164068
804.767	0.0165279
804.846	0.0164859
804.924	0.0165196
805.002	0.0164857
805.080	0.0163467
805.158	0.0164822
805.236	0.0164162
805.314	0.0161846
805.392	0.0163799
805.471	0.0163902
805.549	0.0162766
805.627	0.0162399
805.705	0.0163754
805.783	0.0163477
805.861	0.0164585
805.939	0.0164516
806.017	0.0162153
806.096	0.0162774
806.174	0.0163615
806.252	0.0163674
806.330	0.0162403
806.408	0.0162587
806.486	0.0165684
806.564	0.0164618
806.642	0.0165009
806.721	0.0164555
806.799	0.0165873
806.877	0.0164081
806.955	0.0164789
807.033	0.0165275
807.111	0.0165160
807.189	0.0166444
807.267	0.0166094
807.346	0.0167001
807.424	0.0165791
807.502	0.0165576
807.580	0.0164716
807.658	0.0164288
807.736	0.0164050
807.814	0.0165748
807.892	0.0164871
807.971	0.0165192
808.049	0.0164211
808.127	0.0163058
808.205	0.0162766
808.283	0.0162975
808.361	0.0163064
808.439	0.0164175
808.517	0.0163100
808.596	0.0163038
808.674	0.0162514
808.752	0.0163112
808.830	0.0164910
808.908	0.0164331
808.986	0.0163454
809.064	0.0163370
809.142	0.0163290
809.221	0.0164885
809.299	0.0164432
809.377	0.0162862
809.455	0.0163964
809.533	0.0164205
809.611	0.0164073
809.689	0.0165137
809.767	0.0164894
809.846	0.0163708
809.924	0.0163681
810.002	0.0165388
810.080	0.0163989
810.158	0.0164767
810.236	0.0164091
810.314	0.0163531
810.392	0.0162286
810.471	0.0164922
810.549	0.0165533
810.627	0.0164008
810.705	0.0164461
810.783	0.0162344
810.861	0.0163474
810.939	0.0163648
811.017	0.0164153
811.096	0.0163519
811.174	0.0164060
811.252	0.0164368
811.330	0.0163867
811.408	0.0163874
811.486	0.0164787
811.564	0.0166295
811.642	0.0163977
811.721	0.0164803
811.799	0.0166442
811.877	0.0164288
811.955	0.0165298
812.033	0.0166106
812.111	0.0164983
812.189	0.0164850
812.267	0.0166236
812.346	0.0163991
812.424	0.0165475
812.502	0.0166151
812.580	0.0164880
812.658	0.0165455
812.736	0.0165643
812.814	0.0164730
812.892	0.0165396
812.971	0.0165042
813.049	0.0166351
813.127	0.0165337
813.205	0.0166415
813.283	0.0167056
813.361	0.0166380
813.439	0.0166218
813.517	0.0167021
813.596	0.0167523
813.674	0.0167317
813.752	0.0166471
813.830	0.0167263
813.908	0.0165292
813.986	0.0165901
814.064	0.0166706
814.142	0.0166570
814.221	0.0165340
814.299	0.0165737
814.377	0.0165361
814.455	0.0165025
814.533	0.0164852
814.611	0.0166791
814.689	0.0166459
814.767	0.0164942
814.846	0.0166339
814.924	0.0167745
815.002	0.0165984
815.080	0.0166642
815.158	0.0165029
815.236	0.0164016
815.314	0.0164704
815.392	0.0166123
815.471	0.0167356
815.549	0.0165770
815.627	0.0165677
815.705	0.0165080
815.783	0.0164345
815.861	0.0164909
815.939	0.0165190
816.017	0.0165096
816.096	0.0163696
816.174	0.0163199
816.252	0.0164642
816.330	0.0165870
816.408	0.0165996
816.486	0.0163997
816.564	0.0164163
816.642	0.0164817
816.721	0.0165248
816.799	0.0165251
816.877	0.0164517
816.955	0.0165082
817.033	0.0166432
817.111	0.0165412
817.189	0.0165829
817.267	0.0165730
817.346	0.0165208
817.424	0.0165340
817.502	0.0165547
817.580	0.0165546
817.658	0.0165253
817.736	0.0165801
817.814	0.0166010
817.892	0.0166202
817.971	0.0165953
818.049	0.0166965
818.127	0.0166234
818.205	0.0166677
818.283	0.0164406
818.361	0.0165418
818.439	0.0166165
818.517	0.0165170
818.596	0.0163938
818.674	0.0165514
818.752	0.0165090
818.830	0.0165002
818.908	0.0165105
818.986	0.0164510
819.064	0.0164250
819.142	0.0164892
819.221	0.0164542
819.299	0.0163610
819.377	0.0163304
819.455	0.0164897
819.533	0.0164381
819.611	0.0164524
819.689	0.0164143
819.767	0.0164841
819.846	0.0164585
819.924	0.0165007
820.002	0.0164693
820.080	0.0163718
820.158	0.0165244
820.236	0.0165142
820.314	0.0163972
820.392	0.0164424
820.471	0.0164768
820.549	0.0165758
820.627	0.0165062
820.705	0.0164545
820.783	0.0164241
820.861	0.0163237
820.939	0.0166055
821.017	0.0165276
821.096	0.0163800
821.174	0.0165138
821.252	0.0165891
821.330	0.0163854
821.408	0.0165074
821.486	0.0165644
821.564	0.0165543
821.642	0.0164046
821.721	0.0163638
821.799	0.0165371
821.877	0.0164716
821.955	0.0165141
822.033	0.0165097
822.111	0.0164359
822.189	0.0164885
822.267	0.0164903
822.346	0.0164685
822.424	0.0163953
822.502	0.0163067
822.580	0.0164129
822.658	0.0164888
822.736	0.0164001
822.814	0.0165108
822.892	0.0164159
822.971	0.0163844
823.049	0.0163879
823.127	0.0164330
823.205	0.0164034
823.283	0.0164429
823.361	0.0163377
823.439	0.0162680
823.517	0.0164670
823.596	0.0164482
823.674	0.0164993
823.752	0.0163557
823.830	0.0163670
823.908	0.0164571
823.986	0.0163361
824.064	0.0164610
824.142	0.0164294
824.221	0.0165112
824.299	0.0164836
824.377	0.0164407
824.455	0.0163477
824.533	0.0164758
824.611	0.0164626
824.689	0.0164869
824.767	0.0163656
824.846	0.0164780
824.924	0.0163937
825.002	0.0166233
825.080	0.0164002
825.158	0.0164487
825.236	0.0165170
825.314	0.0164795
825.392	0.0165665
825.471	0.0164814
825.549	0.0165114
825.627	0.0165107
825.705	0.0165662
825.783	0.0165086
825.861	0.0164159
825.939	0.0164108
826.017	0.0164273
826.096	0.0163387
826.174	0.0163807
826.252	0.0163445
826.330	0.0163597
826.408	0.0163494
826.486	0.0164631
826.564	0.0164704
826.642	0.0164279
826.721	0.0163485
826.799	0.0164198
826.877	0.0164893
826.955	0.0164774
827.033	0.0165130
827.111	0.0164574
827.189	0.0163569
827.267	0.0164201
827.346	0.0164566
827.424	0.0164854
827.502	0.0162551
827.580	0.0163808
827.658	0.0164922
827.736	0.0165331
827.814	0.0165495
827.892	0.0164777
827.971	0.0166169
828.049	0.0165327
828.127	0.0165356
828.205	0.0166594
828.283	0.0164874
828.361	0.0164510
828.439	0.0165984
828.517	0.0166626
828.596	0.0163938
828.674	0.0164059
828.752	0.0165768
828.830	0.0165443
828.908	0.0163828
828.986	0.0165030
829.064	0.0165677
829.142	0.0163947
829.221	0.0164262
829.299	0.0163722
829.377	0.0164259
829.455	0.0165643
829.533	0.0164955
829.611	0.0163985
829.689	0.0164345
829.767	0.0163994
829.846	0.0165412
829.924	0.0164358
830.002	0.0165611
830.080	0.0164391
830.158	0.0164400
830.236	0.0165110
830.314	0.0164598
830.392	0.0165282
830.471	0.0165044
830.549	0.0165026
830.627	0.0164378
830.705	0.0164428
830.783	0.0165337
830.861	0.0165311
830.939	0.0164787
831.017	0.0163882
831.096	0.0164629
831.174	0.0165944
831.252	0.0164793
831.330	0.0163653
831.408	0.0164776
831.486	0.0164425
831.564	0.0164981
831.642	0.0166774
831.721	0.0166842
831.799	0.0166862
831.877	0.0165730
831.955	0.0164825
832.033	0.0164944
832.111	0.0165415
832.189	0.0166941
832.267	0.0165540
832.346	0.0165400
832.424	0.0166417
832.502	0.0165385
832.580	0.0164191
832.658	0.0164699
832.736	0.0165839
832.814	0.0164171
832.892	0.0165075
832.971	0.0166092
833.049	0.0164006
833.127	0.0164553
833.205	0.0164574
833.283	0.0164887
833.361	0.0165460
833.439	0.0164823
833.517	0.0165416
833.596	0.0163548
833.674	0.0164602
833.752	0.0165481
833.830	0.0165368
833.908	0.0164975
833.986	0.0165586
834.064	0.0167146
834.142	0.0165841
834.221	0.0164979
834.299	0.0165807
834.377	0.0164391
834.455	0.0165911
834.533	0.0167223
834.611	0.0167563
834.689	0.0167515
834.767	0.0167137
834.846	0.0167111
834.924	0.0166519
835.002	0.0166096
835.080	0.0165608
835.158	0.0166131
835.236	0.0166472
835.314	0.0165496
835.392	0.0166088
835.471	0.0165540
835.549	0.0165102
835.627	0.0166007
835.705	0.0165232
835.783	0.0166260
835.861	0.0166205
835.939	0.0165290
836.017	0.0165333
836.096	0.0167167
836.174	0.0165404
836.252	0.0163844
836.330	0.0165039
836.408	0.0165267
836.486	0.0166162
836.564	0.0165661
836.642	0.0165646
836.721	0.0164152
836.799	0.0165285
836.877	0.0166017
836.955	0.0163902
837.033	0.0163705
837.111	0.0165253
837.189	0.0163693
837.267	0.0164124
837.346	0.0163547
837.424	0.0165489
837.502	0.0163946
837.580	0.0164465
837.658	0.0165375
837.736	0.0165579
837.814	0.0165960
837.892	0.0165380
837.971	0.0164342
838.049	0.0165711
838.127	0.0165723
838.205	0.0163988
838.283	0.0164826
838.361	0.0166004
838.439	0.0165511
838.517	0.0164726
838.596	0.0165472
838.674	0.0164336
838.752	0.0164777
838.830	0.0164247
838.908	0.0164845
838.986	0.0165102
839.064	0.0165825
839.142	0.0165652
839.221	0.0163760
839.299	0.0164571
839.377	0.0164402
839.455	0.0163295
839.533	0.0165904
839.611	0.0163355
839.689	0.0164690
839.767	0.0164603
839.846	0.0164825
839.924	0.0165036
840.002	0.0165094
840.080	0.0165134
840.158	0.0164243
840.236	0.0163962
840.314	0.0163428
840.392	0.0165183
840.471	0.0163752
840.549	0.0164217
840.627	0.0163926
840.705	0.0164931
840.783	0.0163657
840.861	0.0165025
840.939	0.0163647
841.017	0.0162939
841.096	0.0165604
841.174	0.0163094
841.252	0.0163243
841.330	0.0164813
841.408	0.0163915
841.486	0.0165650
841.564	0.0165326
841.642	0.0164117
841.721	0.0163854
841.799	0.0163225
841.877	0.0164414
841.955	0.0163187
842.033	0.0164706
842.111	0.0164674
842.189	0.0165182
842.267	0.0165813
842.346	0.0165560
842.424	0.0165397
842.502	0.0165440
842.580	0.0164622
842.658	0.0165040
842.736	0.0163671
842.814	0.0165016
842.892	0.0166179
842.971	0.0165216
843.049	0.0164821
843.127	0.0165356
843.205	0.0166080
843.283	0.0163749
843.361	0.0165282
843.439	0.0166319
843.517	0.0165028
843.596	0.0164503
843.674	0.0165869
843.752	0.0165788
843.830	0.0165512
843.908	0.0166032
843.986	0.0165726
844.064	0.0165994
844.142	0.0166763
844.221	0.0166844
844.299	0.0165343
844.377	0.0165350
844.455	0.0166991
844.533	0.0166857
844.611	0.0166875
844.689	0.0166221
844.767	0.0166536
844.846	0.0166042
844.924	0.0165533
845.002	0.0164672
845.080	0.0164085
845.158	0.0164404
845.236	0.0163669
845.314	0.0164315
845.392	0.0164183
845.471	0.0164204
845.549	0.0164493
845.627	0.0164489
845.705	0.0165156
845.783	0.0164825
845.861	0.0165662
845.939	0.0163487
846.017	0.0165468
846.096	0.0166366
846.174	0.0165397
846.252	0.0165260
846.330	0.0166005
846.408	0.0164265
846.486	0.0165049
846.564	0.0165476
846.642	0.0165466
846.721	0.0165803
846.799	0.0165255
846.877	0.0165819
846.955	0.0164497
847.033	0.0165543
847.111	0.0165579
847.189	0.0164903
847.267	0.0163721
847.346	0.0164517
847.424	0.0166225
847.502	0.0166181
847.580	0.0165280
847.658	0.0163952
847.736	0.0166150
847.814	0.0165068
847.892	0.0164404
847.971	0.0165337
848.049	0.0165543
848.127	0.0164652
848.205	0.0165910
848.283	0.0165785
848.361	0.0166031
848.439	0.0164458
848.517	0.0164201
848.596	0.0164385
848.674	0.0165750
848.752	0.0164717
848.830	0.0165270
848.908	0.0164804
848.986	0.0165159
849.064	0.0166996
849.142	0.0165685
849.221	0.0165462
849.299	0.0166664
849.377	0.0165744
849.455	0.0166376
849.533	0.0165364
849.611	0.0164638
849.689	0.0165591
849.767	0.0165955
849.846	0.0166169
849.924	0.0165990
850.002	0.0166702
850.080	0.0165590
850.158	0.0164993
850.236	0.0164484
850.314	0.0165354
850.392	0.0166235
850.471	0.0166665
850.549	0.0164399
850.627	0.0164720
850.705	0.0164931
850.783	0.0165409
850.861	0.0165949
850.939	0.0165392
851.017	0.0163864
851.096	0.0165549
851.174	0.0164744
851.252	0.0164280
851.330	0.0164793
851.408	0.0165905
851.486	0.0165864
851.564	0.0164546
851.642	0.0164801
851.721	0.0164777
851.799	0.0165894
851.877	0.0164697
851.955	0.0165839
852.033	0.0165164
852.111	0.0165649
852.189	0.0166286
852.267	0.0165717
852.346	0.0165417
852.424	0.0165725
852.502	0.0165156
852.580	0.0164759
852.658	0.0164486
852.736	0.0165185
852.814	0.0166251
852.892	0.0165408
852.971	0.0165226
853.049	0.0164858
853.127	0.0164838
853.205	0.0165717
853.283	0.0165979
853.361	0.0165302
853.439	0.0165195
853.517	0.0166043
853.596	0.0165858
853.674	0.0165987
853.752	0.0166439
853.830	0.0166563
853.908	0.0166186
853.986	0.0167324
854.064	0.0167418
854.142	0.0167130
854.221	0.0167060
854.299	0.0167234
854.377	0.0164600
854.455	0.0166172
854.533	0.0166907
854.611	0.0166999
854.689	0.0165520
854.767	0.0166072
854.846	0.0164328
854.924	0.0164963
855.002	0.0163253
855.080	0.0165645
855.158	0.0165114
855.236	0.0163805
855.314	0.0165836
855.392	0.0165179
855.471	0.0163820
855.549	0.0165936
855.627	0.0163939
855.705	0.0165470
855.783	0.0164606
855.861	0.0164915
855.939	0.0165406
856.017	0.0164938
856.096	0.0164615
856.174	0.0165375
856.252	0.0166452
856.330	0.0165679
856.408	0.0164817
856.486	0.0165291
856.564	0.0164847
856.642	0.0165205
856.721	0.0164964
856.799	0.0165704
856.877	0.0165540
856.955	0.0164165
857.033	0.0165600
857.111	0.0164795
857.189	0.0165298
857.267	0.0164909
857.346	0.0164162
857.424	0.0163758
857.502	0.0163372
857.580	0.0165727
857.658	0.0164471
857.736	0.0164697
857.814	0.0165452
857.892	0.0163618
857.971	0.0164366
858.049	0.0165234
858.127	0.0164783
858.205	0.0163819
858.283	0.0162383
858.361	0.0164720
858.439	0.0164408
858.517	0.0163737
858.596	0.0163278
858.674	0.0164243
858.752	0.0164433
858.830	0.0164192
858.908	0.0164299
858.986	0.0165390
859.064	0.0164691
859.142	0.0164960
859.221	0.0161508
859.299	0.0164059
859.377	0.0165044
859.455	0.0164577
859.533	0.0164398
859.611	0.0164268
859.689	0.0163756
859.767	0.0163943
859.846	0.0163526
859.924	0.0165328
860.002	0.0164004
860.080	0.0163665
860.158	0.0163654
860.236	0.0163155
860.314	0.0163407
860.392	0.0163259
860.471	0.0162027
860.549	0.0163188
860.627	0.0162825
860.705	0.0162724
860.783	0.0162215
860.861	0.0163427
860.939	0.0163362
861.017	0.0162508
861.096	0.0163610
861.174	0.0163729
861.252	0.0163181
861.330	0.0161802
861.408	0.0164648
861.486	0.0163695
861.564	0.0162863
861.642	0.0163405
861.721	0.0163885
861.799	0.0163230
861.877	0.0164596
861.955	0.0163731
862.033	0.0163356
862.111	0.0162740
862.189	0.0163592
862.267	0.0164175
862.346	0.0163816
862.424	0.0163767
862.502	0.0164089
862.580	0.0163631
862.658	0.0164257
862.736	0.0163676
862.814	0.0163765
862.892	0.0163900
862.971	0.0164880
863.049	0.0164201
863.127	0.0164593
863.205	0.0164693
863.283	0.0163599
863.361	0.0164416
863.439	0.0163604
863.517	0.0164474
863.596	0.0165731
863.674	0.0164850
863.752	0.0164333
863.830	0.0163829
863.908	0.0164367
863.986	0.0163493
864.064	0.0163961
864.142	0.0164143
864.221	0.0165159
864.299	0.0164495
864.377	0.0163753
864.455	0.0163777
864.533	0.0162877
864.611	0.0163985
864.689	0.0165385
864.767	0.0164366
864.846	0.0164670
864.924	0.0165075
865.002	0.0162846
865.080	0.0163599
865.158	0.0165230
865.236	0.0164829
865.314	0.0164003
865.392	0.0164580
865.471	0.0163611
865.549	0.0163080
865.627	0.0162903
865.705	0.0163979
865.783	0.0165379
865.861	0.0164037
865.939	0.0163184
866.017	0.0163619
866.096	0.0165879
866.174	0.0165094
866.252	0.0164867
866.330	0.0164707
866.408	0.0165585
866.486	0.0165244
866.564	0.0163963
866.642	0.0165404
866.721	0.0164804
866.799	0.0164873
866.877	0.0164909
866.955	0.0165582
867.033	0.0166144
867.111	0.0165430
867.189	0.0165706
867.267	0.0165076
867.346	0.0166232
867.424	0.0165965
867.502	0.0165311
867.580	0.0165280
867.658	0.0166796
867.736	0.0165202
867.814	0.0166022
867.892	0.0164719
867.971	0.0164540
868.049	0.0164989
868.127	0.0164185
868.205	0.0165005
868.283	0.0165468
868.361	0.0164860
868.439	0.0165068
868.517	0.0166288
868.596	0.0164487
868.674	0.0164510
868.752	0.0164530
868.830	0.0165782
868.908	0.0165838
868.986	0.0165172
869.064	0.0164947
869.142	0.0165403
869.221	0.0164402
869.299	0.0165265
869.377	0.0166712
869.455	0.0165492
869.533	0.0165308
869.611	0.0165793
869.689	0.0167076
869.767	0.0165487
869.846	0.0165334
869.924	0.0166296
870.002	0.0167424
870.080	0.0165795
870.158	0.0165160
870.236	0.0166472
870.314	0.0166466
870.392	0.0165078
870.471	0.0165501
870.549	0.0164550
870.627	0.0166164
870.705	0.0166550
870.783	0.0165834
870.861	0.0165468
870.939	0.0166443
871.017	0.0167224
871.096	0.0166656
871.174	0.0165776
871.252	0.0165050
871.330	0.0164270
871.408	0.0164643
871.486	0.0165298
871.564	0.0165809
871.642	0.0166097
871.721	0.0165416
871.799	0.0165366
871.877	0.0164549
871.955	0.0165683
872.033	0.0166197
872.111	0.0165630
872.189	0.0165236
872.267	0.0165311
872.346	0.0166045
872.424	0.0165564
872.502	0.0164668
872.580	0.0166695
872.658	0.0165793
872.736	0.0165580
872.814	0.0165859
872.892	0.0164678
872.971	0.0165902
873.049	0.0164754
873.127	0.0164812
873.205	0.0164578
873.283	0.0164573
873.361	0.0165191
873.439	0.0165694
873.517	0.0163841
873.596	0.0165797
873.674	0.0165385
873.752	0.0165223
873.830	0.0166469
873.908	0.0163390
873.986	0.0165082
874.064	0.0165886
874.142	0.0167027
874.221	0.0165844
874.299	0.0165720
874.377	0.0163250
874.455	0.0165182
874.533	0.0164984
874.611	0.0164320
874.689	0.0165285
874.767	0.0164686
874.846	0.0165565
874.924	0.0164991
875.002	0.0164980
875.080	0.0166096
875.158	0.0164149
875.236	0.0165480
875.314	0.0164597
875.392	0.0164644
875.471	0.0164753
875.549	0.0165096
875.627	0.0165716
875.705	0.0166122
875.783	0.0166000
875.861	0.0165195
875.939	0.0165433
876.017	0.0163588
876.096	0.0164742
876.174	0.0164176
876.252	0.0164391
876.330	0.0165569
876.408	0.0165121
876.486	0.0163943
876.564	0.0165609
876.642	0.0164249
876.721	0.0165792
876.799	0.0165178
876.877	0.0165363
876.955	0.0165582
877.033	0.0166390
877.111	0.0166879
877.189	0.0166006
877.267	0.0165969
877.346	0.0166547
877.424	0.0166522
877.502	0.0165240
877.580	0.0164609
877.658	0.0165259
877.736	0.0165742
877.814	0.0165578
877.892	0.0165359
877.971	0.0164541
878.049	0.0164861
878.127	0.0165694
878.205	0.0164658
878.283	0.0165141
878.361	0.0165784
878.439	0.0164931
878.517	0.0164946
878.596	0.0164622
878.674	0.0165959
878.752	0.0163932
878.830	0.0164256
878.908	0.0165451
878.986	0.0164923
879.064	0.0164264
879.142	0.0165097
879.221	0.0164518
879.299	0.0164191
879.377	0.0165860
879.455	0.0166151
879.533	0.0165551
879.611	0.0165712
879.689	0.0165359
879.767	0.0165891
879.846	0.0164769
879.924	0.0165923
880.002	0.0165556
880.080	0.0163909
880.158	0.0164796
880.236	0.0164902
880.314	0.0165377
880.392	0.0165347
880.471	0.0164055
880.549	0.0163373
880.627	0.0164108
880.705	0.0164769
880.783	0.0164600
880.861	0.0164677
880.939	0.0163331
881.017	0.0163551
881.096	0.0164152
881.174	0.0164122
881.252	0.0163917
881.330	0.0164217
881.408	0.0161882
881.486	0.0164982
881.564	0.0163393
881.642	0.0164497
881.721	0.0164354
881.799	0.0163457
881.877	0.0163304
881.955	0.0163233
882.033	0.0163907
882.111	0.0163552
882.189	0.0163757
882.267	0.0165294
882.346	0.0163729
882.424	0.0163911
882.502	0.0164563
882.580	0.0163055
882.658	0.0163663
882.736	0.0163877
882.814	0.0161365
882.892	0.0164072
882.971	0.0163961
883.049	0.0165001
883.127	0.0163454
883.205	0.0164146
883.283	0.0164941
883.361	0.0164079
883.439	0.0163290
883.517	0.0164453
883.596	0.0163378
883.674	0.0162864
883.752	0.0163140
883.830	0.0163155
883.908	0.0164138
883.986	0.0164146
884.064	0.0163674
884.142	0.0163456
884.221	0.0162811
884.299	0.0162999
884.377	0.0163523
884.455	0.0164480
884.533	0.0163919
884.611	0.0163385
884.689	0.0164733
884.767	0.0164612
884.846	0.0163734
884.924	0.0164915
885.002	0.0164757
885.080	0.0164639
885.158	0.0164100
885.236	0.0164764
885.314	0.0163811
885.392	0.0165954
885.471	0.0165450
885.549	0.0164439
885.627	0.0164582
885.705	0.0165275
885.783	0.0165140
885.861	0.0164019
885.939	0.0165396
886.017	0.0165102
886.096	0.0163772
886.174	0.0163129
886.252	0.0164252
886.330	0.0164327
886.408	0.0163190
886.486	0.0163516
886.564	0.0162215
886.642	0.0163227
886.721	0.0163423
886.799	0.0162785
886.877	0.0164759
886.955	0.0164642
887.033	0.0163718
887.111	0.0164321
887.189	0.0163857
887.267	0.0164770
887.346	0.0164208
887.424	0.0164506
887.502	0.0164478
887.580	0.0165822
887.658	0.0165736
887.736	0.0166092
887.814	0.0164574
887.892	0.0165187
887.971	0.0164838
888.049	0.0164359
888.127	0.0164729
888.205	0.0164838
888.283	0.0165150
888.361	0.0165641
888.439	0.0164118
888.517	0.0164368
888.596	0.0164243
888.674	0.0164774
888.752	0.0164719
888.830	0.0164182
888.908	0.0164003
888.986	0.0165416
889.064	0.0166548
889.142	0.0164607
889.221	0.0164698
889.299	0.0165295
889.377	0.0164848
889.455	0.0164811
889.533	0.0164955
889.611	0.0164766
889.689	0.0166711
889.767	0.0165945
889.846	0.0165395
889.924	0.0165725
890.002	0.0165385
890.080	0.0165212
890.158	0.0164397
890.236	0.0165181
890.314	0.0164699
890.392	0.0164701
890.471	0.0165366
890.549	0.0165418
890.627	0.0164940
890.705	0.0164801
890.783	0.0164861
890.861	0.0165359
890.939	0.0165224
891.017	0.0164516
891.096	0.0164413
891.174	0.0164577
891.252	0.0164561
891.330	0.0163741
891.408	0.0165302
891.486	0.0165931
891.564	0.0164198
891.642	0.0165131
891.721	0.0164678
891.799	0.0164984
891.877	0.0165253
891.955	0.0165791
892.033	0.0166003
892.111	0.0166644
892.189	0.0164970
892.267	0.0165327
892.346	0.0165360
892.424	0.0165677
892.502	0.0165231
892.580	0.0164948
892.658	0.0164938
892.736	0.0165741
892.814	0.0164884
892.892	0.0165453
892.971	0.0165479
893.049	0.0165603
893.127	0.0166521
893.205	0.0164388
893.283	0.0165364
893.361	0.0164950
893.439	0.0165163
893.517	0.0165334
893.596	0.0165311
893.674	0.0165047
893.752	0.0164523
893.830	0.0165662
893.908	0.0166257
893.986	0.0165464
894.064	0.0164725
894.142	0.0164597
894.221	0.0165055
894.299	0.0164481
894.377	0.0164746
894.455	0.0166180
894.533	0.0165826
894.611	0.0166082
894.689	0.0164532
894.767	0.0164638
894.846	0.0166445
894.924	0.0164765
895.002	0.0165465
895.080	0.0164284
895.158	0.0165563
895.236	0.0167255
895.314	0.0166669
895.392	0.0166763
895.471	0.0165210
895.549	0.0166410
895.627	0.0167110
895.705	0.0165936
895.783	0.0164832
895.861	0.0165995
895.939	0.0165632
896.017	0.0166702
896.096	0.0164935
896.174	0.0163572
896.252	0.0165353
896.330	0.0165502
896.408	0.0165531
896.486	0.0166321
896.564	0.0163951
896.642	0.0164098
896.721	0.0163493
896.799	0.0163711
896.877	0.0163667
896.955	0.0164246
897.033	0.0165125
897.111	0.0165307
897.189	0.0164795
897.267	0.0164600
897.346	0.0164617
897.424	0.0164494
897.502	0.0164550
897.580	0.0165195
897.658	0.0165216
897.736	0.0164059
897.814	0.0164437
897.892	0.0164014
897.971	0.0164356
898.049	0.0164855
898.127	0.0163630
898.205	0.0162659
898.283	0.0164431
898.361	0.0164124
898.439	0.0163177
898.517	0.0162445
898.596	0.0163937
898.674	0.0163940
898.752	0.0163386
898.830	0.0163677
898.908	0.0163259
898.986	0.0164371
899.064	0.0162946
899.142	0.0161947
899.221	0.0163874
899.299	0.0164600
899.377	0.0163933
899.455	0.0163634
899.533	0.0165189
899.611	0.0164026
899.689	0.0166210
899.767	0.0164570
899.846	0.0164236
899.924	0.0164475
900.002	0.0164398
900.080	0.0164500
900.158	0.0164676
900.236	0.0164314
900.314	0.0164828
900.392	0.0164914
900.471	0.0163893
900.549	0.0164398
900.627	0.0164069
900.705	0.0164707
900.783	0.0164442
900.861	0.0163029
900.939	0.0165004
901.017	0.0163544
901.096	0.0164309
901.174	0.0163963
901.252	0.0163572
901.330	0.0162961
901.408	0.0165067
901.486	0.0164395
901.564	0.0164240
901.642	0.0164501
901.721	0.0163813
901.799	0.0164993
901.877	0.0165449
901.955	0.0164252
902.033	0.0164347
902.111	0.0164447
902.189	0.0164787
902.267	0.0164655
902.346	0.0165852
902.424	0.0164534
902.502	0.0163266
902.580	0.0164379
902.658	0.0164658
902.736	0.0164056
902.814	0.0165662
902.892	0.0164201
902.971	0.0164860
903.049	0.0163860
903.127	0.0163949
903.205	0.0165803
903.283	0.0164050
903.361	0.0165101
903.439	0.0165387
903.517	0.0165330
903.596	0.0164573
903.674	0.0163239
903.752	0.0165178
903.830	0.0164722
903.908	0.0165458
903.986	0.0163547
904.064	0.0163832
904.142	0.0166070
904.221	0.0165024
904.299	0.0164768
904.377	0.0164606
904.455	0.0164372
904.533	0.0165511
904.611	0.0165282
904.689	0.0165700
904.767	0.0164320
904.846	0.0164777
904.924	0.0165089
905.002	0.0164055
905.080	0.0164494
905.158	0.0164820
905.236	0.0165637
905.314	0.0165385
905.392	0.0165218
905.471	0.0164310
905.549	0.0163733
905.627	0.0163658
905.705	0.0164941
905.783	0.0164764
905.861	0.0164847
905.939	0.0164732
906.017	0.0164030
906.096	0.0164747
906.174	0.0163425
906.252	0.0163264
906.330	0.0162747
906.408	0.0162505
906.486	0.0164307
906.564	0.0165234
906.642	0.0164771
906.721	0.0163712
906.799	0.0163762
906.877	0.0163819
906.955	0.0163912
907.033	0.0164988
907.111	0.0164223
907.189	0.0165130
907.267	0.0164359
907.346	0.0163565
907.424	0.0164653
907.502	0.0164653
907.580	0.0165527
907.658	0.0165373
907.736	0.0165057
907.814	0.0166383
907.892	0.0166707
907.971	0.0164930
908.049	0.0165097
908.127	0.0166463
908.205	0.0166424
908.283	0.0166323
908.361	0.0165362
908.439	0.0164873
908.517	0.0165573
908.596	0.0164559
908.674	0.0165011
908.752	0.0165279
908.830	0.0164320
908.908	0.0165189
908.986	0.0165176
909.064	0.0166937
909.142	0.0165532
909.221	0.0164116
909.299	0.0164730
909.377	0.0164782
909.455	0.0164201
909.533	0.0163992
909.611	0.0165362
909.689	0.0164314
909.767	0.0164354
909.846	0.0164954
909.924	0.0165075
910.002	0.0165022
910.080	0.0166122
910.158	0.0165175
910.236	0.0163002
910.314	0.0165620
910.392	0.0164320
910.471	0.0164919
910.549	0.0165701
910.627	0.0164795
910.705	0.0165324
910.783	0.0165124
910.861	0.0164915
910.939	0.0165192
911.017	0.0165766
911.096	0.0165176
911.174	0.0165767
911.252	0.0165896
911.330	0.0164030
911.408	0.0164130
911.486	0.0165162
911.564	0.0165143
911.642	0.0166248
911.721	0.0166119
911.799	0.0166366
911.877	0.0164119
911.955	0.0163393
912.033	0.0164175
912.111	0.0164917
912.189	0.0163770
912.267	0.0163841
912.346	0.0164914
912.424	0.0164496
912.502	0.0163781
912.580	0.0164828
912.658	0.0165555
912.736	0.0164796
912.814	0.0163556
912.892	0.0165688
912.971	0.0164449
913.049	0.0165810
913.127	0.0164798
913.205	0.0163770
913.283	0.0164461
913.361	0.0164976
913.439	0.0165140
913.517	0.0165639
913.596	0.0166205
913.674	0.0164977
913.752	0.0164484
913.830	0.0166541
913.908	0.0165379
913.986	0.0165080
914.064	0.0164125
914.142	0.0164312
914.221	0.0165054
914.299	0.0163943
914.377	0.0163151
914.455	0.0165053
914.533	0.0164320
914.611	0.0165015
914.689	0.0164606
914.767	0.0164905
914.846	0.0165813
914.924	0.0165601
915.002	0.0164853
915.080	0.0166009
915.158	0.0165942
915.236	0.0166259
915.314	0.0166159
915.392	0.0165324
915.471	0.0166617
915.549	0.0165208
915.627	0.0165610
915.705	0.0166050
915.783	0.0165797
915.861	0.0166624
915.939	0.0165268
916.017	0.0164410
916.096	0.0164050
916.174	0.0166348
916.252	0.0165800
916.330	0.0165209
916.408	0.0164206
916.486	0.0165474
916.564	0.0165424
916.642	0.0164565
916.721	0.0165446
916.799	0.0165155
916.877	0.0165807
916.955	0.0165318
917.033	0.0166259
917.111	0.0166371
917.189	0.0166494
917.267	0.0166185
917.346	0.0165035
917.424	0.0165864
917.502	0.0166812
917.580	0.0165574
917.658	0.0165041
917.736	0.0165014
917.814	0.0166271
917.892	0.0164725
917.971	0.0166143
918.049	0.0166627
918.127	0.0165833
918.205	0.0165826
918.283	0.0165699
918.361	0.0165800
918.439	0.0165292
918.517	0.0166518
918.596	0.0166463
918.674	0.0166914
918.752	0.0166264
918.830	0.0167316
918.908	0.0167152
918.986	0.0166647
919.064	0.0166051
919.142	0.0165945
919.221	0.0167398
919.299	0.0165842
919.377	0.0166007
919.455	0.0167210
919.533	0.0166018
919.611	0.0166843
919.689	0.0165092
919.767	0.0166574
919.846	0.0166218
919.924	0.0165314
