06/29/2022	21:39:04	Ver.	4.1	UNKNOWN
Optical Delay	600.001752	Delta X		0.078125	Sweeps	1	Scan Rate	0/0
Coordinates	Axis 1	NaN	Axis 2	NaN	Axis 3	NaN	Axis 4	NaN	Axis 5	NaN	Axis 6	0.000000
TX Power	0.000000	RX Power	0.000000

600.002	0.0166820
600.080	0.0166564
600.158	0.0166348
600.236	0.0165723
600.314	0.0165904
600.392	0.0167101
600.471	0.0167496
600.549	0.0165639
600.627	0.0166209
600.705	0.0166262
600.783	0.0166312
600.861	0.0165887
600.939	0.0165849
601.017	0.0165111
601.096	0.0166383
601.174	0.0167731
601.252	0.0166445
601.330	0.0166543
601.408	0.0165146
601.486	0.0166943
601.564	0.0165044
601.642	0.0165449
601.721	0.0165347
601.799	0.0166337
601.877	0.0166405
601.955	0.0167721
602.033	0.0166045
602.111	0.0167215
602.189	0.0166191
602.267	0.0166512
602.346	0.0165761
602.424	0.0166873
602.502	0.0166264
602.580	0.0167136
602.658	0.0167348
602.736	0.0168190
602.814	0.0167315
602.892	0.0165248
602.971	0.0166208
603.049	0.0166307
603.127	0.0166267
603.205	0.0168019
603.283	0.0166823
603.361	0.0166638
603.439	0.0165605
603.517	0.0165738
603.596	0.0166856
603.674	0.0165715
603.752	0.0166064
603.830	0.0164492
603.908	0.0165583
603.986	0.0166899
604.064	0.0166511
604.142	0.0164621
604.221	0.0164266
604.299	0.0165332
604.377	0.0164699
604.455	0.0163768
604.533	0.0165993
604.611	0.0165353
604.689	0.0164150
604.767	0.0165318
604.846	0.0166037
604.924	0.0164719
605.002	0.0165421
605.080	0.0164831
605.158	0.0164794
605.236	0.0165253
605.314	0.0164399
605.392	0.0165691
605.471	0.0164701
605.549	0.0166154
605.627	0.0164819
605.705	0.0164184
605.783	0.0164385
605.861	0.0165578
605.939	0.0165614
606.017	0.0166192
606.096	0.0166529
606.174	0.0164756
606.252	0.0165528
606.330	0.0164082
606.408	0.0165020
606.486	0.0164928
606.564	0.0164578
606.642	0.0165045
606.721	0.0164590
606.799	0.0163721
606.877	0.0164499
606.955	0.0163948
607.033	0.0164731
607.111	0.0164934
607.189	0.0164687
607.267	0.0163519
607.346	0.0163298
607.424	0.0165926
607.502	0.0164838
607.580	0.0165679
607.658	0.0165002
607.736	0.0165071
607.814	0.0164796
607.892	0.0164008
607.971	0.0165997
608.049	0.0164085
608.127	0.0164425
608.205	0.0165288
608.283	0.0164818
608.361	0.0164844
608.439	0.0164917
608.517	0.0165979
608.596	0.0164408
608.674	0.0165614
608.752	0.0165795
608.830	0.0164686
608.908	0.0165653
608.986	0.0165501
609.064	0.0165289
609.142	0.0165277
609.221	0.0166209
609.299	0.0165820
609.377	0.0164294
609.455	0.0164099
609.533	0.0165764
609.611	0.0165305
609.689	0.0164832
609.767	0.0165416
609.846	0.0166122
609.924	0.0166709
610.002	0.0165965
610.080	0.0165117
610.158	0.0165041
610.236	0.0166563
610.314	0.0165952
610.392	0.0165054
610.471	0.0166967
610.549	0.0165840
610.627	0.0165096
610.705	0.0165979
610.783	0.0166003
610.861	0.0166470
610.939	0.0165736
611.017	0.0166267
611.096	0.0165720
611.174	0.0166246
611.252	0.0166355
611.330	0.0165688
611.408	0.0165324
611.486	0.0166676
611.564	0.0166457
611.642	0.0164666
611.721	0.0163657
611.799	0.0165364
611.877	0.0166408
611.955	0.0166360
612.033	0.0165201
612.111	0.0164957
612.189	0.0165736
612.267	0.0163293
612.346	0.0165021
612.424	0.0165176
612.502	0.0163995
612.580	0.0165862
612.658	0.0166382
612.736	0.0165685
612.814	0.0166210
612.892	0.0166371
612.971	0.0165108
613.049	0.0165976
613.127	0.0165607
613.205	0.0165509
613.283	0.0166532
613.361	0.0167170
613.439	0.0165800
613.517	0.0166587
613.596	0.0166497
613.674	0.0165629
613.752	0.0165540
613.830	0.0166328
613.908	0.0164736
613.986	0.0165734
614.064	0.0166623
614.142	0.0165346
614.221	0.0165244
614.299	0.0163788
614.377	0.0165567
614.455	0.0165379
614.533	0.0166378
614.611	0.0164783
614.689	0.0164411
614.767	0.0164568
614.846	0.0165521
614.924	0.0165342
615.002	0.0165649
615.080	0.0164158
615.158	0.0163902
615.236	0.0166249
615.314	0.0164898
615.392	0.0164753
615.471	0.0165593
615.549	0.0165752
615.627	0.0165292
615.705	0.0165202
615.783	0.0164830
615.861	0.0166445
615.939	0.0165137
616.017	0.0164725
616.096	0.0164697
616.174	0.0164362
616.252	0.0165651
616.330	0.0166028
616.408	0.0164073
616.486	0.0166126
616.564	0.0165926
616.642	0.0166327
616.721	0.0165792
616.799	0.0166097
616.877	0.0167124
616.955	0.0166216
617.033	0.0166236
617.111	0.0164722
617.189	0.0165943
617.267	0.0166309
617.346	0.0165098
617.424	0.0164681
617.502	0.0165284
617.580	0.0166055
617.658	0.0165929
617.736	0.0164580
617.814	0.0165912
617.892	0.0164181
617.971	0.0165206
618.049	0.0165851
618.127	0.0164307
618.205	0.0166047
618.283	0.0165397
618.361	0.0165520
618.439	0.0165005
618.517	0.0165525
618.596	0.0165715
618.674	0.0164899
618.752	0.0164664
618.830	0.0163492
618.908	0.0165572
618.986	0.0164063
619.064	0.0164104
619.142	0.0163690
619.221	0.0166311
619.299	0.0165716
619.377	0.0164378
619.455	0.0165446
619.533	0.0165077
619.611	0.0165800
619.689	0.0164299
619.767	0.0164659
619.846	0.0166313
619.924	0.0165349
620.002	0.0165260
620.080	0.0165343
620.158	0.0165970
620.236	0.0166845
620.314	0.0166488
620.392	0.0166242
620.471	0.0166251
620.549	0.0166119
620.627	0.0166871
620.705	0.0166754
620.783	0.0165374
620.861	0.0165550
620.939	0.0167037
621.017	0.0165558
621.096	0.0165392
621.174	0.0164171
621.252	0.0164990
621.330	0.0163873
621.408	0.0164971
621.486	0.0166319
621.564	0.0165363
621.642	0.0164867
621.721	0.0166019
621.799	0.0166141
621.877	0.0166045
621.955	0.0164442
622.033	0.0164566
622.111	0.0164411
622.189	0.0167010
622.267	0.0166921
622.346	0.0165446
622.424	0.0165351
622.502	0.0164576
622.580	0.0165590
622.658	0.0165920
622.736	0.0164362
622.814	0.0164864
622.892	0.0165205
622.971	0.0164501
623.049	0.0164291
623.127	0.0165660
623.205	0.0165918
623.283	0.0165762
623.361	0.0164887
623.439	0.0165426
623.517	0.0165730
623.596	0.0164826
623.674	0.0164215
623.752	0.0164361
623.830	0.0165163
623.908	0.0164147
623.986	0.0164690
624.064	0.0166018
624.142	0.0163994
624.221	0.0165474
624.299	0.0165897
624.377	0.0165825
624.455	0.0166242
624.533	0.0164335
624.611	0.0164876
624.689	0.0164294
624.767	0.0164333
624.846	0.0164786
624.924	0.0165647
625.002	0.0164962
625.080	0.0164537
625.158	0.0164153
625.236	0.0164420
625.314	0.0163300
625.392	0.0165462
625.471	0.0165690
625.549	0.0163979
625.627	0.0165217
625.705	0.0165875
625.783	0.0165131
625.861	0.0164703
625.939	0.0165124
626.017	0.0164980
626.096	0.0165197
626.174	0.0166560
626.252	0.0165650
626.330	0.0166349
626.408	0.0165974
626.486	0.0165480
626.564	0.0165357
626.642	0.0164597
626.721	0.0165172
626.799	0.0166551
626.877	0.0166028
626.955	0.0165682
627.033	0.0165733
627.111	0.0166055
627.189	0.0164345
627.267	0.0163902
627.346	0.0165395
627.424	0.0164859
627.502	0.0164616
627.580	0.0165740
627.658	0.0165404
627.736	0.0165209
627.814	0.0164706
627.892	0.0165099
627.971	0.0164921
628.049	0.0165200
628.127	0.0164577
628.205	0.0164415
628.283	0.0165154
628.361	0.0164850
628.439	0.0163885
628.517	0.0166305
628.596	0.0164742
628.674	0.0163234
628.752	0.0163993
628.830	0.0164658
628.908	0.0165115
628.986	0.0163268
629.064	0.0164291
629.142	0.0164489
629.221	0.0164963
629.299	0.0164153
629.377	0.0163940
629.455	0.0164079
629.533	0.0163527
629.611	0.0163408
629.689	0.0164182
629.767	0.0163985
629.846	0.0164558
629.924	0.0163290
630.002	0.0164484
630.080	0.0164822
630.158	0.0163029
630.236	0.0163703
630.314	0.0163432
630.392	0.0164607
630.471	0.0164970
630.549	0.0164194
630.627	0.0163856
630.705	0.0163986
630.783	0.0164908
630.861	0.0163996
630.939	0.0165155
631.017	0.0162789
631.096	0.0164422
631.174	0.0164172
631.252	0.0164603
631.330	0.0164690
631.408	0.0164438
631.486	0.0164986
631.564	0.0164606
631.642	0.0164687
631.721	0.0163891
631.799	0.0164545
631.877	0.0164086
631.955	0.0165009
632.033	0.0165407
632.111	0.0162750
632.189	0.0165145
632.267	0.0165670
632.346	0.0163766
632.424	0.0163814
632.502	0.0164307
632.580	0.0165402
632.658	0.0165560
632.736	0.0164729
632.814	0.0163987
632.892	0.0165845
632.971	0.0165102
633.049	0.0164595
633.127	0.0166408
633.205	0.0165069
633.283	0.0165144
633.361	0.0164703
633.439	0.0164639
633.517	0.0165238
633.596	0.0166542
633.674	0.0166013
633.752	0.0165231
633.830	0.0164386
633.908	0.0165702
633.986	0.0164386
634.064	0.0166572
634.142	0.0165714
634.221	0.0165701
634.299	0.0165852
634.377	0.0165331
634.455	0.0165910
634.533	0.0166248
634.611	0.0166197
634.689	0.0167287
634.767	0.0165859
634.846	0.0167808
634.924	0.0166224
635.002	0.0164778
635.080	0.0166312
635.158	0.0165481
635.236	0.0164481
635.314	0.0166932
635.392	0.0167542
635.471	0.0167210
635.549	0.0166199
635.627	0.0165829
635.705	0.0166354
635.783	0.0166845
635.861	0.0165860
635.939	0.0164118
636.017	0.0166430
636.096	0.0166453
636.174	0.0165788
636.252	0.0166449
636.330	0.0165432
636.408	0.0165340
636.486	0.0164954
636.564	0.0167371
636.642	0.0166271
636.721	0.0165965
636.799	0.0165306
636.877	0.0166948
636.955	0.0166770
637.033	0.0166109
637.111	0.0165957
637.189	0.0165300
637.267	0.0164322
637.346	0.0165571
637.424	0.0165009
637.502	0.0165880
637.580	0.0166486
637.658	0.0165637
637.736	0.0166289
637.814	0.0166236
637.892	0.0166721
637.971	0.0166628
638.049	0.0166113
638.127	0.0166814
638.205	0.0165580
638.283	0.0165726
638.361	0.0166269
638.439	0.0166615
638.517	0.0167307
638.596	0.0167319
638.674	0.0164469
638.752	0.0166592
638.830	0.0167210
638.908	0.0165043
638.986	0.0165646
639.064	0.0167518
639.142	0.0165646
639.221	0.0165775
639.299	0.0165906
639.377	0.0167358
639.455	0.0164954
639.533	0.0165601
639.611	0.0165420
639.689	0.0164812
639.767	0.0164784
639.846	0.0164974
639.924	0.0166447
640.002	0.0165199
640.080	0.0165382
640.158	0.0164519
640.236	0.0165174
640.314	0.0166053
640.392	0.0165538
640.471	0.0165321
640.549	0.0166113
640.627	0.0164748
640.705	0.0165072
640.783	0.0164915
640.861	0.0164552
640.939	0.0165397
641.017	0.0164614
641.096	0.0164832
641.174	0.0165420
641.252	0.0164978
641.330	0.0164605
641.408	0.0166448
641.486	0.0166379
641.564	0.0163850
641.642	0.0166837
641.721	0.0164977
641.799	0.0164459
641.877	0.0165794
641.955	0.0165138
642.033	0.0164703
642.111	0.0165015
642.189	0.0164575
642.267	0.0165029
642.346	0.0164893
642.424	0.0164525
642.502	0.0165014
642.580	0.0165294
642.658	0.0166439
642.736	0.0165637
642.814	0.0165575
642.892	0.0165363
642.971	0.0164194
643.049	0.0165495
643.127	0.0164693
643.205	0.0165343
643.283	0.0166195
643.361	0.0166612
643.439	0.0165211
643.517	0.0165107
643.596	0.0164349
643.674	0.0164857
643.752	0.0164285
643.830	0.0164962
643.908	0.0165200
643.986	0.0164690
644.064	0.0165401
644.142	0.0165649
644.221	0.0166259
644.299	0.0165692
644.377	0.0166382
644.455	0.0166980
644.533	0.0164748
644.611	0.0164482
644.689	0.0164577
644.767	0.0164807
644.846	0.0166135
644.924	0.0167025
645.002	0.0165748
645.080	0.0164275
645.158	0.0166093
645.236	0.0165202
645.314	0.0165766
645.392	0.0165791
645.471	0.0165055
645.549	0.0165631
645.627	0.0166083
645.705	0.0165984
645.783	0.0166256
645.861	0.0165897
645.939	0.0165649
646.017	0.0165256
646.096	0.0166443
646.174	0.0165795
646.252	0.0165205
646.330	0.0165353
646.408	0.0166750
646.486	0.0166716
646.564	0.0164567
646.642	0.0165250
646.721	0.0165448
646.799	0.0165240
646.877	0.0166484
646.955	0.0164964
647.033	0.0164513
647.111	0.0164261
647.189	0.0167033
647.267	0.0165497
647.346	0.0164862
647.424	0.0166171
647.502	0.0165997
647.580	0.0165314
647.658	0.0165137
647.736	0.0164959
647.814	0.0166946
647.892	0.0166836
647.971	0.0167465
648.049	0.0166793
648.127	0.0166788
648.205	0.0166321
648.283	0.0165754
648.361	0.0166989
648.439	0.0165376
648.517	0.0166254
648.596	0.0166527
648.674	0.0166244
648.752	0.0166412
648.830	0.0165979
648.908	0.0166785
648.986	0.0165663
649.064	0.0165921
649.142	0.0165931
649.221	0.0165827
649.299	0.0166633
649.377	0.0166018
649.455	0.0166714
649.533	0.0165838
649.611	0.0164132
649.689	0.0165736
649.767	0.0165822
649.846	0.0165228
649.924	0.0165662
650.002	0.0166502
650.080	0.0165452
650.158	0.0165398
650.236	0.0166812
650.314	0.0167891
650.392	0.0167035
650.471	0.0164854
650.549	0.0165161
650.627	0.0165306
650.705	0.0165365
650.783	0.0166038
650.861	0.0166667
650.939	0.0166132
651.017	0.0164747
651.096	0.0163936
651.174	0.0165454
651.252	0.0166001
651.330	0.0166190
651.408	0.0165188
651.486	0.0165607
651.564	0.0166323
651.642	0.0165784
651.721	0.0166483
651.799	0.0166459
651.877	0.0164933
651.955	0.0165508
652.033	0.0166745
652.111	0.0165137
652.189	0.0166579
652.267	0.0166136
652.346	0.0166228
652.424	0.0165340
652.502	0.0166367
652.580	0.0164292
652.658	0.0166673
652.736	0.0166438
652.814	0.0166088
652.892	0.0165595
652.971	0.0166513
653.049	0.0166118
653.127	0.0165806
653.205	0.0165703
653.283	0.0166639
653.361	0.0166155
653.439	0.0166694
653.517	0.0167374
653.596	0.0164376
653.674	0.0165775
653.752	0.0165477
653.830	0.0166672
653.908	0.0165326
653.986	0.0163976
654.064	0.0164560
654.142	0.0166850
654.221	0.0166654
654.299	0.0165748
654.377	0.0165199
654.455	0.0165238
654.533	0.0166319
654.611	0.0165877
654.689	0.0164658
654.767	0.0164822
654.846	0.0165373
654.924	0.0165861
655.002	0.0165534
655.080	0.0165091
655.158	0.0164481
655.236	0.0165390
655.314	0.0164987
655.392	0.0165711
655.471	0.0165247
655.549	0.0165331
655.627	0.0165709
655.705	0.0165612
655.783	0.0164249
655.861	0.0164883
655.939	0.0163796
656.017	0.0163580
656.096	0.0166865
656.174	0.0164977
656.252	0.0164966
656.330	0.0163675
656.408	0.0164446
656.486	0.0163841
656.564	0.0165189
656.642	0.0165387
656.721	0.0164798
656.799	0.0165459
656.877	0.0164998
656.955	0.0164975
657.033	0.0164394
657.111	0.0163606
657.189	0.0165745
657.267	0.0164185
657.346	0.0164645
657.424	0.0163534
657.502	0.0164268
657.580	0.0164503
657.658	0.0165193
657.736	0.0165594
657.814	0.0163458
657.892	0.0165186
657.971	0.0164936
658.049	0.0165913
658.127	0.0165160
658.205	0.0164466
658.283	0.0165388
658.361	0.0165253
658.439	0.0166412
658.517	0.0164523
658.596	0.0166077
658.674	0.0165271
658.752	0.0165253
658.830	0.0165917
658.908	0.0165327
658.986	0.0167475
659.064	0.0166028
659.142	0.0165226
659.221	0.0165829
659.299	0.0166289
659.377	0.0165842
659.455	0.0166410
659.533	0.0166816
659.611	0.0166679
659.689	0.0166415
659.767	0.0166270
659.846	0.0165769
659.924	0.0167047
660.002	0.0166146
660.080	0.0167204
660.158	0.0168048
660.236	0.0166851
660.314	0.0166587
660.392	0.0167019
660.471	0.0167608
660.549	0.0165955
660.627	0.0164844
660.705	0.0167011
660.783	0.0166808
660.861	0.0167375
660.939	0.0166888
661.017	0.0167168
661.096	0.0165633
661.174	0.0166051
661.252	0.0165871
661.330	0.0166451
661.408	0.0166792
661.486	0.0165036
661.564	0.0166293
661.642	0.0165506
661.721	0.0167321
661.799	0.0166359
661.877	0.0166506
661.955	0.0167308
662.033	0.0164568
662.111	0.0165286
662.189	0.0167157
662.267	0.0167623
662.346	0.0165884
662.424	0.0167478
662.502	0.0167807
662.580	0.0166401
662.658	0.0167693
662.736	0.0167383
662.814	0.0166470
662.892	0.0166882
662.971	0.0167034
663.049	0.0166312
663.127	0.0166570
663.205	0.0166695
663.283	0.0166213
663.361	0.0166595
663.439	0.0166940
663.517	0.0166293
663.596	0.0165720
663.674	0.0166695
663.752	0.0166991
663.830	0.0167039
663.908	0.0167021
663.986	0.0166840
664.064	0.0167113
664.142	0.0166863
664.221	0.0165231
664.299	0.0167830
664.377	0.0166045
664.455	0.0164938
664.533	0.0164703
664.611	0.0164450
664.689	0.0165363
664.767	0.0165588
664.846	0.0164661
664.924	0.0166415
665.002	0.0164475
665.080	0.0165054
665.158	0.0166639
665.236	0.0165356
665.314	0.0165974
665.392	0.0165102
665.471	0.0165383
665.549	0.0165611
665.627	0.0166373
665.705	0.0165436
665.783	0.0164917
665.861	0.0165336
665.939	0.0166785
666.017	0.0165356
666.096	0.0167097
666.174	0.0166716
666.252	0.0163720
666.330	0.0165786
666.408	0.0166040
666.486	0.0165759
666.564	0.0166970
666.642	0.0165738
666.721	0.0165565
666.799	0.0165859
666.877	0.0165874
666.955	0.0165243
667.033	0.0166082
667.111	0.0166703
667.189	0.0167449
667.267	0.0166933
667.346	0.0165933
667.424	0.0166154
667.502	0.0165492
667.580	0.0166016
667.658	0.0166059
667.736	0.0166559
667.814	0.0165556
667.892	0.0167092
667.971	0.0166766
668.049	0.0166334
668.127	0.0166901
668.205	0.0167201
668.283	0.0166269
668.361	0.0165691
668.439	0.0165952
668.517	0.0166729
668.596	0.0167429
668.674	0.0167060
668.752	0.0166841
668.830	0.0165686
668.908	0.0165494
668.986	0.0167260
669.064	0.0168076
669.142	0.0165921
669.221	0.0166209
669.299	0.0166864
669.377	0.0165284
669.455	0.0165475
669.533	0.0166271
669.611	0.0165445
669.689	0.0168109
669.767	0.0166980
669.846	0.0165566
669.924	0.0166851
670.002	0.0167651
670.080	0.0166952
670.158	0.0166962
670.236	0.0167471
670.314	0.0166608
670.392	0.0166556
670.471	0.0167514
670.549	0.0167258
670.627	0.0166501
670.705	0.0166382
670.783	0.0166777
670.861	0.0167434
670.939	0.0167789
671.017	0.0167273
671.096	0.0166154
671.174	0.0165785
671.252	0.0168063
671.330	0.0166984
671.408	0.0165982
671.486	0.0166924
671.564	0.0167129
671.642	0.0166150
671.721	0.0166761
671.799	0.0167166
671.877	0.0167107
671.955	0.0165990
672.033	0.0164525
672.111	0.0166060
672.189	0.0165881
672.267	0.0166125
672.346	0.0166496
672.424	0.0165379
672.502	0.0164787
672.580	0.0166678
672.658	0.0164954
672.736	0.0164510
672.814	0.0165542
672.892	0.0166558
672.971	0.0166394
673.049	0.0166244
673.127	0.0165492
673.205	0.0164801
673.283	0.0165516
673.361	0.0167158
673.439	0.0166128
673.517	0.0165186
673.596	0.0165892
673.674	0.0166877
673.752	0.0164326
673.830	0.0165315
673.908	0.0166268
673.986	0.0167730
674.064	0.0166499
674.142	0.0165857
674.221	0.0166312
674.299	0.0165875
674.377	0.0166476
674.455	0.0166869
674.533	0.0167322
674.611	0.0166732
674.689	0.0165906
674.767	0.0166019
674.846	0.0166174
674.924	0.0165945
675.002	0.0166344
675.080	0.0165329
675.158	0.0166401
675.236	0.0167256
675.314	0.0165958
675.392	0.0165696
675.471	0.0165771
675.549	0.0165152
675.627	0.0164568
675.705	0.0165644
675.783	0.0165395
675.861	0.0164785
675.939	0.0165430
676.017	0.0165543
676.096	0.0165095
676.174	0.0164870
676.252	0.0164052
676.330	0.0164257
676.408	0.0165617
676.486	0.0165027
676.564	0.0164999
676.642	0.0164167
676.721	0.0165446
676.799	0.0164201
676.877	0.0165250
676.955	0.0164758
677.033	0.0164592
677.111	0.0164777
677.189	0.0165619
677.267	0.0164870
677.346	0.0163589
677.424	0.0164679
677.502	0.0164069
677.580	0.0164248
677.658	0.0164906
677.736	0.0164290
677.814	0.0164485
677.892	0.0163338
677.971	0.0165838
678.049	0.0165009
678.127	0.0165190
678.205	0.0165786
678.283	0.0164559
678.361	0.0164215
678.439	0.0165947
678.517	0.0163811
678.596	0.0165545
678.674	0.0165231
678.752	0.0165984
678.830	0.0164665
678.908	0.0164442
678.986	0.0163996
679.064	0.0165514
679.142	0.0165948
679.221	0.0165388
679.299	0.0164520
679.377	0.0164111
679.455	0.0164410
679.533	0.0163129
679.611	0.0163809
679.689	0.0165356
679.767	0.0165353
679.846	0.0164279
679.924	0.0163961
680.002	0.0164677
680.080	0.0164945
680.158	0.0165404
680.236	0.0165314
680.314	0.0164218
680.392	0.0165265
680.471	0.0164738
680.549	0.0163733
680.627	0.0164738
680.705	0.0163969
680.783	0.0164337
680.861	0.0164444
680.939	0.0164468
681.017	0.0164584
681.096	0.0162620
681.174	0.0163203
681.252	0.0163042
681.330	0.0163845
681.408	0.0163423
681.486	0.0162891
681.564	0.0162519
681.642	0.0163663
681.721	0.0164795
681.799	0.0165156
681.877	0.0164171
681.955	0.0163271
682.033	0.0163794
682.111	0.0164740
682.189	0.0165315
682.267	0.0164028
682.346	0.0164169
682.424	0.0164033
682.502	0.0164391
682.580	0.0166154
682.658	0.0164229
682.736	0.0164191
682.814	0.0165194
682.892	0.0165061
682.971	0.0164580
683.049	0.0163979
683.127	0.0163928
683.205	0.0165681
683.283	0.0164431
683.361	0.0164579
683.439	0.0165981
683.517	0.0164400
683.596	0.0164921
683.674	0.0165449
683.752	0.0164967
683.830	0.0165282
683.908	0.0164720
683.986	0.0165934
684.064	0.0166205
684.142	0.0165395
684.221	0.0165912
684.299	0.0164632
684.377	0.0166035
684.455	0.0165498
684.533	0.0165205
684.611	0.0166470
684.689	0.0165281
684.767	0.0165386
684.846	0.0166209
684.924	0.0165240
685.002	0.0165953
685.080	0.0166344
685.158	0.0165752
685.236	0.0165756
685.314	0.0166501
685.392	0.0167382
685.471	0.0166134
685.549	0.0165398
685.627	0.0167039
685.705	0.0165512
685.783	0.0165958
685.861	0.0166203
685.939	0.0165311
686.017	0.0166650
686.096	0.0166170
686.174	0.0166751
686.252	0.0165652
686.330	0.0165116
686.408	0.0166969
686.486	0.0166325
686.564	0.0168103
686.642	0.0167155
686.721	0.0167510
686.799	0.0166685
686.877	0.0167542
686.955	0.0168037
687.033	0.0168482
687.111	0.0165966
687.189	0.0165919
687.267	0.0167113
687.346	0.0166095
687.424	0.0166732
687.502	0.0166997
687.580	0.0167466
687.658	0.0166906
687.736	0.0166527
687.814	0.0167406
687.892	0.0166799
687.971	0.0166827
688.049	0.0166135
688.127	0.0165289
688.205	0.0165922
688.283	0.0166270
688.361	0.0166369
688.439	0.0165607
688.517	0.0166077
688.596	0.0164667
688.674	0.0163335
688.752	0.0166318
688.830	0.0164834
688.908	0.0165987
688.986	0.0166496
689.064	0.0166885
689.142	0.0165588
689.221	0.0165681
689.299	0.0165455
689.377	0.0165202
689.455	0.0166384
689.533	0.0167149
689.611	0.0168309
689.689	0.0165385
689.767	0.0165997
689.846	0.0167512
689.924	0.0168226
690.002	0.0166685
690.080	0.0167467
690.158	0.0168960
690.236	0.0166035
690.314	0.0168719
690.392	0.0167861
690.471	0.0165193
690.549	0.0165892
690.627	0.0166180
690.705	0.0165646
690.783	0.0165189
690.861	0.0165507
690.939	0.0166245
691.017	0.0164412
691.096	0.0165357
691.174	0.0164570
691.252	0.0165862
691.330	0.0166566
691.408	0.0165913
691.486	0.0166665
691.564	0.0165425
691.642	0.0165114
691.721	0.0165414
691.799	0.0166225
691.877	0.0165827
691.955	0.0166207
692.033	0.0166484
692.111	0.0166727
692.189	0.0166148
692.267	0.0167033
692.346	0.0165636
692.424	0.0165472
692.502	0.0165646
692.580	0.0166411
692.658	0.0166067
692.736	0.0165157
692.814	0.0164177
692.892	0.0163628
692.971	0.0164330
693.049	0.0164857
693.127	0.0164035
693.205	0.0163266
693.283	0.0163776
693.361	0.0163986
693.439	0.0165190
693.517	0.0165917
693.596	0.0165069
693.674	0.0165289
693.752	0.0163658
693.830	0.0165363
693.908	0.0166554
693.986	0.0165536
694.064	0.0165525
694.142	0.0165940
694.221	0.0167322
694.299	0.0165411
694.377	0.0165149
694.455	0.0165524
694.533	0.0166092
694.611	0.0166759
694.689	0.0165398
694.767	0.0165319
694.846	0.0165914
694.924	0.0166807
695.002	0.0165034
695.080	0.0164438
695.158	0.0164931
695.236	0.0165597
695.314	0.0165182
695.392	0.0165160
695.471	0.0166930
695.549	0.0167205
695.627	0.0165569
695.705	0.0165217
695.783	0.0164944
695.861	0.0166505
695.939	0.0165671
696.017	0.0166977
696.096	0.0164974
696.174	0.0167755
696.252	0.0166685
696.330	0.0166756
696.408	0.0168344
696.486	0.0167507
696.564	0.0166822
696.642	0.0166787
696.721	0.0165479
696.799	0.0166415
696.877	0.0165741
696.955	0.0164521
697.033	0.0164721
697.111	0.0166666
697.189	0.0165564
697.267	0.0163161
697.346	0.0163185
697.424	0.0163870
697.502	0.0162965
697.580	0.0162608
697.658	0.0165448
697.736	0.0163559
697.814	0.0163511
697.892	0.0163237
697.971	0.0163117
698.049	0.0164339
698.127	0.0164661
698.205	0.0163882
698.283	0.0162872
698.361	0.0165153
698.439	0.0163505
698.517	0.0164272
698.596	0.0164015
698.674	0.0163421
698.752	0.0163836
698.830	0.0164213
698.908	0.0164053
698.986	0.0164629
699.064	0.0163712
699.142	0.0163771
699.221	0.0163665
699.299	0.0165388
699.377	0.0165019
699.455	0.0164574
699.533	0.0164777
699.611	0.0165319
699.689	0.0165693
699.767	0.0165864
699.846	0.0165903
699.924	0.0166455
700.002	0.0166758
700.080	0.0167036
700.158	0.0167425
700.236	0.0169113
700.314	0.0167846
700.392	0.0167939
700.471	0.0167763
700.549	0.0168145
700.627	0.0167851
700.705	0.0168564
700.783	0.0168380
700.861	0.0166681
700.939	0.0167458
701.017	0.0167380
701.096	0.0167852
701.174	0.0165247
701.252	0.0166156
701.330	0.0164943
701.408	0.0164630
701.486	0.0164001
701.564	0.0164415
701.642	0.0162219
701.721	0.0162810
701.799	0.0163267
701.877	0.0161981
701.955	0.0162778
702.033	0.0161916
702.111	0.0161977
702.189	0.0162383
702.267	0.0161426
702.346	0.0163731
702.424	0.0161971
702.502	0.0162478
702.580	0.0165029
702.658	0.0163149
702.736	0.0164309
702.814	0.0166010
702.892	0.0165484
702.971	0.0164655
703.049	0.0165408
703.127	0.0165900
703.205	0.0166960
703.283	0.0166831
703.361	0.0166941
703.439	0.0166061
703.517	0.0167561
703.596	0.0169434
703.674	0.0166269
703.752	0.0164939
703.830	0.0166012
703.908	0.0164778
703.986	0.0165710
704.064	0.0165208
704.142	0.0165326
704.221	0.0163859
704.299	0.0163294
704.377	0.0162321
704.455	0.0164072
704.533	0.0161358
704.611	0.0161795
704.689	0.0162833
704.767	0.0161803
704.846	0.0163308
704.924	0.0164725
705.002	0.0163636
705.080	0.0163873
705.158	0.0164559
705.236	0.0164623
705.314	0.0166163
705.392	0.0166116
705.471	0.0166404
705.549	0.0165044
705.627	0.0166653
705.705	0.0166784
705.783	0.0167474
705.861	0.0166933
705.939	0.0166319
706.017	0.0167494
706.096	0.0166720
706.174	0.0165302
706.252	0.0166252
706.330	0.0165943
706.408	0.0164977
706.486	0.0165880
706.564	0.0164798
706.642	0.0164881
706.721	0.0165075
706.799	0.0162701
706.877	0.0162273
706.955	0.0163258
707.033	0.0164024
707.111	0.0163449
707.189	0.0162759
707.267	0.0162743
707.346	0.0162856
707.424	0.0161642
707.502	0.0163499
707.580	0.0163261
707.658	0.0163884
707.736	0.0163831
707.814	0.0164575
707.892	0.0165240
707.971	0.0164921
708.049	0.0164789
708.127	0.0164644
708.205	0.0166741
708.283	0.0165947
708.361	0.0168652
708.439	0.0166565
708.517	0.0168373
708.596	0.0166857
708.674	0.0167606
708.752	0.0167413
708.830	0.0166768
708.908	0.0167373
708.986	0.0167478
709.064	0.0167439
709.142	0.0166817
709.221	0.0167294
709.299	0.0166078
709.377	0.0165347
709.455	0.0164162
709.533	0.0164570
709.611	0.0164678
709.689	0.0164319
709.767	0.0165024
709.846	0.0163963
709.924	0.0163445
710.002	0.0162746
710.080	0.0164091
710.158	0.0164558
710.236	0.0162709
710.314	0.0164333
710.392	0.0164641
710.471	0.0164668
710.549	0.0166007
710.627	0.0166916
710.705	0.0167205
710.783	0.0166721
710.861	0.0168295
710.939	0.0166174
711.017	0.0166657
711.096	0.0169180
711.174	0.0168365
711.252	0.0168156
711.330	0.0169140
711.408	0.0168478
711.486	0.0168563
711.564	0.0169500
711.642	0.0167369
711.721	0.0167699
711.799	0.0166999
711.877	0.0166570
711.955	0.0165314
712.033	0.0165910
712.111	0.0163885
712.189	0.0163628
712.267	0.0163729
712.346	0.0162932
712.424	0.0162032
712.502	0.0162226
712.580	0.0162910
712.658	0.0163644
712.736	0.0164597
712.814	0.0162099
712.892	0.0163456
712.971	0.0165303
713.049	0.0164292
713.127	0.0162692
713.205	0.0165932
713.283	0.0165295
713.361	0.0165379
713.439	0.0167111
713.517	0.0164870
713.596	0.0167633
713.674	0.0166961
713.752	0.0166400
713.830	0.0167796
713.908	0.0167164
713.986	0.0167408
714.064	0.0167335
714.142	0.0167950
714.221	0.0166352
714.299	0.0167088
714.377	0.0166285
714.455	0.0167121
714.533	0.0167263
714.611	0.0167132
714.689	0.0168512
714.767	0.0168395
714.846	0.0167917
714.924	0.0166722
715.002	0.0166183
715.080	0.0166049
715.158	0.0166901
715.236	0.0166384
715.314	0.0164627
715.392	0.0164558
715.471	0.0164340
715.549	0.0164095
715.627	0.0163730
715.705	0.0164612
715.783	0.0164455
715.861	0.0164199
715.939	0.0163908
716.017	0.0164167
716.096	0.0165348
716.174	0.0164323
716.252	0.0164799
716.330	0.0165037
716.408	0.0164017
716.486	0.0164101
716.564	0.0164385
716.642	0.0164348
716.721	0.0164007
716.799	0.0164982
716.877	0.0165143
716.955	0.0166561
717.033	0.0164430
717.111	0.0163544
717.189	0.0164023
717.267	0.0163894
717.346	0.0164075
717.424	0.0162409
717.502	0.0163899
717.580	0.0164227
717.658	0.0162910
717.736	0.0162492
717.814	0.0163185
717.892	0.0163106
717.971	0.0161549
718.049	0.0163853
718.127	0.0162630
718.205	0.0163479
718.283	0.0163020
718.361	0.0163963
718.439	0.0164636
718.517	0.0164961
718.596	0.0164285
718.674	0.0164845
718.752	0.0166104
718.830	0.0165623
718.908	0.0165436
718.986	0.0164445
719.064	0.0166371
719.142	0.0166470
719.221	0.0167307
719.299	0.0165990
719.377	0.0168172
719.455	0.0167282
719.533	0.0166688
719.611	0.0167589
719.689	0.0166268
719.767	0.0167571
719.846	0.0167253
719.924	0.0166540
720.002	0.0164223
720.080	0.0165211
720.158	0.0166940
720.236	0.0167245
720.314	0.0165754
720.392	0.0164945
720.471	0.0164169
720.549	0.0164279
720.627	0.0164921
720.705	0.0163879
720.783	0.0163132
720.861	0.0162953
720.939	0.0165736
721.017	0.0165022
721.096	0.0165260
721.174	0.0164552
721.252	0.0166302
721.330	0.0164044
721.408	0.0163957
721.486	0.0165021
721.564	0.0166129
721.642	0.0165917
721.721	0.0165495
721.799	0.0164813
721.877	0.0163709
721.955	0.0164452
722.033	0.0164923
722.111	0.0163887
722.189	0.0163628
722.267	0.0163911
722.346	0.0164034
722.424	0.0163680
722.502	0.0164081
722.580	0.0162262
722.658	0.0164446
722.736	0.0162819
722.814	0.0162941
722.892	0.0163667
722.971	0.0165463
723.049	0.0163692
723.127	0.0164525
723.205	0.0165569
723.283	0.0165715
723.361	0.0167046
723.439	0.0167089
723.517	0.0166622
723.596	0.0169547
723.674	0.0167661
723.752	0.0167050
723.830	0.0169377
723.908	0.0168787
723.986	0.0167641
724.064	0.0168476
724.142	0.0166995
724.221	0.0167312
724.299	0.0166505
724.377	0.0164688
724.455	0.0165649
724.533	0.0165429
724.611	0.0163804
724.689	0.0164090
724.767	0.0162497
724.846	0.0161928
724.924	0.0162509
725.002	0.0162420
725.080	0.0161709
725.158	0.0161743
725.236	0.0164381
725.314	0.0164655
725.392	0.0164293
725.471	0.0165983
725.549	0.0165817
725.627	0.0166374
725.705	0.0166881
725.783	0.0168382
725.861	0.0168588
725.939	0.0167365
726.017	0.0169899
726.096	0.0169327
726.174	0.0169211
726.252	0.0168475
726.330	0.0169436
726.408	0.0169451
726.486	0.0169508
726.564	0.0168299
726.642	0.0167831
726.721	0.0168150
726.799	0.0168079
726.877	0.0166791
726.955	0.0165781
727.033	0.0167181
727.111	0.0166554
727.189	0.0165921
727.267	0.0164317
727.346	0.0165789
727.424	0.0164966
727.502	0.0166645
727.580	0.0164448
727.658	0.0164668
727.736	0.0165117
727.814	0.0163352
727.892	0.0164849
727.971	0.0164883
728.049	0.0165309
728.127	0.0164679
728.205	0.0165004
728.283	0.0165330
728.361	0.0165805
728.439	0.0166177
728.517	0.0166321
728.596	0.0166461
728.674	0.0166699
728.752	0.0167163
728.830	0.0166625
728.908	0.0165989
728.986	0.0166410
729.064	0.0166669
729.142	0.0166538
729.221	0.0166051
729.299	0.0165686
729.377	0.0165119
729.455	0.0166630
729.533	0.0164398
729.611	0.0164332
729.689	0.0164600
729.767	0.0163133
729.846	0.0162286
729.924	0.0163342
730.002	0.0163371
730.080	0.0162872
730.158	0.0164231
730.236	0.0162663
730.314	0.0163660
730.392	0.0165276
730.471	0.0163666
730.549	0.0163764
730.627	0.0164464
730.705	0.0164281
730.783	0.0165388
730.861	0.0164330
730.939	0.0164614
731.017	0.0164798
731.096	0.0163880
731.174	0.0164211
731.252	0.0164370
731.330	0.0164562
731.408	0.0163211
731.486	0.0163841
731.564	0.0164134
731.642	0.0164488
731.721	0.0163536
731.799	0.0164077
731.877	0.0164216
731.955	0.0163540
732.033	0.0163062
732.111	0.0162766
732.189	0.0164481
732.267	0.0165543
732.346	0.0165428
732.424	0.0164983
732.502	0.0166653
732.580	0.0164221
732.658	0.0164806
732.736	0.0165948
732.814	0.0165746
732.892	0.0166596
732.971	0.0167983
733.049	0.0167876
733.127	0.0168557
733.205	0.0167498
733.283	0.0167056
733.361	0.0167844
733.439	0.0167591
733.517	0.0167687
733.596	0.0166895
733.674	0.0167387
733.752	0.0167525
733.830	0.0165419
733.908	0.0166045
733.986	0.0165766
734.064	0.0165289
734.142	0.0164238
734.221	0.0164493
734.299	0.0165496
734.377	0.0163488
734.455	0.0165022
734.533	0.0165873
734.611	0.0163474
734.689	0.0164842
734.767	0.0165983
734.846	0.0165530
734.924	0.0165590
735.002	0.0166479
735.080	0.0166424
735.158	0.0165716
735.236	0.0166531
735.314	0.0167439
735.392	0.0166658
735.471	0.0168121
735.549	0.0168373
735.627	0.0168675
735.705	0.0168945
735.783	0.0169122
735.861	0.0170114
735.939	0.0169299
736.017	0.0168771
736.096	0.0168582
736.174	0.0168761
736.252	0.0169028
736.330	0.0168476
736.408	0.0167249
736.486	0.0166947
736.564	0.0167913
736.642	0.0167504
736.721	0.0165661
736.799	0.0165009
736.877	0.0164542
736.955	0.0165026
737.033	0.0164546
737.111	0.0165784
737.189	0.0163576
737.267	0.0163526
737.346	0.0163448
737.424	0.0162474
737.502	0.0162919
737.580	0.0163478
737.658	0.0164421
737.736	0.0163239
737.814	0.0163779
737.892	0.0164091
737.971	0.0165383
738.049	0.0163617
738.127	0.0165126
738.205	0.0164944
738.283	0.0166082
738.361	0.0163792
738.439	0.0166191
738.517	0.0166167
738.596	0.0166867
738.674	0.0166930
738.752	0.0167455
738.830	0.0166314
738.908	0.0167085
738.986	0.0167908
739.064	0.0167717
739.142	0.0167698
739.221	0.0168084
739.299	0.0166768
739.377	0.0168003
739.455	0.0165810
739.533	0.0166184
739.611	0.0165975
739.689	0.0166496
739.767	0.0166214
739.846	0.0165635
739.924	0.0164922
740.002	0.0165484
740.080	0.0166197
740.158	0.0164784
740.236	0.0164429
740.314	0.0164137
740.392	0.0164910
740.471	0.0165352
740.549	0.0165009
740.627	0.0164170
740.705	0.0165980
740.783	0.0164293
740.861	0.0164283
740.939	0.0166103
741.017	0.0166273
741.096	0.0165292
741.174	0.0164603
741.252	0.0165604
741.330	0.0164412
741.408	0.0165470
741.486	0.0164338
741.564	0.0163838
741.642	0.0163257
741.721	0.0165547
741.799	0.0164671
741.877	0.0162375
741.955	0.0163026
742.033	0.0163287
742.111	0.0161688
742.189	0.0162274
742.267	0.0161835
742.346	0.0162475
742.424	0.0161443
742.502	0.0160981
742.580	0.0161788
742.658	0.0161395
742.736	0.0162724
742.814	0.0161892
742.892	0.0163097
742.971	0.0164288
743.049	0.0165627
743.127	0.0164587
743.205	0.0165755
743.283	0.0167123
743.361	0.0166270
743.439	0.0167439
743.517	0.0168945
743.596	0.0168814
743.674	0.0169705
743.752	0.0169115
743.830	0.0168581
743.908	0.0169207
743.986	0.0167943
744.064	0.0168470
744.142	0.0168127
744.221	0.0167235
744.299	0.0165617
744.377	0.0164214
744.455	0.0165076
744.533	0.0164457
744.611	0.0163752
744.689	0.0162049
744.767	0.0162025
744.846	0.0161365
744.924	0.0161790
745.002	0.0160698
745.080	0.0160216
745.158	0.0159881
745.236	0.0160529
745.314	0.0159226
745.392	0.0160255
745.471	0.0161699
745.549	0.0161313
745.627	0.0162260
745.705	0.0161380
745.783	0.0162268
745.861	0.0163694
745.939	0.0163995
746.017	0.0162926
746.096	0.0164259
746.174	0.0165439
746.252	0.0165281
746.330	0.0164689
746.408	0.0165134
746.486	0.0166283
746.564	0.0165847
746.642	0.0165934
746.721	0.0165711
746.799	0.0166010
746.877	0.0166816
746.955	0.0165668
747.033	0.0165295
747.111	0.0166786
747.189	0.0166008
747.267	0.0165517
747.346	0.0165394
747.424	0.0163570
747.502	0.0166336
747.580	0.0165704
747.658	0.0165433
747.736	0.0166187
747.814	0.0165336
747.892	0.0165473
747.971	0.0165907
748.049	0.0164972
748.127	0.0164697
748.205	0.0165485
748.283	0.0165971
748.361	0.0165369
748.439	0.0165170
748.517	0.0164554
748.596	0.0166060
748.674	0.0165527
748.752	0.0165487
748.830	0.0167056
748.908	0.0168013
748.986	0.0166171
749.064	0.0166740
749.142	0.0167161
749.221	0.0167860
749.299	0.0168887
749.377	0.0167330
749.455	0.0168172
749.533	0.0167783
749.611	0.0167651
749.689	0.0167417
749.767	0.0168307
749.846	0.0166972
749.924	0.0166740
750.002	0.0166371
750.080	0.0165590
750.158	0.0166302
750.236	0.0165453
750.314	0.0165257
750.392	0.0165110
750.471	0.0163918
750.549	0.0164398
750.627	0.0165466
750.705	0.0164648
750.783	0.0163504
750.861	0.0164139
750.939	0.0164787
751.017	0.0165163
751.096	0.0165245
751.174	0.0166906
751.252	0.0166766
751.330	0.0165902
751.408	0.0165880
751.486	0.0165753
751.564	0.0166911
751.642	0.0166182
751.721	0.0165991
751.799	0.0165482
751.877	0.0165334
751.955	0.0166380
752.033	0.0165451
752.111	0.0165191
752.189	0.0164629
752.267	0.0165231
752.346	0.0164137
752.424	0.0164327
752.502	0.0164412
752.580	0.0162849
752.658	0.0163869
752.736	0.0163617
752.814	0.0163583
752.892	0.0164352
752.971	0.0163507
753.049	0.0166448
753.127	0.0166150
753.205	0.0166288
753.283	0.0166735
753.361	0.0166624
753.439	0.0166852
753.517	0.0168168
753.596	0.0168298
753.674	0.0167865
753.752	0.0168800
753.830	0.0169190
753.908	0.0170525
753.986	0.0170742
754.064	0.0169708
754.142	0.0170400
754.221	0.0170881
754.299	0.0171153
754.377	0.0169625
754.455	0.0170660
754.533	0.0168382
754.611	0.0169762
754.689	0.0169358
754.767	0.0170129
754.846	0.0170090
754.924	0.0167554
755.002	0.0167733
755.080	0.0168124
755.158	0.0166169
755.236	0.0167354
755.314	0.0167996
755.392	0.0166603
755.471	0.0164771
755.549	0.0165501
755.627	0.0165657
755.705	0.0165202
755.783	0.0163948
755.861	0.0163541
755.939	0.0162435
756.017	0.0162716
756.096	0.0162613
756.174	0.0162368
756.252	0.0161153
756.330	0.0160520
756.408	0.0161504
756.486	0.0161770
756.564	0.0161095
756.642	0.0161639
756.721	0.0161327
756.799	0.0162363
756.877	0.0162276
756.955	0.0163375
757.033	0.0161343
757.111	0.0162987
757.189	0.0165832
757.267	0.0164796
757.346	0.0165321
757.424	0.0166293
757.502	0.0165735
757.580	0.0165403
757.658	0.0167107
757.736	0.0167910
757.814	0.0168890
757.892	0.0168115
757.971	0.0169521
758.049	0.0168656
758.127	0.0170051
758.205	0.0169620
758.283	0.0168950
758.361	0.0170317
758.439	0.0169294
758.517	0.0168982
758.596	0.0168967
758.674	0.0167736
758.752	0.0169434
758.830	0.0168209
758.908	0.0167257
758.986	0.0167207
759.064	0.0166023
759.142	0.0164870
759.221	0.0165285
759.299	0.0163048
759.377	0.0164920
759.455	0.0164795
759.533	0.0163184
759.611	0.0163480
759.689	0.0163044
759.767	0.0164074
759.846	0.0163625
759.924	0.0165343
760.002	0.0165796
760.080	0.0164577
760.158	0.0165070
760.236	0.0166151
760.314	0.0164577
760.392	0.0165340
760.471	0.0165965
760.549	0.0164670
760.627	0.0164748
760.705	0.0165243
760.783	0.0166016
760.861	0.0166465
760.939	0.0165966
761.017	0.0165334
761.096	0.0165707
761.174	0.0164766
761.252	0.0166455
761.330	0.0165074
761.408	0.0164722
761.486	0.0166103
761.564	0.0164024
761.642	0.0164455
761.721	0.0164070
761.799	0.0163995
761.877	0.0162453
761.955	0.0163684
762.033	0.0163084
762.111	0.0162537
762.189	0.0162320
762.267	0.0161733
762.346	0.0161414
762.424	0.0162042
762.502	0.0163077
762.580	0.0162977
762.658	0.0162372
762.736	0.0162142
762.814	0.0162899
762.892	0.0161899
762.971	0.0163654
763.049	0.0164610
763.127	0.0164457
763.205	0.0164855
763.283	0.0164767
763.361	0.0165569
763.439	0.0167283
763.517	0.0166647
763.596	0.0167911
763.674	0.0167863
763.752	0.0167309
763.830	0.0168249
763.908	0.0167780
763.986	0.0169100
764.064	0.0168562
764.142	0.0168145
764.221	0.0168329
764.299	0.0167207
764.377	0.0167363
764.455	0.0164750
764.533	0.0165070
764.611	0.0166805
764.689	0.0164700
764.767	0.0163762
764.846	0.0163820
764.924	0.0164725
765.002	0.0162607
765.080	0.0164300
765.158	0.0165659
765.236	0.0163761
765.314	0.0164411
765.392	0.0163575
765.471	0.0166182
765.549	0.0167176
765.627	0.0164896
765.705	0.0166600
765.783	0.0166774
765.861	0.0166778
765.939	0.0166407
766.017	0.0165904
766.096	0.0166616
766.174	0.0165515
766.252	0.0166103
766.330	0.0166022
766.408	0.0166073
766.486	0.0166448
766.564	0.0166881
766.642	0.0167851
766.721	0.0166180
766.799	0.0164965
766.877	0.0165665
766.955	0.0166734
767.033	0.0165978
767.111	0.0166814
767.189	0.0164337
767.267	0.0163870
767.346	0.0164709
767.424	0.0164749
767.502	0.0165466
767.580	0.0164579
767.658	0.0162716
767.736	0.0163999
767.814	0.0162975
767.892	0.0162022
767.971	0.0161900
768.049	0.0163102
768.127	0.0161941
768.205	0.0161867
768.283	0.0162739
768.361	0.0162873
768.439	0.0163551
768.517	0.0162670
768.596	0.0163428
768.674	0.0164471
768.752	0.0164819
768.830	0.0164899
768.908	0.0165257
768.986	0.0165691
769.064	0.0165763
769.142	0.0166647
769.221	0.0166233
769.299	0.0166991
769.377	0.0166312
769.455	0.0166430
769.533	0.0164325
769.611	0.0164807
769.689	0.0165478
769.767	0.0165182
769.846	0.0165157
769.924	0.0164458
770.002	0.0164963
770.080	0.0164129
770.158	0.0164799
770.236	0.0163727
770.314	0.0164345
770.392	0.0163481
770.471	0.0164548
770.549	0.0165215
770.627	0.0164235
770.705	0.0164091
770.783	0.0165121
770.861	0.0164946
770.939	0.0163066
771.017	0.0164713
771.096	0.0166235
771.174	0.0163982
771.252	0.0165685
771.330	0.0165558
771.408	0.0166409
771.486	0.0166734
771.564	0.0165519
771.642	0.0164722
771.721	0.0166460
771.799	0.0165121
771.877	0.0164912
771.955	0.0164163
772.033	0.0165927
772.111	0.0164927
772.189	0.0164802
772.267	0.0165498
772.346	0.0164801
772.424	0.0164945
772.502	0.0162675
772.580	0.0164165
772.658	0.0164661
772.736	0.0163017
772.814	0.0163477
772.892	0.0163435
772.971	0.0164577
773.049	0.0165248
773.127	0.0164551
773.205	0.0165286
773.283	0.0165588
773.361	0.0165903
773.439	0.0166349
773.517	0.0166561
773.596	0.0167184
773.674	0.0167791
773.752	0.0168151
773.830	0.0168243
773.908	0.0168228
773.986	0.0170109
774.064	0.0170139
774.142	0.0168693
774.221	0.0169061
774.299	0.0167248
774.377	0.0169737
774.455	0.0170798
774.533	0.0170190
774.611	0.0169229
774.689	0.0167733
774.767	0.0168398
774.846	0.0167666
774.924	0.0167744
775.002	0.0165432
775.080	0.0167493
775.158	0.0165935
775.236	0.0165557
775.314	0.0166529
775.392	0.0164645
775.471	0.0165357
775.549	0.0163970
775.627	0.0165382
775.705	0.0164375
775.783	0.0164609
775.861	0.0165102
775.939	0.0164073
776.017	0.0164809
776.096	0.0164842
776.174	0.0164460
776.252	0.0165208
776.330	0.0166457
776.408	0.0166080
776.486	0.0167923
776.564	0.0164869
776.642	0.0166757
776.721	0.0168246
776.799	0.0166877
776.877	0.0167393
776.955	0.0166286
777.033	0.0166490
777.111	0.0166732
777.189	0.0166716
777.267	0.0166916
777.346	0.0167657
777.424	0.0167593
777.502	0.0166269
777.580	0.0167046
777.658	0.0166816
777.736	0.0165683
777.814	0.0166661
777.892	0.0165986
777.971	0.0165582
778.049	0.0165332
778.127	0.0167276
778.205	0.0166158
778.283	0.0164648
778.361	0.0164879
778.439	0.0165392
778.517	0.0165615
778.596	0.0165041
778.674	0.0166531
778.752	0.0166959
778.830	0.0166334
778.908	0.0165755
778.986	0.0166188
779.064	0.0165751
779.142	0.0166359
779.221	0.0167253
779.299	0.0166430
779.377	0.0166053
779.455	0.0165923
779.533	0.0166276
779.611	0.0165104
779.689	0.0163549
779.767	0.0165285
779.846	0.0164809
779.924	0.0167204
780.002	0.0166125
780.080	0.0164893
780.158	0.0165345
780.236	0.0165691
780.314	0.0166608
780.392	0.0165405
780.471	0.0167152
780.549	0.0167631
780.627	0.0166325
780.705	0.0166424
780.783	0.0165826
780.861	0.0167968
780.939	0.0166908
781.017	0.0166277
781.096	0.0165567
781.174	0.0166228
781.252	0.0166423
781.330	0.0166453
781.408	0.0166827
781.486	0.0166761
781.564	0.0165118
781.642	0.0165550
781.721	0.0164475
781.799	0.0165980
781.877	0.0165658
781.955	0.0166634
782.033	0.0166623
782.111	0.0165807
782.189	0.0165904
782.267	0.0166121
782.346	0.0164030
782.424	0.0165372
782.502	0.0164841
782.580	0.0164560
782.658	0.0164669
782.736	0.0166348
782.814	0.0164111
782.892	0.0164784
782.971	0.0164734
783.049	0.0164026
783.127	0.0164163
783.205	0.0164048
783.283	0.0165108
783.361	0.0165244
783.439	0.0164640
783.517	0.0164317
783.596	0.0165663
783.674	0.0164629
783.752	0.0164246
783.830	0.0165448
783.908	0.0164393
783.986	0.0165576
784.064	0.0165762
784.142	0.0164981
784.221	0.0163872
784.299	0.0165989
784.377	0.0164054
784.455	0.0164893
784.533	0.0164690
784.611	0.0165477
784.689	0.0164468
784.767	0.0163789
784.846	0.0163791
784.924	0.0164345
785.002	0.0165570
785.080	0.0165747
785.158	0.0163688
785.236	0.0164771
785.314	0.0165063
785.392	0.0163920
785.471	0.0166168
785.549	0.0165918
785.627	0.0164006
785.705	0.0165350
785.783	0.0165931
785.861	0.0165839
785.939	0.0165105
786.017	0.0166038
786.096	0.0166871
786.174	0.0166183
786.252	0.0166402
786.330	0.0166729
786.408	0.0164997
786.486	0.0165182
786.564	0.0165778
786.642	0.0165006
786.721	0.0165292
786.799	0.0165398
786.877	0.0164050
786.955	0.0164507
787.033	0.0166087
787.111	0.0164935
787.189	0.0165742
787.267	0.0165682
787.346	0.0165583
787.424	0.0164681
787.502	0.0165965
787.580	0.0167057
787.658	0.0166628
787.736	0.0165820
787.814	0.0166312
787.892	0.0166027
787.971	0.0165957
788.049	0.0166830
788.127	0.0165950
788.205	0.0165102
788.283	0.0167830
788.361	0.0167137
788.439	0.0166623
788.517	0.0167018
788.596	0.0165744
788.674	0.0167419
788.752	0.0166241
788.830	0.0166066
788.908	0.0167125
788.986	0.0166501
789.064	0.0166996
789.142	0.0167085
789.221	0.0165792
789.299	0.0167670
789.377	0.0166075
789.455	0.0168051
789.533	0.0165603
789.611	0.0165789
789.689	0.0164988
789.767	0.0166825
789.846	0.0166552
789.924	0.0166447
790.002	0.0165302
790.080	0.0166557
790.158	0.0165849
790.236	0.0165667
790.314	0.0165705
790.392	0.0165450
790.471	0.0167684
790.549	0.0165687
790.627	0.0165356
790.705	0.0166035
790.783	0.0165381
790.861	0.0166730
790.939	0.0167503
791.017	0.0164336
791.096	0.0164661
791.174	0.0165289
791.252	0.0164949
791.330	0.0165501
791.408	0.0165117
791.486	0.0166056
791.564	0.0166292
791.642	0.0164780
791.721	0.0164802
791.799	0.0164536
791.877	0.0165588
791.955	0.0165993
792.033	0.0165480
792.111	0.0166366
792.189	0.0165792
792.267	0.0166526
792.346	0.0166235
792.424	0.0164825
792.502	0.0166531
792.580	0.0167104
792.658	0.0166760
792.736	0.0166730
792.814	0.0166909
792.892	0.0167290
792.971	0.0167046
793.049	0.0166556
793.127	0.0167323
793.205	0.0166222
793.283	0.0166508
793.361	0.0168484
793.439	0.0167441
793.517	0.0167090
793.596	0.0167014
793.674	0.0167764
793.752	0.0165709
793.830	0.0167822
793.908	0.0167236
793.986	0.0166410
794.064	0.0164839
794.142	0.0166374
794.221	0.0166315
794.299	0.0165450
794.377	0.0165788
794.455	0.0166236
794.533	0.0164903
794.611	0.0165974
794.689	0.0165411
794.767	0.0165939
794.846	0.0165424
794.924	0.0166141
795.002	0.0165215
795.080	0.0165616
795.158	0.0164257
795.236	0.0165585
795.314	0.0165651
795.392	0.0165404
795.471	0.0164544
795.549	0.0165048
795.627	0.0165772
795.705	0.0165742
795.783	0.0164821
795.861	0.0166336
795.939	0.0167604
796.017	0.0165544
796.096	0.0166196
796.174	0.0166878
796.252	0.0166815
796.330	0.0167309
796.408	0.0167492
796.486	0.0167775
796.564	0.0166222
796.642	0.0165431
796.721	0.0166789
796.799	0.0167436
796.877	0.0166460
796.955	0.0167462
797.033	0.0166192
797.111	0.0166235
797.189	0.0166985
797.267	0.0166152
797.346	0.0166579
797.424	0.0168050
797.502	0.0168111
797.580	0.0167155
797.658	0.0167215
797.736	0.0167606
797.814	0.0167396
797.892	0.0165921
797.971	0.0167226
798.049	0.0167175
798.127	0.0167643
798.205	0.0166708
798.283	0.0166382
798.361	0.0166405
798.439	0.0167465
798.517	0.0167851
798.596	0.0165761
798.674	0.0165134
798.752	0.0167154
798.830	0.0165900
798.908	0.0165993
798.986	0.0165797
799.064	0.0166137
799.142	0.0166372
799.221	0.0165352
799.299	0.0166095
799.377	0.0164812
799.455	0.0165084
799.533	0.0165228
799.611	0.0165047
799.689	0.0166195
799.767	0.0166082
799.846	0.0165079
799.924	0.0166852
800.002	0.0165749
800.080	0.0166428
800.158	0.0165755
800.236	0.0166259
800.314	0.0167243
800.392	0.0166439
800.471	0.0164262
800.549	0.0166607
800.627	0.0166387
800.705	0.0165873
800.783	0.0166201
800.861	0.0167052
800.939	0.0167661
801.017	0.0165796
801.096	0.0167313
801.174	0.0165423
801.252	0.0165112
801.330	0.0165840
801.408	0.0166459
801.486	0.0166004
801.564	0.0166097
801.642	0.0167165
801.721	0.0167609
801.799	0.0166029
801.877	0.0166016
801.955	0.0167516
802.033	0.0165794
802.111	0.0166335
802.189	0.0166669
802.267	0.0166457
802.346	0.0165684
802.424	0.0165661
802.502	0.0164670
802.580	0.0165617
802.658	0.0166807
802.736	0.0166339
802.814	0.0166353
802.892	0.0166206
802.971	0.0166441
803.049	0.0167244
803.127	0.0166488
803.205	0.0165241
803.283	0.0165958
803.361	0.0167095
803.439	0.0166441
803.517	0.0166195
803.596	0.0166932
803.674	0.0166207
803.752	0.0168408
803.830	0.0168385
803.908	0.0167920
803.986	0.0166635
804.064	0.0165648
804.142	0.0166095
804.221	0.0167596
804.299	0.0165415
804.377	0.0166248
804.455	0.0166171
804.533	0.0166514
804.611	0.0166574
804.689	0.0165809
804.767	0.0166288
804.846	0.0164975
804.924	0.0166225
805.002	0.0166081
805.080	0.0165987
805.158	0.0165909
805.236	0.0165964
805.314	0.0165823
805.392	0.0165987
805.471	0.0166096
805.549	0.0165284
805.627	0.0166885
805.705	0.0167617
805.783	0.0164813
805.861	0.0165126
805.939	0.0166332
806.017	0.0167139
806.096	0.0165189
806.174	0.0166471
806.252	0.0165823
806.330	0.0167032
806.408	0.0166180
806.486	0.0166157
806.564	0.0166042
806.642	0.0166700
806.721	0.0166149
806.799	0.0166325
806.877	0.0166576
806.955	0.0166541
807.033	0.0166296
807.111	0.0166458
807.189	0.0167393
807.267	0.0165096
807.346	0.0166276
807.424	0.0166001
807.502	0.0165137
807.580	0.0166549
807.658	0.0166257
807.736	0.0165024
807.814	0.0165408
807.892	0.0165727
807.971	0.0165478
808.049	0.0166470
808.127	0.0168617
808.205	0.0164788
808.283	0.0164881
808.361	0.0165185
808.439	0.0165121
808.517	0.0167093
808.596	0.0165330
808.674	0.0165259
808.752	0.0165968
808.830	0.0166184
808.908	0.0165972
808.986	0.0166028
809.064	0.0165725
809.142	0.0166558
809.221	0.0165654
809.299	0.0167918
809.377	0.0165630
809.455	0.0165260
809.533	0.0166508
809.611	0.0165543
809.689	0.0166174
809.767	0.0165640
809.846	0.0165660
809.924	0.0165254
810.002	0.0165752
810.080	0.0165740
810.158	0.0166113
810.236	0.0166105
810.314	0.0164165
810.392	0.0165899
810.471	0.0167966
810.549	0.0167705
810.627	0.0166337
810.705	0.0166306
810.783	0.0165730
810.861	0.0167008
810.939	0.0165900
811.017	0.0165308
811.096	0.0165384
811.174	0.0166738
811.252	0.0166573
811.330	0.0165408
811.408	0.0165784
811.486	0.0166808
811.564	0.0165504
811.642	0.0164702
811.721	0.0164896
811.799	0.0164809
811.877	0.0165850
811.955	0.0165350
812.033	0.0165409
812.111	0.0165691
812.189	0.0164989
812.267	0.0166517
812.346	0.0166516
812.424	0.0166743
812.502	0.0166068
812.580	0.0165451
812.658	0.0165271
812.736	0.0166045
812.814	0.0165796
812.892	0.0165382
812.971	0.0165151
813.049	0.0165569
813.127	0.0165150
813.205	0.0165507
813.283	0.0165240
813.361	0.0165868
813.439	0.0165219
813.517	0.0165273
813.596	0.0165802
813.674	0.0164228
813.752	0.0164930
813.830	0.0165408
813.908	0.0165701
813.986	0.0165479
814.064	0.0165513
814.142	0.0164806
814.221	0.0166090
814.299	0.0165308
814.377	0.0166129
814.455	0.0167490
814.533	0.0168188
814.611	0.0166738
814.689	0.0166644
814.767	0.0165555
814.846	0.0168378
814.924	0.0168029
815.002	0.0166093
815.080	0.0167013
815.158	0.0166598
815.236	0.0167941
815.314	0.0168079
815.392	0.0168256
815.471	0.0166098
815.549	0.0166411
815.627	0.0166235
815.705	0.0167157
815.783	0.0167192
815.861	0.0165956
815.939	0.0165595
816.017	0.0165357
816.096	0.0165849
816.174	0.0165533
816.252	0.0165358
816.330	0.0167052
816.408	0.0165917
816.486	0.0165191
816.564	0.0165836
816.642	0.0165662
816.721	0.0164536
816.799	0.0165279
816.877	0.0165134
816.955	0.0165579
817.033	0.0165278
817.111	0.0166613
817.189	0.0165941
817.267	0.0164083
817.346	0.0167384
817.424	0.0165939
817.502	0.0165285
817.580	0.0166061
817.658	0.0164491
817.736	0.0164392
817.814	0.0164609
817.892	0.0166834
817.971	0.0165103
818.049	0.0165674
818.127	0.0165601
818.205	0.0164054
818.283	0.0164607
818.361	0.0165743
818.439	0.0165640
818.517	0.0165539
818.596	0.0164464
818.674	0.0164208
818.752	0.0165530
818.830	0.0165621
818.908	0.0164479
818.986	0.0165225
819.064	0.0165456
819.142	0.0166236
819.221	0.0165968
819.299	0.0164373
819.377	0.0165282
819.455	0.0164569
819.533	0.0166140
819.611	0.0163434
819.689	0.0165710
819.767	0.0165584
819.846	0.0165171
819.924	0.0165537
820.002	0.0164172
820.080	0.0164732
820.158	0.0163319
820.236	0.0163516
820.314	0.0165726
820.392	0.0164143
820.471	0.0164221
820.549	0.0164679
820.627	0.0164465
820.705	0.0164198
820.783	0.0164831
820.861	0.0164503
820.939	0.0164800
821.017	0.0164356
821.096	0.0163262
821.174	0.0164957
821.252	0.0165180
821.330	0.0165146
821.408	0.0164295
821.486	0.0164588
821.564	0.0164664
821.642	0.0166058
821.721	0.0164403
821.799	0.0164655
821.877	0.0165111
821.955	0.0165437
822.033	0.0165804
822.111	0.0165890
822.189	0.0165690
822.267	0.0165060
822.346	0.0164671
822.424	0.0164351
822.502	0.0165805
822.580	0.0165437
822.658	0.0165213
822.736	0.0165652
822.814	0.0165410
822.892	0.0165952
822.971	0.0166359
823.049	0.0165952
823.127	0.0166099
823.205	0.0167289
823.283	0.0166685
823.361	0.0166597
823.439	0.0165883
823.517	0.0166516
823.596	0.0167427
823.674	0.0166142
823.752	0.0167486
823.830	0.0167856
823.908	0.0166943
823.986	0.0166658
824.064	0.0166354
824.142	0.0167361
824.221	0.0167301
824.299	0.0167620
824.377	0.0167449
824.455	0.0165370
824.533	0.0166898
824.611	0.0166448
824.689	0.0166983
824.767	0.0165591
824.846	0.0166114
824.924	0.0164753
825.002	0.0165399
825.080	0.0165295
825.158	0.0165020
825.236	0.0167815
825.314	0.0167521
825.392	0.0165862
825.471	0.0166809
825.549	0.0168311
825.627	0.0166717
825.705	0.0164371
825.783	0.0164922
825.861	0.0166734
825.939	0.0166912
826.017	0.0166772
826.096	0.0166837
826.174	0.0167598
826.252	0.0166357
826.330	0.0166112
826.408	0.0167547
826.486	0.0165749
826.564	0.0167049
826.642	0.0167471
826.721	0.0167311
826.799	0.0167627
826.877	0.0166790
826.955	0.0166396
827.033	0.0166311
827.111	0.0167804
827.189	0.0166734
827.267	0.0166985
827.346	0.0165893
827.424	0.0167798
827.502	0.0167610
827.580	0.0166397
827.658	0.0165596
827.736	0.0166062
827.814	0.0166167
827.892	0.0167152
827.971	0.0165302
828.049	0.0165111
828.127	0.0164357
828.205	0.0164581
828.283	0.0165495
828.361	0.0166095
828.439	0.0165972
828.517	0.0164664
828.596	0.0165421
828.674	0.0165436
828.752	0.0165359
828.830	0.0164741
828.908	0.0165128
828.986	0.0166857
829.064	0.0165549
829.142	0.0165968
829.221	0.0167368
829.299	0.0165940
829.377	0.0166206
829.455	0.0165220
829.533	0.0166135
829.611	0.0166834
829.689	0.0164828
829.767	0.0167142
829.846	0.0166933
829.924	0.0164985
830.002	0.0164828
830.080	0.0167450
830.158	0.0165600
830.236	0.0163088
830.314	0.0165859
830.392	0.0165772
830.471	0.0164104
830.549	0.0163459
830.627	0.0163323
830.705	0.0163055
830.783	0.0164718
830.861	0.0164193
830.939	0.0163754
831.017	0.0164220
831.096	0.0163801
831.174	0.0165033
831.252	0.0165104
831.330	0.0165807
831.408	0.0165182
831.486	0.0164920
831.564	0.0166045
831.642	0.0165405
831.721	0.0165843
831.799	0.0166063
831.877	0.0165382
831.955	0.0166682
832.033	0.0166239
832.111	0.0166170
832.189	0.0166512
832.267	0.0165759
832.346	0.0165276
832.424	0.0165269
832.502	0.0164800
832.580	0.0164709
832.658	0.0165788
832.736	0.0165138
832.814	0.0166473
832.892	0.0164822
832.971	0.0165395
833.049	0.0165767
833.127	0.0165923
833.205	0.0163343
833.283	0.0166129
833.361	0.0166386
833.439	0.0166116
833.517	0.0167130
833.596	0.0166429
833.674	0.0165086
833.752	0.0165266
833.830	0.0165586
833.908	0.0165623
833.986	0.0165901
834.064	0.0168154
834.142	0.0166137
834.221	0.0166203
834.299	0.0168231
834.377	0.0166142
834.455	0.0165203
834.533	0.0165926
834.611	0.0166425
834.689	0.0165336
834.767	0.0165422
834.846	0.0165324
834.924	0.0165665
835.002	0.0164841
835.080	0.0165189
835.158	0.0166357
835.236	0.0165948
835.314	0.0164681
835.392	0.0165498
835.471	0.0166020
835.549	0.0166749
835.627	0.0166925
835.705	0.0165894
835.783	0.0167412
835.861	0.0166411
835.939	0.0165167
836.017	0.0165944
836.096	0.0166518
836.174	0.0166567
836.252	0.0165779
836.330	0.0166264
836.408	0.0166376
836.486	0.0166486
836.564	0.0165940
836.642	0.0165251
836.721	0.0165821
836.799	0.0166140
836.877	0.0166096
836.955	0.0165392
837.033	0.0166541
837.111	0.0166251
837.189	0.0166779
837.267	0.0164732
837.346	0.0164338
837.424	0.0165462
837.502	0.0165083
837.580	0.0164694
837.658	0.0165061
837.736	0.0164837
837.814	0.0166254
837.892	0.0165943
837.971	0.0165369
838.049	0.0165135
838.127	0.0165151
838.205	0.0165976
838.283	0.0164284
838.361	0.0165936
838.439	0.0167332
838.517	0.0166874
838.596	0.0164775
838.674	0.0166599
838.752	0.0167091
838.830	0.0166763
838.908	0.0165318
838.986	0.0165865
839.064	0.0165161
839.142	0.0165207
839.221	0.0166075
839.299	0.0165539
839.377	0.0165824
839.455	0.0165083
839.533	0.0164845
839.611	0.0165424
839.689	0.0164881
839.767	0.0164366
839.846	0.0165704
839.924	0.0164410
840.002	0.0165416
840.080	0.0164794
840.158	0.0164209
840.236	0.0163959
840.314	0.0164800
840.392	0.0166284
840.471	0.0165983
840.549	0.0165066
840.627	0.0166421
840.705	0.0165154
840.783	0.0162695
840.861	0.0164538
840.939	0.0164877
841.017	0.0164251
841.096	0.0166283
841.174	0.0165104
841.252	0.0164400
841.330	0.0164859
841.408	0.0166428
841.486	0.0165253
841.564	0.0165504
841.642	0.0165438
841.721	0.0165164
841.799	0.0165220
841.877	0.0166396
841.955	0.0165111
842.033	0.0164548
842.111	0.0166626
842.189	0.0165403
842.267	0.0166550
842.346	0.0165915
842.424	0.0165853
842.502	0.0163359
842.580	0.0165088
842.658	0.0166016
842.736	0.0164369
842.814	0.0165707
842.892	0.0164465
842.971	0.0165302
843.049	0.0165640
843.127	0.0165056
843.205	0.0165427
843.283	0.0165034
843.361	0.0165886
843.439	0.0164730
843.517	0.0164752
843.596	0.0164527
843.674	0.0163728
843.752	0.0165296
843.830	0.0165411
843.908	0.0165293
843.986	0.0164736
844.064	0.0163582
844.142	0.0163531
844.221	0.0165929
844.299	0.0165768
844.377	0.0163766
844.455	0.0163199
844.533	0.0165150
844.611	0.0165439
844.689	0.0164823
844.767	0.0165973
844.846	0.0164491
844.924	0.0164125
845.002	0.0164717
845.080	0.0164368
845.158	0.0164288
845.236	0.0163769
845.314	0.0164946
845.392	0.0165694
845.471	0.0164368
845.549	0.0166368
845.627	0.0165193
845.705	0.0163956
845.783	0.0165460
845.861	0.0163626
845.939	0.0163470
846.017	0.0162393
846.096	0.0164083
846.174	0.0166233
846.252	0.0164793
846.330	0.0164541
846.408	0.0165045
846.486	0.0165635
846.564	0.0164342
846.642	0.0165739
846.721	0.0165534
846.799	0.0164084
846.877	0.0164428
846.955	0.0165044
847.033	0.0165799
847.111	0.0166631
847.189	0.0165414
847.267	0.0165348
847.346	0.0164833
847.424	0.0166306
847.502	0.0167271
847.580	0.0164860
847.658	0.0165707
847.736	0.0165221
847.814	0.0164990
847.892	0.0165548
847.971	0.0165172
848.049	0.0166845
848.127	0.0165680
848.205	0.0163710
848.283	0.0165219
848.361	0.0166924
848.439	0.0166203
848.517	0.0165646
848.596	0.0165974
848.674	0.0166996
848.752	0.0166094
848.830	0.0165498
848.908	0.0166520
848.986	0.0165813
849.064	0.0164588
849.142	0.0164588
849.221	0.0166343
849.299	0.0166444
849.377	0.0166759
849.455	0.0165342
849.533	0.0164787
849.611	0.0164202
849.689	0.0167329
849.767	0.0165825
849.846	0.0165771
849.924	0.0165170
850.002	0.0166219
850.080	0.0166351
850.158	0.0166161
850.236	0.0165849
850.314	0.0167149
850.392	0.0165339
850.471	0.0166376
850.549	0.0167091
850.627	0.0166469
850.705	0.0166286
850.783	0.0165882
850.861	0.0166462
850.939	0.0167615
851.017	0.0166087
851.096	0.0166785
851.174	0.0166232
851.252	0.0164690
851.330	0.0166972
851.408	0.0165491
851.486	0.0165009
851.564	0.0166305
851.642	0.0165708
851.721	0.0165385
851.799	0.0164968
851.877	0.0164987
851.955	0.0165708
852.033	0.0165491
852.111	0.0164395
852.189	0.0163709
852.267	0.0166199
852.346	0.0164310
852.424	0.0164806
852.502	0.0164575
852.580	0.0164911
852.658	0.0166041
852.736	0.0164850
852.814	0.0164738
852.892	0.0164400
852.971	0.0164992
853.049	0.0165125
853.127	0.0164069
853.205	0.0165212
853.283	0.0165727
853.361	0.0164764
853.439	0.0164614
853.517	0.0165231
853.596	0.0165051
853.674	0.0165366
853.752	0.0165776
853.830	0.0165733
853.908	0.0165948
853.986	0.0165505
854.064	0.0165990
854.142	0.0165317
854.221	0.0166103
854.299	0.0165543
854.377	0.0168407
854.455	0.0167298
854.533	0.0165891
854.611	0.0167018
854.689	0.0166877
854.767	0.0166677
854.846	0.0167003
854.924	0.0166407
855.002	0.0167354
855.080	0.0166136
855.158	0.0166411
855.236	0.0166298
855.314	0.0167110
855.392	0.0166740
855.471	0.0165994
855.549	0.0165821
855.627	0.0165696
855.705	0.0166010
855.783	0.0166868
855.861	0.0166347
855.939	0.0166736
856.017	0.0166564
856.096	0.0165985
856.174	0.0166911
856.252	0.0166134
856.330	0.0165496
856.408	0.0165210
856.486	0.0165982
856.564	0.0168124
856.642	0.0166334
856.721	0.0165636
856.799	0.0165929
856.877	0.0165995
856.955	0.0166472
857.033	0.0167873
857.111	0.0167253
857.189	0.0167484
857.267	0.0166585
857.346	0.0166696
857.424	0.0164552
857.502	0.0164987
857.580	0.0165317
857.658	0.0166628
857.736	0.0166550
857.814	0.0166362
857.892	0.0166137
857.971	0.0164990
858.049	0.0166022
858.127	0.0165347
858.205	0.0164545
858.283	0.0164337
858.361	0.0166701
858.439	0.0166076
858.517	0.0165751
858.596	0.0165562
858.674	0.0165291
858.752	0.0165878
858.830	0.0165406
858.908	0.0165959
858.986	0.0165366
859.064	0.0166470
859.142	0.0165874
859.221	0.0167036
859.299	0.0166632
859.377	0.0166776
859.455	0.0166531
859.533	0.0165736
859.611	0.0163773
859.689	0.0165163
859.767	0.0167020
859.846	0.0165910
859.924	0.0165887
860.002	0.0166907
860.080	0.0166292
860.158	0.0166175
860.236	0.0166490
860.314	0.0165630
860.392	0.0165645
860.471	0.0166592
860.549	0.0166524
860.627	0.0165307
860.705	0.0165185
860.783	0.0166304
860.861	0.0165652
860.939	0.0166898
861.017	0.0165155
861.096	0.0166873
861.174	0.0165460
861.252	0.0167125
861.330	0.0165094
861.408	0.0165125
861.486	0.0166042
861.564	0.0166540
861.642	0.0165177
861.721	0.0166001
861.799	0.0167087
861.877	0.0166218
861.955	0.0164649
862.033	0.0164909
862.111	0.0166391
862.189	0.0165559
862.267	0.0165740
862.346	0.0166866
862.424	0.0165258
862.502	0.0165918
862.580	0.0166248
862.658	0.0164130
862.736	0.0165454
862.814	0.0165845
862.892	0.0165162
862.971	0.0165261
863.049	0.0165434
863.127	0.0163806
863.205	0.0164139
863.283	0.0165546
863.361	0.0165448
863.439	0.0164114
863.517	0.0164250
863.596	0.0165539
863.674	0.0164432
863.752	0.0164310
863.830	0.0165716
863.908	0.0164319
863.986	0.0164845
864.064	0.0164996
864.142	0.0167021
864.221	0.0166022
864.299	0.0166801
864.377	0.0165815
864.455	0.0165099
864.533	0.0165030
864.611	0.0166637
864.689	0.0166490
864.767	0.0165872
864.846	0.0165893
864.924	0.0165668
865.002	0.0163998
865.080	0.0164192
865.158	0.0165842
865.236	0.0165779
865.314	0.0165796
865.392	0.0165904
865.471	0.0165047
865.549	0.0165565
865.627	0.0166058
865.705	0.0165232
865.783	0.0165804
865.861	0.0164997
865.939	0.0165633
866.017	0.0166538
866.096	0.0164990
866.174	0.0164084
866.252	0.0164584
866.330	0.0166025
866.408	0.0165062
866.486	0.0164888
866.564	0.0166515
866.642	0.0165740
866.721	0.0165324
866.799	0.0165014
866.877	0.0164982
866.955	0.0164510
867.033	0.0166621
867.111	0.0167290
867.189	0.0165480
867.267	0.0164520
867.346	0.0165777
867.424	0.0164876
867.502	0.0165749
867.580	0.0165150
867.658	0.0165329
867.736	0.0164508
867.814	0.0165096
867.892	0.0167633
867.971	0.0165532
868.049	0.0166113
868.127	0.0166325
868.205	0.0165170
868.283	0.0166746
868.361	0.0166584
868.439	0.0165328
868.517	0.0165420
868.596	0.0165568
868.674	0.0165498
868.752	0.0164276
868.830	0.0164246
868.908	0.0164711
868.986	0.0164668
869.064	0.0162448
869.142	0.0165239
869.221	0.0166339
869.299	0.0164794
869.377	0.0165378
869.455	0.0166319
869.533	0.0164481
869.611	0.0165034
869.689	0.0166356
869.767	0.0165402
869.846	0.0166270
869.924	0.0165773
870.002	0.0164993
870.080	0.0165382
870.158	0.0167149
870.236	0.0165991
870.314	0.0165266
870.392	0.0165269
870.471	0.0166135
870.549	0.0164917
870.627	0.0166528
870.705	0.0165611
870.783	0.0164746
870.861	0.0164411
870.939	0.0165311
871.017	0.0165319
871.096	0.0163933
871.174	0.0165047
871.252	0.0166615
871.330	0.0165234
871.408	0.0164626
871.486	0.0164972
871.564	0.0164280
871.642	0.0163709
871.721	0.0165639
871.799	0.0164632
871.877	0.0165440
871.955	0.0166599
872.033	0.0165255
872.111	0.0166042
872.189	0.0165424
872.267	0.0165289
872.346	0.0165795
872.424	0.0165456
872.502	0.0164893
872.580	0.0166306
872.658	0.0165190
872.736	0.0165763
872.814	0.0165505
872.892	0.0165046
872.971	0.0164993
873.049	0.0163991
873.127	0.0165616
873.205	0.0164527
873.283	0.0165250
873.361	0.0165471
873.439	0.0165165
873.517	0.0165403
873.596	0.0163878
873.674	0.0163706
873.752	0.0165558
873.830	0.0164905
873.908	0.0162684
873.986	0.0165919
874.064	0.0166648
874.142	0.0163883
874.221	0.0164924
874.299	0.0165502
874.377	0.0165459
874.455	0.0164040
874.533	0.0166077
874.611	0.0164902
874.689	0.0166341
874.767	0.0166485
874.846	0.0165363
874.924	0.0165491
875.002	0.0165659
875.080	0.0167569
875.158	0.0166317
875.236	0.0166079
875.314	0.0167062
875.392	0.0165349
875.471	0.0165528
875.549	0.0166132
875.627	0.0165235
875.705	0.0166804
875.783	0.0165764
875.861	0.0165622
875.939	0.0166026
876.017	0.0166214
876.096	0.0166418
876.174	0.0164658
876.252	0.0165821
876.330	0.0165646
876.408	0.0163850
876.486	0.0165187
876.564	0.0166204
876.642	0.0165562
876.721	0.0166268
876.799	0.0166291
876.877	0.0166187
876.955	0.0165745
877.033	0.0164542
877.111	0.0164954
877.189	0.0166115
877.267	0.0165952
877.346	0.0166064
877.424	0.0165949
877.502	0.0165985
877.580	0.0166186
877.658	0.0166836
877.736	0.0165704
877.814	0.0166547
877.892	0.0166327
877.971	0.0166667
878.049	0.0165994
878.127	0.0165056
878.205	0.0165248
878.283	0.0164866
878.361	0.0165556
878.439	0.0164972
878.517	0.0166539
878.596	0.0167424
878.674	0.0165423
878.752	0.0163825
878.830	0.0165933
878.908	0.0165268
878.986	0.0164884
879.064	0.0164644
879.142	0.0166293
879.221	0.0165395
879.299	0.0165378
879.377	0.0163999
879.455	0.0165131
879.533	0.0164646
879.611	0.0165841
879.689	0.0164311
879.767	0.0165345
879.846	0.0164941
879.924	0.0166266
880.002	0.0166057
880.080	0.0165576
880.158	0.0166747
880.236	0.0166454
880.314	0.0166066
880.392	0.0165923
880.471	0.0164784
880.549	0.0164809
880.627	0.0165871
880.705	0.0167149
880.783	0.0166328
880.861	0.0166470
880.939	0.0165731
881.017	0.0166364
881.096	0.0166820
881.174	0.0165122
881.252	0.0166354
881.330	0.0166248
881.408	0.0166125
881.486	0.0165468
881.564	0.0165229
881.642	0.0166400
881.721	0.0165773
881.799	0.0165905
881.877	0.0165105
881.955	0.0165075
882.033	0.0164915
882.111	0.0165086
882.189	0.0165574
882.267	0.0165440
882.346	0.0164673
882.424	0.0163535
882.502	0.0165292
882.580	0.0164793
882.658	0.0163601
882.736	0.0164754
882.814	0.0163782
882.892	0.0163871
882.971	0.0164044
883.049	0.0164332
883.127	0.0163961
883.205	0.0164142
883.283	0.0164658
883.361	0.0162791
883.439	0.0163967
883.517	0.0163844
883.596	0.0164187
883.674	0.0164295
883.752	0.0164189
883.830	0.0164599
883.908	0.0164021
883.986	0.0163618
884.064	0.0164505
884.142	0.0164197
884.221	0.0164258
884.299	0.0164307
884.377	0.0163763
884.455	0.0163915
884.533	0.0164052
884.611	0.0165082
884.689	0.0165861
884.767	0.0164674
884.846	0.0163963
884.924	0.0165047
885.002	0.0164532
885.080	0.0165211
885.158	0.0165516
885.236	0.0165453
885.314	0.0164717
885.392	0.0163823
885.471	0.0163902
885.549	0.0164449
885.627	0.0164427
885.705	0.0164773
885.783	0.0164763
885.861	0.0165342
885.939	0.0165394
886.017	0.0164420
886.096	0.0164109
886.174	0.0164623
886.252	0.0164937
886.330	0.0164665
886.408	0.0164544
886.486	0.0164560
886.564	0.0165253
886.642	0.0165430
886.721	0.0164154
886.799	0.0163660
886.877	0.0164043
886.955	0.0165200
887.033	0.0164260
887.111	0.0163950
887.189	0.0165635
887.267	0.0163764
887.346	0.0163857
887.424	0.0164799
887.502	0.0164629
887.580	0.0165186
887.658	0.0162889
887.736	0.0164488
887.814	0.0166203
887.892	0.0165203
887.971	0.0165657
888.049	0.0164909
888.127	0.0164599
888.205	0.0163454
888.283	0.0163566
888.361	0.0164029
888.439	0.0163499
888.517	0.0164034
888.596	0.0164787
888.674	0.0164749
888.752	0.0164159
888.830	0.0164559
888.908	0.0164152
888.986	0.0163202
889.064	0.0164527
889.142	0.0163589
889.221	0.0165152
889.299	0.0164125
889.377	0.0165899
889.455	0.0163998
889.533	0.0163617
889.611	0.0164906
889.689	0.0165053
889.767	0.0165029
889.846	0.0164658
889.924	0.0165652
890.002	0.0165477
890.080	0.0165748
890.158	0.0164434
890.236	0.0164909
890.314	0.0164934
890.392	0.0163863
890.471	0.0165277
890.549	0.0165662
890.627	0.0164837
890.705	0.0166922
890.783	0.0167097
890.861	0.0167379
890.939	0.0165353
891.017	0.0165947
891.096	0.0165489
891.174	0.0167000
891.252	0.0167362
891.330	0.0166627
891.408	0.0165592
891.486	0.0166376
891.564	0.0165504
891.642	0.0165963
891.721	0.0166869
891.799	0.0166930
891.877	0.0166552
891.955	0.0166774
892.033	0.0166319
892.111	0.0166952
892.189	0.0165407
892.267	0.0167226
892.346	0.0165297
892.424	0.0166286
892.502	0.0166396
892.580	0.0165557
892.658	0.0166361
892.736	0.0166982
892.814	0.0165133
892.892	0.0164148
892.971	0.0166315
893.049	0.0165885
893.127	0.0166531
893.205	0.0165792
893.283	0.0164385
893.361	0.0165742
893.439	0.0164747
893.517	0.0165092
893.596	0.0165711
893.674	0.0165121
893.752	0.0164965
893.830	0.0165117
893.908	0.0166164
893.986	0.0166207
894.064	0.0167395
894.142	0.0165964
894.221	0.0164993
894.299	0.0166621
894.377	0.0166487
894.455	0.0166053
894.533	0.0167480
894.611	0.0165733
894.689	0.0165336
894.767	0.0167908
894.846	0.0168011
894.924	0.0167125
895.002	0.0165712
895.080	0.0166243
895.158	0.0166870
895.236	0.0166848
895.314	0.0166811
895.392	0.0166891
895.471	0.0166557
895.549	0.0166167
895.627	0.0166566
895.705	0.0165258
895.783	0.0166758
895.861	0.0166499
895.939	0.0166570
896.017	0.0165744
896.096	0.0165299
896.174	0.0165384
896.252	0.0167258
896.330	0.0167480
896.408	0.0166445
896.486	0.0167543
896.564	0.0166252
896.642	0.0166386
896.721	0.0166535
896.799	0.0165932
896.877	0.0166884
896.955	0.0165414
897.033	0.0166934
897.111	0.0166920
897.189	0.0166114
897.267	0.0166733
897.346	0.0167488
897.424	0.0165213
897.502	0.0165985
897.580	0.0166576
897.658	0.0167075
897.736	0.0167728
897.814	0.0165941
897.892	0.0166236
897.971	0.0166370
898.049	0.0167501
898.127	0.0166756
898.205	0.0166470
898.283	0.0166232
898.361	0.0166762
898.439	0.0166926
898.517	0.0166120
898.596	0.0167375
898.674	0.0167359
898.752	0.0167586
898.830	0.0166679
898.908	0.0167883
898.986	0.0167432
899.064	0.0166320
899.142	0.0167744
899.221	0.0167752
899.299	0.0167905
899.377	0.0166510
899.455	0.0167417
899.533	0.0166949
899.611	0.0167069
899.689	0.0168472
899.767	0.0166504
899.846	0.0167301
899.924	0.0166116
900.002	0.0167891
900.080	0.0167889
900.158	0.0167545
900.236	0.0167625
900.314	0.0167348
900.392	0.0166327
900.471	0.0166471
900.549	0.0166920
900.627	0.0165639
900.705	0.0167635
900.783	0.0167329
900.861	0.0165597
900.939	0.0166872
901.017	0.0166029
901.096	0.0164768
901.174	0.0164987
901.252	0.0166593
901.330	0.0165444
901.408	0.0165234
901.486	0.0165595
901.564	0.0166049
901.642	0.0165533
901.721	0.0163893
901.799	0.0163961
901.877	0.0164582
901.955	0.0163370
902.033	0.0165220
902.111	0.0164446
902.189	0.0164450
902.267	0.0164684
902.346	0.0164608
902.424	0.0164461
902.502	0.0165697
902.580	0.0165006
902.658	0.0165559
902.736	0.0164729
902.814	0.0165256
902.892	0.0165155
902.971	0.0165209
903.049	0.0165956
903.127	0.0166629
903.205	0.0166274
903.283	0.0166184
903.361	0.0164925
903.439	0.0165055
903.517	0.0165627
903.596	0.0165767
903.674	0.0165305
903.752	0.0164862
903.830	0.0166866
903.908	0.0164779
903.986	0.0164851
904.064	0.0165154
904.142	0.0165861
904.221	0.0165285
904.299	0.0165221
904.377	0.0164673
904.455	0.0166031
904.533	0.0165534
904.611	0.0165358
904.689	0.0165025
904.767	0.0164963
904.846	0.0165684
904.924	0.0164155
905.002	0.0164641
905.080	0.0164117
905.158	0.0163719
905.236	0.0164793
905.314	0.0164780
905.392	0.0164791
905.471	0.0165967
905.549	0.0164787
905.627	0.0165184
905.705	0.0162551
905.783	0.0164164
905.861	0.0164551
905.939	0.0165310
906.017	0.0165420
906.096	0.0164738
906.174	0.0165184
906.252	0.0165404
906.330	0.0164252
906.408	0.0165180
906.486	0.0166096
906.564	0.0167288
906.642	0.0166454
906.721	0.0167153
906.799	0.0165130
906.877	0.0165366
906.955	0.0165379
907.033	0.0165842
907.111	0.0166348
907.189	0.0165649
907.267	0.0165421
907.346	0.0164780
907.424	0.0165144
907.502	0.0166160
907.580	0.0166231
907.658	0.0165921
907.736	0.0165278
907.814	0.0165749
907.892	0.0166354
907.971	0.0165157
908.049	0.0165842
908.127	0.0164954
908.205	0.0165848
908.283	0.0165428
908.361	0.0167685
908.439	0.0166164
908.517	0.0164930
908.596	0.0165746
908.674	0.0166055
908.752	0.0164995
908.830	0.0167033
908.908	0.0165799
908.986	0.0165636
909.064	0.0165358
909.142	0.0165431
909.221	0.0165563
909.299	0.0166853
909.377	0.0164722
909.455	0.0166245
909.533	0.0165545
909.611	0.0165634
909.689	0.0165553
909.767	0.0165406
909.846	0.0165178
909.924	0.0165347
910.002	0.0165964
910.080	0.0165984
910.158	0.0165536
910.236	0.0164785
910.314	0.0165239
910.392	0.0164351
910.471	0.0165044
910.549	0.0164053
910.627	0.0163671
910.705	0.0165305
910.783	0.0163953
910.861	0.0164327
910.939	0.0164080
911.017	0.0163898
911.096	0.0163720
911.174	0.0163889
911.252	0.0164485
911.330	0.0163279
911.408	0.0163595
911.486	0.0164599
911.564	0.0164414
911.642	0.0164480
911.721	0.0164202
911.799	0.0163797
911.877	0.0165096
911.955	0.0165182
912.033	0.0164830
912.111	0.0164487
912.189	0.0164651
912.267	0.0164780
912.346	0.0162508
912.424	0.0162836
912.502	0.0163687
912.580	0.0163204
912.658	0.0163885
912.736	0.0164280
912.814	0.0163741
912.892	0.0163466
912.971	0.0163129
913.049	0.0164570
913.127	0.0163020
913.205	0.0165617
913.283	0.0164185
913.361	0.0162189
913.439	0.0163567
913.517	0.0164387
913.596	0.0164593
913.674	0.0166463
913.752	0.0163761
913.830	0.0166095
913.908	0.0164573
913.986	0.0165019
914.064	0.0165622
914.142	0.0164500
914.221	0.0164320
914.299	0.0165459
914.377	0.0166025
914.455	0.0165076
914.533	0.0165091
914.611	0.0165559
914.689	0.0164944
914.767	0.0165080
914.846	0.0166730
914.924	0.0165235
915.002	0.0165657
915.080	0.0165658
915.158	0.0165497
915.236	0.0166673
915.314	0.0166906
915.392	0.0165697
915.471	0.0165254
915.549	0.0166384
915.627	0.0166091
915.705	0.0166519
915.783	0.0166473
915.861	0.0168382
915.939	0.0165555
916.017	0.0166884
916.096	0.0166450
916.174	0.0165352
916.252	0.0164051
916.330	0.0167638
916.408	0.0165573
916.486	0.0165569
916.564	0.0165826
916.642	0.0166052
916.721	0.0166202
916.799	0.0166953
916.877	0.0165963
916.955	0.0166259
917.033	0.0166975
917.111	0.0166667
917.189	0.0165392
917.267	0.0167636
917.346	0.0167013
917.424	0.0166388
917.502	0.0165527
917.580	0.0166261
917.658	0.0166852
917.736	0.0166309
917.814	0.0165516
917.892	0.0166873
917.971	0.0166132
918.049	0.0165331
918.127	0.0165948
918.205	0.0165709
918.283	0.0167631
918.361	0.0165717
918.439	0.0167693
918.517	0.0165971
918.596	0.0165794
918.674	0.0167059
918.752	0.0166455
918.830	0.0166869
918.908	0.0167777
918.986	0.0167610
919.064	0.0167008
919.142	0.0166264
919.221	0.0167110
919.299	0.0166144
919.377	0.0165281
919.455	0.0166762
919.533	0.0167259
919.611	0.0166872
919.689	0.0165617
919.767	0.0167308
919.846	0.0165870
919.924	0.0167060
