06/29/2022	21:39:19	Ver.	4.1	UNKNOWN
Optical Delay	600.001752	Delta X		0.078125	Sweeps	1	Scan Rate	0/0
Coordinates	Axis 1	NaN	Axis 2	NaN	Axis 3	NaN	Axis 4	NaN	Axis 5	NaN	Axis 6	0.000000
TX Power	0.000000	RX Power	0.000000

600.002	0.0163807
600.080	0.0163931
600.158	0.0163187
600.236	0.0163728
600.314	0.0163720
600.392	0.0162993
600.471	0.0164088
600.549	0.0162846
600.627	0.0163723
600.705	0.0162789
600.783	0.0164626
600.861	0.0163087
600.939	0.0163292
601.017	0.0163894
601.096	0.0163164
601.174	0.0162579
601.252	0.0163215
601.330	0.0163242
601.408	0.0163436
601.486	0.0163538
601.564	0.0163704
601.642	0.0162679
601.721	0.0162346
601.799	0.0163712
601.877	0.0164269
601.955	0.0163757
602.033	0.0162572
602.111	0.0163718
602.189	0.0162930
602.267	0.0162234
602.346	0.0163662
602.424	0.0164117
602.502	0.0163913
602.580	0.0163766
602.658	0.0163326
602.736	0.0162811
602.814	0.0162087
602.892	0.0163517
602.971	0.0162401
603.049	0.0162646
603.127	0.0163093
603.205	0.0162617
603.283	0.0163886
603.361	0.0161583
603.439	0.0162759
603.517	0.0162286
603.596	0.0163832
603.674	0.0162043
603.752	0.0162846
603.830	0.0160963
603.908	0.0162370
603.986	0.0161488
604.064	0.0162537
604.142	0.0162892
604.221	0.0161918
604.299	0.0162523
604.377	0.0162370
604.455	0.0161671
604.533	0.0162886
604.611	0.0162426
604.689	0.0162673
604.767	0.0161851
604.846	0.0161933
604.924	0.0162500
605.002	0.0162540
605.080	0.0161275
605.158	0.0163013
605.236	0.0162489
605.314	0.0162196
605.392	0.0162479
605.471	0.0162122
605.549	0.0162787
605.627	0.0162498
605.705	0.0162251
605.783	0.0163165
605.861	0.0162109
605.939	0.0162158
606.017	0.0160739
606.096	0.0163373
606.174	0.0162457
606.252	0.0163171
606.330	0.0162391
606.408	0.0162169
606.486	0.0161470
606.564	0.0162195
606.642	0.0162067
606.721	0.0161185
606.799	0.0162451
606.877	0.0161916
606.955	0.0162391
607.033	0.0163396
607.111	0.0162034
607.189	0.0161717
607.267	0.0162169
607.346	0.0162437
607.424	0.0161592
607.502	0.0163291
607.580	0.0162355
607.658	0.0162566
607.736	0.0163380
607.814	0.0162973
607.892	0.0163074
607.971	0.0162304
608.049	0.0164132
608.127	0.0163198
608.205	0.0162920
608.283	0.0161836
608.361	0.0162594
608.439	0.0161839
608.517	0.0163759
608.596	0.0164297
608.674	0.0163905
608.752	0.0162857
608.830	0.0163006
608.908	0.0165004
608.986	0.0163502
609.064	0.0164175
609.142	0.0164022
609.221	0.0162881
609.299	0.0164510
609.377	0.0163152
609.455	0.0164165
609.533	0.0163516
609.611	0.0164051
609.689	0.0163375
609.767	0.0163556
609.846	0.0163938
609.924	0.0164588
610.002	0.0164320
610.080	0.0165685
610.158	0.0164225
610.236	0.0163038
610.314	0.0163976
610.392	0.0163671
610.471	0.0164720
610.549	0.0164478
610.627	0.0163839
610.705	0.0163322
610.783	0.0163612
610.861	0.0164446
610.939	0.0162993
611.017	0.0162852
611.096	0.0163392
611.174	0.0162428
611.252	0.0163612
611.330	0.0163162
611.408	0.0162502
611.486	0.0163743
611.564	0.0162946
611.642	0.0162144
611.721	0.0163675
611.799	0.0163736
611.877	0.0163600
611.955	0.0163227
612.033	0.0163872
612.111	0.0162587
612.189	0.0164266
612.267	0.0163908
612.346	0.0163548
612.424	0.0163448
612.502	0.0164882
612.580	0.0163056
612.658	0.0164758
612.736	0.0164490
612.814	0.0163488
612.892	0.0163056
612.971	0.0164147
613.049	0.0163274
613.127	0.0164129
613.205	0.0164055
613.283	0.0164095
613.361	0.0163108
613.439	0.0160619
613.517	0.0164111
613.596	0.0163004
613.674	0.0162653
613.752	0.0163202
613.830	0.0162261
613.908	0.0164426
613.986	0.0162467
614.064	0.0163168
614.142	0.0163919
614.221	0.0164331
614.299	0.0162681
614.377	0.0161398
614.455	0.0162560
614.533	0.0163639
614.611	0.0164369
614.689	0.0164336
614.767	0.0163745
614.846	0.0162864
614.924	0.0162243
615.002	0.0163573
615.080	0.0163744
615.158	0.0164902
615.236	0.0163827
615.314	0.0163717
615.392	0.0164876
615.471	0.0162827
615.549	0.0163979
615.627	0.0163449
615.705	0.0162793
615.783	0.0163221
615.861	0.0162534
615.939	0.0162328
616.017	0.0162812
616.096	0.0162758
616.174	0.0161871
616.252	0.0162271
616.330	0.0161530
616.408	0.0162820
616.486	0.0163844
616.564	0.0162292
616.642	0.0163284
616.721	0.0162988
616.799	0.0162022
616.877	0.0162683
616.955	0.0162925
617.033	0.0163639
617.111	0.0162267
617.189	0.0163169
617.267	0.0163354
617.346	0.0162134
617.424	0.0163676
617.502	0.0162193
617.580	0.0163039
617.658	0.0162561
617.736	0.0163011
617.814	0.0162869
617.892	0.0162276
617.971	0.0163245
618.049	0.0163528
618.127	0.0162585
618.205	0.0164345
618.283	0.0164507
618.361	0.0164437
618.439	0.0162812
618.517	0.0163371
618.596	0.0162980
618.674	0.0162589
618.752	0.0163551
618.830	0.0162631
618.908	0.0163676
618.986	0.0164562
619.064	0.0164059
619.142	0.0162359
619.221	0.0163857
619.299	0.0162278
619.377	0.0163081
619.455	0.0163325
619.533	0.0162469
619.611	0.0162508
619.689	0.0162229
619.767	0.0163171
619.846	0.0163842
619.924	0.0163738
620.002	0.0162708
620.080	0.0163470
620.158	0.0163859
620.236	0.0164051
620.314	0.0164308
620.392	0.0163586
620.471	0.0162250
620.549	0.0163571
620.627	0.0165066
620.705	0.0163259
620.783	0.0162496
620.861	0.0162774
620.939	0.0163116
621.017	0.0162733
621.096	0.0162462
621.174	0.0164595
621.252	0.0162223
621.330	0.0162954
621.408	0.0163858
621.486	0.0162910
621.564	0.0161856
621.642	0.0162264
621.721	0.0163724
621.799	0.0162479
621.877	0.0162852
621.955	0.0162177
622.033	0.0162674
622.111	0.0164295
622.189	0.0163383
622.267	0.0162595
622.346	0.0162502
622.424	0.0162263
622.502	0.0162818
622.580	0.0162467
622.658	0.0163771
622.736	0.0162649
622.814	0.0162876
622.892	0.0162298
622.971	0.0161970
623.049	0.0162433
623.127	0.0162819
623.205	0.0163872
623.283	0.0163197
623.361	0.0163486
623.439	0.0162512
623.517	0.0163241
623.596	0.0162900
623.674	0.0163573
623.752	0.0164259
623.830	0.0163956
623.908	0.0163390
623.986	0.0164383
624.064	0.0162477
624.142	0.0163710
624.221	0.0162084
624.299	0.0162650
624.377	0.0164157
624.455	0.0162656
624.533	0.0162736
624.611	0.0162590
624.689	0.0161741
624.767	0.0161693
624.846	0.0163921
624.924	0.0164171
625.002	0.0162390
625.080	0.0161952
625.158	0.0161298
625.236	0.0163054
625.314	0.0164035
625.392	0.0163306
625.471	0.0161999
625.549	0.0163914
625.627	0.0162463
625.705	0.0163064
625.783	0.0163466
625.861	0.0162349
625.939	0.0161700
626.017	0.0163393
626.096	0.0162668
626.174	0.0162852
626.252	0.0163271
626.330	0.0163092
626.408	0.0162399
626.486	0.0161612
626.564	0.0161871
626.642	0.0162638
626.721	0.0161734
626.799	0.0162910
626.877	0.0162146
626.955	0.0162429
627.033	0.0161423
627.111	0.0161768
627.189	0.0163267
627.267	0.0162125
627.346	0.0161375
627.424	0.0160818
627.502	0.0161000
627.580	0.0162109
627.658	0.0162553
627.736	0.0161531
627.814	0.0160630
627.892	0.0162518
627.971	0.0162114
628.049	0.0162028
628.127	0.0161690
628.205	0.0162701
628.283	0.0161906
628.361	0.0162429
628.439	0.0162585
628.517	0.0161173
628.596	0.0161431
628.674	0.0161899
628.752	0.0161951
628.830	0.0162859
628.908	0.0161916
628.986	0.0161963
629.064	0.0161797
629.142	0.0161379
629.221	0.0161360
629.299	0.0161526
629.377	0.0162589
629.455	0.0162606
629.533	0.0161092
629.611	0.0161557
629.689	0.0161796
629.767	0.0161806
629.846	0.0161569
629.924	0.0161572
630.002	0.0161021
630.080	0.0161932
630.158	0.0163173
630.236	0.0163368
630.314	0.0162112
630.392	0.0162829
630.471	0.0161504
630.549	0.0162319
630.627	0.0162560
630.705	0.0161460
630.783	0.0162096
630.861	0.0163313
630.939	0.0161769
631.017	0.0162904
631.096	0.0161797
631.174	0.0162461
631.252	0.0163434
631.330	0.0162627
631.408	0.0162812
631.486	0.0163374
631.564	0.0162910
631.642	0.0162934
631.721	0.0161959
631.799	0.0162122
631.877	0.0162257
631.955	0.0162177
632.033	0.0163174
632.111	0.0164011
632.189	0.0164447
632.267	0.0162115
632.346	0.0161933
632.424	0.0162506
632.502	0.0162537
632.580	0.0164455
632.658	0.0163097
632.736	0.0162898
632.814	0.0163719
632.892	0.0162543
632.971	0.0164024
633.049	0.0163446
633.127	0.0163271
633.205	0.0162763
633.283	0.0163966
633.361	0.0162273
633.439	0.0163764
633.517	0.0163609
633.596	0.0162427
633.674	0.0163464
633.752	0.0163241
633.830	0.0163111
633.908	0.0162796
633.986	0.0162511
634.064	0.0163425
634.142	0.0161967
634.221	0.0162917
634.299	0.0162660
634.377	0.0163486
634.455	0.0162021
634.533	0.0164935
634.611	0.0163473
634.689	0.0163042
634.767	0.0163467
634.846	0.0162297
634.924	0.0163385
635.002	0.0163523
635.080	0.0162631
635.158	0.0163773
635.236	0.0163574
635.314	0.0164223
635.392	0.0162583
635.471	0.0163755
635.549	0.0164023
635.627	0.0163646
635.705	0.0162044
635.783	0.0163947
635.861	0.0164863
635.939	0.0164209
636.017	0.0163048
636.096	0.0163712
636.174	0.0163944
636.252	0.0163183
636.330	0.0162649
636.408	0.0162171
636.486	0.0163577
636.564	0.0163379
636.642	0.0163928
636.721	0.0163405
636.799	0.0163264
636.877	0.0163450
636.955	0.0163661
637.033	0.0163056
637.111	0.0163537
637.189	0.0164814
637.267	0.0164120
637.346	0.0164308
637.424	0.0163301
637.502	0.0164001
637.580	0.0164066
637.658	0.0163937
637.736	0.0163134
637.814	0.0163658
637.892	0.0164810
637.971	0.0164594
638.049	0.0162614
638.127	0.0162808
638.205	0.0163187
638.283	0.0162749
638.361	0.0163311
638.439	0.0164160
638.517	0.0163127
638.596	0.0163781
638.674	0.0163158
638.752	0.0162537
638.830	0.0163213
638.908	0.0164010
638.986	0.0162209
639.064	0.0161533
639.142	0.0163232
639.221	0.0162340
639.299	0.0162885
639.377	0.0162996
639.455	0.0162856
639.533	0.0163699
639.611	0.0162598
639.689	0.0162734
639.767	0.0163843
639.846	0.0160806
639.924	0.0164307
640.002	0.0163540
640.080	0.0162959
640.158	0.0160464
640.236	0.0161713
640.314	0.0162291
640.392	0.0163454
640.471	0.0163482
640.549	0.0162077
640.627	0.0162196
640.705	0.0162882
640.783	0.0162805
640.861	0.0162539
640.939	0.0162943
641.017	0.0162855
641.096	0.0162484
641.174	0.0162828
641.252	0.0163615
641.330	0.0163322
641.408	0.0163381
641.486	0.0163502
641.564	0.0161630
641.642	0.0162606
641.721	0.0163232
641.799	0.0164431
641.877	0.0163165
641.955	0.0161938
642.033	0.0163605
642.111	0.0164577
642.189	0.0162615
642.267	0.0164420
642.346	0.0163004
642.424	0.0163091
642.502	0.0164882
642.580	0.0164274
642.658	0.0163728
642.736	0.0164622
642.814	0.0165107
642.892	0.0163828
642.971	0.0162547
643.049	0.0163613
643.127	0.0164365
643.205	0.0162728
643.283	0.0163081
643.361	0.0162315
643.439	0.0163217
643.517	0.0164108
643.596	0.0163864
643.674	0.0162072
643.752	0.0163959
643.830	0.0163132
643.908	0.0164185
643.986	0.0163117
644.064	0.0162976
644.142	0.0163387
644.221	0.0163975
644.299	0.0162820
644.377	0.0163164
644.455	0.0162486
644.533	0.0163532
644.611	0.0161929
644.689	0.0162470
644.767	0.0163316
644.846	0.0164484
644.924	0.0163934
645.002	0.0163652
645.080	0.0162902
645.158	0.0163835
645.236	0.0163171
645.314	0.0164177
645.392	0.0164229
645.471	0.0165125
645.549	0.0164089
645.627	0.0163480
645.705	0.0163642
645.783	0.0163356
645.861	0.0164123
645.939	0.0163760
646.017	0.0163916
646.096	0.0164758
646.174	0.0163515
646.252	0.0163149
646.330	0.0163216
646.408	0.0164564
646.486	0.0163622
646.564	0.0163779
646.642	0.0163046
646.721	0.0163153
646.799	0.0163658
646.877	0.0162836
646.955	0.0162599
647.033	0.0163658
647.111	0.0164417
647.189	0.0164053
647.267	0.0163354
647.346	0.0162921
647.424	0.0163626
647.502	0.0163830
647.580	0.0162592
647.658	0.0163351
647.736	0.0162510
647.814	0.0162817
647.892	0.0163242
647.971	0.0163241
648.049	0.0164025
648.127	0.0164782
648.205	0.0164547
648.283	0.0164742
648.361	0.0163411
648.439	0.0163593
648.517	0.0163874
648.596	0.0164556
648.674	0.0163845
648.752	0.0164419
648.830	0.0163055
648.908	0.0162517
648.986	0.0163795
649.064	0.0163464
649.142	0.0164191
649.221	0.0163660
649.299	0.0163397
649.377	0.0164041
649.455	0.0164215
649.533	0.0163281
649.611	0.0162556
649.689	0.0162993
649.767	0.0164493
649.846	0.0163966
649.924	0.0163135
650.002	0.0164480
650.080	0.0164257
650.158	0.0162624
650.236	0.0162821
650.314	0.0163333
650.392	0.0163399
650.471	0.0163964
650.549	0.0163760
650.627	0.0162798
650.705	0.0163213
650.783	0.0163382
650.861	0.0163511
650.939	0.0163269
651.017	0.0163133
651.096	0.0163951
651.174	0.0163825
651.252	0.0162924
651.330	0.0161968
651.408	0.0162733
651.486	0.0163138
651.564	0.0163535
651.642	0.0162243
651.721	0.0161951
651.799	0.0161943
651.877	0.0162691
651.955	0.0163454
652.033	0.0163775
652.111	0.0162411
652.189	0.0162704
652.267	0.0162982
652.346	0.0163596
652.424	0.0162766
652.502	0.0161765
652.580	0.0162683
652.658	0.0161835
652.736	0.0162746
652.814	0.0163161
652.892	0.0162007
652.971	0.0162603
653.049	0.0163633
653.127	0.0164087
653.205	0.0161834
653.283	0.0162388
653.361	0.0163460
653.439	0.0161855
653.517	0.0161549
653.596	0.0162081
653.674	0.0161661
653.752	0.0162290
653.830	0.0160876
653.908	0.0160494
653.986	0.0162006
654.064	0.0162219
654.142	0.0163706
654.221	0.0161665
654.299	0.0163490
654.377	0.0161924
654.455	0.0162878
654.533	0.0162879
654.611	0.0162585
654.689	0.0162296
654.767	0.0160852
654.846	0.0162436
654.924	0.0162835
655.002	0.0162485
655.080	0.0162628
655.158	0.0162106
655.236	0.0162746
655.314	0.0162720
655.392	0.0162784
655.471	0.0161569
655.549	0.0163146
655.627	0.0162672
655.705	0.0162879
655.783	0.0163190
655.861	0.0160805
655.939	0.0162618
656.017	0.0162443
656.096	0.0162188
656.174	0.0163190
656.252	0.0162210
656.330	0.0162022
656.408	0.0163528
656.486	0.0163240
656.564	0.0163122
656.642	0.0163335
656.721	0.0163446
656.799	0.0164174
656.877	0.0162462
656.955	0.0163017
657.033	0.0164548
657.111	0.0162666
657.189	0.0163364
657.267	0.0163425
657.346	0.0163222
657.424	0.0164323
657.502	0.0165549
657.580	0.0165035
657.658	0.0163117
657.736	0.0165646
657.814	0.0164162
657.892	0.0163114
657.971	0.0163899
658.049	0.0164111
658.127	0.0163694
658.205	0.0165000
658.283	0.0164634
658.361	0.0164451
658.439	0.0164494
658.517	0.0163715
658.596	0.0164333
658.674	0.0165250
658.752	0.0163579
658.830	0.0165105
658.908	0.0164875
658.986	0.0163747
659.064	0.0166183
659.142	0.0165214
659.221	0.0164552
659.299	0.0164381
659.377	0.0163510
659.455	0.0164547
659.533	0.0164958
659.611	0.0165749
659.689	0.0165788
659.767	0.0165025
659.846	0.0164334
659.924	0.0163942
660.002	0.0165533
660.080	0.0164497
660.158	0.0164284
660.236	0.0164124
660.314	0.0162742
660.392	0.0163651
660.471	0.0165327
660.549	0.0163846
660.627	0.0164615
660.705	0.0164356
660.783	0.0165308
660.861	0.0164961
660.939	0.0164977
661.017	0.0164493
661.096	0.0163987
661.174	0.0165468
661.252	0.0163483
661.330	0.0163282
661.408	0.0164574
661.486	0.0163670
661.564	0.0164787
661.642	0.0164584
661.721	0.0165691
661.799	0.0163734
661.877	0.0163084
661.955	0.0164310
662.033	0.0165462
662.111	0.0163752
662.189	0.0163112
662.267	0.0163558
662.346	0.0162846
662.424	0.0164016
662.502	0.0165079
662.580	0.0163592
662.658	0.0163586
662.736	0.0163652
662.814	0.0163919
662.892	0.0164032
662.971	0.0163860
663.049	0.0163562
663.127	0.0163621
663.205	0.0163876
663.283	0.0165118
663.361	0.0162576
663.439	0.0162511
663.517	0.0164913
663.596	0.0164951
663.674	0.0163638
663.752	0.0164363
663.830	0.0163377
663.908	0.0163979
663.986	0.0164292
664.064	0.0164179
664.142	0.0163726
664.221	0.0163098
664.299	0.0163837
664.377	0.0164321
664.455	0.0162945
664.533	0.0164277
664.611	0.0164106
664.689	0.0163097
664.767	0.0163767
664.846	0.0162286
664.924	0.0163239
665.002	0.0162483
665.080	0.0163398
665.158	0.0163852
665.236	0.0163038
665.314	0.0164381
665.392	0.0163123
665.471	0.0163285
665.549	0.0163929
665.627	0.0163858
665.705	0.0164890
665.783	0.0163348
665.861	0.0164594
665.939	0.0162798
666.017	0.0164257
666.096	0.0163639
666.174	0.0164362
666.252	0.0163380
666.330	0.0163941
666.408	0.0163530
666.486	0.0165109
666.564	0.0164053
666.642	0.0164533
666.721	0.0164154
666.799	0.0163081
666.877	0.0164192
666.955	0.0164335
667.033	0.0163970
667.111	0.0164096
667.189	0.0164641
667.267	0.0164980
667.346	0.0163999
667.424	0.0163522
667.502	0.0164140
667.580	0.0164858
667.658	0.0163925
667.736	0.0164524
667.814	0.0163750
667.892	0.0164565
667.971	0.0163330
668.049	0.0163889
668.127	0.0164677
668.205	0.0164796
668.283	0.0164013
668.361	0.0164025
668.439	0.0164498
668.517	0.0162192
668.596	0.0163390
668.674	0.0163884
668.752	0.0164371
668.830	0.0163200
668.908	0.0161887
668.986	0.0164245
669.064	0.0164142
669.142	0.0163856
669.221	0.0164193
669.299	0.0163834
669.377	0.0163115
669.455	0.0164111
669.533	0.0163897
669.611	0.0164063
669.689	0.0163965
669.767	0.0163193
669.846	0.0164323
669.924	0.0163293
670.002	0.0163447
670.080	0.0163228
670.158	0.0163615
670.236	0.0163730
670.314	0.0163882
670.392	0.0162949
670.471	0.0163192
670.549	0.0164003
670.627	0.0164328
670.705	0.0163828
670.783	0.0164078
670.861	0.0164510
670.939	0.0163773
671.017	0.0163837
671.096	0.0164124
671.174	0.0164253
671.252	0.0163851
671.330	0.0163409
671.408	0.0164777
671.486	0.0164066
671.564	0.0164530
671.642	0.0163330
671.721	0.0163223
671.799	0.0163908
671.877	0.0163123
671.955	0.0162998
672.033	0.0163586
672.111	0.0162566
672.189	0.0163315
672.267	0.0163199
672.346	0.0161580
672.424	0.0162791
672.502	0.0163245
672.580	0.0164809
672.658	0.0163055
672.736	0.0163221
672.814	0.0162675
672.892	0.0163447
672.971	0.0162138
673.049	0.0161757
673.127	0.0162589
673.205	0.0162469
673.283	0.0163515
673.361	0.0162351
673.439	0.0161785
673.517	0.0162887
673.596	0.0163369
673.674	0.0162119
673.752	0.0161235
673.830	0.0162928
673.908	0.0163072
673.986	0.0161604
674.064	0.0161439
674.142	0.0162781
674.221	0.0162737
674.299	0.0163354
674.377	0.0162512
674.455	0.0161893
674.533	0.0163399
674.611	0.0163551
674.689	0.0161792
674.767	0.0163343
674.846	0.0162520
674.924	0.0161944
675.002	0.0163104
675.080	0.0161450
675.158	0.0162767
675.236	0.0161794
675.314	0.0163743
675.392	0.0163245
675.471	0.0163018
675.549	0.0161349
675.627	0.0161948
675.705	0.0162257
675.783	0.0161198
675.861	0.0162291
675.939	0.0162321
676.017	0.0161662
676.096	0.0163154
676.174	0.0162663
676.252	0.0162440
676.330	0.0161166
676.408	0.0161884
676.486	0.0164098
676.564	0.0163177
676.642	0.0163049
676.721	0.0162380
676.799	0.0161698
676.877	0.0163348
676.955	0.0162537
677.033	0.0162891
677.111	0.0162273
677.189	0.0163145
677.267	0.0161834
677.346	0.0163528
677.424	0.0163207
677.502	0.0162622
677.580	0.0161789
677.658	0.0162424
677.736	0.0162975
677.814	0.0161435
677.892	0.0162383
677.971	0.0162983
678.049	0.0161744
678.127	0.0162872
678.205	0.0161378
678.283	0.0163955
678.361	0.0163412
678.439	0.0162591
678.517	0.0162819
678.596	0.0163107
678.674	0.0164043
678.752	0.0162554
678.830	0.0161565
678.908	0.0162151
678.986	0.0162227
679.064	0.0162423
679.142	0.0164106
679.221	0.0163157
679.299	0.0162968
679.377	0.0162628
679.455	0.0161121
679.533	0.0163176
679.611	0.0162958
679.689	0.0162587
679.767	0.0163430
679.846	0.0163729
679.924	0.0162354
680.002	0.0162888
680.080	0.0163344
680.158	0.0163415
680.236	0.0162784
680.314	0.0162403
680.392	0.0163026
680.471	0.0164882
680.549	0.0164289
680.627	0.0163263
680.705	0.0161801
680.783	0.0162804
680.861	0.0162554
680.939	0.0163529
681.017	0.0162008
681.096	0.0162784
681.174	0.0162550
681.252	0.0163516
681.330	0.0163338
681.408	0.0163600
681.486	0.0162836
681.564	0.0164495
681.642	0.0163476
681.721	0.0161710
681.799	0.0163715
681.877	0.0164656
681.955	0.0163515
682.033	0.0162808
682.111	0.0164188
682.189	0.0163671
682.267	0.0163963
682.346	0.0163949
682.424	0.0164015
682.502	0.0163557
682.580	0.0163554
682.658	0.0164710
682.736	0.0164458
682.814	0.0163741
682.892	0.0163322
682.971	0.0163347
683.049	0.0162420
683.127	0.0164323
683.205	0.0163795
683.283	0.0164623
683.361	0.0165865
683.439	0.0166366
683.517	0.0163586
683.596	0.0163398
683.674	0.0165639
683.752	0.0165865
683.830	0.0164405
683.908	0.0163733
683.986	0.0164735
684.064	0.0166680
684.142	0.0165278
684.221	0.0164859
684.299	0.0164298
684.377	0.0164079
684.455	0.0166060
684.533	0.0164414
684.611	0.0164960
684.689	0.0163861
684.767	0.0163715
684.846	0.0163173
684.924	0.0162343
685.002	0.0163350
685.080	0.0162709
685.158	0.0162871
685.236	0.0163643
685.314	0.0163905
685.392	0.0163203
685.471	0.0163221
685.549	0.0162878
685.627	0.0162553
685.705	0.0162382
685.783	0.0162812
685.861	0.0164069
685.939	0.0162768
686.017	0.0163600
686.096	0.0163725
686.174	0.0164088
686.252	0.0163046
686.330	0.0162563
686.408	0.0164173
686.486	0.0164766
686.564	0.0163960
686.642	0.0163771
686.721	0.0164357
686.799	0.0163947
686.877	0.0164069
686.955	0.0165029
687.033	0.0164053
687.111	0.0164349
687.189	0.0164145
687.267	0.0164615
687.346	0.0164349
687.424	0.0164453
687.502	0.0165129
687.580	0.0163554
687.658	0.0163874
687.736	0.0162388
687.814	0.0163392
687.892	0.0163599
687.971	0.0161147
688.049	0.0162422
688.127	0.0163527
688.205	0.0163226
688.283	0.0161430
688.361	0.0163330
688.439	0.0161531
688.517	0.0163153
688.596	0.0163130
688.674	0.0161703
688.752	0.0162930
688.830	0.0162302
688.908	0.0163216
688.986	0.0163081
689.064	0.0162650
689.142	0.0163480
689.221	0.0163489
689.299	0.0162364
689.377	0.0163220
689.455	0.0164915
689.533	0.0164777
689.611	0.0163313
689.689	0.0162923
689.767	0.0164363
689.846	0.0163049
689.924	0.0163847
690.002	0.0162737
690.080	0.0161989
690.158	0.0163851
690.236	0.0164191
690.314	0.0163105
690.392	0.0161478
690.471	0.0162620
690.549	0.0162656
690.627	0.0162808
690.705	0.0163435
690.783	0.0163007
690.861	0.0162555
690.939	0.0160001
691.017	0.0161861
691.096	0.0162167
691.174	0.0161428
691.252	0.0163457
691.330	0.0162151
691.408	0.0162598
691.486	0.0162350
691.564	0.0163963
691.642	0.0163300
691.721	0.0162823
691.799	0.0162334
691.877	0.0164342
691.955	0.0164142
692.033	0.0164565
692.111	0.0164033
692.189	0.0164311
692.267	0.0161913
692.346	0.0162558
692.424	0.0163035
692.502	0.0162941
692.580	0.0163270
692.658	0.0162884
692.736	0.0161617
692.814	0.0162547
692.892	0.0162733
692.971	0.0162198
693.049	0.0163028
693.127	0.0163121
693.205	0.0163557
693.283	0.0162424
693.361	0.0162828
693.439	0.0162282
693.517	0.0163805
693.596	0.0162809
693.674	0.0163157
693.752	0.0162939
693.830	0.0162408
693.908	0.0161670
693.986	0.0162771
694.064	0.0164270
694.142	0.0163400
694.221	0.0163062
694.299	0.0163345
694.377	0.0162833
694.455	0.0163924
694.533	0.0162804
694.611	0.0163328
694.689	0.0163960
694.767	0.0161937
694.846	0.0163930
694.924	0.0162927
695.002	0.0163660
695.080	0.0164071
695.158	0.0164107
695.236	0.0162857
695.314	0.0163612
695.392	0.0163217
695.471	0.0162089
695.549	0.0163015
695.627	0.0163296
695.705	0.0164183
695.783	0.0162460
695.861	0.0163719
695.939	0.0164378
696.017	0.0163672
696.096	0.0163244
696.174	0.0164380
696.252	0.0163462
696.330	0.0163715
696.408	0.0163824
696.486	0.0163357
696.564	0.0162951
696.642	0.0162234
696.721	0.0162423
696.799	0.0161766
696.877	0.0161187
696.955	0.0162216
697.033	0.0160926
697.111	0.0162250
697.189	0.0160907
697.267	0.0159779
697.346	0.0161306
697.424	0.0161075
697.502	0.0160858
697.580	0.0161636
697.658	0.0161594
697.736	0.0161458
697.814	0.0161828
697.892	0.0161596
697.971	0.0161010
698.049	0.0162341
698.127	0.0161126
698.205	0.0161639
698.283	0.0161478
698.361	0.0163031
698.439	0.0160824
698.517	0.0161256
698.596	0.0163258
698.674	0.0162210
698.752	0.0162969
698.830	0.0161809
698.908	0.0161097
698.986	0.0163843
699.064	0.0163071
699.142	0.0163293
699.221	0.0162593
699.299	0.0163075
699.377	0.0163155
699.455	0.0164073
699.533	0.0164323
699.611	0.0163316
699.689	0.0164736
699.767	0.0164639
699.846	0.0164133
699.924	0.0165796
700.002	0.0164207
700.080	0.0164954
700.158	0.0166055
700.236	0.0166254
700.314	0.0164611
700.392	0.0165154
700.471	0.0165327
700.549	0.0165299
700.627	0.0166368
700.705	0.0164857
700.783	0.0164394
700.861	0.0164706
700.939	0.0164121
701.017	0.0163836
701.096	0.0161951
701.174	0.0162386
701.252	0.0162756
701.330	0.0162279
701.408	0.0162249
701.486	0.0159238
701.564	0.0161073
701.642	0.0158523
701.721	0.0158930
701.799	0.0160033
701.877	0.0159656
701.955	0.0158008
702.033	0.0159436
702.111	0.0159814
702.189	0.0159142
702.267	0.0160115
702.346	0.0160140
702.424	0.0160783
702.502	0.0161242
702.580	0.0161298
702.658	0.0160876
702.736	0.0161864
702.814	0.0163428
702.892	0.0163108
702.971	0.0163104
703.049	0.0163068
703.127	0.0163017
703.205	0.0165266
703.283	0.0163634
703.361	0.0164024
703.439	0.0164668
703.517	0.0162497
703.596	0.0163799
703.674	0.0162072
703.752	0.0163822
703.830	0.0162666
703.908	0.0161612
703.986	0.0161747
704.064	0.0161182
704.142	0.0161556
704.221	0.0160457
704.299	0.0161901
704.377	0.0161338
704.455	0.0161084
704.533	0.0161030
704.611	0.0162078
704.689	0.0162254
704.767	0.0162659
704.846	0.0161311
704.924	0.0162830
705.002	0.0162817
705.080	0.0162550
705.158	0.0164322
705.236	0.0164674
705.314	0.0164751
705.392	0.0164242
705.471	0.0165557
705.549	0.0163947
705.627	0.0165805
705.705	0.0166891
705.783	0.0165429
705.861	0.0165407
705.939	0.0165536
706.017	0.0164601
706.096	0.0165542
706.174	0.0164906
706.252	0.0163333
706.330	0.0164256
706.408	0.0165815
706.486	0.0164197
706.564	0.0163766
706.642	0.0162513
706.721	0.0162789
706.799	0.0162955
706.877	0.0160921
706.955	0.0160754
707.033	0.0161273
707.111	0.0161370
707.189	0.0161598
707.267	0.0161733
707.346	0.0161888
707.424	0.0161060
707.502	0.0162048
707.580	0.0162231
707.658	0.0161333
707.736	0.0163346
707.814	0.0161522
707.892	0.0162113
707.971	0.0164083
708.049	0.0163111
708.127	0.0165182
708.205	0.0165592
708.283	0.0164847
708.361	0.0165813
708.439	0.0165632
708.517	0.0164091
708.596	0.0165364
708.674	0.0166190
708.752	0.0164793
708.830	0.0164456
708.908	0.0165054
708.986	0.0163626
709.064	0.0162923
709.142	0.0161364
709.221	0.0161485
709.299	0.0162370
709.377	0.0161806
709.455	0.0160735
709.533	0.0161497
709.611	0.0160813
709.689	0.0161392
709.767	0.0161356
709.846	0.0160235
709.924	0.0160922
710.002	0.0160485
710.080	0.0161066
710.158	0.0160869
710.236	0.0162403
710.314	0.0161333
710.392	0.0163186
710.471	0.0162778
710.549	0.0162917
710.627	0.0163925
710.705	0.0164068
710.783	0.0163557
710.861	0.0163923
710.939	0.0165266
711.017	0.0165852
711.096	0.0165791
711.174	0.0164183
711.252	0.0164996
711.330	0.0165524
711.408	0.0164439
711.486	0.0164518
711.564	0.0164710
711.642	0.0164144
711.721	0.0162973
711.799	0.0161907
711.877	0.0161201
711.955	0.0162218
712.033	0.0161044
712.111	0.0160163
712.189	0.0161214
712.267	0.0162168
712.346	0.0161484
712.424	0.0160577
712.502	0.0161991
712.580	0.0162222
712.658	0.0160362
712.736	0.0162252
712.814	0.0162350
712.892	0.0161199
712.971	0.0162733
713.049	0.0161847
713.127	0.0164328
713.205	0.0163162
713.283	0.0164158
713.361	0.0163203
713.439	0.0162811
713.517	0.0163521
713.596	0.0164034
713.674	0.0163557
713.752	0.0164720
713.830	0.0163607
713.908	0.0163341
713.986	0.0163387
714.064	0.0164095
714.142	0.0163663
714.221	0.0164829
714.299	0.0163116
714.377	0.0164948
714.455	0.0164201
714.533	0.0163536
714.611	0.0162741
714.689	0.0164095
714.767	0.0163403
714.846	0.0162525
714.924	0.0162981
715.002	0.0162038
715.080	0.0162679
715.158	0.0161485
715.236	0.0161014
715.314	0.0162824
715.392	0.0160254
715.471	0.0160767
715.549	0.0161145
715.627	0.0161680
715.705	0.0160639
715.783	0.0161565
715.861	0.0163603
715.939	0.0163242
716.017	0.0161250
716.096	0.0163216
716.174	0.0162344
716.252	0.0161725
716.330	0.0163164
716.408	0.0163253
716.486	0.0164034
716.564	0.0163866
716.642	0.0163187
716.721	0.0162823
716.799	0.0161502
716.877	0.0162270
716.955	0.0162743
717.033	0.0162356
717.111	0.0161835
717.189	0.0162156
717.267	0.0161736
717.346	0.0160864
717.424	0.0160695
717.502	0.0161004
717.580	0.0161461
717.658	0.0162444
717.736	0.0161108
717.814	0.0159881
717.892	0.0161680
717.971	0.0160812
718.049	0.0161078
718.127	0.0162573
718.205	0.0161476
718.283	0.0162024
718.361	0.0163309
718.439	0.0161177
718.517	0.0163616
718.596	0.0164600
718.674	0.0162788
718.752	0.0163367
718.830	0.0163661
718.908	0.0163904
718.986	0.0163200
719.064	0.0164652
719.142	0.0163683
719.221	0.0164449
719.299	0.0164251
719.377	0.0164822
719.455	0.0164444
719.533	0.0163390
719.611	0.0164560
719.689	0.0164166
719.767	0.0163683
719.846	0.0163968
719.924	0.0163083
720.002	0.0163519
720.080	0.0163627
720.158	0.0163478
720.236	0.0164410
720.314	0.0162631
720.392	0.0164047
720.471	0.0162431
720.549	0.0165337
720.627	0.0163654
720.705	0.0163058
720.783	0.0163402
720.861	0.0163753
720.939	0.0163248
721.017	0.0160892
721.096	0.0162414
721.174	0.0163850
721.252	0.0163929
721.330	0.0164249
721.408	0.0162759
721.486	0.0162425
721.564	0.0162823
721.642	0.0163812
721.721	0.0163646
721.799	0.0162699
721.877	0.0161852
721.955	0.0162960
722.033	0.0162069
722.111	0.0161093
722.189	0.0160886
722.267	0.0160613
722.346	0.0161334
722.424	0.0160095
722.502	0.0161168
722.580	0.0161264
722.658	0.0160622
722.736	0.0161122
722.814	0.0161214
722.892	0.0161926
722.971	0.0160477
723.049	0.0163512
723.127	0.0162167
723.205	0.0163403
723.283	0.0163409
723.361	0.0164950
723.439	0.0167046
723.517	0.0164999
723.596	0.0164529
723.674	0.0165476
723.752	0.0166148
723.830	0.0165675
723.908	0.0165785
723.986	0.0163423
724.064	0.0163579
724.142	0.0163634
724.221	0.0162431
724.299	0.0162631
724.377	0.0161864
724.455	0.0160743
724.533	0.0160162
724.611	0.0159386
724.689	0.0158359
724.767	0.0160172
724.846	0.0159492
724.924	0.0160159
725.002	0.0160155
725.080	0.0160075
725.158	0.0159129
725.236	0.0160376
725.314	0.0160560
725.392	0.0162096
725.471	0.0162451
725.549	0.0163255
725.627	0.0163900
725.705	0.0163409
725.783	0.0164216
725.861	0.0164552
725.939	0.0166858
726.017	0.0166281
726.096	0.0166843
726.174	0.0165993
726.252	0.0164493
726.330	0.0164621
726.408	0.0165897
726.486	0.0165189
726.564	0.0164815
726.642	0.0163507
726.721	0.0164207
726.799	0.0163306
726.877	0.0163032
726.955	0.0164406
727.033	0.0163819
727.111	0.0161979
727.189	0.0162548
727.267	0.0163287
727.346	0.0162632
727.424	0.0162534
727.502	0.0162457
727.580	0.0162216
727.658	0.0161765
727.736	0.0162609
727.814	0.0162431
727.892	0.0164771
727.971	0.0164411
728.049	0.0162662
728.127	0.0164317
728.205	0.0164294
728.283	0.0165031
728.361	0.0164967
728.439	0.0163009
728.517	0.0165340
728.596	0.0163795
728.674	0.0164178
728.752	0.0166142
728.830	0.0164459
728.908	0.0164793
728.986	0.0163323
729.064	0.0164566
729.142	0.0163505
729.221	0.0162221
729.299	0.0162262
729.377	0.0162563
729.455	0.0162788
729.533	0.0161975
729.611	0.0161064
729.689	0.0161643
729.767	0.0160963
729.846	0.0161143
729.924	0.0162385
730.002	0.0162338
730.080	0.0162305
730.158	0.0163773
730.236	0.0163286
730.314	0.0162975
730.392	0.0163488
730.471	0.0163651
730.549	0.0164136
730.627	0.0163332
730.705	0.0164189
730.783	0.0163782
730.861	0.0162917
730.939	0.0164282
731.017	0.0162101
731.096	0.0162572
731.174	0.0162845
731.252	0.0161372
731.330	0.0160911
731.408	0.0163113
731.486	0.0161828
731.564	0.0160529
731.642	0.0160770
731.721	0.0161906
731.799	0.0161851
731.877	0.0162635
731.955	0.0162669
732.033	0.0161485
732.111	0.0162770
732.189	0.0163473
732.267	0.0162910
732.346	0.0163900
732.424	0.0164401
732.502	0.0163909
732.580	0.0166936
732.658	0.0166064
732.736	0.0166287
732.814	0.0165430
732.892	0.0165358
732.971	0.0166985
733.049	0.0166714
733.127	0.0166765
733.205	0.0167461
733.283	0.0167365
733.361	0.0165568
733.439	0.0164898
733.517	0.0165958
733.596	0.0165520
733.674	0.0164809
733.752	0.0164310
733.830	0.0163439
733.908	0.0163531
733.986	0.0163976
734.064	0.0163097
734.142	0.0161326
734.221	0.0162182
734.299	0.0161575
734.377	0.0161710
734.455	0.0159623
734.533	0.0161131
734.611	0.0163216
734.689	0.0161083
734.767	0.0162236
734.846	0.0160972
734.924	0.0162440
735.002	0.0162211
735.080	0.0163660
735.158	0.0163980
735.236	0.0163208
735.314	0.0164012
735.392	0.0165240
735.471	0.0164619
735.549	0.0164888
735.627	0.0164628
735.705	0.0165334
735.783	0.0164716
735.861	0.0165540
735.939	0.0166351
736.017	0.0165977
736.096	0.0165733
736.174	0.0164958
736.252	0.0164878
736.330	0.0164501
736.408	0.0163944
736.486	0.0164922
736.564	0.0163760
736.642	0.0163804
736.721	0.0162714
736.799	0.0162220
736.877	0.0161380
736.955	0.0160594
737.033	0.0160111
737.111	0.0160795
737.189	0.0160352
737.267	0.0160230
737.346	0.0159399
737.424	0.0159046
737.502	0.0159074
737.580	0.0160593
737.658	0.0160020
737.736	0.0159482
737.814	0.0160339
737.892	0.0160281
737.971	0.0163136
738.049	0.0161922
738.127	0.0161777
738.205	0.0161221
738.283	0.0161012
738.361	0.0162817
738.439	0.0163425
738.517	0.0160925
738.596	0.0160763
738.674	0.0162894
738.752	0.0163784
738.830	0.0162824
738.908	0.0162271
738.986	0.0162457
739.064	0.0162872
739.142	0.0161724
739.221	0.0162882
739.299	0.0162354
739.377	0.0162438
739.455	0.0162685
739.533	0.0162027
739.611	0.0161526
739.689	0.0162909
739.767	0.0162711
739.846	0.0163145
739.924	0.0164247
740.002	0.0162293
740.080	0.0162904
740.158	0.0163227
740.236	0.0163797
740.314	0.0163682
740.392	0.0162141
740.471	0.0164352
740.549	0.0163644
740.627	0.0163772
740.705	0.0162412
740.783	0.0162463
740.861	0.0163707
740.939	0.0162796
741.017	0.0161486
741.096	0.0162930
741.174	0.0162234
741.252	0.0162649
741.330	0.0160800
741.408	0.0160498
741.486	0.0161992
741.564	0.0160516
741.642	0.0161799
741.721	0.0159949
741.799	0.0160102
741.877	0.0158929
741.955	0.0159688
742.033	0.0159700
742.111	0.0159195
742.189	0.0157963
742.267	0.0157410
742.346	0.0159241
742.424	0.0159768
742.502	0.0157925
742.580	0.0158785
742.658	0.0160756
742.736	0.0160025
742.814	0.0159198
742.892	0.0161351
742.971	0.0160852
743.049	0.0162312
743.127	0.0162785
743.205	0.0163377
743.283	0.0164725
743.361	0.0165338
743.439	0.0164512
743.517	0.0165520
743.596	0.0166956
743.674	0.0165189
743.752	0.0167042
743.830	0.0166641
743.908	0.0166085
743.986	0.0166369
744.064	0.0165812
744.142	0.0164459
744.221	0.0165942
744.299	0.0165767
744.377	0.0164780
744.455	0.0164062
744.533	0.0163864
744.611	0.0161967
744.689	0.0161472
744.767	0.0161154
744.846	0.0160693
744.924	0.0162338
745.002	0.0160329
745.080	0.0160723
745.158	0.0160310
745.236	0.0159900
745.314	0.0159293
745.392	0.0158975
745.471	0.0160712
745.549	0.0159380
745.627	0.0161710
745.705	0.0160618
745.783	0.0161520
745.861	0.0161607
745.939	0.0161845
746.017	0.0162196
746.096	0.0162856
746.174	0.0162137
746.252	0.0163706
746.330	0.0163681
746.408	0.0164228
746.486	0.0164708
746.564	0.0165762
746.642	0.0165903
746.721	0.0166482
746.799	0.0166586
746.877	0.0165885
746.955	0.0165646
747.033	0.0166457
747.111	0.0165211
747.189	0.0165697
747.267	0.0165218
747.346	0.0165743
747.424	0.0165731
747.502	0.0165602
747.580	0.0163705
747.658	0.0165235
747.736	0.0164690
747.814	0.0165194
747.892	0.0163448
747.971	0.0163332
748.049	0.0164237
748.127	0.0163804
748.205	0.0164330
748.283	0.0162682
748.361	0.0162699
748.439	0.0162203
748.517	0.0163318
748.596	0.0162941
748.674	0.0161979
748.752	0.0162719
748.830	0.0162509
748.908	0.0163424
748.986	0.0163265
749.064	0.0163633
749.142	0.0162231
749.221	0.0164100
749.299	0.0163255
749.377	0.0163972
749.455	0.0164590
749.533	0.0165324
749.611	0.0163514
749.689	0.0163361
749.767	0.0165161
749.846	0.0165358
749.924	0.0163863
750.002	0.0163233
750.080	0.0164316
750.158	0.0163858
750.236	0.0162498
750.314	0.0163629
750.392	0.0163699
750.471	0.0163763
750.549	0.0163779
750.627	0.0161912
750.705	0.0163200
750.783	0.0162488
750.861	0.0162440
750.939	0.0162962
751.017	0.0162884
751.096	0.0162147
751.174	0.0162829
751.252	0.0162322
751.330	0.0163634
751.408	0.0163144
751.486	0.0162513
751.564	0.0163312
751.642	0.0162868
751.721	0.0161091
751.799	0.0162296
751.877	0.0162249
751.955	0.0160834
752.033	0.0162136
752.111	0.0161293
752.189	0.0160647
752.267	0.0162023
752.346	0.0161435
752.424	0.0160746
752.502	0.0160963
752.580	0.0159666
752.658	0.0159506
752.736	0.0159663
752.814	0.0161671
752.892	0.0161755
752.971	0.0161854
753.049	0.0162185
753.127	0.0161958
753.205	0.0160677
753.283	0.0163091
753.361	0.0162289
753.439	0.0161966
753.517	0.0163054
753.596	0.0164046
753.674	0.0164615
753.752	0.0163745
753.830	0.0165159
753.908	0.0165042
753.986	0.0164845
754.064	0.0166859
754.142	0.0166489
754.221	0.0167060
754.299	0.0166897
754.377	0.0166918
754.455	0.0166682
754.533	0.0167018
754.611	0.0165884
754.689	0.0164986
754.767	0.0166913
754.846	0.0166038
754.924	0.0165537
755.002	0.0166264
755.080	0.0166137
755.158	0.0165272
755.236	0.0166516
755.314	0.0166149
755.392	0.0166196
755.471	0.0165266
755.549	0.0165132
755.627	0.0165423
755.705	0.0164198
755.783	0.0163477
755.861	0.0163934
755.939	0.0162244
756.017	0.0162144
756.096	0.0161356
756.174	0.0159044
756.252	0.0159831
756.330	0.0160553
756.408	0.0159819
756.486	0.0158305
756.564	0.0158838
756.642	0.0158209
756.721	0.0159196
756.799	0.0157076
756.877	0.0159314
756.955	0.0160273
757.033	0.0157918
757.111	0.0158767
757.189	0.0160570
757.267	0.0161308
757.346	0.0161124
757.424	0.0162837
757.502	0.0162017
757.580	0.0163689
757.658	0.0163833
757.736	0.0165582
757.814	0.0164196
757.892	0.0166009
757.971	0.0166290
758.049	0.0167790
758.127	0.0166591
758.205	0.0165990
758.283	0.0166595
758.361	0.0166819
758.439	0.0167160
758.517	0.0166380
758.596	0.0165923
758.674	0.0164841
758.752	0.0166003
758.830	0.0166816
758.908	0.0164474
758.986	0.0163217
759.064	0.0163565
759.142	0.0161666
759.221	0.0162507
759.299	0.0163741
759.377	0.0162591
759.455	0.0160355
759.533	0.0161326
759.611	0.0161626
759.689	0.0160645
759.767	0.0160288
759.846	0.0160352
759.924	0.0160253
760.002	0.0161649
760.080	0.0162283
760.158	0.0161069
760.236	0.0162431
760.314	0.0161798
760.392	0.0162646
760.471	0.0163319
760.549	0.0162873
760.627	0.0163712
760.705	0.0164248
760.783	0.0162064
760.861	0.0162856
760.939	0.0161781
761.017	0.0163055
761.096	0.0162115
761.174	0.0162582
761.252	0.0163902
761.330	0.0162009
761.408	0.0161128
761.486	0.0162749
761.564	0.0162066
761.642	0.0162692
761.721	0.0162423
761.799	0.0161796
761.877	0.0162026
761.955	0.0161945
762.033	0.0162349
762.111	0.0162296
762.189	0.0162637
762.267	0.0162653
762.346	0.0160933
762.424	0.0161477
762.502	0.0159545
762.580	0.0160560
762.658	0.0159549
762.736	0.0158931
762.814	0.0161109
762.892	0.0159393
762.971	0.0159777
763.049	0.0161933
763.127	0.0161144
763.205	0.0160305
763.283	0.0161445
763.361	0.0160873
763.439	0.0162160
763.517	0.0164021
763.596	0.0162730
763.674	0.0164445
763.752	0.0163854
763.830	0.0164511
763.908	0.0164037
763.986	0.0164639
764.064	0.0165929
764.142	0.0165101
764.221	0.0164752
764.299	0.0164032
764.377	0.0164104
764.455	0.0162818
764.533	0.0162513
764.611	0.0162827
764.689	0.0163081
764.767	0.0162917
764.846	0.0161399
764.924	0.0162085
765.002	0.0162147
765.080	0.0162749
765.158	0.0159705
765.236	0.0159882
765.314	0.0162056
765.392	0.0160238
765.471	0.0160279
765.549	0.0160629
765.627	0.0162025
765.705	0.0161535
765.783	0.0162269
765.861	0.0161049
765.939	0.0162859
766.017	0.0162903
766.096	0.0162233
766.174	0.0162684
766.252	0.0164182
766.330	0.0164998
766.408	0.0164043
766.486	0.0165036
766.564	0.0164754
766.642	0.0163293
766.721	0.0163908
766.799	0.0163387
766.877	0.0163760
766.955	0.0163347
767.033	0.0163754
767.111	0.0162410
767.189	0.0163618
767.267	0.0162360
767.346	0.0163289
767.424	0.0162177
767.502	0.0162466
767.580	0.0161869
767.658	0.0162167
767.736	0.0162511
767.814	0.0162138
767.892	0.0163081
767.971	0.0160825
768.049	0.0159960
768.127	0.0160875
768.205	0.0162456
768.283	0.0161211
768.361	0.0161912
768.439	0.0160504
768.517	0.0161047
768.596	0.0162215
768.674	0.0161851
768.752	0.0160901
768.830	0.0162219
768.908	0.0161672
768.986	0.0161458
769.064	0.0163180
769.142	0.0163332
769.221	0.0164471
769.299	0.0163433
769.377	0.0161977
769.455	0.0164428
769.533	0.0164169
769.611	0.0164219
769.689	0.0164919
769.767	0.0164632
769.846	0.0163851
769.924	0.0165402
770.002	0.0164391
770.080	0.0163388
770.158	0.0165067
770.236	0.0163634
770.314	0.0163554
770.392	0.0164785
770.471	0.0165189
770.549	0.0164706
770.627	0.0162926
770.705	0.0163178
770.783	0.0164780
770.861	0.0163988
770.939	0.0163140
771.017	0.0162314
771.096	0.0164085
771.174	0.0163016
771.252	0.0163345
771.330	0.0163019
771.408	0.0164574
771.486	0.0162793
771.564	0.0163367
771.642	0.0164294
771.721	0.0164868
771.799	0.0162852
771.877	0.0162614
771.955	0.0163097
772.033	0.0164355
772.111	0.0163829
772.189	0.0164994
772.267	0.0164916
772.346	0.0162772
772.424	0.0162251
772.502	0.0163739
772.580	0.0162937
772.658	0.0162514
772.736	0.0163041
772.814	0.0162470
772.892	0.0162600
772.971	0.0162111
773.049	0.0162695
773.127	0.0162610
773.205	0.0161326
773.283	0.0162770
773.361	0.0163914
773.439	0.0164289
773.517	0.0163286
773.596	0.0164094
773.674	0.0164380
773.752	0.0163125
773.830	0.0163989
773.908	0.0163806
773.986	0.0164602
774.064	0.0163928
774.142	0.0164521
774.221	0.0164063
774.299	0.0165075
774.377	0.0165331
774.455	0.0166608
774.533	0.0164213
774.611	0.0165430
774.689	0.0165206
774.767	0.0165499
774.846	0.0165185
774.924	0.0164299
775.002	0.0163239
775.080	0.0163459
775.158	0.0164804
775.236	0.0162917
775.314	0.0163811
775.392	0.0163611
775.471	0.0162400
775.549	0.0162569
775.627	0.0162428
775.705	0.0161537
775.783	0.0161943
775.861	0.0162572
775.939	0.0161730
776.017	0.0161821
776.096	0.0163480
776.174	0.0161696
776.252	0.0162560
776.330	0.0163454
776.408	0.0163844
776.486	0.0161854
776.564	0.0162302
776.642	0.0162866
776.721	0.0163783
776.799	0.0163216
776.877	0.0161897
776.955	0.0163005
777.033	0.0162532
777.111	0.0162750
777.189	0.0163388
777.267	0.0163498
777.346	0.0163113
777.424	0.0164477
777.502	0.0163931
777.580	0.0162392
777.658	0.0162737
777.736	0.0162595
777.814	0.0163329
777.892	0.0163197
777.971	0.0164813
778.049	0.0162096
778.127	0.0164564
778.205	0.0164192
778.283	0.0161983
778.361	0.0163914
778.439	0.0164600
778.517	0.0163221
778.596	0.0162851
778.674	0.0163145
778.752	0.0163705
778.830	0.0163305
778.908	0.0163684
778.986	0.0162577
779.064	0.0163052
779.142	0.0161723
779.221	0.0161695
779.299	0.0161984
779.377	0.0162074
779.455	0.0161513
779.533	0.0160824
779.611	0.0161201
779.689	0.0160464
779.767	0.0161375
779.846	0.0162689
779.924	0.0160754
780.002	0.0160482
780.080	0.0161527
780.158	0.0161002
780.236	0.0163001
780.314	0.0161732
780.392	0.0161403
780.471	0.0162764
780.549	0.0163615
780.627	0.0161974
780.705	0.0162687
780.783	0.0162462
780.861	0.0162386
780.939	0.0164262
781.017	0.0163669
781.096	0.0163066
781.174	0.0161941
781.252	0.0162846
781.330	0.0162720
781.408	0.0162646
781.486	0.0163256
781.564	0.0162395
781.642	0.0162376
781.721	0.0163880
781.799	0.0162311
781.877	0.0162035
781.955	0.0162591
782.033	0.0162607
782.111	0.0162099
782.189	0.0162280
782.267	0.0161737
782.346	0.0161777
782.424	0.0160841
782.502	0.0161717
782.580	0.0163490
782.658	0.0161883
782.736	0.0161649
782.814	0.0161928
782.892	0.0161855
782.971	0.0162070
783.049	0.0163168
783.127	0.0160235
783.205	0.0161137
783.283	0.0162521
783.361	0.0161998
783.439	0.0162189
783.517	0.0161291
783.596	0.0160945
783.674	0.0161671
783.752	0.0161594
783.830	0.0160095
783.908	0.0160554
783.986	0.0161058
784.064	0.0161009
784.142	0.0161732
784.221	0.0162346
784.299	0.0162518
784.377	0.0162485
784.455	0.0161636
784.533	0.0161652
784.611	0.0161708
784.689	0.0163001
784.767	0.0162919
784.846	0.0163501
784.924	0.0162813
785.002	0.0162944
785.080	0.0163428
785.158	0.0163071
785.236	0.0163466
785.314	0.0162370
785.392	0.0162901
785.471	0.0162988
785.549	0.0164402
785.627	0.0164893
785.705	0.0162197
785.783	0.0161345
785.861	0.0164182
785.939	0.0163666
786.017	0.0162140
786.096	0.0163795
786.174	0.0164275
786.252	0.0162725
786.330	0.0163943
786.408	0.0164159
786.486	0.0162232
786.564	0.0162399
786.642	0.0163349
786.721	0.0163412
786.799	0.0162818
786.877	0.0162870
786.955	0.0163573
787.033	0.0163052
787.111	0.0162764
787.189	0.0162848
787.267	0.0162804
787.346	0.0160907
787.424	0.0164236
787.502	0.0164017
787.580	0.0162213
787.658	0.0163269
787.736	0.0162750
787.814	0.0164011
787.892	0.0162048
787.971	0.0162058
788.049	0.0163628
788.127	0.0163840
788.205	0.0163349
788.283	0.0163880
788.361	0.0163388
788.439	0.0165416
788.517	0.0163885
788.596	0.0162641
788.674	0.0161517
788.752	0.0164038
788.830	0.0163798
788.908	0.0163129
788.986	0.0163439
789.064	0.0163784
789.142	0.0162914
789.221	0.0163453
789.299	0.0164036
789.377	0.0162878
789.455	0.0163882
789.533	0.0163181
789.611	0.0165398
789.689	0.0163740
789.767	0.0162054
789.846	0.0162943
789.924	0.0163408
790.002	0.0163823
790.080	0.0162896
790.158	0.0162532
790.236	0.0162951
790.314	0.0164735
790.392	0.0163683
790.471	0.0163226
790.549	0.0162963
790.627	0.0163954
790.705	0.0164520
790.783	0.0163969
790.861	0.0162069
790.939	0.0162480
791.017	0.0163797
791.096	0.0163889
791.174	0.0163503
791.252	0.0164619
791.330	0.0164863
791.408	0.0164038
791.486	0.0164415
791.564	0.0163555
791.642	0.0164567
791.721	0.0163051
791.799	0.0162668
791.877	0.0162296
791.955	0.0163677
792.033	0.0163749
792.111	0.0162398
792.189	0.0162901
792.267	0.0161569
792.346	0.0162493
792.424	0.0162743
792.502	0.0161872
792.580	0.0161677
792.658	0.0162675
792.736	0.0162676
792.814	0.0162288
792.892	0.0163579
792.971	0.0163388
793.049	0.0163556
793.127	0.0164146
793.205	0.0163969
793.283	0.0163932
793.361	0.0163910
793.439	0.0164346
793.517	0.0163155
793.596	0.0163457
793.674	0.0165191
793.752	0.0164671
793.830	0.0165205
793.908	0.0164524
793.986	0.0163460
794.064	0.0162030
794.142	0.0164268
794.221	0.0162978
794.299	0.0163422
794.377	0.0164144
794.455	0.0162386
794.533	0.0162369
794.611	0.0163670
794.689	0.0162437
794.767	0.0162608
794.846	0.0162321
794.924	0.0161563
795.002	0.0162644
795.080	0.0162909
795.158	0.0162202
795.236	0.0162791
795.314	0.0163503
795.392	0.0163435
795.471	0.0162064
795.549	0.0163528
795.627	0.0163250
795.705	0.0164233
795.783	0.0162276
795.861	0.0163219
795.939	0.0165867
796.017	0.0164807
796.096	0.0164646
796.174	0.0166011
796.252	0.0166431
796.330	0.0165135
796.408	0.0167258
796.486	0.0163963
796.564	0.0164979
796.642	0.0165157
796.721	0.0164899
796.799	0.0164117
796.877	0.0164767
796.955	0.0164458
797.033	0.0164232
797.111	0.0162057
797.189	0.0164266
797.267	0.0164535
797.346	0.0163125
797.424	0.0163007
797.502	0.0161768
797.580	0.0163728
797.658	0.0162801
797.736	0.0162854
797.814	0.0163995
797.892	0.0163866
797.971	0.0163225
798.049	0.0163508
798.127	0.0163491
798.205	0.0162356
798.283	0.0163202
798.361	0.0164146
798.439	0.0161678
798.517	0.0161456
798.596	0.0164217
798.674	0.0164085
798.752	0.0163373
798.830	0.0162786
798.908	0.0163744
798.986	0.0163384
799.064	0.0162825
799.142	0.0162749
799.221	0.0163158
799.299	0.0163332
799.377	0.0162039
799.455	0.0162344
799.533	0.0164792
799.611	0.0163775
799.689	0.0163802
799.767	0.0163264
799.846	0.0163213
799.924	0.0164196
800.002	0.0164297
800.080	0.0164501
800.158	0.0163871
800.236	0.0165264
800.314	0.0163874
800.392	0.0163802
800.471	0.0162982
800.549	0.0163309
800.627	0.0164236
800.705	0.0163235
800.783	0.0163673
800.861	0.0163750
800.939	0.0163792
801.017	0.0164393
801.096	0.0165047
801.174	0.0164244
801.252	0.0165449
801.330	0.0164619
801.408	0.0163520
801.486	0.0164137
801.564	0.0164268
801.642	0.0164650
801.721	0.0164159
801.799	0.0165715
801.877	0.0165926
801.955	0.0166122
802.033	0.0163620
802.111	0.0164085
802.189	0.0163808
802.267	0.0163454
802.346	0.0164352
802.424	0.0163142
802.502	0.0165166
802.580	0.0164049
802.658	0.0162956
802.736	0.0162723
802.814	0.0162286
802.892	0.0162560
802.971	0.0162878
803.049	0.0162096
803.127	0.0163766
803.205	0.0163111
803.283	0.0163084
803.361	0.0162954
803.439	0.0162353
803.517	0.0161375
803.596	0.0161930
803.674	0.0162405
803.752	0.0164005
803.830	0.0163058
803.908	0.0163580
803.986	0.0162747
804.064	0.0162252
804.142	0.0163366
804.221	0.0162638
804.299	0.0163178
804.377	0.0162653
804.455	0.0163270
804.533	0.0163377
804.611	0.0162461
804.689	0.0163338
804.767	0.0162064
804.846	0.0163057
804.924	0.0162575
805.002	0.0163947
805.080	0.0163313
805.158	0.0163109
805.236	0.0162228
805.314	0.0162827
805.392	0.0162145
805.471	0.0163219
805.549	0.0163145
805.627	0.0163118
805.705	0.0161318
805.783	0.0162023
805.861	0.0162769
805.939	0.0163426
806.017	0.0161758
806.096	0.0161702
806.174	0.0162797
806.252	0.0162817
806.330	0.0163494
806.408	0.0163029
806.486	0.0163071
806.564	0.0162218
806.642	0.0161936
806.721	0.0162901
806.799	0.0162618
806.877	0.0162180
806.955	0.0161876
807.033	0.0162329
807.111	0.0162365
807.189	0.0163282
807.267	0.0163050
807.346	0.0162620
807.424	0.0163208
807.502	0.0163364
807.580	0.0164112
807.658	0.0163274
807.736	0.0162298
807.814	0.0163726
807.892	0.0162807
807.971	0.0161269
808.049	0.0163516
808.127	0.0161218
808.205	0.0163885
808.283	0.0163459
808.361	0.0162102
808.439	0.0161476
808.517	0.0162397
808.596	0.0163495
808.674	0.0162780
808.752	0.0161858
808.830	0.0162018
808.908	0.0163039
808.986	0.0161971
809.064	0.0162132
809.142	0.0162402
809.221	0.0162863
809.299	0.0161818
809.377	0.0161887
809.455	0.0163808
809.533	0.0162621
809.611	0.0161867
809.689	0.0163003
809.767	0.0161987
809.846	0.0162303
809.924	0.0163036
810.002	0.0162894
810.080	0.0162457
810.158	0.0163315
810.236	0.0163477
810.314	0.0163866
810.392	0.0162280
810.471	0.0163472
810.549	0.0162914
810.627	0.0162104
810.705	0.0162342
810.783	0.0162284
810.861	0.0163409
810.939	0.0164215
811.017	0.0164262
811.096	0.0163213
811.174	0.0163516
811.252	0.0162671
811.330	0.0164239
811.408	0.0163967
811.486	0.0163434
811.564	0.0164774
811.642	0.0164188
811.721	0.0163138
811.799	0.0163164
811.877	0.0164523
811.955	0.0164200
812.033	0.0162971
812.111	0.0162936
812.189	0.0163663
812.267	0.0162552
812.346	0.0163438
812.424	0.0163597
812.502	0.0164820
812.580	0.0163250
812.658	0.0162861
812.736	0.0163539
812.814	0.0162742
812.892	0.0161226
812.971	0.0163894
813.049	0.0164381
813.127	0.0162911
813.205	0.0162099
813.283	0.0163280
813.361	0.0162122
813.439	0.0162612
813.517	0.0162132
813.596	0.0162587
813.674	0.0163319
813.752	0.0163237
813.830	0.0161206
813.908	0.0162152
813.986	0.0162988
814.064	0.0164021
814.142	0.0161304
814.221	0.0162988
814.299	0.0162857
814.377	0.0161533
814.455	0.0162543
814.533	0.0161452
814.611	0.0160052
814.689	0.0163264
814.767	0.0163135
814.846	0.0162352
814.924	0.0162692
815.002	0.0163584
815.080	0.0162749
815.158	0.0164008
815.236	0.0161845
815.314	0.0162334
815.392	0.0163220
815.471	0.0163457
815.549	0.0161989
815.627	0.0161440
815.705	0.0162815
815.783	0.0162330
815.861	0.0161875
815.939	0.0162499
816.017	0.0161929
816.096	0.0162602
816.174	0.0163155
816.252	0.0161184
816.330	0.0162189
816.408	0.0163135
816.486	0.0163290
816.564	0.0162559
816.642	0.0163689
816.721	0.0160934
816.799	0.0162748
816.877	0.0162160
816.955	0.0162527
817.033	0.0163001
817.111	0.0161289
817.189	0.0162511
817.267	0.0162183
817.346	0.0163124
817.424	0.0163162
817.502	0.0162137
817.580	0.0161577
817.658	0.0161622
817.736	0.0161578
817.814	0.0161526
817.892	0.0162717
817.971	0.0161752
818.049	0.0162114
818.127	0.0162841
818.205	0.0161981
818.283	0.0162512
818.361	0.0162474
818.439	0.0162287
818.517	0.0163060
818.596	0.0161643
818.674	0.0161887
818.752	0.0162199
818.830	0.0162630
818.908	0.0162610
818.986	0.0161562
819.064	0.0163227
819.142	0.0163155
819.221	0.0162804
819.299	0.0162903
819.377	0.0164177
819.455	0.0162933
819.533	0.0162043
819.611	0.0162820
819.689	0.0161735
819.767	0.0162590
819.846	0.0163565
819.924	0.0162959
820.002	0.0163515
820.080	0.0162404
820.158	0.0162090
820.236	0.0164265
820.314	0.0163048
820.392	0.0162595
820.471	0.0162508
820.549	0.0163773
820.627	0.0164571
820.705	0.0163715
820.783	0.0164282
820.861	0.0163734
820.939	0.0164114
821.017	0.0163730
821.096	0.0163535
821.174	0.0163700
821.252	0.0163965
821.330	0.0164832
821.408	0.0165694
821.486	0.0164104
821.564	0.0164613
821.642	0.0163876
821.721	0.0163650
821.799	0.0164329
821.877	0.0164172
821.955	0.0163498
822.033	0.0164050
822.111	0.0164198
822.189	0.0163311
822.267	0.0165273
822.346	0.0164203
822.424	0.0163715
822.502	0.0162811
822.580	0.0163393
822.658	0.0163013
822.736	0.0164708
822.814	0.0164019
822.892	0.0162131
822.971	0.0163101
823.049	0.0164285
823.127	0.0163075
823.205	0.0162299
823.283	0.0163816
823.361	0.0163789
823.439	0.0165287
823.517	0.0163774
823.596	0.0164693
823.674	0.0163943
823.752	0.0165635
823.830	0.0164791
823.908	0.0163403
823.986	0.0162943
824.064	0.0164285
824.142	0.0163525
824.221	0.0162632
824.299	0.0164066
824.377	0.0163436
824.455	0.0163147
824.533	0.0163367
824.611	0.0162600
824.689	0.0162547
824.767	0.0162668
824.846	0.0163525
824.924	0.0163099
825.002	0.0161706
825.080	0.0163110
825.158	0.0162567
825.236	0.0161481
825.314	0.0162031
825.392	0.0160963
825.471	0.0162417
825.549	0.0162578
825.627	0.0161778
825.705	0.0162844
825.783	0.0161947
825.861	0.0162885
825.939	0.0162957
826.017	0.0162053
826.096	0.0163638
826.174	0.0162876
826.252	0.0163585
826.330	0.0164100
826.408	0.0164034
826.486	0.0163594
826.564	0.0162740
826.642	0.0164078
826.721	0.0163528
826.799	0.0162865
826.877	0.0162709
826.955	0.0163255
827.033	0.0162959
827.111	0.0162103
827.189	0.0163216
827.267	0.0163046
827.346	0.0163857
827.424	0.0164072
827.502	0.0162918
827.580	0.0163123
827.658	0.0163628
827.736	0.0161575
827.814	0.0162556
827.892	0.0162321
827.971	0.0162112
828.049	0.0162287
828.127	0.0161310
828.205	0.0162756
828.283	0.0163089
828.361	0.0162425
828.439	0.0161674
828.517	0.0163043
828.596	0.0162444
828.674	0.0162169
828.752	0.0163368
828.830	0.0164838
828.908	0.0164052
828.986	0.0163916
829.064	0.0163052
829.142	0.0165903
829.221	0.0164237
829.299	0.0162802
829.377	0.0164265
829.455	0.0164584
829.533	0.0163445
829.611	0.0162994
829.689	0.0164127
829.767	0.0165686
829.846	0.0164825
829.924	0.0164498
830.002	0.0162619
830.080	0.0164549
830.158	0.0163095
830.236	0.0162895
830.314	0.0162259
830.392	0.0162924
830.471	0.0164788
830.549	0.0164126
830.627	0.0162186
830.705	0.0162202
830.783	0.0162493
830.861	0.0162242
830.939	0.0162874
831.017	0.0162164
831.096	0.0162872
831.174	0.0162377
831.252	0.0163831
831.330	0.0163868
831.408	0.0164432
831.486	0.0163268
831.564	0.0162985
831.642	0.0163796
831.721	0.0164610
831.799	0.0165263
831.877	0.0164980
831.955	0.0165000
832.033	0.0165851
832.111	0.0164804
832.189	0.0164845
832.267	0.0163760
832.346	0.0164844
832.424	0.0165697
832.502	0.0164153
832.580	0.0164304
832.658	0.0164152
832.736	0.0164899
832.814	0.0164835
832.892	0.0164375
832.971	0.0163927
833.049	0.0163840
833.127	0.0164550
833.205	0.0163158
833.283	0.0162858
833.361	0.0161882
833.439	0.0163309
833.517	0.0164194
833.596	0.0163163
833.674	0.0163036
833.752	0.0162372
833.830	0.0163342
833.908	0.0163586
833.986	0.0162320
834.064	0.0161970
834.142	0.0162439
834.221	0.0163831
834.299	0.0162097
834.377	0.0162865
834.455	0.0161580
834.533	0.0162120
834.611	0.0162640
834.689	0.0162849
834.767	0.0161654
834.846	0.0162499
834.924	0.0162441
835.002	0.0162697
835.080	0.0161918
835.158	0.0161675
835.236	0.0161638
835.314	0.0161572
835.392	0.0161869
835.471	0.0162365
835.549	0.0161980
835.627	0.0162300
835.705	0.0161017
835.783	0.0161320
835.861	0.0164289
835.939	0.0162614
836.017	0.0162744
836.096	0.0162349
836.174	0.0163273
836.252	0.0162524
836.330	0.0162845
836.408	0.0164100
836.486	0.0162381
836.564	0.0163467
836.642	0.0163652
836.721	0.0163629
836.799	0.0163297
836.877	0.0163562
836.955	0.0162479
837.033	0.0161945
837.111	0.0162521
837.189	0.0162925
837.267	0.0161601
837.346	0.0160764
837.424	0.0161830
837.502	0.0161647
837.580	0.0162454
837.658	0.0161089
837.736	0.0161401
837.814	0.0162668
837.892	0.0161774
837.971	0.0161440
838.049	0.0163018
838.127	0.0161370
838.205	0.0162180
838.283	0.0163570
838.361	0.0161688
838.439	0.0162957
838.517	0.0161950
838.596	0.0162870
838.674	0.0162464
838.752	0.0161935
838.830	0.0164547
838.908	0.0163087
838.986	0.0163296
839.064	0.0163280
839.142	0.0163206
839.221	0.0162077
839.299	0.0162166
839.377	0.0162598
839.455	0.0161497
839.533	0.0162554
839.611	0.0161217
839.689	0.0162713
839.767	0.0162764
839.846	0.0163439
839.924	0.0162415
840.002	0.0163245
840.080	0.0162034
840.158	0.0162386
840.236	0.0162667
840.314	0.0163283
840.392	0.0163025
840.471	0.0163315
840.549	0.0162194
840.627	0.0162402
840.705	0.0161617
840.783	0.0162757
840.861	0.0162969
840.939	0.0162236
841.017	0.0162109
841.096	0.0162969
841.174	0.0162259
841.252	0.0161620
841.330	0.0162528
841.408	0.0161830
841.486	0.0163171
841.564	0.0162031
841.642	0.0161047
841.721	0.0161770
841.799	0.0161427
841.877	0.0162026
841.955	0.0162309
842.033	0.0162417
842.111	0.0162030
842.189	0.0162234
842.267	0.0163028
842.346	0.0163029
842.424	0.0161213
842.502	0.0163204
842.580	0.0162188
842.658	0.0162235
842.736	0.0163189
842.814	0.0160991
842.892	0.0161743
842.971	0.0163145
843.049	0.0163236
843.127	0.0161987
843.205	0.0162049
843.283	0.0162686
843.361	0.0163770
843.439	0.0161681
843.517	0.0162251
843.596	0.0164621
843.674	0.0163669
843.752	0.0163280
843.830	0.0161965
843.908	0.0162927
843.986	0.0162210
844.064	0.0162617
844.142	0.0162656
844.221	0.0162373
844.299	0.0161945
844.377	0.0161818
844.455	0.0162310
844.533	0.0163173
844.611	0.0162293
844.689	0.0164108
844.767	0.0162368
844.846	0.0162354
844.924	0.0162295
845.002	0.0164157
845.080	0.0162411
845.158	0.0163229
845.236	0.0163731
845.314	0.0162905
845.392	0.0163197
845.471	0.0161185
845.549	0.0162056
845.627	0.0163763
845.705	0.0163855
845.783	0.0162773
845.861	0.0162354
845.939	0.0163241
846.017	0.0161825
846.096	0.0161745
846.174	0.0161802
846.252	0.0162157
846.330	0.0163627
846.408	0.0162756
846.486	0.0162704
846.564	0.0164137
846.642	0.0162830
846.721	0.0162782
846.799	0.0162413
846.877	0.0162723
846.955	0.0164171
847.033	0.0163894
847.111	0.0162127
847.189	0.0163766
847.267	0.0163536
847.346	0.0163394
847.424	0.0162824
847.502	0.0162119
847.580	0.0164416
847.658	0.0163045
847.736	0.0162393
847.814	0.0164248
847.892	0.0161919
847.971	0.0160911
848.049	0.0161511
848.127	0.0162735
848.205	0.0164024
848.283	0.0163428
848.361	0.0162433
848.439	0.0163375
848.517	0.0162817
848.596	0.0162723
848.674	0.0162547
848.752	0.0163608
848.830	0.0164346
848.908	0.0163232
848.986	0.0162170
849.064	0.0163250
849.142	0.0163354
849.221	0.0164566
849.299	0.0163232
849.377	0.0163342
849.455	0.0163853
849.533	0.0163082
849.611	0.0161857
849.689	0.0163873
849.767	0.0164155
849.846	0.0161742
849.924	0.0163011
850.002	0.0162984
850.080	0.0162901
850.158	0.0162749
850.236	0.0164790
850.314	0.0163332
850.392	0.0163619
850.471	0.0163138
850.549	0.0162717
850.627	0.0163851
850.705	0.0164268
850.783	0.0163094
850.861	0.0163765
850.939	0.0164604
851.017	0.0163947
851.096	0.0163940
851.174	0.0163862
851.252	0.0163838
851.330	0.0164161
851.408	0.0164147
851.486	0.0163738
851.564	0.0164414
851.642	0.0163386
851.721	0.0163141
851.799	0.0162395
851.877	0.0162642
851.955	0.0163852
852.033	0.0163400
852.111	0.0163613
852.189	0.0162448
852.267	0.0161449
852.346	0.0161926
852.424	0.0161784
852.502	0.0161846
852.580	0.0161504
852.658	0.0161810
852.736	0.0161687
852.814	0.0161603
852.892	0.0162175
852.971	0.0162516
853.049	0.0164334
853.127	0.0161182
853.205	0.0160392
853.283	0.0162138
853.361	0.0162596
853.439	0.0162124
853.517	0.0161799
853.596	0.0161591
853.674	0.0162553
853.752	0.0161928
853.830	0.0162415
853.908	0.0163446
853.986	0.0161945
854.064	0.0161704
854.142	0.0162245
854.221	0.0163317
854.299	0.0162402
854.377	0.0163278
854.455	0.0164895
854.533	0.0162940
854.611	0.0163030
854.689	0.0163886
854.767	0.0162733
854.846	0.0164656
854.924	0.0164716
855.002	0.0163288
855.080	0.0163529
855.158	0.0163981
855.236	0.0163070
855.314	0.0163892
855.392	0.0162324
855.471	0.0162941
855.549	0.0163197
855.627	0.0163094
855.705	0.0163283
855.783	0.0164146
855.861	0.0164480
855.939	0.0162888
856.017	0.0162691
856.096	0.0164081
856.174	0.0162386
856.252	0.0162714
856.330	0.0163451
856.408	0.0164307
856.486	0.0163966
856.564	0.0164975
856.642	0.0163522
856.721	0.0163201
856.799	0.0165218
856.877	0.0163661
856.955	0.0163395
857.033	0.0163105
857.111	0.0163589
857.189	0.0164314
857.267	0.0164229
857.346	0.0162148
857.424	0.0162602
857.502	0.0163605
857.580	0.0163807
857.658	0.0163900
857.736	0.0163387
857.814	0.0163416
857.892	0.0164677
857.971	0.0163776
858.049	0.0163203
858.127	0.0163090
858.205	0.0165136
858.283	0.0163595
858.361	0.0163594
858.439	0.0163738
858.517	0.0161286
858.596	0.0163088
858.674	0.0163838
858.752	0.0164714
858.830	0.0162521
858.908	0.0163354
858.986	0.0163897
859.064	0.0164223
859.142	0.0162939
859.221	0.0162093
859.299	0.0164544
859.377	0.0163174
859.455	0.0163038
859.533	0.0165231
859.611	0.0164183
859.689	0.0162991
859.767	0.0164104
859.846	0.0162862
859.924	0.0162897
860.002	0.0161311
860.080	0.0163211
860.158	0.0163074
860.236	0.0162582
860.314	0.0161220
860.392	0.0162545
860.471	0.0163448
860.549	0.0162584
860.627	0.0161401
860.705	0.0162590
860.783	0.0162661
860.861	0.0163384
860.939	0.0163181
861.017	0.0162825
861.096	0.0162330
861.174	0.0162825
861.252	0.0161308
861.330	0.0163239
861.408	0.0162196
861.486	0.0164104
861.564	0.0163128
861.642	0.0162537
861.721	0.0162739
861.799	0.0163297
861.877	0.0162204
861.955	0.0163605
862.033	0.0163016
862.111	0.0162384
862.189	0.0163351
862.267	0.0161990
862.346	0.0162418
862.424	0.0162443
862.502	0.0163269
862.580	0.0162287
862.658	0.0162736
862.736	0.0161806
862.814	0.0163600
862.892	0.0162283
862.971	0.0161717
863.049	0.0162244
863.127	0.0162789
863.205	0.0160870
863.283	0.0161783
863.361	0.0162239
863.439	0.0162100
863.517	0.0163345
863.596	0.0163026
863.674	0.0161904
863.752	0.0161760
863.830	0.0162210
863.908	0.0163385
863.986	0.0163009
864.064	0.0161827
864.142	0.0162909
864.221	0.0162933
864.299	0.0161475
864.377	0.0163525
864.455	0.0162127
864.533	0.0162118
864.611	0.0162879
864.689	0.0162788
864.767	0.0163493
864.846	0.0162098
864.924	0.0163593
865.002	0.0162919
865.080	0.0163360
865.158	0.0162619
865.236	0.0162452
865.314	0.0162563
865.392	0.0161685
865.471	0.0162872
865.549	0.0162044
865.627	0.0161608
865.705	0.0161337
865.783	0.0162403
865.861	0.0162032
865.939	0.0162466
866.017	0.0162403
866.096	0.0162225
866.174	0.0160962
866.252	0.0162025
866.330	0.0163107
866.408	0.0163029
866.486	0.0161440
866.564	0.0162403
866.642	0.0163142
866.721	0.0161803
866.799	0.0162531
866.877	0.0162505
866.955	0.0163483
867.033	0.0163036
867.111	0.0162354
867.189	0.0162075
867.267	0.0162244
867.346	0.0163108
867.424	0.0162413
867.502	0.0162210
867.580	0.0162190
867.658	0.0163192
867.736	0.0162137
867.814	0.0162380
867.892	0.0164130
867.971	0.0163258
868.049	0.0162093
868.127	0.0162834
868.205	0.0162361
868.283	0.0162825
868.361	0.0162514
868.439	0.0161671
868.517	0.0161724
868.596	0.0163544
868.674	0.0162224
868.752	0.0161683
868.830	0.0162366
868.908	0.0163046
868.986	0.0162576
869.064	0.0163288
869.142	0.0162002
869.221	0.0160693
869.299	0.0162470
869.377	0.0162629
869.455	0.0162183
869.533	0.0162148
869.611	0.0162933
869.689	0.0162312
869.767	0.0161886
869.846	0.0162221
869.924	0.0163358
870.002	0.0162690
870.080	0.0162040
870.158	0.0162238
870.236	0.0162431
870.314	0.0161804
870.392	0.0160509
870.471	0.0162031
870.549	0.0162982
870.627	0.0161707
870.705	0.0161077
870.783	0.0162698
870.861	0.0163728
870.939	0.0162478
871.017	0.0162214
871.096	0.0163160
871.174	0.0163284
871.252	0.0162424
871.330	0.0163421
871.408	0.0163355
871.486	0.0163992
871.564	0.0163969
871.642	0.0163882
871.721	0.0162784
871.799	0.0164575
871.877	0.0162739
871.955	0.0164325
872.033	0.0164638
872.111	0.0165356
872.189	0.0164074
872.267	0.0164783
872.346	0.0164810
872.424	0.0164045
872.502	0.0164174
872.580	0.0163527
872.658	0.0163727
872.736	0.0164220
872.814	0.0163654
872.892	0.0163047
872.971	0.0164444
873.049	0.0162854
873.127	0.0162670
873.205	0.0162024
873.283	0.0164223
873.361	0.0162787
873.439	0.0163110
873.517	0.0163286
873.596	0.0162506
873.674	0.0162921
873.752	0.0163534
873.830	0.0162003
873.908	0.0162958
873.986	0.0162048
874.064	0.0162433
874.142	0.0163397
874.221	0.0162632
874.299	0.0165087
874.377	0.0163506
874.455	0.0162543
874.533	0.0163070
874.611	0.0163030
874.689	0.0164448
874.767	0.0163647
874.846	0.0163208
874.924	0.0163162
875.002	0.0163707
875.080	0.0163853
875.158	0.0163487
875.236	0.0162316
875.314	0.0163822
875.392	0.0164034
875.471	0.0163220
875.549	0.0162848
875.627	0.0162966
875.705	0.0163321
875.783	0.0163424
875.861	0.0163950
875.939	0.0162405
876.017	0.0162505
876.096	0.0163439
876.174	0.0164267
876.252	0.0162698
876.330	0.0163349
876.408	0.0163647
876.486	0.0162681
876.564	0.0163239
876.642	0.0163316
876.721	0.0163536
876.799	0.0163358
876.877	0.0163071
876.955	0.0163978
877.033	0.0162888
877.111	0.0163492
877.189	0.0163293
877.267	0.0164204
877.346	0.0164069
877.424	0.0164447
877.502	0.0162888
877.580	0.0163382
877.658	0.0164668
877.736	0.0164006
877.814	0.0163436
877.892	0.0166820
877.971	0.0162868
878.049	0.0162948
878.127	0.0163286
878.205	0.0162813
878.283	0.0162377
878.361	0.0161538
878.439	0.0163502
878.517	0.0163677
878.596	0.0162574
878.674	0.0161287
878.752	0.0163123
878.830	0.0161421
878.908	0.0161305
878.986	0.0161876
879.064	0.0162099
879.142	0.0160964
879.221	0.0161668
879.299	0.0162942
879.377	0.0161329
879.455	0.0160949
879.533	0.0161512
879.611	0.0162423
879.689	0.0162124
879.767	0.0160911
879.846	0.0161703
879.924	0.0160070
880.002	0.0160958
880.080	0.0160960
880.158	0.0162518
880.236	0.0161810
880.314	0.0161816
880.392	0.0160258
880.471	0.0160416
880.549	0.0161079
880.627	0.0161724
880.705	0.0161092
880.783	0.0161480
880.861	0.0160796
880.939	0.0160883
881.017	0.0161436
881.096	0.0160941
881.174	0.0160432
881.252	0.0162041
881.330	0.0162099
881.408	0.0161890
881.486	0.0162173
881.564	0.0162347
881.642	0.0162252
881.721	0.0162334
881.799	0.0162178
881.877	0.0162344
881.955	0.0162947
882.033	0.0161826
882.111	0.0162573
882.189	0.0161917
882.267	0.0162347
882.346	0.0162093
882.424	0.0162212
882.502	0.0162515
882.580	0.0161384
882.658	0.0162718
882.736	0.0162332
882.814	0.0161758
882.892	0.0161914
882.971	0.0161784
883.049	0.0162130
883.127	0.0161058
883.205	0.0162817
883.283	0.0160120
883.361	0.0161758
883.439	0.0163503
883.517	0.0162554
883.596	0.0161497
883.674	0.0160946
883.752	0.0162091
883.830	0.0161691
883.908	0.0160871
883.986	0.0161693
884.064	0.0160772
884.142	0.0160680
884.221	0.0160393
884.299	0.0162971
884.377	0.0162074
884.455	0.0159375
884.533	0.0161011
884.611	0.0162185
884.689	0.0160560
884.767	0.0160455
884.846	0.0161873
884.924	0.0161320
885.002	0.0161501
885.080	0.0161419
885.158	0.0161307
885.236	0.0161336
885.314	0.0161470
885.392	0.0161021
885.471	0.0160094
885.549	0.0162206
885.627	0.0163230
885.705	0.0160580
885.783	0.0161021
885.861	0.0160791
885.939	0.0162238
886.017	0.0161066
886.096	0.0161956
886.174	0.0162340
886.252	0.0162188
886.330	0.0161465
886.408	0.0162585
886.486	0.0162021
886.564	0.0161842
886.642	0.0164196
886.721	0.0161786
886.799	0.0164242
886.877	0.0161856
886.955	0.0162033
887.033	0.0162886
887.111	0.0162462
887.189	0.0163657
887.267	0.0163602
887.346	0.0163506
887.424	0.0164030
887.502	0.0165297
887.580	0.0162971
887.658	0.0163438
887.736	0.0162727
887.814	0.0162592
887.892	0.0163260
887.971	0.0163348
888.049	0.0163079
888.127	0.0163750
888.205	0.0163294
888.283	0.0161433
888.361	0.0162450
888.439	0.0162534
888.517	0.0163480
888.596	0.0161428
888.674	0.0161331
888.752	0.0163242
888.830	0.0162189
888.908	0.0163303
888.986	0.0163609
889.064	0.0163760
889.142	0.0162252
889.221	0.0163000
889.299	0.0161562
889.377	0.0163040
889.455	0.0163487
889.533	0.0163925
889.611	0.0161660
889.689	0.0163794
889.767	0.0163582
889.846	0.0163329
889.924	0.0162088
890.002	0.0162821
890.080	0.0163603
890.158	0.0164399
890.236	0.0161529
890.314	0.0162840
890.392	0.0163895
890.471	0.0164091
890.549	0.0163461
890.627	0.0161900
890.705	0.0162162
890.783	0.0164304
890.861	0.0164102
890.939	0.0164153
891.017	0.0163403
891.096	0.0163889
891.174	0.0163375
891.252	0.0163205
891.330	0.0163160
891.408	0.0163683
891.486	0.0162997
891.564	0.0163754
891.642	0.0164108
891.721	0.0164280
891.799	0.0164101
891.877	0.0163576
891.955	0.0163614
892.033	0.0164599
892.111	0.0165441
892.189	0.0164992
892.267	0.0163097
892.346	0.0165601
892.424	0.0163886
892.502	0.0164854
892.580	0.0162953
892.658	0.0164255
892.736	0.0163329
892.814	0.0163782
892.892	0.0163913
892.971	0.0163611
893.049	0.0163676
893.127	0.0163509
893.205	0.0163248
893.283	0.0165217
893.361	0.0163062
893.439	0.0163508
893.517	0.0163190
893.596	0.0163560
893.674	0.0163924
893.752	0.0164460
893.830	0.0163796
893.908	0.0165260
893.986	0.0164893
894.064	0.0164235
894.142	0.0165836
894.221	0.0164902
894.299	0.0165416
894.377	0.0164660
894.455	0.0167758
894.533	0.0165494
894.611	0.0163842
894.689	0.0165889
894.767	0.0165473
894.846	0.0165907
894.924	0.0165431
895.002	0.0166130
895.080	0.0166625
895.158	0.0163887
895.236	0.0165225
895.314	0.0164385
895.392	0.0165240
895.471	0.0164815
895.549	0.0165030
895.627	0.0164198
895.705	0.0164273
895.783	0.0163046
895.861	0.0164919
895.939	0.0164346
896.017	0.0164200
896.096	0.0164069
896.174	0.0164951
896.252	0.0165997
896.330	0.0164182
896.408	0.0165145
896.486	0.0166286
896.564	0.0164681
896.642	0.0164687
896.721	0.0165089
896.799	0.0166277
896.877	0.0166026
896.955	0.0165824
897.033	0.0165783
897.111	0.0166336
897.189	0.0165048
897.267	0.0165214
897.346	0.0164717
897.424	0.0164029
897.502	0.0165507
897.580	0.0164646
897.658	0.0163605
897.736	0.0163769
897.814	0.0163397
897.892	0.0162781
897.971	0.0165086
898.049	0.0162739
898.127	0.0163297
898.205	0.0163978
898.283	0.0163770
898.361	0.0162670
898.439	0.0161813
898.517	0.0161481
898.596	0.0161657
898.674	0.0161228
898.752	0.0162185
898.830	0.0162226
898.908	0.0162836
898.986	0.0161385
899.064	0.0162089
899.142	0.0161533
899.221	0.0160900
899.299	0.0161523
899.377	0.0162241
899.455	0.0160513
899.533	0.0162891
899.611	0.0162508
899.689	0.0161617
899.767	0.0160941
899.846	0.0162838
899.924	0.0162286
900.002	0.0161655
900.080	0.0162714
900.158	0.0163109
900.236	0.0163605
900.314	0.0162014
900.392	0.0161424
900.471	0.0162001
900.549	0.0163271
900.627	0.0162778
900.705	0.0161942
900.783	0.0162376
900.861	0.0162856
900.939	0.0163715
901.017	0.0162019
901.096	0.0162009
901.174	0.0162720
901.252	0.0161890
901.330	0.0163435
901.408	0.0161736
901.486	0.0162766
901.564	0.0163313
901.642	0.0162981
901.721	0.0163049
901.799	0.0163911
901.877	0.0163910
901.955	0.0162045
902.033	0.0163509
902.111	0.0163590
902.189	0.0164906
902.267	0.0164436
902.346	0.0163350
902.424	0.0163066
902.502	0.0162080
902.580	0.0161786
902.658	0.0164619
902.736	0.0163238
902.814	0.0163409
902.892	0.0164480
902.971	0.0163176
903.049	0.0164243
903.127	0.0163199
903.205	0.0163360
903.283	0.0163254
903.361	0.0163433
903.439	0.0162675
903.517	0.0162605
903.596	0.0164359
903.674	0.0163418
903.752	0.0162256
903.830	0.0162796
903.908	0.0162125
903.986	0.0163100
904.064	0.0162682
904.142	0.0162754
904.221	0.0162101
904.299	0.0162107
904.377	0.0162749
904.455	0.0161909
904.533	0.0163515
904.611	0.0161578
904.689	0.0162566
904.767	0.0163065
904.846	0.0163384
904.924	0.0163336
905.002	0.0162649
905.080	0.0162904
905.158	0.0163472
905.236	0.0161343
905.314	0.0161038
905.392	0.0162467
905.471	0.0163529
905.549	0.0163752
905.627	0.0163937
905.705	0.0163084
905.783	0.0162191
905.861	0.0163428
905.939	0.0162968
906.017	0.0162971
906.096	0.0163558
906.174	0.0162276
906.252	0.0164886
906.330	0.0162688
906.408	0.0165297
906.486	0.0163784
906.564	0.0164309
906.642	0.0162852
906.721	0.0164077
906.799	0.0164629
906.877	0.0163464
906.955	0.0161247
907.033	0.0163136
907.111	0.0163351
907.189	0.0162415
907.267	0.0162998
907.346	0.0162425
907.424	0.0162075
907.502	0.0162172
907.580	0.0161824
907.658	0.0162914
907.736	0.0161190
907.814	0.0161018
907.892	0.0162392
907.971	0.0161495
908.049	0.0160386
908.127	0.0161383
908.205	0.0161020
908.283	0.0160388
908.361	0.0160168
908.439	0.0161727
908.517	0.0161209
908.596	0.0160381
908.674	0.0161033
908.752	0.0160990
908.830	0.0161554
908.908	0.0160819
908.986	0.0160053
909.064	0.0161736
909.142	0.0162836
909.221	0.0163767
909.299	0.0162220
909.377	0.0161882
909.455	0.0163412
909.533	0.0161629
909.611	0.0160287
909.689	0.0162408
909.767	0.0161695
909.846	0.0159636
909.924	0.0159866
910.002	0.0160947
910.080	0.0160791
910.158	0.0160233
910.236	0.0161514
910.314	0.0160658
910.392	0.0162068
910.471	0.0160361
910.549	0.0160747
910.627	0.0161163
910.705	0.0162226
910.783	0.0161080
910.861	0.0159778
910.939	0.0161890
911.017	0.0160481
911.096	0.0161102
911.174	0.0161558
911.252	0.0163108
911.330	0.0161604
911.408	0.0162538
911.486	0.0161507
911.564	0.0161775
911.642	0.0162756
911.721	0.0160998
911.799	0.0162270
911.877	0.0162674
911.955	0.0160416
912.033	0.0162192
912.111	0.0163918
912.189	0.0162736
912.267	0.0163237
912.346	0.0162457
912.424	0.0162724
912.502	0.0163071
912.580	0.0161927
912.658	0.0162134
912.736	0.0163143
912.814	0.0162106
912.892	0.0162982
912.971	0.0162003
913.049	0.0162401
913.127	0.0162495
913.205	0.0162213
913.283	0.0161980
913.361	0.0162394
913.439	0.0161771
913.517	0.0163224
913.596	0.0161608
913.674	0.0163259
913.752	0.0164239
913.830	0.0162804
913.908	0.0162997
913.986	0.0163002
914.064	0.0163016
914.142	0.0164171
914.221	0.0164514
914.299	0.0163451
914.377	0.0162707
914.455	0.0163873
914.533	0.0162899
914.611	0.0163972
914.689	0.0162325
914.767	0.0164697
914.846	0.0164421
914.924	0.0163951
915.002	0.0164555
915.080	0.0162904
915.158	0.0164243
915.236	0.0164402
915.314	0.0164685
915.392	0.0163955
915.471	0.0163407
915.549	0.0164175
915.627	0.0164975
915.705	0.0163972
915.783	0.0163303
915.861	0.0165532
915.939	0.0162983
916.017	0.0163817
916.096	0.0163690
916.174	0.0163378
916.252	0.0162973
916.330	0.0162830
916.408	0.0163071
916.486	0.0163580
916.564	0.0162444
916.642	0.0164223
916.721	0.0162891
916.799	0.0162702
916.877	0.0164619
916.955	0.0163262
917.033	0.0163239
917.111	0.0163705
917.189	0.0165205
917.267	0.0163721
917.346	0.0163417
917.424	0.0164799
917.502	0.0164104
917.580	0.0164554
917.658	0.0164719
917.736	0.0164098
917.814	0.0163992
917.892	0.0164588
917.971	0.0163677
918.049	0.0164567
918.127	0.0164940
918.205	0.0164740
918.283	0.0164334
918.361	0.0164745
918.439	0.0163504
918.517	0.0163680
918.596	0.0162975
918.674	0.0163815
918.752	0.0163477
918.830	0.0163518
918.908	0.0163876
918.986	0.0164426
919.064	0.0163351
919.142	0.0164478
919.221	0.0164359
919.299	0.0163320
919.377	0.0164594
919.455	0.0164758
919.533	0.0162981
919.611	0.0163982
919.689	0.0164722
919.767	0.0165634
919.846	0.0164680
919.924	0.0164286
