06/29/2022	21:44:25	Ver.	4.1	UNKNOWN
Optical Delay	600.001752	Delta X		0.078125	Sweeps	1	Scan Rate	0/0
Coordinates	Axis 1	NaN	Axis 2	NaN	Axis 3	NaN	Axis 4	NaN	Axis 5	NaN	Axis 6	0.000000
TX Power	0.000000	RX Power	0.000000

600.002	0.0161519
600.080	0.0160558
600.158	0.0159563
600.236	0.0160260
600.314	0.0159397
600.392	0.0159848
600.471	0.0159389
600.549	0.0160381
600.627	0.0160347
600.705	0.0159870
600.783	0.0159470
600.861	0.0158466
600.939	0.0158971
601.017	0.0161066
601.096	0.0160217
601.174	0.0158831
601.252	0.0159200
601.330	0.0158267
601.408	0.0160262
601.486	0.0159517
601.564	0.0160812
601.642	0.0160700
601.721	0.0162386
601.799	0.0163029
601.877	0.0161635
601.955	0.0161862
602.033	0.0162314
602.111	0.0163574
602.189	0.0163128
602.267	0.0163135
602.346	0.0164680
602.424	0.0164154
602.502	0.0164828
602.580	0.0165215
602.658	0.0166664
602.736	0.0166198
602.814	0.0164494
602.892	0.0166055
602.971	0.0166670
603.049	0.0166129
603.127	0.0166213
603.205	0.0166236
603.283	0.0167655
603.361	0.0166322
603.439	0.0167994
603.517	0.0168255
603.596	0.0167071
603.674	0.0169066
603.752	0.0170698
603.830	0.0168317
603.908	0.0169439
603.986	0.0169495
604.064	0.0170283
604.142	0.0169626
604.221	0.0169411
604.299	0.0169373
604.377	0.0170219
604.455	0.0170176
604.533	0.0169405
604.611	0.0169406
604.689	0.0169952
604.767	0.0170643
604.846	0.0170333
604.924	0.0169569
605.002	0.0168922
605.080	0.0169228
605.158	0.0168355
605.236	0.0169203
605.314	0.0169739
605.392	0.0169203
605.471	0.0168385
605.549	0.0168707
605.627	0.0168224
605.705	0.0167550
605.783	0.0167282
605.861	0.0169675
605.939	0.0168728
606.017	0.0168024
606.096	0.0167228
606.174	0.0168855
606.252	0.0168066
606.330	0.0167467
606.408	0.0166282
606.486	0.0168179
606.564	0.0167076
606.642	0.0166225
606.721	0.0166881
606.799	0.0167300
606.877	0.0166209
606.955	0.0165919
607.033	0.0163003
607.111	0.0164958
607.189	0.0165846
607.267	0.0166949
607.346	0.0166418
607.424	0.0166265
607.502	0.0167074
607.580	0.0166762
607.658	0.0165631
607.736	0.0167509
607.814	0.0167688
607.892	0.0166370
607.971	0.0166864
608.049	0.0164925
608.127	0.0165231
608.205	0.0165739
608.283	0.0165305
608.361	0.0165063
608.439	0.0165662
608.517	0.0163874
608.596	0.0165044
608.674	0.0163785
608.752	0.0164113
608.830	0.0164162
608.908	0.0164777
608.986	0.0162565
609.064	0.0164204
609.142	0.0164075
609.221	0.0164636
609.299	0.0162323
609.377	0.0163474
609.455	0.0163975
609.533	0.0162967
609.611	0.0162878
609.689	0.0163883
609.767	0.0164798
609.846	0.0162146
609.924	0.0163093
610.002	0.0163152
610.080	0.0164308
610.158	0.0163268
610.236	0.0163450
610.314	0.0162479
610.392	0.0162914
610.471	0.0162628
610.549	0.0162977
610.627	0.0161566
610.705	0.0163678
610.783	0.0162904
610.861	0.0163720
610.939	0.0161955
611.017	0.0163423
611.096	0.0163669
611.174	0.0162540
611.252	0.0162785
611.330	0.0162550
611.408	0.0162331
611.486	0.0163898
611.564	0.0164719
611.642	0.0165436
611.721	0.0163933
611.799	0.0164703
611.877	0.0165483
611.955	0.0166106
612.033	0.0164906
612.111	0.0165397
612.189	0.0165037
612.267	0.0165881
612.346	0.0163915
612.424	0.0164175
612.502	0.0165792
612.580	0.0164647
612.658	0.0163323
612.736	0.0163838
612.814	0.0163787
612.892	0.0162402
612.971	0.0162761
613.049	0.0162897
613.127	0.0162318
613.205	0.0161752
613.283	0.0161199
613.361	0.0162070
613.439	0.0160672
613.517	0.0160765
613.596	0.0160201
613.674	0.0162202
613.752	0.0161494
613.830	0.0162737
613.908	0.0163430
613.986	0.0163696
614.064	0.0161677
614.142	0.0161838
614.221	0.0161318
614.299	0.0161771
614.377	0.0162440
614.455	0.0162846
614.533	0.0163702
614.611	0.0163181
614.689	0.0163190
614.767	0.0164012
614.846	0.0162824
614.924	0.0164098
615.002	0.0164133
615.080	0.0164401
615.158	0.0164769
615.236	0.0164320
615.314	0.0163645
615.392	0.0164129
615.471	0.0164030
615.549	0.0163587
615.627	0.0165141
615.705	0.0163611
615.783	0.0164033
615.861	0.0166104
615.939	0.0165244
616.017	0.0162994
616.096	0.0164683
616.174	0.0164787
616.252	0.0164387
616.330	0.0163490
616.408	0.0164014
616.486	0.0161787
616.564	0.0162609
616.642	0.0163672
616.721	0.0163894
616.799	0.0162853
616.877	0.0163271
616.955	0.0164209
617.033	0.0164162
617.111	0.0163476
617.189	0.0163628
617.267	0.0162549
617.346	0.0161956
617.424	0.0163315
617.502	0.0161847
617.580	0.0164214
617.658	0.0163247
617.736	0.0164590
617.814	0.0164626
617.892	0.0164024
617.971	0.0164958
618.049	0.0164385
618.127	0.0163737
618.205	0.0164931
618.283	0.0167309
618.361	0.0166531
618.439	0.0166258
618.517	0.0166422
618.596	0.0166586
618.674	0.0167346
618.752	0.0168658
618.830	0.0167837
618.908	0.0166913
618.986	0.0168049
619.064	0.0167660
619.142	0.0166381
619.221	0.0166925
619.299	0.0168839
619.377	0.0168896
619.455	0.0168633
619.533	0.0167309
619.611	0.0168326
619.689	0.0169706
619.767	0.0167728
619.846	0.0167955
619.924	0.0169679
620.002	0.0168236
620.080	0.0168468
620.158	0.0167819
620.236	0.0168294
620.314	0.0169350
620.392	0.0168839
620.471	0.0167584
620.549	0.0168682
620.627	0.0168735
620.705	0.0168608
620.783	0.0168398
620.861	0.0167238
620.939	0.0167341
621.017	0.0166648
621.096	0.0166795
621.174	0.0167973
621.252	0.0168186
621.330	0.0166792
621.408	0.0167236
621.486	0.0167558
621.564	0.0166471
621.642	0.0166225
621.721	0.0166791
621.799	0.0168253
621.877	0.0166417
621.955	0.0165818
622.033	0.0166303
622.111	0.0167960
622.189	0.0166888
622.267	0.0165448
622.346	0.0165443
622.424	0.0167456
622.502	0.0167493
622.580	0.0166550
622.658	0.0166191
622.736	0.0165482
622.814	0.0168424
622.892	0.0166270
622.971	0.0165620
623.049	0.0164744
623.127	0.0165211
623.205	0.0166891
623.283	0.0166415
623.361	0.0165619
623.439	0.0164855
623.517	0.0164922
623.596	0.0164804
623.674	0.0165852
623.752	0.0165742
623.830	0.0165478
623.908	0.0165741
623.986	0.0163794
624.064	0.0164942
624.142	0.0164749
624.221	0.0164039
624.299	0.0164726
624.377	0.0164016
624.455	0.0163001
624.533	0.0163342
624.611	0.0162609
624.689	0.0163699
624.767	0.0162955
624.846	0.0163251
624.924	0.0164191
625.002	0.0162892
625.080	0.0163381
625.158	0.0162492
625.236	0.0164284
625.314	0.0163759
625.392	0.0163582
625.471	0.0163936
625.549	0.0163786
625.627	0.0163002
625.705	0.0163623
625.783	0.0163388
625.861	0.0163922
625.939	0.0163861
626.017	0.0163348
626.096	0.0164155
626.174	0.0164664
626.252	0.0163153
626.330	0.0165150
626.408	0.0164079
626.486	0.0163640
626.564	0.0164341
626.642	0.0164007
626.721	0.0164128
626.799	0.0166308
626.877	0.0165083
626.955	0.0164944
627.033	0.0164814
627.111	0.0165731
627.189	0.0165499
627.267	0.0164275
627.346	0.0165148
627.424	0.0165844
627.502	0.0164966
627.580	0.0163710
627.658	0.0164096
627.736	0.0164143
627.814	0.0164590
627.892	0.0164510
627.971	0.0165127
628.049	0.0163898
628.127	0.0163868
628.205	0.0163122
628.283	0.0163918
628.361	0.0164409
628.439	0.0164622
628.517	0.0164350
628.596	0.0162727
628.674	0.0164700
628.752	0.0164324
628.830	0.0163304
628.908	0.0163956
628.986	0.0164089
629.064	0.0163663
629.142	0.0163493
629.221	0.0164562
629.299	0.0164706
629.377	0.0163689
629.455	0.0164631
629.533	0.0164146
629.611	0.0164741
629.689	0.0164408
629.767	0.0164690
629.846	0.0163792
629.924	0.0163911
630.002	0.0163579
630.080	0.0163588
630.158	0.0163887
630.236	0.0164730
630.314	0.0165424
630.392	0.0164919
630.471	0.0164331
630.549	0.0165162
630.627	0.0165124
630.705	0.0164050
630.783	0.0164135
630.861	0.0165549
630.939	0.0164151
631.017	0.0164493
631.096	0.0165823
631.174	0.0165714
631.252	0.0165153
631.330	0.0164941
631.408	0.0164258
631.486	0.0164661
631.564	0.0164780
631.642	0.0164063
631.721	0.0164854
631.799	0.0165206
631.877	0.0163095
631.955	0.0163257
632.033	0.0163953
632.111	0.0162701
632.189	0.0162256
632.267	0.0164420
632.346	0.0164333
632.424	0.0163464
632.502	0.0163611
632.580	0.0163517
632.658	0.0164265
632.736	0.0164271
632.814	0.0164492
632.892	0.0163354
632.971	0.0163972
633.049	0.0164845
633.127	0.0163705
633.205	0.0165092
633.283	0.0165509
633.361	0.0163766
633.439	0.0164346
633.517	0.0164293
633.596	0.0164659
633.674	0.0163948
633.752	0.0163426
633.830	0.0164700
633.908	0.0163815
633.986	0.0163509
634.064	0.0163026
634.142	0.0164288
634.221	0.0162679
634.299	0.0164480
634.377	0.0162644
634.455	0.0163195
634.533	0.0163093
634.611	0.0163050
634.689	0.0162186
634.767	0.0162186
634.846	0.0162735
634.924	0.0162357
635.002	0.0163075
635.080	0.0161961
635.158	0.0161025
635.236	0.0160493
635.314	0.0161922
635.392	0.0161633
635.471	0.0160756
635.549	0.0160079
635.627	0.0162706
635.705	0.0160754
635.783	0.0162289
635.861	0.0162228
635.939	0.0161191
636.017	0.0160963
636.096	0.0160030
636.174	0.0162923
636.252	0.0161824
636.330	0.0160979
636.408	0.0162696
636.486	0.0160600
636.564	0.0160374
636.642	0.0159988
636.721	0.0161076
636.799	0.0160449
636.877	0.0160394
636.955	0.0160744
637.033	0.0161246
637.111	0.0160416
637.189	0.0160629
637.267	0.0160389
637.346	0.0160341
637.424	0.0161732
637.502	0.0161159
637.580	0.0161614
637.658	0.0162751
637.736	0.0160418
637.814	0.0161552
637.892	0.0161228
637.971	0.0162120
638.049	0.0162894
638.127	0.0162215
638.205	0.0162244
638.283	0.0162270
638.361	0.0163264
638.439	0.0163215
638.517	0.0164265
638.596	0.0163696
638.674	0.0163972
638.752	0.0164378
638.830	0.0162873
638.908	0.0164158
638.986	0.0165581
639.064	0.0165137
639.142	0.0165810
639.221	0.0165651
639.299	0.0164445
639.377	0.0164839
639.455	0.0167340
639.533	0.0165307
639.611	0.0166229
639.689	0.0167091
639.767	0.0167653
639.846	0.0166956
639.924	0.0166785
640.002	0.0166620
640.080	0.0168871
640.158	0.0167897
640.236	0.0167988
640.314	0.0168314
640.392	0.0167653
640.471	0.0168455
640.549	0.0168862
640.627	0.0169234
640.705	0.0168968
640.783	0.0169754
640.861	0.0169630
640.939	0.0168681
641.017	0.0171125
641.096	0.0169557
641.174	0.0169295
641.252	0.0169385
641.330	0.0170193
641.408	0.0169497
641.486	0.0169170
641.564	0.0170270
641.642	0.0169098
641.721	0.0168616
641.799	0.0168891
641.877	0.0169955
641.955	0.0167933
642.033	0.0167557
642.111	0.0169052
642.189	0.0169559
642.267	0.0168913
642.346	0.0167843
642.424	0.0167356
642.502	0.0168309
642.580	0.0166801
642.658	0.0166587
642.736	0.0168206
642.814	0.0167725
642.892	0.0167755
642.971	0.0167267
643.049	0.0165987
643.127	0.0166859
643.205	0.0166920
643.283	0.0165655
643.361	0.0167091
643.439	0.0166716
643.517	0.0166143
643.596	0.0166116
643.674	0.0166445
643.752	0.0166032
643.830	0.0166921
643.908	0.0165357
643.986	0.0165258
644.064	0.0166391
644.142	0.0165298
644.221	0.0164491
644.299	0.0165036
644.377	0.0165352
644.455	0.0165482
644.533	0.0164837
644.611	0.0165005
644.689	0.0165099
644.767	0.0165672
644.846	0.0166093
644.924	0.0164916
645.002	0.0165749
645.080	0.0163210
645.158	0.0164992
645.236	0.0165054
645.314	0.0165827
645.392	0.0164670
645.471	0.0165673
645.549	0.0163085
645.627	0.0166292
645.705	0.0164928
645.783	0.0165637
645.861	0.0165147
645.939	0.0165343
646.017	0.0163662
646.096	0.0164902
646.174	0.0166096
646.252	0.0164159
646.330	0.0164202
646.408	0.0165488
646.486	0.0165371
646.564	0.0162351
646.642	0.0165045
646.721	0.0164629
646.799	0.0164369
646.877	0.0163631
646.955	0.0165598
647.033	0.0164334
647.111	0.0165004
647.189	0.0164367
647.267	0.0163424
647.346	0.0163786
647.424	0.0165441
647.502	0.0164964
647.580	0.0164825
647.658	0.0164751
647.736	0.0163268
647.814	0.0165404
647.892	0.0163766
647.971	0.0163809
648.049	0.0163793
648.127	0.0164225
648.205	0.0164605
648.283	0.0164125
648.361	0.0164391
648.439	0.0164793
648.517	0.0163710
648.596	0.0165535
648.674	0.0165033
648.752	0.0165466
648.830	0.0166227
648.908	0.0166103
648.986	0.0164989
649.064	0.0165761
649.142	0.0165826
649.221	0.0166656
649.299	0.0165707
649.377	0.0166718
649.455	0.0165453
649.533	0.0166758
649.611	0.0166509
649.689	0.0165432
649.767	0.0165926
649.846	0.0165644
649.924	0.0165911
650.002	0.0165860
650.080	0.0165202
650.158	0.0165932
650.236	0.0165352
650.314	0.0165837
650.392	0.0166776
650.471	0.0166414
650.549	0.0166447
650.627	0.0165497
650.705	0.0164159
650.783	0.0164923
650.861	0.0164777
650.939	0.0163983
651.017	0.0164329
651.096	0.0164991
651.174	0.0166063
651.252	0.0164825
651.330	0.0163882
651.408	0.0163656
651.486	0.0165979
651.564	0.0165420
651.642	0.0165416
651.721	0.0164420
651.799	0.0164583
651.877	0.0165345
651.955	0.0164781
652.033	0.0163411
652.111	0.0163371
652.189	0.0165217
652.267	0.0163483
652.346	0.0163470
652.424	0.0163463
652.502	0.0162819
652.580	0.0162851
652.658	0.0163591
652.736	0.0163229
652.814	0.0163010
652.892	0.0162063
652.971	0.0162197
653.049	0.0163321
653.127	0.0163245
653.205	0.0162783
653.283	0.0163553
653.361	0.0162605
653.439	0.0162217
653.517	0.0162121
653.596	0.0162173
653.674	0.0162337
653.752	0.0162450
653.830	0.0161791
653.908	0.0162567
653.986	0.0163252
654.064	0.0161979
654.142	0.0162622
654.221	0.0162069
654.299	0.0161879
654.377	0.0162154
654.455	0.0163393
654.533	0.0162675
654.611	0.0162548
654.689	0.0161818
654.767	0.0163601
654.846	0.0162743
654.924	0.0161235
655.002	0.0161118
655.080	0.0162503
655.158	0.0162249
655.236	0.0162257
655.314	0.0162016
655.392	0.0161724
655.471	0.0161129
655.549	0.0160661
655.627	0.0162159
655.705	0.0161162
655.783	0.0161787
655.861	0.0162634
655.939	0.0161627
656.017	0.0161421
656.096	0.0160778
656.174	0.0162167
656.252	0.0161208
656.330	0.0162021
656.408	0.0162440
656.486	0.0162334
656.564	0.0161876
656.642	0.0163272
656.721	0.0162510
656.799	0.0161927
656.877	0.0161153
656.955	0.0163346
657.033	0.0164074
657.111	0.0162613
657.189	0.0162900
657.267	0.0164037
657.346	0.0162720
657.424	0.0163631
657.502	0.0163177
657.580	0.0162362
657.658	0.0163811
657.736	0.0163461
657.814	0.0162138
657.892	0.0164324
657.971	0.0162659
658.049	0.0163110
658.127	0.0163766
658.205	0.0163894
658.283	0.0163644
658.361	0.0164027
658.439	0.0164532
658.517	0.0163858
658.596	0.0162783
658.674	0.0163180
658.752	0.0162431
658.830	0.0163423
658.908	0.0162986
658.986	0.0163920
659.064	0.0163636
659.142	0.0163144
659.221	0.0163564
659.299	0.0162479
659.377	0.0162247
659.455	0.0163885
659.533	0.0164187
659.611	0.0163969
659.689	0.0163256
659.767	0.0163865
659.846	0.0164173
659.924	0.0163522
660.002	0.0161358
660.080	0.0162927
660.158	0.0163998
660.236	0.0161980
660.314	0.0161546
660.392	0.0162779
660.471	0.0160887
660.549	0.0162041
660.627	0.0162313
660.705	0.0161535
660.783	0.0162730
660.861	0.0161745
660.939	0.0161427
661.017	0.0164506
661.096	0.0162917
661.174	0.0162195
661.252	0.0164071
661.330	0.0162446
661.408	0.0162908
661.486	0.0164569
661.564	0.0163129
661.642	0.0162309
661.721	0.0163240
661.799	0.0164290
661.877	0.0163628
661.955	0.0164245
662.033	0.0163357
662.111	0.0165948
662.189	0.0165446
662.267	0.0165012
662.346	0.0165879
662.424	0.0164871
662.502	0.0164991
662.580	0.0165635
662.658	0.0163385
662.736	0.0164084
662.814	0.0164415
662.892	0.0164654
662.971	0.0165348
663.049	0.0164363
663.127	0.0163982
663.205	0.0165094
663.283	0.0164506
663.361	0.0164164
663.439	0.0165521
663.517	0.0164252
663.596	0.0165060
663.674	0.0165076
663.752	0.0166545
663.830	0.0163778
663.908	0.0164814
663.986	0.0167100
664.064	0.0165747
664.142	0.0164893
664.221	0.0166319
664.299	0.0167315
664.377	0.0166353
664.455	0.0166912
664.533	0.0167148
664.611	0.0166158
664.689	0.0166122
664.767	0.0166861
664.846	0.0168919
664.924	0.0167413
665.002	0.0166086
665.080	0.0167802
665.158	0.0167600
665.236	0.0167831
665.314	0.0168103
665.392	0.0168224
665.471	0.0167266
665.549	0.0168955
665.627	0.0168160
665.705	0.0168434
665.783	0.0168838
665.861	0.0168105
665.939	0.0168079
666.017	0.0169116
666.096	0.0169480
666.174	0.0168191
666.252	0.0168302
666.330	0.0167123
666.408	0.0169055
666.486	0.0168645
666.564	0.0168147
666.642	0.0169924
666.721	0.0169184
666.799	0.0168640
666.877	0.0168953
666.955	0.0169080
667.033	0.0169229
667.111	0.0168661
667.189	0.0168417
667.267	0.0169299
667.346	0.0168505
667.424	0.0167210
667.502	0.0169124
667.580	0.0168781
667.658	0.0168380
667.736	0.0168601
667.814	0.0167354
667.892	0.0167948
667.971	0.0168583
668.049	0.0168050
668.127	0.0167184
668.205	0.0167944
668.283	0.0168022
668.361	0.0167549
668.439	0.0167391
668.517	0.0167685
668.596	0.0167818
668.674	0.0167113
668.752	0.0167503
668.830	0.0167009
668.908	0.0164985
668.986	0.0167201
669.064	0.0165909
669.142	0.0166328
669.221	0.0164330
669.299	0.0166065
669.377	0.0165348
669.455	0.0165401
669.533	0.0164258
669.611	0.0165266
669.689	0.0164015
669.767	0.0164566
669.846	0.0164578
669.924	0.0164912
670.002	0.0163690
670.080	0.0163464
670.158	0.0163174
670.236	0.0163210
670.314	0.0163040
670.392	0.0163531
670.471	0.0163876
670.549	0.0163309
670.627	0.0162967
670.705	0.0164310
670.783	0.0162201
670.861	0.0162214
670.939	0.0162920
671.017	0.0162959
671.096	0.0162337
671.174	0.0164328
671.252	0.0162808
671.330	0.0163468
671.408	0.0163611
671.486	0.0163783
671.564	0.0163988
671.642	0.0163412
671.721	0.0164597
671.799	0.0163918
671.877	0.0164219
671.955	0.0163438
672.033	0.0164568
672.111	0.0165196
672.189	0.0163891
672.267	0.0164080
672.346	0.0164925
672.424	0.0163764
672.502	0.0163459
672.580	0.0164211
672.658	0.0164417
672.736	0.0163432
672.814	0.0164867
672.892	0.0164229
672.971	0.0163261
673.049	0.0162585
673.127	0.0162929
673.205	0.0162170
673.283	0.0161506
673.361	0.0162827
673.439	0.0163400
673.517	0.0163770
673.596	0.0162363
673.674	0.0162101
673.752	0.0162868
673.830	0.0163021
673.908	0.0162076
673.986	0.0161616
674.064	0.0162074
674.142	0.0163118
674.221	0.0163509
674.299	0.0162701
674.377	0.0161583
674.455	0.0162051
674.533	0.0161521
674.611	0.0162901
674.689	0.0162727
674.767	0.0163674
674.846	0.0163196
674.924	0.0161363
675.002	0.0161671
675.080	0.0163579
675.158	0.0163355
675.236	0.0162584
675.314	0.0163836
675.392	0.0163374
675.471	0.0165034
675.549	0.0165070
675.627	0.0165923
675.705	0.0166011
675.783	0.0164817
675.861	0.0166394
675.939	0.0166807
676.017	0.0167870
676.096	0.0167583
676.174	0.0168083
676.252	0.0170399
676.330	0.0169135
676.408	0.0168284
676.486	0.0169762
676.564	0.0170031
676.642	0.0169294
676.721	0.0169765
676.799	0.0169632
676.877	0.0169292
676.955	0.0169499
677.033	0.0168889
677.111	0.0169909
677.189	0.0168526
677.267	0.0168722
677.346	0.0168742
677.424	0.0169158
677.502	0.0168139
677.580	0.0167667
677.658	0.0167489
677.736	0.0167316
677.814	0.0169116
677.892	0.0167756
677.971	0.0166834
678.049	0.0166402
678.127	0.0166042
678.205	0.0166210
678.283	0.0166351
678.361	0.0166578
678.439	0.0165248
678.517	0.0166631
678.596	0.0166692
678.674	0.0165311
678.752	0.0166881
678.830	0.0165392
678.908	0.0166367
678.986	0.0165691
679.064	0.0166593
679.142	0.0165356
679.221	0.0166557
679.299	0.0165883
679.377	0.0166223
679.455	0.0167992
679.533	0.0166711
679.611	0.0166401
679.689	0.0166270
679.767	0.0165671
679.846	0.0167449
679.924	0.0165545
680.002	0.0165675
680.080	0.0166595
680.158	0.0166493
680.236	0.0165857
680.314	0.0166620
680.392	0.0166232
680.471	0.0166280
680.549	0.0165151
680.627	0.0165585
680.705	0.0166486
680.783	0.0166508
680.861	0.0165469
680.939	0.0164947
681.017	0.0164561
681.096	0.0165170
681.174	0.0165607
681.252	0.0163573
681.330	0.0165526
681.408	0.0165451
681.486	0.0164332
681.564	0.0164149
681.642	0.0163706
681.721	0.0164528
681.799	0.0163882
681.877	0.0163592
681.955	0.0164274
682.033	0.0164714
682.111	0.0163019
682.189	0.0162852
682.267	0.0161637
682.346	0.0162782
682.424	0.0163730
682.502	0.0162528
682.580	0.0162743
682.658	0.0161723
682.736	0.0161633
682.814	0.0161591
682.892	0.0163664
682.971	0.0161758
683.049	0.0162188
683.127	0.0161974
683.205	0.0162611
683.283	0.0162830
683.361	0.0162701
683.439	0.0161686
683.517	0.0162361
683.596	0.0162577
683.674	0.0162994
683.752	0.0161750
683.830	0.0162812
683.908	0.0163062
683.986	0.0161773
684.064	0.0162954
684.142	0.0161410
684.221	0.0161558
684.299	0.0162407
684.377	0.0161700
684.455	0.0162036
684.533	0.0163198
684.611	0.0162838
684.689	0.0161381
684.767	0.0161809
684.846	0.0162334
684.924	0.0162238
685.002	0.0161556
685.080	0.0162575
685.158	0.0162617
685.236	0.0161926
685.314	0.0162754
685.392	0.0163456
685.471	0.0163600
685.549	0.0164041
685.627	0.0164602
685.705	0.0164534
685.783	0.0164342
685.861	0.0164144
685.939	0.0165482
686.017	0.0164521
686.096	0.0165138
686.174	0.0164426
686.252	0.0165480
686.330	0.0166642
686.408	0.0164822
686.486	0.0165393
686.564	0.0165179
686.642	0.0165330
686.721	0.0165812
686.799	0.0165476
686.877	0.0165113
686.955	0.0165023
687.033	0.0164706
687.111	0.0164512
687.189	0.0165514
687.267	0.0164516
687.346	0.0166387
687.424	0.0166121
687.502	0.0165018
687.580	0.0165634
687.658	0.0166014
687.736	0.0165871
687.814	0.0168448
687.892	0.0168101
687.971	0.0167618
688.049	0.0166238
688.127	0.0167912
688.205	0.0168633
688.283	0.0167707
688.361	0.0167799
688.439	0.0167149
688.517	0.0167402
688.596	0.0168379
688.674	0.0166727
688.752	0.0166076
688.830	0.0167640
688.908	0.0167278
688.986	0.0165637
689.064	0.0165833
689.142	0.0166586
689.221	0.0165920
689.299	0.0164984
689.377	0.0165298
689.455	0.0166740
689.533	0.0165924
689.611	0.0164954
689.689	0.0165287
689.767	0.0165991
689.846	0.0164719
689.924	0.0165865
690.002	0.0165797
690.080	0.0164839
690.158	0.0165938
690.236	0.0166685
690.314	0.0165717
690.392	0.0164704
690.471	0.0165472
690.549	0.0167922
690.627	0.0166022
690.705	0.0165884
690.783	0.0165362
690.861	0.0165773
690.939	0.0164326
691.017	0.0165770
691.096	0.0166354
691.174	0.0167537
691.252	0.0166481
691.330	0.0165437
691.408	0.0166449
691.486	0.0166204
691.564	0.0165992
691.642	0.0166770
691.721	0.0166737
691.799	0.0165952
691.877	0.0166304
691.955	0.0167618
692.033	0.0166771
692.111	0.0166460
692.189	0.0166454
692.267	0.0166573
692.346	0.0166584
692.424	0.0167222
692.502	0.0166403
692.580	0.0166478
692.658	0.0166161
692.736	0.0166560
692.814	0.0167267
692.892	0.0166885
692.971	0.0166179
693.049	0.0165859
693.127	0.0166050
693.205	0.0166196
693.283	0.0165535
693.361	0.0166263
693.439	0.0164175
693.517	0.0164198
693.596	0.0164194
693.674	0.0164166
693.752	0.0164495
693.830	0.0165302
693.908	0.0165224
693.986	0.0164056
694.064	0.0164848
694.142	0.0164259
694.221	0.0164241
694.299	0.0165761
694.377	0.0165781
694.455	0.0165703
694.533	0.0166340
694.611	0.0167321
694.689	0.0168609
694.767	0.0166779
694.846	0.0167080
694.924	0.0166363
695.002	0.0168798
695.080	0.0166336
695.158	0.0165435
695.236	0.0167550
695.314	0.0167963
695.392	0.0166969
695.471	0.0166050
695.549	0.0165122
695.627	0.0165772
695.705	0.0163660
695.783	0.0163647
695.861	0.0165041
695.939	0.0163673
696.017	0.0163510
696.096	0.0162305
696.174	0.0162081
696.252	0.0163237
696.330	0.0161809
696.408	0.0161298
696.486	0.0161131
696.564	0.0162563
696.642	0.0162672
696.721	0.0163251
696.799	0.0162935
696.877	0.0161686
696.955	0.0162363
697.033	0.0164383
697.111	0.0163425
697.189	0.0164390
697.267	0.0164206
697.346	0.0164806
697.424	0.0164747
697.502	0.0164371
697.580	0.0163368
697.658	0.0163831
697.736	0.0164397
697.814	0.0164979
697.892	0.0164012
697.971	0.0163134
698.049	0.0165140
698.127	0.0165605
698.205	0.0163100
698.283	0.0164752
698.361	0.0163631
698.439	0.0163265
698.517	0.0164664
698.596	0.0163455
698.674	0.0164103
698.752	0.0164136
698.830	0.0163263
698.908	0.0163461
698.986	0.0163875
699.064	0.0163343
699.142	0.0163760
699.221	0.0164736
699.299	0.0163477
699.377	0.0164861
699.455	0.0164967
699.533	0.0164164
699.611	0.0164984
699.689	0.0163580
699.767	0.0162696
699.846	0.0163500
699.924	0.0165974
700.002	0.0164799
700.080	0.0164400
700.158	0.0165144
700.236	0.0164893
700.314	0.0164101
700.392	0.0164831
700.471	0.0165857
700.549	0.0164162
700.627	0.0166194
700.705	0.0166016
700.783	0.0165377
700.861	0.0166330
700.939	0.0166117
701.017	0.0166246
701.096	0.0168156
701.174	0.0166422
701.252	0.0166695
701.330	0.0166951
701.408	0.0165591
701.486	0.0165873
701.564	0.0166151
701.642	0.0165783
701.721	0.0164718
701.799	0.0165825
701.877	0.0164144
701.955	0.0165825
702.033	0.0166228
702.111	0.0163810
702.189	0.0164014
702.267	0.0163364
702.346	0.0163834
702.424	0.0165704
702.502	0.0164015
702.580	0.0165205
702.658	0.0164240
702.736	0.0165945
702.814	0.0165569
702.892	0.0165570
702.971	0.0163475
703.049	0.0164447
703.127	0.0164799
703.205	0.0163335
703.283	0.0164025
703.361	0.0162782
703.439	0.0163467
703.517	0.0163426
703.596	0.0164264
703.674	0.0164024
703.752	0.0163241
703.830	0.0163459
703.908	0.0163030
703.986	0.0164791
704.064	0.0164511
704.142	0.0164478
704.221	0.0163515
704.299	0.0163832
704.377	0.0163725
704.455	0.0166070
704.533	0.0165205
704.611	0.0165541
704.689	0.0164198
704.767	0.0165047
704.846	0.0164842
704.924	0.0165800
705.002	0.0165797
705.080	0.0164970
705.158	0.0165544
705.236	0.0164866
705.314	0.0164478
705.392	0.0164777
705.471	0.0162997
705.549	0.0162608
705.627	0.0163511
705.705	0.0163296
705.783	0.0162446
705.861	0.0162532
705.939	0.0161873
706.017	0.0162991
706.096	0.0162199
706.174	0.0161074
706.252	0.0161746
706.330	0.0159802
706.408	0.0161392
706.486	0.0161416
706.564	0.0161351
706.642	0.0161016
706.721	0.0160759
706.799	0.0161306
706.877	0.0160354
706.955	0.0161294
707.033	0.0159209
707.111	0.0160956
707.189	0.0161174
707.267	0.0161069
707.346	0.0161102
707.424	0.0162358
707.502	0.0162318
707.580	0.0161665
707.658	0.0161142
707.736	0.0160138
707.814	0.0160178
707.892	0.0160989
707.971	0.0161624
708.049	0.0159857
708.127	0.0162076
708.205	0.0161375
708.283	0.0160844
708.361	0.0161607
708.439	0.0160754
708.517	0.0160210
708.596	0.0161801
708.674	0.0162091
708.752	0.0159731
708.830	0.0163377
708.908	0.0162424
708.986	0.0162575
709.064	0.0162141
709.142	0.0163168
709.221	0.0163766
709.299	0.0163292
709.377	0.0163815
709.455	0.0163915
709.533	0.0164542
709.611	0.0165114
709.689	0.0164404
709.767	0.0164955
709.846	0.0164792
709.924	0.0164559
710.002	0.0163629
710.080	0.0165127
710.158	0.0165306
710.236	0.0164323
710.314	0.0164980
710.392	0.0164323
710.471	0.0164912
710.549	0.0164530
710.627	0.0164223
710.705	0.0165536
710.783	0.0164156
710.861	0.0166072
710.939	0.0165615
711.017	0.0165076
711.096	0.0166295
711.174	0.0165154
711.252	0.0164630
711.330	0.0164737
711.408	0.0163986
711.486	0.0163050
711.564	0.0162512
711.642	0.0162534
711.721	0.0163490
711.799	0.0163345
711.877	0.0163660
711.955	0.0163123
712.033	0.0163542
712.111	0.0162930
712.189	0.0163531
712.267	0.0164249
712.346	0.0164153
712.424	0.0164640
712.502	0.0164704
712.580	0.0164265
712.658	0.0164087
712.736	0.0164058
712.814	0.0165372
712.892	0.0164906
712.971	0.0164931
713.049	0.0166290
713.127	0.0166265
713.205	0.0165029
713.283	0.0164803
713.361	0.0164235
713.439	0.0166249
713.517	0.0165495
713.596	0.0165526
713.674	0.0165867
713.752	0.0164556
713.830	0.0165475
713.908	0.0165717
713.986	0.0165614
714.064	0.0164745
714.142	0.0166450
714.221	0.0165858
714.299	0.0164181
714.377	0.0165770
714.455	0.0165224
714.533	0.0162786
714.611	0.0165874
714.689	0.0164458
714.767	0.0163309
714.846	0.0163544
714.924	0.0164309
715.002	0.0163475
715.080	0.0162939
715.158	0.0163596
715.236	0.0164246
715.314	0.0162019
715.392	0.0162811
715.471	0.0163165
715.549	0.0162473
715.627	0.0163010
715.705	0.0162537
715.783	0.0162939
715.861	0.0162769
715.939	0.0162815
716.017	0.0163184
716.096	0.0162164
716.174	0.0163599
716.252	0.0162536
716.330	0.0162745
716.408	0.0163347
716.486	0.0162561
716.564	0.0161605
716.642	0.0163400
716.721	0.0163503
716.799	0.0163515
716.877	0.0163844
716.955	0.0164725
717.033	0.0164745
717.111	0.0165076
717.189	0.0165117
717.267	0.0166023
717.346	0.0165685
717.424	0.0165672
717.502	0.0165481
717.580	0.0165534
717.658	0.0167030
717.736	0.0167871
717.814	0.0168005
717.892	0.0165882
717.971	0.0167017
718.049	0.0167455
718.127	0.0165202
718.205	0.0165258
718.283	0.0165879
718.361	0.0165475
718.439	0.0164785
718.517	0.0163983
718.596	0.0164209
718.674	0.0163852
718.752	0.0164233
718.830	0.0165009
718.908	0.0164691
718.986	0.0163146
719.064	0.0163990
719.142	0.0162424
719.221	0.0164501
719.299	0.0164649
719.377	0.0163805
719.455	0.0164005
719.533	0.0163963
719.611	0.0164176
719.689	0.0164703
719.767	0.0164576
719.846	0.0163728
719.924	0.0163416
720.002	0.0162756
720.080	0.0163510
720.158	0.0164275
720.236	0.0164711
720.314	0.0163635
720.392	0.0162942
720.471	0.0162846
720.549	0.0164985
720.627	0.0163532
720.705	0.0164392
720.783	0.0164580
720.861	0.0163282
720.939	0.0163704
721.017	0.0163720
721.096	0.0163651
721.174	0.0164332
721.252	0.0164056
721.330	0.0164511
721.408	0.0164404
721.486	0.0163976
721.564	0.0163473
721.642	0.0163416
721.721	0.0162891
721.799	0.0164445
721.877	0.0163355
721.955	0.0162688
722.033	0.0163644
722.111	0.0162737
722.189	0.0163360
722.267	0.0162526
722.346	0.0163600
722.424	0.0162724
722.502	0.0164587
722.580	0.0163226
722.658	0.0163300
722.736	0.0162998
722.814	0.0163181
722.892	0.0164105
722.971	0.0163651
723.049	0.0164517
723.127	0.0163210
723.205	0.0162781
723.283	0.0164454
723.361	0.0164874
723.439	0.0163725
723.517	0.0164706
723.596	0.0162836
723.674	0.0164189
723.752	0.0162209
723.830	0.0163230
723.908	0.0163159
723.986	0.0163628
724.064	0.0163073
724.142	0.0163612
724.221	0.0162642
724.299	0.0162951
724.377	0.0163787
724.455	0.0163023
724.533	0.0163548
724.611	0.0164214
724.689	0.0163300
724.767	0.0162038
724.846	0.0162939
724.924	0.0161369
725.002	0.0161349
725.080	0.0161896
725.158	0.0162162
725.236	0.0162597
725.314	0.0162857
725.392	0.0161909
725.471	0.0161053
725.549	0.0159827
725.627	0.0161175
725.705	0.0160819
725.783	0.0162652
725.861	0.0162872
725.939	0.0160387
726.017	0.0162092
726.096	0.0165223
726.174	0.0162146
726.252	0.0162862
726.330	0.0163470
726.408	0.0162952
726.486	0.0164024
726.564	0.0162389
726.642	0.0162920
726.721	0.0163598
726.799	0.0163871
726.877	0.0163596
726.955	0.0163177
727.033	0.0162968
727.111	0.0163602
727.189	0.0162056
727.267	0.0163029
727.346	0.0162555
727.424	0.0162181
727.502	0.0162908
727.580	0.0163969
727.658	0.0163258
727.736	0.0161122
727.814	0.0163783
727.892	0.0162968
727.971	0.0164569
728.049	0.0161518
728.127	0.0164349
728.205	0.0163967
728.283	0.0164639
728.361	0.0162406
728.439	0.0163595
728.517	0.0165141
728.596	0.0163947
728.674	0.0164260
728.752	0.0163911
728.830	0.0165187
728.908	0.0163744
728.986	0.0163620
729.064	0.0164024
729.142	0.0164240
729.221	0.0164233
729.299	0.0165070
729.377	0.0164042
729.455	0.0164549
729.533	0.0165115
729.611	0.0164319
729.689	0.0163889
729.767	0.0164708
729.846	0.0164655
729.924	0.0163421
730.002	0.0164400
730.080	0.0164993
730.158	0.0164879
730.236	0.0163531
730.314	0.0164081
730.392	0.0163845
730.471	0.0163783
730.549	0.0164829
730.627	0.0163433
730.705	0.0164880
730.783	0.0165074
730.861	0.0164764
730.939	0.0164536
731.017	0.0163698
731.096	0.0165187
731.174	0.0164288
731.252	0.0164394
731.330	0.0164247
731.408	0.0162654
731.486	0.0162131
731.564	0.0162189
731.642	0.0162280
731.721	0.0162614
731.799	0.0162245
731.877	0.0162584
731.955	0.0162567
732.033	0.0162535
732.111	0.0162785
732.189	0.0162158
732.267	0.0162637
732.346	0.0163195
732.424	0.0162740
732.502	0.0163874
732.580	0.0164074
732.658	0.0165515
732.736	0.0165021
732.814	0.0164848
732.892	0.0165046
732.971	0.0165047
733.049	0.0165199
733.127	0.0163927
733.205	0.0164936
733.283	0.0165130
733.361	0.0165488
733.439	0.0165516
733.517	0.0164336
733.596	0.0166216
733.674	0.0164423
733.752	0.0163825
733.830	0.0165141
733.908	0.0165244
733.986	0.0164913
734.064	0.0165554
734.142	0.0166199
734.221	0.0165681
734.299	0.0166638
734.377	0.0167397
734.455	0.0165670
734.533	0.0166848
734.611	0.0168510
734.689	0.0168010
734.767	0.0166440
734.846	0.0166335
734.924	0.0167515
735.002	0.0169337
735.080	0.0167484
735.158	0.0167165
735.236	0.0166524
735.314	0.0165160
735.392	0.0165797
735.471	0.0166593
735.549	0.0166025
735.627	0.0164999
735.705	0.0163780
735.783	0.0162179
735.861	0.0164054
735.939	0.0162605
736.017	0.0162426
736.096	0.0161674
736.174	0.0161005
736.252	0.0161092
736.330	0.0161589
736.408	0.0161814
736.486	0.0162293
736.564	0.0161554
736.642	0.0161241
736.721	0.0162271
736.799	0.0163042
736.877	0.0163203
736.955	0.0162658
737.033	0.0162796
737.111	0.0164567
737.189	0.0164145
737.267	0.0162641
737.346	0.0165415
737.424	0.0166085
737.502	0.0165864
737.580	0.0165939
737.658	0.0165593
737.736	0.0168057
737.814	0.0168540
737.892	0.0166345
737.971	0.0168825
738.049	0.0168500
738.127	0.0166994
738.205	0.0166537
738.283	0.0167542
738.361	0.0167057
738.439	0.0166998
738.517	0.0168182
738.596	0.0166824
738.674	0.0166183
738.752	0.0164663
738.830	0.0165865
738.908	0.0166204
738.986	0.0164330
739.064	0.0164006
739.142	0.0164027
739.221	0.0162620
739.299	0.0164040
739.377	0.0164378
739.455	0.0163186
739.533	0.0163087
739.611	0.0161719
739.689	0.0162180
739.767	0.0161989
739.846	0.0162691
739.924	0.0161558
740.002	0.0161591
740.080	0.0161420
740.158	0.0162515
740.236	0.0162880
740.314	0.0161293
740.392	0.0161342
740.471	0.0163771
740.549	0.0163128
740.627	0.0164365
740.705	0.0162946
740.783	0.0164990
740.861	0.0163259
740.939	0.0164678
741.017	0.0165965
741.096	0.0166730
741.174	0.0165793
741.252	0.0166502
741.330	0.0167111
741.408	0.0168273
741.486	0.0167758
741.564	0.0167616
741.642	0.0167400
741.721	0.0167250
741.799	0.0168060
741.877	0.0168095
741.955	0.0168469
742.033	0.0166087
742.111	0.0166005
742.189	0.0165988
742.267	0.0166190
742.346	0.0164686
742.424	0.0163828
742.502	0.0164747
742.580	0.0166036
742.658	0.0164674
742.736	0.0165440
742.814	0.0164296
742.892	0.0164270
742.971	0.0164484
743.049	0.0165359
743.127	0.0164801
743.205	0.0162543
743.283	0.0163921
743.361	0.0164288
743.439	0.0164267
743.517	0.0164532
743.596	0.0163363
743.674	0.0162985
743.752	0.0163160
743.830	0.0162940
743.908	0.0161494
743.986	0.0160698
744.064	0.0162665
744.142	0.0162874
744.221	0.0162170
744.299	0.0161649
744.377	0.0162404
744.455	0.0162249
744.533	0.0163680
744.611	0.0161594
744.689	0.0163014
744.767	0.0163356
744.846	0.0163012
744.924	0.0164003
745.002	0.0164413
745.080	0.0164742
745.158	0.0166148
745.236	0.0165924
745.314	0.0166904
745.392	0.0167039
745.471	0.0166325
745.549	0.0167671
745.627	0.0167135
745.705	0.0167633
745.783	0.0167873
745.861	0.0169335
745.939	0.0169930
746.017	0.0167360
746.096	0.0167177
746.174	0.0166627
746.252	0.0168821
746.330	0.0167756
746.408	0.0166819
746.486	0.0166039
746.564	0.0166405
746.642	0.0167175
746.721	0.0165462
746.799	0.0165662
746.877	0.0164643
746.955	0.0165200
747.033	0.0164937
747.111	0.0164314
747.189	0.0163925
747.267	0.0163918
747.346	0.0162924
747.424	0.0162831
747.502	0.0161726
747.580	0.0162201
747.658	0.0163024
747.736	0.0163020
747.814	0.0161797
747.892	0.0161689
747.971	0.0161697
748.049	0.0162498
748.127	0.0162508
748.205	0.0162309
748.283	0.0162218
748.361	0.0163625
748.439	0.0161484
748.517	0.0162791
748.596	0.0163184
748.674	0.0163589
748.752	0.0162502
748.830	0.0162913
748.908	0.0163506
748.986	0.0163512
749.064	0.0163709
749.142	0.0164408
749.221	0.0163749
749.299	0.0163290
749.377	0.0164586
749.455	0.0165144
749.533	0.0164783
749.611	0.0166325
749.689	0.0165104
749.767	0.0166016
749.846	0.0166212
749.924	0.0165833
750.002	0.0166667
750.080	0.0166164
750.158	0.0167156
750.236	0.0165758
750.314	0.0165530
750.392	0.0165822
750.471	0.0168136
750.549	0.0167104
750.627	0.0166964
750.705	0.0166058
750.783	0.0166239
750.861	0.0165151
750.939	0.0164268
751.017	0.0164081
751.096	0.0163040
751.174	0.0163626
751.252	0.0162437
751.330	0.0162787
751.408	0.0162458
751.486	0.0163190
751.564	0.0161563
751.642	0.0160987
751.721	0.0163783
751.799	0.0162737
751.877	0.0162635
751.955	0.0163818
752.033	0.0163180
752.111	0.0164714
752.189	0.0166120
752.267	0.0165775
752.346	0.0166404
752.424	0.0166646
752.502	0.0168650
752.580	0.0168413
752.658	0.0169404
752.736	0.0168565
752.814	0.0170018
752.892	0.0170285
752.971	0.0168090
753.049	0.0169037
753.127	0.0170412
753.205	0.0170283
753.283	0.0169450
753.361	0.0169946
753.439	0.0170891
753.517	0.0170451
753.596	0.0170740
753.674	0.0170065
753.752	0.0170408
753.830	0.0172629
753.908	0.0170515
753.986	0.0170559
754.064	0.0170299
754.142	0.0170766
754.221	0.0170727
754.299	0.0169467
754.377	0.0170131
754.455	0.0169993
754.533	0.0168814
754.611	0.0168242
754.689	0.0169303
754.767	0.0167833
754.846	0.0167335
754.924	0.0166630
755.002	0.0167702
755.080	0.0165500
755.158	0.0165982
755.236	0.0164830
755.314	0.0164764
755.392	0.0163933
755.471	0.0164777
755.549	0.0163258
755.627	0.0164096
755.705	0.0163513
755.783	0.0163948
755.861	0.0164605
755.939	0.0164958
756.017	0.0164469
756.096	0.0166254
756.174	0.0165749
756.252	0.0165144
756.330	0.0166963
756.408	0.0166996
756.486	0.0167496
756.564	0.0166252
756.642	0.0166486
756.721	0.0168670
756.799	0.0169006
756.877	0.0166335
756.955	0.0165059
757.033	0.0166763
757.111	0.0167471
757.189	0.0166792
757.267	0.0166311
757.346	0.0165170
757.424	0.0164810
757.502	0.0164960
757.580	0.0164648
757.658	0.0163295
757.736	0.0164243
757.814	0.0165300
757.892	0.0166076
757.971	0.0163262
758.049	0.0163412
758.127	0.0164894
758.205	0.0164278
758.283	0.0165665
758.361	0.0163667
758.439	0.0164707
758.517	0.0162162
758.596	0.0164261
758.674	0.0165534
758.752	0.0163940
758.830	0.0163821
758.908	0.0162771
758.986	0.0162915
759.064	0.0163387
759.142	0.0162941
759.221	0.0162267
759.299	0.0162842
759.377	0.0162534
759.455	0.0163026
759.533	0.0163545
759.611	0.0163931
759.689	0.0163351
759.767	0.0163355
759.846	0.0163938
759.924	0.0164317
760.002	0.0165050
760.080	0.0163593
760.158	0.0165960
760.236	0.0164387
760.314	0.0164188
760.392	0.0165318
760.471	0.0165028
760.549	0.0164222
760.627	0.0165294
760.705	0.0165255
760.783	0.0165018
760.861	0.0164792
760.939	0.0164674
761.017	0.0163500
761.096	0.0163892
761.174	0.0165536
761.252	0.0165295
761.330	0.0164053
761.408	0.0162611
761.486	0.0162589
761.564	0.0162798
761.642	0.0164149
761.721	0.0163287
761.799	0.0162836
761.877	0.0162491
761.955	0.0162874
762.033	0.0164451
762.111	0.0164130
762.189	0.0164070
762.267	0.0165011
762.346	0.0165011
762.424	0.0165250
762.502	0.0165081
762.580	0.0165226
762.658	0.0165656
762.736	0.0165947
762.814	0.0166434
762.892	0.0166755
762.971	0.0166840
763.049	0.0166199
763.127	0.0165655
763.205	0.0164594
763.283	0.0167683
763.361	0.0164817
763.439	0.0165747
763.517	0.0165993
763.596	0.0165511
763.674	0.0164828
763.752	0.0163555
763.830	0.0164883
763.908	0.0164185
763.986	0.0163535
764.064	0.0163078
764.142	0.0163336
764.221	0.0163287
764.299	0.0163205
764.377	0.0163374
764.455	0.0164856
764.533	0.0164844
764.611	0.0165324
764.689	0.0164256
764.767	0.0164403
764.846	0.0165079
764.924	0.0165886
765.002	0.0164878
765.080	0.0165839
765.158	0.0165373
765.236	0.0166299
765.314	0.0165683
765.392	0.0166044
765.471	0.0164470
765.549	0.0165160
765.627	0.0166856
765.705	0.0164862
765.783	0.0166499
765.861	0.0164672
765.939	0.0165888
766.017	0.0166103
766.096	0.0167236
766.174	0.0165925
766.252	0.0167472
766.330	0.0165627
766.408	0.0167345
766.486	0.0166992
766.564	0.0166104
766.642	0.0165968
766.721	0.0166575
766.799	0.0166404
766.877	0.0166633
766.955	0.0167039
767.033	0.0166784
767.111	0.0165936
767.189	0.0165871
767.267	0.0166938
767.346	0.0165427
767.424	0.0164988
767.502	0.0164249
767.580	0.0164303
767.658	0.0164444
767.736	0.0163605
767.814	0.0164662
767.892	0.0163914
767.971	0.0165326
768.049	0.0165614
768.127	0.0164783
768.205	0.0164156
768.283	0.0165822
768.361	0.0165307
768.439	0.0165727
768.517	0.0165335
768.596	0.0166208
768.674	0.0167069
768.752	0.0166808
768.830	0.0168028
768.908	0.0168025
768.986	0.0169708
769.064	0.0169591
769.142	0.0170602
769.221	0.0170082
769.299	0.0170200
769.377	0.0169174
769.455	0.0170790
769.533	0.0169819
769.611	0.0169568
769.689	0.0169007
769.767	0.0167672
769.846	0.0169235
769.924	0.0168771
770.002	0.0167946
770.080	0.0165675
770.158	0.0166886
770.236	0.0167162
770.314	0.0167293
770.392	0.0166405
770.471	0.0165486
770.549	0.0163828
770.627	0.0164464
770.705	0.0165504
770.783	0.0165163
770.861	0.0164079
770.939	0.0164488
771.017	0.0162972
771.096	0.0164165
771.174	0.0164482
771.252	0.0162771
771.330	0.0161842
771.408	0.0163029
771.486	0.0163263
771.564	0.0162666
771.642	0.0161972
771.721	0.0161695
771.799	0.0161209
771.877	0.0161917
771.955	0.0161626
772.033	0.0160128
772.111	0.0160745
772.189	0.0160196
772.267	0.0159904
772.346	0.0162051
772.424	0.0160719
772.502	0.0160530
772.580	0.0160137
772.658	0.0159886
772.736	0.0161890
772.814	0.0161071
772.892	0.0160912
772.971	0.0161501
773.049	0.0161656
773.127	0.0161781
773.205	0.0162220
773.283	0.0161996
773.361	0.0163450
773.439	0.0162230
773.517	0.0163461
773.596	0.0162407
773.674	0.0163959
773.752	0.0164371
773.830	0.0165719
773.908	0.0165791
773.986	0.0165652
774.064	0.0165536
774.142	0.0166571
774.221	0.0165862
774.299	0.0165099
774.377	0.0163134
774.455	0.0165936
774.533	0.0164614
774.611	0.0165054
774.689	0.0165974
774.767	0.0164276
774.846	0.0163960
774.924	0.0164400
775.002	0.0163486
775.080	0.0164324
775.158	0.0164817
775.236	0.0164232
775.314	0.0165040
775.392	0.0163170
775.471	0.0164236
775.549	0.0164997
775.627	0.0164661
775.705	0.0164965
775.783	0.0166158
775.861	0.0166055
775.939	0.0165329
776.017	0.0165694
776.096	0.0165623
776.174	0.0166624
776.252	0.0167474
776.330	0.0164349
776.408	0.0165006
776.486	0.0165997
776.564	0.0165351
776.642	0.0166122
776.721	0.0165399
776.799	0.0165573
776.877	0.0164088
776.955	0.0163451
777.033	0.0165526
777.111	0.0165765
777.189	0.0163133
777.267	0.0163229
777.346	0.0165080
777.424	0.0164173
777.502	0.0164107
777.580	0.0162682
777.658	0.0163511
777.736	0.0164057
777.814	0.0162731
777.892	0.0162992
777.971	0.0163293
778.049	0.0164606
778.127	0.0163924
778.205	0.0163683
778.283	0.0164114
778.361	0.0165134
778.439	0.0165667
778.517	0.0163459
778.596	0.0164684
778.674	0.0166382
778.752	0.0165356
778.830	0.0166675
778.908	0.0166006
778.986	0.0166020
779.064	0.0166763
779.142	0.0166311
779.221	0.0168542
779.299	0.0167505
779.377	0.0167663
779.455	0.0167284
779.533	0.0167046
779.611	0.0166576
779.689	0.0166625
779.767	0.0167048
779.846	0.0168481
779.924	0.0167455
780.002	0.0167078
780.080	0.0167342
780.158	0.0166483
780.236	0.0166390
780.314	0.0165598
780.392	0.0167755
780.471	0.0167024
780.549	0.0166898
780.627	0.0165555
780.705	0.0165745
780.783	0.0166412
780.861	0.0166244
780.939	0.0166478
781.017	0.0164763
781.096	0.0166634
781.174	0.0166142
781.252	0.0164884
781.330	0.0165823
781.408	0.0164794
781.486	0.0164075
781.564	0.0163493
781.642	0.0163156
781.721	0.0164273
781.799	0.0163474
781.877	0.0164890
781.955	0.0163461
782.033	0.0162617
782.111	0.0164235
782.189	0.0162587
782.267	0.0164783
782.346	0.0163252
782.424	0.0163763
782.502	0.0164792
782.580	0.0165018
782.658	0.0165005
782.736	0.0162910
782.814	0.0163227
782.892	0.0163859
782.971	0.0164262
783.049	0.0164462
783.127	0.0163509
783.205	0.0163130
783.283	0.0162782
783.361	0.0163215
783.439	0.0163345
783.517	0.0163842
783.596	0.0163979
783.674	0.0164211
783.752	0.0163345
783.830	0.0164175
783.908	0.0163570
783.986	0.0162708
784.064	0.0162668
784.142	0.0163506
784.221	0.0162241
784.299	0.0163023
784.377	0.0164403
784.455	0.0165151
784.533	0.0161640
784.611	0.0161798
784.689	0.0163408
784.767	0.0163544
784.846	0.0164034
784.924	0.0164306
785.002	0.0163531
785.080	0.0162753
785.158	0.0162522
785.236	0.0162417
785.314	0.0162352
785.392	0.0163464
785.471	0.0164606
785.549	0.0163491
785.627	0.0162039
785.705	0.0163198
785.783	0.0161507
785.861	0.0162863
785.939	0.0163644
786.017	0.0161783
786.096	0.0161478
786.174	0.0162538
786.252	0.0162884
786.330	0.0161822
786.408	0.0163645
786.486	0.0161982
786.564	0.0162836
786.642	0.0161741
786.721	0.0162725
786.799	0.0162898
786.877	0.0161497
786.955	0.0162417
787.033	0.0162144
787.111	0.0161536
787.189	0.0161142
787.267	0.0163471
787.346	0.0162746
787.424	0.0161595
787.502	0.0161740
787.580	0.0162784
787.658	0.0163164
787.736	0.0163097
787.814	0.0163521
787.892	0.0163898
787.971	0.0163083
788.049	0.0163618
788.127	0.0163393
788.205	0.0164365
788.283	0.0164179
788.361	0.0164348
788.439	0.0166058
788.517	0.0164462
788.596	0.0164413
788.674	0.0164799
788.752	0.0164370
788.830	0.0164925
788.908	0.0163592
788.986	0.0164646
789.064	0.0165078
789.142	0.0165402
789.221	0.0163757
789.299	0.0165446
789.377	0.0163969
789.455	0.0165076
789.533	0.0164768
789.611	0.0164774
789.689	0.0164948
789.767	0.0165445
789.846	0.0166125
789.924	0.0164722
790.002	0.0166142
790.080	0.0167342
790.158	0.0166491
790.236	0.0167191
790.314	0.0166534
790.392	0.0166704
790.471	0.0167966
790.549	0.0168993
790.627	0.0166973
790.705	0.0167026
790.783	0.0167234
790.861	0.0166248
790.939	0.0166414
791.017	0.0165519
791.096	0.0166528
791.174	0.0166731
791.252	0.0166499
791.330	0.0165375
791.408	0.0166798
791.486	0.0165311
791.564	0.0165298
791.642	0.0165615
791.721	0.0166372
791.799	0.0165243
791.877	0.0164754
791.955	0.0164516
792.033	0.0165530
792.111	0.0165965
792.189	0.0164589
792.267	0.0164223
792.346	0.0166959
792.424	0.0165295
792.502	0.0164297
792.580	0.0163682
792.658	0.0165587
792.736	0.0163918
792.814	0.0163603
792.892	0.0164862
792.971	0.0164239
793.049	0.0164035
793.127	0.0164346
793.205	0.0164093
793.283	0.0165639
793.361	0.0165868
793.439	0.0164098
793.517	0.0163377
793.596	0.0162788
793.674	0.0163407
793.752	0.0163236
793.830	0.0164149
793.908	0.0165218
793.986	0.0162682
794.064	0.0162605
794.142	0.0163892
794.221	0.0163696
794.299	0.0163097
794.377	0.0163586
794.455	0.0162476
794.533	0.0163161
794.611	0.0164022
794.689	0.0164362
794.767	0.0164287
794.846	0.0163084
794.924	0.0164908
795.002	0.0164444
795.080	0.0164034
795.158	0.0164464
795.236	0.0165575
795.314	0.0164419
795.392	0.0165635
795.471	0.0165123
795.549	0.0164774
795.627	0.0165099
795.705	0.0164602
795.783	0.0165698
795.861	0.0165414
795.939	0.0166580
796.017	0.0165955
796.096	0.0165741
796.174	0.0164649
796.252	0.0164966
796.330	0.0163853
796.408	0.0165759
796.486	0.0165590
796.564	0.0166032
796.642	0.0165520
796.721	0.0166751
796.799	0.0166176
796.877	0.0163810
796.955	0.0166309
797.033	0.0166251
797.111	0.0164520
797.189	0.0165464
797.267	0.0165666
797.346	0.0167265
797.424	0.0164880
797.502	0.0165824
797.580	0.0166004
797.658	0.0166040
797.736	0.0165958
797.814	0.0166426
797.892	0.0165810
797.971	0.0165589
798.049	0.0167342
798.127	0.0166207
798.205	0.0165759
798.283	0.0164079
798.361	0.0164916
798.439	0.0162756
798.517	0.0164030
798.596	0.0162231
798.674	0.0162180
798.752	0.0161567
798.830	0.0161181
798.908	0.0160246
798.986	0.0159921
799.064	0.0159976
799.142	0.0159741
799.221	0.0160580
799.299	0.0158827
799.377	0.0159663
799.455	0.0158353
799.533	0.0159543
799.611	0.0158937
799.689	0.0160287
799.767	0.0159155
799.846	0.0160971
799.924	0.0161695
800.002	0.0160608
800.080	0.0160069
800.158	0.0160043
800.236	0.0161625
800.314	0.0161241
800.392	0.0162592
800.471	0.0162024
800.549	0.0161727
800.627	0.0161645
800.705	0.0161829
800.783	0.0161670
800.861	0.0161388
800.939	0.0161765
801.017	0.0161116
801.096	0.0161181
801.174	0.0160707
801.252	0.0159670
801.330	0.0160941
801.408	0.0161217
801.486	0.0160379
801.564	0.0159032
801.642	0.0159626
801.721	0.0160806
801.799	0.0162162
801.877	0.0158766
801.955	0.0159524
802.033	0.0161027
802.111	0.0161215
802.189	0.0161179
802.267	0.0161108
802.346	0.0162555
802.424	0.0160803
802.502	0.0161077
802.580	0.0160994
802.658	0.0161456
802.736	0.0162228
802.814	0.0162247
802.892	0.0160541
802.971	0.0162930
803.049	0.0162421
803.127	0.0162168
803.205	0.0162124
803.283	0.0163579
803.361	0.0161604
803.439	0.0163380
803.517	0.0162370
803.596	0.0161832
803.674	0.0163602
803.752	0.0162720
803.830	0.0164344
803.908	0.0164229
803.986	0.0163387
804.064	0.0162833
804.142	0.0164229
804.221	0.0163931
804.299	0.0164599
804.377	0.0164229
804.455	0.0164612
804.533	0.0164199
804.611	0.0165414
804.689	0.0164207
804.767	0.0164236
804.846	0.0163893
804.924	0.0164318
805.002	0.0166122
805.080	0.0164315
805.158	0.0163251
805.236	0.0164937
805.314	0.0165877
805.392	0.0165067
805.471	0.0165382
805.549	0.0164821
805.627	0.0165302
805.705	0.0164396
805.783	0.0163586
805.861	0.0163974
805.939	0.0164045
806.017	0.0165182
806.096	0.0163132
806.174	0.0164349
806.252	0.0164665
806.330	0.0164404
806.408	0.0163301
806.486	0.0164653
806.564	0.0163860
806.642	0.0165012
806.721	0.0164703
806.799	0.0164589
806.877	0.0164010
806.955	0.0163463
807.033	0.0163543
807.111	0.0164589
807.189	0.0163227
807.267	0.0163840
807.346	0.0163818
807.424	0.0163380
807.502	0.0164336
807.580	0.0163689
807.658	0.0162722
807.736	0.0164505
807.814	0.0163067
807.892	0.0162209
807.971	0.0164252
808.049	0.0162754
808.127	0.0162850
808.205	0.0162521
808.283	0.0162822
808.361	0.0162491
808.439	0.0162499
808.517	0.0164349
808.596	0.0162838
808.674	0.0162627
808.752	0.0162787
808.830	0.0164523
808.908	0.0164898
808.986	0.0162030
809.064	0.0162077
809.142	0.0163381
809.221	0.0163246
809.299	0.0163737
809.377	0.0163062
809.455	0.0163323
809.533	0.0163432
809.611	0.0162278
809.689	0.0162795
809.767	0.0165050
809.846	0.0164848
809.924	0.0164330
810.002	0.0164986
810.080	0.0165321
810.158	0.0164483
810.236	0.0165125
810.314	0.0165509
810.392	0.0166354
810.471	0.0165159
810.549	0.0165912
810.627	0.0167807
810.705	0.0166123
810.783	0.0166367
810.861	0.0166496
810.939	0.0166380
811.017	0.0166550
811.096	0.0166548
811.174	0.0166228
811.252	0.0165675
811.330	0.0166399
811.408	0.0164821
811.486	0.0166782
811.564	0.0166261
811.642	0.0165975
811.721	0.0165243
811.799	0.0167354
811.877	0.0166038
811.955	0.0167030
812.033	0.0165159
812.111	0.0166390
812.189	0.0166682
812.267	0.0166191
812.346	0.0166805
812.424	0.0166321
812.502	0.0167231
812.580	0.0166988
812.658	0.0166443
812.736	0.0166837
812.814	0.0166335
812.892	0.0167179
812.971	0.0166296
813.049	0.0165449
813.127	0.0165990
813.205	0.0164878
813.283	0.0162395
813.361	0.0166412
813.439	0.0164354
813.517	0.0164992
813.596	0.0165535
813.674	0.0165350
813.752	0.0164233
813.830	0.0164886
813.908	0.0164426
813.986	0.0165130
814.064	0.0166898
814.142	0.0166007
814.221	0.0165760
814.299	0.0165449
814.377	0.0166938
814.455	0.0165596
814.533	0.0165646
814.611	0.0167413
814.689	0.0166984
814.767	0.0165948
814.846	0.0166251
814.924	0.0166009
815.002	0.0164838
815.080	0.0163905
815.158	0.0165010
815.236	0.0164841
815.314	0.0163123
815.392	0.0163163
815.471	0.0163439
815.549	0.0163691
815.627	0.0160862
815.705	0.0163283
815.783	0.0162089
815.861	0.0162862
815.939	0.0161698
816.017	0.0161166
816.096	0.0163119
816.174	0.0162465
816.252	0.0163589
816.330	0.0163438
816.408	0.0161664
816.486	0.0163354
816.564	0.0163371
816.642	0.0163112
816.721	0.0164264
816.799	0.0163446
816.877	0.0165154
816.955	0.0164391
817.033	0.0165399
817.111	0.0165547
817.189	0.0165239
817.267	0.0165496
817.346	0.0166111
817.424	0.0165643
817.502	0.0165952
817.580	0.0165607
817.658	0.0166895
817.736	0.0167560
817.814	0.0166270
817.892	0.0168002
817.971	0.0168536
818.049	0.0167014
818.127	0.0166473
818.205	0.0168032
818.283	0.0166600
818.361	0.0168387
818.439	0.0166765
818.517	0.0166739
818.596	0.0167361
818.674	0.0166857
818.752	0.0166951
818.830	0.0166485
818.908	0.0168121
818.986	0.0167153
819.064	0.0167825
819.142	0.0168430
819.221	0.0167075
819.299	0.0168521
819.377	0.0168069
819.455	0.0166200
819.533	0.0165136
819.611	0.0165946
819.689	0.0167383
819.767	0.0164890
819.846	0.0166177
819.924	0.0165650
820.002	0.0165138
820.080	0.0166454
820.158	0.0165301
820.236	0.0164088
820.314	0.0165099
820.392	0.0164781
820.471	0.0164609
820.549	0.0163425
820.627	0.0164072
820.705	0.0165501
820.783	0.0165588
820.861	0.0163640
820.939	0.0162936
821.017	0.0164533
821.096	0.0164483
821.174	0.0164867
821.252	0.0164910
821.330	0.0165737
821.408	0.0164333
821.486	0.0163776
821.564	0.0165614
821.642	0.0164493
821.721	0.0165678
821.799	0.0164787
821.877	0.0166336
821.955	0.0167139
822.033	0.0166819
822.111	0.0166386
822.189	0.0165512
822.267	0.0166185
822.346	0.0166580
822.424	0.0166228
822.502	0.0166752
822.580	0.0166211
822.658	0.0166060
822.736	0.0164418
822.814	0.0165426
822.892	0.0165262
822.971	0.0164028
823.049	0.0165044
823.127	0.0163503
823.205	0.0164888
823.283	0.0164392
823.361	0.0162631
823.439	0.0164106
823.517	0.0164501
823.596	0.0164214
823.674	0.0164305
823.752	0.0163242
823.830	0.0164037
823.908	0.0163992
823.986	0.0163778
824.064	0.0163367
824.142	0.0164877
824.221	0.0163387
824.299	0.0162469
824.377	0.0163023
824.455	0.0162605
824.533	0.0162706
824.611	0.0162794
824.689	0.0163305
824.767	0.0162862
824.846	0.0162090
824.924	0.0161786
825.002	0.0162632
825.080	0.0161984
825.158	0.0161608
825.236	0.0161686
825.314	0.0161497
825.392	0.0160213
825.471	0.0161181
825.549	0.0161023
825.627	0.0160813
825.705	0.0161849
825.783	0.0161443
825.861	0.0162025
825.939	0.0163869
826.017	0.0162732
826.096	0.0162054
826.174	0.0163879
826.252	0.0162682
826.330	0.0162665
826.408	0.0161451
826.486	0.0163444
826.564	0.0162897
826.642	0.0161655
826.721	0.0163631
826.799	0.0161202
826.877	0.0162534
826.955	0.0162485
827.033	0.0161440
827.111	0.0162220
827.189	0.0161907
827.267	0.0162564
827.346	0.0162833
827.424	0.0162110
827.502	0.0163821
827.580	0.0162807
827.658	0.0163304
827.736	0.0162222
827.814	0.0162395
827.892	0.0162888
827.971	0.0162061
828.049	0.0162533
828.127	0.0163552
828.205	0.0163396
828.283	0.0162681
828.361	0.0161900
828.439	0.0163702
828.517	0.0163184
828.596	0.0163171
828.674	0.0163302
828.752	0.0164785
828.830	0.0164082
828.908	0.0163309
828.986	0.0163624
829.064	0.0162592
829.142	0.0163592
829.221	0.0163413
829.299	0.0163997
829.377	0.0165346
829.455	0.0164626
829.533	0.0164777
829.611	0.0164294
829.689	0.0164675
829.767	0.0164906
829.846	0.0164236
829.924	0.0164323
830.002	0.0165234
830.080	0.0163359
830.158	0.0164789
830.236	0.0163833
830.314	0.0164898
830.392	0.0165608
830.471	0.0163844
830.549	0.0165177
830.627	0.0165311
830.705	0.0166798
830.783	0.0166021
830.861	0.0165884
830.939	0.0166397
831.017	0.0167879
831.096	0.0167735
831.174	0.0165755
831.252	0.0167550
831.330	0.0167040
831.408	0.0166238
831.486	0.0167886
831.564	0.0166827
831.642	0.0167805
831.721	0.0166984
831.799	0.0168048
831.877	0.0166558
831.955	0.0166985
832.033	0.0166879
832.111	0.0166028
832.189	0.0166888
832.267	0.0166022
832.346	0.0165662
832.424	0.0165928
832.502	0.0165849
832.580	0.0164964
832.658	0.0166457
832.736	0.0165629
832.814	0.0166665
832.892	0.0166985
832.971	0.0166129
833.049	0.0166222
833.127	0.0166529
833.205	0.0165240
833.283	0.0164594
833.361	0.0165847
833.439	0.0165201
833.517	0.0165803
833.596	0.0166233
833.674	0.0166221
833.752	0.0166016
833.830	0.0166451
833.908	0.0165704
833.986	0.0165714
834.064	0.0165334
834.142	0.0166150
834.221	0.0167185
834.299	0.0165742
834.377	0.0165269
834.455	0.0164857
834.533	0.0164648
834.611	0.0166535
834.689	0.0166887
834.767	0.0165295
834.846	0.0166680
834.924	0.0166534
835.002	0.0165456
835.080	0.0166982
835.158	0.0165742
835.236	0.0165403
835.314	0.0165819
835.392	0.0166650
835.471	0.0166386
835.549	0.0167527
835.627	0.0165887
835.705	0.0166966
835.783	0.0166341
835.861	0.0167124
835.939	0.0164961
836.017	0.0166512
836.096	0.0166988
836.174	0.0167179
836.252	0.0167167
836.330	0.0165985
836.408	0.0165108
836.486	0.0167393
836.564	0.0165874
836.642	0.0166682
836.721	0.0166705
836.799	0.0166485
836.877	0.0165543
836.955	0.0165654
837.033	0.0166145
837.111	0.0167080
837.189	0.0166441
837.267	0.0166470
837.346	0.0165519
837.424	0.0165436
837.502	0.0166221
837.580	0.0166000
837.658	0.0165443
837.736	0.0165189
837.814	0.0165120
837.892	0.0164783
837.971	0.0164272
838.049	0.0164472
838.127	0.0164546
838.205	0.0163262
838.283	0.0164250
838.361	0.0164543
838.439	0.0164801
838.517	0.0164393
838.596	0.0163323
838.674	0.0164655
838.752	0.0164578
838.830	0.0163861
838.908	0.0164622
838.986	0.0164935
839.064	0.0164067
839.142	0.0163391
839.221	0.0164214
839.299	0.0165127
839.377	0.0165080
839.455	0.0164415
839.533	0.0164648
839.611	0.0163331
839.689	0.0163027
839.767	0.0163631
839.846	0.0163152
839.924	0.0162141
840.002	0.0164154
840.080	0.0163971
840.158	0.0163079
840.236	0.0164123
840.314	0.0163763
840.392	0.0164230
840.471	0.0163464
840.549	0.0164142
840.627	0.0164028
840.705	0.0165633
840.783	0.0164464
840.861	0.0163178
840.939	0.0163139
841.017	0.0164866
841.096	0.0163864
841.174	0.0163213
841.252	0.0163546
841.330	0.0163305
841.408	0.0163951
841.486	0.0164679
841.564	0.0164012
841.642	0.0165250
841.721	0.0164659
841.799	0.0162917
841.877	0.0164767
841.955	0.0164294
842.033	0.0164955
842.111	0.0164442
842.189	0.0164891
842.267	0.0163705
842.346	0.0165495
842.424	0.0165459
842.502	0.0165642
842.580	0.0164666
842.658	0.0164536
842.736	0.0165961
842.814	0.0164938
842.892	0.0164325
842.971	0.0164230
843.049	0.0165231
843.127	0.0165322
843.205	0.0165138
843.283	0.0163761
843.361	0.0164326
843.439	0.0164687
843.517	0.0163622
843.596	0.0165275
843.674	0.0163779
843.752	0.0165259
843.830	0.0163459
843.908	0.0164074
843.986	0.0165672
844.064	0.0164670
844.142	0.0163275
844.221	0.0164381
844.299	0.0165027
844.377	0.0164819
844.455	0.0164354
844.533	0.0165231
844.611	0.0165285
844.689	0.0164339
844.767	0.0163976
844.846	0.0165388
844.924	0.0165976
845.002	0.0163499
845.080	0.0163799
845.158	0.0163868
845.236	0.0163550
845.314	0.0164610
845.392	0.0165350
845.471	0.0164273
845.549	0.0164574
845.627	0.0164738
845.705	0.0163992
845.783	0.0165382
845.861	0.0165098
845.939	0.0163786
846.017	0.0165640
846.096	0.0166138
846.174	0.0164818
846.252	0.0165035
846.330	0.0164760
846.408	0.0165334
846.486	0.0165257
846.564	0.0164052
846.642	0.0164517
846.721	0.0164067
846.799	0.0165571
846.877	0.0164702
846.955	0.0165357
847.033	0.0164533
847.111	0.0165460
847.189	0.0165810
847.267	0.0164643
847.346	0.0165855
847.424	0.0164113
847.502	0.0165173
847.580	0.0163960
847.658	0.0164689
847.736	0.0164784
847.814	0.0164013
847.892	0.0163779
847.971	0.0164437
848.049	0.0164364
848.127	0.0164700
848.205	0.0163186
848.283	0.0160718
848.361	0.0162143
848.439	0.0161980
848.517	0.0162642
848.596	0.0162263
848.674	0.0162486
848.752	0.0162820
848.830	0.0162669
848.908	0.0163685
848.986	0.0162337
849.064	0.0162509
849.142	0.0162202
849.221	0.0163589
849.299	0.0161736
849.377	0.0162471
849.455	0.0162823
849.533	0.0163484
849.611	0.0162464
849.689	0.0163233
849.767	0.0163246
849.846	0.0163561
849.924	0.0164382
850.002	0.0165228
850.080	0.0163733
850.158	0.0162741
850.236	0.0165239
850.314	0.0165118
850.392	0.0166158
850.471	0.0165304
850.549	0.0164414
850.627	0.0163300
850.705	0.0163698
850.783	0.0163666
850.861	0.0163761
850.939	0.0163711
851.017	0.0164089
851.096	0.0164411
851.174	0.0162106
851.252	0.0163708
851.330	0.0162821
851.408	0.0162994
851.486	0.0163991
851.564	0.0165107
851.642	0.0163378
851.721	0.0162761
851.799	0.0163108
851.877	0.0164150
851.955	0.0164818
852.033	0.0164177
852.111	0.0164845
852.189	0.0164620
852.267	0.0164142
852.346	0.0162788
852.424	0.0164586
852.502	0.0163278
852.580	0.0163369
852.658	0.0164713
852.736	0.0164577
852.814	0.0164676
852.892	0.0163498
852.971	0.0163770
853.049	0.0164689
853.127	0.0164105
853.205	0.0163062
853.283	0.0165009
853.361	0.0164140
853.439	0.0163993
853.517	0.0163831
853.596	0.0164174
853.674	0.0164209
853.752	0.0162907
853.830	0.0164618
853.908	0.0165524
853.986	0.0164898
854.064	0.0164229
854.142	0.0164410
854.221	0.0164244
854.299	0.0164475
854.377	0.0165780
854.455	0.0164707
854.533	0.0163433
854.611	0.0164833
854.689	0.0164412
854.767	0.0165492
854.846	0.0165816
854.924	0.0166250
855.002	0.0166055
855.080	0.0165649
855.158	0.0165712
855.236	0.0164957
855.314	0.0165596
855.392	0.0166815
855.471	0.0166944
855.549	0.0165631
855.627	0.0165292
855.705	0.0165763
855.783	0.0166293
855.861	0.0166447
855.939	0.0166495
856.017	0.0166063
856.096	0.0166444
856.174	0.0168176
856.252	0.0167826
856.330	0.0165293
856.408	0.0165932
856.486	0.0167786
856.564	0.0166850
856.642	0.0167987
856.721	0.0167602
856.799	0.0168095
856.877	0.0167474
856.955	0.0168094
857.033	0.0166528
857.111	0.0167087
857.189	0.0168974
857.267	0.0167984
857.346	0.0168744
857.424	0.0168438
857.502	0.0168536
857.580	0.0167254
857.658	0.0167541
857.736	0.0168015
857.814	0.0167160
857.892	0.0167146
857.971	0.0167944
858.049	0.0167701
858.127	0.0168607
858.205	0.0166370
858.283	0.0166936
858.361	0.0167962
858.439	0.0167264
858.517	0.0165823
858.596	0.0166026
858.674	0.0165694
858.752	0.0166540
858.830	0.0167432
858.908	0.0165847
858.986	0.0164851
859.064	0.0167594
859.142	0.0167231
859.221	0.0167252
859.299	0.0166016
859.377	0.0166072
859.455	0.0167039
859.533	0.0166422
859.611	0.0164871
859.689	0.0166193
859.767	0.0165686
859.846	0.0167641
859.924	0.0165559
860.002	0.0164963
860.080	0.0165674
860.158	0.0165014
860.236	0.0164162
860.314	0.0166087
860.392	0.0164756
860.471	0.0162938
860.549	0.0163919
860.627	0.0164633
860.705	0.0163818
860.783	0.0166086
860.861	0.0164296
860.939	0.0165060
861.017	0.0164030
861.096	0.0164009
861.174	0.0164629
861.252	0.0164677
861.330	0.0165408
861.408	0.0165174
861.486	0.0165620
861.564	0.0165340
861.642	0.0167000
861.721	0.0168043
861.799	0.0166035
861.877	0.0166945
861.955	0.0167493
862.033	0.0168329
862.111	0.0167516
862.189	0.0167143
862.267	0.0166277
862.346	0.0167427
862.424	0.0166093
862.502	0.0167930
862.580	0.0167570
862.658	0.0166312
862.736	0.0167196
862.814	0.0166753
862.892	0.0167864
862.971	0.0167741
863.049	0.0166680
863.127	0.0167719
863.205	0.0168018
863.283	0.0167973
863.361	0.0167527
863.439	0.0166898
863.517	0.0165972
863.596	0.0167177
863.674	0.0168281
863.752	0.0167033
863.830	0.0166142
863.908	0.0166019
863.986	0.0167294
864.064	0.0165976
864.142	0.0165727
864.221	0.0166393
864.299	0.0165657
864.377	0.0165252
864.455	0.0163760
864.533	0.0163607
864.611	0.0164125
864.689	0.0164816
864.767	0.0162685
864.846	0.0164069
864.924	0.0163874
865.002	0.0164024
865.080	0.0162606
865.158	0.0163791
865.236	0.0164515
865.314	0.0163062
865.392	0.0162782
865.471	0.0162744
865.549	0.0162936
865.627	0.0164071
865.705	0.0161524
865.783	0.0163689
865.861	0.0163745
865.939	0.0162139
866.017	0.0163501
866.096	0.0163406
866.174	0.0163460
866.252	0.0163861
866.330	0.0164053
866.408	0.0163839
866.486	0.0163704
866.564	0.0162342
866.642	0.0162440
866.721	0.0164564
866.799	0.0162773
866.877	0.0162521
866.955	0.0164084
867.033	0.0163454
867.111	0.0163290
867.189	0.0163046
867.267	0.0162966
867.346	0.0163233
867.424	0.0163282
867.502	0.0163728
867.580	0.0164904
867.658	0.0164307
867.736	0.0163937
867.814	0.0164003
867.892	0.0163841
867.971	0.0162962
868.049	0.0163277
868.127	0.0162140
868.205	0.0162203
868.283	0.0161049
868.361	0.0162582
868.439	0.0161541
868.517	0.0162563
868.596	0.0161102
868.674	0.0161590
868.752	0.0163783
868.830	0.0161986
868.908	0.0161301
868.986	0.0163640
869.064	0.0162446
869.142	0.0162843
869.221	0.0164184
869.299	0.0165221
869.377	0.0163937
869.455	0.0164695
869.533	0.0166110
869.611	0.0165654
869.689	0.0166021
869.767	0.0165433
869.846	0.0165764
869.924	0.0167872
870.002	0.0166459
870.080	0.0166906
870.158	0.0167770
870.236	0.0166264
870.314	0.0167191
870.392	0.0168130
870.471	0.0167437
870.549	0.0167658
870.627	0.0166888
870.705	0.0167416
870.783	0.0166679
870.861	0.0166139
870.939	0.0166666
871.017	0.0166299
871.096	0.0165810
871.174	0.0166602
871.252	0.0166712
871.330	0.0165993
871.408	0.0165092
871.486	0.0165836
871.564	0.0165813
871.642	0.0164212
871.721	0.0162514
871.799	0.0163542
871.877	0.0164460
871.955	0.0164365
872.033	0.0161295
872.111	0.0161970
872.189	0.0163034
872.267	0.0160660
872.346	0.0161393
872.424	0.0160872
872.502	0.0160453
872.580	0.0159947
872.658	0.0159032
872.736	0.0159400
872.814	0.0160264
872.892	0.0159729
872.971	0.0159924
873.049	0.0158825
873.127	0.0158670
873.205	0.0159572
873.283	0.0159291
873.361	0.0160377
873.439	0.0159679
873.517	0.0160357
873.596	0.0161502
873.674	0.0161236
873.752	0.0161536
873.830	0.0161598
873.908	0.0162630
873.986	0.0163548
874.064	0.0162065
874.142	0.0160962
874.221	0.0163805
874.299	0.0164013
874.377	0.0163225
874.455	0.0163443
874.533	0.0163983
874.611	0.0163233
874.689	0.0165280
874.767	0.0164499
874.846	0.0163005
874.924	0.0164234
875.002	0.0163683
875.080	0.0164360
875.158	0.0164377
875.236	0.0164768
875.314	0.0164358
875.392	0.0163717
875.471	0.0165737
875.549	0.0164918
875.627	0.0165618
875.705	0.0165691
875.783	0.0164844
875.861	0.0165887
875.939	0.0164799
876.017	0.0165526
876.096	0.0165302
876.174	0.0165716
876.252	0.0165733
876.330	0.0164999
876.408	0.0166673
876.486	0.0165274
876.564	0.0164121
876.642	0.0166420
876.721	0.0164916
876.799	0.0165179
876.877	0.0165106
876.955	0.0164511
877.033	0.0163495
877.111	0.0164805
877.189	0.0164792
877.267	0.0165907
877.346	0.0165366
877.424	0.0165470
877.502	0.0164933
877.580	0.0165894
877.658	0.0164020
877.736	0.0164771
877.814	0.0164819
877.892	0.0164143
877.971	0.0163535
878.049	0.0163898
878.127	0.0163902
878.205	0.0164648
878.283	0.0166096
878.361	0.0164423
878.439	0.0164983
878.517	0.0164375
878.596	0.0165154
878.674	0.0166043
878.752	0.0165456
878.830	0.0164426
878.908	0.0166276
878.986	0.0166050
879.064	0.0167284
879.142	0.0164732
879.221	0.0166638
879.299	0.0164575
879.377	0.0166335
879.455	0.0165955
879.533	0.0165045
879.611	0.0165284
879.689	0.0163630
879.767	0.0164792
879.846	0.0165469
879.924	0.0164988
880.002	0.0165174
880.080	0.0164883
880.158	0.0165636
880.236	0.0164066
880.314	0.0163776
880.392	0.0166183
880.471	0.0165102
880.549	0.0165454
880.627	0.0164730
880.705	0.0166246
880.783	0.0165540
880.861	0.0164990
880.939	0.0165059
881.017	0.0166698
881.096	0.0165731
881.174	0.0164432
881.252	0.0166915
881.330	0.0166586
881.408	0.0164447
881.486	0.0165500
881.564	0.0164897
881.642	0.0165103
881.721	0.0166178
881.799	0.0167107
881.877	0.0167336
881.955	0.0165806
882.033	0.0165271
882.111	0.0166938
882.189	0.0165853
882.267	0.0164973
882.346	0.0166930
882.424	0.0165098
882.502	0.0166403
882.580	0.0166844
882.658	0.0165807
882.736	0.0165251
882.814	0.0166665
882.892	0.0165913
882.971	0.0165243
883.049	0.0165527
883.127	0.0166156
883.205	0.0164076
883.283	0.0164067
883.361	0.0164451
883.439	0.0164431
883.517	0.0165194
883.596	0.0164484
883.674	0.0165035
883.752	0.0164702
883.830	0.0164156
883.908	0.0163382
883.986	0.0164503
884.064	0.0164491
884.142	0.0163679
884.221	0.0163354
884.299	0.0165706
884.377	0.0165905
884.455	0.0164704
884.533	0.0164641
884.611	0.0164445
884.689	0.0165768
884.767	0.0166636
884.846	0.0165928
884.924	0.0165185
885.002	0.0165653
885.080	0.0164263
885.158	0.0165995
885.236	0.0164938
885.314	0.0163996
885.392	0.0165678
885.471	0.0165816
885.549	0.0165670
885.627	0.0164026
885.705	0.0164841
885.783	0.0164936
885.861	0.0165539
885.939	0.0165093
886.017	0.0163885
886.096	0.0165022
886.174	0.0164944
886.252	0.0164315
886.330	0.0164336
886.408	0.0165742
886.486	0.0165246
886.564	0.0165100
886.642	0.0165474
886.721	0.0164330
886.799	0.0166028
886.877	0.0165857
886.955	0.0164893
887.033	0.0164610
887.111	0.0165142
887.189	0.0164247
887.267	0.0166133
887.346	0.0165097
887.424	0.0163274
887.502	0.0163186
887.580	0.0164272
887.658	0.0163316
887.736	0.0162796
887.814	0.0162626
887.892	0.0162966
887.971	0.0163746
888.049	0.0163576
888.127	0.0164227
888.205	0.0164681
888.283	0.0164645
888.361	0.0163404
888.439	0.0163908
888.517	0.0165262
888.596	0.0166534
888.674	0.0163894
888.752	0.0165063
888.830	0.0164953
888.908	0.0165779
888.986	0.0164409
889.064	0.0164986
889.142	0.0165578
889.221	0.0166476
889.299	0.0166182
889.377	0.0166984
889.455	0.0165583
889.533	0.0165839
889.611	0.0165544
889.689	0.0166432
889.767	0.0166164
889.846	0.0165256
889.924	0.0165493
890.002	0.0164664
890.080	0.0166116
890.158	0.0166298
890.236	0.0166174
890.314	0.0166709
890.392	0.0166213
890.471	0.0166739
890.549	0.0165994
890.627	0.0166016
890.705	0.0166142
890.783	0.0166224
890.861	0.0165852
890.939	0.0167316
891.017	0.0165968
891.096	0.0165249
891.174	0.0165070
891.252	0.0163605
891.330	0.0164852
891.408	0.0165496
891.486	0.0164989
891.564	0.0164701
891.642	0.0165321
891.721	0.0164266
891.799	0.0164275
891.877	0.0164456
891.955	0.0165303
892.033	0.0165929
892.111	0.0164938
892.189	0.0165044
892.267	0.0164174
892.346	0.0165574
892.424	0.0164823
892.502	0.0164204
892.580	0.0165224
892.658	0.0165217
892.736	0.0163851
892.814	0.0164789
892.892	0.0165311
892.971	0.0163978
893.049	0.0164222
893.127	0.0165025
893.205	0.0164323
893.283	0.0164227
893.361	0.0163629
893.439	0.0163038
893.517	0.0164514
893.596	0.0164170
893.674	0.0165243
893.752	0.0163173
893.830	0.0164879
893.908	0.0163402
893.986	0.0163393
894.064	0.0163795
894.142	0.0164381
894.221	0.0164120
894.299	0.0163936
894.377	0.0164611
894.455	0.0164922
894.533	0.0164885
894.611	0.0165316
894.689	0.0164728
894.767	0.0165038
894.846	0.0164805
894.924	0.0165061
895.002	0.0164603
895.080	0.0165963
895.158	0.0163923
895.236	0.0163713
895.314	0.0164608
895.392	0.0166500
895.471	0.0165654
895.549	0.0164054
895.627	0.0164416
895.705	0.0164268
895.783	0.0164925
895.861	0.0164216
895.939	0.0164877
896.017	0.0164236
896.096	0.0164251
896.174	0.0164181
896.252	0.0163795
896.330	0.0164409
896.408	0.0163120
896.486	0.0162440
896.564	0.0162611
896.642	0.0162592
896.721	0.0162107
896.799	0.0162984
896.877	0.0163094
896.955	0.0162757
897.033	0.0161417
897.111	0.0161268
897.189	0.0161964
897.267	0.0161436
897.346	0.0161771
897.424	0.0161073
897.502	0.0161935
897.580	0.0161801
897.658	0.0161874
897.736	0.0162702
897.814	0.0161662
897.892	0.0161039
897.971	0.0161200
898.049	0.0160600
898.127	0.0161609
898.205	0.0162116
898.283	0.0160889
898.361	0.0162785
898.439	0.0161169
898.517	0.0160807
898.596	0.0162943
898.674	0.0163464
898.752	0.0162868
898.830	0.0163055
898.908	0.0162926
898.986	0.0161583
899.064	0.0161508
899.142	0.0162391
899.221	0.0161440
899.299	0.0163063
899.377	0.0163139
899.455	0.0163239
899.533	0.0164003
899.611	0.0162355
899.689	0.0163188
899.767	0.0162872
899.846	0.0163868
899.924	0.0162513
900.002	0.0164089
900.080	0.0163560
900.158	0.0162786
900.236	0.0164122
900.314	0.0164204
900.392	0.0164242
900.471	0.0163492
900.549	0.0163072
900.627	0.0164212
900.705	0.0163438
900.783	0.0163143
900.861	0.0163356
900.939	0.0164230
901.017	0.0162320
901.096	0.0164249
901.174	0.0164487
901.252	0.0163277
901.330	0.0163956
901.408	0.0163681
901.486	0.0164383
901.564	0.0163688
901.642	0.0164568
901.721	0.0164514
901.799	0.0163676
901.877	0.0163536
901.955	0.0163882
902.033	0.0163859
902.111	0.0163205
902.189	0.0164769
902.267	0.0164037
902.346	0.0164751
902.424	0.0164993
902.502	0.0165641
902.580	0.0163732
902.658	0.0165160
902.736	0.0165959
902.814	0.0163496
902.892	0.0166307
902.971	0.0165218
903.049	0.0164661
903.127	0.0164068
903.205	0.0165643
903.283	0.0166895
903.361	0.0166057
903.439	0.0165734
903.517	0.0165519
903.596	0.0165949
903.674	0.0166387
903.752	0.0166505
903.830	0.0166448
903.908	0.0166196
903.986	0.0164574
904.064	0.0166374
904.142	0.0166396
904.221	0.0166109
904.299	0.0166501
904.377	0.0166415
904.455	0.0166331
904.533	0.0166174
904.611	0.0164882
904.689	0.0166201
904.767	0.0166151
904.846	0.0166676
904.924	0.0165719
905.002	0.0166282
905.080	0.0166215
905.158	0.0166700
905.236	0.0164363
905.314	0.0166631
905.392	0.0166601
905.471	0.0165410
905.549	0.0165292
905.627	0.0165866
905.705	0.0166331
905.783	0.0165035
905.861	0.0165261
905.939	0.0164918
906.017	0.0165659
906.096	0.0165337
906.174	0.0164448
906.252	0.0166010
906.330	0.0164941
906.408	0.0164444
906.486	0.0166100
906.564	0.0166000
906.642	0.0164866
906.721	0.0164876
906.799	0.0164713
906.877	0.0165904
906.955	0.0164552
907.033	0.0165806
907.111	0.0165209
907.189	0.0165512
907.267	0.0163747
907.346	0.0164091
907.424	0.0164249
907.502	0.0163341
907.580	0.0164178
907.658	0.0163685
907.736	0.0163569
907.814	0.0163649
907.892	0.0165216
907.971	0.0164995
908.049	0.0164040
908.127	0.0162825
908.205	0.0163177
908.283	0.0164153
908.361	0.0163551
908.439	0.0164012
908.517	0.0165169
908.596	0.0163493
908.674	0.0161835
908.752	0.0163463
908.830	0.0162746
908.908	0.0163553
908.986	0.0163851
909.064	0.0162585
909.142	0.0162292
909.221	0.0162499
909.299	0.0160770
909.377	0.0161460
909.455	0.0162933
909.533	0.0161906
909.611	0.0162440
909.689	0.0163123
909.767	0.0163548
909.846	0.0162311
909.924	0.0161798
910.002	0.0161520
910.080	0.0161987
910.158	0.0162453
910.236	0.0161878
910.314	0.0161633
910.392	0.0162029
910.471	0.0162147
910.549	0.0161618
910.627	0.0163423
910.705	0.0164076
910.783	0.0163248
910.861	0.0163946
910.939	0.0163012
911.017	0.0163388
911.096	0.0163618
911.174	0.0164638
911.252	0.0163802
911.330	0.0164739
911.408	0.0165899
911.486	0.0164870
911.564	0.0163744
911.642	0.0164639
911.721	0.0165756
911.799	0.0164933
911.877	0.0164188
911.955	0.0164530
912.033	0.0165395
912.111	0.0164462
912.189	0.0164778
912.267	0.0163780
912.346	0.0164281
912.424	0.0162894
912.502	0.0163683
912.580	0.0162943
912.658	0.0163704
912.736	0.0163226
912.814	0.0163372
912.892	0.0164056
912.971	0.0164059
913.049	0.0163446
913.127	0.0164193
913.205	0.0163788
913.283	0.0161909
913.361	0.0162276
913.439	0.0163350
913.517	0.0162202
913.596	0.0163526
913.674	0.0162783
913.752	0.0162486
913.830	0.0162345
913.908	0.0163107
913.986	0.0160389
914.064	0.0162274
914.142	0.0162524
914.221	0.0161897
914.299	0.0163247
914.377	0.0162212
914.455	0.0162947
914.533	0.0163314
914.611	0.0162453
914.689	0.0162902
914.767	0.0163307
914.846	0.0164079
914.924	0.0162891
915.002	0.0164086
915.080	0.0163782
915.158	0.0164344
915.236	0.0163537
915.314	0.0164401
915.392	0.0164917
915.471	0.0164143
915.549	0.0165182
915.627	0.0164388
915.705	0.0163554
915.783	0.0162665
915.861	0.0163890
915.939	0.0164812
916.017	0.0163973
916.096	0.0163928
916.174	0.0163797
916.252	0.0165968
916.330	0.0164547
916.408	0.0162462
916.486	0.0163027
916.564	0.0164805
916.642	0.0164010
916.721	0.0163055
916.799	0.0162565
916.877	0.0165748
916.955	0.0164722
917.033	0.0163469
917.111	0.0163096
917.189	0.0163882
917.267	0.0163110
917.346	0.0163258
917.424	0.0164256
917.502	0.0164316
917.580	0.0164119
917.658	0.0164500
917.736	0.0164709
917.814	0.0164816
917.892	0.0164038
917.971	0.0165868
918.049	0.0164668
918.127	0.0164679
918.205	0.0166354
918.283	0.0163809
918.361	0.0164321
918.439	0.0166888
918.517	0.0164836
918.596	0.0165701
918.674	0.0165118
918.752	0.0165291
918.830	0.0164932
918.908	0.0164761
918.986	0.0164727
919.064	0.0165627
919.142	0.0164628
919.221	0.0165388
919.299	0.0164371
919.377	0.0163269
919.455	0.0163943
919.533	0.0165288
919.611	0.0164152
919.689	0.0164080
919.767	0.0162964
919.846	0.0163034
919.924	0.0163567
