06/29/2022	21:45:00	Ver.	4.1	UNKNOWN
Optical Delay	600.001752	Delta X		0.078125	Sweeps	1	Scan Rate	0/0
Coordinates	Axis 1	NaN	Axis 2	NaN	Axis 3	NaN	Axis 4	NaN	Axis 5	NaN	Axis 6	0.000000
TX Power	0.000000	RX Power	0.000000

600.002	0.0159658
600.080	0.0162462
600.158	0.0162209
600.236	0.0164982
600.314	0.0163544
600.392	0.0165028
600.471	0.0165514
600.549	0.0164823
600.627	0.0167483
600.705	0.0165315
600.783	0.0165587
600.861	0.0167932
600.939	0.0167097
601.017	0.0168011
601.096	0.0169891
601.174	0.0169664
601.252	0.0170927
601.330	0.0170255
601.408	0.0170763
601.486	0.0171639
601.564	0.0171626
601.642	0.0172453
601.721	0.0173013
601.799	0.0173004
601.877	0.0173320
601.955	0.0174967
602.033	0.0173961
602.111	0.0173343
602.189	0.0173598
602.267	0.0174441
602.346	0.0173792
602.424	0.0172962
602.502	0.0173990
602.580	0.0172482
602.658	0.0174031
602.736	0.0173271
602.814	0.0172490
602.892	0.0172958
602.971	0.0170932
603.049	0.0172050
603.127	0.0172420
603.205	0.0172028
603.283	0.0172236
603.361	0.0171247
603.439	0.0170235
603.517	0.0170394
603.596	0.0170718
603.674	0.0170744
603.752	0.0169598
603.830	0.0168481
603.908	0.0168687
603.986	0.0169352
604.064	0.0168587
604.142	0.0167647
604.221	0.0169283
604.299	0.0168185
604.377	0.0167863
604.455	0.0168114
604.533	0.0168380
604.611	0.0167333
604.689	0.0168806
604.767	0.0166779
604.846	0.0166546
604.924	0.0168462
605.002	0.0166698
605.080	0.0168165
605.158	0.0167734
605.236	0.0166586
605.314	0.0166822
605.392	0.0167912
605.471	0.0166750
605.549	0.0167435
605.627	0.0168131
605.705	0.0168009
605.783	0.0167311
605.861	0.0167337
605.939	0.0166810
606.017	0.0166453
606.096	0.0166691
606.174	0.0165488
606.252	0.0165681
606.330	0.0165640
606.408	0.0165626
606.486	0.0164500
606.564	0.0165221
606.642	0.0165182
606.721	0.0165047
606.799	0.0164619
606.877	0.0164854
606.955	0.0165108
607.033	0.0164771
607.111	0.0166183
607.189	0.0166042
607.267	0.0165939
607.346	0.0166634
607.424	0.0164835
607.502	0.0163746
607.580	0.0165766
607.658	0.0165937
607.736	0.0165688
607.814	0.0165540
607.892	0.0165907
607.971	0.0165925
608.049	0.0163530
608.127	0.0164316
608.205	0.0163465
608.283	0.0163577
608.361	0.0164319
608.439	0.0163703
608.517	0.0163195
608.596	0.0162780
608.674	0.0162989
608.752	0.0164801
608.830	0.0163172
608.908	0.0162259
608.986	0.0163605
609.064	0.0162878
609.142	0.0164050
609.221	0.0164506
609.299	0.0163512
609.377	0.0163692
609.455	0.0164943
609.533	0.0164507
609.611	0.0165556
609.689	0.0165668
609.767	0.0165622
609.846	0.0165964
609.924	0.0166217
610.002	0.0166867
610.080	0.0166727
610.158	0.0167162
610.236	0.0165506
610.314	0.0167321
610.392	0.0166808
610.471	0.0167369
610.549	0.0166774
610.627	0.0164378
610.705	0.0164005
610.783	0.0163857
610.861	0.0162527
610.939	0.0162206
611.017	0.0162190
611.096	0.0162459
611.174	0.0160775
611.252	0.0160173
611.330	0.0160595
611.408	0.0161266
611.486	0.0163563
611.564	0.0162560
611.642	0.0162319
611.721	0.0162419
611.799	0.0162572
611.877	0.0162757
611.955	0.0164422
612.033	0.0164153
612.111	0.0164682
612.189	0.0165682
612.267	0.0166418
612.346	0.0165051
612.424	0.0167033
612.502	0.0166467
612.580	0.0166095
612.658	0.0167193
612.736	0.0167088
612.814	0.0166441
612.892	0.0167696
612.971	0.0168659
613.049	0.0167102
613.127	0.0165717
613.205	0.0167598
613.283	0.0166940
613.361	0.0166605
613.439	0.0168533
613.517	0.0165781
613.596	0.0166559
613.674	0.0166442
613.752	0.0167348
613.830	0.0166739
613.908	0.0165997
613.986	0.0165133
614.064	0.0165297
614.142	0.0164961
614.221	0.0166232
614.299	0.0166150
614.377	0.0165701
614.455	0.0165372
614.533	0.0165100
614.611	0.0166164
614.689	0.0166454
614.767	0.0166322
614.846	0.0166039
614.924	0.0166344
615.002	0.0166677
615.080	0.0166513
615.158	0.0165511
615.236	0.0165919
615.314	0.0165982
615.392	0.0166850
615.471	0.0167491
615.549	0.0165869
615.627	0.0166321
615.705	0.0166556
615.783	0.0167770
615.861	0.0169056
615.939	0.0168593
616.017	0.0168111
616.096	0.0168275
616.174	0.0170174
616.252	0.0170704
616.330	0.0170515
616.408	0.0170968
616.486	0.0170370
616.564	0.0171461
616.642	0.0172308
616.721	0.0171634
616.799	0.0170868
616.877	0.0171987
616.955	0.0173155
617.033	0.0173738
617.111	0.0173580
617.189	0.0172676
617.267	0.0173111
617.346	0.0172711
617.424	0.0172543
617.502	0.0172768
617.580	0.0171365
617.658	0.0171290
617.736	0.0173007
617.814	0.0173389
617.892	0.0171989
617.971	0.0172668
618.049	0.0172799
618.127	0.0173538
618.205	0.0172363
618.283	0.0171413
618.361	0.0172198
618.439	0.0171182
618.517	0.0171983
618.596	0.0171587
618.674	0.0172165
618.752	0.0172366
618.830	0.0171188
618.908	0.0170582
618.986	0.0171223
619.064	0.0171301
619.142	0.0169962
619.221	0.0170113
619.299	0.0170351
619.377	0.0171023
619.455	0.0169644
619.533	0.0168503
619.611	0.0169154
619.689	0.0168073
619.767	0.0169025
619.846	0.0168369
619.924	0.0168782
620.002	0.0168394
620.080	0.0168501
620.158	0.0168021
620.236	0.0167826
620.314	0.0165839
620.392	0.0167543
620.471	0.0166448
620.549	0.0166203
620.627	0.0167123
620.705	0.0165343
620.783	0.0164056
620.861	0.0166155
620.939	0.0165360
621.017	0.0163575
621.096	0.0162675
621.174	0.0165452
621.252	0.0164095
621.330	0.0163124
621.408	0.0163480
621.486	0.0163179
621.564	0.0161436
621.642	0.0162878
621.721	0.0163889
621.799	0.0162511
621.877	0.0161082
621.955	0.0160851
622.033	0.0162730
622.111	0.0160607
622.189	0.0160636
622.267	0.0160961
622.346	0.0159000
622.424	0.0159707
622.502	0.0158003
622.580	0.0158318
622.658	0.0159015
622.736	0.0159090
622.814	0.0159536
622.892	0.0157793
622.971	0.0158163
623.049	0.0160189
623.127	0.0159957
623.205	0.0160923
623.283	0.0160332
623.361	0.0160703
623.439	0.0160608
623.517	0.0159768
623.596	0.0160467
623.674	0.0161279
623.752	0.0162190
623.830	0.0161456
623.908	0.0162603
623.986	0.0163979
624.064	0.0162029
624.142	0.0163442
624.221	0.0164379
624.299	0.0163383
624.377	0.0164268
624.455	0.0164967
624.533	0.0163148
624.611	0.0164262
624.689	0.0164495
624.767	0.0164357
624.846	0.0164409
624.924	0.0164574
625.002	0.0163766
625.080	0.0163971
625.158	0.0165415
625.236	0.0165710
625.314	0.0163561
625.392	0.0162873
625.471	0.0165057
625.549	0.0165126
625.627	0.0165069
625.705	0.0164588
625.783	0.0163857
625.861	0.0164361
625.939	0.0164796
626.017	0.0163926
626.096	0.0163477
626.174	0.0162514
626.252	0.0163301
626.330	0.0164512
626.408	0.0165308
626.486	0.0165908
626.564	0.0164346
626.642	0.0162106
626.721	0.0164376
626.799	0.0165551
626.877	0.0164620
626.955	0.0164908
627.033	0.0164912
627.111	0.0164700
627.189	0.0165038
627.267	0.0165199
627.346	0.0164742
627.424	0.0165299
627.502	0.0165835
627.580	0.0165732
627.658	0.0164301
627.736	0.0164413
627.814	0.0166898
627.892	0.0166013
627.971	0.0166620
628.049	0.0166820
628.127	0.0165571
628.205	0.0165652
628.283	0.0167049
628.361	0.0166679
628.439	0.0165879
628.517	0.0167421
628.596	0.0166475
628.674	0.0168170
628.752	0.0167648
628.830	0.0167279
628.908	0.0166273
628.986	0.0167191
629.064	0.0166930
629.142	0.0167145
629.221	0.0167348
629.299	0.0167225
629.377	0.0166275
629.455	0.0167805
629.533	0.0167503
629.611	0.0167562
629.689	0.0167091
629.767	0.0167223
629.846	0.0166016
629.924	0.0167094
630.002	0.0167642
630.080	0.0165916
630.158	0.0165675
630.236	0.0166754
630.314	0.0166808
630.392	0.0166547
630.471	0.0166131
630.549	0.0166908
630.627	0.0166506
630.705	0.0165567
630.783	0.0166177
630.861	0.0165351
630.939	0.0166387
631.017	0.0167007
631.096	0.0165069
631.174	0.0166145
631.252	0.0165828
631.330	0.0165441
631.408	0.0166177
631.486	0.0166391
631.564	0.0166956
631.642	0.0165862
631.721	0.0165895
631.799	0.0166891
631.877	0.0166529
631.955	0.0165827
632.033	0.0164883
632.111	0.0164967
632.189	0.0165514
632.267	0.0165147
632.346	0.0164079
632.424	0.0164307
632.502	0.0165323
632.580	0.0164579
632.658	0.0165438
632.736	0.0164647
632.814	0.0163776
632.892	0.0163493
632.971	0.0165555
633.049	0.0164078
633.127	0.0163893
633.205	0.0164619
633.283	0.0164045
633.361	0.0163249
633.439	0.0164719
633.517	0.0165368
633.596	0.0164418
633.674	0.0163843
633.752	0.0164818
633.830	0.0163339
633.908	0.0164481
633.986	0.0163626
634.064	0.0163773
634.142	0.0165480
634.221	0.0162653
634.299	0.0162027
634.377	0.0163286
634.455	0.0162210
634.533	0.0163364
634.611	0.0162918
634.689	0.0161515
634.767	0.0162209
634.846	0.0161877
634.924	0.0161396
635.002	0.0162738
635.080	0.0160124
635.158	0.0161467
635.236	0.0161224
635.314	0.0162437
635.392	0.0162313
635.471	0.0161623
635.549	0.0162050
635.627	0.0162083
635.705	0.0162865
635.783	0.0164074
635.861	0.0163161
635.939	0.0163848
636.017	0.0162702
636.096	0.0164336
636.174	0.0164294
636.252	0.0164462
636.330	0.0164561
636.408	0.0164476
636.486	0.0163528
636.564	0.0166233
636.642	0.0165884
636.721	0.0166403
636.799	0.0166985
636.877	0.0165339
636.955	0.0166840
637.033	0.0166497
637.111	0.0166666
637.189	0.0167542
637.267	0.0167912
637.346	0.0169347
637.424	0.0168568
637.502	0.0167980
637.580	0.0168000
637.658	0.0168334
637.736	0.0168748
637.814	0.0168552
637.892	0.0169229
637.971	0.0169962
638.049	0.0168527
638.127	0.0169315
638.205	0.0169805
638.283	0.0169948
638.361	0.0170354
638.439	0.0169730
638.517	0.0170314
638.596	0.0170434
638.674	0.0171687
638.752	0.0170812
638.830	0.0170625
638.908	0.0169392
638.986	0.0170070
639.064	0.0171130
639.142	0.0171613
639.221	0.0169774
639.299	0.0169882
639.377	0.0171867
639.455	0.0170891
639.533	0.0172144
639.611	0.0171993
639.689	0.0170113
639.767	0.0169274
639.846	0.0170477
639.924	0.0171160
640.002	0.0170676
640.080	0.0169923
640.158	0.0168549
640.236	0.0169665
640.314	0.0171086
640.392	0.0170464
640.471	0.0170420
640.549	0.0169583
640.627	0.0168334
640.705	0.0168494
640.783	0.0171299
640.861	0.0169583
640.939	0.0169042
641.017	0.0170552
641.096	0.0170754
641.174	0.0170179
641.252	0.0169115
641.330	0.0169334
641.408	0.0169269
641.486	0.0169222
641.564	0.0168554
641.642	0.0168189
641.721	0.0168916
641.799	0.0167070
641.877	0.0167034
641.955	0.0167791
642.033	0.0167546
642.111	0.0167379
642.189	0.0167196
642.267	0.0166936
642.346	0.0165550
642.424	0.0167017
642.502	0.0166619
642.580	0.0168109
642.658	0.0166728
642.736	0.0166991
642.814	0.0167743
642.892	0.0167142
642.971	0.0166398
643.049	0.0167158
643.127	0.0167258
643.205	0.0166734
643.283	0.0166759
643.361	0.0167626
643.439	0.0166486
643.517	0.0167442
643.596	0.0166644
643.674	0.0166908
643.752	0.0165800
643.830	0.0167760
643.908	0.0165861
643.986	0.0166724
644.064	0.0165749
644.142	0.0166941
644.221	0.0166779
644.299	0.0165962
644.377	0.0165639
644.455	0.0164645
644.533	0.0165097
644.611	0.0165567
644.689	0.0165160
644.767	0.0164672
644.846	0.0165177
644.924	0.0166190
645.002	0.0165246
645.080	0.0165155
645.158	0.0165618
645.236	0.0164171
645.314	0.0164779
645.392	0.0164600
645.471	0.0164767
645.549	0.0165845
645.627	0.0164922
645.705	0.0164777
645.783	0.0165800
645.861	0.0165453
645.939	0.0165799
646.017	0.0164986
646.096	0.0164537
646.174	0.0165070
646.252	0.0165231
646.330	0.0165260
646.408	0.0166147
646.486	0.0166476
646.564	0.0165281
646.642	0.0166211
646.721	0.0167073
646.799	0.0165716
646.877	0.0165164
646.955	0.0165389
647.033	0.0166818
647.111	0.0165989
647.189	0.0166746
647.267	0.0166410
647.346	0.0166009
647.424	0.0164925
647.502	0.0165440
647.580	0.0166096
647.658	0.0164925
647.736	0.0165900
647.814	0.0165193
647.892	0.0163925
647.971	0.0165540
648.049	0.0166180
648.127	0.0165137
648.205	0.0164366
648.283	0.0164256
648.361	0.0164770
648.439	0.0164439
648.517	0.0164652
648.596	0.0164908
648.674	0.0164704
648.752	0.0165184
648.830	0.0163598
648.908	0.0164079
648.986	0.0164627
649.064	0.0163871
649.142	0.0163661
649.221	0.0164261
649.299	0.0164742
649.377	0.0164864
649.455	0.0164298
649.533	0.0164989
649.611	0.0164169
649.689	0.0165697
649.767	0.0164480
649.846	0.0163576
649.924	0.0164182
650.002	0.0164433
650.080	0.0163938
650.158	0.0164564
650.236	0.0165882
650.314	0.0164308
650.392	0.0164585
650.471	0.0163348
650.549	0.0164640
650.627	0.0164736
650.705	0.0163894
650.783	0.0163561
650.861	0.0164169
650.939	0.0164120
651.017	0.0163795
651.096	0.0162731
651.174	0.0164059
651.252	0.0162955
651.330	0.0163165
651.408	0.0162929
651.486	0.0162889
651.564	0.0161266
651.642	0.0163148
651.721	0.0164521
651.799	0.0163197
651.877	0.0163032
651.955	0.0163519
652.033	0.0163579
652.111	0.0163988
652.189	0.0164870
652.267	0.0162373
652.346	0.0163339
652.424	0.0163145
652.502	0.0162572
652.580	0.0163627
652.658	0.0164848
652.736	0.0164213
652.814	0.0163302
652.892	0.0163342
652.971	0.0162549
653.049	0.0163288
653.127	0.0163335
653.205	0.0163306
653.283	0.0163281
653.361	0.0164047
653.439	0.0162630
653.517	0.0163019
653.596	0.0163760
653.674	0.0163905
653.752	0.0163602
653.830	0.0164974
653.908	0.0163469
653.986	0.0163570
654.064	0.0164131
654.142	0.0164224
654.221	0.0164600
654.299	0.0164280
654.377	0.0164908
654.455	0.0165295
654.533	0.0165212
654.611	0.0164979
654.689	0.0165187
654.767	0.0167303
654.846	0.0164325
654.924	0.0164127
655.002	0.0165849
655.080	0.0166647
655.158	0.0166512
655.236	0.0165897
655.314	0.0168095
655.392	0.0165156
655.471	0.0164717
655.549	0.0166367
655.627	0.0165190
655.705	0.0166024
655.783	0.0167735
655.861	0.0166335
655.939	0.0165896
656.017	0.0166557
656.096	0.0166525
656.174	0.0166208
656.252	0.0166425
656.330	0.0167597
656.408	0.0166745
656.486	0.0166601
656.564	0.0166579
656.642	0.0167588
656.721	0.0165405
656.799	0.0166602
656.877	0.0166845
656.955	0.0165544
657.033	0.0167361
657.111	0.0166579
657.189	0.0167519
657.267	0.0165807
657.346	0.0167888
657.424	0.0166077
657.502	0.0165938
657.580	0.0167142
657.658	0.0166628
657.736	0.0166313
657.814	0.0166462
657.892	0.0166460
657.971	0.0165565
658.049	0.0167106
658.127	0.0166196
658.205	0.0165889
658.283	0.0167265
658.361	0.0168193
658.439	0.0166920
658.517	0.0167004
658.596	0.0167050
658.674	0.0166018
658.752	0.0166423
658.830	0.0166059
658.908	0.0166194
658.986	0.0165894
659.064	0.0165529
659.142	0.0166515
659.221	0.0165918
659.299	0.0165843
659.377	0.0165411
659.455	0.0165236
659.533	0.0166785
659.611	0.0166384
659.689	0.0164806
659.767	0.0166467
659.846	0.0166860
659.924	0.0167471
660.002	0.0166438
660.080	0.0165910
660.158	0.0165997
660.236	0.0167266
660.314	0.0167159
660.392	0.0166374
660.471	0.0166548
660.549	0.0167606
660.627	0.0166943
660.705	0.0166371
660.783	0.0166393
660.861	0.0167198
660.939	0.0167213
661.017	0.0166911
661.096	0.0167919
661.174	0.0168005
661.252	0.0168570
661.330	0.0168571
661.408	0.0167609
661.486	0.0167965
661.564	0.0168124
661.642	0.0168551
661.721	0.0167812
661.799	0.0167059
661.877	0.0166886
661.955	0.0168192
662.033	0.0168031
662.111	0.0168423
662.189	0.0168491
662.267	0.0168484
662.346	0.0167552
662.424	0.0168789
662.502	0.0168987
662.580	0.0170367
662.658	0.0169089
662.736	0.0168535
662.814	0.0169045
662.892	0.0169657
662.971	0.0169433
663.049	0.0169967
663.127	0.0170123
663.205	0.0168671
663.283	0.0169831
663.361	0.0168952
663.439	0.0169286
663.517	0.0169431
663.596	0.0168948
663.674	0.0169799
663.752	0.0169323
663.830	0.0169907
663.908	0.0169337
663.986	0.0170134
664.064	0.0169760
664.142	0.0169398
664.221	0.0170969
664.299	0.0170202
664.377	0.0170008
664.455	0.0168916
664.533	0.0169801
664.611	0.0170836
664.689	0.0169380
664.767	0.0170426
664.846	0.0169353
664.924	0.0169764
665.002	0.0170335
665.080	0.0169417
665.158	0.0170388
665.236	0.0169150
665.314	0.0168832
665.392	0.0169889
665.471	0.0169845
665.549	0.0168687
665.627	0.0168677
665.705	0.0169713
665.783	0.0170206
665.861	0.0170779
665.939	0.0170101
666.017	0.0171551
666.096	0.0169640
666.174	0.0169285
666.252	0.0169585
666.330	0.0169051
666.408	0.0167766
666.486	0.0168573
666.564	0.0170484
666.642	0.0170617
666.721	0.0169090
666.799	0.0167579
666.877	0.0169078
666.955	0.0168692
667.033	0.0167423
667.111	0.0168427
667.189	0.0167477
667.267	0.0165498
667.346	0.0166425
667.424	0.0165199
667.502	0.0165307
667.580	0.0165712
667.658	0.0165677
667.736	0.0165276
667.814	0.0166316
667.892	0.0165202
667.971	0.0164931
668.049	0.0164347
668.127	0.0164056
668.205	0.0164120
668.283	0.0163138
668.361	0.0162786
668.439	0.0162086
668.517	0.0164323
668.596	0.0163658
668.674	0.0163213
668.752	0.0161280
668.830	0.0162189
668.908	0.0162707
668.986	0.0162662
669.064	0.0163490
669.142	0.0163374
669.221	0.0165746
669.299	0.0164085
669.377	0.0164478
669.455	0.0165564
669.533	0.0166536
669.611	0.0166296
669.689	0.0166280
669.767	0.0164723
669.846	0.0166505
669.924	0.0166233
670.002	0.0164520
670.080	0.0166390
670.158	0.0166071
670.236	0.0166024
670.314	0.0166167
670.392	0.0166191
670.471	0.0165919
670.549	0.0166114
670.627	0.0163582
670.705	0.0164473
670.783	0.0165284
670.861	0.0167256
670.939	0.0164916
671.017	0.0163564
671.096	0.0163904
671.174	0.0163686
671.252	0.0164570
671.330	0.0164867
671.408	0.0163708
671.486	0.0163786
671.564	0.0163248
671.642	0.0161198
671.721	0.0162788
671.799	0.0161320
671.877	0.0161588
671.955	0.0162859
672.033	0.0163520
672.111	0.0163357
672.189	0.0163720
672.267	0.0163004
672.346	0.0162157
672.424	0.0162238
672.502	0.0162663
672.580	0.0163223
672.658	0.0163699
672.736	0.0164765
672.814	0.0164507
672.892	0.0164744
672.971	0.0163757
673.049	0.0165260
673.127	0.0166784
673.205	0.0165665
673.283	0.0167198
673.361	0.0167478
673.439	0.0168665
673.517	0.0167472
673.596	0.0168027
673.674	0.0169276
673.752	0.0170064
673.830	0.0170027
673.908	0.0169746
673.986	0.0169408
674.064	0.0172166
674.142	0.0171094
674.221	0.0170795
674.299	0.0171194
674.377	0.0171366
674.455	0.0172584
674.533	0.0172418
674.611	0.0171298
674.689	0.0171460
674.767	0.0171429
674.846	0.0172301
674.924	0.0171255
675.002	0.0171709
675.080	0.0172141
675.158	0.0170129
675.236	0.0169411
675.314	0.0170129
675.392	0.0170116
675.471	0.0170400
675.549	0.0169694
675.627	0.0168316
675.705	0.0168444
675.783	0.0168370
675.861	0.0167912
675.939	0.0168342
676.017	0.0166538
676.096	0.0166087
676.174	0.0166281
676.252	0.0166773
676.330	0.0167962
676.408	0.0167434
676.486	0.0166483
676.564	0.0166994
676.642	0.0167788
676.721	0.0166671
676.799	0.0167017
676.877	0.0167942
676.955	0.0167332
677.033	0.0168547
677.111	0.0167110
677.189	0.0167456
677.267	0.0167446
677.346	0.0166051
677.424	0.0167252
677.502	0.0167470
677.580	0.0167846
677.658	0.0166460
677.736	0.0167486
677.814	0.0168377
677.892	0.0168237
677.971	0.0168123
678.049	0.0166316
678.127	0.0168495
678.205	0.0167769
678.283	0.0166617
678.361	0.0167030
678.439	0.0167496
678.517	0.0165958
678.596	0.0165704
678.674	0.0167365
678.752	0.0165974
678.830	0.0165621
678.908	0.0165697
678.986	0.0165787
679.064	0.0166052
679.142	0.0166228
679.221	0.0165701
679.299	0.0166573
679.377	0.0164824
679.455	0.0165794
679.533	0.0165910
679.611	0.0164852
679.689	0.0164983
679.767	0.0164231
679.846	0.0165368
679.924	0.0165553
680.002	0.0165128
680.080	0.0165222
680.158	0.0163319
680.236	0.0163901
680.314	0.0163535
680.392	0.0163988
680.471	0.0163249
680.549	0.0163571
680.627	0.0163188
680.705	0.0161872
680.783	0.0161954
680.861	0.0163507
680.939	0.0164387
681.017	0.0162489
681.096	0.0163062
681.174	0.0162936
681.252	0.0163818
681.330	0.0163914
681.408	0.0163660
681.486	0.0163302
681.564	0.0165941
681.642	0.0165352
681.721	0.0162579
681.799	0.0162527
681.877	0.0163904
681.955	0.0165047
682.033	0.0163103
682.111	0.0163194
682.189	0.0163831
682.267	0.0163062
682.346	0.0164167
682.424	0.0163239
682.502	0.0164156
682.580	0.0163430
682.658	0.0164038
682.736	0.0164738
682.814	0.0165260
682.892	0.0164777
682.971	0.0165324
683.049	0.0166505
683.127	0.0166010
683.205	0.0165862
683.283	0.0165704
683.361	0.0166492
683.439	0.0165916
683.517	0.0166435
683.596	0.0166869
683.674	0.0165910
683.752	0.0168023
683.830	0.0166776
683.908	0.0166820
683.986	0.0168217
684.064	0.0169069
684.142	0.0168280
684.221	0.0168069
684.299	0.0168153
684.377	0.0167982
684.455	0.0168683
684.533	0.0168812
684.611	0.0168216
684.689	0.0168953
684.767	0.0169582
684.846	0.0169389
684.924	0.0168493
685.002	0.0169344
685.080	0.0169905
685.158	0.0168683
685.236	0.0169781
685.314	0.0169290
685.392	0.0170139
685.471	0.0170695
685.549	0.0169196
685.627	0.0170113
685.705	0.0169945
685.783	0.0169575
685.861	0.0169553
685.939	0.0170785
686.017	0.0171794
686.096	0.0169970
686.174	0.0169768
686.252	0.0169624
686.330	0.0169306
686.408	0.0169064
686.486	0.0169321
686.564	0.0169144
686.642	0.0167665
686.721	0.0168008
686.799	0.0168591
686.877	0.0167897
686.955	0.0167405
687.033	0.0168128
687.111	0.0167335
687.189	0.0168157
687.267	0.0168455
687.346	0.0167547
687.424	0.0168082
687.502	0.0167329
687.580	0.0168800
687.658	0.0168105
687.736	0.0167075
687.814	0.0166147
687.892	0.0167106
687.971	0.0166949
688.049	0.0166099
688.127	0.0168301
688.205	0.0167999
688.283	0.0167545
688.361	0.0167716
688.439	0.0166749
688.517	0.0166328
688.596	0.0167538
688.674	0.0168857
688.752	0.0165441
688.830	0.0166814
688.908	0.0166948
688.986	0.0167494
689.064	0.0166990
689.142	0.0165282
689.221	0.0165168
689.299	0.0165696
689.377	0.0166311
689.455	0.0166592
689.533	0.0166216
689.611	0.0166177
689.689	0.0167267
689.767	0.0166357
689.846	0.0167681
689.924	0.0166434
690.002	0.0167665
690.080	0.0167534
690.158	0.0165775
690.236	0.0166435
690.314	0.0167182
690.392	0.0167611
690.471	0.0167941
690.549	0.0167583
690.627	0.0167316
690.705	0.0168193
690.783	0.0166673
690.861	0.0168994
690.939	0.0169731
691.017	0.0168495
691.096	0.0168121
691.174	0.0167705
691.252	0.0169072
691.330	0.0169221
691.408	0.0169563
691.486	0.0166812
691.564	0.0165938
691.642	0.0168266
691.721	0.0165955
691.799	0.0166848
691.877	0.0166132
691.955	0.0166780
692.033	0.0166752
692.111	0.0165881
692.189	0.0165824
692.267	0.0165852
692.346	0.0166775
692.424	0.0167137
692.502	0.0165875
692.580	0.0166226
692.658	0.0166595
692.736	0.0166585
692.814	0.0164987
692.892	0.0166412
692.971	0.0164762
693.049	0.0165739
693.127	0.0165380
693.205	0.0164476
693.283	0.0164262
693.361	0.0165245
693.439	0.0163755
693.517	0.0162840
693.596	0.0164393
693.674	0.0163655
693.752	0.0163976
693.830	0.0163335
693.908	0.0162302
693.986	0.0161078
694.064	0.0162383
694.142	0.0164991
694.221	0.0163021
694.299	0.0162319
694.377	0.0163793
694.455	0.0162153
694.533	0.0163004
694.611	0.0162484
694.689	0.0162395
694.767	0.0163307
694.846	0.0163687
694.924	0.0163801
695.002	0.0162511
695.080	0.0163778
695.158	0.0164717
695.236	0.0163412
695.314	0.0163563
695.392	0.0162119
695.471	0.0164753
695.549	0.0163927
695.627	0.0162930
695.705	0.0162857
695.783	0.0163223
695.861	0.0163774
695.939	0.0164882
696.017	0.0165156
696.096	0.0166013
696.174	0.0164822
696.252	0.0164352
696.330	0.0166312
696.408	0.0164848
696.486	0.0165544
696.564	0.0165740
696.642	0.0166334
696.721	0.0165941
696.799	0.0167181
696.877	0.0167852
696.955	0.0167750
697.033	0.0168729
697.111	0.0167616
697.189	0.0167061
697.267	0.0169095
697.346	0.0168550
697.424	0.0167447
697.502	0.0167988
697.580	0.0167704
697.658	0.0169455
697.736	0.0167207
697.814	0.0167313
697.892	0.0167287
697.971	0.0167095
698.049	0.0167633
698.127	0.0167529
698.205	0.0165157
698.283	0.0164780
698.361	0.0165274
698.439	0.0165432
698.517	0.0165497
698.596	0.0166431
698.674	0.0164635
698.752	0.0165048
698.830	0.0165887
698.908	0.0166468
698.986	0.0163755
699.064	0.0162475
699.142	0.0164245
699.221	0.0165420
699.299	0.0165359
699.377	0.0165429
699.455	0.0166813
699.533	0.0164785
699.611	0.0165589
699.689	0.0164836
699.767	0.0165707
699.846	0.0166584
699.924	0.0165430
700.002	0.0165278
700.080	0.0167460
700.158	0.0168922
700.236	0.0168629
700.314	0.0168083
700.392	0.0168616
700.471	0.0168645
700.549	0.0169233
700.627	0.0168929
700.705	0.0168013
700.783	0.0169733
700.861	0.0168458
700.939	0.0168265
701.017	0.0167403
701.096	0.0167990
701.174	0.0168945
701.252	0.0166506
701.330	0.0167420
701.408	0.0168725
701.486	0.0166465
701.564	0.0166762
701.642	0.0166396
701.721	0.0166942
701.799	0.0166457
701.877	0.0166174
701.955	0.0166298
702.033	0.0165182
702.111	0.0166859
702.189	0.0167046
702.267	0.0166299
702.346	0.0167919
702.424	0.0168037
702.502	0.0166789
702.580	0.0167171
702.658	0.0166707
702.736	0.0166565
702.814	0.0167023
702.892	0.0167281
702.971	0.0166764
703.049	0.0167036
703.127	0.0169838
703.205	0.0165984
703.283	0.0165224
703.361	0.0166236
703.439	0.0165875
703.517	0.0165961
703.596	0.0165751
703.674	0.0166046
703.752	0.0164222
703.830	0.0165010
703.908	0.0164391
703.986	0.0166405
704.064	0.0167439
704.142	0.0166324
704.221	0.0164907
704.299	0.0165187
704.377	0.0164586
704.455	0.0164474
704.533	0.0164217
704.611	0.0163795
704.689	0.0162364
704.767	0.0164008
704.846	0.0163165
704.924	0.0162659
705.002	0.0163815
705.080	0.0163412
705.158	0.0163585
705.236	0.0161812
705.314	0.0161794
705.392	0.0161012
705.471	0.0161721
705.549	0.0162925
705.627	0.0161768
705.705	0.0162441
705.783	0.0162395
705.861	0.0160419
705.939	0.0161130
706.017	0.0162672
706.096	0.0161313
706.174	0.0162622
706.252	0.0164273
706.330	0.0165257
706.408	0.0164416
706.486	0.0164059
706.564	0.0164026
706.642	0.0166269
706.721	0.0164556
706.799	0.0164256
706.877	0.0165204
706.955	0.0166543
707.033	0.0165961
707.111	0.0167049
707.189	0.0165823
707.267	0.0166901
707.346	0.0168787
707.424	0.0165633
707.502	0.0165358
707.580	0.0167072
707.658	0.0166067
707.736	0.0168075
707.814	0.0167213
707.892	0.0166957
707.971	0.0165742
708.049	0.0166248
708.127	0.0165666
708.205	0.0165394
708.283	0.0167337
708.361	0.0166670
708.439	0.0165029
708.517	0.0164679
708.596	0.0165838
708.674	0.0165665
708.752	0.0164879
708.830	0.0166174
708.908	0.0166113
708.986	0.0164930
709.064	0.0165569
709.142	0.0166277
709.221	0.0166846
709.299	0.0167520
709.377	0.0168111
709.455	0.0166152
709.533	0.0167545
709.611	0.0167190
709.689	0.0166187
709.767	0.0166251
709.846	0.0168296
709.924	0.0167250
710.002	0.0166176
710.080	0.0166820
710.158	0.0167673
710.236	0.0165801
710.314	0.0167104
710.392	0.0168324
710.471	0.0168000
710.549	0.0167604
710.627	0.0169317
710.705	0.0168769
710.783	0.0168448
710.861	0.0167616
710.939	0.0167278
711.017	0.0168201
711.096	0.0167387
711.174	0.0166784
711.252	0.0166785
711.330	0.0166554
711.408	0.0165530
711.486	0.0165785
711.564	0.0164481
711.642	0.0165057
711.721	0.0166279
711.799	0.0165511
711.877	0.0165467
711.955	0.0166117
712.033	0.0165804
712.111	0.0164561
712.189	0.0164114
712.267	0.0165398
712.346	0.0165067
712.424	0.0165680
712.502	0.0165227
712.580	0.0164906
712.658	0.0165005
712.736	0.0166091
712.814	0.0164611
712.892	0.0164818
712.971	0.0165813
713.049	0.0164427
713.127	0.0166135
713.205	0.0166200
713.283	0.0166253
713.361	0.0164977
713.439	0.0164670
713.517	0.0165472
713.596	0.0166872
713.674	0.0165849
713.752	0.0165167
713.830	0.0166245
713.908	0.0164951
713.986	0.0165121
714.064	0.0165210
714.142	0.0166099
714.221	0.0165730
714.299	0.0165627
714.377	0.0166431
714.455	0.0166241
714.533	0.0165948
714.611	0.0166648
714.689	0.0165762
714.767	0.0166303
714.846	0.0166036
714.924	0.0166479
715.002	0.0165244
715.080	0.0165003
715.158	0.0165898
715.236	0.0164967
715.314	0.0165245
715.392	0.0165694
715.471	0.0164651
715.549	0.0164901
715.627	0.0165253
715.705	0.0163565
715.783	0.0165302
715.861	0.0163808
715.939	0.0164387
716.017	0.0164201
716.096	0.0164651
716.174	0.0163768
716.252	0.0163985
716.330	0.0163559
716.408	0.0164391
716.486	0.0164375
716.564	0.0165549
716.642	0.0165633
716.721	0.0165401
716.799	0.0165411
716.877	0.0165839
716.955	0.0165723
717.033	0.0167140
717.111	0.0167573
717.189	0.0167412
717.267	0.0167575
717.346	0.0167131
717.424	0.0168752
717.502	0.0168384
717.580	0.0166914
717.658	0.0167218
717.736	0.0167955
717.814	0.0167104
717.892	0.0165822
717.971	0.0165863
718.049	0.0165820
718.127	0.0164128
718.205	0.0165439
718.283	0.0163435
718.361	0.0163531
718.439	0.0163431
718.517	0.0163828
718.596	0.0162666
718.674	0.0163613
718.752	0.0163322
718.830	0.0163994
718.908	0.0162746
718.986	0.0164176
719.064	0.0164841
719.142	0.0164053
719.221	0.0163786
719.299	0.0165517
719.377	0.0165665
719.455	0.0165723
719.533	0.0165727
719.611	0.0165052
719.689	0.0164610
719.767	0.0165220
719.846	0.0164866
719.924	0.0165359
720.002	0.0165752
720.080	0.0164358
720.158	0.0164684
720.236	0.0166793
720.314	0.0166210
720.392	0.0165757
720.471	0.0164426
720.549	0.0165266
720.627	0.0166092
720.705	0.0165365
720.783	0.0166119
720.861	0.0164651
720.939	0.0165046
721.017	0.0166693
721.096	0.0165809
721.174	0.0165923
721.252	0.0166206
721.330	0.0163299
721.408	0.0165443
721.486	0.0165600
721.564	0.0164342
721.642	0.0164252
721.721	0.0163305
721.799	0.0163267
721.877	0.0163940
721.955	0.0162640
722.033	0.0162524
722.111	0.0162190
722.189	0.0163545
722.267	0.0162720
722.346	0.0164091
722.424	0.0162844
722.502	0.0163323
722.580	0.0162715
722.658	0.0164345
722.736	0.0162724
722.814	0.0162408
722.892	0.0162751
722.971	0.0164548
723.049	0.0164064
723.127	0.0163927
723.205	0.0164338
723.283	0.0163295
723.361	0.0163453
723.439	0.0165279
723.517	0.0166812
723.596	0.0164777
723.674	0.0164325
723.752	0.0164607
723.830	0.0164772
723.908	0.0165668
723.986	0.0165874
724.064	0.0165625
724.142	0.0164944
724.221	0.0166273
724.299	0.0166089
724.377	0.0166275
724.455	0.0166313
724.533	0.0165687
724.611	0.0165652
724.689	0.0167029
724.767	0.0166157
724.846	0.0166031
724.924	0.0165754
725.002	0.0166010
725.080	0.0165426
725.158	0.0164028
725.236	0.0164938
725.314	0.0164305
725.392	0.0164659
725.471	0.0165905
725.549	0.0166288
725.627	0.0165083
725.705	0.0166613
725.783	0.0167199
725.861	0.0165879
725.939	0.0165994
726.017	0.0166884
726.096	0.0167446
726.174	0.0167157
726.252	0.0166795
726.330	0.0167746
726.408	0.0167586
726.486	0.0167332
726.564	0.0166906
726.642	0.0167686
726.721	0.0167174
726.799	0.0167858
726.877	0.0166732
726.955	0.0166836
727.033	0.0167812
727.111	0.0166682
727.189	0.0166171
727.267	0.0166471
727.346	0.0166459
727.424	0.0166538
727.502	0.0166492
727.580	0.0166978
727.658	0.0166451
727.736	0.0166384
727.814	0.0167634
727.892	0.0166541
727.971	0.0165556
728.049	0.0166330
728.127	0.0166497
728.205	0.0166502
728.283	0.0165347
728.361	0.0164996
728.439	0.0165614
728.517	0.0165578
728.596	0.0165938
728.674	0.0165470
728.752	0.0165578
728.830	0.0165033
728.908	0.0162563
728.986	0.0166245
729.064	0.0165955
729.142	0.0164626
729.221	0.0164392
729.299	0.0164255
729.377	0.0165162
729.455	0.0165461
729.533	0.0164697
729.611	0.0165945
729.689	0.0164838
729.767	0.0165563
729.846	0.0166049
729.924	0.0165269
730.002	0.0166251
730.080	0.0166947
730.158	0.0167123
730.236	0.0167699
730.314	0.0168056
730.392	0.0167289
730.471	0.0167953
730.549	0.0168018
730.627	0.0170224
730.705	0.0168948
730.783	0.0169193
730.861	0.0168670
730.939	0.0168372
731.017	0.0167638
731.096	0.0170606
731.174	0.0169054
731.252	0.0169958
731.330	0.0169038
731.408	0.0168156
731.486	0.0168385
731.564	0.0167789
731.642	0.0165520
731.721	0.0166841
731.799	0.0166690
731.877	0.0166530
731.955	0.0165959
732.033	0.0165260
732.111	0.0165754
732.189	0.0164858
732.267	0.0165791
732.346	0.0166118
732.424	0.0165536
732.502	0.0166319
732.580	0.0166803
732.658	0.0166257
732.736	0.0166621
732.814	0.0166359
732.892	0.0166885
732.971	0.0166576
733.049	0.0164655
733.127	0.0166047
733.205	0.0165114
733.283	0.0165282
733.361	0.0166597
733.439	0.0165881
733.517	0.0165290
733.596	0.0165679
733.674	0.0165729
733.752	0.0165887
733.830	0.0165814
733.908	0.0166425
733.986	0.0166241
734.064	0.0165582
734.142	0.0166187
734.221	0.0166434
734.299	0.0168246
734.377	0.0167624
734.455	0.0166557
734.533	0.0166838
734.611	0.0168363
734.689	0.0166494
734.767	0.0167931
734.846	0.0169365
734.924	0.0169030
735.002	0.0167372
735.080	0.0167792
735.158	0.0168766
735.236	0.0167886
735.314	0.0166689
735.392	0.0166254
735.471	0.0167766
735.549	0.0165810
735.627	0.0166454
735.705	0.0165790
735.783	0.0165228
735.861	0.0167419
735.939	0.0165427
736.017	0.0166451
736.096	0.0164934
736.174	0.0165063
736.252	0.0163612
736.330	0.0164443
736.408	0.0163564
736.486	0.0164961
736.564	0.0164458
736.642	0.0164892
736.721	0.0163763
736.799	0.0162384
736.877	0.0164925
736.955	0.0163738
737.033	0.0165405
737.111	0.0165294
737.189	0.0164816
737.267	0.0165853
737.346	0.0167147
737.424	0.0164687
737.502	0.0165173
737.580	0.0167926
737.658	0.0167160
737.736	0.0165390
737.814	0.0167335
737.892	0.0168349
737.971	0.0167573
738.049	0.0169437
738.127	0.0169654
738.205	0.0168590
738.283	0.0169826
738.361	0.0169318
738.439	0.0169602
738.517	0.0169233
738.596	0.0169131
738.674	0.0168164
738.752	0.0166632
738.830	0.0168616
738.908	0.0167701
738.986	0.0168248
739.064	0.0165851
739.142	0.0166613
739.221	0.0165218
739.299	0.0166760
739.377	0.0165644
739.455	0.0166225
739.533	0.0166619
739.611	0.0164737
739.689	0.0164635
739.767	0.0165882
739.846	0.0164188
739.924	0.0164715
740.002	0.0164050
740.080	0.0164917
740.158	0.0163861
740.236	0.0163516
740.314	0.0163171
740.392	0.0163578
740.471	0.0164388
740.549	0.0165411
740.627	0.0166045
740.705	0.0164190
740.783	0.0165185
740.861	0.0167052
740.939	0.0167982
741.017	0.0168094
741.096	0.0167228
741.174	0.0169789
741.252	0.0168893
741.330	0.0167908
741.408	0.0170944
741.486	0.0170359
741.564	0.0169624
741.642	0.0170340
741.721	0.0170933
741.799	0.0171658
741.877	0.0169615
741.955	0.0169430
742.033	0.0169521
742.111	0.0168669
742.189	0.0167970
742.267	0.0168052
742.346	0.0167766
742.424	0.0167258
742.502	0.0167964
742.580	0.0167727
742.658	0.0167320
742.736	0.0167266
742.814	0.0166325
742.892	0.0165815
742.971	0.0165923
743.049	0.0167065
743.127	0.0166531
743.205	0.0165735
743.283	0.0166158
743.361	0.0167191
743.439	0.0166304
743.517	0.0166294
743.596	0.0165075
743.674	0.0166902
743.752	0.0165808
743.830	0.0165665
743.908	0.0165071
743.986	0.0164764
744.064	0.0163817
744.142	0.0165022
744.221	0.0165251
744.299	0.0165214
744.377	0.0164851
744.455	0.0165823
744.533	0.0165339
744.611	0.0165434
744.689	0.0165618
744.767	0.0166422
744.846	0.0164754
744.924	0.0165644
745.002	0.0165385
745.080	0.0165717
745.158	0.0165157
745.236	0.0166026
745.314	0.0166035
745.392	0.0166730
745.471	0.0167921
745.549	0.0167915
745.627	0.0168783
745.705	0.0167650
745.783	0.0168501
745.861	0.0168268
745.939	0.0168702
746.017	0.0170041
746.096	0.0169144
746.174	0.0169387
746.252	0.0169851
746.330	0.0169097
746.408	0.0169115
746.486	0.0168908
746.564	0.0167832
746.642	0.0168383
746.721	0.0166545
746.799	0.0167343
746.877	0.0165558
746.955	0.0166655
747.033	0.0167083
747.111	0.0164840
747.189	0.0164364
747.267	0.0163449
747.346	0.0164149
747.424	0.0164444
747.502	0.0163171
747.580	0.0164436
747.658	0.0163391
747.736	0.0162914
747.814	0.0163676
747.892	0.0162811
747.971	0.0162967
748.049	0.0163093
748.127	0.0164312
748.205	0.0165420
748.283	0.0164606
748.361	0.0165904
748.439	0.0164397
748.517	0.0165567
748.596	0.0165373
748.674	0.0164534
748.752	0.0164826
748.830	0.0165237
748.908	0.0166897
748.986	0.0164770
749.064	0.0167324
749.142	0.0167642
749.221	0.0167545
749.299	0.0167382
749.377	0.0169274
749.455	0.0168823
749.533	0.0169258
749.611	0.0169308
749.689	0.0169581
749.767	0.0170482
749.846	0.0171412
749.924	0.0170850
750.002	0.0170079
750.080	0.0172072
750.158	0.0171777
750.236	0.0170039
750.314	0.0171537
750.392	0.0171845
750.471	0.0170557
750.549	0.0170673
750.627	0.0171127
750.705	0.0170231
750.783	0.0171590
750.861	0.0171513
750.939	0.0170332
751.017	0.0171575
751.096	0.0169138
751.174	0.0169701
751.252	0.0171024
751.330	0.0168618
751.408	0.0169512
751.486	0.0167831
751.564	0.0168204
751.642	0.0167244
751.721	0.0167577
751.799	0.0167516
751.877	0.0168521
751.955	0.0168342
752.033	0.0168094
752.111	0.0169773
752.189	0.0168733
752.267	0.0168935
752.346	0.0169453
752.424	0.0170148
752.502	0.0169882
752.580	0.0169651
752.658	0.0169121
752.736	0.0170277
752.814	0.0170615
752.892	0.0168674
752.971	0.0169600
753.049	0.0169743
753.127	0.0169399
753.205	0.0169844
753.283	0.0171101
753.361	0.0169261
753.439	0.0169772
753.517	0.0170833
753.596	0.0168862
753.674	0.0169238
753.752	0.0169023
753.830	0.0169554
753.908	0.0170255
753.986	0.0168369
754.064	0.0168870
754.142	0.0170815
754.221	0.0171146
754.299	0.0169096
754.377	0.0170145
754.455	0.0169483
754.533	0.0170222
754.611	0.0170966
754.689	0.0168365
754.767	0.0169582
754.846	0.0169638
754.924	0.0168291
755.002	0.0167042
755.080	0.0166744
755.158	0.0166931
755.236	0.0166998
755.314	0.0166593
755.392	0.0165381
755.471	0.0165424
755.549	0.0164275
755.627	0.0164621
755.705	0.0165550
755.783	0.0163604
755.861	0.0162737
755.939	0.0165455
756.017	0.0164660
756.096	0.0164735
756.174	0.0165001
756.252	0.0165270
756.330	0.0165683
756.408	0.0166250
756.486	0.0165943
756.564	0.0166618
756.642	0.0166492
756.721	0.0167403
756.799	0.0165521
756.877	0.0167200
756.955	0.0167149
757.033	0.0165955
757.111	0.0166121
757.189	0.0167356
757.267	0.0167535
757.346	0.0165603
757.424	0.0166173
757.502	0.0164467
757.580	0.0164669
757.658	0.0166708
757.736	0.0164756
757.814	0.0164056
757.892	0.0164904
757.971	0.0165591
758.049	0.0164339
758.127	0.0163384
758.205	0.0164909
758.283	0.0164423
758.361	0.0165350
758.439	0.0163503
758.517	0.0163782
758.596	0.0163797
758.674	0.0163306
758.752	0.0163599
758.830	0.0164869
758.908	0.0164005
758.986	0.0163653
759.064	0.0163403
759.142	0.0163009
759.221	0.0163662
759.299	0.0163325
759.377	0.0163553
759.455	0.0163673
759.533	0.0163728
759.611	0.0163075
759.689	0.0163913
759.767	0.0164020
759.846	0.0163606
759.924	0.0163665
760.002	0.0164444
760.080	0.0164961
760.158	0.0165070
760.236	0.0164515
760.314	0.0165672
760.392	0.0166161
760.471	0.0165280
760.549	0.0166179
760.627	0.0166297
760.705	0.0166451
760.783	0.0167120
760.861	0.0166068
760.939	0.0165747
761.017	0.0167628
761.096	0.0166591
761.174	0.0166580
761.252	0.0165346
761.330	0.0165202
761.408	0.0166667
761.486	0.0166111
761.564	0.0166417
761.642	0.0166943
761.721	0.0166496
761.799	0.0168365
761.877	0.0166042
761.955	0.0168169
762.033	0.0168661
762.111	0.0168370
762.189	0.0167336
762.267	0.0168690
762.346	0.0168957
762.424	0.0169456
762.502	0.0171054
762.580	0.0171220
762.658	0.0170509
762.736	0.0170282
762.814	0.0171107
762.892	0.0171996
762.971	0.0169427
763.049	0.0170216
763.127	0.0171455
763.205	0.0171235
763.283	0.0170779
763.361	0.0169956
763.439	0.0170663
763.517	0.0168805
763.596	0.0169095
763.674	0.0168893
763.752	0.0168673
763.830	0.0168488
763.908	0.0169331
763.986	0.0169090
764.064	0.0168941
764.142	0.0169380
764.221	0.0168752
764.299	0.0169241
764.377	0.0169529
764.455	0.0169913
764.533	0.0169125
764.611	0.0168119
764.689	0.0168750
764.767	0.0168627
764.846	0.0168595
764.924	0.0167581
765.002	0.0166628
765.080	0.0166919
765.158	0.0167719
765.236	0.0165138
765.314	0.0165839
765.392	0.0166120
765.471	0.0163874
765.549	0.0164043
765.627	0.0164823
765.705	0.0164208
765.783	0.0163490
765.861	0.0165476
765.939	0.0164414
766.017	0.0165442
766.096	0.0165760
766.174	0.0165078
766.252	0.0166830
766.330	0.0166066
766.408	0.0166698
766.486	0.0167613
766.564	0.0166624
766.642	0.0168881
766.721	0.0169073
766.799	0.0169424
766.877	0.0169370
766.955	0.0170319
767.033	0.0169952
767.111	0.0168661
767.189	0.0170412
767.267	0.0169141
767.346	0.0169680
767.424	0.0170216
767.502	0.0169102
767.580	0.0168792
767.658	0.0169408
767.736	0.0168806
767.814	0.0168715
767.892	0.0167772
767.971	0.0167538
768.049	0.0166547
768.127	0.0168142
768.205	0.0166580
768.283	0.0167374
768.361	0.0167222
768.439	0.0166662
768.517	0.0165431
768.596	0.0166895
768.674	0.0165231
768.752	0.0165251
768.830	0.0165731
768.908	0.0166221
768.986	0.0165188
769.064	0.0163761
769.142	0.0163743
769.221	0.0162739
769.299	0.0163168
769.377	0.0162095
769.455	0.0161736
769.533	0.0161372
769.611	0.0161713
769.689	0.0161004
769.767	0.0159841
769.846	0.0160428
769.924	0.0160474
770.002	0.0160379
770.080	0.0160262
770.158	0.0159919
770.236	0.0160102
770.314	0.0159710
770.392	0.0158848
770.471	0.0161210
770.549	0.0161813
770.627	0.0160409
770.705	0.0161600
770.783	0.0162788
770.861	0.0164689
770.939	0.0162872
771.017	0.0165739
771.096	0.0165063
771.174	0.0166376
771.252	0.0167006
771.330	0.0168008
771.408	0.0168082
771.486	0.0167669
771.564	0.0169678
771.642	0.0169814
771.721	0.0168908
771.799	0.0169450
771.877	0.0171324
771.955	0.0171705
772.033	0.0172118
772.111	0.0170737
772.189	0.0171785
772.267	0.0172228
772.346	0.0171618
772.424	0.0171241
772.502	0.0170127
772.580	0.0171301
772.658	0.0170250
772.736	0.0168520
772.814	0.0170569
772.892	0.0168653
772.971	0.0167977
773.049	0.0168656
773.127	0.0167701
773.205	0.0167351
773.283	0.0166914
773.361	0.0167599
773.439	0.0168476
773.517	0.0167044
773.596	0.0165245
773.674	0.0165995
773.752	0.0164751
773.830	0.0166692
773.908	0.0166003
773.986	0.0165098
774.064	0.0166712
774.142	0.0167346
774.221	0.0165696
774.299	0.0167233
774.377	0.0167078
774.455	0.0165207
774.533	0.0166142
774.611	0.0166457
774.689	0.0166325
774.767	0.0166985
774.846	0.0164850
774.924	0.0166605
775.002	0.0165682
775.080	0.0165928
775.158	0.0165075
775.236	0.0165413
775.314	0.0164772
775.392	0.0166741
775.471	0.0166759
775.549	0.0167576
775.627	0.0165466
775.705	0.0166869
775.783	0.0167062
775.861	0.0167875
775.939	0.0167905
776.017	0.0168349
776.096	0.0168211
776.174	0.0168353
776.252	0.0169625
776.330	0.0169084
776.408	0.0168024
776.486	0.0169781
776.564	0.0169917
776.642	0.0170049
776.721	0.0168755
776.799	0.0169769
776.877	0.0168866
776.955	0.0170823
777.033	0.0170620
777.111	0.0169652
777.189	0.0169301
777.267	0.0170689
777.346	0.0170550
777.424	0.0169964
777.502	0.0169980
777.580	0.0168701
777.658	0.0169280
777.736	0.0168740
777.814	0.0167365
777.892	0.0167081
777.971	0.0167411
778.049	0.0167754
778.127	0.0167569
778.205	0.0166118
778.283	0.0165703
778.361	0.0165594
778.439	0.0166800
778.517	0.0166947
778.596	0.0166419
778.674	0.0166026
778.752	0.0166184
778.830	0.0166069
778.908	0.0166319
778.986	0.0165674
779.064	0.0165815
779.142	0.0167670
779.221	0.0165984
779.299	0.0167039
779.377	0.0166642
779.455	0.0166853
779.533	0.0166209
779.611	0.0166929
779.689	0.0166934
779.767	0.0165874
779.846	0.0165840
779.924	0.0165367
780.002	0.0166315
780.080	0.0166337
780.158	0.0164544
780.236	0.0166171
780.314	0.0164610
780.392	0.0164458
780.471	0.0166297
780.549	0.0165511
780.627	0.0165885
780.705	0.0164027
780.783	0.0166464
780.861	0.0166831
780.939	0.0164686
781.017	0.0166564
781.096	0.0167120
781.174	0.0166903
781.252	0.0168011
781.330	0.0167497
781.408	0.0166420
781.486	0.0167184
781.564	0.0166275
781.642	0.0167508
781.721	0.0166837
781.799	0.0167537
781.877	0.0166788
781.955	0.0166301
782.033	0.0165600
782.111	0.0167751
782.189	0.0167285
782.267	0.0165971
782.346	0.0165044
782.424	0.0165239
782.502	0.0164507
782.580	0.0163278
782.658	0.0164253
782.736	0.0163828
782.814	0.0162714
782.892	0.0163918
782.971	0.0162550
783.049	0.0162923
783.127	0.0162821
783.205	0.0162598
783.283	0.0161954
783.361	0.0163068
783.439	0.0162572
783.517	0.0161911
783.596	0.0161662
783.674	0.0162800
783.752	0.0161423
783.830	0.0160547
783.908	0.0162944
783.986	0.0161532
784.064	0.0162591
784.142	0.0163253
784.221	0.0162675
784.299	0.0161211
784.377	0.0160802
784.455	0.0163152
784.533	0.0163320
784.611	0.0163451
784.689	0.0163721
784.767	0.0163808
784.846	0.0163807
784.924	0.0164665
785.002	0.0164060
785.080	0.0164948
785.158	0.0164684
785.236	0.0164893
785.314	0.0164296
785.392	0.0164297
785.471	0.0166286
785.549	0.0164808
785.627	0.0165855
785.705	0.0164998
785.783	0.0165520
785.861	0.0164915
785.939	0.0165067
786.017	0.0165217
786.096	0.0164358
786.174	0.0164122
786.252	0.0164843
786.330	0.0166172
786.408	0.0164416
786.486	0.0164140
786.564	0.0164937
786.642	0.0165683
786.721	0.0165018
786.799	0.0167397
786.877	0.0165974
786.955	0.0165738
787.033	0.0166926
787.111	0.0166375
787.189	0.0166164
787.267	0.0167765
787.346	0.0167933
787.424	0.0168386
787.502	0.0168980
787.580	0.0168384
787.658	0.0167982
787.736	0.0166983
787.814	0.0168316
787.892	0.0168946
787.971	0.0168277
788.049	0.0167824
788.127	0.0169098
788.205	0.0167330
788.283	0.0170567
788.361	0.0168931
788.439	0.0168424
788.517	0.0168956
788.596	0.0167253
788.674	0.0169472
788.752	0.0168935
788.830	0.0168903
788.908	0.0168486
788.986	0.0167950
789.064	0.0166963
789.142	0.0166326
789.221	0.0165974
789.299	0.0168504
789.377	0.0165921
789.455	0.0166022
789.533	0.0166483
789.611	0.0164796
789.689	0.0165652
789.767	0.0167869
789.846	0.0166418
789.924	0.0165853
790.002	0.0166116
790.080	0.0166393
790.158	0.0166216
790.236	0.0166183
790.314	0.0165923
790.392	0.0165437
790.471	0.0166662
790.549	0.0166060
790.627	0.0167555
790.705	0.0167677
790.783	0.0165379
790.861	0.0165244
790.939	0.0165700
791.017	0.0164902
791.096	0.0166225
791.174	0.0166514
791.252	0.0166653
791.330	0.0165871
791.408	0.0166055
791.486	0.0164771
791.564	0.0163852
791.642	0.0165412
791.721	0.0165180
791.799	0.0164834
791.877	0.0164107
791.955	0.0166164
792.033	0.0165451
792.111	0.0166925
792.189	0.0165781
792.267	0.0165767
792.346	0.0165053
792.424	0.0167130
792.502	0.0166121
792.580	0.0164766
792.658	0.0166649
792.736	0.0167811
792.814	0.0167062
792.892	0.0166969
792.971	0.0168187
793.049	0.0168330
793.127	0.0167058
793.205	0.0167761
793.283	0.0167673
793.361	0.0168607
793.439	0.0169302
793.517	0.0169471
793.596	0.0168424
793.674	0.0169798
793.752	0.0168850
793.830	0.0168834
793.908	0.0169228
793.986	0.0167941
794.064	0.0167905
794.142	0.0168541
794.221	0.0167885
794.299	0.0168967
794.377	0.0168160
794.455	0.0169443
794.533	0.0167995
794.611	0.0168633
794.689	0.0167963
794.767	0.0167307
794.846	0.0166824
794.924	0.0167480
795.002	0.0167016
795.080	0.0166857
795.158	0.0167725
795.236	0.0166102
795.314	0.0165645
795.392	0.0167344
795.471	0.0166638
795.549	0.0164152
795.627	0.0165673
795.705	0.0165368
795.783	0.0166322
795.861	0.0165292
795.939	0.0164893
796.017	0.0166103
796.096	0.0164880
796.174	0.0164948
796.252	0.0163885
796.330	0.0162772
796.408	0.0164831
796.486	0.0164203
796.564	0.0163656
796.642	0.0163332
796.721	0.0163721
796.799	0.0162616
796.877	0.0162473
796.955	0.0163426
797.033	0.0161977
797.111	0.0163477
797.189	0.0162782
797.267	0.0162270
797.346	0.0162489
797.424	0.0162421
797.502	0.0162071
797.580	0.0162422
797.658	0.0163804
797.736	0.0162667
797.814	0.0162904
797.892	0.0164196
797.971	0.0163534
798.049	0.0163413
798.127	0.0162788
798.205	0.0163481
798.283	0.0163825
798.361	0.0162645
798.439	0.0164175
798.517	0.0164009
798.596	0.0162730
798.674	0.0161293
798.752	0.0161158
798.830	0.0161497
798.908	0.0161787
798.986	0.0161837
799.064	0.0160862
799.142	0.0160487
799.221	0.0160144
799.299	0.0160634
799.377	0.0160886
799.455	0.0161179
799.533	0.0160770
799.611	0.0159789
799.689	0.0161119
799.767	0.0161601
799.846	0.0160502
799.924	0.0159018
800.002	0.0162099
800.080	0.0162361
800.158	0.0161165
800.236	0.0161492
800.314	0.0162464
800.392	0.0165197
800.471	0.0163660
800.549	0.0163721
800.627	0.0163337
800.705	0.0165472
800.783	0.0164380
800.861	0.0164085
800.939	0.0165449
801.017	0.0164623
801.096	0.0166826
801.174	0.0166045
801.252	0.0166447
801.330	0.0164575
801.408	0.0164030
801.486	0.0166393
801.564	0.0163943
801.642	0.0167934
801.721	0.0166914
801.799	0.0166124
801.877	0.0166702
801.955	0.0166675
802.033	0.0167445
802.111	0.0166674
802.189	0.0167280
802.267	0.0167214
802.346	0.0167631
802.424	0.0167177
802.502	0.0168871
802.580	0.0167731
802.658	0.0167828
802.736	0.0168201
802.814	0.0169356
802.892	0.0168971
802.971	0.0168855
803.049	0.0168953
803.127	0.0168729
803.205	0.0168378
803.283	0.0168990
803.361	0.0167417
803.439	0.0168160
803.517	0.0169421
803.596	0.0168980
803.674	0.0168928
803.752	0.0168843
803.830	0.0168168
803.908	0.0167917
803.986	0.0168372
804.064	0.0169284
804.142	0.0168756
804.221	0.0168571
804.299	0.0166682
804.377	0.0167179
804.455	0.0167052
804.533	0.0167065
804.611	0.0166664
804.689	0.0166151
804.767	0.0166422
804.846	0.0166027
804.924	0.0165174
805.002	0.0165024
805.080	0.0166024
805.158	0.0164485
805.236	0.0167023
805.314	0.0163486
805.392	0.0164279
805.471	0.0165174
805.549	0.0165251
805.627	0.0163892
805.705	0.0165905
805.783	0.0165895
805.861	0.0165221
805.939	0.0165411
806.017	0.0164687
806.096	0.0166075
806.174	0.0165411
806.252	0.0165782
806.330	0.0164824
806.408	0.0165607
806.486	0.0165144
806.564	0.0165337
806.642	0.0166105
806.721	0.0166173
806.799	0.0165065
806.877	0.0164810
806.955	0.0166308
807.033	0.0167173
807.111	0.0166327
807.189	0.0166470
807.267	0.0166340
807.346	0.0167725
807.424	0.0167171
807.502	0.0167410
807.580	0.0167263
807.658	0.0167194
807.736	0.0167002
807.814	0.0167921
807.892	0.0168671
807.971	0.0168002
808.049	0.0169567
808.127	0.0167902
808.205	0.0169351
808.283	0.0169591
808.361	0.0169399
808.439	0.0168842
808.517	0.0169276
808.596	0.0169353
808.674	0.0169083
808.752	0.0170675
808.830	0.0168408
808.908	0.0168472
808.986	0.0168405
809.064	0.0168636
809.142	0.0168774
809.221	0.0168194
809.299	0.0168269
809.377	0.0169081
809.455	0.0168761
809.533	0.0168320
809.611	0.0168668
809.689	0.0168943
809.767	0.0168681
809.846	0.0168121
809.924	0.0167525
810.002	0.0167087
810.080	0.0167660
810.158	0.0166403
810.236	0.0167734
810.314	0.0168380
810.392	0.0167646
810.471	0.0167588
810.549	0.0167606
810.627	0.0166087
810.705	0.0167442
810.783	0.0166444
810.861	0.0166924
810.939	0.0165836
811.017	0.0167554
811.096	0.0165488
811.174	0.0165563
811.252	0.0166576
811.330	0.0166448
811.408	0.0166884
811.486	0.0166582
811.564	0.0167189
811.642	0.0166576
811.721	0.0166572
811.799	0.0166058
811.877	0.0166740
811.955	0.0166286
812.033	0.0165560
812.111	0.0166846
812.189	0.0166026
812.267	0.0165460
812.346	0.0165441
812.424	0.0164494
812.502	0.0164944
812.580	0.0164397
812.658	0.0163350
812.736	0.0163865
812.814	0.0164262
812.892	0.0163378
812.971	0.0164048
813.049	0.0163670
813.127	0.0162274
813.205	0.0164359
813.283	0.0163866
813.361	0.0163148
813.439	0.0162423
813.517	0.0162161
813.596	0.0164047
813.674	0.0162653
813.752	0.0163103
813.830	0.0164515
813.908	0.0162019
813.986	0.0163924
814.064	0.0165302
814.142	0.0164520
814.221	0.0164783
814.299	0.0165937
814.377	0.0164888
814.455	0.0167099
814.533	0.0167297
814.611	0.0166370
814.689	0.0166687
814.767	0.0168140
814.846	0.0167522
814.924	0.0168523
815.002	0.0168980
815.080	0.0170222
815.158	0.0169479
815.236	0.0168606
815.314	0.0169105
815.392	0.0170619
815.471	0.0169937
815.549	0.0169422
815.627	0.0169435
815.705	0.0169589
815.783	0.0168631
815.861	0.0168167
815.939	0.0170162
816.017	0.0168713
816.096	0.0169289
816.174	0.0168705
816.252	0.0168945
816.330	0.0167606
816.408	0.0166547
816.486	0.0169557
816.564	0.0168263
816.642	0.0166996
816.721	0.0168494
816.799	0.0167251
816.877	0.0167399
816.955	0.0168449
817.033	0.0167579
817.111	0.0167603
817.189	0.0168478
817.267	0.0168038
817.346	0.0168336
817.424	0.0167610
817.502	0.0168078
817.580	0.0167014
817.658	0.0167235
817.736	0.0167616
817.814	0.0167518
817.892	0.0167753
817.971	0.0168613
818.049	0.0167600
818.127	0.0166737
818.205	0.0165838
818.283	0.0166727
818.361	0.0165539
818.439	0.0166783
818.517	0.0166899
818.596	0.0166843
818.674	0.0166270
818.752	0.0167125
818.830	0.0167113
818.908	0.0167509
818.986	0.0168021
819.064	0.0166854
819.142	0.0168052
819.221	0.0168385
819.299	0.0166830
819.377	0.0166820
819.455	0.0167436
819.533	0.0168670
819.611	0.0166969
819.689	0.0167576
819.767	0.0168820
819.846	0.0166832
819.924	0.0167589
820.002	0.0167283
820.080	0.0167632
820.158	0.0166797
820.236	0.0167050
820.314	0.0167063
820.392	0.0165823
820.471	0.0164021
820.549	0.0165043
820.627	0.0164378
820.705	0.0164913
820.783	0.0164819
820.861	0.0164211
820.939	0.0163884
821.017	0.0163280
821.096	0.0163688
821.174	0.0163579
821.252	0.0164055
821.330	0.0162978
821.408	0.0162717
821.486	0.0163914
821.564	0.0163284
821.642	0.0161916
821.721	0.0162053
821.799	0.0162632
821.877	0.0160882
821.955	0.0160957
822.033	0.0162372
822.111	0.0162208
822.189	0.0162844
822.267	0.0160861
822.346	0.0161958
822.424	0.0163704
822.502	0.0161787
822.580	0.0163484
822.658	0.0163244
822.736	0.0161408
822.814	0.0161864
822.892	0.0162627
822.971	0.0162591
823.049	0.0163815
823.127	0.0163124
823.205	0.0164425
823.283	0.0164085
823.361	0.0164784
823.439	0.0162894
823.517	0.0163479
823.596	0.0164451
823.674	0.0163226
823.752	0.0163715
823.830	0.0163647
823.908	0.0164536
823.986	0.0165397
824.064	0.0164286
824.142	0.0163780
824.221	0.0163074
824.299	0.0164127
824.377	0.0164588
824.455	0.0162428
824.533	0.0164027
824.611	0.0163110
824.689	0.0163799
824.767	0.0163410
824.846	0.0164446
824.924	0.0165429
825.002	0.0164497
825.080	0.0164380
825.158	0.0164696
825.236	0.0164902
825.314	0.0163636
825.392	0.0164898
825.471	0.0164442
825.549	0.0164130
825.627	0.0166295
825.705	0.0165683
825.783	0.0166420
825.861	0.0165520
825.939	0.0165762
826.017	0.0164369
826.096	0.0167146
826.174	0.0167141
826.252	0.0166007
826.330	0.0166902
826.408	0.0166306
826.486	0.0167471
826.564	0.0166570
826.642	0.0165327
826.721	0.0167564
826.799	0.0166570
826.877	0.0166685
826.955	0.0166515
827.033	0.0167094
827.111	0.0167844
827.189	0.0166611
827.267	0.0166987
827.346	0.0168166
827.424	0.0168005
827.502	0.0166970
827.580	0.0166984
827.658	0.0167088
827.736	0.0166854
827.814	0.0169360
827.892	0.0168921
827.971	0.0167088
828.049	0.0167837
828.127	0.0168472
828.205	0.0168381
828.283	0.0168109
828.361	0.0168997
828.439	0.0170886
828.517	0.0170235
828.596	0.0170697
828.674	0.0170983
828.752	0.0171017
828.830	0.0170999
828.908	0.0171108
828.986	0.0170004
829.064	0.0170840
829.142	0.0171416
829.221	0.0170171
829.299	0.0171513
829.377	0.0169268
829.455	0.0169280
829.533	0.0171070
829.611	0.0170432
829.689	0.0169633
829.767	0.0169920
829.846	0.0169728
829.924	0.0170599
830.002	0.0169826
830.080	0.0169239
830.158	0.0169824
830.236	0.0168819
830.314	0.0168295
830.392	0.0169676
830.471	0.0168799
830.549	0.0169144
830.627	0.0168049
830.705	0.0168626
830.783	0.0169073
830.861	0.0168270
830.939	0.0167433
831.017	0.0167461
831.096	0.0168407
831.174	0.0168275
831.252	0.0168243
831.330	0.0168921
831.408	0.0169194
831.486	0.0169090
831.564	0.0167596
831.642	0.0166857
831.721	0.0168321
831.799	0.0167550
831.877	0.0169656
831.955	0.0168399
832.033	0.0169286
832.111	0.0168962
832.189	0.0167245
832.267	0.0169006
832.346	0.0168506
832.424	0.0167439
832.502	0.0167602
832.580	0.0166501
832.658	0.0166632
832.736	0.0168538
832.814	0.0166431
832.892	0.0166351
832.971	0.0166115
833.049	0.0166593
833.127	0.0165641
833.205	0.0165687
833.283	0.0165792
833.361	0.0167691
833.439	0.0167303
833.517	0.0166513
833.596	0.0166596
833.674	0.0166312
833.752	0.0166953
833.830	0.0166479
833.908	0.0165835
833.986	0.0166750
834.064	0.0167338
834.142	0.0166833
834.221	0.0167281
834.299	0.0166150
834.377	0.0167479
834.455	0.0165847
834.533	0.0166750
834.611	0.0167602
834.689	0.0165309
834.767	0.0166020
834.846	0.0166619
834.924	0.0166129
835.002	0.0164935
835.080	0.0164938
835.158	0.0166111
835.236	0.0165386
835.314	0.0166718
835.392	0.0165601
835.471	0.0165591
835.549	0.0164886
835.627	0.0164841
835.705	0.0165749
835.783	0.0166331
835.861	0.0164630
835.939	0.0164420
836.017	0.0163862
836.096	0.0164404
836.174	0.0164671
836.252	0.0164761
836.330	0.0164761
836.408	0.0165539
836.486	0.0165092
836.564	0.0164046
836.642	0.0163422
836.721	0.0165448
836.799	0.0164443
836.877	0.0164816
836.955	0.0164716
837.033	0.0164727
837.111	0.0165817
837.189	0.0165005
837.267	0.0165215
837.346	0.0164906
837.424	0.0165513
837.502	0.0165790
837.580	0.0164743
837.658	0.0165249
837.736	0.0164627
837.814	0.0165704
837.892	0.0166264
837.971	0.0165762
838.049	0.0164741
838.127	0.0166419
838.205	0.0163234
838.283	0.0164986
838.361	0.0164592
838.439	0.0164892
838.517	0.0163326
838.596	0.0164248
838.674	0.0164737
838.752	0.0164445
838.830	0.0164146
838.908	0.0164417
838.986	0.0164095
839.064	0.0165140
839.142	0.0165197
839.221	0.0164545
839.299	0.0165144
839.377	0.0164938
839.455	0.0165752
839.533	0.0165506
839.611	0.0166199
839.689	0.0166137
839.767	0.0167308
839.846	0.0165614
839.924	0.0165836
840.002	0.0164954
840.080	0.0167396
840.158	0.0166622
840.236	0.0166472
840.314	0.0166019
840.392	0.0165839
840.471	0.0167097
840.549	0.0166119
840.627	0.0166039
840.705	0.0166879
840.783	0.0166254
840.861	0.0165610
840.939	0.0167007
841.017	0.0166493
841.096	0.0165473
841.174	0.0166441
841.252	0.0167409
841.330	0.0166651
841.408	0.0166447
841.486	0.0166472
841.564	0.0167484
841.642	0.0165747
841.721	0.0165787
841.799	0.0165753
841.877	0.0165173
841.955	0.0166086
842.033	0.0166010
842.111	0.0166055
842.189	0.0166650
842.267	0.0166495
842.346	0.0165206
842.424	0.0165874
842.502	0.0166164
842.580	0.0165975
842.658	0.0166193
842.736	0.0166412
842.814	0.0167580
842.892	0.0167801
842.971	0.0167558
843.049	0.0165923
843.127	0.0166790
843.205	0.0165964
843.283	0.0167114
843.361	0.0167502
843.439	0.0167274
843.517	0.0167522
843.596	0.0165907
843.674	0.0166872
843.752	0.0167417
843.830	0.0165795
843.908	0.0166723
843.986	0.0166187
844.064	0.0166817
844.142	0.0167435
844.221	0.0165285
844.299	0.0165215
844.377	0.0166653
844.455	0.0165910
844.533	0.0165440
844.611	0.0165504
844.689	0.0165431
844.767	0.0165218
844.846	0.0165865
844.924	0.0165937
845.002	0.0165997
845.080	0.0165916
845.158	0.0166726
845.236	0.0165458
845.314	0.0166314
845.392	0.0165516
845.471	0.0165101
845.549	0.0166525
845.627	0.0165621
845.705	0.0166782
845.783	0.0167288
845.861	0.0165998
845.939	0.0166535
846.017	0.0164680
846.096	0.0165615
846.174	0.0166101
846.252	0.0165635
846.330	0.0166444
846.408	0.0165275
846.486	0.0165421
846.564	0.0166805
846.642	0.0166442
846.721	0.0166302
846.799	0.0166550
846.877	0.0167001
846.955	0.0165813
847.033	0.0166967
847.111	0.0165964
847.189	0.0167840
847.267	0.0166164
847.346	0.0165707
847.424	0.0164655
847.502	0.0164851
847.580	0.0165847
847.658	0.0165453
847.736	0.0165551
847.814	0.0165886
847.892	0.0164999
847.971	0.0164445
848.049	0.0165871
848.127	0.0164881
848.205	0.0165817
848.283	0.0165798
848.361	0.0164542
848.439	0.0164527
848.517	0.0164574
848.596	0.0164607
848.674	0.0165791
848.752	0.0165881
848.830	0.0164342
848.908	0.0165745
848.986	0.0164735
849.064	0.0165260
849.142	0.0165475
849.221	0.0165285
849.299	0.0165208
849.377	0.0165012
849.455	0.0165498
849.533	0.0166536
849.611	0.0165596
849.689	0.0166220
849.767	0.0165368
849.846	0.0163732
849.924	0.0166908
850.002	0.0167408
850.080	0.0164569
850.158	0.0164957
850.236	0.0166252
850.314	0.0165437
850.392	0.0165405
850.471	0.0165210
850.549	0.0166255
850.627	0.0165850
850.705	0.0165664
850.783	0.0164327
850.861	0.0165840
850.939	0.0164957
851.017	0.0165593
851.096	0.0165316
851.174	0.0164481
851.252	0.0164982
851.330	0.0165424
851.408	0.0166014
851.486	0.0164795
851.564	0.0164736
851.642	0.0165602
851.721	0.0166210
851.799	0.0163985
851.877	0.0165627
851.955	0.0164989
852.033	0.0163273
852.111	0.0165366
852.189	0.0163573
852.267	0.0165891
852.346	0.0167352
852.424	0.0166782
852.502	0.0167066
852.580	0.0166772
852.658	0.0167850
852.736	0.0167357
852.814	0.0167243
852.892	0.0167296
852.971	0.0168407
853.049	0.0169087
853.127	0.0167419
853.205	0.0168085
853.283	0.0167458
853.361	0.0167010
853.439	0.0167139
853.517	0.0167427
853.596	0.0166845
853.674	0.0166820
853.752	0.0168591
853.830	0.0168507
853.908	0.0167711
853.986	0.0168363
854.064	0.0169542
854.142	0.0170303
854.221	0.0168516
854.299	0.0168597
854.377	0.0170379
854.455	0.0169711
854.533	0.0170682
854.611	0.0170740
854.689	0.0169366
854.767	0.0169915
854.846	0.0169391
854.924	0.0169599
855.002	0.0170540
855.080	0.0170401
855.158	0.0169225
855.236	0.0169125
855.314	0.0169046
855.392	0.0168884
855.471	0.0169685
855.549	0.0168496
855.627	0.0168966
855.705	0.0169160
855.783	0.0169540
855.861	0.0169961
855.939	0.0169997
856.017	0.0169088
856.096	0.0168892
856.174	0.0169030
856.252	0.0168034
856.330	0.0169431
856.408	0.0169386
856.486	0.0168935
856.564	0.0169124
856.642	0.0167426
856.721	0.0168504
856.799	0.0168840
856.877	0.0165672
856.955	0.0167654
857.033	0.0168468
857.111	0.0167396
857.189	0.0168385
857.267	0.0169263
857.346	0.0168184
857.424	0.0167767
857.502	0.0167643
857.580	0.0167255
857.658	0.0168179
857.736	0.0169602
857.814	0.0167656
857.892	0.0167374
857.971	0.0167500
858.049	0.0167638
858.127	0.0167040
858.205	0.0167622
858.283	0.0168672
858.361	0.0169352
858.439	0.0166246
858.517	0.0166810
858.596	0.0169302
858.674	0.0166666
858.752	0.0167921
858.830	0.0167809
858.908	0.0167387
858.986	0.0166525
859.064	0.0167573
859.142	0.0169071
859.221	0.0168083
859.299	0.0167546
859.377	0.0167265
859.455	0.0167577
859.533	0.0167733
859.611	0.0169122
859.689	0.0166806
859.767	0.0168336
859.846	0.0169954
859.924	0.0167986
860.002	0.0167579
860.080	0.0167952
860.158	0.0169154
860.236	0.0170015
860.314	0.0169634
860.392	0.0169125
860.471	0.0169495
860.549	0.0169231
860.627	0.0169468
860.705	0.0167542
860.783	0.0168417
860.861	0.0168837
860.939	0.0167267
861.017	0.0167941
861.096	0.0167565
861.174	0.0167181
861.252	0.0166872
861.330	0.0166887
861.408	0.0167467
861.486	0.0165380
861.564	0.0165098
861.642	0.0166656
861.721	0.0165154
861.799	0.0164974
861.877	0.0164076
861.955	0.0164237
862.033	0.0166052
862.111	0.0164111
862.189	0.0163469
862.267	0.0164131
862.346	0.0164415
862.424	0.0163686
862.502	0.0164555
862.580	0.0162678
862.658	0.0164216
862.736	0.0164371
862.814	0.0162988
862.892	0.0162415
862.971	0.0163330
863.049	0.0163216
863.127	0.0163447
863.205	0.0163100
863.283	0.0161780
863.361	0.0162182
863.439	0.0162505
863.517	0.0162583
863.596	0.0162817
863.674	0.0164384
863.752	0.0161685
863.830	0.0161759
863.908	0.0162218
863.986	0.0163023
864.064	0.0164940
864.142	0.0163900
864.221	0.0163520
864.299	0.0164267
864.377	0.0163470
864.455	0.0164583
864.533	0.0163986
864.611	0.0162826
864.689	0.0164642
864.767	0.0166595
864.846	0.0165053
864.924	0.0165340
865.002	0.0165031
865.080	0.0163966
865.158	0.0165274
865.236	0.0166595
865.314	0.0164409
865.392	0.0165810
865.471	0.0165678
865.549	0.0166187
865.627	0.0166036
865.705	0.0164558
865.783	0.0164809
865.861	0.0164402
865.939	0.0164903
866.017	0.0164590
866.096	0.0164607
866.174	0.0164563
866.252	0.0164661
866.330	0.0165936
866.408	0.0166495
866.486	0.0166592
866.564	0.0166778
866.642	0.0166476
866.721	0.0168922
866.799	0.0168549
866.877	0.0167547
866.955	0.0168607
867.033	0.0169681
867.111	0.0168992
867.189	0.0169962
867.267	0.0169596
867.346	0.0170185
867.424	0.0169811
867.502	0.0170579
867.580	0.0170325
867.658	0.0170576
867.736	0.0170871
867.814	0.0171051
867.892	0.0170554
867.971	0.0171673
868.049	0.0172365
868.127	0.0170522
868.205	0.0170996
868.283	0.0173544
868.361	0.0171177
868.439	0.0169827
868.517	0.0171174
868.596	0.0171255
868.674	0.0170580
868.752	0.0171037
868.830	0.0169141
868.908	0.0169948
868.986	0.0169911
869.064	0.0169394
869.142	0.0169994
869.221	0.0169136
869.299	0.0167025
869.377	0.0167054
869.455	0.0166904
869.533	0.0166309
869.611	0.0165037
869.689	0.0164989
869.767	0.0164439
869.846	0.0163916
869.924	0.0162940
870.002	0.0162093
870.080	0.0162612
870.158	0.0159387
870.236	0.0160555
870.314	0.0161121
870.392	0.0159533
870.471	0.0160320
870.549	0.0160616
870.627	0.0160440
870.705	0.0159764
870.783	0.0159240
870.861	0.0158756
870.939	0.0160207
871.017	0.0160642
871.096	0.0160548
871.174	0.0160333
871.252	0.0160744
871.330	0.0161622
871.408	0.0159914
871.486	0.0161414
871.564	0.0163370
871.642	0.0161803
871.721	0.0161563
871.799	0.0161912
871.877	0.0161533
871.955	0.0163226
872.033	0.0163217
872.111	0.0163369
872.189	0.0164478
872.267	0.0164646
872.346	0.0164344
872.424	0.0164201
872.502	0.0163437
872.580	0.0164648
872.658	0.0164590
872.736	0.0164241
872.814	0.0164928
872.892	0.0166527
872.971	0.0165398
873.049	0.0165800
873.127	0.0166843
873.205	0.0166283
873.283	0.0165895
873.361	0.0167251
873.439	0.0166026
873.517	0.0167592
873.596	0.0167096
873.674	0.0166838
873.752	0.0167900
873.830	0.0167704
873.908	0.0167401
873.986	0.0166568
874.064	0.0166978
874.142	0.0166598
874.221	0.0167860
874.299	0.0166859
874.377	0.0165872
874.455	0.0166580
874.533	0.0167280
874.611	0.0167545
874.689	0.0166879
874.767	0.0166185
874.846	0.0167208
874.924	0.0167368
875.002	0.0167353
875.080	0.0166838
875.158	0.0167256
875.236	0.0168052
875.314	0.0168105
875.392	0.0167606
875.471	0.0167773
875.549	0.0168028
875.627	0.0168281
875.705	0.0168080
875.783	0.0170360
875.861	0.0168910
875.939	0.0169163
876.017	0.0168819
876.096	0.0169370
876.174	0.0169562
876.252	0.0168999
876.330	0.0167396
876.408	0.0169772
876.486	0.0169474
876.564	0.0170189
876.642	0.0169361
876.721	0.0167841
876.799	0.0169621
876.877	0.0168305
876.955	0.0169039
877.033	0.0168344
877.111	0.0169658
877.189	0.0169193
877.267	0.0168371
877.346	0.0169982
877.424	0.0168310
877.502	0.0168703
877.580	0.0169653
877.658	0.0168355
877.736	0.0167965
877.814	0.0167093
877.892	0.0167780
877.971	0.0167884
878.049	0.0166573
878.127	0.0166206
878.205	0.0167110
878.283	0.0166655
878.361	0.0165591
878.439	0.0166493
878.517	0.0168082
878.596	0.0166731
878.674	0.0167192
878.752	0.0167950
878.830	0.0166032
878.908	0.0166983
878.986	0.0166576
879.064	0.0166476
879.142	0.0168513
879.221	0.0166609
879.299	0.0167207
879.377	0.0166281
879.455	0.0166878
879.533	0.0166475
879.611	0.0166839
879.689	0.0166410
879.767	0.0166894
879.846	0.0166204
879.924	0.0166298
880.002	0.0166822
880.080	0.0166499
880.158	0.0167056
880.236	0.0166744
880.314	0.0166616
880.392	0.0166396
880.471	0.0167252
880.549	0.0166259
880.627	0.0165551
880.705	0.0166085
880.783	0.0165597
880.861	0.0167110
880.939	0.0165398
881.017	0.0165493
881.096	0.0165724
881.174	0.0165529
881.252	0.0165234
881.330	0.0163786
881.408	0.0164395
881.486	0.0164829
881.564	0.0164413
881.642	0.0165797
881.721	0.0164131
881.799	0.0163860
881.877	0.0164534
881.955	0.0165019
882.033	0.0164337
882.111	0.0164956
882.189	0.0165456
882.267	0.0165032
882.346	0.0167019
882.424	0.0166267
882.502	0.0166067
882.580	0.0165620
882.658	0.0167339
882.736	0.0168283
882.814	0.0167308
882.892	0.0166612
882.971	0.0165559
883.049	0.0166953
883.127	0.0166924
883.205	0.0166821
883.283	0.0166524
883.361	0.0166383
883.439	0.0167647
883.517	0.0165813
883.596	0.0166779
883.674	0.0167496
883.752	0.0167204
883.830	0.0167086
883.908	0.0167603
883.986	0.0168198
884.064	0.0168688
884.142	0.0166315
884.221	0.0167561
884.299	0.0167177
884.377	0.0167347
884.455	0.0166354
884.533	0.0168742
884.611	0.0167522
884.689	0.0165740
884.767	0.0167860
884.846	0.0167359
884.924	0.0166183
885.002	0.0167141
885.080	0.0167709
885.158	0.0167181
885.236	0.0167044
885.314	0.0166862
885.392	0.0166566
885.471	0.0168030
885.549	0.0167078
885.627	0.0167185
885.705	0.0166102
885.783	0.0167783
885.861	0.0166823
885.939	0.0168777
886.017	0.0168675
886.096	0.0167720
886.174	0.0168852
886.252	0.0170178
886.330	0.0169906
886.408	0.0168742
886.486	0.0169887
886.564	0.0168890
886.642	0.0170161
886.721	0.0170113
886.799	0.0170564
886.877	0.0171273
886.955	0.0170753
887.033	0.0169623
887.111	0.0169884
887.189	0.0169633
887.267	0.0170699
887.346	0.0169595
887.424	0.0167898
887.502	0.0168278
887.580	0.0169052
887.658	0.0169062
887.736	0.0167535
887.814	0.0169939
887.892	0.0168632
887.971	0.0167857
888.049	0.0167439
888.127	0.0166769
888.205	0.0168440
888.283	0.0167751
888.361	0.0166883
888.439	0.0166164
888.517	0.0166627
888.596	0.0166823
888.674	0.0165973
888.752	0.0165438
888.830	0.0166290
888.908	0.0167802
888.986	0.0166144
889.064	0.0166376
889.142	0.0165977
889.221	0.0166853
889.299	0.0166890
889.377	0.0164916
889.455	0.0165567
889.533	0.0166768
889.611	0.0166055
889.689	0.0165810
889.767	0.0164493
889.846	0.0165311
889.924	0.0167400
890.002	0.0165546
890.080	0.0164509
890.158	0.0166475
890.236	0.0167536
890.314	0.0165340
890.392	0.0166821
890.471	0.0166223
890.549	0.0165905
890.627	0.0165732
890.705	0.0166942
890.783	0.0165211
890.861	0.0164764
890.939	0.0166026
891.017	0.0165987
891.096	0.0165730
891.174	0.0164515
891.252	0.0165811
891.330	0.0164993
891.408	0.0166569
891.486	0.0165110
891.564	0.0166564
891.642	0.0165775
891.721	0.0167423
891.799	0.0166694
891.877	0.0165754
891.955	0.0166245
892.033	0.0166459
892.111	0.0166725
892.189	0.0168100
892.267	0.0167352
892.346	0.0166363
892.424	0.0167480
892.502	0.0167175
892.580	0.0167287
892.658	0.0166224
892.736	0.0168050
892.814	0.0168382
892.892	0.0166987
892.971	0.0167631
893.049	0.0167467
893.127	0.0167194
893.205	0.0166973
893.283	0.0166225
893.361	0.0166677
893.439	0.0167532
893.517	0.0166534
893.596	0.0167034
893.674	0.0166699
893.752	0.0166228
893.830	0.0165541
893.908	0.0165604
893.986	0.0166590
894.064	0.0166548
894.142	0.0166452
894.221	0.0166044
894.299	0.0165440
894.377	0.0166446
894.455	0.0167597
894.533	0.0166439
894.611	0.0165675
894.689	0.0165315
894.767	0.0166379
894.846	0.0165822
894.924	0.0164275
895.002	0.0164198
895.080	0.0165068
895.158	0.0163548
895.236	0.0164796
895.314	0.0162429
895.392	0.0162728
895.471	0.0163498
895.549	0.0162072
895.627	0.0162489
895.705	0.0163579
895.783	0.0163937
895.861	0.0164249
895.939	0.0163515
896.017	0.0164076
896.096	0.0163177
896.174	0.0164660
896.252	0.0164001
896.330	0.0163860
896.408	0.0163756
896.486	0.0164397
896.564	0.0164594
896.642	0.0164433
896.721	0.0163862
896.799	0.0164667
896.877	0.0164143
896.955	0.0163748
897.033	0.0163552
897.111	0.0164064
897.189	0.0163711
897.267	0.0163045
897.346	0.0164146
897.424	0.0163940
897.502	0.0164860
897.580	0.0164568
897.658	0.0164506
897.736	0.0164993
897.814	0.0165900
897.892	0.0166842
897.971	0.0165882
898.049	0.0165764
898.127	0.0164753
898.205	0.0165646
898.283	0.0166705
898.361	0.0165997
898.439	0.0167799
898.517	0.0167041
898.596	0.0167014
898.674	0.0165962
898.752	0.0165623
898.830	0.0166643
898.908	0.0165533
898.986	0.0166004
899.064	0.0165002
899.142	0.0166387
899.221	0.0168043
899.299	0.0166631
899.377	0.0166672
899.455	0.0166631
899.533	0.0166093
899.611	0.0165620
899.689	0.0164087
899.767	0.0166596
899.846	0.0166785
899.924	0.0165984
900.002	0.0166499
900.080	0.0167348
900.158	0.0167119
900.236	0.0166263
900.314	0.0168000
900.392	0.0167908
900.471	0.0166876
900.549	0.0168810
900.627	0.0168130
900.705	0.0167814
900.783	0.0168727
900.861	0.0169028
900.939	0.0166734
901.017	0.0168282
901.096	0.0167945
901.174	0.0168247
901.252	0.0169667
901.330	0.0169236
901.408	0.0166829
901.486	0.0168325
901.564	0.0167983
901.642	0.0168751
901.721	0.0168996
901.799	0.0167787
901.877	0.0169005
901.955	0.0167567
902.033	0.0167757
902.111	0.0167910
902.189	0.0168796
902.267	0.0168047
902.346	0.0167870
902.424	0.0167883
902.502	0.0167046
902.580	0.0167775
902.658	0.0168217
902.736	0.0167828
902.814	0.0166172
902.892	0.0165257
902.971	0.0166086
903.049	0.0165562
903.127	0.0166920
903.205	0.0166309
903.283	0.0165095
903.361	0.0163931
903.439	0.0166134
903.517	0.0166029
903.596	0.0166540
903.674	0.0167118
903.752	0.0165531
903.830	0.0166367
903.908	0.0166148
903.986	0.0165858
904.064	0.0167590
904.142	0.0166628
904.221	0.0168246
904.299	0.0167704
904.377	0.0166053
904.455	0.0166550
904.533	0.0165942
904.611	0.0167019
904.689	0.0165425
904.767	0.0165751
904.846	0.0166125
904.924	0.0166693
905.002	0.0164957
905.080	0.0164822
905.158	0.0164908
905.236	0.0164830
905.314	0.0164993
905.392	0.0164870
905.471	0.0162881
905.549	0.0164320
905.627	0.0163530
905.705	0.0163245
905.783	0.0164548
905.861	0.0164206
905.939	0.0162266
906.017	0.0163084
906.096	0.0164631
906.174	0.0162164
906.252	0.0163461
906.330	0.0164507
906.408	0.0164024
906.486	0.0163092
906.564	0.0163816
906.642	0.0163377
906.721	0.0163490
906.799	0.0163154
906.877	0.0163720
906.955	0.0164405
907.033	0.0164767
907.111	0.0163467
907.189	0.0162982
907.267	0.0164736
907.346	0.0164951
907.424	0.0164906
907.502	0.0163564
907.580	0.0164956
907.658	0.0165080
907.736	0.0164146
907.814	0.0163419
907.892	0.0166038
907.971	0.0166036
908.049	0.0165991
908.127	0.0165054
908.205	0.0166410
908.283	0.0166297
908.361	0.0166460
908.439	0.0167221
908.517	0.0167982
908.596	0.0168076
908.674	0.0167329
908.752	0.0166725
908.830	0.0169305
908.908	0.0169507
908.986	0.0168623
909.064	0.0168787
909.142	0.0169157
909.221	0.0169529
909.299	0.0169487
909.377	0.0168929
909.455	0.0167896
909.533	0.0169912
909.611	0.0169566
909.689	0.0167822
909.767	0.0168195
909.846	0.0168131
909.924	0.0167268
910.002	0.0166891
910.080	0.0167951
910.158	0.0167308
910.236	0.0165014
910.314	0.0166669
910.392	0.0166480
910.471	0.0166342
910.549	0.0166229
910.627	0.0166364
910.705	0.0165145
910.783	0.0165220
910.861	0.0165632
910.939	0.0165749
911.017	0.0164900
911.096	0.0164639
911.174	0.0163922
911.252	0.0164137
911.330	0.0164088
911.408	0.0164166
911.486	0.0164326
911.564	0.0165292
911.642	0.0163815
911.721	0.0165407
911.799	0.0165124
911.877	0.0164519
911.955	0.0164518
912.033	0.0163152
912.111	0.0164355
912.189	0.0164058
912.267	0.0165051
912.346	0.0164151
912.424	0.0163525
912.502	0.0165415
912.580	0.0163452
912.658	0.0165658
912.736	0.0165659
912.814	0.0164565
912.892	0.0165764
912.971	0.0164468
913.049	0.0165278
913.127	0.0164824
913.205	0.0164065
913.283	0.0165485
913.361	0.0164985
913.439	0.0165191
913.517	0.0166849
913.596	0.0165610
913.674	0.0165846
913.752	0.0165065
913.830	0.0165605
913.908	0.0166532
913.986	0.0166165
914.064	0.0166404
914.142	0.0166090
914.221	0.0165104
914.299	0.0165437
914.377	0.0165099
914.455	0.0165685
914.533	0.0165222
914.611	0.0165542
914.689	0.0165941
914.767	0.0166905
914.846	0.0166412
914.924	0.0166045
915.002	0.0164910
915.080	0.0166795
915.158	0.0166045
915.236	0.0166783
915.314	0.0166852
915.392	0.0166122
915.471	0.0166680
915.549	0.0167085
915.627	0.0167360
915.705	0.0165417
915.783	0.0165704
915.861	0.0165366
915.939	0.0167010
916.017	0.0167079
916.096	0.0166078
916.174	0.0167011
916.252	0.0163719
916.330	0.0165587
916.408	0.0165147
916.486	0.0164188
916.564	0.0165391
916.642	0.0164928
916.721	0.0164806
916.799	0.0163831
916.877	0.0163868
916.955	0.0163562
917.033	0.0164537
917.111	0.0164616
917.189	0.0166077
917.267	0.0165225
917.346	0.0165540
917.424	0.0164642
917.502	0.0165578
917.580	0.0164520
917.658	0.0165951
917.736	0.0164885
917.814	0.0164873
917.892	0.0166011
917.971	0.0167018
918.049	0.0167094
918.127	0.0167278
918.205	0.0166553
918.283	0.0165810
918.361	0.0166671
918.439	0.0166419
918.517	0.0167544
918.596	0.0165461
918.674	0.0165072
918.752	0.0167729
918.830	0.0166442
918.908	0.0167803
918.986	0.0168295
919.064	0.0165249
919.142	0.0165759
919.221	0.0166093
919.299	0.0165757
919.377	0.0166356
919.455	0.0167144
919.533	0.0166564
919.611	0.0167268
919.689	0.0167113
919.767	0.0166877
919.846	0.0167355
919.924	0.0167649
