06/29/2022	21:45:20	Ver.	4.1	UNKNOWN
Optical Delay	600.001752	Delta X		0.078125	Sweeps	1	Scan Rate	0/0
Coordinates	Axis 1	NaN	Axis 2	NaN	Axis 3	NaN	Axis 4	NaN	Axis 5	NaN	Axis 6	0.000000
TX Power	0.000000	RX Power	0.000000

600.002	0.0161353
600.080	0.0172334
600.158	0.0172765
600.236	0.0172614
600.314	0.0174055
600.392	0.0173772
600.471	0.0174368
600.549	0.0173564
600.627	0.0172524
600.705	0.0174206
600.783	0.0174041
600.861	0.0174023
600.939	0.0173854
601.017	0.0172725
601.096	0.0171681
601.174	0.0171189
601.252	0.0172321
601.330	0.0171413
601.408	0.0171234
601.486	0.0171673
601.564	0.0170432
601.642	0.0170020
601.721	0.0169363
601.799	0.0168858
601.877	0.0168281
601.955	0.0169548
602.033	0.0169014
602.111	0.0168039
602.189	0.0166516
602.267	0.0167719
602.346	0.0166945
602.424	0.0166695
602.502	0.0165586
602.580	0.0165113
602.658	0.0164451
602.736	0.0165083
602.814	0.0165372
602.892	0.0166005
602.971	0.0166441
603.049	0.0166713
603.127	0.0164200
603.205	0.0164810
603.283	0.0165160
603.361	0.0164294
603.439	0.0164108
603.517	0.0164909
603.596	0.0165492
603.674	0.0164092
603.752	0.0164362
603.830	0.0163599
603.908	0.0165140
603.986	0.0164313
604.064	0.0163697
604.142	0.0163355
604.221	0.0164321
604.299	0.0164379
604.377	0.0162637
604.455	0.0163880
604.533	0.0163937
604.611	0.0162112
604.689	0.0163579
604.767	0.0162700
604.846	0.0161736
604.924	0.0161252
605.002	0.0162223
605.080	0.0163724
605.158	0.0162870
605.236	0.0162668
605.314	0.0163098
605.392	0.0163124
605.471	0.0162243
605.549	0.0161672
605.627	0.0161166
605.705	0.0160381
605.783	0.0160680
605.861	0.0161959
605.939	0.0161775
606.017	0.0161936
606.096	0.0160984
606.174	0.0161488
606.252	0.0162191
606.330	0.0161028
606.408	0.0161069
606.486	0.0159058
606.564	0.0159470
606.642	0.0158942
606.721	0.0160169
606.799	0.0159537
606.877	0.0159492
606.955	0.0160581
607.033	0.0161396
607.111	0.0160686
607.189	0.0160818
607.267	0.0162251
607.346	0.0163026
607.424	0.0162881
607.502	0.0162735
607.580	0.0162003
607.658	0.0164144
607.736	0.0164725
607.814	0.0163265
607.892	0.0164954
607.971	0.0163769
608.049	0.0165024
608.127	0.0166261
608.205	0.0165012
608.283	0.0164674
608.361	0.0164792
608.439	0.0165217
608.517	0.0166195
608.596	0.0166805
608.674	0.0167643
608.752	0.0166424
608.830	0.0167938
608.908	0.0166943
608.986	0.0166495
609.064	0.0166155
609.142	0.0165147
609.221	0.0164020
609.299	0.0162873
609.377	0.0161644
609.455	0.0159188
609.533	0.0158479
609.611	0.0158934
609.689	0.0160074
609.767	0.0156513
609.846	0.0156544
609.924	0.0158169
610.002	0.0159489
610.080	0.0159971
610.158	0.0158721
610.236	0.0160863
610.314	0.0161040
610.392	0.0160975
610.471	0.0161972
610.549	0.0162222
610.627	0.0163694
610.705	0.0163992
610.783	0.0163237
610.861	0.0164662
610.939	0.0165714
611.017	0.0164748
611.096	0.0167905
611.174	0.0166869
611.252	0.0166564
611.330	0.0164676
611.408	0.0166472
611.486	0.0165862
611.564	0.0166020
611.642	0.0165129
611.721	0.0165678
611.799	0.0165279
611.877	0.0165813
611.955	0.0163638
612.033	0.0164178
612.111	0.0163645
612.189	0.0162987
612.267	0.0166166
612.346	0.0163553
612.424	0.0163958
612.502	0.0163338
612.580	0.0163145
612.658	0.0162621
612.736	0.0163358
612.814	0.0162621
612.892	0.0163850
612.971	0.0164109
613.049	0.0164121
613.127	0.0162635
613.205	0.0164299
613.283	0.0164647
613.361	0.0163842
613.439	0.0164240
613.517	0.0164357
613.596	0.0165025
613.674	0.0163786
613.752	0.0163864
613.830	0.0165028
613.908	0.0165825
613.986	0.0165093
614.064	0.0165693
614.142	0.0165955
614.221	0.0167399
614.299	0.0167542
614.377	0.0167896
614.455	0.0168061
614.533	0.0170468
614.611	0.0170024
614.689	0.0168983
614.767	0.0168407
614.846	0.0169614
614.924	0.0172293
615.002	0.0171298
615.080	0.0171760
615.158	0.0171347
615.236	0.0171390
615.314	0.0172495
615.392	0.0172344
615.471	0.0171395
615.549	0.0170217
615.627	0.0170696
615.705	0.0170361
615.783	0.0171886
615.861	0.0170732
615.939	0.0169787
616.017	0.0170172
616.096	0.0169815
616.174	0.0169117
616.252	0.0168942
616.330	0.0169699
616.408	0.0169595
616.486	0.0168914
616.564	0.0168000
616.642	0.0168922
616.721	0.0168248
616.799	0.0168075
616.877	0.0167341
616.955	0.0166525
617.033	0.0167474
617.111	0.0167635
617.189	0.0165697
617.267	0.0165119
617.346	0.0166314
617.424	0.0165404
617.502	0.0164039
617.580	0.0164390
617.658	0.0164975
617.736	0.0164960
617.814	0.0164551
617.892	0.0163597
617.971	0.0162947
618.049	0.0164660
618.127	0.0162154
618.205	0.0162602
618.283	0.0162256
618.361	0.0162602
618.439	0.0163857
618.517	0.0163130
618.596	0.0161781
618.674	0.0160204
618.752	0.0162582
618.830	0.0161565
618.908	0.0161316
618.986	0.0160649
619.064	0.0162186
619.142	0.0162077
619.221	0.0161802
619.299	0.0160062
619.377	0.0161144
619.455	0.0160634
619.533	0.0160323
619.611	0.0161547
619.689	0.0161822
619.767	0.0158973
619.846	0.0158493
619.924	0.0161327
620.002	0.0160160
620.080	0.0158573
620.158	0.0159141
620.236	0.0159356
620.314	0.0159010
620.392	0.0159414
620.471	0.0158187
620.549	0.0157821
620.627	0.0157764
620.705	0.0158087
620.783	0.0156956
620.861	0.0155645
620.939	0.0156610
621.017	0.0153999
621.096	0.0155565
621.174	0.0156110
621.252	0.0155888
621.330	0.0156116
621.408	0.0155596
621.486	0.0155370
621.564	0.0155936
621.642	0.0156870
621.721	0.0156168
621.799	0.0156803
621.877	0.0157009
621.955	0.0157225
622.033	0.0157227
622.111	0.0158884
622.189	0.0157306
622.267	0.0159321
622.346	0.0159481
622.424	0.0159216
622.502	0.0160233
622.580	0.0160372
622.658	0.0160461
622.736	0.0160861
622.814	0.0160711
622.892	0.0161491
622.971	0.0159631
623.049	0.0160534
623.127	0.0161541
623.205	0.0161642
623.283	0.0161142
623.361	0.0160303
623.439	0.0160539
623.517	0.0161131
623.596	0.0161118
623.674	0.0160435
623.752	0.0160778
623.830	0.0160430
623.908	0.0160915
623.986	0.0161359
624.064	0.0161613
624.142	0.0160905
624.221	0.0160760
624.299	0.0160181
624.377	0.0160328
624.455	0.0160832
624.533	0.0162489
624.611	0.0162972
624.689	0.0163168
624.767	0.0162529
624.846	0.0163977
624.924	0.0162436
625.002	0.0161983
625.080	0.0163546
625.158	0.0162956
625.236	0.0163545
625.314	0.0165283
625.392	0.0164227
625.471	0.0164942
625.549	0.0164931
625.627	0.0164262
625.705	0.0164914
625.783	0.0165815
625.861	0.0166368
625.939	0.0166392
626.017	0.0164188
626.096	0.0167882
626.174	0.0166492
626.252	0.0165390
626.330	0.0165534
626.408	0.0165302
626.486	0.0166036
626.564	0.0166053
626.642	0.0166704
626.721	0.0166538
626.799	0.0166661
626.877	0.0166383
626.955	0.0166650
627.033	0.0167382
627.111	0.0166120
627.189	0.0166270
627.267	0.0166618
627.346	0.0166423
627.424	0.0167314
627.502	0.0166842
627.580	0.0165612
627.658	0.0166619
627.736	0.0166118
627.814	0.0165910
627.892	0.0165568
627.971	0.0165393
628.049	0.0164709
628.127	0.0165871
628.205	0.0166264
628.283	0.0164818
628.361	0.0164087
628.439	0.0165105
628.517	0.0164266
628.596	0.0164061
628.674	0.0163853
628.752	0.0163853
628.830	0.0162700
628.908	0.0163943
628.986	0.0164247
629.064	0.0164208
629.142	0.0164582
629.221	0.0162686
629.299	0.0163302
629.377	0.0163558
629.455	0.0163398
629.533	0.0164214
629.611	0.0163342
629.689	0.0164042
629.767	0.0163723
629.846	0.0162418
629.924	0.0162777
630.002	0.0162886
630.080	0.0162674
630.158	0.0163976
630.236	0.0163188
630.314	0.0162839
630.392	0.0163064
630.471	0.0162374
630.549	0.0162686
630.627	0.0161717
630.705	0.0161930
630.783	0.0160397
630.861	0.0160896
630.939	0.0159666
631.017	0.0160829
631.096	0.0160313
631.174	0.0158605
631.252	0.0159936
631.330	0.0161129
631.408	0.0158271
631.486	0.0159195
631.564	0.0160367
631.642	0.0159701
631.721	0.0159629
631.799	0.0158621
631.877	0.0160114
631.955	0.0160678
632.033	0.0160091
632.111	0.0159633
632.189	0.0160167
632.267	0.0159380
632.346	0.0159370
632.424	0.0161157
632.502	0.0160461
632.580	0.0158422
632.658	0.0159373
632.736	0.0159391
632.814	0.0160614
632.892	0.0159507
632.971	0.0158701
633.049	0.0159248
633.127	0.0159605
633.205	0.0159330
633.283	0.0159634
633.361	0.0158230
633.439	0.0159398
633.517	0.0158167
633.596	0.0157478
633.674	0.0158696
633.752	0.0159085
633.830	0.0157505
633.908	0.0158585
633.986	0.0159543
634.064	0.0159520
634.142	0.0161695
634.221	0.0160581
634.299	0.0160143
634.377	0.0160384
634.455	0.0161230
634.533	0.0163057
634.611	0.0163539
634.689	0.0162021
634.767	0.0163519
634.846	0.0163379
634.924	0.0162875
635.002	0.0163294
635.080	0.0164462
635.158	0.0165324
635.236	0.0166562
635.314	0.0166176
635.392	0.0165479
635.471	0.0168008
635.549	0.0166693
635.627	0.0166405
635.705	0.0169258
635.783	0.0168572
635.861	0.0167320
635.939	0.0168029
636.017	0.0169636
636.096	0.0169166
636.174	0.0169508
636.252	0.0169299
636.330	0.0170371
636.408	0.0170138
636.486	0.0170389
636.564	0.0170096
636.642	0.0170229
636.721	0.0170367
636.799	0.0170671
636.877	0.0171371
636.955	0.0170731
637.033	0.0170309
637.111	0.0169476
637.189	0.0169065
637.267	0.0169996
637.346	0.0169867
637.424	0.0170928
637.502	0.0169277
637.580	0.0169678
637.658	0.0169635
637.736	0.0167873
637.814	0.0170449
637.892	0.0168824
637.971	0.0168320
638.049	0.0168896
638.127	0.0168798
638.205	0.0167831
638.283	0.0169730
638.361	0.0167986
638.439	0.0166988
638.517	0.0168303
638.596	0.0169270
638.674	0.0167561
638.752	0.0168404
638.830	0.0169209
638.908	0.0167442
638.986	0.0167288
639.064	0.0168127
639.142	0.0168208
639.221	0.0168123
639.299	0.0167970
639.377	0.0166869
639.455	0.0166199
639.533	0.0167168
639.611	0.0165870
639.689	0.0166130
639.767	0.0165796
639.846	0.0165507
639.924	0.0165020
640.002	0.0165450
640.080	0.0164158
640.158	0.0164783
640.236	0.0165291
640.314	0.0164355
640.392	0.0162643
640.471	0.0162972
640.549	0.0164108
640.627	0.0163303
640.705	0.0163198
640.783	0.0164253
640.861	0.0163146
640.939	0.0162206
641.017	0.0161926
641.096	0.0161840
641.174	0.0160930
641.252	0.0163078
641.330	0.0162775
641.408	0.0161960
641.486	0.0163168
641.564	0.0161610
641.642	0.0160101
641.721	0.0161693
641.799	0.0162212
641.877	0.0161831
641.955	0.0162201
642.033	0.0161470
642.111	0.0161279
642.189	0.0161294
642.267	0.0162514
642.346	0.0159956
642.424	0.0161089
642.502	0.0162313
642.580	0.0161121
642.658	0.0159537
642.736	0.0161271
642.814	0.0159822
642.892	0.0159882
642.971	0.0160638
643.049	0.0161790
643.127	0.0161930
643.205	0.0160673
643.283	0.0160155
643.361	0.0160464
643.439	0.0159541
643.517	0.0160335
643.596	0.0159750
643.674	0.0160689
643.752	0.0162370
643.830	0.0160729
643.908	0.0159190
643.986	0.0160567
644.064	0.0161833
644.142	0.0161327
644.221	0.0161562
644.299	0.0161607
644.377	0.0161764
644.455	0.0161237
644.533	0.0161165
644.611	0.0161633
644.689	0.0161760
644.767	0.0161457
644.846	0.0161068
644.924	0.0162303
645.002	0.0162698
645.080	0.0162090
645.158	0.0162012
645.236	0.0161558
645.314	0.0161700
645.392	0.0163069
645.471	0.0161852
645.549	0.0161987
645.627	0.0161828
645.705	0.0161765
645.783	0.0161167
645.861	0.0162833
645.939	0.0161198
646.017	0.0162026
646.096	0.0161947
646.174	0.0161932
646.252	0.0161604
646.330	0.0161554
646.408	0.0161152
646.486	0.0159837
646.564	0.0161577
646.642	0.0162030
646.721	0.0160625
646.799	0.0161803
646.877	0.0160455
646.955	0.0161436
647.033	0.0161313
647.111	0.0159962
647.189	0.0160693
647.267	0.0162460
647.346	0.0160564
647.424	0.0159900
647.502	0.0159961
647.580	0.0162128
647.658	0.0160825
647.736	0.0160240
647.814	0.0161201
647.892	0.0160885
647.971	0.0162474
648.049	0.0163152
648.127	0.0161683
648.205	0.0161993
648.283	0.0162392
648.361	0.0161709
648.439	0.0162638
648.517	0.0162688
648.596	0.0161665
648.674	0.0161597
648.752	0.0162965
648.830	0.0161761
648.908	0.0161221
648.986	0.0160544
649.064	0.0161223
649.142	0.0160477
649.221	0.0159653
649.299	0.0160402
649.377	0.0160814
649.455	0.0159858
649.533	0.0159960
649.611	0.0160066
649.689	0.0160130
649.767	0.0160645
649.846	0.0160791
649.924	0.0161447
650.002	0.0159966
650.080	0.0160674
650.158	0.0161021
650.236	0.0160452
650.314	0.0161263
650.392	0.0161543
650.471	0.0161897
650.549	0.0161213
650.627	0.0162241
650.705	0.0160866
650.783	0.0161741
650.861	0.0161295
650.939	0.0161497
651.017	0.0163000
651.096	0.0162872
651.174	0.0161881
651.252	0.0160532
651.330	0.0162014
651.408	0.0162608
651.486	0.0162069
651.564	0.0162763
651.642	0.0164377
651.721	0.0163548
651.799	0.0162922
651.877	0.0163947
651.955	0.0161936
652.033	0.0162447
652.111	0.0163085
652.189	0.0162395
652.267	0.0164384
652.346	0.0164174
652.424	0.0164026
652.502	0.0163625
652.580	0.0162710
652.658	0.0162920
652.736	0.0163979
652.814	0.0162578
652.892	0.0163572
652.971	0.0164499
653.049	0.0163440
653.127	0.0164240
653.205	0.0163218
653.283	0.0164061
653.361	0.0165137
653.439	0.0163582
653.517	0.0162595
653.596	0.0163918
653.674	0.0164169
653.752	0.0164767
653.830	0.0163738
653.908	0.0163373
653.986	0.0164160
654.064	0.0164295
654.142	0.0164001
654.221	0.0165509
654.299	0.0164030
654.377	0.0164077
654.455	0.0163161
654.533	0.0165247
654.611	0.0164244
654.689	0.0163148
654.767	0.0162878
654.846	0.0163268
654.924	0.0163017
655.002	0.0163715
655.080	0.0164055
655.158	0.0162673
655.236	0.0162714
655.314	0.0163453
655.392	0.0163036
655.471	0.0162897
655.549	0.0162244
655.627	0.0162809
655.705	0.0162318
655.783	0.0163054
655.861	0.0162855
655.939	0.0163990
656.017	0.0164010
656.096	0.0163264
656.174	0.0163459
656.252	0.0165378
656.330	0.0164993
656.408	0.0163483
656.486	0.0163343
656.564	0.0163278
656.642	0.0164838
656.721	0.0164498
656.799	0.0164271
656.877	0.0164980
656.955	0.0163963
657.033	0.0164189
657.111	0.0163914
657.189	0.0162743
657.267	0.0162082
657.346	0.0162394
657.424	0.0163196
657.502	0.0161465
657.580	0.0161991
657.658	0.0161005
657.736	0.0162525
657.814	0.0161919
657.892	0.0162656
657.971	0.0161308
658.049	0.0161917
658.127	0.0162627
658.205	0.0162083
658.283	0.0162714
658.361	0.0163349
658.439	0.0162429
658.517	0.0162833
658.596	0.0163242
658.674	0.0163471
658.752	0.0162631
658.830	0.0163583
658.908	0.0163892
658.986	0.0163627
659.064	0.0164137
659.142	0.0163351
659.221	0.0164224
659.299	0.0165472
659.377	0.0163738
659.455	0.0164639
659.533	0.0165639
659.611	0.0164066
659.689	0.0164706
659.767	0.0165163
659.846	0.0165341
659.924	0.0164799
660.002	0.0163473
660.080	0.0165584
660.158	0.0164887
660.236	0.0164593
660.314	0.0165423
660.392	0.0165462
660.471	0.0165768
660.549	0.0166093
660.627	0.0166281
660.705	0.0166859
660.783	0.0166083
660.861	0.0165947
660.939	0.0167428
661.017	0.0166405
661.096	0.0167479
661.174	0.0167427
661.252	0.0167377
661.330	0.0167287
661.408	0.0168248
661.486	0.0167507
661.564	0.0167068
661.642	0.0167036
661.721	0.0168390
661.799	0.0167932
661.877	0.0166912
661.955	0.0167640
662.033	0.0168066
662.111	0.0167793
662.189	0.0168321
662.267	0.0167731
662.346	0.0167491
662.424	0.0168320
662.502	0.0168292
662.580	0.0167304
662.658	0.0167604
662.736	0.0167225
662.814	0.0167228
662.892	0.0168344
662.971	0.0168025
663.049	0.0167875
663.127	0.0169057
663.205	0.0168027
663.283	0.0169593
663.361	0.0168073
663.439	0.0167870
663.517	0.0168922
663.596	0.0167574
663.674	0.0168227
663.752	0.0168579
663.830	0.0168059
663.908	0.0168118
663.986	0.0167346
664.064	0.0168320
664.142	0.0166792
664.221	0.0166257
664.299	0.0165730
664.377	0.0167085
664.455	0.0166738
664.533	0.0167242
664.611	0.0167525
664.689	0.0166126
664.767	0.0166013
664.846	0.0165238
664.924	0.0164991
665.002	0.0165077
665.080	0.0165840
665.158	0.0165759
665.236	0.0164227
665.314	0.0164550
665.392	0.0164989
665.471	0.0163984
665.549	0.0164154
665.627	0.0163398
665.705	0.0163308
665.783	0.0161623
665.861	0.0162698
665.939	0.0161171
666.017	0.0160854
666.096	0.0159631
666.174	0.0161816
666.252	0.0162691
666.330	0.0159451
666.408	0.0159546
666.486	0.0160098
666.564	0.0158849
666.642	0.0158340
666.721	0.0159400
666.799	0.0159763
666.877	0.0157936
666.955	0.0158661
667.033	0.0157957
667.111	0.0160343
667.189	0.0160823
667.267	0.0158581
667.346	0.0159108
667.424	0.0160180
667.502	0.0160009
667.580	0.0161817
667.658	0.0161395
667.736	0.0161189
667.814	0.0162878
667.892	0.0163047
667.971	0.0162685
668.049	0.0162847
668.127	0.0163475
668.205	0.0164010
668.283	0.0164238
668.361	0.0163306
668.439	0.0163712
668.517	0.0164337
668.596	0.0164532
668.674	0.0163294
668.752	0.0161781
668.830	0.0162701
668.908	0.0162719
668.986	0.0162490
669.064	0.0161462
669.142	0.0162096
669.221	0.0162078
669.299	0.0160758
669.377	0.0159492
669.455	0.0160419
669.533	0.0160911
669.611	0.0160854
669.689	0.0158662
669.767	0.0158704
669.846	0.0159470
669.924	0.0158057
670.002	0.0158416
670.080	0.0159491
670.158	0.0159563
670.236	0.0159012
670.314	0.0160474
670.392	0.0159377
670.471	0.0159770
670.549	0.0159943
670.627	0.0160381
670.705	0.0159689
670.783	0.0159241
670.861	0.0159515
670.939	0.0160589
671.017	0.0160185
671.096	0.0160648
671.174	0.0160693
671.252	0.0161058
671.330	0.0163060
671.408	0.0163108
671.486	0.0161647
671.564	0.0162692
671.642	0.0163294
671.721	0.0164021
671.799	0.0164651
671.877	0.0165963
671.955	0.0165961
672.033	0.0166695
672.111	0.0167919
672.189	0.0167684
672.267	0.0167583
672.346	0.0168650
672.424	0.0170012
672.502	0.0169393
672.580	0.0170685
672.658	0.0170139
672.736	0.0169318
672.814	0.0171785
672.892	0.0171262
672.971	0.0170666
673.049	0.0169903
673.127	0.0171953
673.205	0.0169907
673.283	0.0170332
673.361	0.0169343
673.439	0.0168424
673.517	0.0168041
673.596	0.0168920
673.674	0.0168282
673.752	0.0168279
673.830	0.0167486
673.908	0.0166740
673.986	0.0166633
674.064	0.0165160
674.142	0.0165586
674.221	0.0165285
674.299	0.0165905
674.377	0.0164096
674.455	0.0163615
674.533	0.0164436
674.611	0.0165620
674.689	0.0164645
674.767	0.0165540
674.846	0.0165242
674.924	0.0164497
675.002	0.0164203
675.080	0.0163853
675.158	0.0164909
675.236	0.0165047
675.314	0.0165018
675.392	0.0165063
675.471	0.0164055
675.549	0.0164191
675.627	0.0165556
675.705	0.0166348
675.783	0.0167703
675.861	0.0165997
675.939	0.0164458
676.017	0.0166683
676.096	0.0166198
676.174	0.0166728
676.252	0.0166660
676.330	0.0164897
676.408	0.0166148
676.486	0.0165116
676.564	0.0165663
676.642	0.0164876
676.721	0.0165945
676.799	0.0165741
676.877	0.0165443
676.955	0.0164566
677.033	0.0164494
677.111	0.0165813
677.189	0.0164400
677.267	0.0164670
677.346	0.0164007
677.424	0.0163508
677.502	0.0163438
677.580	0.0162267
677.658	0.0163077
677.736	0.0163459
677.814	0.0162379
677.892	0.0163059
677.971	0.0162212
678.049	0.0162145
678.127	0.0160875
678.205	0.0161884
678.283	0.0160735
678.361	0.0159937
678.439	0.0161005
678.517	0.0159044
678.596	0.0160038
678.674	0.0159161
678.752	0.0159287
678.830	0.0159203
678.908	0.0159158
678.986	0.0159531
679.064	0.0158786
679.142	0.0160163
679.221	0.0160452
679.299	0.0159073
679.377	0.0159474
679.455	0.0158731
679.533	0.0160020
679.611	0.0160462
679.689	0.0160848
679.767	0.0161360
679.846	0.0160473
679.924	0.0159871
680.002	0.0161017
680.080	0.0162034
680.158	0.0161112
680.236	0.0158982
680.314	0.0161515
680.392	0.0160073
680.471	0.0162092
680.549	0.0161948
680.627	0.0160120
680.705	0.0160110
680.783	0.0161047
680.861	0.0162052
680.939	0.0161312
681.017	0.0161468
681.096	0.0161652
681.174	0.0160943
681.252	0.0161270
681.330	0.0162383
681.408	0.0162315
681.486	0.0163371
681.564	0.0163938
681.642	0.0164540
681.721	0.0163904
681.799	0.0164051
681.877	0.0162608
681.955	0.0164507
682.033	0.0164854
682.111	0.0164541
682.189	0.0165562
682.267	0.0166493
682.346	0.0165784
682.424	0.0164352
682.502	0.0165458
682.580	0.0165732
682.658	0.0166125
682.736	0.0166610
682.814	0.0166022
682.892	0.0165910
682.971	0.0166016
683.049	0.0166666
683.127	0.0166200
683.205	0.0166608
683.283	0.0166416
683.361	0.0164023
683.439	0.0165967
683.517	0.0166308
683.596	0.0165247
683.674	0.0166075
683.752	0.0166114
683.830	0.0166895
683.908	0.0165938
683.986	0.0167242
684.064	0.0168248
684.142	0.0166212
684.221	0.0167425
684.299	0.0167300
684.377	0.0167836
684.455	0.0167480
684.533	0.0167692
684.611	0.0166413
684.689	0.0166509
684.767	0.0167783
684.846	0.0165936
684.924	0.0166811
685.002	0.0166345
685.080	0.0165923
685.158	0.0165656
685.236	0.0166346
685.314	0.0165072
685.392	0.0164509
685.471	0.0165900
685.549	0.0165351
685.627	0.0163858
685.705	0.0163131
685.783	0.0163514
685.861	0.0164384
685.939	0.0164111
686.017	0.0162309
686.096	0.0162362
686.174	0.0162576
686.252	0.0162096
686.330	0.0164048
686.408	0.0162812
686.486	0.0162254
686.564	0.0162348
686.642	0.0160494
686.721	0.0162679
686.799	0.0161834
686.877	0.0161999
686.955	0.0161767
687.033	0.0161381
687.111	0.0163966
687.189	0.0164182
687.267	0.0161711
687.346	0.0163257
687.424	0.0162533
687.502	0.0162720
687.580	0.0162044
687.658	0.0162440
687.736	0.0161915
687.814	0.0163965
687.892	0.0163378
687.971	0.0163715
688.049	0.0162113
688.127	0.0164397
688.205	0.0163931
688.283	0.0162463
688.361	0.0164565
688.439	0.0164446
688.517	0.0164997
688.596	0.0163064
688.674	0.0165243
688.752	0.0165446
688.830	0.0164242
688.908	0.0165433
688.986	0.0164944
689.064	0.0166103
689.142	0.0166635
689.221	0.0166451
689.299	0.0163713
689.377	0.0163858
689.455	0.0164850
689.533	0.0164381
689.611	0.0163985
689.689	0.0164658
689.767	0.0164219
689.846	0.0162998
689.924	0.0163782
690.002	0.0162502
690.080	0.0160263
690.158	0.0160827
690.236	0.0162246
690.314	0.0161502
690.392	0.0161902
690.471	0.0162512
690.549	0.0162344
690.627	0.0162569
690.705	0.0163467
690.783	0.0162404
690.861	0.0162315
690.939	0.0164008
691.017	0.0163378
691.096	0.0163779
691.174	0.0164330
691.252	0.0163335
691.330	0.0165946
691.408	0.0164350
691.486	0.0163583
691.564	0.0164265
691.642	0.0164214
691.721	0.0163900
691.799	0.0163531
691.877	0.0161998
691.955	0.0160224
692.033	0.0159460
692.111	0.0160471
692.189	0.0159821
692.267	0.0159001
692.346	0.0158595
692.424	0.0157764
692.502	0.0158260
692.580	0.0157346
692.658	0.0158228
692.736	0.0158099
692.814	0.0156708
692.892	0.0157158
692.971	0.0157763
693.049	0.0157933
693.127	0.0157675
693.205	0.0157685
693.283	0.0159280
693.361	0.0159228
693.439	0.0159208
693.517	0.0159452
693.596	0.0161705
693.674	0.0160145
693.752	0.0160081
693.830	0.0160826
693.908	0.0161403
693.986	0.0161534
694.064	0.0161598
694.142	0.0162310
694.221	0.0162133
694.299	0.0162928
694.377	0.0162098
694.455	0.0163924
694.533	0.0162154
694.611	0.0162226
694.689	0.0162885
694.767	0.0161942
694.846	0.0162066
694.924	0.0163309
695.002	0.0163319
695.080	0.0164008
695.158	0.0163140
695.236	0.0161397
695.314	0.0162967
695.392	0.0163020
695.471	0.0162976
695.549	0.0163740
695.627	0.0163635
695.705	0.0163873
695.783	0.0163331
695.861	0.0164030
695.939	0.0163134
696.017	0.0163822
696.096	0.0162960
696.174	0.0163072
696.252	0.0162310
696.330	0.0162899
696.408	0.0163298
696.486	0.0163210
696.564	0.0162923
696.642	0.0164409
696.721	0.0163454
696.799	0.0162415
696.877	0.0162939
696.955	0.0164174
697.033	0.0163869
697.111	0.0163005
697.189	0.0161767
697.267	0.0164032
697.346	0.0164160
697.424	0.0164037
697.502	0.0164157
697.580	0.0164362
697.658	0.0163518
697.736	0.0164210
697.814	0.0163382
697.892	0.0163349
697.971	0.0163960
698.049	0.0163249
698.127	0.0164911
698.205	0.0163982
698.283	0.0163499
698.361	0.0165231
698.439	0.0164338
698.517	0.0163157
698.596	0.0165392
698.674	0.0163879
698.752	0.0164013
698.830	0.0165417
698.908	0.0163367
698.986	0.0162656
699.064	0.0162914
699.142	0.0164470
699.221	0.0164488
699.299	0.0164535
699.377	0.0163397
699.455	0.0163879
699.533	0.0163756
699.611	0.0163734
699.689	0.0164218
699.767	0.0163576
699.846	0.0162726
699.924	0.0164565
700.002	0.0164473
700.080	0.0164697
700.158	0.0163612
700.236	0.0164057
700.314	0.0165394
700.392	0.0165452
700.471	0.0165743
700.549	0.0166535
700.627	0.0166821
700.705	0.0166260
700.783	0.0167015
700.861	0.0166881
700.939	0.0167159
701.017	0.0167333
701.096	0.0166261
701.174	0.0167055
701.252	0.0167314
701.330	0.0166496
701.408	0.0165779
701.486	0.0166247
701.564	0.0166020
701.642	0.0166438
701.721	0.0166656
701.799	0.0165135
701.877	0.0163843
701.955	0.0163168
702.033	0.0163913
702.111	0.0163048
702.189	0.0163806
702.267	0.0163203
702.346	0.0162681
702.424	0.0161051
702.502	0.0161882
702.580	0.0159527
702.658	0.0161117
702.736	0.0161938
702.814	0.0160345
702.892	0.0159874
702.971	0.0159750
703.049	0.0159373
703.127	0.0158267
703.205	0.0160199
703.283	0.0160381
703.361	0.0159316
703.439	0.0158248
703.517	0.0159020
703.596	0.0158611
703.674	0.0158782
703.752	0.0158992
703.830	0.0158198
703.908	0.0158233
703.986	0.0158387
704.064	0.0159818
704.142	0.0160500
704.221	0.0161131
704.299	0.0158775
704.377	0.0161729
704.455	0.0161273
704.533	0.0161635
704.611	0.0161762
704.689	0.0162688
704.767	0.0163603
704.846	0.0161670
704.924	0.0163432
705.002	0.0162798
705.080	0.0163153
705.158	0.0163206
705.236	0.0162250
705.314	0.0162415
705.392	0.0164877
705.471	0.0161781
705.549	0.0163113
705.627	0.0163258
705.705	0.0162325
705.783	0.0162959
705.861	0.0163099
705.939	0.0164762
706.017	0.0162206
706.096	0.0163155
706.174	0.0163651
706.252	0.0162862
706.330	0.0163459
706.408	0.0164310
706.486	0.0163595
706.564	0.0162962
706.642	0.0163239
706.721	0.0164219
706.799	0.0163927
706.877	0.0162934
706.955	0.0163382
707.033	0.0162763
707.111	0.0164251
707.189	0.0163374
707.267	0.0163969
707.346	0.0164243
707.424	0.0161926
707.502	0.0163370
707.580	0.0162934
707.658	0.0163570
707.736	0.0162573
707.814	0.0162849
707.892	0.0161934
707.971	0.0163783
708.049	0.0162292
708.127	0.0163412
708.205	0.0163162
708.283	0.0162363
708.361	0.0164230
708.439	0.0162675
708.517	0.0163518
708.596	0.0163145
708.674	0.0163630
708.752	0.0162512
708.830	0.0163506
708.908	0.0164146
708.986	0.0163526
709.064	0.0163478
709.142	0.0163911
709.221	0.0163337
709.299	0.0164397
709.377	0.0164355
709.455	0.0163095
709.533	0.0164755
709.611	0.0163837
709.689	0.0162949
709.767	0.0164676
709.846	0.0163683
709.924	0.0163417
710.002	0.0165130
710.080	0.0164131
710.158	0.0163969
710.236	0.0164146
710.314	0.0162819
710.392	0.0162888
710.471	0.0165126
710.549	0.0165675
710.627	0.0162895
710.705	0.0162381
710.783	0.0164201
710.861	0.0164918
710.939	0.0163113
711.017	0.0161439
711.096	0.0162103
711.174	0.0161953
711.252	0.0161677
711.330	0.0160431
711.408	0.0160368
711.486	0.0160661
711.564	0.0160368
711.642	0.0160674
711.721	0.0159911
711.799	0.0161369
711.877	0.0160545
711.955	0.0160735
712.033	0.0160298
712.111	0.0160058
712.189	0.0159299
712.267	0.0161982
712.346	0.0161745
712.424	0.0158837
712.502	0.0161980
712.580	0.0160501
712.658	0.0161375
712.736	0.0161742
712.814	0.0161954
712.892	0.0162243
712.971	0.0163175
713.049	0.0162480
713.127	0.0161758
713.205	0.0161897
713.283	0.0162718
713.361	0.0162595
713.439	0.0163612
713.517	0.0163042
713.596	0.0162556
713.674	0.0162276
713.752	0.0161875
713.830	0.0161969
713.908	0.0162000
713.986	0.0161059
714.064	0.0160960
714.142	0.0161187
714.221	0.0161641
714.299	0.0160013
714.377	0.0161485
714.455	0.0160236
714.533	0.0159650
714.611	0.0161673
714.689	0.0161362
714.767	0.0162411
714.846	0.0161335
714.924	0.0161990
715.002	0.0161928
715.080	0.0161802
715.158	0.0162530
715.236	0.0161861
715.314	0.0164135
715.392	0.0162868
715.471	0.0162375
715.549	0.0162718
715.627	0.0162746
715.705	0.0163081
715.783	0.0164077
715.861	0.0163318
715.939	0.0162873
716.017	0.0160847
716.096	0.0161105
716.174	0.0162280
716.252	0.0163015
716.330	0.0161496
716.408	0.0160265
716.486	0.0159709
716.564	0.0160841
716.642	0.0160716
716.721	0.0160623
716.799	0.0161980
716.877	0.0160242
716.955	0.0160801
717.033	0.0161343
717.111	0.0161945
717.189	0.0163023
717.267	0.0161912
717.346	0.0161424
717.424	0.0164115
717.502	0.0164832
717.580	0.0163961
717.658	0.0162984
717.736	0.0164202
717.814	0.0163277
717.892	0.0161538
717.971	0.0162865
718.049	0.0162726
718.127	0.0162988
718.205	0.0161510
718.283	0.0160451
718.361	0.0160909
718.439	0.0162393
718.517	0.0161602
718.596	0.0161143
718.674	0.0159622
718.752	0.0160703
718.830	0.0160175
718.908	0.0160128
718.986	0.0161678
719.064	0.0161721
719.142	0.0162625
719.221	0.0160829
719.299	0.0161486
719.377	0.0161619
719.455	0.0161385
719.533	0.0162825
719.611	0.0162554
719.689	0.0160538
719.767	0.0160078
719.846	0.0160943
719.924	0.0159984
720.002	0.0160417
720.080	0.0163068
720.158	0.0161131
720.236	0.0160837
720.314	0.0161119
720.392	0.0160468
720.471	0.0161330
720.549	0.0161828
720.627	0.0162180
720.705	0.0161599
720.783	0.0161226
720.861	0.0161215
720.939	0.0161752
721.017	0.0162280
721.096	0.0162656
721.174	0.0162136
721.252	0.0162057
721.330	0.0161049
721.408	0.0162085
721.486	0.0161574
721.564	0.0162447
721.642	0.0162100
721.721	0.0160668
721.799	0.0162744
721.877	0.0161708
721.955	0.0161125
722.033	0.0160365
722.111	0.0161613
722.189	0.0161435
722.267	0.0161397
722.346	0.0161010
722.424	0.0160833
722.502	0.0162733
722.580	0.0161504
722.658	0.0162061
722.736	0.0162931
722.814	0.0161465
722.892	0.0162267
722.971	0.0162300
723.049	0.0163396
723.127	0.0163437
723.205	0.0162981
723.283	0.0163445
723.361	0.0163163
723.439	0.0162973
723.517	0.0163995
723.596	0.0164024
723.674	0.0163478
723.752	0.0165002
723.830	0.0165419
723.908	0.0165160
723.986	0.0165073
724.064	0.0164858
724.142	0.0166260
724.221	0.0165372
724.299	0.0164815
724.377	0.0167210
724.455	0.0164559
724.533	0.0165613
724.611	0.0165935
724.689	0.0166103
724.767	0.0165196
724.846	0.0164575
724.924	0.0164897
725.002	0.0165044
725.080	0.0166792
725.158	0.0165456
725.236	0.0164436
725.314	0.0165829
725.392	0.0166220
725.471	0.0165723
725.549	0.0165672
725.627	0.0165693
725.705	0.0165578
725.783	0.0166595
725.861	0.0164881
725.939	0.0165363
726.017	0.0166225
726.096	0.0166081
726.174	0.0166315
726.252	0.0164351
726.330	0.0165699
726.408	0.0165044
726.486	0.0165459
726.564	0.0164013
726.642	0.0164308
726.721	0.0163276
726.799	0.0162357
726.877	0.0162253
726.955	0.0161693
727.033	0.0161948
727.111	0.0161241
727.189	0.0160120
727.267	0.0160614
727.346	0.0160056
727.424	0.0160081
727.502	0.0159941
727.580	0.0159719
727.658	0.0161063
727.736	0.0161019
727.814	0.0160963
727.892	0.0161544
727.971	0.0158840
728.049	0.0159514
728.127	0.0162357
728.205	0.0161516
728.283	0.0161488
728.361	0.0162203
728.439	0.0162515
728.517	0.0161353
728.596	0.0161454
728.674	0.0162422
728.752	0.0162484
728.830	0.0161831
728.908	0.0162576
728.986	0.0163951
729.064	0.0162769
729.142	0.0162844
729.221	0.0163654
729.299	0.0163736
729.377	0.0162630
729.455	0.0163622
729.533	0.0163935
729.611	0.0164143
729.689	0.0163605
729.767	0.0164815
729.846	0.0164391
729.924	0.0165265
730.002	0.0163583
730.080	0.0164642
730.158	0.0164423
730.236	0.0163969
730.314	0.0164663
730.392	0.0166283
730.471	0.0166346
730.549	0.0166908
730.627	0.0166340
730.705	0.0167284
730.783	0.0166776
730.861	0.0165897
730.939	0.0165442
731.017	0.0166901
731.096	0.0167511
731.174	0.0165717
731.252	0.0166582
731.330	0.0166038
731.408	0.0164906
731.486	0.0164484
731.564	0.0164740
731.642	0.0163091
731.721	0.0163409
731.799	0.0163551
731.877	0.0161596
731.955	0.0161961
732.033	0.0162114
732.111	0.0161239
732.189	0.0161337
732.267	0.0160803
732.346	0.0160627
732.424	0.0162320
732.502	0.0160679
732.580	0.0160812
732.658	0.0163069
732.736	0.0163065
732.814	0.0162762
732.892	0.0161443
732.971	0.0160878
733.049	0.0161250
733.127	0.0161022
733.205	0.0159966
733.283	0.0161270
733.361	0.0161996
733.439	0.0161288
733.517	0.0161784
733.596	0.0162716
733.674	0.0161859
733.752	0.0163089
733.830	0.0162842
733.908	0.0163120
733.986	0.0164947
734.064	0.0162360
734.142	0.0162934
734.221	0.0164201
734.299	0.0164787
734.377	0.0164614
734.455	0.0163757
734.533	0.0164934
734.611	0.0165852
734.689	0.0165493
734.767	0.0165704
734.846	0.0165310
734.924	0.0164281
735.002	0.0164217
735.080	0.0164137
735.158	0.0163760
735.236	0.0163323
735.314	0.0163374
735.392	0.0162357
735.471	0.0162341
735.549	0.0161258
735.627	0.0161553
735.705	0.0161437
735.783	0.0161176
735.861	0.0161034
735.939	0.0160155
736.017	0.0160992
736.096	0.0160220
736.174	0.0159910
736.252	0.0159988
736.330	0.0158860
736.408	0.0160647
736.486	0.0159933
736.564	0.0160828
736.642	0.0160869
736.721	0.0160241
736.799	0.0159760
736.877	0.0161409
736.955	0.0161869
737.033	0.0162560
737.111	0.0162076
737.189	0.0161731
737.267	0.0162877
737.346	0.0164310
737.424	0.0164104
737.502	0.0163590
737.580	0.0164758
737.658	0.0165518
737.736	0.0164912
737.814	0.0165566
737.892	0.0166327
737.971	0.0166330
738.049	0.0167484
738.127	0.0166735
738.205	0.0166270
738.283	0.0165659
738.361	0.0166230
738.439	0.0167077
738.517	0.0166829
738.596	0.0165631
738.674	0.0166584
738.752	0.0166721
738.830	0.0165125
738.908	0.0164433
738.986	0.0165433
739.064	0.0165436
739.142	0.0166206
739.221	0.0164339
739.299	0.0163197
739.377	0.0163842
739.455	0.0163306
739.533	0.0163332
739.611	0.0164834
739.689	0.0163612
739.767	0.0162782
739.846	0.0162676
739.924	0.0162737
740.002	0.0161862
740.080	0.0160320
740.158	0.0160484
740.236	0.0160560
740.314	0.0161053
740.392	0.0162207
740.471	0.0161098
740.549	0.0161511
740.627	0.0162007
740.705	0.0161750
740.783	0.0162093
740.861	0.0162260
740.939	0.0163642
741.017	0.0162491
741.096	0.0164316
741.174	0.0164672
741.252	0.0165569
741.330	0.0165176
741.408	0.0165544
741.486	0.0166259
741.564	0.0165610
741.642	0.0168013
741.721	0.0166525
741.799	0.0167660
741.877	0.0167142
741.955	0.0165562
742.033	0.0167147
742.111	0.0166892
742.189	0.0166080
742.267	0.0165854
742.346	0.0165497
742.424	0.0164817
742.502	0.0164725
742.580	0.0166179
742.658	0.0164332
742.736	0.0163895
742.814	0.0162995
742.892	0.0164799
742.971	0.0163000
743.049	0.0164782
743.127	0.0162453
743.205	0.0163435
743.283	0.0162441
743.361	0.0162613
743.439	0.0163293
743.517	0.0160828
743.596	0.0160699
743.674	0.0161395
743.752	0.0161374
743.830	0.0161440
743.908	0.0160928
743.986	0.0161225
744.064	0.0159338
744.142	0.0160643
744.221	0.0160839
744.299	0.0161459
744.377	0.0159525
744.455	0.0159001
744.533	0.0159266
744.611	0.0160581
744.689	0.0160573
744.767	0.0160453
744.846	0.0160722
744.924	0.0160706
745.002	0.0161297
745.080	0.0161684
745.158	0.0161223
745.236	0.0162277
745.314	0.0162200
745.392	0.0162610
745.471	0.0162960
745.549	0.0163027
745.627	0.0163693
745.705	0.0162598
745.783	0.0163248
745.861	0.0164147
745.939	0.0164399
746.017	0.0165834
746.096	0.0165607
746.174	0.0165485
746.252	0.0165254
746.330	0.0165987
746.408	0.0165935
746.486	0.0166635
746.564	0.0166769
746.642	0.0167889
746.721	0.0166824
746.799	0.0165934
746.877	0.0166838
746.955	0.0166814
747.033	0.0166822
747.111	0.0166814
747.189	0.0165952
747.267	0.0167921
747.346	0.0166353
747.424	0.0166100
747.502	0.0165892
747.580	0.0165997
747.658	0.0166043
747.736	0.0166802
747.814	0.0166484
747.892	0.0166360
747.971	0.0166241
748.049	0.0166321
748.127	0.0165838
748.205	0.0167003
748.283	0.0167215
748.361	0.0165592
748.439	0.0165944
748.517	0.0167388
748.596	0.0165806
748.674	0.0166349
748.752	0.0166957
748.830	0.0167877
748.908	0.0166798
748.986	0.0167419
749.064	0.0168013
749.142	0.0166911
749.221	0.0167281
749.299	0.0168600
749.377	0.0168793
749.455	0.0168812
749.533	0.0170510
749.611	0.0169150
749.689	0.0168566
749.767	0.0169892
749.846	0.0170545
749.924	0.0170265
750.002	0.0169714
750.080	0.0168981
750.158	0.0168993
750.236	0.0169443
750.314	0.0169495
750.392	0.0168808
750.471	0.0170023
750.549	0.0168191
750.627	0.0168828
750.705	0.0169093
750.783	0.0168729
750.861	0.0168546
750.939	0.0168383
751.017	0.0166468
751.096	0.0166285
751.174	0.0165598
751.252	0.0166243
751.330	0.0165283
751.408	0.0165189
751.486	0.0165473
751.564	0.0163647
751.642	0.0162469
751.721	0.0161963
751.799	0.0161703
751.877	0.0162810
751.955	0.0161774
752.033	0.0161273
752.111	0.0161628
752.189	0.0161160
752.267	0.0161433
752.346	0.0162875
752.424	0.0161890
752.502	0.0161113
752.580	0.0161977
752.658	0.0163238
752.736	0.0162790
752.814	0.0162952
752.892	0.0163815
752.971	0.0162804
753.049	0.0162896
753.127	0.0163186
753.205	0.0162688
753.283	0.0162885
753.361	0.0162917
753.439	0.0161867
753.517	0.0162253
753.596	0.0162312
753.674	0.0161444
753.752	0.0161170
753.830	0.0162831
753.908	0.0162048
753.986	0.0161471
754.064	0.0159593
754.142	0.0161857
754.221	0.0161772
754.299	0.0162252
754.377	0.0160136
754.455	0.0162088
754.533	0.0163326
754.611	0.0161707
754.689	0.0161443
754.767	0.0162175
754.846	0.0162442
754.924	0.0162477
755.002	0.0160933
755.080	0.0161104
755.158	0.0162218
755.236	0.0161785
755.314	0.0161737
755.392	0.0162775
755.471	0.0160593
755.549	0.0159218
755.627	0.0160686
755.705	0.0159491
755.783	0.0160137
755.861	0.0159901
755.939	0.0160145
756.017	0.0159970
756.096	0.0159056
756.174	0.0158996
756.252	0.0159859
756.330	0.0158955
756.408	0.0160267
756.486	0.0161863
756.564	0.0159604
756.642	0.0160727
756.721	0.0161196
756.799	0.0159957
756.877	0.0161594
756.955	0.0161196
757.033	0.0162341
757.111	0.0161914
757.189	0.0161780
757.267	0.0160545
757.346	0.0161179
757.424	0.0163097
757.502	0.0162377
757.580	0.0161855
757.658	0.0161546
757.736	0.0160246
757.814	0.0161269
757.892	0.0161994
757.971	0.0162120
758.049	0.0161163
758.127	0.0161638
758.205	0.0161980
758.283	0.0162868
758.361	0.0159881
758.439	0.0160233
758.517	0.0161001
758.596	0.0161267
758.674	0.0161144
758.752	0.0163300
758.830	0.0162506
758.908	0.0161189
758.986	0.0161354
759.064	0.0162544
759.142	0.0161534
759.221	0.0163840
759.299	0.0162053
759.377	0.0161372
759.455	0.0162968
759.533	0.0164167
759.611	0.0164144
759.689	0.0163984
759.767	0.0164114
759.846	0.0164326
759.924	0.0164332
760.002	0.0164259
760.080	0.0164249
760.158	0.0166361
760.236	0.0165796
760.314	0.0165251
760.392	0.0166653
760.471	0.0167535
760.549	0.0165562
760.627	0.0166623
760.705	0.0166673
760.783	0.0166660
760.861	0.0166508
760.939	0.0167444
761.017	0.0166643
761.096	0.0168381
761.174	0.0167181
761.252	0.0167064
761.330	0.0165648
761.408	0.0165725
761.486	0.0165011
761.564	0.0166404
761.642	0.0165542
761.721	0.0164992
761.799	0.0164822
761.877	0.0166003
761.955	0.0164689
762.033	0.0167022
762.111	0.0166978
762.189	0.0166428
762.267	0.0166859
762.346	0.0166218
762.424	0.0166080
762.502	0.0167342
762.580	0.0166494
762.658	0.0167889
762.736	0.0168127
762.814	0.0167533
762.892	0.0169711
762.971	0.0165604
763.049	0.0167010
763.127	0.0168401
763.205	0.0166655
763.283	0.0164740
763.361	0.0164577
763.439	0.0163486
763.517	0.0164114
763.596	0.0161651
763.674	0.0162476
763.752	0.0161033
763.830	0.0160796
763.908	0.0159919
763.986	0.0160148
764.064	0.0160480
764.142	0.0158874
764.221	0.0159239
764.299	0.0159334
764.377	0.0161452
764.455	0.0161028
764.533	0.0161962
764.611	0.0163150
764.689	0.0163831
764.767	0.0165212
764.846	0.0165057
764.924	0.0165996
765.002	0.0166525
765.080	0.0166594
765.158	0.0167641
765.236	0.0166179
765.314	0.0165811
765.392	0.0168169
765.471	0.0168680
765.549	0.0169250
765.627	0.0168472
765.705	0.0167731
765.783	0.0168035
765.861	0.0169290
765.939	0.0168268
766.017	0.0167289
766.096	0.0166515
766.174	0.0166032
766.252	0.0165272
766.330	0.0164873
766.408	0.0165819
766.486	0.0165258
766.564	0.0164861
766.642	0.0164204
766.721	0.0163374
766.799	0.0162431
766.877	0.0162789
766.955	0.0162090
767.033	0.0160621
767.111	0.0162035
767.189	0.0161434
767.267	0.0160104
767.346	0.0159914
767.424	0.0159738
767.502	0.0159032
767.580	0.0157435
767.658	0.0157468
767.736	0.0157706
767.814	0.0156544
767.892	0.0158754
767.971	0.0156837
768.049	0.0156096
768.127	0.0157304
768.205	0.0156656
768.283	0.0158836
768.361	0.0157582
768.439	0.0158389
768.517	0.0159386
768.596	0.0159843
768.674	0.0162369
768.752	0.0160808
768.830	0.0162151
768.908	0.0162958
768.986	0.0162659
769.064	0.0163887
769.142	0.0164195
769.221	0.0164283
769.299	0.0164898
769.377	0.0166673
769.455	0.0168268
769.533	0.0166499
769.611	0.0165192
769.689	0.0166524
769.767	0.0167763
769.846	0.0167411
769.924	0.0167307
770.002	0.0167851
770.080	0.0168876
770.158	0.0167108
770.236	0.0167766
770.314	0.0168464
770.392	0.0168275
770.471	0.0166161
770.549	0.0166889
770.627	0.0166249
770.705	0.0166652
770.783	0.0166068
770.861	0.0166187
770.939	0.0167842
771.017	0.0166184
771.096	0.0164016
771.174	0.0164618
771.252	0.0163518
771.330	0.0163932
771.408	0.0164336
771.486	0.0164645
771.564	0.0164268
771.642	0.0164249
771.721	0.0163273
771.799	0.0162695
771.877	0.0163641
771.955	0.0162604
772.033	0.0162933
772.111	0.0162616
772.189	0.0162103
772.267	0.0162502
772.346	0.0163129
772.424	0.0163733
772.502	0.0163779
772.580	0.0162332
772.658	0.0162859
772.736	0.0164121
772.814	0.0164378
772.892	0.0163306
772.971	0.0164137
773.049	0.0162920
773.127	0.0163465
773.205	0.0163898
773.283	0.0162891
773.361	0.0163319
773.439	0.0163718
773.517	0.0162464
773.596	0.0162202
773.674	0.0163670
773.752	0.0163195
773.830	0.0162567
773.908	0.0163196
773.986	0.0163472
774.064	0.0164424
774.142	0.0163808
774.221	0.0164529
774.299	0.0163721
774.377	0.0164398
774.455	0.0164874
774.533	0.0163877
774.611	0.0166555
774.689	0.0165029
774.767	0.0164439
774.846	0.0165048
774.924	0.0165762
775.002	0.0166852
775.080	0.0165873
775.158	0.0166941
775.236	0.0166969
775.314	0.0166259
775.392	0.0167269
775.471	0.0165756
775.549	0.0165589
775.627	0.0165996
775.705	0.0163244
775.783	0.0165215
775.861	0.0165842
775.939	0.0163984
776.017	0.0163679
776.096	0.0165131
776.174	0.0165482
776.252	0.0164019
776.330	0.0163973
776.408	0.0165012
776.486	0.0164309
776.564	0.0165318
776.642	0.0163649
776.721	0.0164724
776.799	0.0165668
776.877	0.0165073
776.955	0.0164927
777.033	0.0163946
777.111	0.0165259
777.189	0.0164780
777.267	0.0165214
777.346	0.0164426
777.424	0.0162090
777.502	0.0162524
777.580	0.0162418
777.658	0.0161505
777.736	0.0160258
777.814	0.0161115
777.892	0.0161023
777.971	0.0159685
778.049	0.0159988
778.127	0.0159190
778.205	0.0159071
778.283	0.0158073
778.361	0.0159127
778.439	0.0158212
778.517	0.0158286
778.596	0.0160506
778.674	0.0159722
778.752	0.0160005
778.830	0.0160723
778.908	0.0159927
778.986	0.0162060
779.064	0.0163078
779.142	0.0163885
779.221	0.0162884
779.299	0.0162836
779.377	0.0164868
779.455	0.0164585
779.533	0.0165568
779.611	0.0165186
779.689	0.0164224
779.767	0.0164771
779.846	0.0164345
779.924	0.0163560
780.002	0.0164286
780.080	0.0164259
780.158	0.0162415
780.236	0.0163625
780.314	0.0161356
780.392	0.0162489
780.471	0.0161775
780.549	0.0160768
780.627	0.0161348
780.705	0.0162512
780.783	0.0161119
780.861	0.0160118
780.939	0.0160617
781.017	0.0162289
781.096	0.0160992
781.174	0.0158524
781.252	0.0158862
781.330	0.0159779
781.408	0.0160275
781.486	0.0158700
781.564	0.0159139
781.642	0.0159247
781.721	0.0158337
781.799	0.0158455
781.877	0.0159734
781.955	0.0160198
782.033	0.0159637
782.111	0.0159949
782.189	0.0160616
782.267	0.0159258
782.346	0.0160302
782.424	0.0158436
782.502	0.0160776
782.580	0.0159270
782.658	0.0160635
782.736	0.0160808
782.814	0.0160360
782.892	0.0159705
782.971	0.0160491
783.049	0.0161240
783.127	0.0160214
783.205	0.0160425
783.283	0.0161617
783.361	0.0161324
783.439	0.0160721
783.517	0.0160299
783.596	0.0160726
783.674	0.0160955
783.752	0.0160404
783.830	0.0162183
783.908	0.0160921
783.986	0.0161288
784.064	0.0160894
784.142	0.0160481
784.221	0.0160298
784.299	0.0160659
784.377	0.0161703
784.455	0.0160944
784.533	0.0160789
784.611	0.0160308
784.689	0.0160680
784.767	0.0159897
784.846	0.0160749
784.924	0.0161658
785.002	0.0162107
785.080	0.0163210
785.158	0.0163225
785.236	0.0162966
785.314	0.0163232
785.392	0.0164346
785.471	0.0164607
785.549	0.0164696
785.627	0.0165854
785.705	0.0165411
785.783	0.0165958
785.861	0.0165019
785.939	0.0165620
786.017	0.0164697
786.096	0.0166905
786.174	0.0165987
786.252	0.0165052
786.330	0.0165913
786.408	0.0165028
786.486	0.0165878
786.564	0.0164465
786.642	0.0164112
786.721	0.0164180
786.799	0.0165853
786.877	0.0166340
786.955	0.0166025
787.033	0.0165361
787.111	0.0165085
787.189	0.0166770
787.267	0.0165241
787.346	0.0165331
787.424	0.0166448
787.502	0.0164675
787.580	0.0165746
787.658	0.0165075
787.736	0.0164778
787.814	0.0165752
787.892	0.0163354
787.971	0.0163782
788.049	0.0163120
788.127	0.0163392
788.205	0.0163618
788.283	0.0163325
788.361	0.0161613
788.439	0.0162582
788.517	0.0162553
788.596	0.0162248
788.674	0.0163656
788.752	0.0162334
788.830	0.0162114
788.908	0.0161406
788.986	0.0161846
789.064	0.0163157
789.142	0.0162987
789.221	0.0162078
789.299	0.0161941
789.377	0.0162457
789.455	0.0162292
789.533	0.0164554
789.611	0.0164383
789.689	0.0163387
789.767	0.0163107
789.846	0.0164297
789.924	0.0164093
790.002	0.0164051
790.080	0.0163992
790.158	0.0164016
790.236	0.0164520
790.314	0.0165228
790.392	0.0163847
790.471	0.0164635
790.549	0.0164464
790.627	0.0164297
790.705	0.0164563
790.783	0.0163910
790.861	0.0164398
790.939	0.0163292
791.017	0.0163451
791.096	0.0165169
791.174	0.0165553
791.252	0.0165755
791.330	0.0165189
791.408	0.0165502
791.486	0.0166180
791.564	0.0167091
791.642	0.0165690
791.721	0.0165629
791.799	0.0164719
791.877	0.0164923
791.955	0.0166014
792.033	0.0166577
792.111	0.0165034
792.189	0.0164819
792.267	0.0165459
792.346	0.0164152
792.424	0.0163834
792.502	0.0163074
792.580	0.0165100
792.658	0.0165228
792.736	0.0164240
792.814	0.0163997
792.892	0.0163886
792.971	0.0164721
793.049	0.0165294
793.127	0.0163620
793.205	0.0163965
793.283	0.0163979
793.361	0.0163189
793.439	0.0164511
793.517	0.0163083
793.596	0.0162222
793.674	0.0162489
793.752	0.0162251
793.830	0.0162109
793.908	0.0162955
793.986	0.0161698
794.064	0.0161356
794.142	0.0162466
794.221	0.0162554
794.299	0.0162410
794.377	0.0162271
794.455	0.0162425
794.533	0.0161126
794.611	0.0162420
794.689	0.0163120
794.767	0.0162269
794.846	0.0160733
794.924	0.0160962
795.002	0.0160753
795.080	0.0161356
795.158	0.0160625
795.236	0.0159826
795.314	0.0159013
795.392	0.0158319
795.471	0.0158027
795.549	0.0159380
795.627	0.0158506
795.705	0.0158246
795.783	0.0159077
795.861	0.0158008
795.939	0.0157272
796.017	0.0158819
796.096	0.0157420
796.174	0.0157346
796.252	0.0158737
796.330	0.0155882
796.408	0.0157827
796.486	0.0158102
796.564	0.0156867
796.642	0.0156483
796.721	0.0157714
796.799	0.0157361
796.877	0.0156713
796.955	0.0157836
797.033	0.0158961
797.111	0.0158089
797.189	0.0157712
797.267	0.0158691
797.346	0.0157500
797.424	0.0159483
797.502	0.0159560
797.580	0.0160067
797.658	0.0161401
797.736	0.0159630
797.814	0.0160054
797.892	0.0160764
797.971	0.0161208
798.049	0.0161061
798.127	0.0160488
798.205	0.0158846
798.283	0.0160595
798.361	0.0160578
798.439	0.0159760
798.517	0.0160659
798.596	0.0160066
798.674	0.0161227
798.752	0.0160522
798.830	0.0161778
798.908	0.0161324
798.986	0.0160265
799.064	0.0161263
799.142	0.0161695
799.221	0.0160374
799.299	0.0159132
799.377	0.0161931
799.455	0.0160385
799.533	0.0160568
799.611	0.0161402
799.689	0.0162095
799.767	0.0162311
799.846	0.0161742
799.924	0.0164864
800.002	0.0163447
800.080	0.0164021
800.158	0.0163956
800.236	0.0165820
800.314	0.0165787
800.392	0.0165745
800.471	0.0166434
800.549	0.0166581
800.627	0.0166217
800.705	0.0167010
800.783	0.0166808
800.861	0.0168961
800.939	0.0168868
801.017	0.0167355
801.096	0.0167023
801.174	0.0167260
801.252	0.0167321
801.330	0.0167666
801.408	0.0166282
801.486	0.0167728
801.564	0.0166965
801.642	0.0167544
801.721	0.0166130
801.799	0.0165915
801.877	0.0165531
801.955	0.0165493
802.033	0.0164339
802.111	0.0164187
802.189	0.0164359
802.267	0.0164864
802.346	0.0163920
802.424	0.0163225
802.502	0.0162559
802.580	0.0161646
802.658	0.0161810
802.736	0.0162191
802.814	0.0162973
802.892	0.0161893
802.971	0.0160965
803.049	0.0160924
803.127	0.0161382
803.205	0.0159815
803.283	0.0159357
803.361	0.0160306
803.439	0.0161337
803.517	0.0160179
803.596	0.0161183
803.674	0.0162420
803.752	0.0160773
803.830	0.0161526
803.908	0.0161667
803.986	0.0162624
804.064	0.0162012
804.142	0.0161831
804.221	0.0162964
804.299	0.0162927
804.377	0.0161261
804.455	0.0161834
804.533	0.0162883
804.611	0.0162608
804.689	0.0163461
804.767	0.0162614
804.846	0.0162224
804.924	0.0162428
805.002	0.0162898
805.080	0.0162572
805.158	0.0163676
805.236	0.0163269
805.314	0.0162238
805.392	0.0162759
805.471	0.0163929
805.549	0.0164349
805.627	0.0164001
805.705	0.0162946
805.783	0.0164362
805.861	0.0163232
805.939	0.0164326
806.017	0.0165556
806.096	0.0166267
806.174	0.0167629
806.252	0.0167236
806.330	0.0165714
806.408	0.0166628
806.486	0.0167017
806.564	0.0167781
806.642	0.0167387
806.721	0.0168510
806.799	0.0167550
806.877	0.0166244
806.955	0.0166758
807.033	0.0167408
807.111	0.0169488
807.189	0.0167176
807.267	0.0166870
807.346	0.0165948
807.424	0.0167317
807.502	0.0166749
807.580	0.0166360
807.658	0.0166766
807.736	0.0167064
807.814	0.0166559
807.892	0.0165865
807.971	0.0165184
808.049	0.0166689
808.127	0.0166313
808.205	0.0166882
808.283	0.0166615
808.361	0.0164841
808.439	0.0167127
808.517	0.0165952
808.596	0.0166905
808.674	0.0165925
808.752	0.0166613
808.830	0.0167057
808.908	0.0166090
808.986	0.0164756
809.064	0.0164314
809.142	0.0165530
809.221	0.0164330
809.299	0.0163708
809.377	0.0163934
809.455	0.0161982
809.533	0.0162798
809.611	0.0163065
809.689	0.0162038
809.767	0.0162557
809.846	0.0161421
809.924	0.0163996
810.002	0.0160800
810.080	0.0161993
810.158	0.0162482
810.236	0.0162183
810.314	0.0161582
810.392	0.0163107
810.471	0.0161821
810.549	0.0162473
810.627	0.0161297
810.705	0.0160955
810.783	0.0162225
810.861	0.0160967
810.939	0.0161301
811.017	0.0160571
811.096	0.0159796
811.174	0.0160563
811.252	0.0160253
811.330	0.0159469
811.408	0.0159855
811.486	0.0159903
811.564	0.0159772
811.642	0.0159205
811.721	0.0158362
811.799	0.0157445
811.877	0.0159128
811.955	0.0158590
812.033	0.0160046
812.111	0.0159371
812.189	0.0158992
812.267	0.0158984
812.346	0.0158549
812.424	0.0159335
812.502	0.0158897
812.580	0.0158047
812.658	0.0161012
812.736	0.0160944
812.814	0.0159429
812.892	0.0161588
812.971	0.0162044
813.049	0.0162730
813.127	0.0163357
813.205	0.0163316
813.283	0.0164047
813.361	0.0164754
813.439	0.0165089
813.517	0.0165245
813.596	0.0165553
813.674	0.0166065
813.752	0.0166872
813.830	0.0166067
813.908	0.0167556
813.986	0.0167712
814.064	0.0167165
814.142	0.0167211
814.221	0.0167236
814.299	0.0167966
814.377	0.0166985
814.455	0.0167618
814.533	0.0166560
814.611	0.0165841
814.689	0.0165379
814.767	0.0165985
814.846	0.0165424
814.924	0.0166595
815.002	0.0166664
815.080	0.0164675
815.158	0.0165929
815.236	0.0164684
815.314	0.0164355
815.392	0.0164909
815.471	0.0164619
815.549	0.0164194
815.627	0.0163976
815.705	0.0164618
815.783	0.0165030
815.861	0.0164816
815.939	0.0164639
816.017	0.0164527
816.096	0.0164586
816.174	0.0164654
816.252	0.0164315
816.330	0.0164503
816.408	0.0164252
816.486	0.0163513
816.564	0.0162741
816.642	0.0162727
816.721	0.0161243
816.799	0.0161409
816.877	0.0161661
816.955	0.0161788
817.033	0.0162687
817.111	0.0162392
817.189	0.0162698
817.267	0.0161678
817.346	0.0163203
817.424	0.0161979
817.502	0.0162573
817.580	0.0163937
817.658	0.0163860
817.736	0.0164465
817.814	0.0163529
817.892	0.0164356
817.971	0.0164050
818.049	0.0163275
818.127	0.0163534
818.205	0.0163762
818.283	0.0165102
818.361	0.0163797
818.439	0.0164178
818.517	0.0162726
818.596	0.0164370
818.674	0.0164414
818.752	0.0163188
818.830	0.0163961
818.908	0.0164308
818.986	0.0164330
819.064	0.0162988
819.142	0.0163499
819.221	0.0162724
819.299	0.0160687
819.377	0.0161960
819.455	0.0162245
819.533	0.0160812
819.611	0.0160934
819.689	0.0160222
819.767	0.0159795
819.846	0.0160725
819.924	0.0159890
820.002	0.0159650
820.080	0.0158920
820.158	0.0158713
820.236	0.0158665
820.314	0.0158411
820.392	0.0157510
820.471	0.0158422
820.549	0.0158182
820.627	0.0158996
820.705	0.0159776
820.783	0.0157112
820.861	0.0156609
820.939	0.0159764
821.017	0.0159364
821.096	0.0158051
821.174	0.0158414
821.252	0.0158588
821.330	0.0159096
821.408	0.0159091
821.486	0.0158472
821.564	0.0160148
821.642	0.0160478
821.721	0.0160332
821.799	0.0160289
821.877	0.0159723
821.955	0.0161753
822.033	0.0161961
822.111	0.0160538
822.189	0.0161440
822.267	0.0163216
822.346	0.0160909
822.424	0.0161176
822.502	0.0161668
822.580	0.0161594
822.658	0.0161031
822.736	0.0162128
822.814	0.0162736
822.892	0.0162911
822.971	0.0161555
823.049	0.0163103
823.127	0.0162496
823.205	0.0161677
823.283	0.0162978
823.361	0.0163468
823.439	0.0162522
823.517	0.0161830
823.596	0.0161932
823.674	0.0163760
823.752	0.0162909
823.830	0.0162451
823.908	0.0163274
823.986	0.0162261
824.064	0.0162732
824.142	0.0164229
824.221	0.0164021
824.299	0.0163595
824.377	0.0163661
824.455	0.0163431
824.533	0.0163335
824.611	0.0163304
824.689	0.0164709
824.767	0.0163429
824.846	0.0164945
824.924	0.0163995
825.002	0.0164685
825.080	0.0164178
825.158	0.0163943
825.236	0.0164968
825.314	0.0165886
825.392	0.0165355
825.471	0.0164056
825.549	0.0166579
825.627	0.0165837
825.705	0.0165371
825.783	0.0166135
825.861	0.0165375
825.939	0.0166310
826.017	0.0167709
826.096	0.0164909
826.174	0.0164268
826.252	0.0166321
826.330	0.0166005
826.408	0.0166514
826.486	0.0167011
826.564	0.0165973
826.642	0.0165318
826.721	0.0166792
826.799	0.0166389
826.877	0.0167196
826.955	0.0168238
827.033	0.0167016
827.111	0.0168526
827.189	0.0167833
827.267	0.0168056
827.346	0.0167709
827.424	0.0168280
827.502	0.0167707
827.580	0.0167861
827.658	0.0167389
827.736	0.0167731
827.814	0.0168551
827.892	0.0167876
827.971	0.0166212
828.049	0.0167500
828.127	0.0165295
828.205	0.0166034
828.283	0.0166564
828.361	0.0164633
828.439	0.0163661
828.517	0.0164906
828.596	0.0164378
828.674	0.0165154
828.752	0.0163545
828.830	0.0165712
828.908	0.0163653
828.986	0.0162873
829.064	0.0163966
829.142	0.0163492
829.221	0.0164406
829.299	0.0163560
829.377	0.0163440
829.455	0.0165851
829.533	0.0165102
829.611	0.0164682
829.689	0.0163122
829.767	0.0164223
829.846	0.0164355
829.924	0.0164362
830.002	0.0163779
830.080	0.0165279
830.158	0.0164540
830.236	0.0164580
830.314	0.0164386
830.392	0.0163643
830.471	0.0162575
830.549	0.0164189
830.627	0.0163408
830.705	0.0163250
830.783	0.0162791
830.861	0.0163586
830.939	0.0162180
831.017	0.0163403
831.096	0.0164178
831.174	0.0163375
831.252	0.0163980
831.330	0.0161688
831.408	0.0163947
831.486	0.0163243
831.564	0.0161578
831.642	0.0164157
831.721	0.0164528
831.799	0.0162745
831.877	0.0162527
831.955	0.0164146
832.033	0.0163547
832.111	0.0163714
832.189	0.0163936
832.267	0.0163511
832.346	0.0164840
832.424	0.0165000
832.502	0.0163242
832.580	0.0164181
832.658	0.0163744
832.736	0.0163929
832.814	0.0164590
832.892	0.0164189
832.971	0.0163322
833.049	0.0162366
833.127	0.0163300
833.205	0.0163268
833.283	0.0164172
833.361	0.0162479
833.439	0.0163417
833.517	0.0161856
833.596	0.0162395
833.674	0.0161874
833.752	0.0162916
833.830	0.0161794
833.908	0.0160869
833.986	0.0161514
834.064	0.0163242
834.142	0.0162646
834.221	0.0162325
834.299	0.0162926
834.377	0.0162589
834.455	0.0162807
834.533	0.0162226
834.611	0.0163122
834.689	0.0162843
834.767	0.0162599
834.846	0.0163175
834.924	0.0163854
835.002	0.0161319
835.080	0.0162427
835.158	0.0161520
835.236	0.0163782
835.314	0.0163086
835.392	0.0162727
835.471	0.0163442
835.549	0.0163414
835.627	0.0162077
835.705	0.0161109
835.783	0.0162358
835.861	0.0160867
835.939	0.0161860
836.017	0.0160124
836.096	0.0158916
836.174	0.0159485
836.252	0.0159908
836.330	0.0159772
836.408	0.0159511
836.486	0.0157790
836.564	0.0158810
836.642	0.0159990
836.721	0.0158997
836.799	0.0159567
836.877	0.0159387
836.955	0.0159887
837.033	0.0160627
837.111	0.0159148
837.189	0.0159750
837.267	0.0161752
837.346	0.0160200
837.424	0.0159087
837.502	0.0159505
837.580	0.0161014
837.658	0.0162566
837.736	0.0162198
837.814	0.0162170
837.892	0.0163504
837.971	0.0163210
838.049	0.0162579
838.127	0.0164640
838.205	0.0164460
838.283	0.0164548
838.361	0.0164465
838.439	0.0163877
838.517	0.0164977
838.596	0.0163854
838.674	0.0165002
838.752	0.0164178
838.830	0.0164336
838.908	0.0164738
838.986	0.0163325
839.064	0.0163351
839.142	0.0162910
839.221	0.0162713
839.299	0.0163096
839.377	0.0162838
839.455	0.0162985
839.533	0.0162958
839.611	0.0164297
839.689	0.0163161
839.767	0.0162312
839.846	0.0163589
839.924	0.0164228
840.002	0.0165170
840.080	0.0164101
840.158	0.0164314
840.236	0.0163636
840.314	0.0163754
840.392	0.0163052
840.471	0.0162882
840.549	0.0164434
840.627	0.0163279
840.705	0.0163578
840.783	0.0163365
840.861	0.0162486
840.939	0.0163377
841.017	0.0164488
841.096	0.0163789
841.174	0.0162289
841.252	0.0163863
841.330	0.0162708
841.408	0.0164068
841.486	0.0163745
841.564	0.0164552
841.642	0.0163986
841.721	0.0163840
841.799	0.0163274
841.877	0.0163476
841.955	0.0164623
842.033	0.0165409
842.111	0.0165372
842.189	0.0164936
842.267	0.0165761
842.346	0.0165308
842.424	0.0164253
842.502	0.0164944
842.580	0.0164749
842.658	0.0164680
842.736	0.0165476
842.814	0.0164864
842.892	0.0165356
842.971	0.0164952
843.049	0.0165539
843.127	0.0165325
843.205	0.0164406
843.283	0.0165296
843.361	0.0165417
843.439	0.0164901
843.517	0.0164311
843.596	0.0164612
843.674	0.0164195
843.752	0.0165141
843.830	0.0164320
843.908	0.0164552
843.986	0.0164713
844.064	0.0163140
844.142	0.0164084
844.221	0.0163960
844.299	0.0163731
844.377	0.0163673
844.455	0.0163460
844.533	0.0163219
844.611	0.0164361
844.689	0.0164610
844.767	0.0163102
844.846	0.0163655
844.924	0.0162537
845.002	0.0163331
845.080	0.0162655
845.158	0.0160770
845.236	0.0163457
845.314	0.0163259
845.392	0.0162904
845.471	0.0160848
845.549	0.0162231
845.627	0.0161174
845.705	0.0162250
845.783	0.0160692
845.861	0.0160677
845.939	0.0161918
846.017	0.0162441
846.096	0.0161581
846.174	0.0161290
846.252	0.0160849
846.330	0.0161411
846.408	0.0161033
846.486	0.0162133
846.564	0.0160243
846.642	0.0160282
846.721	0.0162131
846.799	0.0160840
846.877	0.0160711
846.955	0.0162003
847.033	0.0160246
847.111	0.0160502
847.189	0.0161498
847.267	0.0163072
847.346	0.0161280
847.424	0.0162331
847.502	0.0162273
847.580	0.0161986
847.658	0.0162566
847.736	0.0161677
847.814	0.0162846
847.892	0.0161819
847.971	0.0162331
848.049	0.0161533
848.127	0.0162146
848.205	0.0163420
848.283	0.0161918
848.361	0.0160980
848.439	0.0160265
848.517	0.0160220
848.596	0.0161797
848.674	0.0160455
848.752	0.0160056
848.830	0.0160124
848.908	0.0162250
848.986	0.0161385
849.064	0.0160754
849.142	0.0160069
849.221	0.0159783
849.299	0.0160278
849.377	0.0161036
849.455	0.0162012
849.533	0.0162453
849.611	0.0161694
849.689	0.0161745
849.767	0.0161970
849.846	0.0162495
849.924	0.0163957
850.002	0.0162652
850.080	0.0162265
850.158	0.0163943
850.236	0.0164489
850.314	0.0163498
850.392	0.0163297
850.471	0.0163809
850.549	0.0164796
850.627	0.0164939
850.705	0.0165942
850.783	0.0165685
850.861	0.0165511
850.939	0.0165762
851.017	0.0165940
851.096	0.0166428
851.174	0.0165578
851.252	0.0167241
851.330	0.0166639
851.408	0.0166805
851.486	0.0167236
851.564	0.0165789
851.642	0.0166235
851.721	0.0166466
851.799	0.0167506
851.877	0.0166286
851.955	0.0166420
852.033	0.0166227
852.111	0.0166542
852.189	0.0169004
852.267	0.0166557
852.346	0.0167246
852.424	0.0164989
852.502	0.0167429
852.580	0.0168073
852.658	0.0167908
852.736	0.0169157
852.814	0.0166702
852.892	0.0167268
852.971	0.0166758
853.049	0.0167616
853.127	0.0168795
853.205	0.0169060
853.283	0.0169423
853.361	0.0168184
853.439	0.0167657
853.517	0.0169640
853.596	0.0168820
853.674	0.0168476
853.752	0.0168130
853.830	0.0167875
853.908	0.0167366
853.986	0.0165786
854.064	0.0167929
854.142	0.0167159
854.221	0.0167151
854.299	0.0166598
854.377	0.0166336
854.455	0.0166947
854.533	0.0165762
854.611	0.0166079
854.689	0.0165314
854.767	0.0166155
854.846	0.0165481
854.924	0.0165614
855.002	0.0166299
855.080	0.0165202
855.158	0.0165385
855.236	0.0164394
855.314	0.0163902
855.392	0.0164255
855.471	0.0162489
855.549	0.0163454
855.627	0.0164182
855.705	0.0162450
855.783	0.0162495
855.861	0.0162637
855.939	0.0162801
856.017	0.0162036
856.096	0.0162268
856.174	0.0161026
856.252	0.0162518
856.330	0.0162277
856.408	0.0161638
856.486	0.0162530
856.564	0.0161506
856.642	0.0161496
856.721	0.0162753
856.799	0.0162033
856.877	0.0161456
856.955	0.0163377
857.033	0.0163080
857.111	0.0162430
857.189	0.0162502
857.267	0.0162402
857.346	0.0162824
857.424	0.0163013
857.502	0.0161938
857.580	0.0162598
857.658	0.0163087
857.736	0.0163741
857.814	0.0163869
857.892	0.0165026
857.971	0.0164480
858.049	0.0164278
858.127	0.0165927
858.205	0.0166071
858.283	0.0166543
858.361	0.0167313
858.439	0.0166566
858.517	0.0167044
858.596	0.0167558
858.674	0.0166886
858.752	0.0167454
858.830	0.0166837
858.908	0.0165725
858.986	0.0164872
859.064	0.0166528
859.142	0.0167534
859.221	0.0166251
859.299	0.0165624
859.377	0.0163513
859.455	0.0165495
859.533	0.0164496
859.611	0.0163934
859.689	0.0163818
859.767	0.0162954
859.846	0.0162572
859.924	0.0161472
860.002	0.0161176
860.080	0.0163179
860.158	0.0162132
860.236	0.0161088
860.314	0.0161477
860.392	0.0161261
860.471	0.0160551
860.549	0.0159687
860.627	0.0160600
860.705	0.0160262
860.783	0.0159726
860.861	0.0158257
860.939	0.0159988
861.017	0.0159799
861.096	0.0160301
861.174	0.0159015
861.252	0.0159950
861.330	0.0159081
861.408	0.0159628
861.486	0.0159654
861.564	0.0159251
861.642	0.0160464
861.721	0.0158904
861.799	0.0160971
861.877	0.0160871
861.955	0.0160948
862.033	0.0160220
862.111	0.0160094
862.189	0.0161342
862.267	0.0162413
862.346	0.0161429
862.424	0.0161765
862.502	0.0161349
862.580	0.0161371
862.658	0.0162232
862.736	0.0162382
862.814	0.0162152
862.892	0.0162119
862.971	0.0161800
863.049	0.0161362
863.127	0.0160973
863.205	0.0162558
863.283	0.0161867
863.361	0.0160928
863.439	0.0162123
863.517	0.0162421
863.596	0.0161395
863.674	0.0164130
863.752	0.0164625
863.830	0.0162668
863.908	0.0162201
863.986	0.0160573
864.064	0.0161826
864.142	0.0162475
864.221	0.0162042
864.299	0.0161694
864.377	0.0161697
864.455	0.0162579
864.533	0.0163450
864.611	0.0163547
864.689	0.0162455
864.767	0.0162098
864.846	0.0163545
864.924	0.0162701
865.002	0.0161922
865.080	0.0162942
865.158	0.0164869
865.236	0.0164234
865.314	0.0164911
865.392	0.0165918
865.471	0.0165380
865.549	0.0164523
865.627	0.0166853
865.705	0.0166727
865.783	0.0166479
865.861	0.0167064
865.939	0.0166633
866.017	0.0168211
866.096	0.0168611
866.174	0.0168938
866.252	0.0167775
866.330	0.0169791
866.408	0.0170400
866.486	0.0169594
866.564	0.0170660
866.642	0.0170246
866.721	0.0171712
866.799	0.0170731
866.877	0.0169448
866.955	0.0171593
867.033	0.0168599
867.111	0.0169331
867.189	0.0168284
867.267	0.0166889
867.346	0.0167222
867.424	0.0166003
867.502	0.0165337
867.580	0.0165044
867.658	0.0164723
867.736	0.0163746
867.814	0.0163586
867.892	0.0162338
867.971	0.0160722
868.049	0.0159699
868.127	0.0159311
868.205	0.0159741
868.283	0.0160260
868.361	0.0159541
868.439	0.0157360
868.517	0.0157682
868.596	0.0157729
868.674	0.0157037
868.752	0.0157104
868.830	0.0156943
868.908	0.0156758
868.986	0.0156853
869.064	0.0156446
869.142	0.0157054
869.221	0.0157141
869.299	0.0157336
869.377	0.0156190
869.455	0.0157381
869.533	0.0157971
869.611	0.0158315
869.689	0.0158746
869.767	0.0160777
869.846	0.0159352
869.924	0.0158858
870.002	0.0158942
870.080	0.0159875
870.158	0.0159341
870.236	0.0159774
870.314	0.0160223
870.392	0.0159506
870.471	0.0160639
870.549	0.0159593
870.627	0.0161351
870.705	0.0161822
870.783	0.0161318
870.861	0.0163238
870.939	0.0161881
871.017	0.0162869
871.096	0.0162016
871.174	0.0162638
871.252	0.0164534
871.330	0.0163906
871.408	0.0163826
871.486	0.0163667
871.564	0.0164163
871.642	0.0164595
871.721	0.0164526
871.799	0.0164371
871.877	0.0165801
871.955	0.0165205
872.033	0.0164179
872.111	0.0165652
872.189	0.0166186
872.267	0.0165117
872.346	0.0164223
872.424	0.0164777
872.502	0.0165755
872.580	0.0163348
872.658	0.0163807
872.736	0.0164229
872.814	0.0164214
872.892	0.0163689
872.971	0.0163294
873.049	0.0163177
873.127	0.0163957
873.205	0.0163914
873.283	0.0162655
873.361	0.0164506
873.439	0.0163814
873.517	0.0162184
873.596	0.0165156
873.674	0.0164578
873.752	0.0163177
873.830	0.0165121
873.908	0.0165688
873.986	0.0164249
874.064	0.0164859
874.142	0.0162877
874.221	0.0164506
874.299	0.0166338
874.377	0.0163953
874.455	0.0165475
874.533	0.0166331
874.611	0.0164280
874.689	0.0166136
874.767	0.0164396
874.846	0.0164080
874.924	0.0162863
875.002	0.0165552
875.080	0.0165388
875.158	0.0163326
875.236	0.0163889
875.314	0.0164285
875.392	0.0164542
875.471	0.0164861
875.549	0.0163700
875.627	0.0165343
875.705	0.0163895
875.783	0.0163770
875.861	0.0165443
875.939	0.0163804
876.017	0.0164038
876.096	0.0162505
876.174	0.0163765
876.252	0.0164070
876.330	0.0163977
876.408	0.0162489
876.486	0.0162396
876.564	0.0161769
876.642	0.0162970
876.721	0.0163181
876.799	0.0162460
876.877	0.0164157
876.955	0.0163569
877.033	0.0163317
877.111	0.0163420
877.189	0.0165437
877.267	0.0163597
877.346	0.0163715
877.424	0.0164591
877.502	0.0164599
877.580	0.0165395
877.658	0.0165369
877.736	0.0164658
877.814	0.0165286
877.892	0.0165685
877.971	0.0166000
878.049	0.0166121
878.127	0.0165276
878.205	0.0163858
878.283	0.0165081
878.361	0.0166032
878.439	0.0164949
878.517	0.0164738
878.596	0.0163791
878.674	0.0165347
878.752	0.0163320
878.830	0.0165028
878.908	0.0164310
878.986	0.0163807
879.064	0.0164368
879.142	0.0163563
879.221	0.0164090
879.299	0.0164083
879.377	0.0162471
879.455	0.0163202
879.533	0.0162204
879.611	0.0163070
879.689	0.0164069
879.767	0.0161898
879.846	0.0161580
879.924	0.0163184
880.002	0.0162549
880.080	0.0160649
880.158	0.0161526
880.236	0.0162679
880.314	0.0161599
880.392	0.0162379
880.471	0.0161418
880.549	0.0163320
880.627	0.0164089
880.705	0.0162057
880.783	0.0162691
880.861	0.0163280
880.939	0.0163027
881.017	0.0163525
881.096	0.0166696
881.174	0.0164191
881.252	0.0165111
881.330	0.0164210
881.408	0.0163305
881.486	0.0163854
881.564	0.0163486
881.642	0.0165281
881.721	0.0163476
881.799	0.0162075
881.877	0.0162900
881.955	0.0162788
882.033	0.0162482
882.111	0.0162666
882.189	0.0163988
882.267	0.0161914
882.346	0.0162348
882.424	0.0162409
882.502	0.0164134
882.580	0.0163500
882.658	0.0164411
882.736	0.0164013
882.814	0.0165528
882.892	0.0164286
882.971	0.0163091
883.049	0.0165229
883.127	0.0164703
883.205	0.0163254
883.283	0.0164406
883.361	0.0164520
883.439	0.0165254
883.517	0.0165191
883.596	0.0164481
883.674	0.0165422
883.752	0.0164879
883.830	0.0164699
883.908	0.0164013
883.986	0.0163565
884.064	0.0164334
884.142	0.0164646
884.221	0.0165733
884.299	0.0165644
884.377	0.0164886
884.455	0.0165343
884.533	0.0165427
884.611	0.0165033
884.689	0.0166466
884.767	0.0166546
884.846	0.0165946
884.924	0.0166536
885.002	0.0166252
885.080	0.0166793
885.158	0.0167512
885.236	0.0166489
885.314	0.0167690
885.392	0.0166949
885.471	0.0167326
885.549	0.0165873
885.627	0.0166456
885.705	0.0166409
885.783	0.0165583
885.861	0.0164748
885.939	0.0166254
886.017	0.0164886
886.096	0.0164797
886.174	0.0164935
886.252	0.0164839
886.330	0.0165681
886.408	0.0163770
886.486	0.0164735
886.564	0.0163399
886.642	0.0163853
886.721	0.0163795
886.799	0.0163782
886.877	0.0162159
886.955	0.0162398
887.033	0.0163638
887.111	0.0162895
887.189	0.0163151
887.267	0.0163097
887.346	0.0163055
887.424	0.0161879
887.502	0.0163306
887.580	0.0163296
887.658	0.0163075
887.736	0.0161852
887.814	0.0163735
887.892	0.0161810
887.971	0.0163371
888.049	0.0163633
888.127	0.0162829
888.205	0.0162898
888.283	0.0162770
888.361	0.0163120
888.439	0.0162719
888.517	0.0163432
888.596	0.0162896
888.674	0.0163580
888.752	0.0161806
888.830	0.0163118
888.908	0.0163410
888.986	0.0162440
889.064	0.0161772
889.142	0.0163055
889.221	0.0162271
889.299	0.0162754
889.377	0.0162669
889.455	0.0161191
889.533	0.0162079
889.611	0.0162825
889.689	0.0162164
889.767	0.0163271
889.846	0.0162484
889.924	0.0162438
890.002	0.0162102
890.080	0.0161333
890.158	0.0161781
890.236	0.0162737
890.314	0.0163548
890.392	0.0163193
890.471	0.0163557
890.549	0.0162292
890.627	0.0162499
890.705	0.0163111
890.783	0.0162867
890.861	0.0165018
890.939	0.0163790
891.017	0.0164664
891.096	0.0163864
891.174	0.0163142
891.252	0.0163344
891.330	0.0165183
891.408	0.0163641
891.486	0.0164850
891.564	0.0164691
891.642	0.0162908
891.721	0.0164912
891.799	0.0164323
891.877	0.0164417
891.955	0.0164516
892.033	0.0164354
892.111	0.0163683
892.189	0.0164948
892.267	0.0164880
892.346	0.0164117
892.424	0.0164855
892.502	0.0163438
892.580	0.0162904
892.658	0.0162791
892.736	0.0163095
892.814	0.0163327
892.892	0.0161785
892.971	0.0162127
893.049	0.0161150
893.127	0.0161178
893.205	0.0159980
893.283	0.0160290
893.361	0.0160689
893.439	0.0160181
893.517	0.0159095
893.596	0.0159351
893.674	0.0159383
893.752	0.0158200
893.830	0.0157687
893.908	0.0158152
893.986	0.0159133
894.064	0.0157959
894.142	0.0159187
894.221	0.0159259
894.299	0.0158780
894.377	0.0158680
894.455	0.0159780
894.533	0.0160371
894.611	0.0158946
894.689	0.0159048
894.767	0.0159694
894.846	0.0160254
894.924	0.0160790
895.002	0.0161180
895.080	0.0160594
895.158	0.0159951
895.236	0.0161291
895.314	0.0161481
895.392	0.0161799
895.471	0.0160425
895.549	0.0160925
895.627	0.0162260
895.705	0.0162354
895.783	0.0162059
895.861	0.0162583
895.939	0.0162831
896.017	0.0163918
896.096	0.0163557
896.174	0.0162886
896.252	0.0165340
896.330	0.0164501
896.408	0.0164471
896.486	0.0164756
896.564	0.0164536
896.642	0.0165659
896.721	0.0164371
896.799	0.0165427
896.877	0.0163398
896.955	0.0163995
897.033	0.0164231
897.111	0.0163847
897.189	0.0162761
897.267	0.0163423
897.346	0.0164122
897.424	0.0162714
897.502	0.0162660
897.580	0.0162476
897.658	0.0163543
897.736	0.0164214
897.814	0.0163789
897.892	0.0163699
897.971	0.0164306
898.049	0.0164656
898.127	0.0163747
898.205	0.0163699
898.283	0.0164962
898.361	0.0164620
898.439	0.0162910
898.517	0.0164102
898.596	0.0165704
898.674	0.0163729
898.752	0.0165110
898.830	0.0163792
898.908	0.0165098
898.986	0.0164951
899.064	0.0165186
899.142	0.0164390
899.221	0.0164608
899.299	0.0165272
899.377	0.0164352
899.455	0.0163677
899.533	0.0165250
899.611	0.0165125
899.689	0.0165558
899.767	0.0164227
899.846	0.0165582
899.924	0.0166537
900.002	0.0166227
900.080	0.0164568
900.158	0.0165697
900.236	0.0164930
900.314	0.0165387
900.392	0.0165601
900.471	0.0164143
900.549	0.0164611
900.627	0.0166309
900.705	0.0165186
900.783	0.0164143
900.861	0.0164619
900.939	0.0164338
901.017	0.0163297
901.096	0.0162444
901.174	0.0163927
901.252	0.0164094
901.330	0.0163373
901.408	0.0162378
901.486	0.0163441
901.564	0.0164906
901.642	0.0163782
901.721	0.0162855
901.799	0.0164052
901.877	0.0163966
901.955	0.0163649
902.033	0.0164488
902.111	0.0164409
902.189	0.0164820
902.267	0.0163203
902.346	0.0163051
902.424	0.0163976
902.502	0.0164532
902.580	0.0163680
902.658	0.0163718
902.736	0.0161732
902.814	0.0164214
902.892	0.0162749
902.971	0.0163148
903.049	0.0164695
903.127	0.0165250
903.205	0.0163099
903.283	0.0161736
903.361	0.0161040
903.439	0.0162598
903.517	0.0163837
903.596	0.0162418
903.674	0.0160540
903.752	0.0161562
903.830	0.0161705
903.908	0.0162241
903.986	0.0161605
904.064	0.0160943
904.142	0.0161297
904.221	0.0160660
904.299	0.0161550
904.377	0.0160978
904.455	0.0160684
904.533	0.0160429
904.611	0.0160458
904.689	0.0162543
904.767	0.0162874
904.846	0.0160602
904.924	0.0159770
905.002	0.0160450
905.080	0.0162008
905.158	0.0161329
905.236	0.0160769
905.314	0.0161815
905.392	0.0162379
905.471	0.0159825
905.549	0.0161655
905.627	0.0162482
905.705	0.0162790
905.783	0.0162393
905.861	0.0161436
905.939	0.0162228
906.017	0.0163205
906.096	0.0163377
906.174	0.0162379
906.252	0.0164030
906.330	0.0164005
906.408	0.0164466
906.486	0.0164990
906.564	0.0164021
906.642	0.0164236
906.721	0.0165124
906.799	0.0165793
906.877	0.0164389
906.955	0.0165030
907.033	0.0166373
907.111	0.0165213
907.189	0.0165308
907.267	0.0165746
907.346	0.0165795
907.424	0.0164864
907.502	0.0164957
907.580	0.0164188
907.658	0.0166252
907.736	0.0165567
907.814	0.0165208
907.892	0.0164651
907.971	0.0163437
908.049	0.0165195
908.127	0.0163939
908.205	0.0161900
908.283	0.0163070
908.361	0.0163496
908.439	0.0162997
908.517	0.0163211
908.596	0.0162538
908.674	0.0162753
908.752	0.0161974
908.830	0.0161961
908.908	0.0160900
908.986	0.0161357
909.064	0.0159882
909.142	0.0160278
909.221	0.0160935
909.299	0.0159689
909.377	0.0159269
909.455	0.0161608
909.533	0.0159442
909.611	0.0158630
909.689	0.0159639
909.767	0.0159911
909.846	0.0158284
909.924	0.0160102
910.002	0.0159456
910.080	0.0159521
910.158	0.0158479
910.236	0.0160717
910.314	0.0160127
910.392	0.0158672
910.471	0.0159841
910.549	0.0161081
910.627	0.0160912
910.705	0.0159578
910.783	0.0161534
910.861	0.0161377
910.939	0.0161129
911.017	0.0162650
911.096	0.0160839
911.174	0.0162275
911.252	0.0162925
911.330	0.0160271
911.408	0.0160398
911.486	0.0161741
911.564	0.0161741
911.642	0.0163043
911.721	0.0163299
911.799	0.0161734
911.877	0.0162001
911.955	0.0162589
912.033	0.0164242
912.111	0.0162804
912.189	0.0162061
912.267	0.0162132
912.346	0.0163560
912.424	0.0163802
912.502	0.0164143
912.580	0.0161331
912.658	0.0160902
912.736	0.0163403
912.814	0.0163737
912.892	0.0160832
912.971	0.0162744
913.049	0.0163250
913.127	0.0161066
913.205	0.0161618
913.283	0.0162628
913.361	0.0162682
913.439	0.0162286
913.517	0.0161966
913.596	0.0161053
913.674	0.0162489
913.752	0.0163868
913.830	0.0162285
913.908	0.0163686
913.986	0.0163248
914.064	0.0161767
914.142	0.0163404
914.221	0.0161794
914.299	0.0161887
914.377	0.0161606
914.455	0.0162587
914.533	0.0162178
914.611	0.0162679
914.689	0.0163028
914.767	0.0161996
914.846	0.0162569
914.924	0.0163484
915.002	0.0163254
915.080	0.0162296
915.158	0.0162997
915.236	0.0162592
915.314	0.0162860
915.392	0.0161650
915.471	0.0161859
915.549	0.0162812
915.627	0.0162112
915.705	0.0162103
915.783	0.0162533
915.861	0.0161780
915.939	0.0162223
916.017	0.0162473
916.096	0.0163529
916.174	0.0163103
916.252	0.0161385
916.330	0.0161264
916.408	0.0163387
916.486	0.0163235
916.564	0.0161852
916.642	0.0163103
916.721	0.0163316
916.799	0.0161943
916.877	0.0162859
916.955	0.0163470
917.033	0.0163403
917.111	0.0163509
917.189	0.0162057
917.267	0.0162048
917.346	0.0162518
917.424	0.0164094
917.502	0.0163242
917.580	0.0162189
917.658	0.0164035
917.736	0.0164510
917.814	0.0164602
917.892	0.0165483
917.971	0.0164435
918.049	0.0166367
918.127	0.0165012
918.205	0.0165010
918.283	0.0164069
918.361	0.0164822
918.439	0.0165170
918.517	0.0164668
918.596	0.0166537
918.674	0.0167145
918.752	0.0165485
918.830	0.0166508
918.908	0.0167498
918.986	0.0168130
919.064	0.0166657
919.142	0.0166122
919.221	0.0168209
919.299	0.0166953
919.377	0.0166793
919.455	0.0165861
919.533	0.0166450
919.611	0.0165201
919.689	0.0167268
919.767	0.0167249
919.846	0.0167397
919.924	0.0166657
