06/29/2022	21:45:35	Ver.	4.1	UNKNOWN
Optical Delay	600.001752	Delta X		0.078125	Sweeps	1	Scan Rate	0/0
Coordinates	Axis 1	NaN	Axis 2	NaN	Axis 3	NaN	Axis 4	NaN	Axis 5	NaN	Axis 6	0.000000
TX Power	0.000000	RX Power	0.000000

600.002	0.0168760
600.080	0.0171094
600.158	0.0170804
600.236	0.0170963
600.314	0.0171100
600.392	0.0169061
600.471	0.0169409
600.549	0.0170159
600.627	0.0169904
600.705	0.0168932
600.783	0.0167503
600.861	0.0167162
600.939	0.0168162
601.017	0.0166518
601.096	0.0166871
601.174	0.0168045
601.252	0.0167949
601.330	0.0167773
601.408	0.0167168
601.486	0.0165920
601.564	0.0165609
601.642	0.0165704
601.721	0.0166867
601.799	0.0165098
601.877	0.0164875
601.955	0.0164353
602.033	0.0163476
602.111	0.0163705
602.189	0.0162988
602.267	0.0161481
602.346	0.0162585
602.424	0.0162609
602.502	0.0162057
602.580	0.0162782
602.658	0.0161845
602.736	0.0162091
602.814	0.0162039
602.892	0.0162721
602.971	0.0163427
603.049	0.0163334
603.127	0.0162701
603.205	0.0164108
603.283	0.0163887
603.361	0.0162135
603.439	0.0160731
603.517	0.0160710
603.596	0.0162401
603.674	0.0162132
603.752	0.0161464
603.830	0.0160429
603.908	0.0161049
603.986	0.0159115
604.064	0.0159708
604.142	0.0160117
604.221	0.0160804
604.299	0.0160844
604.377	0.0160515
604.455	0.0160484
604.533	0.0160119
604.611	0.0160738
604.689	0.0159375
604.767	0.0160474
604.846	0.0159935
604.924	0.0160376
605.002	0.0161136
605.080	0.0160461
605.158	0.0159447
605.236	0.0158659
605.314	0.0159783
605.392	0.0160075
605.471	0.0158539
605.549	0.0160107
605.627	0.0159191
605.705	0.0158749
605.783	0.0157993
605.861	0.0157787
605.939	0.0158974
606.017	0.0159602
606.096	0.0159853
606.174	0.0160467
606.252	0.0160221
606.330	0.0160448
606.408	0.0162732
606.486	0.0163036
606.564	0.0163344
606.642	0.0163186
606.721	0.0165101
606.799	0.0165450
606.877	0.0166669
606.955	0.0166045
607.033	0.0165314
607.111	0.0167094
607.189	0.0166679
607.267	0.0167843
607.346	0.0167321
607.424	0.0167815
607.502	0.0167107
607.580	0.0169073
607.658	0.0169854
607.736	0.0169235
607.814	0.0168886
607.892	0.0169589
607.971	0.0167071
608.049	0.0165088
608.127	0.0162314
608.205	0.0161494
608.283	0.0159499
608.361	0.0156911
608.439	0.0156899
608.517	0.0156834
608.596	0.0155313
608.674	0.0155094
608.752	0.0154226
608.830	0.0155518
608.908	0.0155552
608.986	0.0157137
609.064	0.0158969
609.142	0.0157854
609.221	0.0160416
609.299	0.0161938
609.377	0.0162313
609.455	0.0163995
609.533	0.0164552
609.611	0.0162570
609.689	0.0164401
609.767	0.0163580
609.846	0.0163890
609.924	0.0164116
610.002	0.0164445
610.080	0.0165913
610.158	0.0166074
610.236	0.0164680
610.314	0.0164885
610.392	0.0163107
610.471	0.0163076
610.549	0.0163612
610.627	0.0161569
610.705	0.0161040
610.783	0.0161655
610.861	0.0160834
610.939	0.0160538
611.017	0.0160889
611.096	0.0163326
611.174	0.0160374
611.252	0.0161567
611.330	0.0161464
611.408	0.0161503
611.486	0.0160883
611.564	0.0163413
611.642	0.0162578
611.721	0.0161125
611.799	0.0161447
611.877	0.0162053
611.955	0.0163924
612.033	0.0162660
612.111	0.0163883
612.189	0.0163770
612.267	0.0163665
612.346	0.0162984
612.424	0.0162933
612.502	0.0162626
612.580	0.0164155
612.658	0.0162712
612.736	0.0164529
612.814	0.0164289
612.892	0.0165904
612.971	0.0164323
613.049	0.0164880
613.127	0.0165713
613.205	0.0166541
613.283	0.0166558
613.361	0.0167558
613.439	0.0168070
613.517	0.0168559
613.596	0.0168996
613.674	0.0169347
613.752	0.0169687
613.830	0.0171081
613.908	0.0169878
613.986	0.0169992
614.064	0.0170937
614.142	0.0171638
614.221	0.0169691
614.299	0.0170722
614.377	0.0171157
614.455	0.0169795
614.533	0.0169466
614.611	0.0169640
614.689	0.0170286
614.767	0.0168396
614.846	0.0168615
614.924	0.0169183
615.002	0.0169241
615.080	0.0168684
615.158	0.0169054
615.236	0.0168246
615.314	0.0167616
615.392	0.0167290
615.471	0.0166287
615.549	0.0167815
615.627	0.0166639
615.705	0.0166737
615.783	0.0165813
615.861	0.0166673
615.939	0.0164613
616.017	0.0162903
616.096	0.0165968
616.174	0.0164811
616.252	0.0163695
616.330	0.0163490
616.408	0.0162804
616.486	0.0162217
616.564	0.0162745
616.642	0.0163674
616.721	0.0161102
616.799	0.0162008
616.877	0.0162204
616.955	0.0160033
617.033	0.0161351
617.111	0.0160748
617.189	0.0160789
617.267	0.0160048
617.346	0.0159055
617.424	0.0159827
617.502	0.0159880
617.580	0.0160942
617.658	0.0158945
617.736	0.0158210
617.814	0.0158521
617.892	0.0157467
617.971	0.0156679
618.049	0.0157374
618.127	0.0157908
618.205	0.0156915
618.283	0.0157519
618.361	0.0156879
618.439	0.0157599
618.517	0.0156639
618.596	0.0156458
618.674	0.0157282
618.752	0.0156828
618.830	0.0157464
618.908	0.0156647
618.986	0.0157493
619.064	0.0156776
619.142	0.0156098
619.221	0.0157465
619.299	0.0157283
619.377	0.0156770
619.455	0.0155810
619.533	0.0156206
619.611	0.0155023
619.689	0.0152652
619.767	0.0153074
619.846	0.0153021
619.924	0.0152378
620.002	0.0153560
620.080	0.0153761
620.158	0.0153070
620.236	0.0153017
620.314	0.0152140
620.392	0.0152608
620.471	0.0152758
620.549	0.0154522
620.627	0.0156519
620.705	0.0154832
620.783	0.0155847
620.861	0.0156319
620.939	0.0156180
621.017	0.0157444
621.096	0.0157311
621.174	0.0158510
621.252	0.0159074
621.330	0.0158757
621.408	0.0159973
621.486	0.0160258
621.564	0.0161032
621.642	0.0161327
621.721	0.0162607
621.799	0.0163672
621.877	0.0162129
621.955	0.0162957
622.033	0.0162005
622.111	0.0163884
622.189	0.0163033
622.267	0.0162414
622.346	0.0162913
622.424	0.0163931
622.502	0.0162986
622.580	0.0163322
622.658	0.0162663
622.736	0.0162749
622.814	0.0163229
622.892	0.0162506
622.971	0.0163386
623.049	0.0162489
623.127	0.0162510
623.205	0.0161570
623.283	0.0161035
623.361	0.0162527
623.439	0.0164177
623.517	0.0161300
623.596	0.0161488
623.674	0.0162958
623.752	0.0162062
623.830	0.0161765
623.908	0.0161503
623.986	0.0162572
624.064	0.0162505
624.142	0.0161967
624.221	0.0161861
624.299	0.0162503
624.377	0.0163259
624.455	0.0163152
624.533	0.0163754
624.611	0.0163902
624.689	0.0164037
624.767	0.0164281
624.846	0.0164931
624.924	0.0163522
625.002	0.0163580
625.080	0.0163471
625.158	0.0165045
625.236	0.0165211
625.314	0.0163377
625.392	0.0163467
625.471	0.0165211
625.549	0.0165155
625.627	0.0164143
625.705	0.0165608
625.783	0.0165752
625.861	0.0166241
625.939	0.0164159
626.017	0.0167001
626.096	0.0166385
626.174	0.0166930
626.252	0.0165934
626.330	0.0164567
626.408	0.0165132
626.486	0.0166583
626.564	0.0167298
626.642	0.0164423
626.721	0.0165260
626.799	0.0165490
626.877	0.0165757
626.955	0.0164686
627.033	0.0164527
627.111	0.0163438
627.189	0.0163236
627.267	0.0165527
627.346	0.0162984
627.424	0.0163633
627.502	0.0163070
627.580	0.0163798
627.658	0.0162914
627.736	0.0161879
627.814	0.0162792
627.892	0.0163912
627.971	0.0162440
628.049	0.0162322
628.127	0.0161117
628.205	0.0161526
628.283	0.0162829
628.361	0.0161821
628.439	0.0162218
628.517	0.0162435
628.596	0.0161990
628.674	0.0163374
628.752	0.0161703
628.830	0.0161476
628.908	0.0162027
628.986	0.0162751
629.064	0.0162469
629.142	0.0162112
629.221	0.0162682
629.299	0.0162744
629.377	0.0162749
629.455	0.0162651
629.533	0.0163710
629.611	0.0161533
629.689	0.0162128
629.767	0.0160533
629.846	0.0159976
629.924	0.0160703
630.002	0.0160348
630.080	0.0160943
630.158	0.0159893
630.236	0.0158834
630.314	0.0159196
630.392	0.0158595
630.471	0.0159064
630.549	0.0160503
630.627	0.0158340
630.705	0.0159550
630.783	0.0160260
630.861	0.0160085
630.939	0.0160326
631.017	0.0160085
631.096	0.0160086
631.174	0.0160239
631.252	0.0161944
631.330	0.0158957
631.408	0.0159421
631.486	0.0159802
631.564	0.0159058
631.642	0.0159812
631.721	0.0159438
631.799	0.0158788
631.877	0.0159113
631.955	0.0158047
632.033	0.0158742
632.111	0.0157894
632.189	0.0158224
632.267	0.0158461
632.346	0.0158849
632.424	0.0159533
632.502	0.0159523
632.580	0.0159364
632.658	0.0158286
632.736	0.0159572
632.814	0.0159940
632.892	0.0159362
632.971	0.0160498
633.049	0.0160688
633.127	0.0160421
633.205	0.0161417
633.283	0.0162257
633.361	0.0162685
633.439	0.0163164
633.517	0.0162875
633.596	0.0162841
633.674	0.0162943
633.752	0.0164409
633.830	0.0164291
633.908	0.0164235
633.986	0.0164871
634.064	0.0166710
634.142	0.0164793
634.221	0.0165961
634.299	0.0165443
634.377	0.0166614
634.455	0.0168736
634.533	0.0167771
634.611	0.0166595
634.689	0.0168153
634.767	0.0168210
634.846	0.0170605
634.924	0.0170272
635.002	0.0168897
635.080	0.0170170
635.158	0.0169157
635.236	0.0170322
635.314	0.0169773
635.392	0.0169389
635.471	0.0168399
635.549	0.0167796
635.627	0.0169637
635.705	0.0168651
635.783	0.0168855
635.861	0.0167442
635.939	0.0169249
636.017	0.0168455
636.096	0.0166947
636.174	0.0168193
636.252	0.0169552
636.330	0.0169465
636.408	0.0168005
636.486	0.0167304
636.564	0.0167597
636.642	0.0167953
636.721	0.0169041
636.799	0.0166976
636.877	0.0167387
636.955	0.0169204
637.033	0.0168600
637.111	0.0169642
637.189	0.0168975
637.267	0.0168963
637.346	0.0168221
637.424	0.0167511
637.502	0.0169090
637.580	0.0168190
637.658	0.0167316
637.736	0.0167001
637.814	0.0168999
637.892	0.0167307
637.971	0.0166891
638.049	0.0166538
638.127	0.0166328
638.205	0.0165616
638.283	0.0165618
638.361	0.0165208
638.439	0.0165893
638.517	0.0165411
638.596	0.0164391
638.674	0.0163449
638.752	0.0161737
638.830	0.0162631
638.908	0.0162361
638.986	0.0160749
639.064	0.0159801
639.142	0.0158084
639.221	0.0159926
639.299	0.0159905
639.377	0.0160275
639.455	0.0159127
639.533	0.0159267
639.611	0.0159428
639.689	0.0159202
639.767	0.0158849
639.846	0.0158936
639.924	0.0158172
640.002	0.0159585
640.080	0.0158388
640.158	0.0157936
640.236	0.0158510
640.314	0.0159051
640.392	0.0159830
640.471	0.0160082
640.549	0.0158891
640.627	0.0159151
640.705	0.0159192
640.783	0.0157797
640.861	0.0160194
640.939	0.0158675
641.017	0.0159377
641.096	0.0160252
641.174	0.0159095
641.252	0.0159315
641.330	0.0160777
641.408	0.0160832
641.486	0.0160511
641.564	0.0160944
641.642	0.0159055
641.721	0.0161127
641.799	0.0160290
641.877	0.0158354
641.955	0.0158600
642.033	0.0160517
642.111	0.0160902
642.189	0.0158975
642.267	0.0160349
642.346	0.0161006
642.424	0.0159609
642.502	0.0159262
642.580	0.0160319
642.658	0.0161961
642.736	0.0159760
642.814	0.0161501
642.892	0.0160918
642.971	0.0159808
643.049	0.0161410
643.127	0.0162148
643.205	0.0161238
643.283	0.0161112
643.361	0.0160030
643.439	0.0161472
643.517	0.0162025
643.596	0.0160658
643.674	0.0161339
643.752	0.0161203
643.830	0.0162066
643.908	0.0159947
643.986	0.0160439
644.064	0.0162269
644.142	0.0162843
644.221	0.0161244
644.299	0.0161851
644.377	0.0162910
644.455	0.0162357
644.533	0.0160851
644.611	0.0162447
644.689	0.0162758
644.767	0.0162022
644.846	0.0161773
644.924	0.0161539
645.002	0.0161467
645.080	0.0162367
645.158	0.0161808
645.236	0.0162378
645.314	0.0162700
645.392	0.0162137
645.471	0.0161499
645.549	0.0161797
645.627	0.0161972
645.705	0.0161666
645.783	0.0161563
645.861	0.0162104
645.939	0.0161896
646.017	0.0162559
646.096	0.0162704
646.174	0.0162700
646.252	0.0162428
646.330	0.0161755
646.408	0.0160783
646.486	0.0160524
646.564	0.0162688
646.642	0.0163010
646.721	0.0160606
646.799	0.0161269
646.877	0.0161227
646.955	0.0162974
647.033	0.0160036
647.111	0.0160488
647.189	0.0159763
647.267	0.0161637
647.346	0.0161853
647.424	0.0160681
647.502	0.0160131
647.580	0.0160130
647.658	0.0161529
647.736	0.0161000
647.814	0.0160057
647.892	0.0158933
647.971	0.0159449
648.049	0.0159906
648.127	0.0160844
648.205	0.0158838
648.283	0.0158719
648.361	0.0160345
648.439	0.0159832
648.517	0.0159478
648.596	0.0160037
648.674	0.0161282
648.752	0.0160616
648.830	0.0158898
648.908	0.0159224
648.986	0.0159536
649.064	0.0160228
649.142	0.0161481
649.221	0.0159933
649.299	0.0160313
649.377	0.0159499
649.455	0.0160733
649.533	0.0160851
649.611	0.0161707
649.689	0.0161431
649.767	0.0161587
649.846	0.0160774
649.924	0.0161167
650.002	0.0161804
650.080	0.0161570
650.158	0.0160780
650.236	0.0161894
650.314	0.0162401
650.392	0.0162727
650.471	0.0163136
650.549	0.0162675
650.627	0.0162701
650.705	0.0162724
650.783	0.0163209
650.861	0.0163499
650.939	0.0161411
651.017	0.0162721
651.096	0.0162885
651.174	0.0163443
651.252	0.0163834
651.330	0.0162810
651.408	0.0162415
651.486	0.0162250
651.564	0.0161818
651.642	0.0162905
651.721	0.0162945
651.799	0.0162337
651.877	0.0161980
651.955	0.0161613
652.033	0.0162286
652.111	0.0163692
652.189	0.0162033
652.267	0.0162399
652.346	0.0163604
652.424	0.0162944
652.502	0.0163461
652.580	0.0161650
652.658	0.0162550
652.736	0.0163279
652.814	0.0162918
652.892	0.0162422
652.971	0.0163647
653.049	0.0163405
653.127	0.0162399
653.205	0.0162738
653.283	0.0164072
653.361	0.0162334
653.439	0.0161801
653.517	0.0162412
653.596	0.0162601
653.674	0.0163815
653.752	0.0161832
653.830	0.0162186
653.908	0.0161716
653.986	0.0162049
654.064	0.0162737
654.142	0.0162749
654.221	0.0163457
654.299	0.0161314
654.377	0.0161629
654.455	0.0163394
654.533	0.0161012
654.611	0.0162510
654.689	0.0163063
654.767	0.0162077
654.846	0.0162793
654.924	0.0162006
655.002	0.0162570
655.080	0.0161373
655.158	0.0161763
655.236	0.0161707
655.314	0.0163186
655.392	0.0163091
655.471	0.0161301
655.549	0.0163620
655.627	0.0161808
655.705	0.0163103
655.783	0.0163337
655.861	0.0161353
655.939	0.0163198
656.017	0.0162221
656.096	0.0162144
656.174	0.0161639
656.252	0.0162176
656.330	0.0162519
656.408	0.0162466
656.486	0.0162302
656.564	0.0160979
656.642	0.0161698
656.721	0.0161430
656.799	0.0161700
656.877	0.0162758
656.955	0.0162595
657.033	0.0161713
657.111	0.0162270
657.189	0.0162195
657.267	0.0162695
657.346	0.0162010
657.424	0.0163850
657.502	0.0163216
657.580	0.0163261
657.658	0.0164125
657.736	0.0163825
657.814	0.0162742
657.892	0.0164175
657.971	0.0164565
658.049	0.0164491
658.127	0.0164868
658.205	0.0164442
658.283	0.0165181
658.361	0.0163781
658.439	0.0164040
658.517	0.0165025
658.596	0.0163765
658.674	0.0163654
658.752	0.0164745
658.830	0.0165128
658.908	0.0165073
658.986	0.0166499
659.064	0.0165470
659.142	0.0165724
659.221	0.0163939
659.299	0.0164937
659.377	0.0164369
659.455	0.0165047
659.533	0.0165038
659.611	0.0163892
659.689	0.0164925
659.767	0.0165014
659.846	0.0165040
659.924	0.0165517
660.002	0.0166054
660.080	0.0166249
660.158	0.0166468
660.236	0.0164503
660.314	0.0164494
660.392	0.0166958
660.471	0.0168250
660.549	0.0167583
660.627	0.0165916
660.705	0.0166776
660.783	0.0167982
660.861	0.0167508
660.939	0.0167692
661.017	0.0167549
661.096	0.0167352
661.174	0.0165907
661.252	0.0166079
661.330	0.0166941
661.408	0.0167633
661.486	0.0166750
661.564	0.0167978
661.642	0.0167143
661.721	0.0167141
661.799	0.0166620
661.877	0.0167340
661.955	0.0167614
662.033	0.0167162
662.111	0.0166473
662.189	0.0166865
662.267	0.0166530
662.346	0.0166586
662.424	0.0167120
662.502	0.0167780
662.580	0.0167288
662.658	0.0166195
662.736	0.0167888
662.814	0.0166459
662.892	0.0164500
662.971	0.0165872
663.049	0.0165628
663.127	0.0166556
663.205	0.0166110
663.283	0.0165286
663.361	0.0165347
663.439	0.0164037
663.517	0.0164835
663.596	0.0165592
663.674	0.0165270
663.752	0.0163605
663.830	0.0162891
663.908	0.0163870
663.986	0.0163406
664.064	0.0163353
664.142	0.0163271
664.221	0.0160555
664.299	0.0162209
664.377	0.0162345
664.455	0.0161747
664.533	0.0160377
664.611	0.0160119
664.689	0.0160571
664.767	0.0159750
664.846	0.0159293
664.924	0.0158042
665.002	0.0158191
665.080	0.0158514
665.158	0.0157220
665.236	0.0156097
665.314	0.0158173
665.392	0.0157018
665.471	0.0157111
665.549	0.0155611
665.627	0.0156271
665.705	0.0157455
665.783	0.0156889
665.861	0.0156348
665.939	0.0157874
666.017	0.0157484
666.096	0.0157072
666.174	0.0157456
666.252	0.0157443
666.330	0.0160236
666.408	0.0159813
666.486	0.0159809
666.564	0.0160130
666.642	0.0162565
666.721	0.0162302
666.799	0.0161212
666.877	0.0160724
666.955	0.0162260
667.033	0.0162721
667.111	0.0162691
667.189	0.0161909
667.267	0.0162053
667.346	0.0159694
667.424	0.0162343
667.502	0.0162079
667.580	0.0159950
667.658	0.0159553
667.736	0.0160516
667.814	0.0159957
667.892	0.0158578
667.971	0.0157438
668.049	0.0157577
668.127	0.0158337
668.205	0.0159075
668.283	0.0157870
668.361	0.0158274
668.439	0.0158794
668.517	0.0157735
668.596	0.0156763
668.674	0.0158372
668.752	0.0158254
668.830	0.0158483
668.908	0.0157299
668.986	0.0157540
669.064	0.0158456
669.142	0.0157153
669.221	0.0157742
669.299	0.0158321
669.377	0.0158311
669.455	0.0157465
669.533	0.0158068
669.611	0.0159045
669.689	0.0159550
669.767	0.0159325
669.846	0.0158754
669.924	0.0161045
670.002	0.0161969
670.080	0.0161723
670.158	0.0162267
670.236	0.0162460
670.314	0.0162037
670.392	0.0164259
670.471	0.0166380
670.549	0.0166534
670.627	0.0166541
670.705	0.0167172
670.783	0.0168985
670.861	0.0169379
670.939	0.0169715
671.017	0.0170535
671.096	0.0170744
671.174	0.0171397
671.252	0.0172084
671.330	0.0173060
671.408	0.0171542
671.486	0.0171757
671.564	0.0171915
671.642	0.0172095
671.721	0.0171746
671.799	0.0172226
671.877	0.0172884
671.955	0.0170116
672.033	0.0170864
672.111	0.0169698
672.189	0.0170102
672.267	0.0169520
672.346	0.0167389
672.424	0.0167958
672.502	0.0168002
672.580	0.0167690
672.658	0.0167849
672.736	0.0166486
672.814	0.0165614
672.892	0.0164687
672.971	0.0166563
673.049	0.0162843
673.127	0.0163438
673.205	0.0163207
673.283	0.0162049
673.361	0.0163440
673.439	0.0164091
673.517	0.0162278
673.596	0.0162707
673.674	0.0162508
673.752	0.0162527
673.830	0.0162923
673.908	0.0163042
673.986	0.0163626
674.064	0.0163232
674.142	0.0163834
674.221	0.0164061
674.299	0.0165264
674.377	0.0164775
674.455	0.0164851
674.533	0.0165826
674.611	0.0164397
674.689	0.0163468
674.767	0.0164609
674.846	0.0164373
674.924	0.0165228
675.002	0.0165673
675.080	0.0164123
675.158	0.0164910
675.236	0.0164508
675.314	0.0162980
675.392	0.0164602
675.471	0.0164243
675.549	0.0164613
675.627	0.0162807
675.705	0.0162891
675.783	0.0163130
675.861	0.0160729
675.939	0.0162128
676.017	0.0162131
676.096	0.0162363
676.174	0.0163277
676.252	0.0161230
676.330	0.0161018
676.408	0.0161024
676.486	0.0161134
676.564	0.0159476
676.642	0.0161199
676.721	0.0160056
676.799	0.0158450
676.877	0.0159385
676.955	0.0159937
677.033	0.0158748
677.111	0.0158682
677.189	0.0158022
677.267	0.0157626
677.346	0.0157168
677.424	0.0157354
677.502	0.0158550
677.580	0.0157218
677.658	0.0157365
677.736	0.0157346
677.814	0.0156555
677.892	0.0156934
677.971	0.0158781
678.049	0.0156226
678.127	0.0158694
678.205	0.0157446
678.283	0.0157870
678.361	0.0158691
678.439	0.0159614
678.517	0.0158555
678.596	0.0158920
678.674	0.0158310
678.752	0.0160292
678.830	0.0160397
678.908	0.0159846
678.986	0.0159441
679.064	0.0160321
679.142	0.0161929
679.221	0.0161698
679.299	0.0160828
679.377	0.0160760
679.455	0.0161761
679.533	0.0161271
679.611	0.0161791
679.689	0.0161820
679.767	0.0162243
679.846	0.0161236
679.924	0.0162913
680.002	0.0163850
680.080	0.0162220
680.158	0.0163029
680.236	0.0163486
680.314	0.0163998
680.392	0.0164864
680.471	0.0163625
680.549	0.0165314
680.627	0.0166134
680.705	0.0164466
680.783	0.0163657
680.861	0.0164039
680.939	0.0164915
681.017	0.0164059
681.096	0.0164886
681.174	0.0165550
681.252	0.0165006
681.330	0.0165237
681.408	0.0164630
681.486	0.0165354
681.564	0.0165644
681.642	0.0165411
681.721	0.0165307
681.799	0.0164583
681.877	0.0165876
681.955	0.0165786
682.033	0.0167084
682.111	0.0166945
682.189	0.0166537
682.267	0.0167340
682.346	0.0166734
682.424	0.0168150
682.502	0.0165798
682.580	0.0166387
682.658	0.0167528
682.736	0.0165723
682.814	0.0166008
682.892	0.0167244
682.971	0.0167019
683.049	0.0167442
683.127	0.0165961
683.205	0.0165225
683.283	0.0165450
683.361	0.0165150
683.439	0.0164869
683.517	0.0164865
683.596	0.0165154
683.674	0.0164484
683.752	0.0163527
683.830	0.0163227
683.908	0.0162997
683.986	0.0163212
684.064	0.0162669
684.142	0.0161137
684.221	0.0162440
684.299	0.0163299
684.377	0.0162072
684.455	0.0161691
684.533	0.0162226
684.611	0.0160504
684.689	0.0160638
684.767	0.0161320
684.846	0.0160314
684.924	0.0161411
685.002	0.0160799
685.080	0.0162214
685.158	0.0161882
685.236	0.0160828
685.314	0.0160860
685.392	0.0160106
685.471	0.0158987
685.549	0.0161201
685.627	0.0161652
685.705	0.0161081
685.783	0.0160941
685.861	0.0160671
685.939	0.0160228
686.017	0.0159430
686.096	0.0161458
686.174	0.0161296
686.252	0.0161180
686.330	0.0160567
686.408	0.0161639
686.486	0.0160513
686.564	0.0161755
686.642	0.0161757
686.721	0.0163248
686.799	0.0162637
686.877	0.0162085
686.955	0.0162482
687.033	0.0163575
687.111	0.0163904
687.189	0.0162800
687.267	0.0163844
687.346	0.0163251
687.424	0.0165653
687.502	0.0165862
687.580	0.0164933
687.658	0.0165845
687.736	0.0165794
687.814	0.0166299
687.892	0.0165739
687.971	0.0164948
688.049	0.0163800
688.127	0.0164590
688.205	0.0164511
688.283	0.0164358
688.361	0.0163233
688.439	0.0163010
688.517	0.0163166
688.596	0.0161829
688.674	0.0161207
688.752	0.0161069
688.830	0.0162171
688.908	0.0161409
688.986	0.0160300
689.064	0.0160848
689.142	0.0159966
689.221	0.0160697
689.299	0.0159795
689.377	0.0161185
689.455	0.0160531
689.533	0.0160115
689.611	0.0161086
689.689	0.0161172
689.767	0.0161310
689.846	0.0160123
689.924	0.0161283
690.002	0.0161424
690.080	0.0161456
690.158	0.0161710
690.236	0.0160421
690.314	0.0160249
690.392	0.0161378
690.471	0.0160416
690.549	0.0159514
690.627	0.0160266
690.705	0.0159586
690.783	0.0158288
690.861	0.0157828
690.939	0.0157480
691.017	0.0157340
691.096	0.0156611
691.174	0.0156587
691.252	0.0156475
691.330	0.0155024
691.408	0.0156557
691.486	0.0155557
691.564	0.0156253
691.642	0.0155897
691.721	0.0154778
691.799	0.0155634
691.877	0.0157462
691.955	0.0156366
692.033	0.0157723
692.111	0.0156030
692.189	0.0156689
692.267	0.0157651
692.346	0.0158160
692.424	0.0158888
692.502	0.0157965
692.580	0.0159710
692.658	0.0158231
692.736	0.0159207
692.814	0.0159431
692.892	0.0160885
692.971	0.0161662
693.049	0.0159849
693.127	0.0159672
693.205	0.0160058
693.283	0.0159855
693.361	0.0161088
693.439	0.0161684
693.517	0.0161085
693.596	0.0161063
693.674	0.0160285
693.752	0.0160681
693.830	0.0161778
693.908	0.0161320
693.986	0.0161416
694.064	0.0163433
694.142	0.0163002
694.221	0.0162659
694.299	0.0163197
694.377	0.0163709
694.455	0.0164057
694.533	0.0163628
694.611	0.0162450
694.689	0.0161910
694.767	0.0162423
694.846	0.0162300
694.924	0.0162119
695.002	0.0160896
695.080	0.0162064
695.158	0.0161191
695.236	0.0161001
695.314	0.0160203
695.392	0.0160223
695.471	0.0161269
695.549	0.0159891
695.627	0.0159693
695.705	0.0160082
695.783	0.0161082
695.861	0.0161922
695.939	0.0161488
696.017	0.0161674
696.096	0.0160946
696.174	0.0162842
696.252	0.0163673
696.330	0.0164029
696.408	0.0164749
696.486	0.0164791
696.564	0.0165374
696.642	0.0163676
696.721	0.0165799
696.799	0.0165808
696.877	0.0166357
696.955	0.0165608
697.033	0.0166264
697.111	0.0164706
697.189	0.0167212
697.267	0.0166289
697.346	0.0168176
697.424	0.0166960
697.502	0.0167039
697.580	0.0166225
697.658	0.0167007
697.736	0.0168250
697.814	0.0165566
697.892	0.0165473
697.971	0.0167255
698.049	0.0164647
698.127	0.0163325
698.205	0.0166477
698.283	0.0165761
698.361	0.0164437
698.439	0.0166064
698.517	0.0164874
698.596	0.0164220
698.674	0.0162870
698.752	0.0164523
698.830	0.0163982
698.908	0.0162946
698.986	0.0163270
699.064	0.0165121
699.142	0.0164410
699.221	0.0164762
699.299	0.0164078
699.377	0.0164300
699.455	0.0165680
699.533	0.0164310
699.611	0.0164890
699.689	0.0164954
699.767	0.0166837
699.846	0.0165237
699.924	0.0165692
700.002	0.0166838
700.080	0.0165583
700.158	0.0166454
700.236	0.0165198
700.314	0.0165482
700.392	0.0164397
700.471	0.0165972
700.549	0.0166309
700.627	0.0165699
700.705	0.0164050
700.783	0.0163957
700.861	0.0164198
700.939	0.0162682
701.017	0.0164310
701.096	0.0162517
701.174	0.0161842
701.252	0.0160918
701.330	0.0160494
701.408	0.0160641
701.486	0.0159763
701.564	0.0159271
701.642	0.0160384
701.721	0.0159453
701.799	0.0158673
701.877	0.0158162
701.955	0.0158137
702.033	0.0157535
702.111	0.0158424
702.189	0.0156997
702.267	0.0156283
702.346	0.0155959
702.424	0.0155663
702.502	0.0157026
702.580	0.0157366
702.658	0.0157128
702.736	0.0156721
702.814	0.0156435
702.892	0.0157331
702.971	0.0155817
703.049	0.0156742
703.127	0.0158323
703.205	0.0157687
703.283	0.0157847
703.361	0.0159222
703.439	0.0158978
703.517	0.0158712
703.596	0.0159179
703.674	0.0159575
703.752	0.0161098
703.830	0.0159546
703.908	0.0161405
703.986	0.0160390
704.064	0.0160866
704.142	0.0162127
704.221	0.0162122
704.299	0.0161704
704.377	0.0162875
704.455	0.0162659
704.533	0.0162514
704.611	0.0161487
704.689	0.0161144
704.767	0.0162904
704.846	0.0162635
704.924	0.0162200
705.002	0.0163731
705.080	0.0161594
705.158	0.0162417
705.236	0.0162025
705.314	0.0161703
705.392	0.0160291
705.471	0.0161253
705.549	0.0162092
705.627	0.0162415
705.705	0.0161342
705.783	0.0160847
705.861	0.0160175
705.939	0.0160860
706.017	0.0160719
706.096	0.0159252
706.174	0.0159769
706.252	0.0160246
706.330	0.0160812
706.408	0.0160403
706.486	0.0161053
706.564	0.0161171
706.642	0.0162032
706.721	0.0162030
706.799	0.0161952
706.877	0.0162053
706.955	0.0161969
707.033	0.0162205
707.111	0.0163398
707.189	0.0163306
707.267	0.0163419
707.346	0.0163042
707.424	0.0162905
707.502	0.0163516
707.580	0.0164503
707.658	0.0162842
707.736	0.0163516
707.814	0.0162900
707.892	0.0162019
707.971	0.0163739
708.049	0.0164038
708.127	0.0163081
708.205	0.0163905
708.283	0.0164973
708.361	0.0163063
708.439	0.0162775
708.517	0.0162296
708.596	0.0162830
708.674	0.0161140
708.752	0.0162310
708.830	0.0161817
708.908	0.0161652
708.986	0.0161564
709.064	0.0160370
709.142	0.0162095
709.221	0.0162231
709.299	0.0161479
709.377	0.0160727
709.455	0.0160973
709.533	0.0161045
709.611	0.0160453
709.689	0.0160722
709.767	0.0161511
709.846	0.0160828
709.924	0.0160406
710.002	0.0160976
710.080	0.0160829
710.158	0.0161742
710.236	0.0160274
710.314	0.0161451
710.392	0.0161755
710.471	0.0163187
710.549	0.0160860
710.627	0.0161723
710.705	0.0160922
710.783	0.0160667
710.861	0.0161014
710.939	0.0161756
711.017	0.0160007
711.096	0.0160052
711.174	0.0160470
711.252	0.0158554
711.330	0.0160163
711.408	0.0160176
711.486	0.0159148
711.564	0.0159431
711.642	0.0158049
711.721	0.0159488
711.799	0.0160029
711.877	0.0160348
711.955	0.0160522
712.033	0.0158925
712.111	0.0159277
712.189	0.0160316
712.267	0.0159603
712.346	0.0159191
712.424	0.0159525
712.502	0.0160471
712.580	0.0159814
712.658	0.0159252
712.736	0.0159776
712.814	0.0161065
712.892	0.0159700
712.971	0.0159428
713.049	0.0159888
713.127	0.0159583
713.205	0.0160375
713.283	0.0161231
713.361	0.0160520
713.439	0.0160723
713.517	0.0161096
713.596	0.0159895
713.674	0.0160574
713.752	0.0163023
713.830	0.0160936
713.908	0.0161163
713.986	0.0161037
714.064	0.0160505
714.142	0.0161548
714.221	0.0161547
714.299	0.0161451
714.377	0.0161169
714.455	0.0160326
714.533	0.0161948
714.611	0.0160083
714.689	0.0160191
714.767	0.0159891
714.846	0.0159229
714.924	0.0159809
715.002	0.0160930
715.080	0.0158684
715.158	0.0159628
715.236	0.0157862
715.314	0.0158057
715.392	0.0159653
715.471	0.0159279
715.549	0.0159065
715.627	0.0159903
715.705	0.0159416
715.783	0.0158873
715.861	0.0158749
715.939	0.0160050
716.017	0.0158367
716.096	0.0160043
716.174	0.0159971
716.252	0.0160011
716.330	0.0159603
716.408	0.0159841
716.486	0.0159964
716.564	0.0162045
716.642	0.0159835
716.721	0.0162689
716.799	0.0162932
716.877	0.0163795
716.955	0.0162492
717.033	0.0162664
717.111	0.0164099
717.189	0.0163385
717.267	0.0162498
717.346	0.0163074
717.424	0.0163501
717.502	0.0162012
717.580	0.0163821
717.658	0.0162680
717.736	0.0163178
717.814	0.0160957
717.892	0.0161921
717.971	0.0161155
718.049	0.0160188
718.127	0.0159961
718.205	0.0160363
718.283	0.0161013
718.361	0.0160140
718.439	0.0159647
718.517	0.0159707
718.596	0.0158959
718.674	0.0159399
718.752	0.0160352
718.830	0.0159480
718.908	0.0158970
718.986	0.0158162
719.064	0.0160007
719.142	0.0160332
719.221	0.0160813
719.299	0.0161214
719.377	0.0161617
719.455	0.0162053
719.533	0.0160750
719.611	0.0161014
719.689	0.0162392
719.767	0.0161793
719.846	0.0161703
719.924	0.0161625
720.002	0.0161047
720.080	0.0161793
720.158	0.0162366
720.236	0.0162286
720.314	0.0161425
720.392	0.0162894
720.471	0.0162470
720.549	0.0161620
720.627	0.0161504
720.705	0.0162180
720.783	0.0162633
720.861	0.0164395
720.939	0.0162782
721.017	0.0162327
721.096	0.0162691
721.174	0.0162910
721.252	0.0163204
721.330	0.0162954
721.408	0.0161507
721.486	0.0161417
721.564	0.0163693
721.642	0.0161430
721.721	0.0161579
721.799	0.0163509
721.877	0.0163590
721.955	0.0161960
722.033	0.0162591
722.111	0.0163719
722.189	0.0162630
722.267	0.0163517
722.346	0.0163665
722.424	0.0163466
722.502	0.0163089
722.580	0.0164629
722.658	0.0163901
722.736	0.0164470
722.814	0.0164615
722.892	0.0165057
722.971	0.0164351
723.049	0.0164451
723.127	0.0165961
723.205	0.0165609
723.283	0.0164301
723.361	0.0164835
723.439	0.0165136
723.517	0.0164629
723.596	0.0165941
723.674	0.0166231
723.752	0.0165257
723.830	0.0164877
723.908	0.0165138
723.986	0.0165875
724.064	0.0165646
724.142	0.0165645
724.221	0.0165633
724.299	0.0165709
724.377	0.0165495
724.455	0.0165950
724.533	0.0164980
724.611	0.0164744
724.689	0.0163753
724.767	0.0164473
724.846	0.0163281
724.924	0.0163404
725.002	0.0162928
725.080	0.0163443
725.158	0.0162516
725.236	0.0161783
725.314	0.0161240
725.392	0.0161877
725.471	0.0161228
725.549	0.0160715
725.627	0.0160872
725.705	0.0159727
725.783	0.0161351
725.861	0.0161219
725.939	0.0160482
726.017	0.0160148
726.096	0.0158334
726.174	0.0159173
726.252	0.0159322
726.330	0.0160758
726.408	0.0158549
726.486	0.0160267
726.564	0.0158726
726.642	0.0159772
726.721	0.0158906
726.799	0.0159304
726.877	0.0160333
726.955	0.0158991
727.033	0.0161057
727.111	0.0160104
727.189	0.0157867
727.267	0.0159926
727.346	0.0161160
727.424	0.0160892
727.502	0.0161848
727.580	0.0160614
727.658	0.0160790
727.736	0.0161450
727.814	0.0161631
727.892	0.0161836
727.971	0.0161835
728.049	0.0162447
728.127	0.0163008
728.205	0.0162897
728.283	0.0163445
728.361	0.0164555
728.439	0.0165405
728.517	0.0163849
728.596	0.0164349
728.674	0.0164888
728.752	0.0165500
728.830	0.0165141
728.908	0.0165869
728.986	0.0164853
729.064	0.0164345
729.142	0.0165199
729.221	0.0165070
729.299	0.0165702
729.377	0.0164403
729.455	0.0164961
729.533	0.0164967
729.611	0.0163637
729.689	0.0165041
729.767	0.0163304
729.846	0.0163210
729.924	0.0162675
730.002	0.0163680
730.080	0.0163354
730.158	0.0163007
730.236	0.0162633
730.314	0.0162330
730.392	0.0163586
730.471	0.0163175
730.549	0.0164879
730.627	0.0163380
730.705	0.0162273
730.783	0.0162123
730.861	0.0161707
730.939	0.0161716
731.017	0.0162819
731.096	0.0161657
731.174	0.0161541
731.252	0.0162835
731.330	0.0160362
731.408	0.0160004
731.486	0.0162604
731.564	0.0159780
731.642	0.0161475
731.721	0.0160149
731.799	0.0158846
731.877	0.0158659
731.955	0.0158527
732.033	0.0159045
732.111	0.0159034
732.189	0.0158551
732.267	0.0157832
732.346	0.0159621
732.424	0.0159879
732.502	0.0160976
732.580	0.0159579
732.658	0.0158965
732.736	0.0160763
732.814	0.0158511
732.892	0.0161224
732.971	0.0160152
733.049	0.0161584
733.127	0.0160612
733.205	0.0162670
733.283	0.0160527
733.361	0.0161313
733.439	0.0161564
733.517	0.0161131
733.596	0.0159363
733.674	0.0160697
733.752	0.0161404
733.830	0.0160667
733.908	0.0161703
733.986	0.0162807
734.064	0.0162469
734.142	0.0161491
734.221	0.0162662
734.299	0.0162922
734.377	0.0162802
734.455	0.0161479
734.533	0.0161206
734.611	0.0161337
734.689	0.0162711
734.767	0.0161256
734.846	0.0161781
734.924	0.0163706
735.002	0.0162636
735.080	0.0160115
735.158	0.0161771
735.236	0.0162230
735.314	0.0162228
735.392	0.0161677
735.471	0.0161307
735.549	0.0162288
735.627	0.0161681
735.705	0.0162504
735.783	0.0162788
735.861	0.0161502
735.939	0.0161868
736.017	0.0162206
736.096	0.0161974
736.174	0.0161319
736.252	0.0161753
736.330	0.0160210
736.408	0.0161350
736.486	0.0161977
736.564	0.0161176
736.642	0.0161681
736.721	0.0160356
736.799	0.0161811
736.877	0.0162950
736.955	0.0161952
737.033	0.0161657
737.111	0.0162957
737.189	0.0161629
737.267	0.0162138
737.346	0.0163841
737.424	0.0162839
737.502	0.0163474
737.580	0.0163993
737.658	0.0164995
737.736	0.0165049
737.814	0.0165174
737.892	0.0165313
737.971	0.0165385
738.049	0.0165683
738.127	0.0165977
738.205	0.0163299
738.283	0.0163783
738.361	0.0166418
738.439	0.0166501
738.517	0.0164159
738.596	0.0165888
738.674	0.0165059
738.752	0.0164930
738.830	0.0164577
738.908	0.0165587
738.986	0.0162976
739.064	0.0163524
739.142	0.0165339
739.221	0.0163696
739.299	0.0163029
739.377	0.0161568
739.455	0.0161821
739.533	0.0161356
739.611	0.0162083
739.689	0.0161086
739.767	0.0161042
739.846	0.0161107
739.924	0.0161919
740.002	0.0161742
740.080	0.0161015
740.158	0.0160580
740.236	0.0160757
740.314	0.0161205
740.392	0.0160998
740.471	0.0162932
740.549	0.0161936
740.627	0.0162699
740.705	0.0163517
740.783	0.0163698
740.861	0.0163400
740.939	0.0164758
741.017	0.0165747
741.096	0.0165564
741.174	0.0165916
741.252	0.0163586
741.330	0.0166295
741.408	0.0166330
741.486	0.0166003
741.564	0.0167239
741.642	0.0166258
741.721	0.0164720
741.799	0.0165195
741.877	0.0164083
741.955	0.0164003
742.033	0.0163482
742.111	0.0164488
742.189	0.0162788
742.267	0.0162183
742.346	0.0162615
742.424	0.0163371
742.502	0.0162657
742.580	0.0161547
742.658	0.0162238
742.736	0.0162981
742.814	0.0162613
742.892	0.0162079
742.971	0.0162101
743.049	0.0162124
743.127	0.0163482
743.205	0.0164550
743.283	0.0164114
743.361	0.0163898
743.439	0.0163423
743.517	0.0162823
743.596	0.0164660
743.674	0.0163538
743.752	0.0163715
743.830	0.0164250
743.908	0.0162354
743.986	0.0163387
744.064	0.0163223
744.142	0.0163058
744.221	0.0162775
744.299	0.0164726
744.377	0.0161295
744.455	0.0162184
744.533	0.0161208
744.611	0.0161317
744.689	0.0160928
744.767	0.0162792
744.846	0.0162143
744.924	0.0161979
745.002	0.0162830
745.080	0.0161590
745.158	0.0161290
745.236	0.0163477
745.314	0.0164153
745.392	0.0165882
745.471	0.0165676
745.549	0.0165841
745.627	0.0165468
745.705	0.0166751
745.783	0.0166869
745.861	0.0167696
745.939	0.0169122
746.017	0.0169154
746.096	0.0169597
746.174	0.0171453
746.252	0.0170146
746.330	0.0168979
746.408	0.0169063
746.486	0.0170332
746.564	0.0169653
746.642	0.0168589
746.721	0.0167295
746.799	0.0167788
746.877	0.0167245
746.955	0.0169352
747.033	0.0166466
747.111	0.0165181
747.189	0.0165504
747.267	0.0165957
747.346	0.0166049
747.424	0.0165755
747.502	0.0165513
747.580	0.0163918
747.658	0.0165734
747.736	0.0166240
747.814	0.0165008
747.892	0.0165974
747.971	0.0164915
748.049	0.0165566
748.127	0.0164598
748.205	0.0166068
748.283	0.0164663
748.361	0.0165893
748.439	0.0165046
748.517	0.0164963
748.596	0.0165302
748.674	0.0164211
748.752	0.0165241
748.830	0.0165559
748.908	0.0163552
748.986	0.0165501
749.064	0.0165217
749.142	0.0165229
749.221	0.0165753
749.299	0.0164701
749.377	0.0166180
749.455	0.0165878
749.533	0.0166286
749.611	0.0166192
749.689	0.0166602
749.767	0.0164246
749.846	0.0166342
749.924	0.0167303
750.002	0.0166405
750.080	0.0166502
750.158	0.0167192
750.236	0.0165598
750.314	0.0164581
750.392	0.0165699
750.471	0.0165557
750.549	0.0165501
750.627	0.0165804
750.705	0.0164001
750.783	0.0163798
750.861	0.0162788
750.939	0.0162601
751.017	0.0162032
751.096	0.0161918
751.174	0.0160202
751.252	0.0159922
751.330	0.0160616
751.408	0.0159344
751.486	0.0158112
751.564	0.0158324
751.642	0.0158331
751.721	0.0157005
751.799	0.0156859
751.877	0.0157774
751.955	0.0158315
752.033	0.0157610
752.111	0.0157210
752.189	0.0156824
752.267	0.0158089
752.346	0.0158989
752.424	0.0159756
752.502	0.0159414
752.580	0.0159260
752.658	0.0160004
752.736	0.0159312
752.814	0.0158972
752.892	0.0158421
752.971	0.0159779
753.049	0.0159221
753.127	0.0161158
753.205	0.0160154
753.283	0.0159805
753.361	0.0158492
753.439	0.0160062
753.517	0.0158449
753.596	0.0160242
753.674	0.0159616
753.752	0.0160056
753.830	0.0161041
753.908	0.0159753
753.986	0.0160560
754.064	0.0160612
754.142	0.0158884
754.221	0.0161607
754.299	0.0160835
754.377	0.0161519
754.455	0.0161964
754.533	0.0162082
754.611	0.0161543
754.689	0.0161773
754.767	0.0160639
754.846	0.0161606
754.924	0.0161306
755.002	0.0161384
755.080	0.0162215
755.158	0.0161039
755.236	0.0158900
755.314	0.0159354
755.392	0.0159767
755.471	0.0159048
755.549	0.0158277
755.627	0.0159087
755.705	0.0157278
755.783	0.0157392
755.861	0.0158266
755.939	0.0158569
756.017	0.0157791
756.096	0.0158088
756.174	0.0157512
756.252	0.0156563
756.330	0.0158050
756.408	0.0157954
756.486	0.0156030
756.564	0.0157786
756.642	0.0159436
756.721	0.0157249
756.799	0.0158660
756.877	0.0159660
756.955	0.0159888
757.033	0.0158940
757.111	0.0161648
757.189	0.0162061
757.267	0.0163151
757.346	0.0161926
757.424	0.0160785
757.502	0.0161279
757.580	0.0163295
757.658	0.0162821
757.736	0.0163495
757.814	0.0164240
757.892	0.0163689
757.971	0.0163570
758.049	0.0162074
758.127	0.0163112
758.205	0.0164323
758.283	0.0163424
758.361	0.0162846
758.439	0.0163665
758.517	0.0164087
758.596	0.0163673
758.674	0.0163914
758.752	0.0165568
758.830	0.0165989
758.908	0.0163545
758.986	0.0164696
759.064	0.0165097
759.142	0.0165025
759.221	0.0164188
759.299	0.0164908
759.377	0.0166798
759.455	0.0164884
759.533	0.0164194
759.611	0.0165473
759.689	0.0165262
759.767	0.0166258
759.846	0.0166183
759.924	0.0167608
760.002	0.0166402
760.080	0.0167632
760.158	0.0167311
760.236	0.0167362
760.314	0.0164796
760.392	0.0168157
760.471	0.0168015
760.549	0.0166273
760.627	0.0167635
760.705	0.0168440
760.783	0.0169073
760.861	0.0167853
760.939	0.0168350
761.017	0.0168771
761.096	0.0168004
761.174	0.0168637
761.252	0.0169129
761.330	0.0168891
761.408	0.0168424
761.486	0.0168953
761.564	0.0167062
761.642	0.0166012
761.721	0.0166828
761.799	0.0165828
761.877	0.0165443
761.955	0.0164252
762.033	0.0164372
762.111	0.0165010
762.189	0.0163848
762.267	0.0162248
762.346	0.0163390
762.424	0.0161650
762.502	0.0162146
762.580	0.0160046
762.658	0.0158575
762.736	0.0160023
762.814	0.0161351
762.892	0.0160623
762.971	0.0160435
763.049	0.0160823
763.127	0.0160782
763.205	0.0162005
763.283	0.0162666
763.361	0.0163161
763.439	0.0162766
763.517	0.0164185
763.596	0.0164976
763.674	0.0165460
763.752	0.0166553
763.830	0.0166344
763.908	0.0169019
763.986	0.0168024
764.064	0.0167317
764.142	0.0167476
764.221	0.0169228
764.299	0.0168946
764.377	0.0169299
764.455	0.0167810
764.533	0.0168268
764.611	0.0168604
764.689	0.0168342
764.767	0.0168182
764.846	0.0168072
764.924	0.0166886
765.002	0.0165867
765.080	0.0166587
765.158	0.0166484
765.236	0.0164757
765.314	0.0163830
765.392	0.0163954
765.471	0.0163189
765.549	0.0163871
765.627	0.0162756
765.705	0.0163087
765.783	0.0161386
765.861	0.0161683
765.939	0.0160722
766.017	0.0160297
766.096	0.0160846
766.174	0.0158778
766.252	0.0158370
766.330	0.0157846
766.408	0.0158344
766.486	0.0156560
766.564	0.0154763
766.642	0.0154513
766.721	0.0155083
766.799	0.0156168
766.877	0.0155449
766.955	0.0155297
767.033	0.0155102
767.111	0.0155290
767.189	0.0155390
767.267	0.0155254
767.346	0.0156922
767.424	0.0157150
767.502	0.0156890
767.580	0.0158253
767.658	0.0159483
767.736	0.0158894
767.814	0.0159885
767.892	0.0162036
767.971	0.0162882
768.049	0.0162154
768.127	0.0164030
768.205	0.0164606
768.283	0.0165047
768.361	0.0165497
768.439	0.0166103
768.517	0.0167141
768.596	0.0167820
768.674	0.0168587
768.752	0.0168963
768.830	0.0169472
768.908	0.0170327
768.986	0.0170625
769.064	0.0169691
769.142	0.0170615
769.221	0.0170432
769.299	0.0170351
769.377	0.0169262
769.455	0.0170205
769.533	0.0169911
769.611	0.0168912
769.689	0.0167688
769.767	0.0167549
769.846	0.0167526
769.924	0.0165438
770.002	0.0165551
770.080	0.0165609
770.158	0.0164501
770.236	0.0162984
770.314	0.0162952
770.392	0.0162121
770.471	0.0162055
770.549	0.0160908
770.627	0.0159538
770.705	0.0160204
770.783	0.0161264
770.861	0.0159494
770.939	0.0159949
771.017	0.0159004
771.096	0.0160313
771.174	0.0160564
771.252	0.0158318
771.330	0.0158314
771.408	0.0159393
771.486	0.0160403
771.564	0.0160717
771.642	0.0160518
771.721	0.0160295
771.799	0.0160513
771.877	0.0160265
771.955	0.0160564
772.033	0.0161768
772.111	0.0163290
772.189	0.0162920
772.267	0.0161910
772.346	0.0161687
772.424	0.0162650
772.502	0.0162731
772.580	0.0163567
772.658	0.0163647
772.736	0.0165181
772.814	0.0164948
772.892	0.0163893
772.971	0.0163315
773.049	0.0165417
773.127	0.0165340
773.205	0.0165451
773.283	0.0165902
773.361	0.0166282
773.439	0.0166420
773.517	0.0165096
773.596	0.0165878
773.674	0.0166257
773.752	0.0166585
773.830	0.0165926
773.908	0.0165094
773.986	0.0165296
774.064	0.0164515
774.142	0.0163557
774.221	0.0164336
774.299	0.0162753
774.377	0.0162527
774.455	0.0163113
774.533	0.0162395
774.611	0.0162096
774.689	0.0164128
774.767	0.0162786
774.846	0.0164812
774.924	0.0163652
775.002	0.0161951
775.080	0.0163342
775.158	0.0164121
775.236	0.0162513
775.314	0.0164091
775.392	0.0164368
775.471	0.0163376
775.549	0.0162149
775.627	0.0163113
775.705	0.0163470
775.783	0.0162651
775.861	0.0162357
775.939	0.0162172
776.017	0.0162757
776.096	0.0161403
776.174	0.0160763
776.252	0.0160991
776.330	0.0161816
776.408	0.0161105
776.486	0.0159108
776.564	0.0159123
776.642	0.0162320
776.721	0.0159787
776.799	0.0159016
776.877	0.0159871
776.955	0.0160799
777.033	0.0159798
777.111	0.0160237
777.189	0.0161376
777.267	0.0161786
777.346	0.0160512
777.424	0.0161212
777.502	0.0162949
777.580	0.0161345
777.658	0.0161583
777.736	0.0162766
777.814	0.0162975
777.892	0.0162068
777.971	0.0161269
778.049	0.0160965
778.127	0.0161047
778.205	0.0160368
778.283	0.0162335
778.361	0.0160648
778.439	0.0159786
778.517	0.0160882
778.596	0.0161569
778.674	0.0160145
778.752	0.0160460
778.830	0.0160166
778.908	0.0159778
778.986	0.0160970
779.064	0.0162186
779.142	0.0161005
779.221	0.0161542
779.299	0.0161607
779.377	0.0161195
779.455	0.0163066
779.533	0.0160556
779.611	0.0161548
779.689	0.0161047
779.767	0.0161183
779.846	0.0161478
779.924	0.0160403
780.002	0.0158018
780.080	0.0159979
780.158	0.0160210
780.236	0.0159673
780.314	0.0158673
780.392	0.0158625
780.471	0.0159467
780.549	0.0157423
780.627	0.0157614
780.705	0.0158101
780.783	0.0158109
780.861	0.0157504
780.939	0.0158144
781.017	0.0157207
781.096	0.0157117
781.174	0.0158096
781.252	0.0157999
781.330	0.0157388
781.408	0.0158434
781.486	0.0159825
781.564	0.0157934
781.642	0.0159673
781.721	0.0159954
781.799	0.0159435
781.877	0.0158904
781.955	0.0159039
782.033	0.0159525
782.111	0.0159331
782.189	0.0159860
782.267	0.0159700
782.346	0.0159790
782.424	0.0160096
782.502	0.0159451
782.580	0.0159294
782.658	0.0160031
782.736	0.0160103
782.814	0.0159456
782.892	0.0159550
782.971	0.0159578
783.049	0.0158627
783.127	0.0159650
783.205	0.0160394
783.283	0.0159517
783.361	0.0159351
783.439	0.0159618
783.517	0.0158737
783.596	0.0159052
783.674	0.0159821
783.752	0.0161063
783.830	0.0160156
783.908	0.0161301
783.986	0.0161682
784.064	0.0162669
784.142	0.0162480
784.221	0.0163497
784.299	0.0162691
784.377	0.0164024
784.455	0.0166031
784.533	0.0164622
784.611	0.0164532
784.689	0.0164351
784.767	0.0164951
784.846	0.0164542
784.924	0.0165463
785.002	0.0166487
785.080	0.0167607
785.158	0.0165532
785.236	0.0168256
785.314	0.0166926
785.392	0.0165807
785.471	0.0166245
785.549	0.0166937
785.627	0.0167003
785.705	0.0166927
785.783	0.0166988
785.861	0.0167837
785.939	0.0167597
786.017	0.0166819
786.096	0.0166637
786.174	0.0165471
786.252	0.0165318
786.330	0.0165697
786.408	0.0164160
786.486	0.0163102
786.564	0.0162664
786.642	0.0162144
786.721	0.0162085
786.799	0.0161689
786.877	0.0161716
786.955	0.0161706
787.033	0.0160644
787.111	0.0161651
787.189	0.0161230
787.267	0.0161794
787.346	0.0161173
787.424	0.0160761
787.502	0.0160946
787.580	0.0161704
787.658	0.0161803
787.736	0.0161345
787.814	0.0160167
787.892	0.0161351
787.971	0.0160030
788.049	0.0161708
788.127	0.0162072
788.205	0.0161068
788.283	0.0162190
788.361	0.0162627
788.439	0.0161594
788.517	0.0161799
788.596	0.0163630
788.674	0.0163364
788.752	0.0162574
788.830	0.0163737
788.908	0.0162792
788.986	0.0162394
789.064	0.0165038
789.142	0.0164191
789.221	0.0164910
789.299	0.0163615
789.377	0.0164214
789.455	0.0164941
789.533	0.0165008
789.611	0.0164928
789.689	0.0164645
789.767	0.0165302
789.846	0.0166268
789.924	0.0164617
790.002	0.0164758
790.080	0.0165585
790.158	0.0165843
790.236	0.0164346
790.314	0.0166047
790.392	0.0165076
790.471	0.0165119
790.549	0.0164790
790.627	0.0164877
790.705	0.0165131
790.783	0.0163460
790.861	0.0164423
790.939	0.0163427
791.017	0.0165291
791.096	0.0165948
791.174	0.0163741
791.252	0.0163541
791.330	0.0163854
791.408	0.0164238
791.486	0.0162437
791.564	0.0162727
791.642	0.0163625
791.721	0.0162499
791.799	0.0163676
791.877	0.0162817
791.955	0.0161742
792.033	0.0163159
792.111	0.0163232
792.189	0.0162908
792.267	0.0161514
792.346	0.0161344
792.424	0.0161254
792.502	0.0161237
792.580	0.0162219
792.658	0.0162276
792.736	0.0161063
792.814	0.0161951
792.892	0.0161518
792.971	0.0162193
793.049	0.0160734
793.127	0.0162315
793.205	0.0161301
793.283	0.0161747
793.361	0.0162383
793.439	0.0160390
793.517	0.0160449
793.596	0.0160812
793.674	0.0161963
793.752	0.0160043
793.830	0.0157905
793.908	0.0159007
793.986	0.0158228
794.064	0.0159053
794.142	0.0157851
794.221	0.0159023
794.299	0.0158454
794.377	0.0157191
794.455	0.0157777
794.533	0.0155859
794.611	0.0156569
794.689	0.0156269
794.767	0.0154546
794.846	0.0156249
794.924	0.0156052
795.002	0.0156107
795.080	0.0155965
795.158	0.0156335
795.236	0.0155720
795.314	0.0155872
795.392	0.0155626
795.471	0.0155473
795.549	0.0155812
795.627	0.0157271
795.705	0.0155931
795.783	0.0157236
795.861	0.0156697
795.939	0.0156647
796.017	0.0156570
796.096	0.0156480
796.174	0.0157755
796.252	0.0159138
796.330	0.0158287
796.408	0.0157132
796.486	0.0159600
796.564	0.0159287
796.642	0.0158402
796.721	0.0158006
796.799	0.0158333
796.877	0.0158772
796.955	0.0159299
797.033	0.0159007
797.111	0.0158802
797.189	0.0160059
797.267	0.0159077
797.346	0.0159724
797.424	0.0160326
797.502	0.0159314
797.580	0.0161238
797.658	0.0160172
797.736	0.0160796
797.814	0.0161058
797.892	0.0160936
797.971	0.0162086
798.049	0.0160895
798.127	0.0162561
798.205	0.0162233
798.283	0.0162757
798.361	0.0162507
798.439	0.0162989
798.517	0.0163979
798.596	0.0164090
798.674	0.0164528
798.752	0.0164204
798.830	0.0165061
798.908	0.0165567
798.986	0.0165672
799.064	0.0165225
799.142	0.0164554
799.221	0.0166306
799.299	0.0167400
799.377	0.0166782
799.455	0.0167928
799.533	0.0167397
799.611	0.0166098
799.689	0.0167574
799.767	0.0167393
799.846	0.0167324
799.924	0.0166341
800.002	0.0166528
800.080	0.0165958
800.158	0.0167481
800.236	0.0167465
800.314	0.0167361
800.392	0.0165430
800.471	0.0166250
800.549	0.0167031
800.627	0.0165639
800.705	0.0165467
800.783	0.0165178
800.861	0.0164377
800.939	0.0165808
801.017	0.0165266
801.096	0.0163432
801.174	0.0163136
801.252	0.0161977
801.330	0.0163437
801.408	0.0163423
801.486	0.0163513
801.564	0.0162642
801.642	0.0161783
801.721	0.0162497
801.799	0.0162671
801.877	0.0162144
801.955	0.0160902
802.033	0.0161211
802.111	0.0163410
802.189	0.0160912
802.267	0.0160940
802.346	0.0160871
802.424	0.0160263
802.502	0.0161488
802.580	0.0160242
802.658	0.0162143
802.736	0.0161681
802.814	0.0162116
802.892	0.0161772
802.971	0.0162465
803.049	0.0161324
803.127	0.0161294
803.205	0.0160216
803.283	0.0160936
803.361	0.0162739
803.439	0.0163303
803.517	0.0162674
803.596	0.0161066
803.674	0.0161011
803.752	0.0162464
803.830	0.0163112
803.908	0.0162240
803.986	0.0162325
804.064	0.0162561
804.142	0.0162475
804.221	0.0163165
804.299	0.0165138
804.377	0.0163338
804.455	0.0164651
804.533	0.0165757
804.611	0.0164161
804.689	0.0164868
804.767	0.0165246
804.846	0.0165554
804.924	0.0164660
805.002	0.0165154
805.080	0.0164773
805.158	0.0165575
805.236	0.0166362
805.314	0.0165551
805.392	0.0165958
805.471	0.0164004
805.549	0.0165515
805.627	0.0165328
805.705	0.0166204
805.783	0.0164936
805.861	0.0165837
805.939	0.0164339
806.017	0.0165111
806.096	0.0166363
806.174	0.0165762
806.252	0.0165083
806.330	0.0165003
806.408	0.0165503
806.486	0.0166460
806.564	0.0166654
806.642	0.0167638
806.721	0.0167683
806.799	0.0167059
806.877	0.0168173
806.955	0.0166911
807.033	0.0166724
807.111	0.0165914
807.189	0.0165406
807.267	0.0166835
807.346	0.0164960
807.424	0.0165176
807.502	0.0165738
807.580	0.0164234
807.658	0.0163368
807.736	0.0163229
807.814	0.0164694
807.892	0.0163030
807.971	0.0161589
808.049	0.0161849
808.127	0.0162930
808.205	0.0161607
808.283	0.0161838
808.361	0.0161004
808.439	0.0159178
808.517	0.0160424
808.596	0.0160614
808.674	0.0160334
808.752	0.0160854
808.830	0.0160518
808.908	0.0161268
808.986	0.0161164
809.064	0.0161612
809.142	0.0160680
809.221	0.0162025
809.299	0.0161631
809.377	0.0160290
809.455	0.0161227
809.533	0.0160346
809.611	0.0159605
809.689	0.0160844
809.767	0.0160627
809.846	0.0158198
809.924	0.0157890
810.002	0.0158773
810.080	0.0157744
810.158	0.0156429
810.236	0.0155647
810.314	0.0157907
810.392	0.0157725
810.471	0.0156707
810.549	0.0155794
810.627	0.0157209
810.705	0.0158274
810.783	0.0156194
810.861	0.0156596
810.939	0.0157841
811.017	0.0157260
811.096	0.0156066
811.174	0.0158276
811.252	0.0159827
811.330	0.0159464
811.408	0.0159495
811.486	0.0162539
811.564	0.0161749
811.642	0.0161375
811.721	0.0163798
811.799	0.0162953
811.877	0.0163504
811.955	0.0164245
812.033	0.0166702
812.111	0.0166428
812.189	0.0167465
812.267	0.0168047
812.346	0.0168025
812.424	0.0168333
812.502	0.0167812
812.580	0.0169813
812.658	0.0168845
812.736	0.0168137
812.814	0.0168960
812.892	0.0168575
812.971	0.0168411
813.049	0.0168236
813.127	0.0166897
813.205	0.0166850
813.283	0.0166103
813.361	0.0168147
813.439	0.0166801
813.517	0.0164926
813.596	0.0164883
813.674	0.0164787
813.752	0.0164553
813.830	0.0165854
813.908	0.0165931
813.986	0.0164656
814.064	0.0162435
814.142	0.0163991
814.221	0.0163735
814.299	0.0162190
814.377	0.0163338
814.455	0.0163803
814.533	0.0162868
814.611	0.0162183
814.689	0.0162466
814.767	0.0162722
814.846	0.0162989
814.924	0.0162180
815.002	0.0161665
815.080	0.0161396
815.158	0.0161209
815.236	0.0160381
815.314	0.0161362
815.392	0.0162548
815.471	0.0162827
815.549	0.0161453
815.627	0.0159544
815.705	0.0161622
815.783	0.0160921
815.861	0.0161043
815.939	0.0160030
816.017	0.0162170
816.096	0.0162678
816.174	0.0161787
816.252	0.0162140
816.330	0.0162561
816.408	0.0163084
816.486	0.0164026
816.564	0.0161919
816.642	0.0162485
816.721	0.0162830
816.799	0.0162966
816.877	0.0163160
816.955	0.0161644
817.033	0.0161857
817.111	0.0163962
817.189	0.0163945
817.267	0.0162169
817.346	0.0162282
817.424	0.0162510
817.502	0.0162945
817.580	0.0161134
817.658	0.0161911
817.736	0.0160969
817.814	0.0160867
817.892	0.0160090
817.971	0.0160358
818.049	0.0159898
818.127	0.0160340
818.205	0.0158907
818.283	0.0160268
818.361	0.0159421
818.439	0.0159692
818.517	0.0159389
818.596	0.0158876
818.674	0.0159153
818.752	0.0159965
818.830	0.0158540
818.908	0.0159296
818.986	0.0158730
819.064	0.0158363
819.142	0.0157941
819.221	0.0158366
819.299	0.0158035
819.377	0.0157842
819.455	0.0159378
819.533	0.0158604
819.611	0.0157317
819.689	0.0156994
819.767	0.0157994
819.846	0.0158173
819.924	0.0158906
820.002	0.0158700
820.080	0.0159914
820.158	0.0158404
820.236	0.0158862
820.314	0.0161224
820.392	0.0158860
820.471	0.0160944
820.549	0.0160539
820.627	0.0160937
820.705	0.0161005
820.783	0.0160553
820.861	0.0162261
820.939	0.0163632
821.017	0.0162099
821.096	0.0162473
821.174	0.0162283
821.252	0.0161870
821.330	0.0161681
821.408	0.0161447
821.486	0.0160796
821.564	0.0161953
821.642	0.0161760
821.721	0.0161330
821.799	0.0160856
821.877	0.0162495
821.955	0.0161847
822.033	0.0161416
822.111	0.0161739
822.189	0.0162778
822.267	0.0161436
822.346	0.0161299
822.424	0.0162451
822.502	0.0163338
822.580	0.0163739
822.658	0.0163703
822.736	0.0163366
822.814	0.0163758
822.892	0.0163914
822.971	0.0164060
823.049	0.0163589
823.127	0.0164348
823.205	0.0164048
823.283	0.0164362
823.361	0.0164659
823.439	0.0163318
823.517	0.0165482
823.596	0.0164447
823.674	0.0163621
823.752	0.0163989
823.830	0.0165218
823.908	0.0165376
823.986	0.0165241
824.064	0.0163942
824.142	0.0163171
824.221	0.0164802
824.299	0.0163535
824.377	0.0163245
824.455	0.0164626
824.533	0.0163186
824.611	0.0163987
824.689	0.0164293
824.767	0.0162891
824.846	0.0164371
824.924	0.0165086
825.002	0.0165018
825.080	0.0165100
825.158	0.0165946
825.236	0.0166150
825.314	0.0163130
825.392	0.0165265
825.471	0.0166190
825.549	0.0167763
825.627	0.0166792
825.705	0.0167039
825.783	0.0165403
825.861	0.0166898
825.939	0.0166987
826.017	0.0165528
826.096	0.0166597
826.174	0.0167437
826.252	0.0168148
826.330	0.0166173
826.408	0.0167234
826.486	0.0166020
826.564	0.0166003
826.642	0.0167414
826.721	0.0165542
826.799	0.0165222
826.877	0.0164465
826.955	0.0166991
827.033	0.0165114
827.111	0.0164776
827.189	0.0164129
827.267	0.0164354
827.346	0.0165731
827.424	0.0163167
827.502	0.0164285
827.580	0.0164568
827.658	0.0163158
827.736	0.0164848
827.814	0.0164657
827.892	0.0163176
827.971	0.0163681
828.049	0.0163734
828.127	0.0163403
828.205	0.0163875
828.283	0.0165232
828.361	0.0162865
828.439	0.0165145
828.517	0.0163872
828.596	0.0164610
828.674	0.0163908
828.752	0.0162651
828.830	0.0163849
828.908	0.0163615
828.986	0.0163439
829.064	0.0163661
829.142	0.0162298
829.221	0.0163063
829.299	0.0162495
829.377	0.0162767
829.455	0.0163458
829.533	0.0163220
829.611	0.0162309
829.689	0.0162371
829.767	0.0160913
829.846	0.0161806
829.924	0.0161202
830.002	0.0161705
830.080	0.0161779
830.158	0.0161971
830.236	0.0161138
830.314	0.0161847
830.392	0.0161323
830.471	0.0161914
830.549	0.0161064
830.627	0.0160112
830.705	0.0162360
830.783	0.0161446
830.861	0.0161551
830.939	0.0163860
831.017	0.0161797
831.096	0.0163411
831.174	0.0163310
831.252	0.0162399
831.330	0.0162056
831.408	0.0162872
831.486	0.0162851
831.564	0.0163322
831.642	0.0162854
831.721	0.0161552
831.799	0.0162462
831.877	0.0162771
831.955	0.0161268
832.033	0.0161649
832.111	0.0161487
832.189	0.0159849
832.267	0.0161378
832.346	0.0161665
832.424	0.0161457
832.502	0.0160246
832.580	0.0160648
832.658	0.0161586
832.736	0.0161024
832.814	0.0160793
832.892	0.0160412
832.971	0.0159513
833.049	0.0161662
833.127	0.0160731
833.205	0.0162606
833.283	0.0161812
833.361	0.0161442
833.439	0.0161915
833.517	0.0160394
833.596	0.0160195
833.674	0.0160319
833.752	0.0161920
833.830	0.0160630
833.908	0.0160916
833.986	0.0159756
834.064	0.0159401
834.142	0.0159866
834.221	0.0159289
834.299	0.0160029
834.377	0.0160908
834.455	0.0159446
834.533	0.0159939
834.611	0.0158404
834.689	0.0159610
834.767	0.0158964
834.846	0.0159297
834.924	0.0159155
835.002	0.0159662
835.080	0.0160760
835.158	0.0160368
835.236	0.0160527
835.314	0.0160432
835.392	0.0160723
835.471	0.0161024
835.549	0.0161372
835.627	0.0161517
835.705	0.0160349
835.783	0.0160309
835.861	0.0161142
835.939	0.0160241
836.017	0.0160664
836.096	0.0162312
836.174	0.0161603
836.252	0.0160538
836.330	0.0161292
836.408	0.0161477
836.486	0.0161002
836.564	0.0161719
836.642	0.0163228
836.721	0.0161839
836.799	0.0162353
836.877	0.0163842
836.955	0.0162251
837.033	0.0163629
837.111	0.0163906
837.189	0.0164420
837.267	0.0163089
837.346	0.0163212
837.424	0.0164449
837.502	0.0163879
837.580	0.0164212
837.658	0.0164207
837.736	0.0163441
837.814	0.0164443
837.892	0.0165899
837.971	0.0165030
838.049	0.0164687
838.127	0.0164981
838.205	0.0164689
838.283	0.0164377
838.361	0.0164283
838.439	0.0163655
838.517	0.0163087
838.596	0.0164552
838.674	0.0163314
838.752	0.0162977
838.830	0.0164595
838.908	0.0163638
838.986	0.0163090
839.064	0.0163439
839.142	0.0163489
839.221	0.0163879
839.299	0.0163756
839.377	0.0163222
839.455	0.0162570
839.533	0.0161242
839.611	0.0163892
839.689	0.0162903
839.767	0.0162069
839.846	0.0164012
839.924	0.0164273
840.002	0.0163396
840.080	0.0163141
840.158	0.0163337
840.236	0.0163152
840.314	0.0164906
840.392	0.0165411
840.471	0.0163667
840.549	0.0163675
840.627	0.0163162
840.705	0.0164019
840.783	0.0164115
840.861	0.0164751
840.939	0.0162534
841.017	0.0162699
841.096	0.0164336
841.174	0.0163394
841.252	0.0163068
841.330	0.0162774
841.408	0.0161726
841.486	0.0163115
841.564	0.0162369
841.642	0.0163432
841.721	0.0163345
841.799	0.0161738
841.877	0.0162048
841.955	0.0163106
842.033	0.0163341
842.111	0.0161958
842.189	0.0161116
842.267	0.0162280
842.346	0.0162032
842.424	0.0162253
842.502	0.0163519
842.580	0.0160345
842.658	0.0160982
842.736	0.0161412
842.814	0.0161263
842.892	0.0162395
842.971	0.0160820
843.049	0.0161295
843.127	0.0161688
843.205	0.0161704
843.283	0.0161659
843.361	0.0163099
843.439	0.0160654
843.517	0.0161218
843.596	0.0161670
843.674	0.0162000
843.752	0.0159322
843.830	0.0160116
843.908	0.0161690
843.986	0.0160024
844.064	0.0159667
844.142	0.0159821
844.221	0.0159527
844.299	0.0158555
844.377	0.0159439
844.455	0.0158966
844.533	0.0158961
844.611	0.0158622
844.689	0.0158696
844.767	0.0159852
844.846	0.0159132
844.924	0.0158488
845.002	0.0159949
845.080	0.0160794
845.158	0.0159212
845.236	0.0159566
845.314	0.0160267
845.392	0.0160410
845.471	0.0160135
845.549	0.0159976
845.627	0.0160127
845.705	0.0159683
845.783	0.0160127
845.861	0.0162860
845.939	0.0161098
846.017	0.0160796
846.096	0.0161813
846.174	0.0161481
846.252	0.0160336
846.330	0.0160600
846.408	0.0160912
846.486	0.0160694
846.564	0.0161636
846.642	0.0160673
846.721	0.0160379
846.799	0.0161597
846.877	0.0162126
846.955	0.0162460
847.033	0.0162844
847.111	0.0161285
847.189	0.0161246
847.267	0.0161928
847.346	0.0163639
847.424	0.0162908
847.502	0.0162042
847.580	0.0161524
847.658	0.0162659
847.736	0.0162834
847.814	0.0163951
847.892	0.0162397
847.971	0.0163125
848.049	0.0163828
848.127	0.0163192
848.205	0.0162302
848.283	0.0163059
848.361	0.0161964
848.439	0.0161895
848.517	0.0162491
848.596	0.0162306
848.674	0.0162308
848.752	0.0161697
848.830	0.0161755
848.908	0.0162722
848.986	0.0161613
849.064	0.0161446
849.142	0.0162564
849.221	0.0162244
849.299	0.0161943
849.377	0.0162521
849.455	0.0164138
849.533	0.0162870
849.611	0.0162832
849.689	0.0165396
849.767	0.0164488
849.846	0.0163963
849.924	0.0165667
850.002	0.0166946
850.080	0.0164729
850.158	0.0164590
850.236	0.0165493
850.314	0.0166170
850.392	0.0165955
850.471	0.0167521
850.549	0.0167394
850.627	0.0166489
850.705	0.0167781
850.783	0.0168420
850.861	0.0167171
850.939	0.0167283
851.017	0.0167620
851.096	0.0167538
851.174	0.0167392
851.252	0.0167893
851.330	0.0166992
851.408	0.0168332
851.486	0.0168740
851.564	0.0167114
851.642	0.0168115
851.721	0.0168168
851.799	0.0169239
851.877	0.0168911
851.955	0.0166921
852.033	0.0168362
852.111	0.0167672
852.189	0.0166798
852.267	0.0166224
852.346	0.0166842
852.424	0.0167626
852.502	0.0165739
852.580	0.0164801
852.658	0.0165100
852.736	0.0165623
852.814	0.0164928
852.892	0.0164316
852.971	0.0164810
853.049	0.0165431
853.127	0.0165285
853.205	0.0163522
853.283	0.0164362
853.361	0.0164960
853.439	0.0164430
853.517	0.0162424
853.596	0.0163480
853.674	0.0164156
853.752	0.0163917
853.830	0.0164221
853.908	0.0163898
853.986	0.0161500
854.064	0.0162692
854.142	0.0163670
854.221	0.0160715
854.299	0.0162621
854.377	0.0162021
854.455	0.0161580
854.533	0.0161428
854.611	0.0161980
854.689	0.0162598
854.767	0.0161420
854.846	0.0161048
854.924	0.0161658
855.002	0.0160509
855.080	0.0161369
855.158	0.0159736
855.236	0.0161240
855.314	0.0161565
855.392	0.0161680
855.471	0.0161254
855.549	0.0160838
855.627	0.0161794
855.705	0.0161245
855.783	0.0161295
855.861	0.0162505
855.939	0.0162695
856.017	0.0162523
856.096	0.0161414
856.174	0.0161239
856.252	0.0163065
856.330	0.0162499
856.408	0.0162685
856.486	0.0161707
856.564	0.0162914
856.642	0.0163960
856.721	0.0163659
856.799	0.0164413
856.877	0.0164922
856.955	0.0164367
857.033	0.0165290
857.111	0.0166298
857.189	0.0165945
857.267	0.0166369
857.346	0.0166776
857.424	0.0165540
857.502	0.0166876
857.580	0.0166125
857.658	0.0165459
857.736	0.0166406
857.814	0.0166866
857.892	0.0165605
857.971	0.0164349
858.049	0.0163982
858.127	0.0163894
858.205	0.0164339
858.283	0.0163850
858.361	0.0163230
858.439	0.0163265
858.517	0.0163286
858.596	0.0162287
858.674	0.0162583
858.752	0.0160854
858.830	0.0160910
858.908	0.0160945
858.986	0.0161042
859.064	0.0161035
859.142	0.0159691
859.221	0.0159175
859.299	0.0159370
859.377	0.0159235
859.455	0.0158976
859.533	0.0158043
859.611	0.0157729
859.689	0.0158215
859.767	0.0159232
859.846	0.0157771
859.924	0.0157500
860.002	0.0156840
860.080	0.0156664
860.158	0.0157583
860.236	0.0157639
860.314	0.0156436
860.392	0.0159196
860.471	0.0157722
860.549	0.0158434
860.627	0.0156818
860.705	0.0157289
860.783	0.0157562
860.861	0.0158250
860.939	0.0159770
861.017	0.0159163
861.096	0.0157398
861.174	0.0158884
861.252	0.0158076
861.330	0.0159010
861.408	0.0159316
861.486	0.0158545
861.564	0.0158755
861.642	0.0158830
861.721	0.0159661
861.799	0.0160783
861.877	0.0161769
861.955	0.0161669
862.033	0.0160657
862.111	0.0162786
862.189	0.0162315
862.267	0.0162442
862.346	0.0161473
862.424	0.0161242
862.502	0.0161512
862.580	0.0161286
862.658	0.0162162
862.736	0.0161657
862.814	0.0161514
862.892	0.0162142
862.971	0.0161951
863.049	0.0162050
863.127	0.0162802
863.205	0.0161331
863.283	0.0160304
863.361	0.0161575
863.439	0.0161472
863.517	0.0161749
863.596	0.0163119
863.674	0.0162193
863.752	0.0161736
863.830	0.0162308
863.908	0.0163088
863.986	0.0165573
864.064	0.0165914
864.142	0.0165651
864.221	0.0165438
864.299	0.0166573
864.377	0.0167598
864.455	0.0166959
864.533	0.0169160
864.611	0.0169635
864.689	0.0169821
864.767	0.0168694
864.846	0.0169485
864.924	0.0170458
865.002	0.0171706
865.080	0.0171041
865.158	0.0171718
865.236	0.0171899
865.314	0.0171186
865.392	0.0170236
865.471	0.0170919
865.549	0.0170717
865.627	0.0171541
865.705	0.0169416
865.783	0.0168016
865.861	0.0169065
865.939	0.0169049
866.017	0.0166996
866.096	0.0166709
866.174	0.0167666
866.252	0.0164630
866.330	0.0165039
866.408	0.0162636
866.486	0.0162754
866.564	0.0163116
866.642	0.0160987
866.721	0.0160094
866.799	0.0158028
866.877	0.0159448
866.955	0.0158234
867.033	0.0157159
867.111	0.0156012
867.189	0.0157031
867.267	0.0154752
867.346	0.0154176
867.424	0.0154606
867.502	0.0153085
867.580	0.0153388
867.658	0.0154652
867.736	0.0152328
867.814	0.0153054
867.892	0.0153416
867.971	0.0153593
868.049	0.0154245
868.127	0.0153736
868.205	0.0153180
868.283	0.0155106
868.361	0.0154914
868.439	0.0154890
868.517	0.0154857
868.596	0.0156556
868.674	0.0156326
868.752	0.0156815
868.830	0.0158395
868.908	0.0159103
868.986	0.0158890
869.064	0.0157366
869.142	0.0158913
869.221	0.0159805
869.299	0.0161324
869.377	0.0160304
869.455	0.0160445
869.533	0.0161253
869.611	0.0160651
869.689	0.0160976
869.767	0.0161084
869.846	0.0162276
869.924	0.0161153
870.002	0.0161957
870.080	0.0163521
870.158	0.0162786
870.236	0.0162744
870.314	0.0164281
870.392	0.0164688
870.471	0.0164192
870.549	0.0165446
870.627	0.0164710
870.705	0.0165038
870.783	0.0165501
870.861	0.0164807
870.939	0.0165376
871.017	0.0166169
871.096	0.0164505
871.174	0.0164377
871.252	0.0162581
871.330	0.0163710
871.408	0.0163781
871.486	0.0162962
871.564	0.0164728
871.642	0.0163008
871.721	0.0162631
871.799	0.0163558
871.877	0.0162445
871.955	0.0163947
872.033	0.0163177
872.111	0.0164483
872.189	0.0164024
872.267	0.0164549
872.346	0.0163488
872.424	0.0163799
872.502	0.0163724
872.580	0.0163943
872.658	0.0163208
872.736	0.0164026
872.814	0.0164244
872.892	0.0164920
872.971	0.0164143
873.049	0.0164591
873.127	0.0164606
873.205	0.0162935
873.283	0.0163746
873.361	0.0163749
873.439	0.0164923
873.517	0.0164331
873.596	0.0164240
873.674	0.0163669
873.752	0.0163414
873.830	0.0164295
873.908	0.0163653
873.986	0.0163969
874.064	0.0163862
874.142	0.0164619
874.221	0.0165181
874.299	0.0164046
874.377	0.0163193
874.455	0.0163911
874.533	0.0164220
874.611	0.0163007
874.689	0.0163620
874.767	0.0163931
874.846	0.0163280
874.924	0.0163446
875.002	0.0162431
875.080	0.0162230
875.158	0.0162095
875.236	0.0163555
875.314	0.0162096
875.392	0.0161753
875.471	0.0161820
875.549	0.0163251
875.627	0.0161429
875.705	0.0162101
875.783	0.0162038
875.861	0.0161130
875.939	0.0160901
876.017	0.0161213
876.096	0.0163655
876.174	0.0163618
876.252	0.0163373
876.330	0.0162757
876.408	0.0163272
876.486	0.0161542
876.564	0.0162583
876.642	0.0163063
876.721	0.0164381
876.799	0.0162630
876.877	0.0162690
876.955	0.0163476
877.033	0.0164632
877.111	0.0163596
877.189	0.0163406
877.267	0.0164825
877.346	0.0163712
877.424	0.0163416
877.502	0.0162833
877.580	0.0163364
877.658	0.0162650
877.736	0.0161766
877.814	0.0162715
877.892	0.0163918
877.971	0.0161903
878.049	0.0161849
878.127	0.0161413
878.205	0.0160232
878.283	0.0159867
878.361	0.0159187
878.439	0.0160183
878.517	0.0160667
878.596	0.0160933
878.674	0.0160905
878.752	0.0159316
878.830	0.0160612
878.908	0.0160503
878.986	0.0159801
879.064	0.0159843
879.142	0.0160350
879.221	0.0161514
879.299	0.0162400
879.377	0.0162637
879.455	0.0162982
879.533	0.0162419
879.611	0.0163646
879.689	0.0163121
879.767	0.0163794
879.846	0.0163212
879.924	0.0163657
880.002	0.0164275
880.080	0.0162828
880.158	0.0162842
880.236	0.0164114
880.314	0.0162994
880.392	0.0163198
880.471	0.0162920
880.549	0.0161884
880.627	0.0162486
880.705	0.0162785
880.783	0.0161773
880.861	0.0164064
880.939	0.0163743
881.017	0.0162632
881.096	0.0163326
881.174	0.0163596
881.252	0.0163976
881.330	0.0163877
881.408	0.0163542
881.486	0.0163377
881.564	0.0164073
881.642	0.0163336
881.721	0.0164436
881.799	0.0162331
881.877	0.0163315
881.955	0.0163179
882.033	0.0163145
882.111	0.0162615
882.189	0.0161921
882.267	0.0162205
882.346	0.0163770
882.424	0.0162276
882.502	0.0164255
882.580	0.0163802
882.658	0.0163008
882.736	0.0163448
882.814	0.0163789
882.892	0.0162999
882.971	0.0164137
883.049	0.0163627
883.127	0.0163709
883.205	0.0164113
883.283	0.0164682
883.361	0.0163771
883.439	0.0164207
883.517	0.0164768
883.596	0.0164478
883.674	0.0163795
883.752	0.0164627
883.830	0.0164546
883.908	0.0163625
883.986	0.0164210
884.064	0.0164458
884.142	0.0163473
884.221	0.0163343
884.299	0.0164425
884.377	0.0163177
884.455	0.0163593
884.533	0.0163048
884.611	0.0160915
884.689	0.0163796
884.767	0.0164342
884.846	0.0164885
884.924	0.0161321
885.002	0.0161760
885.080	0.0162569
885.158	0.0161887
885.236	0.0161622
885.314	0.0161577
885.392	0.0161298
885.471	0.0161574
885.549	0.0161703
885.627	0.0161301
885.705	0.0160724
885.783	0.0161261
885.861	0.0161398
885.939	0.0163283
886.017	0.0160928
886.096	0.0160970
886.174	0.0161588
886.252	0.0161147
886.330	0.0161532
886.408	0.0160599
886.486	0.0160806
886.564	0.0161790
886.642	0.0161679
886.721	0.0161548
886.799	0.0161740
886.877	0.0160998
886.955	0.0162302
887.033	0.0161578
887.111	0.0161150
887.189	0.0161647
887.267	0.0161937
887.346	0.0161013
887.424	0.0161773
887.502	0.0161604
887.580	0.0161630
887.658	0.0161850
887.736	0.0161040
887.814	0.0159767
887.892	0.0161507
887.971	0.0161346
888.049	0.0163049
888.127	0.0160417
888.205	0.0161249
888.283	0.0161747
888.361	0.0162716
888.439	0.0160686
888.517	0.0161172
888.596	0.0160143
888.674	0.0160332
888.752	0.0162453
888.830	0.0160895
888.908	0.0161827
888.986	0.0161649
889.064	0.0162212
889.142	0.0161814
889.221	0.0161275
889.299	0.0162004
889.377	0.0161959
889.455	0.0162782
889.533	0.0163263
889.611	0.0163689
889.689	0.0163680
889.767	0.0163608
889.846	0.0163841
889.924	0.0162666
890.002	0.0163076
890.080	0.0164513
890.158	0.0165868
890.236	0.0163853
890.314	0.0164135
890.392	0.0164126
890.471	0.0164101
890.549	0.0164245
890.627	0.0164534
890.705	0.0164067
890.783	0.0163546
890.861	0.0163046
890.939	0.0163638
891.017	0.0164020
891.096	0.0163666
891.174	0.0163786
891.252	0.0164420
891.330	0.0162928
891.408	0.0161604
891.486	0.0162665
891.564	0.0162807
891.642	0.0161597
891.721	0.0160318
891.799	0.0161655
891.877	0.0161263
891.955	0.0160129
892.033	0.0158994
892.111	0.0160746
892.189	0.0159624
892.267	0.0158875
892.346	0.0156855
892.424	0.0157043
892.502	0.0157963
892.580	0.0157243
892.658	0.0155971
892.736	0.0156965
892.814	0.0158047
892.892	0.0158121
892.971	0.0158114
893.049	0.0158350
893.127	0.0158267
893.205	0.0157061
893.283	0.0157544
893.361	0.0157601
893.439	0.0158907
893.517	0.0157980
893.596	0.0159504
893.674	0.0160175
893.752	0.0158472
893.830	0.0160085
893.908	0.0160099
893.986	0.0160916
894.064	0.0161878
894.142	0.0159015
894.221	0.0159521
894.299	0.0161118
894.377	0.0161376
894.455	0.0161989
894.533	0.0161697
894.611	0.0161968
894.689	0.0162648
894.767	0.0162778
894.846	0.0162373
894.924	0.0164207
895.002	0.0164452
895.080	0.0163824
895.158	0.0163842
895.236	0.0164024
895.314	0.0163668
895.392	0.0164336
895.471	0.0166673
895.549	0.0163698
895.627	0.0163900
895.705	0.0163084
895.783	0.0163181
895.861	0.0162753
895.939	0.0162531
896.017	0.0163770
896.096	0.0162057
896.174	0.0163425
896.252	0.0162093
896.330	0.0162447
896.408	0.0161340
896.486	0.0161906
896.564	0.0162363
896.642	0.0162284
896.721	0.0161358
896.799	0.0161784
896.877	0.0163276
896.955	0.0161472
897.033	0.0160803
897.111	0.0162379
897.189	0.0163158
897.267	0.0162009
897.346	0.0162768
897.424	0.0162311
897.502	0.0162808
897.580	0.0164979
897.658	0.0162311
897.736	0.0161895
897.814	0.0163079
897.892	0.0163682
897.971	0.0164603
898.049	0.0164054
898.127	0.0164218
898.205	0.0164808
898.283	0.0164997
898.361	0.0163298
898.439	0.0163190
898.517	0.0164310
898.596	0.0164385
898.674	0.0164710
898.752	0.0166068
898.830	0.0166404
898.908	0.0163432
898.986	0.0165034
899.064	0.0164929
899.142	0.0164232
899.221	0.0164223
899.299	0.0163545
899.377	0.0163571
899.455	0.0162079
899.533	0.0162876
899.611	0.0162902
899.689	0.0163417
899.767	0.0162949
899.846	0.0162486
899.924	0.0162952
900.002	0.0162024
900.080	0.0162453
900.158	0.0162795
900.236	0.0164158
900.314	0.0161424
900.392	0.0161098
900.471	0.0161772
900.549	0.0162189
900.627	0.0161397
900.705	0.0161266
900.783	0.0161720
900.861	0.0162196
900.939	0.0160518
901.017	0.0162103
901.096	0.0161845
901.174	0.0161169
901.252	0.0161610
901.330	0.0161269
901.408	0.0161214
901.486	0.0160242
901.564	0.0163276
901.642	0.0161155
901.721	0.0160124
901.799	0.0161750
901.877	0.0161449
901.955	0.0160439
902.033	0.0160585
902.111	0.0161807
902.189	0.0160468
902.267	0.0161359
902.346	0.0161047
902.424	0.0160159
902.502	0.0161124
902.580	0.0160808
902.658	0.0161163
902.736	0.0160891
902.814	0.0160444
902.892	0.0160374
902.971	0.0160302
903.049	0.0159073
903.127	0.0159240
903.205	0.0160042
903.283	0.0159620
903.361	0.0159327
903.439	0.0159528
903.517	0.0159125
903.596	0.0159759
903.674	0.0159531
903.752	0.0159955
903.830	0.0159329
903.908	0.0160043
903.986	0.0159344
904.064	0.0161553
904.142	0.0160017
904.221	0.0160188
904.299	0.0160998
904.377	0.0160743
904.455	0.0160114
904.533	0.0159129
904.611	0.0160276
904.689	0.0161662
904.767	0.0161097
904.846	0.0161066
904.924	0.0160485
905.002	0.0161549
905.080	0.0161700
905.158	0.0160963
905.236	0.0161543
905.314	0.0163139
905.392	0.0162448
905.471	0.0163359
905.549	0.0162551
905.627	0.0163650
905.705	0.0163097
905.783	0.0162897
905.861	0.0165324
905.939	0.0163553
906.017	0.0165542
906.096	0.0164156
906.174	0.0163664
906.252	0.0164849
906.330	0.0165004
906.408	0.0166986
906.486	0.0164830
906.564	0.0163640
906.642	0.0164310
906.721	0.0164049
906.799	0.0163667
906.877	0.0164616
906.955	0.0162254
907.033	0.0163013
907.111	0.0162891
907.189	0.0163830
907.267	0.0161288
907.346	0.0162338
907.424	0.0161060
907.502	0.0160148
907.580	0.0160080
907.658	0.0159185
907.736	0.0158415
907.814	0.0158126
907.892	0.0159082
907.971	0.0158424
908.049	0.0157777
908.127	0.0159355
908.205	0.0157889
908.283	0.0159130
908.361	0.0159657
908.439	0.0157964
908.517	0.0156834
908.596	0.0156953
908.674	0.0157637
908.752	0.0158982
908.830	0.0158252
908.908	0.0157655
908.986	0.0158434
909.064	0.0159763
909.142	0.0158909
909.221	0.0159141
909.299	0.0159577
909.377	0.0159029
909.455	0.0160348
909.533	0.0158765
909.611	0.0158881
909.689	0.0159940
909.767	0.0159124
909.846	0.0160200
909.924	0.0159293
910.002	0.0160347
910.080	0.0161224
910.158	0.0159388
910.236	0.0159298
910.314	0.0160275
910.392	0.0162066
910.471	0.0161854
910.549	0.0160899
910.627	0.0160908
910.705	0.0161671
910.783	0.0161945
910.861	0.0162708
910.939	0.0161221
911.017	0.0162941
911.096	0.0162783
911.174	0.0163143
911.252	0.0161669
911.330	0.0160815
911.408	0.0162541
911.486	0.0162112
911.564	0.0163282
911.642	0.0164444
911.721	0.0162703
911.799	0.0162820
911.877	0.0160439
911.955	0.0161472
912.033	0.0161575
912.111	0.0161881
912.189	0.0161750
912.267	0.0162851
912.346	0.0161922
912.424	0.0161674
912.502	0.0162508
912.580	0.0161874
912.658	0.0162708
912.736	0.0162790
912.814	0.0162360
912.892	0.0161490
912.971	0.0161815
913.049	0.0161082
913.127	0.0161396
913.205	0.0161794
913.283	0.0162457
913.361	0.0161287
913.439	0.0159824
913.517	0.0160162
913.596	0.0161289
913.674	0.0160439
913.752	0.0161521
913.830	0.0161121
913.908	0.0161813
913.986	0.0161339
914.064	0.0161532
914.142	0.0161195
914.221	0.0161278
914.299	0.0161645
914.377	0.0161994
914.455	0.0161289
914.533	0.0162949
914.611	0.0160746
914.689	0.0161703
914.767	0.0161563
914.846	0.0162180
914.924	0.0161773
915.002	0.0160890
915.080	0.0161963
915.158	0.0163301
915.236	0.0162080
915.314	0.0163134
915.392	0.0161954
915.471	0.0162370
915.549	0.0163133
915.627	0.0163052
915.705	0.0163204
915.783	0.0164478
915.861	0.0163512
915.939	0.0164351
916.017	0.0163504
916.096	0.0162888
916.174	0.0164021
916.252	0.0162733
916.330	0.0164481
916.408	0.0162959
916.486	0.0162204
916.564	0.0163763
916.642	0.0163632
916.721	0.0163269
916.799	0.0163335
916.877	0.0164269
916.955	0.0164515
917.033	0.0164298
917.111	0.0164847
917.189	0.0164859
917.267	0.0163618
917.346	0.0166016
917.424	0.0165271
917.502	0.0166888
917.580	0.0165021
917.658	0.0166882
917.736	0.0166138
917.814	0.0165990
917.892	0.0166990
917.971	0.0167056
918.049	0.0166692
918.127	0.0165730
918.205	0.0166885
918.283	0.0167481
918.361	0.0165826
918.439	0.0167387
918.517	0.0167391
918.596	0.0166752
918.674	0.0165994
918.752	0.0165400
918.830	0.0165408
918.908	0.0165819
918.986	0.0166745
919.064	0.0166461
919.142	0.0166736
919.221	0.0165979
919.299	0.0164663
919.377	0.0166129
919.455	0.0166304
919.533	0.0166505
919.611	0.0165243
919.689	0.0166440
919.767	0.0166019
919.846	0.0165461
919.924	0.0164194
