06/29/2022	21:45:55	Ver.	4.1	UNKNOWN
Optical Delay	600.001752	Delta X		0.078125	Sweeps	1	Scan Rate	0/0
Coordinates	Axis 1	NaN	Axis 2	NaN	Axis 3	NaN	Axis 4	NaN	Axis 5	NaN	Axis 6	0.000000
TX Power	0.000000	RX Power	0.000000

600.002	0.0171468
600.080	0.0166230
600.158	0.0164642
600.236	0.0164577
600.314	0.0164812
600.392	0.0164637
600.471	0.0162718
600.549	0.0163118
600.627	0.0162291
600.705	0.0163748
600.783	0.0162300
600.861	0.0162613
600.939	0.0163624
601.017	0.0162836
601.096	0.0161000
601.174	0.0161491
601.252	0.0160789
601.330	0.0160931
601.408	0.0160748
601.486	0.0160733
601.564	0.0161266
601.642	0.0160631
601.721	0.0160721
601.799	0.0161784
601.877	0.0159598
601.955	0.0160272
602.033	0.0161791
602.111	0.0162724
602.189	0.0162334
602.267	0.0161208
602.346	0.0162543
602.424	0.0161655
602.502	0.0162059
602.580	0.0160489
602.658	0.0159379
602.736	0.0160699
602.814	0.0160045
602.892	0.0158885
602.971	0.0159034
603.049	0.0159810
603.127	0.0159819
603.205	0.0160830
603.283	0.0158762
603.361	0.0158010
603.439	0.0159264
603.517	0.0160435
603.596	0.0158070
603.674	0.0158938
603.752	0.0159024
603.830	0.0159650
603.908	0.0158961
603.986	0.0158517
604.064	0.0159388
604.142	0.0160420
604.221	0.0159895
604.299	0.0158155
604.377	0.0157753
604.455	0.0158326
604.533	0.0157827
604.611	0.0158216
604.689	0.0157722
604.767	0.0157081
604.846	0.0157207
604.924	0.0159262
605.002	0.0158779
605.080	0.0158128
605.158	0.0160164
605.236	0.0160545
605.314	0.0161263
605.392	0.0161317
605.471	0.0161539
605.549	0.0162702
605.627	0.0162014
605.705	0.0162836
605.783	0.0163914
605.861	0.0164082
605.939	0.0165417
606.017	0.0165202
606.096	0.0165537
606.174	0.0165098
606.252	0.0165637
606.330	0.0166946
606.408	0.0166183
606.486	0.0166252
606.564	0.0167356
606.642	0.0168290
606.721	0.0168580
606.799	0.0169722
606.877	0.0169830
606.955	0.0170702
607.033	0.0170190
607.111	0.0170802
607.189	0.0167717
607.267	0.0166078
607.346	0.0163228
607.424	0.0158884
607.502	0.0155624
607.580	0.0155321
607.658	0.0153157
607.736	0.0151654
607.814	0.0149391
607.892	0.0150513
607.971	0.0150285
608.049	0.0151318
608.127	0.0152215
608.205	0.0153625
608.283	0.0154840
608.361	0.0157150
608.439	0.0156687
608.517	0.0158881
608.596	0.0161110
608.674	0.0159238
608.752	0.0160705
608.830	0.0162337
608.908	0.0161929
608.986	0.0161591
609.064	0.0160516
609.142	0.0162987
609.221	0.0164072
609.299	0.0162471
609.377	0.0163083
609.455	0.0162013
609.533	0.0162530
609.611	0.0161703
609.689	0.0160751
609.767	0.0159241
609.846	0.0160302
609.924	0.0158838
610.002	0.0158625
610.080	0.0160014
610.158	0.0159421
610.236	0.0157623
610.314	0.0158044
610.392	0.0158541
610.471	0.0158021
610.549	0.0158376
610.627	0.0158904
610.705	0.0157714
610.783	0.0158105
610.861	0.0158359
610.939	0.0158218
611.017	0.0160230
611.096	0.0158307
611.174	0.0159633
611.252	0.0160587
611.330	0.0160154
611.408	0.0158836
611.486	0.0159472
611.564	0.0161787
611.642	0.0161504
611.721	0.0162166
611.799	0.0160693
611.877	0.0163818
611.955	0.0163640
612.033	0.0163155
612.111	0.0164357
612.189	0.0165347
612.267	0.0165630
612.346	0.0165532
612.424	0.0166187
612.502	0.0166354
612.580	0.0167912
612.658	0.0167931
612.736	0.0169154
612.814	0.0169940
612.892	0.0170760
612.971	0.0170172
613.049	0.0172568
613.127	0.0171564
613.205	0.0171178
613.283	0.0171053
613.361	0.0171860
613.439	0.0170921
613.517	0.0170602
613.596	0.0171080
613.674	0.0170037
613.752	0.0169791
613.830	0.0168259
613.908	0.0168408
613.986	0.0169444
614.064	0.0168192
614.142	0.0167894
614.221	0.0167880
614.299	0.0166802
614.377	0.0169083
614.455	0.0168384
614.533	0.0167181
614.611	0.0167974
614.689	0.0166691
614.767	0.0165779
614.846	0.0165054
614.924	0.0164146
615.002	0.0165456
615.080	0.0165284
615.158	0.0162022
615.236	0.0162280
615.314	0.0162865
615.392	0.0162681
615.471	0.0161793
615.549	0.0161104
615.627	0.0159116
615.705	0.0160672
615.783	0.0160456
615.861	0.0159383
615.939	0.0158823
616.017	0.0157958
616.096	0.0157350
616.174	0.0156902
616.252	0.0157096
616.330	0.0157145
616.408	0.0157608
616.486	0.0157767
616.564	0.0157719
616.642	0.0156113
616.721	0.0156896
616.799	0.0157270
616.877	0.0156307
616.955	0.0156455
617.033	0.0154884
617.111	0.0156519
617.189	0.0155030
617.267	0.0156277
617.346	0.0154453
617.424	0.0154903
617.502	0.0154217
617.580	0.0154371
617.658	0.0154642
617.736	0.0155054
617.814	0.0155455
617.892	0.0156035
617.971	0.0154687
618.049	0.0154076
618.127	0.0154408
618.205	0.0155658
618.283	0.0155470
618.361	0.0156171
618.439	0.0156154
618.517	0.0156288
618.596	0.0157702
618.674	0.0155483
618.752	0.0155276
618.830	0.0153907
618.908	0.0152584
618.986	0.0152431
619.064	0.0152396
619.142	0.0150797
619.221	0.0150204
619.299	0.0148820
619.377	0.0150600
619.455	0.0151463
619.533	0.0150243
619.611	0.0151905
619.689	0.0153344
619.767	0.0153719
619.846	0.0155785
619.924	0.0156233
620.002	0.0154588
620.080	0.0156611
620.158	0.0157420
620.236	0.0157815
620.314	0.0158584
620.392	0.0158691
620.471	0.0158253
620.549	0.0159852
620.627	0.0161136
620.705	0.0159998
620.783	0.0159533
620.861	0.0161008
620.939	0.0160758
621.017	0.0160972
621.096	0.0159949
621.174	0.0160902
621.252	0.0160884
621.330	0.0160757
621.408	0.0161376
621.486	0.0161303
621.564	0.0161124
621.642	0.0161239
621.721	0.0160553
621.799	0.0161677
621.877	0.0161342
621.955	0.0159500
622.033	0.0159769
622.111	0.0160942
622.189	0.0160472
622.267	0.0158944
622.346	0.0158314
622.424	0.0159557
622.502	0.0160979
622.580	0.0159904
622.658	0.0159793
622.736	0.0158870
622.814	0.0158259
622.892	0.0158208
622.971	0.0159004
623.049	0.0160861
623.127	0.0160605
623.205	0.0161031
623.283	0.0161668
623.361	0.0161049
623.439	0.0161144
623.517	0.0161519
623.596	0.0161992
623.674	0.0160637
623.752	0.0162263
623.830	0.0163757
623.908	0.0163833
623.986	0.0163570
624.064	0.0164428
624.142	0.0164499
624.221	0.0163355
624.299	0.0164175
624.377	0.0163354
624.455	0.0164797
624.533	0.0163673
624.611	0.0164245
624.689	0.0164436
624.767	0.0165225
624.846	0.0165670
624.924	0.0165252
625.002	0.0166048
625.080	0.0164580
625.158	0.0164724
625.236	0.0166228
625.314	0.0165242
625.392	0.0164497
625.471	0.0165283
625.549	0.0164666
625.627	0.0166517
625.705	0.0166523
625.783	0.0166373
625.861	0.0164004
625.939	0.0163849
626.017	0.0163487
626.096	0.0164056
626.174	0.0162517
626.252	0.0163441
626.330	0.0163158
626.408	0.0163520
626.486	0.0162976
626.564	0.0162946
626.642	0.0161125
626.721	0.0162164
626.799	0.0161662
626.877	0.0160889
626.955	0.0161572
627.033	0.0162060
627.111	0.0161311
627.189	0.0163150
627.267	0.0162842
627.346	0.0161035
627.424	0.0161942
627.502	0.0162523
627.580	0.0161727
627.658	0.0162230
627.736	0.0161385
627.814	0.0161714
627.892	0.0161586
627.971	0.0162025
628.049	0.0162221
628.127	0.0163644
628.205	0.0162020
628.283	0.0162034
628.361	0.0161715
628.439	0.0162598
628.517	0.0163049
628.596	0.0161089
628.674	0.0161755
628.752	0.0162309
628.830	0.0160478
628.908	0.0162162
628.986	0.0160412
629.064	0.0158170
629.142	0.0158589
629.221	0.0158519
629.299	0.0158601
629.377	0.0158064
629.455	0.0157620
629.533	0.0157901
629.611	0.0157561
629.689	0.0157700
629.767	0.0158913
629.846	0.0157620
629.924	0.0158841
630.002	0.0158527
630.080	0.0159212
630.158	0.0159083
630.236	0.0159590
630.314	0.0159251
630.392	0.0159320
630.471	0.0158490
630.549	0.0158977
630.627	0.0158070
630.705	0.0157587
630.783	0.0157826
630.861	0.0157262
630.939	0.0158176
631.017	0.0157334
631.096	0.0158164
631.174	0.0157668
631.252	0.0157402
631.330	0.0157584
631.408	0.0156087
631.486	0.0157726
631.564	0.0158392
631.642	0.0156342
631.721	0.0156915
631.799	0.0156829
631.877	0.0157977
631.955	0.0156851
632.033	0.0156364
632.111	0.0159065
632.189	0.0157501
632.267	0.0158409
632.346	0.0160751
632.424	0.0159805
632.502	0.0159216
632.580	0.0159681
632.658	0.0162003
632.736	0.0161532
632.814	0.0160020
632.892	0.0162702
632.971	0.0162027
633.049	0.0162128
633.127	0.0163256
633.205	0.0163736
633.283	0.0163975
633.361	0.0164593
633.439	0.0163927
633.517	0.0164040
633.596	0.0166508
633.674	0.0165713
633.752	0.0166403
633.830	0.0167084
633.908	0.0166669
633.986	0.0168742
634.064	0.0167520
634.142	0.0167246
634.221	0.0167878
634.299	0.0168285
634.377	0.0169907
634.455	0.0168331
634.533	0.0168452
634.611	0.0168327
634.689	0.0168726
634.767	0.0167686
634.846	0.0167453
634.924	0.0167262
635.002	0.0167006
635.080	0.0167730
635.158	0.0166257
635.236	0.0165571
635.314	0.0167627
635.392	0.0167822
635.471	0.0166129
635.549	0.0165824
635.627	0.0167355
635.705	0.0166769
635.783	0.0167406
635.861	0.0166954
635.939	0.0166660
636.017	0.0167391
636.096	0.0167702
636.174	0.0168443
636.252	0.0167545
636.330	0.0166173
636.408	0.0166685
636.486	0.0166762
636.564	0.0166720
636.642	0.0166345
636.721	0.0167966
636.799	0.0166483
636.877	0.0165514
636.955	0.0164008
637.033	0.0165761
637.111	0.0166212
637.189	0.0163853
637.267	0.0163474
637.346	0.0163689
637.424	0.0163489
637.502	0.0162814
637.580	0.0162924
637.658	0.0164460
637.736	0.0162413
637.814	0.0162786
637.892	0.0161855
637.971	0.0161274
638.049	0.0160330
638.127	0.0160516
638.205	0.0158232
638.283	0.0157787
638.361	0.0158007
638.439	0.0158459
638.517	0.0159315
638.596	0.0156599
638.674	0.0156544
638.752	0.0156982
638.830	0.0156578
638.908	0.0156406
638.986	0.0154996
639.064	0.0157212
639.142	0.0156324
639.221	0.0157137
639.299	0.0156666
639.377	0.0156788
639.455	0.0157610
639.533	0.0157209
639.611	0.0156700
639.689	0.0157787
639.767	0.0157247
639.846	0.0158126
639.924	0.0157929
640.002	0.0157436
640.080	0.0157806
640.158	0.0159484
640.236	0.0159859
640.314	0.0157888
640.392	0.0157673
640.471	0.0158104
640.549	0.0160232
640.627	0.0160092
640.705	0.0160584
640.783	0.0160963
640.861	0.0158970
640.939	0.0158231
641.017	0.0159718
641.096	0.0158351
641.174	0.0159506
641.252	0.0160090
641.330	0.0160114
641.408	0.0158924
641.486	0.0159793
641.564	0.0158607
641.642	0.0159745
641.721	0.0161332
641.799	0.0161343
641.877	0.0160994
641.955	0.0160876
642.033	0.0160785
642.111	0.0160139
642.189	0.0160622
642.267	0.0162447
642.346	0.0158799
642.424	0.0158641
642.502	0.0160139
642.580	0.0161978
642.658	0.0161874
642.736	0.0160136
642.814	0.0161677
642.892	0.0160350
642.971	0.0159210
643.049	0.0160566
643.127	0.0161661
643.205	0.0160461
643.283	0.0162349
643.361	0.0163522
643.439	0.0162138
643.517	0.0162138
643.596	0.0162286
643.674	0.0162318
643.752	0.0162295
643.830	0.0162175
643.908	0.0161427
643.986	0.0162893
644.064	0.0162779
644.142	0.0161423
644.221	0.0161024
644.299	0.0160936
644.377	0.0160794
644.455	0.0160378
644.533	0.0159863
644.611	0.0160922
644.689	0.0160891
644.767	0.0159124
644.846	0.0159990
644.924	0.0160341
645.002	0.0160194
645.080	0.0160699
645.158	0.0160606
645.236	0.0160928
645.314	0.0159721
645.392	0.0160187
645.471	0.0160982
645.549	0.0159274
645.627	0.0160859
645.705	0.0159805
645.783	0.0158693
645.861	0.0158145
645.939	0.0159556
646.017	0.0159177
646.096	0.0159149
646.174	0.0157629
646.252	0.0159732
646.330	0.0159467
646.408	0.0158662
646.486	0.0157486
646.564	0.0158239
646.642	0.0158604
646.721	0.0159572
646.799	0.0158981
646.877	0.0157050
646.955	0.0156422
647.033	0.0156953
647.111	0.0157913
647.189	0.0157418
647.267	0.0155956
647.346	0.0156638
647.424	0.0158728
647.502	0.0158182
647.580	0.0157051
647.658	0.0156403
647.736	0.0157903
647.814	0.0156679
647.892	0.0156111
647.971	0.0157817
648.049	0.0157312
648.127	0.0156422
648.205	0.0157632
648.283	0.0160128
648.361	0.0158885
648.439	0.0159093
648.517	0.0159069
648.596	0.0159587
648.674	0.0158382
648.752	0.0160050
648.830	0.0159931
648.908	0.0159207
648.986	0.0160138
649.064	0.0162028
649.142	0.0161285
649.221	0.0160619
649.299	0.0160801
649.377	0.0161906
649.455	0.0160495
649.533	0.0160283
649.611	0.0161841
649.689	0.0162366
649.767	0.0161651
649.846	0.0161327
649.924	0.0162666
650.002	0.0161211
650.080	0.0161977
650.158	0.0162024
650.236	0.0161146
650.314	0.0160240
650.392	0.0160611
650.471	0.0160425
650.549	0.0159939
650.627	0.0160077
650.705	0.0160824
650.783	0.0160134
650.861	0.0160427
650.939	0.0160973
651.017	0.0160572
651.096	0.0160720
651.174	0.0159521
651.252	0.0160658
651.330	0.0161227
651.408	0.0160719
651.486	0.0161121
651.564	0.0160697
651.642	0.0161047
651.721	0.0161633
651.799	0.0160943
651.877	0.0161431
651.955	0.0161922
652.033	0.0159723
652.111	0.0161829
652.189	0.0161787
652.267	0.0160275
652.346	0.0162031
652.424	0.0162936
652.502	0.0162202
652.580	0.0161803
652.658	0.0162447
652.736	0.0163109
652.814	0.0161028
652.892	0.0160339
652.971	0.0161892
653.049	0.0161745
653.127	0.0162082
653.205	0.0160023
653.283	0.0161234
653.361	0.0163639
653.439	0.0160614
653.517	0.0161087
653.596	0.0160828
653.674	0.0160185
653.752	0.0160963
653.830	0.0163171
653.908	0.0160317
653.986	0.0162455
654.064	0.0161977
654.142	0.0162125
654.221	0.0161392
654.299	0.0161913
654.377	0.0161876
654.455	0.0161417
654.533	0.0161513
654.611	0.0161383
654.689	0.0161469
654.767	0.0160577
654.846	0.0161599
654.924	0.0161752
655.002	0.0161826
655.080	0.0159505
655.158	0.0159478
655.236	0.0162431
655.314	0.0160120
655.392	0.0159763
655.471	0.0158910
655.549	0.0158678
655.627	0.0160863
655.705	0.0159806
655.783	0.0160506
655.861	0.0158222
655.939	0.0159897
656.017	0.0161685
656.096	0.0161615
656.174	0.0158923
656.252	0.0159455
656.330	0.0162157
656.408	0.0160474
656.486	0.0160947
656.564	0.0161078
656.642	0.0162155
656.721	0.0162321
656.799	0.0162285
656.877	0.0162961
656.955	0.0163110
657.033	0.0163503
657.111	0.0162317
657.189	0.0164648
657.267	0.0163811
657.346	0.0163361
657.424	0.0163906
657.502	0.0162848
657.580	0.0163525
657.658	0.0163614
657.736	0.0164478
657.814	0.0163296
657.892	0.0164523
657.971	0.0164874
658.049	0.0164563
658.127	0.0164480
658.205	0.0165595
658.283	0.0163736
658.361	0.0164397
658.439	0.0163505
658.517	0.0162687
658.596	0.0165398
658.674	0.0163716
658.752	0.0163210
658.830	0.0164540
658.908	0.0163816
658.986	0.0165017
659.064	0.0166393
659.142	0.0165359
659.221	0.0165306
659.299	0.0166993
659.377	0.0166727
659.455	0.0165784
659.533	0.0166161
659.611	0.0167133
659.689	0.0166994
659.767	0.0166525
659.846	0.0167252
659.924	0.0167333
660.002	0.0166260
660.080	0.0166357
660.158	0.0166755
660.236	0.0166103
660.314	0.0166430
660.392	0.0166123
660.471	0.0167645
660.549	0.0166878
660.627	0.0165600
660.705	0.0166241
660.783	0.0165877
660.861	0.0167679
660.939	0.0166090
661.017	0.0164655
661.096	0.0165148
661.174	0.0164412
661.252	0.0165488
661.330	0.0164237
661.408	0.0163477
661.486	0.0164959
661.564	0.0165598
661.642	0.0165144
661.721	0.0165054
661.799	0.0164405
661.877	0.0163970
661.955	0.0162985
662.033	0.0164157
662.111	0.0162580
662.189	0.0162657
662.267	0.0164395
662.346	0.0162839
662.424	0.0161294
662.502	0.0163582
662.580	0.0163241
662.658	0.0162236
662.736	0.0162021
662.814	0.0162880
662.892	0.0162637
662.971	0.0161759
663.049	0.0161140
663.127	0.0161286
663.205	0.0160674
663.283	0.0161464
663.361	0.0160999
663.439	0.0160651
663.517	0.0160614
663.596	0.0160147
663.674	0.0159891
663.752	0.0158858
663.830	0.0158549
663.908	0.0157816
663.986	0.0157311
664.064	0.0157387
664.142	0.0155711
664.221	0.0154996
664.299	0.0154971
664.377	0.0156609
664.455	0.0156085
664.533	0.0155612
664.611	0.0155932
664.689	0.0154384
664.767	0.0155963
664.846	0.0156656
664.924	0.0154689
665.002	0.0156666
665.080	0.0156703
665.158	0.0157185
665.236	0.0156644
665.314	0.0156136
665.392	0.0158336
665.471	0.0157673
665.549	0.0158094
665.627	0.0159751
665.705	0.0159409
665.783	0.0158275
665.861	0.0160094
665.939	0.0159292
666.017	0.0160880
666.096	0.0159654
666.174	0.0160643
666.252	0.0160993
666.330	0.0161623
666.408	0.0160889
666.486	0.0159388
666.564	0.0161010
666.642	0.0160622
666.721	0.0160756
666.799	0.0158630
666.877	0.0159376
666.955	0.0157129
667.033	0.0156928
667.111	0.0157243
667.189	0.0157890
667.267	0.0156745
667.346	0.0157809
667.424	0.0157517
667.502	0.0156097
667.580	0.0156255
667.658	0.0156514
667.736	0.0157034
667.814	0.0154636
667.892	0.0155947
667.971	0.0156525
668.049	0.0155946
668.127	0.0156177
668.205	0.0156522
668.283	0.0154788
668.361	0.0157292
668.439	0.0156164
668.517	0.0156802
668.596	0.0157871
668.674	0.0158449
668.752	0.0159467
668.830	0.0158234
668.908	0.0159532
668.986	0.0159081
669.064	0.0158959
669.142	0.0160658
669.221	0.0160645
669.299	0.0160933
669.377	0.0162595
669.455	0.0164371
669.533	0.0163708
669.611	0.0164845
669.689	0.0167383
669.767	0.0167439
669.846	0.0168273
669.924	0.0168015
670.002	0.0168208
670.080	0.0170200
670.158	0.0169572
670.236	0.0171532
670.314	0.0171786
670.392	0.0171848
670.471	0.0172424
670.549	0.0172099
670.627	0.0172176
670.705	0.0171324
670.783	0.0171695
670.861	0.0171655
670.939	0.0170937
671.017	0.0168994
671.096	0.0169127
671.174	0.0169367
671.252	0.0169489
671.330	0.0166933
671.408	0.0166539
671.486	0.0167095
671.564	0.0166142
671.642	0.0165347
671.721	0.0164354
671.799	0.0165083
671.877	0.0163942
671.955	0.0162592
672.033	0.0163071
672.111	0.0162853
672.189	0.0161990
672.267	0.0160092
672.346	0.0161308
672.424	0.0160841
672.502	0.0159303
672.580	0.0159705
672.658	0.0158893
672.736	0.0160738
672.814	0.0160390
672.892	0.0161339
672.971	0.0160719
673.049	0.0162151
673.127	0.0160577
673.205	0.0162158
673.283	0.0161922
673.361	0.0160989
673.439	0.0162235
673.517	0.0162192
673.596	0.0163047
673.674	0.0164410
673.752	0.0164006
673.830	0.0163745
673.908	0.0163374
673.986	0.0163641
674.064	0.0163850
674.142	0.0163425
674.221	0.0162652
674.299	0.0163139
674.377	0.0162370
674.455	0.0163096
674.533	0.0163171
674.611	0.0162943
674.689	0.0161934
674.767	0.0160653
674.846	0.0161461
674.924	0.0161798
675.002	0.0161368
675.080	0.0159639
675.158	0.0159302
675.236	0.0159757
675.314	0.0159975
675.392	0.0159528
675.471	0.0158566
675.549	0.0159175
675.627	0.0159982
675.705	0.0159849
675.783	0.0158604
675.861	0.0157816
675.939	0.0157341
676.017	0.0158418
676.096	0.0157639
676.174	0.0157111
676.252	0.0157069
676.330	0.0158037
676.408	0.0155769
676.486	0.0156573
676.564	0.0156767
676.642	0.0156957
676.721	0.0156741
676.799	0.0156043
676.877	0.0156796
676.955	0.0156647
677.033	0.0157066
677.111	0.0158200
677.189	0.0157733
677.267	0.0157685
677.346	0.0158210
677.424	0.0156138
677.502	0.0157912
677.580	0.0159971
677.658	0.0157922
677.736	0.0158585
677.814	0.0158495
677.892	0.0159750
677.971	0.0158425
678.049	0.0158012
678.127	0.0159994
678.205	0.0159480
678.283	0.0161486
678.361	0.0160829
678.439	0.0161086
678.517	0.0161107
678.596	0.0161842
678.674	0.0161600
678.752	0.0161046
678.830	0.0161932
678.908	0.0161456
678.986	0.0161263
679.064	0.0162296
679.142	0.0162377
679.221	0.0161159
679.299	0.0162399
679.377	0.0162472
679.455	0.0162513
679.533	0.0162209
679.611	0.0163516
679.689	0.0162893
679.767	0.0163448
679.846	0.0162004
679.924	0.0163849
680.002	0.0164205
680.080	0.0162409
680.158	0.0163843
680.236	0.0165318
680.314	0.0164866
680.392	0.0164342
680.471	0.0163238
680.549	0.0164954
680.627	0.0164980
680.705	0.0165761
680.783	0.0165534
680.861	0.0165308
680.939	0.0166166
681.017	0.0164229
681.096	0.0164879
681.174	0.0164085
681.252	0.0165359
681.330	0.0166158
681.408	0.0166217
681.486	0.0166262
681.564	0.0166111
681.642	0.0165529
681.721	0.0165583
681.799	0.0166531
681.877	0.0166708
681.955	0.0166958
682.033	0.0165353
682.111	0.0166951
682.189	0.0166191
682.267	0.0164970
682.346	0.0164586
682.424	0.0165643
682.502	0.0164630
682.580	0.0164783
682.658	0.0163058
682.736	0.0162956
682.814	0.0162475
682.892	0.0161934
682.971	0.0161792
683.049	0.0161420
683.127	0.0160966
683.205	0.0162393
683.283	0.0161177
683.361	0.0159830
683.439	0.0160038
683.517	0.0160017
683.596	0.0159379
683.674	0.0158411
683.752	0.0158546
683.830	0.0158292
683.908	0.0159349
683.986	0.0157767
684.064	0.0157331
684.142	0.0158568
684.221	0.0157751
684.299	0.0156288
684.377	0.0156509
684.455	0.0157793
684.533	0.0157178
684.611	0.0157294
684.689	0.0157728
684.767	0.0158044
684.846	0.0157475
684.924	0.0159576
685.002	0.0157564
685.080	0.0160450
685.158	0.0159573
685.236	0.0159404
685.314	0.0160780
685.392	0.0161377
685.471	0.0160112
685.549	0.0160608
685.627	0.0161831
685.705	0.0160980
685.783	0.0162167
685.861	0.0162817
685.939	0.0161677
686.017	0.0163395
686.096	0.0163909
686.174	0.0163406
686.252	0.0162062
686.330	0.0164024
686.408	0.0163605
686.486	0.0164068
686.564	0.0163237
686.642	0.0164159
686.721	0.0164510
686.799	0.0163754
686.877	0.0163499
686.955	0.0164448
687.033	0.0164361
687.111	0.0163560
687.189	0.0162704
687.267	0.0162938
687.346	0.0162769
687.424	0.0162832
687.502	0.0162045
687.580	0.0160831
687.658	0.0161321
687.736	0.0160522
687.814	0.0159495
687.892	0.0160646
687.971	0.0159861
688.049	0.0159232
688.127	0.0159968
688.205	0.0160307
688.283	0.0159108
688.361	0.0159624
688.439	0.0158060
688.517	0.0159690
688.596	0.0159553
688.674	0.0159637
688.752	0.0158800
688.830	0.0159066
688.908	0.0158726
688.986	0.0159661
689.064	0.0158776
689.142	0.0159139
689.221	0.0159368
689.299	0.0157935
689.377	0.0157167
689.455	0.0159348
689.533	0.0158729
689.611	0.0158376
689.689	0.0157403
689.767	0.0155656
689.846	0.0157703
689.924	0.0157150
690.002	0.0154156
690.080	0.0155150
690.158	0.0155760
690.236	0.0152544
690.314	0.0153594
690.392	0.0152958
690.471	0.0151878
690.549	0.0151916
690.627	0.0153183
690.705	0.0154230
690.783	0.0153927
690.861	0.0154288
690.939	0.0153906
691.017	0.0154687
691.096	0.0155251
691.174	0.0156262
691.252	0.0155721
691.330	0.0156903
691.408	0.0157707
691.486	0.0158000
691.564	0.0158139
691.642	0.0157982
691.721	0.0158769
691.799	0.0160104
691.877	0.0160569
691.955	0.0160205
692.033	0.0160180
692.111	0.0160200
692.189	0.0161171
692.267	0.0160620
692.346	0.0161611
692.424	0.0161177
692.502	0.0159461
692.580	0.0161418
692.658	0.0161354
692.736	0.0159724
692.814	0.0161735
692.892	0.0161939
692.971	0.0159641
693.049	0.0161767
693.127	0.0161588
693.205	0.0160661
693.283	0.0160378
693.361	0.0161631
693.439	0.0160574
693.517	0.0160007
693.596	0.0162524
693.674	0.0162234
693.752	0.0161714
693.830	0.0161310
693.908	0.0160426
693.986	0.0161818
694.064	0.0160320
694.142	0.0161514
694.221	0.0161100
694.299	0.0161982
694.377	0.0161625
694.455	0.0163142
694.533	0.0162507
694.611	0.0161720
694.689	0.0160913
694.767	0.0161288
694.846	0.0160950
694.924	0.0162513
695.002	0.0162687
695.080	0.0163156
695.158	0.0160866
695.236	0.0162244
695.314	0.0164679
695.392	0.0162542
695.471	0.0163233
695.549	0.0165910
695.627	0.0165456
695.705	0.0166026
695.783	0.0164643
695.861	0.0164671
695.939	0.0165625
696.017	0.0166148
696.096	0.0167101
696.174	0.0166803
696.252	0.0165736
696.330	0.0166434
696.408	0.0166972
696.486	0.0167802
696.564	0.0166859
696.642	0.0168736
696.721	0.0168792
696.799	0.0166911
696.877	0.0166530
696.955	0.0168487
697.033	0.0167347
697.111	0.0166494
697.189	0.0166476
697.267	0.0165661
697.346	0.0167143
697.424	0.0165527
697.502	0.0164100
697.580	0.0165352
697.658	0.0164584
697.736	0.0165003
697.814	0.0164217
697.892	0.0163988
697.971	0.0164803
698.049	0.0164699
698.127	0.0163541
698.205	0.0162383
698.283	0.0164352
698.361	0.0165726
698.439	0.0163201
698.517	0.0163619
698.596	0.0163799
698.674	0.0163166
698.752	0.0162339
698.830	0.0163955
698.908	0.0163081
698.986	0.0161669
699.064	0.0163834
699.142	0.0162846
699.221	0.0162266
699.299	0.0162650
699.377	0.0160307
699.455	0.0160723
699.533	0.0162230
699.611	0.0161500
699.689	0.0160468
699.767	0.0160528
699.846	0.0160268
699.924	0.0161255
700.002	0.0161366
700.080	0.0160240
700.158	0.0160594
700.236	0.0160092
700.314	0.0158903
700.392	0.0160068
700.471	0.0159906
700.549	0.0158512
700.627	0.0158913
700.705	0.0159634
700.783	0.0157011
700.861	0.0157036
700.939	0.0156223
701.017	0.0155994
701.096	0.0155684
701.174	0.0154901
701.252	0.0155466
701.330	0.0155486
701.408	0.0155485
701.486	0.0154218
701.564	0.0153632
701.642	0.0154101
701.721	0.0154023
701.799	0.0153446
701.877	0.0154023
701.955	0.0153628
702.033	0.0154164
702.111	0.0154601
702.189	0.0154567
702.267	0.0157066
702.346	0.0156612
702.424	0.0157159
702.502	0.0157806
702.580	0.0156238
702.658	0.0157716
702.736	0.0158663
702.814	0.0157565
702.892	0.0159055
702.971	0.0159568
703.049	0.0158144
703.127	0.0158572
703.205	0.0160009
703.283	0.0159884
703.361	0.0160194
703.439	0.0160695
703.517	0.0161600
703.596	0.0162267
703.674	0.0161559
703.752	0.0161211
703.830	0.0160457
703.908	0.0161021
703.986	0.0161683
704.064	0.0162878
704.142	0.0161211
704.221	0.0162035
704.299	0.0161329
704.377	0.0162142
704.455	0.0162499
704.533	0.0161187
704.611	0.0162627
704.689	0.0160897
704.767	0.0161565
704.846	0.0160915
704.924	0.0161223
705.002	0.0160293
705.080	0.0158569
705.158	0.0160259
705.236	0.0159639
705.314	0.0159582
705.392	0.0158781
705.471	0.0158694
705.549	0.0158341
705.627	0.0159782
705.705	0.0160761
705.783	0.0160852
705.861	0.0161553
705.939	0.0160705
706.017	0.0160574
706.096	0.0160739
706.174	0.0161299
706.252	0.0162667
706.330	0.0160722
706.408	0.0161795
706.486	0.0163017
706.564	0.0162545
706.642	0.0163622
706.721	0.0163455
706.799	0.0162158
706.877	0.0163739
706.955	0.0163226
707.033	0.0161189
707.111	0.0162717
707.189	0.0165092
707.267	0.0164780
707.346	0.0163008
707.424	0.0161781
707.502	0.0163060
707.580	0.0162038
707.658	0.0161848
707.736	0.0160818
707.814	0.0160725
707.892	0.0161536
707.971	0.0160342
708.049	0.0159650
708.127	0.0159638
708.205	0.0160056
708.283	0.0160155
708.361	0.0159361
708.439	0.0158623
708.517	0.0159283
708.596	0.0159276
708.674	0.0158186
708.752	0.0157169
708.830	0.0158187
708.908	0.0159166
708.986	0.0158553
709.064	0.0157693
709.142	0.0156449
709.221	0.0156934
709.299	0.0158183
709.377	0.0157917
709.455	0.0157541
709.533	0.0156817
709.611	0.0159593
709.689	0.0157400
709.767	0.0158562
709.846	0.0158443
709.924	0.0159853
710.002	0.0158469
710.080	0.0160207
710.158	0.0159651
710.236	0.0159901
710.314	0.0159370
710.392	0.0158589
710.471	0.0158820
710.549	0.0159211
710.627	0.0160133
710.705	0.0161150
710.783	0.0160400
710.861	0.0159769
710.939	0.0159514
711.017	0.0160854
711.096	0.0158766
711.174	0.0157819
711.252	0.0160088
711.330	0.0158793
711.408	0.0158639
711.486	0.0157777
711.564	0.0157246
711.642	0.0159014
711.721	0.0156604
711.799	0.0158430
711.877	0.0157078
711.955	0.0156606
712.033	0.0156277
712.111	0.0156195
712.189	0.0157853
712.267	0.0156620
712.346	0.0157384
712.424	0.0157726
712.502	0.0157558
712.580	0.0157382
712.658	0.0159324
712.736	0.0159104
712.814	0.0159928
712.892	0.0160482
712.971	0.0158567
713.049	0.0159072
713.127	0.0159500
713.205	0.0160535
713.283	0.0160261
713.361	0.0161458
713.439	0.0161451
713.517	0.0160713
713.596	0.0159117
713.674	0.0160607
713.752	0.0160695
713.830	0.0162320
713.908	0.0160933
713.986	0.0160474
714.064	0.0161322
714.142	0.0160570
714.221	0.0160601
714.299	0.0159519
714.377	0.0159070
714.455	0.0159196
714.533	0.0158691
714.611	0.0158980
714.689	0.0158815
714.767	0.0159588
714.846	0.0159110
714.924	0.0158667
715.002	0.0159377
715.080	0.0159891
715.158	0.0159570
715.236	0.0160599
715.314	0.0160429
715.392	0.0160531
715.471	0.0160385
715.549	0.0159272
715.627	0.0159825
715.705	0.0159488
715.783	0.0160627
715.861	0.0160057
715.939	0.0161607
716.017	0.0161277
716.096	0.0161285
716.174	0.0160220
716.252	0.0160075
716.330	0.0159686
716.408	0.0159933
716.486	0.0159625
716.564	0.0160124
716.642	0.0158587
716.721	0.0158929
716.799	0.0159618
716.877	0.0160047
716.955	0.0160484
717.033	0.0160789
717.111	0.0161687
717.189	0.0160876
717.267	0.0160691
717.346	0.0161512
717.424	0.0160002
717.502	0.0159719
717.580	0.0161395
717.658	0.0161221
717.736	0.0161278
717.814	0.0160634
717.892	0.0159692
717.971	0.0160347
718.049	0.0159669
718.127	0.0160622
718.205	0.0160674
718.283	0.0160155
718.361	0.0159428
718.439	0.0160340
718.517	0.0159467
718.596	0.0160609
718.674	0.0160458
718.752	0.0159797
718.830	0.0159665
718.908	0.0160012
718.986	0.0161243
719.064	0.0161491
719.142	0.0160596
719.221	0.0160789
719.299	0.0160439
719.377	0.0159989
719.455	0.0160212
719.533	0.0160544
719.611	0.0159965
719.689	0.0160232
719.767	0.0160641
719.846	0.0160833
719.924	0.0159685
720.002	0.0161481
720.080	0.0159686
720.158	0.0160367
720.236	0.0161500
720.314	0.0161086
720.392	0.0160825
720.471	0.0161794
720.549	0.0161710
720.627	0.0160986
720.705	0.0163085
720.783	0.0164437
720.861	0.0162484
720.939	0.0161285
721.017	0.0161137
721.096	0.0163268
721.174	0.0162889
721.252	0.0164227
721.330	0.0164603
721.408	0.0163799
721.486	0.0162834
721.564	0.0164521
721.642	0.0163637
721.721	0.0164799
721.799	0.0164719
721.877	0.0164275
721.955	0.0165133
722.033	0.0164170
722.111	0.0164902
722.189	0.0164980
722.267	0.0164445
722.346	0.0165426
722.424	0.0166202
722.502	0.0163713
722.580	0.0163292
722.658	0.0164416
722.736	0.0165195
722.814	0.0165504
722.892	0.0163635
722.971	0.0163753
723.049	0.0163504
723.127	0.0163469
723.205	0.0162643
723.283	0.0163069
723.361	0.0162133
723.439	0.0164124
723.517	0.0163061
723.596	0.0162643
723.674	0.0162129
723.752	0.0162904
723.830	0.0162381
723.908	0.0161366
723.986	0.0160132
724.064	0.0160316
724.142	0.0160785
724.221	0.0161037
724.299	0.0160734
724.377	0.0160511
724.455	0.0160636
724.533	0.0160745
724.611	0.0159452
724.689	0.0160148
724.767	0.0158238
724.846	0.0158641
724.924	0.0158968
725.002	0.0156972
725.080	0.0159439
725.158	0.0157382
725.236	0.0158149
725.314	0.0157959
725.392	0.0159196
725.471	0.0156609
725.549	0.0157525
725.627	0.0158057
725.705	0.0157832
725.783	0.0158048
725.861	0.0157172
725.939	0.0159484
726.017	0.0160241
726.096	0.0157944
726.174	0.0157872
726.252	0.0158678
726.330	0.0159278
726.408	0.0161444
726.486	0.0160039
726.564	0.0161074
726.642	0.0161124
726.721	0.0160670
726.799	0.0161588
726.877	0.0161683
726.955	0.0161067
727.033	0.0159459
727.111	0.0161898
727.189	0.0162374
727.267	0.0161424
727.346	0.0162094
727.424	0.0161991
727.502	0.0161104
727.580	0.0161736
727.658	0.0163364
727.736	0.0162783
727.814	0.0162048
727.892	0.0161436
727.971	0.0163239
728.049	0.0162296
728.127	0.0163098
728.205	0.0163345
728.283	0.0162331
728.361	0.0164143
728.439	0.0162305
728.517	0.0163953
728.596	0.0163190
728.674	0.0163511
728.752	0.0163789
728.830	0.0162357
728.908	0.0162216
728.986	0.0162051
729.064	0.0161308
729.142	0.0160909
729.221	0.0160796
729.299	0.0161579
729.377	0.0160385
729.455	0.0159118
729.533	0.0159475
729.611	0.0158922
729.689	0.0157890
729.767	0.0158730
729.846	0.0157134
729.924	0.0157547
730.002	0.0157520
730.080	0.0157137
730.158	0.0157755
730.236	0.0157501
730.314	0.0157511
730.392	0.0158051
730.471	0.0158918
730.549	0.0159806
730.627	0.0158644
730.705	0.0160182
730.783	0.0160114
730.861	0.0158770
730.939	0.0160346
731.017	0.0160938
731.096	0.0158471
731.174	0.0160210
731.252	0.0159219
731.330	0.0159412
731.408	0.0160139
731.486	0.0159772
731.564	0.0159263
731.642	0.0160173
731.721	0.0159881
731.799	0.0159148
731.877	0.0158985
731.955	0.0158023
732.033	0.0158334
732.111	0.0159129
732.189	0.0160197
732.267	0.0158500
732.346	0.0159267
732.424	0.0159855
732.502	0.0159458
732.580	0.0159143
732.658	0.0159327
732.736	0.0160641
732.814	0.0160857
732.892	0.0160490
732.971	0.0159768
733.049	0.0159252
733.127	0.0161018
733.205	0.0160999
733.283	0.0160590
733.361	0.0160027
733.439	0.0159349
733.517	0.0159440
733.596	0.0159570
733.674	0.0160784
733.752	0.0160124
733.830	0.0160766
733.908	0.0159028
733.986	0.0158836
734.064	0.0160088
734.142	0.0160251
734.221	0.0159914
734.299	0.0160121
734.377	0.0162176
734.455	0.0161303
734.533	0.0161602
734.611	0.0161322
734.689	0.0162611
734.767	0.0161800
734.846	0.0161467
734.924	0.0161126
735.002	0.0163451
735.080	0.0162629
735.158	0.0161357
735.236	0.0162955
735.314	0.0161908
735.392	0.0161455
735.471	0.0161922
735.549	0.0162500
735.627	0.0161684
735.705	0.0160578
735.783	0.0161195
735.861	0.0162337
735.939	0.0162168
736.017	0.0161835
736.096	0.0161338
736.174	0.0161658
736.252	0.0161362
736.330	0.0161330
736.408	0.0161298
736.486	0.0159781
736.564	0.0161216
736.642	0.0161324
736.721	0.0161459
736.799	0.0160989
736.877	0.0162167
736.955	0.0160894
737.033	0.0161228
737.111	0.0161987
737.189	0.0162069
737.267	0.0162434
737.346	0.0162572
737.424	0.0162305
737.502	0.0163522
737.580	0.0162117
737.658	0.0163306
737.736	0.0163546
737.814	0.0163912
737.892	0.0163835
737.971	0.0163940
738.049	0.0165047
738.127	0.0164585
738.205	0.0163076
738.283	0.0165938
738.361	0.0165573
738.439	0.0165008
738.517	0.0164892
738.596	0.0165211
738.674	0.0166740
738.752	0.0165809
738.830	0.0164008
738.908	0.0164527
738.986	0.0164132
739.064	0.0164365
739.142	0.0165713
739.221	0.0164156
739.299	0.0163647
739.377	0.0163734
739.455	0.0163582
739.533	0.0163168
739.611	0.0162548
739.689	0.0163070
739.767	0.0163028
739.846	0.0162999
739.924	0.0162251
740.002	0.0161652
740.080	0.0161720
740.158	0.0160709
740.236	0.0160320
740.314	0.0161164
740.392	0.0160284
740.471	0.0160880
740.549	0.0161520
740.627	0.0160186
740.705	0.0161005
740.783	0.0160346
740.861	0.0162338
740.939	0.0161307
741.017	0.0162679
741.096	0.0162649
741.174	0.0162464
741.252	0.0163611
741.330	0.0162663
741.408	0.0161885
741.486	0.0164053
741.564	0.0164220
741.642	0.0164359
741.721	0.0165212
741.799	0.0165017
741.877	0.0163537
741.955	0.0163917
742.033	0.0165045
742.111	0.0165076
742.189	0.0164697
742.267	0.0163158
742.346	0.0163133
742.424	0.0163982
742.502	0.0164272
742.580	0.0165199
742.658	0.0163643
742.736	0.0162783
742.814	0.0163565
742.892	0.0163575
742.971	0.0163212
743.049	0.0164278
743.127	0.0163212
743.205	0.0162846
743.283	0.0163763
743.361	0.0162489
743.439	0.0162628
743.517	0.0162081
743.596	0.0162195
743.674	0.0161561
743.752	0.0162260
743.830	0.0162261
743.908	0.0160612
743.986	0.0161148
744.064	0.0161576
744.142	0.0160863
744.221	0.0160738
744.299	0.0162431
744.377	0.0161063
744.455	0.0159896
744.533	0.0160268
744.611	0.0160839
744.689	0.0161240
744.767	0.0162760
744.846	0.0161108
744.924	0.0160611
745.002	0.0162257
745.080	0.0162380
745.158	0.0161526
745.236	0.0161238
745.314	0.0161815
745.392	0.0162082
745.471	0.0162778
745.549	0.0163345
745.627	0.0164368
745.705	0.0163239
745.783	0.0163715
745.861	0.0164883
745.939	0.0166331
746.017	0.0167211
746.096	0.0166745
746.174	0.0166668
746.252	0.0167528
746.330	0.0167712
746.408	0.0166207
746.486	0.0167859
746.564	0.0167550
746.642	0.0166363
746.721	0.0167017
746.799	0.0166304
746.877	0.0165754
746.955	0.0166909
747.033	0.0165771
747.111	0.0166127
747.189	0.0164787
747.267	0.0165579
747.346	0.0165331
747.424	0.0164569
747.502	0.0165655
747.580	0.0165234
747.658	0.0164540
747.736	0.0164643
747.814	0.0164645
747.892	0.0164677
747.971	0.0165221
748.049	0.0164111
748.127	0.0163998
748.205	0.0164437
748.283	0.0164851
748.361	0.0163661
748.439	0.0164056
748.517	0.0165329
748.596	0.0163059
748.674	0.0162697
748.752	0.0162659
748.830	0.0163329
748.908	0.0162248
748.986	0.0162741
749.064	0.0160788
749.142	0.0160496
749.221	0.0160700
749.299	0.0161198
749.377	0.0160039
749.455	0.0161012
749.533	0.0159966
749.611	0.0159603
749.689	0.0160750
749.767	0.0159321
749.846	0.0159084
749.924	0.0158908
750.002	0.0158025
750.080	0.0159494
750.158	0.0159499
750.236	0.0159914
750.314	0.0158767
750.392	0.0158640
750.471	0.0158386
750.549	0.0158761
750.627	0.0159851
750.705	0.0159550
750.783	0.0159895
750.861	0.0159356
750.939	0.0157620
751.017	0.0158723
751.096	0.0158994
751.174	0.0159268
751.252	0.0159762
751.330	0.0158009
751.408	0.0157819
751.486	0.0159274
751.564	0.0156998
751.642	0.0156314
751.721	0.0157470
751.799	0.0158976
751.877	0.0155397
751.955	0.0157001
752.033	0.0158408
752.111	0.0157938
752.189	0.0155202
752.267	0.0155347
752.346	0.0157139
752.424	0.0156896
752.502	0.0155987
752.580	0.0156508
752.658	0.0155321
752.736	0.0155475
752.814	0.0156656
752.892	0.0155678
752.971	0.0156848
753.049	0.0157004
753.127	0.0156084
753.205	0.0156963
753.283	0.0156500
753.361	0.0157392
753.439	0.0158044
753.517	0.0157664
753.596	0.0157279
753.674	0.0157655
753.752	0.0158158
753.830	0.0156790
753.908	0.0157515
753.986	0.0157274
754.064	0.0158184
754.142	0.0157886
754.221	0.0157590
754.299	0.0155769
754.377	0.0158453
754.455	0.0157926
754.533	0.0156844
754.611	0.0158121
754.689	0.0160052
754.767	0.0160371
754.846	0.0159554
754.924	0.0159675
755.002	0.0161217
755.080	0.0161362
755.158	0.0160693
755.236	0.0159527
755.314	0.0160219
755.392	0.0161143
755.471	0.0159506
755.549	0.0160374
755.627	0.0161134
755.705	0.0159897
755.783	0.0157835
755.861	0.0160025
755.939	0.0159164
756.017	0.0158728
756.096	0.0158534
756.174	0.0157796
756.252	0.0157841
756.330	0.0157642
756.408	0.0158055
756.486	0.0158192
756.564	0.0158999
756.642	0.0159579
756.721	0.0160795
756.799	0.0160724
756.877	0.0160542
756.955	0.0161937
757.033	0.0162747
757.111	0.0161283
757.189	0.0163558
757.267	0.0164910
757.346	0.0164705
757.424	0.0166118
757.502	0.0166615
757.580	0.0168903
757.658	0.0166444
757.736	0.0167482
757.814	0.0167389
757.892	0.0167578
757.971	0.0167760
758.049	0.0167706
758.127	0.0168482
758.205	0.0165766
758.283	0.0167413
758.361	0.0167480
758.439	0.0166798
758.517	0.0166708
758.596	0.0166521
758.674	0.0166517
758.752	0.0166531
758.830	0.0167188
758.908	0.0165762
758.986	0.0165143
759.064	0.0167294
759.142	0.0166758
759.221	0.0167383
759.299	0.0166048
759.377	0.0164799
759.455	0.0165234
759.533	0.0165953
759.611	0.0165514
759.689	0.0164263
759.767	0.0164693
759.846	0.0165805
759.924	0.0166444
760.002	0.0166661
760.080	0.0166474
760.158	0.0165417
760.236	0.0167328
760.314	0.0166609
760.392	0.0167062
760.471	0.0166538
760.549	0.0166401
760.627	0.0167509
760.705	0.0166352
760.783	0.0165292
760.861	0.0165532
760.939	0.0164988
761.017	0.0164506
761.096	0.0162335
761.174	0.0164565
761.252	0.0162048
761.330	0.0160303
761.408	0.0161756
761.486	0.0160349
761.564	0.0158866
761.642	0.0158424
761.721	0.0158893
761.799	0.0157265
761.877	0.0155055
761.955	0.0156181
762.033	0.0157269
762.111	0.0156174
762.189	0.0157593
762.267	0.0157523
762.346	0.0158377
762.424	0.0159770
762.502	0.0161894
762.580	0.0164013
762.658	0.0164446
762.736	0.0167062
762.814	0.0166180
762.892	0.0166790
762.971	0.0167970
763.049	0.0169258
763.127	0.0169963
763.205	0.0169017
763.283	0.0170152
763.361	0.0168790
763.439	0.0169587
763.517	0.0167910
763.596	0.0168284
763.674	0.0168007
763.752	0.0166010
763.830	0.0166479
763.908	0.0166189
763.986	0.0165836
764.064	0.0165983
764.142	0.0165604
764.221	0.0164234
764.299	0.0163746
764.377	0.0162377
764.455	0.0162491
764.533	0.0161359
764.611	0.0163364
764.689	0.0160784
764.767	0.0160145
764.846	0.0160819
764.924	0.0160578
765.002	0.0158603
765.080	0.0158224
765.158	0.0158224
765.236	0.0157413
765.314	0.0156705
765.392	0.0155471
765.471	0.0155656
765.549	0.0154940
765.627	0.0155579
765.705	0.0154572
765.783	0.0153197
765.861	0.0152973
765.939	0.0153429
766.017	0.0154219
766.096	0.0153288
766.174	0.0154717
766.252	0.0153793
766.330	0.0153281
766.408	0.0154251
766.486	0.0155656
766.564	0.0157249
766.642	0.0158199
766.721	0.0157677
766.799	0.0158995
766.877	0.0160261
766.955	0.0160569
767.033	0.0159092
767.111	0.0160428
767.189	0.0162006
767.267	0.0163097
767.346	0.0162296
767.424	0.0164266
767.502	0.0163846
767.580	0.0166444
767.658	0.0166396
767.736	0.0164819
767.814	0.0166751
767.892	0.0166688
767.971	0.0166978
768.049	0.0167215
768.127	0.0167682
768.205	0.0167055
768.283	0.0167363
768.361	0.0167326
768.439	0.0166881
768.517	0.0167050
768.596	0.0167013
768.674	0.0167107
768.752	0.0166533
768.830	0.0166113
768.908	0.0165916
768.986	0.0164644
769.064	0.0164774
769.142	0.0165761
769.221	0.0164912
769.299	0.0162761
769.377	0.0162203
769.455	0.0162576
769.533	0.0161693
769.611	0.0161724
769.689	0.0160835
769.767	0.0160081
769.846	0.0160582
769.924	0.0159623
770.002	0.0159543
770.080	0.0159732
770.158	0.0158949
770.236	0.0159023
770.314	0.0158823
770.392	0.0158328
770.471	0.0160000
770.549	0.0159859
770.627	0.0158485
770.705	0.0158197
770.783	0.0159399
770.861	0.0158911
770.939	0.0157442
771.017	0.0158234
771.096	0.0159892
771.174	0.0158831
771.252	0.0157997
771.330	0.0159000
771.408	0.0158013
771.486	0.0158748
771.564	0.0159604
771.642	0.0159533
771.721	0.0160990
771.799	0.0162330
771.877	0.0161196
771.955	0.0162533
772.033	0.0162190
772.111	0.0163001
772.189	0.0162791
772.267	0.0163063
772.346	0.0163144
772.424	0.0162260
772.502	0.0163963
772.580	0.0163803
772.658	0.0163908
772.736	0.0163140
772.814	0.0162647
772.892	0.0164613
772.971	0.0163453
773.049	0.0163896
773.127	0.0163614
773.205	0.0163452
773.283	0.0162818
773.361	0.0162936
773.439	0.0163570
773.517	0.0162695
773.596	0.0162505
773.674	0.0162537
773.752	0.0161298
773.830	0.0160006
773.908	0.0161984
773.986	0.0162733
774.064	0.0163423
774.142	0.0162502
774.221	0.0162418
774.299	0.0162879
774.377	0.0162887
774.455	0.0162342
774.533	0.0162122
774.611	0.0162683
774.689	0.0161655
774.767	0.0160932
774.846	0.0160569
774.924	0.0159456
775.002	0.0159969
775.080	0.0160921
775.158	0.0158216
775.236	0.0157526
775.314	0.0159023
775.392	0.0159297
775.471	0.0158029
775.549	0.0157975
775.627	0.0158880
775.705	0.0157076
775.783	0.0157783
775.861	0.0157970
775.939	0.0158215
776.017	0.0156691
776.096	0.0157434
776.174	0.0157315
776.252	0.0154951
776.330	0.0158347
776.408	0.0159150
776.486	0.0157552
776.564	0.0158546
776.642	0.0158742
776.721	0.0159823
776.799	0.0158408
776.877	0.0159352
776.955	0.0160445
777.033	0.0159242
777.111	0.0160658
777.189	0.0159322
777.267	0.0159135
777.346	0.0161426
777.424	0.0161164
777.502	0.0160578
777.580	0.0160246
777.658	0.0159546
777.736	0.0160241
777.814	0.0159818
777.892	0.0161049
777.971	0.0160981
778.049	0.0159669
778.127	0.0160313
778.205	0.0158911
778.283	0.0157993
778.361	0.0158476
778.439	0.0158226
778.517	0.0157536
778.596	0.0156902
778.674	0.0156664
778.752	0.0156432
778.830	0.0155744
778.908	0.0155763
778.986	0.0156009
779.064	0.0155673
779.142	0.0154636
779.221	0.0155621
779.299	0.0155160
779.377	0.0157322
779.455	0.0157146
779.533	0.0156841
779.611	0.0157296
779.689	0.0156418
779.767	0.0156270
779.846	0.0157223
779.924	0.0158480
780.002	0.0159955
780.080	0.0157435
780.158	0.0157687
780.236	0.0158450
780.314	0.0157864
780.392	0.0157828
780.471	0.0156722
780.549	0.0157098
780.627	0.0156541
780.705	0.0156321
780.783	0.0156301
780.861	0.0157906
780.939	0.0155405
781.017	0.0156163
781.096	0.0156609
781.174	0.0156820
781.252	0.0157361
781.330	0.0157457
781.408	0.0158653
781.486	0.0157658
781.564	0.0158697
781.642	0.0157789
781.721	0.0157755
781.799	0.0157751
781.877	0.0158122
781.955	0.0158529
782.033	0.0158347
782.111	0.0158620
782.189	0.0158603
782.267	0.0158913
782.346	0.0157302
782.424	0.0158038
782.502	0.0160213
782.580	0.0159026
782.658	0.0159778
782.736	0.0159371
782.814	0.0158737
782.892	0.0159013
782.971	0.0161393
783.049	0.0161518
783.127	0.0161395
783.205	0.0161176
783.283	0.0162761
783.361	0.0163674
783.439	0.0163850
783.517	0.0163465
783.596	0.0163668
783.674	0.0165119
783.752	0.0163634
783.830	0.0166457
783.908	0.0165805
783.986	0.0165003
784.064	0.0166211
784.142	0.0164736
784.221	0.0167196
784.299	0.0165419
784.377	0.0166233
784.455	0.0164802
784.533	0.0166792
784.611	0.0166090
784.689	0.0164685
784.767	0.0165598
784.846	0.0166772
784.924	0.0165261
785.002	0.0165998
785.080	0.0165348
785.158	0.0166172
785.236	0.0166263
785.314	0.0167744
785.392	0.0167038
785.471	0.0165520
785.549	0.0164761
785.627	0.0163908
785.705	0.0162848
785.783	0.0162055
785.861	0.0162009
785.939	0.0161031
786.017	0.0160224
786.096	0.0160091
786.174	0.0159125
786.252	0.0159357
786.330	0.0157970
786.408	0.0156850
786.486	0.0157090
786.564	0.0158028
786.642	0.0157722
786.721	0.0157031
786.799	0.0156816
786.877	0.0157983
786.955	0.0157687
787.033	0.0159024
787.111	0.0159152
787.189	0.0157349
787.267	0.0158183
787.346	0.0161557
787.424	0.0160876
787.502	0.0161978
787.580	0.0160563
787.658	0.0162425
787.736	0.0162202
787.814	0.0161438
787.892	0.0162668
787.971	0.0163248
788.049	0.0163776
788.127	0.0165052
788.205	0.0162774
788.283	0.0165286
788.361	0.0164859
788.439	0.0164136
788.517	0.0163311
788.596	0.0164052
788.674	0.0163197
788.752	0.0162215
788.830	0.0163124
788.908	0.0163493
788.986	0.0163401
789.064	0.0163554
789.142	0.0164652
789.221	0.0164679
789.299	0.0163876
789.377	0.0164883
789.455	0.0163274
789.533	0.0164095
789.611	0.0165068
789.689	0.0164433
789.767	0.0163691
789.846	0.0163903
789.924	0.0163881
790.002	0.0164909
790.080	0.0163850
790.158	0.0162302
790.236	0.0162930
790.314	0.0162622
790.392	0.0162498
790.471	0.0162111
790.549	0.0162659
790.627	0.0161752
790.705	0.0160782
790.783	0.0160446
790.861	0.0160574
790.939	0.0159941
791.017	0.0159410
791.096	0.0158856
791.174	0.0159164
791.252	0.0159218
791.330	0.0159646
791.408	0.0159379
791.486	0.0158657
791.564	0.0160190
791.642	0.0159692
791.721	0.0160840
791.799	0.0160696
791.877	0.0159603
791.955	0.0159820
792.033	0.0159708
792.111	0.0159711
792.189	0.0159321
792.267	0.0157423
792.346	0.0158179
792.424	0.0157786
792.502	0.0157439
792.580	0.0157916
792.658	0.0157691
792.736	0.0158229
792.814	0.0156876
792.892	0.0157687
792.971	0.0156770
793.049	0.0156944
793.127	0.0156271
793.205	0.0155733
793.283	0.0155846
793.361	0.0157346
793.439	0.0156446
793.517	0.0153251
793.596	0.0155655
793.674	0.0156568
793.752	0.0154189
793.830	0.0155037
793.908	0.0154830
793.986	0.0156257
794.064	0.0153957
794.142	0.0154762
794.221	0.0155262
794.299	0.0153732
794.377	0.0154111
794.455	0.0153432
794.533	0.0153916
794.611	0.0153971
794.689	0.0153091
794.767	0.0154237
794.846	0.0154155
794.924	0.0154033
795.002	0.0154834
795.080	0.0152914
795.158	0.0155416
795.236	0.0155148
795.314	0.0155913
795.392	0.0155061
795.471	0.0157297
795.549	0.0157602
795.627	0.0156215
795.705	0.0156121
795.783	0.0157520
795.861	0.0159035
795.939	0.0157732
796.017	0.0159347
796.096	0.0159188
796.174	0.0159147
796.252	0.0158657
796.330	0.0159216
796.408	0.0158736
796.486	0.0158389
796.564	0.0158891
796.642	0.0158622
796.721	0.0158033
796.799	0.0159798
796.877	0.0158690
796.955	0.0160582
797.033	0.0160240
797.111	0.0159820
797.189	0.0160295
797.267	0.0160712
797.346	0.0160863
797.424	0.0162147
797.502	0.0160821
797.580	0.0163247
797.658	0.0162077
797.736	0.0162893
797.814	0.0163970
797.892	0.0164619
797.971	0.0164968
798.049	0.0164053
798.127	0.0166261
798.205	0.0165527
798.283	0.0166863
798.361	0.0167659
798.439	0.0167454
798.517	0.0167152
798.596	0.0166361
798.674	0.0166656
798.752	0.0166312
798.830	0.0167783
798.908	0.0168280
798.986	0.0164890
799.064	0.0165546
799.142	0.0164002
799.221	0.0164133
799.299	0.0165524
799.377	0.0165241
799.455	0.0163766
799.533	0.0163779
799.611	0.0164555
799.689	0.0162765
799.767	0.0163766
799.846	0.0162577
799.924	0.0163023
800.002	0.0163094
800.080	0.0162346
800.158	0.0163151
800.236	0.0161532
800.314	0.0162170
800.392	0.0160968
800.471	0.0161152
800.549	0.0161639
800.627	0.0161570
800.705	0.0161126
800.783	0.0160649
800.861	0.0160712
800.939	0.0160368
801.017	0.0160827
801.096	0.0160281
801.174	0.0159938
801.252	0.0159603
801.330	0.0159415
801.408	0.0161512
801.486	0.0160737
801.564	0.0160495
801.642	0.0160029
801.721	0.0161185
801.799	0.0160919
801.877	0.0159474
801.955	0.0161045
802.033	0.0162428
802.111	0.0160491
802.189	0.0160814
802.267	0.0161333
802.346	0.0160940
802.424	0.0161507
802.502	0.0160557
802.580	0.0159842
802.658	0.0160287
802.736	0.0161137
802.814	0.0160665
802.892	0.0159630
802.971	0.0160342
803.049	0.0160439
803.127	0.0159591
803.205	0.0159397
803.283	0.0160785
803.361	0.0160172
803.439	0.0161839
803.517	0.0161613
803.596	0.0161135
803.674	0.0161086
803.752	0.0162885
803.830	0.0163050
803.908	0.0165298
803.986	0.0163522
804.064	0.0162554
804.142	0.0162685
804.221	0.0165542
804.299	0.0164333
804.377	0.0164925
804.455	0.0164378
804.533	0.0164786
804.611	0.0162846
804.689	0.0165032
804.767	0.0163600
804.846	0.0165096
804.924	0.0163808
805.002	0.0164863
805.080	0.0163455
805.158	0.0162735
805.236	0.0162439
805.314	0.0162784
805.392	0.0162720
805.471	0.0163097
805.549	0.0163855
805.627	0.0165785
805.705	0.0164199
805.783	0.0162394
805.861	0.0163248
805.939	0.0163348
806.017	0.0164466
806.096	0.0164136
806.174	0.0164999
806.252	0.0163850
806.330	0.0163462
806.408	0.0163918
806.486	0.0164101
806.564	0.0164919
806.642	0.0164867
806.721	0.0164657
806.799	0.0160499
806.877	0.0160967
806.955	0.0161735
807.033	0.0159948
807.111	0.0159841
807.189	0.0159047
807.267	0.0159322
807.346	0.0159180
807.424	0.0158454
807.502	0.0158640
807.580	0.0159191
807.658	0.0158317
807.736	0.0158666
807.814	0.0158548
807.892	0.0158038
807.971	0.0158052
808.049	0.0158160
808.127	0.0158942
808.205	0.0157793
808.283	0.0159003
808.361	0.0158582
808.439	0.0158866
808.517	0.0157347
808.596	0.0158216
808.674	0.0158537
808.752	0.0157756
808.830	0.0156226
808.908	0.0156316
808.986	0.0156332
809.064	0.0155209
809.142	0.0156806
809.221	0.0156030
809.299	0.0154374
809.377	0.0154541
809.455	0.0153506
809.533	0.0154111
809.611	0.0154890
809.689	0.0155150
809.767	0.0154620
809.846	0.0154488
809.924	0.0155254
810.002	0.0155466
810.080	0.0156888
810.158	0.0156242
810.236	0.0154787
810.314	0.0155708
810.392	0.0158672
810.471	0.0158503
810.549	0.0160390
810.627	0.0158443
810.705	0.0160528
810.783	0.0162154
810.861	0.0161312
810.939	0.0163136
811.017	0.0164191
811.096	0.0163129
811.174	0.0163964
811.252	0.0164934
811.330	0.0166240
811.408	0.0166975
811.486	0.0166462
811.564	0.0166383
811.642	0.0167025
811.721	0.0166373
811.799	0.0166655
811.877	0.0165831
811.955	0.0165620
812.033	0.0166914
812.111	0.0165766
812.189	0.0166433
812.267	0.0165520
812.346	0.0166434
812.424	0.0166138
812.502	0.0165518
812.580	0.0165088
812.658	0.0164275
812.736	0.0164568
812.814	0.0163847
812.892	0.0162702
812.971	0.0163964
813.049	0.0162910
813.127	0.0162322
813.205	0.0161024
813.283	0.0162566
813.361	0.0161310
813.439	0.0160796
813.517	0.0160276
813.596	0.0160743
813.674	0.0160238
813.752	0.0159717
813.830	0.0160085
813.908	0.0159819
813.986	0.0159723
814.064	0.0159090
814.142	0.0159827
814.221	0.0159337
814.299	0.0159096
814.377	0.0159489
814.455	0.0160331
814.533	0.0160997
814.611	0.0159701
814.689	0.0160014
814.767	0.0160500
814.846	0.0159444
814.924	0.0160663
815.002	0.0162212
815.080	0.0161478
815.158	0.0161160
815.236	0.0161337
815.314	0.0161530
815.392	0.0161777
815.471	0.0162601
815.549	0.0162701
815.627	0.0162720
815.705	0.0160424
815.783	0.0160847
815.861	0.0162309
815.939	0.0162405
816.017	0.0161359
816.096	0.0162559
816.174	0.0161458
816.252	0.0159949
816.330	0.0161862
816.408	0.0160658
816.486	0.0161177
816.564	0.0160498
816.642	0.0159557
816.721	0.0160459
816.799	0.0159939
816.877	0.0160393
816.955	0.0159961
817.033	0.0159026
817.111	0.0157967
817.189	0.0159099
817.267	0.0158988
817.346	0.0158288
817.424	0.0158927
817.502	0.0157808
817.580	0.0159200
817.658	0.0157113
817.736	0.0155876
817.814	0.0157389
817.892	0.0157418
817.971	0.0156286
818.049	0.0156338
818.127	0.0155103
818.205	0.0157155
818.283	0.0156662
818.361	0.0156730
818.439	0.0156658
818.517	0.0156951
818.596	0.0157319
818.674	0.0157992
818.752	0.0157699
818.830	0.0155091
818.908	0.0158562
818.986	0.0158202
819.064	0.0158200
819.142	0.0157757
819.221	0.0158443
819.299	0.0159551
819.377	0.0159511
819.455	0.0158251
819.533	0.0159322
819.611	0.0158990
819.689	0.0161141
819.767	0.0161536
819.846	0.0160795
819.924	0.0160511
820.002	0.0161803
820.080	0.0160524
820.158	0.0162041
820.236	0.0162394
820.314	0.0160085
820.392	0.0161705
820.471	0.0161008
820.549	0.0160487
820.627	0.0162084
820.705	0.0161525
820.783	0.0161182
820.861	0.0160759
820.939	0.0160663
821.017	0.0161639
821.096	0.0161488
821.174	0.0159432
821.252	0.0161172
821.330	0.0160148
821.408	0.0162351
821.486	0.0161769
821.564	0.0160650
821.642	0.0161348
821.721	0.0161771
821.799	0.0162196
821.877	0.0161128
821.955	0.0161665
822.033	0.0161683
822.111	0.0163060
822.189	0.0160679
822.267	0.0161597
822.346	0.0161980
822.424	0.0160732
822.502	0.0162245
822.580	0.0162921
822.658	0.0162591
822.736	0.0161816
822.814	0.0162992
822.892	0.0163710
822.971	0.0161331
823.049	0.0162713
823.127	0.0161893
823.205	0.0161870
823.283	0.0161932
823.361	0.0162305
823.439	0.0163725
823.517	0.0163467
823.596	0.0162627
823.674	0.0163934
823.752	0.0162630
823.830	0.0164313
823.908	0.0163722
823.986	0.0163049
824.064	0.0162129
824.142	0.0164694
824.221	0.0163213
824.299	0.0163251
824.377	0.0163477
824.455	0.0164288
824.533	0.0163282
824.611	0.0163504
824.689	0.0163036
824.767	0.0161754
824.846	0.0165281
824.924	0.0163386
825.002	0.0166104
825.080	0.0165608
825.158	0.0165910
825.236	0.0165168
825.314	0.0165869
825.392	0.0166525
825.471	0.0164963
825.549	0.0164513
825.627	0.0166718
825.705	0.0164845
825.783	0.0164864
825.861	0.0165179
825.939	0.0164678
826.017	0.0164610
826.096	0.0163689
826.174	0.0165063
826.252	0.0164092
826.330	0.0164190
826.408	0.0164570
826.486	0.0162954
826.564	0.0162265
826.642	0.0162770
826.721	0.0162312
826.799	0.0162221
826.877	0.0160363
826.955	0.0161296
827.033	0.0161970
827.111	0.0162188
827.189	0.0162271
827.267	0.0161703
827.346	0.0162580
827.424	0.0163325
827.502	0.0162679
827.580	0.0162998
827.658	0.0162862
827.736	0.0163445
827.814	0.0162572
827.892	0.0163191
827.971	0.0163277
828.049	0.0162905
828.127	0.0161578
828.205	0.0161876
828.283	0.0163173
828.361	0.0161277
828.439	0.0160024
828.517	0.0161478
828.596	0.0159841
828.674	0.0161494
828.752	0.0159717
828.830	0.0160297
828.908	0.0159088
828.986	0.0159913
829.064	0.0159127
829.142	0.0158843
829.221	0.0160234
829.299	0.0160212
829.377	0.0158368
829.455	0.0158995
829.533	0.0160417
829.611	0.0159946
829.689	0.0159172
829.767	0.0159690
829.846	0.0161442
829.924	0.0160171
830.002	0.0160471
830.080	0.0161276
830.158	0.0162333
830.236	0.0160980
830.314	0.0161256
830.392	0.0161640
830.471	0.0160520
830.549	0.0161102
830.627	0.0162896
830.705	0.0162959
830.783	0.0160045
830.861	0.0160274
830.939	0.0161358
831.017	0.0160372
831.096	0.0160431
831.174	0.0159368
831.252	0.0160351
831.330	0.0161922
831.408	0.0161924
831.486	0.0161052
831.564	0.0161576
831.642	0.0159650
831.721	0.0157976
831.799	0.0160717
831.877	0.0159344
831.955	0.0159106
832.033	0.0160534
832.111	0.0160521
832.189	0.0160795
832.267	0.0158935
832.346	0.0159267
832.424	0.0160486
832.502	0.0159091
832.580	0.0158160
832.658	0.0158636
832.736	0.0159055
832.814	0.0157900
832.892	0.0157436
832.971	0.0158244
833.049	0.0158859
833.127	0.0158639
833.205	0.0158278
833.283	0.0158601
833.361	0.0158789
833.439	0.0158447
833.517	0.0158080
833.596	0.0157339
833.674	0.0158333
833.752	0.0156821
833.830	0.0159355
833.908	0.0158739
833.986	0.0156136
834.064	0.0157211
834.142	0.0157876
834.221	0.0157796
834.299	0.0157095
834.377	0.0157636
834.455	0.0157521
834.533	0.0157351
834.611	0.0158646
834.689	0.0158649
834.767	0.0158485
834.846	0.0157929
834.924	0.0158801
835.002	0.0158987
835.080	0.0160421
835.158	0.0158861
835.236	0.0159238
835.314	0.0160482
835.392	0.0160986
835.471	0.0160725
835.549	0.0161183
835.627	0.0159555
835.705	0.0160346
835.783	0.0160780
835.861	0.0161269
835.939	0.0161051
836.017	0.0161856
836.096	0.0161763
836.174	0.0161538
836.252	0.0162394
836.330	0.0162952
836.408	0.0162483
836.486	0.0162504
836.564	0.0162181
836.642	0.0163013
836.721	0.0162302
836.799	0.0162780
836.877	0.0162122
836.955	0.0161871
837.033	0.0163253
837.111	0.0162865
837.189	0.0162069
837.267	0.0163274
837.346	0.0161938
837.424	0.0160886
837.502	0.0162073
837.580	0.0162770
837.658	0.0163009
837.736	0.0161309
837.814	0.0162405
837.892	0.0162624
837.971	0.0162343
838.049	0.0162635
838.127	0.0162520
838.205	0.0161835
838.283	0.0162190
838.361	0.0162570
838.439	0.0161348
838.517	0.0162141
838.596	0.0162681
838.674	0.0163184
838.752	0.0161822
838.830	0.0163890
838.908	0.0162672
838.986	0.0161975
839.064	0.0162547
839.142	0.0162568
839.221	0.0163104
839.299	0.0162218
839.377	0.0162200
839.455	0.0163083
839.533	0.0162761
839.611	0.0163351
839.689	0.0161610
839.767	0.0163040
839.846	0.0162579
839.924	0.0161420
840.002	0.0161060
840.080	0.0161530
840.158	0.0161882
840.236	0.0162404
840.314	0.0163183
840.392	0.0161430
840.471	0.0162371
840.549	0.0163121
840.627	0.0161881
840.705	0.0161498
840.783	0.0162798
840.861	0.0161864
840.939	0.0160126
841.017	0.0160658
841.096	0.0160987
841.174	0.0160196
841.252	0.0160528
841.330	0.0159577
841.408	0.0159451
841.486	0.0159413
841.564	0.0160675
841.642	0.0159827
841.721	0.0159357
841.799	0.0158566
841.877	0.0158898
841.955	0.0157375
842.033	0.0159552
842.111	0.0159808
842.189	0.0159490
842.267	0.0159970
842.346	0.0159775
842.424	0.0159428
842.502	0.0159932
842.580	0.0159772
842.658	0.0160470
842.736	0.0160793
842.814	0.0159772
842.892	0.0159785
842.971	0.0160074
843.049	0.0161063
843.127	0.0160042
843.205	0.0159089
843.283	0.0157954
843.361	0.0159127
843.439	0.0158816
843.517	0.0158218
843.596	0.0158807
843.674	0.0157996
843.752	0.0158056
843.830	0.0157010
843.908	0.0157903
843.986	0.0160178
844.064	0.0157884
844.142	0.0158276
844.221	0.0158900
844.299	0.0158961
844.377	0.0158678
844.455	0.0158770
844.533	0.0159116
844.611	0.0159804
844.689	0.0159167
844.767	0.0158791
844.846	0.0160409
844.924	0.0159926
845.002	0.0158174
845.080	0.0159093
845.158	0.0158927
845.236	0.0159674
845.314	0.0159155
845.392	0.0159373
845.471	0.0159627
845.549	0.0158519
845.627	0.0158920
845.705	0.0158732
845.783	0.0158590
845.861	0.0159678
845.939	0.0159975
846.017	0.0159173
846.096	0.0159387
846.174	0.0160629
846.252	0.0160767
846.330	0.0160138
846.408	0.0160103
846.486	0.0160992
846.564	0.0160674
846.642	0.0161692
846.721	0.0161436
846.799	0.0161116
846.877	0.0161150
846.955	0.0160912
847.033	0.0160729
847.111	0.0161371
847.189	0.0161291
847.267	0.0159839
847.346	0.0161583
847.424	0.0160823
847.502	0.0161030
847.580	0.0161816
847.658	0.0161157
847.736	0.0161111
847.814	0.0163183
847.892	0.0161882
847.971	0.0161518
848.049	0.0162321
848.127	0.0162817
848.205	0.0161444
848.283	0.0162445
848.361	0.0163505
848.439	0.0162740
848.517	0.0162193
848.596	0.0161518
848.674	0.0161938
848.752	0.0164301
848.830	0.0161501
848.908	0.0163354
848.986	0.0164379
849.064	0.0162453
849.142	0.0163307
849.221	0.0162489
849.299	0.0162487
849.377	0.0163763
849.455	0.0163442
849.533	0.0164040
849.611	0.0163994
849.689	0.0166384
849.767	0.0164454
849.846	0.0164708
849.924	0.0165490
850.002	0.0165268
850.080	0.0165366
850.158	0.0166323
850.236	0.0166273
850.314	0.0167231
850.392	0.0167549
850.471	0.0166415
850.549	0.0166222
850.627	0.0166837
850.705	0.0167736
850.783	0.0167158
850.861	0.0167088
850.939	0.0166074
851.017	0.0166112
851.096	0.0167078
851.174	0.0165222
851.252	0.0164763
851.330	0.0164904
851.408	0.0165286
851.486	0.0165573
851.564	0.0165266
851.642	0.0165551
851.721	0.0164780
851.799	0.0164227
851.877	0.0165058
851.955	0.0165630
852.033	0.0164632
852.111	0.0163713
852.189	0.0164216
852.267	0.0163322
852.346	0.0163606
852.424	0.0162399
852.502	0.0161954
852.580	0.0161393
852.658	0.0161720
852.736	0.0160840
852.814	0.0160938
852.892	0.0159818
852.971	0.0159126
853.049	0.0158900
853.127	0.0161762
853.205	0.0160015
853.283	0.0160253
853.361	0.0160324
853.439	0.0160429
853.517	0.0160292
853.596	0.0159126
853.674	0.0159796
853.752	0.0160773
853.830	0.0160697
853.908	0.0159674
853.986	0.0159488
854.064	0.0160548
854.142	0.0159714
854.221	0.0160450
854.299	0.0161098
854.377	0.0159585
854.455	0.0160177
854.533	0.0160854
854.611	0.0160767
854.689	0.0160441
854.767	0.0160831
854.846	0.0161528
854.924	0.0161681
855.002	0.0161308
855.080	0.0163254
855.158	0.0161845
855.236	0.0162363
855.314	0.0162937
855.392	0.0162415
855.471	0.0162129
855.549	0.0162569
855.627	0.0162507
855.705	0.0163058
855.783	0.0162006
855.861	0.0163156
855.939	0.0164237
856.017	0.0162034
856.096	0.0162892
856.174	0.0162825
856.252	0.0163479
856.330	0.0163356
856.408	0.0163630
856.486	0.0163853
856.564	0.0161426
856.642	0.0162428
856.721	0.0164351
856.799	0.0161812
856.877	0.0163911
856.955	0.0162875
857.033	0.0164561
857.111	0.0163802
857.189	0.0162327
857.267	0.0162303
857.346	0.0163245
857.424	0.0160780
857.502	0.0161131
857.580	0.0161170
857.658	0.0160166
857.736	0.0159885
857.814	0.0158846
857.892	0.0158672
857.971	0.0158197
858.049	0.0158248
858.127	0.0158695
858.205	0.0158517
858.283	0.0156225
858.361	0.0157334
858.439	0.0156085
858.517	0.0155369
858.596	0.0155070
858.674	0.0156199
858.752	0.0156248
858.830	0.0155669
858.908	0.0156384
858.986	0.0156713
859.064	0.0157178
859.142	0.0156667
859.221	0.0156733
859.299	0.0156908
859.377	0.0157404
859.455	0.0156800
859.533	0.0157617
859.611	0.0158075
859.689	0.0156959
859.767	0.0156082
859.846	0.0156244
859.924	0.0157645
860.002	0.0157895
860.080	0.0157417
860.158	0.0156749
860.236	0.0157371
860.314	0.0158325
860.392	0.0158280
860.471	0.0158174
860.549	0.0158527
860.627	0.0158523
860.705	0.0159316
860.783	0.0158916
860.861	0.0158068
860.939	0.0159394
861.017	0.0158978
861.096	0.0159784
861.174	0.0160034
861.252	0.0159748
861.330	0.0160664
861.408	0.0160761
861.486	0.0160330
861.564	0.0159949
861.642	0.0160538
861.721	0.0161462
861.799	0.0160979
861.877	0.0162015
861.955	0.0160519
862.033	0.0160651
862.111	0.0160637
862.189	0.0160862
862.267	0.0159927
862.346	0.0160746
862.424	0.0159262
862.502	0.0160858
862.580	0.0161981
862.658	0.0162565
862.736	0.0163077
862.814	0.0161723
862.892	0.0161715
862.971	0.0164119
863.049	0.0163242
863.127	0.0163598
863.205	0.0163010
863.283	0.0165292
863.361	0.0166246
863.439	0.0166719
863.517	0.0165707
863.596	0.0167003
863.674	0.0166979
863.752	0.0166938
863.830	0.0168058
863.908	0.0168163
863.986	0.0168389
864.064	0.0169506
864.142	0.0170964
864.221	0.0170221
864.299	0.0170855
864.377	0.0170751
864.455	0.0171152
864.533	0.0171348
864.611	0.0170850
864.689	0.0170440
864.767	0.0169770
864.846	0.0169974
864.924	0.0169506
865.002	0.0168217
865.080	0.0167876
865.158	0.0168121
865.236	0.0165330
865.314	0.0164944
865.392	0.0164378
865.471	0.0162826
865.549	0.0162862
865.627	0.0161860
865.705	0.0159958
865.783	0.0159570
865.861	0.0158002
865.939	0.0158469
866.017	0.0158405
866.096	0.0155286
866.174	0.0155704
866.252	0.0154899
866.330	0.0155848
866.408	0.0153763
866.486	0.0154852
866.564	0.0153269
866.642	0.0152947
866.721	0.0153043
866.799	0.0152743
866.877	0.0152917
866.955	0.0153808
867.033	0.0154209
867.111	0.0152522
867.189	0.0152016
867.267	0.0154253
867.346	0.0153823
867.424	0.0154131
867.502	0.0156095
867.580	0.0154049
867.658	0.0155333
867.736	0.0155126
867.814	0.0156272
867.892	0.0155969
867.971	0.0156972
868.049	0.0157635
868.127	0.0156934
868.205	0.0156118
868.283	0.0158162
868.361	0.0158199
868.439	0.0157653
868.517	0.0158727
868.596	0.0160391
868.674	0.0159769
868.752	0.0161174
868.830	0.0161232
868.908	0.0162258
868.986	0.0161640
869.064	0.0161700
869.142	0.0163654
869.221	0.0162433
869.299	0.0162944
869.377	0.0163953
869.455	0.0163378
869.533	0.0163397
869.611	0.0162318
869.689	0.0163271
869.767	0.0163023
869.846	0.0163286
869.924	0.0162888
870.002	0.0163260
870.080	0.0163625
870.158	0.0162489
870.236	0.0163638
870.314	0.0162380
870.392	0.0162077
870.471	0.0164389
870.549	0.0162675
870.627	0.0162912
870.705	0.0163004
870.783	0.0163918
870.861	0.0164653
870.939	0.0162019
871.017	0.0162331
871.096	0.0162205
871.174	0.0163255
871.252	0.0162923
871.330	0.0163212
871.408	0.0163877
871.486	0.0162160
871.564	0.0162040
871.642	0.0162389
871.721	0.0162470
871.799	0.0163609
871.877	0.0163778
871.955	0.0162550
872.033	0.0163607
872.111	0.0162961
872.189	0.0162197
872.267	0.0163622
872.346	0.0162578
872.424	0.0161959
872.502	0.0162894
872.580	0.0162524
872.658	0.0162557
872.736	0.0162724
872.814	0.0162474
872.892	0.0162008
872.971	0.0161583
873.049	0.0161760
873.127	0.0162517
873.205	0.0163186
873.283	0.0161668
873.361	0.0161925
873.439	0.0163258
873.517	0.0162193
873.596	0.0161800
873.674	0.0162701
873.752	0.0161615
873.830	0.0161680
873.908	0.0162365
873.986	0.0161741
874.064	0.0163152
874.142	0.0161380
874.221	0.0162609
874.299	0.0163319
874.377	0.0160699
874.455	0.0161293
874.533	0.0162495
874.611	0.0161419
874.689	0.0162173
874.767	0.0161416
874.846	0.0161164
874.924	0.0159716
875.002	0.0161443
875.080	0.0161037
875.158	0.0159592
875.236	0.0160562
875.314	0.0160494
875.392	0.0160223
875.471	0.0160740
875.549	0.0161481
875.627	0.0161290
875.705	0.0162397
875.783	0.0162012
875.861	0.0160920
875.939	0.0161999
876.017	0.0162922
876.096	0.0163474
876.174	0.0163779
876.252	0.0164209
876.330	0.0162263
876.408	0.0162863
876.486	0.0163886
876.564	0.0163991
876.642	0.0163120
876.721	0.0162788
876.799	0.0161640
876.877	0.0160694
876.955	0.0163017
877.033	0.0162078
877.111	0.0160399
877.189	0.0160159
877.267	0.0160162
877.346	0.0160848
877.424	0.0160011
877.502	0.0157976
877.580	0.0159263
877.658	0.0159880
877.736	0.0159277
877.814	0.0159724
877.892	0.0158681
877.971	0.0159779
878.049	0.0159679
878.127	0.0159219
878.205	0.0159341
878.283	0.0159301
878.361	0.0160700
878.439	0.0159830
878.517	0.0161554
878.596	0.0161797
878.674	0.0160947
878.752	0.0160374
878.830	0.0160934
878.908	0.0161099
878.986	0.0160760
879.064	0.0161653
879.142	0.0162604
879.221	0.0160768
879.299	0.0159309
879.377	0.0160372
879.455	0.0160548
879.533	0.0160822
879.611	0.0162018
879.689	0.0161240
879.767	0.0160031
879.846	0.0161384
879.924	0.0162064
880.002	0.0161506
880.080	0.0160053
880.158	0.0160365
880.236	0.0160342
880.314	0.0162533
880.392	0.0162695
880.471	0.0162692
880.549	0.0163419
880.627	0.0162796
880.705	0.0163426
880.783	0.0162222
880.861	0.0162897
880.939	0.0162753
881.017	0.0163255
881.096	0.0162372
881.174	0.0162287
881.252	0.0162962
881.330	0.0163432
881.408	0.0162887
881.486	0.0162418
881.564	0.0163080
881.642	0.0160783
881.721	0.0162095
881.799	0.0161442
881.877	0.0162087
881.955	0.0161881
882.033	0.0161914
882.111	0.0162561
882.189	0.0161638
882.267	0.0162921
882.346	0.0162066
882.424	0.0162242
882.502	0.0162029
882.580	0.0161671
882.658	0.0163210
882.736	0.0161433
882.814	0.0162286
882.892	0.0162643
882.971	0.0163446
883.049	0.0163245
883.127	0.0162002
883.205	0.0160762
883.283	0.0161641
883.361	0.0161117
883.439	0.0162486
883.517	0.0161423
883.596	0.0160815
883.674	0.0160246
883.752	0.0160185
883.830	0.0160580
883.908	0.0160313
883.986	0.0159387
884.064	0.0158435
884.142	0.0159287
884.221	0.0159872
884.299	0.0160217
884.377	0.0158553
884.455	0.0159204
884.533	0.0158552
884.611	0.0160178
884.689	0.0159283
884.767	0.0159248
884.846	0.0158352
884.924	0.0157658
885.002	0.0159105
885.080	0.0159338
885.158	0.0160172
885.236	0.0158698
885.314	0.0157670
885.392	0.0159496
885.471	0.0159392
885.549	0.0159824
885.627	0.0159772
885.705	0.0159287
885.783	0.0159851
885.861	0.0160527
885.939	0.0158852
886.017	0.0160323
886.096	0.0159988
886.174	0.0159302
886.252	0.0159930
886.330	0.0160040
886.408	0.0160593
886.486	0.0161506
886.564	0.0161820
886.642	0.0160677
886.721	0.0160082
886.799	0.0161376
886.877	0.0160853
886.955	0.0160358
887.033	0.0159699
887.111	0.0160477
887.189	0.0160394
887.267	0.0159982
887.346	0.0161292
887.424	0.0160980
887.502	0.0160004
887.580	0.0161440
887.658	0.0161792
887.736	0.0161826
887.814	0.0161384
887.892	0.0162570
887.971	0.0162915
888.049	0.0162941
888.127	0.0162791
888.205	0.0161994
888.283	0.0163306
888.361	0.0163618
888.439	0.0162704
888.517	0.0163510
888.596	0.0165051
888.674	0.0164404
888.752	0.0163566
888.830	0.0164951
888.908	0.0164930
888.986	0.0163466
889.064	0.0164069
889.142	0.0165222
889.221	0.0165378
889.299	0.0164393
889.377	0.0164584
889.455	0.0166435
889.533	0.0166011
889.611	0.0166107
889.689	0.0164938
889.767	0.0164489
889.846	0.0165481
889.924	0.0165480
890.002	0.0165206
890.080	0.0165221
890.158	0.0163444
890.236	0.0165319
890.314	0.0164290
890.392	0.0163373
890.471	0.0164311
890.549	0.0162706
890.627	0.0162444
890.705	0.0162151
890.783	0.0162811
890.861	0.0160908
890.939	0.0160563
891.017	0.0160754
891.096	0.0159799
891.174	0.0160054
891.252	0.0158936
891.330	0.0157483
891.408	0.0158769
891.486	0.0158951
891.564	0.0156760
891.642	0.0158735
891.721	0.0158141
891.799	0.0156089
891.877	0.0156073
891.955	0.0156621
892.033	0.0157787
892.111	0.0155742
892.189	0.0158636
892.267	0.0158925
892.346	0.0158455
892.424	0.0157261
892.502	0.0157704
892.580	0.0158425
892.658	0.0159367
892.736	0.0158453
892.814	0.0159972
892.892	0.0158942
892.971	0.0159760
893.049	0.0160705
893.127	0.0159306
893.205	0.0159644
893.283	0.0159066
893.361	0.0159732
893.439	0.0159911
893.517	0.0159899
893.596	0.0160360
893.674	0.0160480
893.752	0.0160875
893.830	0.0161328
893.908	0.0162843
893.986	0.0162337
894.064	0.0163474
894.142	0.0162050
894.221	0.0162109
894.299	0.0161990
894.377	0.0163052
894.455	0.0162519
894.533	0.0162804
894.611	0.0163647
894.689	0.0162475
894.767	0.0161053
894.846	0.0161277
894.924	0.0161456
895.002	0.0162528
895.080	0.0160559
895.158	0.0159920
895.236	0.0159917
895.314	0.0159470
895.392	0.0159454
895.471	0.0161001
895.549	0.0160066
895.627	0.0160168
895.705	0.0160280
895.783	0.0159682
895.861	0.0159388
895.939	0.0160094
896.017	0.0160468
896.096	0.0161533
896.174	0.0161129
896.252	0.0160793
896.330	0.0161518
896.408	0.0160955
896.486	0.0161905
896.564	0.0160927
896.642	0.0161477
896.721	0.0160651
896.799	0.0161952
896.877	0.0161717
896.955	0.0160738
897.033	0.0161681
897.111	0.0161082
897.189	0.0161708
897.267	0.0162122
897.346	0.0162395
897.424	0.0162171
897.502	0.0162527
897.580	0.0162759
897.658	0.0163798
897.736	0.0162265
897.814	0.0163474
897.892	0.0163695
897.971	0.0162605
898.049	0.0162951
898.127	0.0162415
898.205	0.0163264
898.283	0.0163156
898.361	0.0161964
898.439	0.0162272
898.517	0.0161596
898.596	0.0162408
898.674	0.0161848
898.752	0.0161846
898.830	0.0161408
898.908	0.0161208
898.986	0.0160935
899.064	0.0159769
899.142	0.0159644
899.221	0.0160233
899.299	0.0158894
899.377	0.0159077
899.455	0.0159502
899.533	0.0158591
899.611	0.0159114
899.689	0.0157545
899.767	0.0159144
899.846	0.0159705
899.924	0.0159089
900.002	0.0159299
900.080	0.0159207
900.158	0.0158965
900.236	0.0159272
900.314	0.0158435
900.392	0.0159892
900.471	0.0160471
900.549	0.0158544
900.627	0.0158553
900.705	0.0160382
900.783	0.0158278
900.861	0.0160151
900.939	0.0159466
901.017	0.0158897
901.096	0.0160016
901.174	0.0159548
901.252	0.0158933
901.330	0.0159859
901.408	0.0159630
901.486	0.0158758
901.564	0.0158880
901.642	0.0157589
901.721	0.0159736
901.799	0.0158768
901.877	0.0157775
901.955	0.0157870
902.033	0.0158708
902.111	0.0158585
902.189	0.0156734
902.267	0.0158032
902.346	0.0157550
902.424	0.0158112
902.502	0.0157073
902.580	0.0157505
902.658	0.0157069
902.736	0.0157318
902.814	0.0158260
902.892	0.0156879
902.971	0.0157993
903.049	0.0157386
903.127	0.0159152
903.205	0.0160100
903.283	0.0159459
903.361	0.0157563
903.439	0.0158154
903.517	0.0159159
903.596	0.0159290
903.674	0.0158891
903.752	0.0158530
903.830	0.0159516
903.908	0.0159709
903.986	0.0161488
904.064	0.0161641
904.142	0.0160348
904.221	0.0161498
904.299	0.0161781
904.377	0.0161826
904.455	0.0161450
904.533	0.0161369
904.611	0.0162139
904.689	0.0163126
904.767	0.0162834
904.846	0.0162425
904.924	0.0162854
905.002	0.0163347
905.080	0.0162746
905.158	0.0164539
905.236	0.0163265
905.314	0.0162831
905.392	0.0163237
905.471	0.0163013
905.549	0.0162853
905.627	0.0161623
905.705	0.0164581
905.783	0.0163416
905.861	0.0162440
905.939	0.0161393
906.017	0.0161491
906.096	0.0162972
906.174	0.0162133
906.252	0.0159595
906.330	0.0161858
906.408	0.0159428
906.486	0.0159803
906.564	0.0159777
906.642	0.0159062
906.721	0.0158674
906.799	0.0157230
906.877	0.0157505
906.955	0.0158776
907.033	0.0156975
907.111	0.0158032
907.189	0.0156271
907.267	0.0155602
907.346	0.0156523
907.424	0.0156835
907.502	0.0156256
907.580	0.0156776
907.658	0.0157217
907.736	0.0155837
907.814	0.0156957
907.892	0.0156155
907.971	0.0157198
908.049	0.0157121
908.127	0.0156947
908.205	0.0157690
908.283	0.0156614
908.361	0.0157070
908.439	0.0157627
908.517	0.0159729
908.596	0.0159443
908.674	0.0157967
908.752	0.0158795
908.830	0.0159406
908.908	0.0159927
908.986	0.0159184
909.064	0.0159616
909.142	0.0160960
909.221	0.0159687
909.299	0.0161008
909.377	0.0161559
909.455	0.0160538
909.533	0.0160536
909.611	0.0161279
909.689	0.0162077
909.767	0.0161504
909.846	0.0161942
909.924	0.0162208
910.002	0.0162232
910.080	0.0161193
910.158	0.0159671
910.236	0.0161679
910.314	0.0160750
910.392	0.0161165
910.471	0.0160610
910.549	0.0159948
910.627	0.0159518
910.705	0.0160365
910.783	0.0161661
910.861	0.0159875
910.939	0.0160905
911.017	0.0160063
911.096	0.0160408
911.174	0.0159602
911.252	0.0160782
911.330	0.0160590
911.408	0.0158987
911.486	0.0159177
911.564	0.0161718
911.642	0.0159292
911.721	0.0159556
911.799	0.0162206
911.877	0.0160242
911.955	0.0160367
912.033	0.0161625
912.111	0.0160587
912.189	0.0160529
912.267	0.0161539
912.346	0.0161076
912.424	0.0160635
912.502	0.0160342
912.580	0.0160839
912.658	0.0159539
912.736	0.0161241
912.814	0.0161451
912.892	0.0160754
912.971	0.0160314
913.049	0.0161635
913.127	0.0161655
913.205	0.0159945
913.283	0.0161934
913.361	0.0162289
913.439	0.0160497
913.517	0.0160248
913.596	0.0159914
913.674	0.0160988
913.752	0.0161305
913.830	0.0160037
913.908	0.0161090
913.986	0.0159874
914.064	0.0160980
914.142	0.0162090
914.221	0.0161394
914.299	0.0160189
914.377	0.0161465
914.455	0.0160739
914.533	0.0159506
914.611	0.0161182
914.689	0.0163368
914.767	0.0162638
914.846	0.0163126
914.924	0.0162016
915.002	0.0162769
915.080	0.0161681
915.158	0.0163300
915.236	0.0163036
915.314	0.0162752
915.392	0.0164400
915.471	0.0162659
915.549	0.0163284
915.627	0.0164498
915.705	0.0164367
915.783	0.0164397
915.861	0.0164465
915.939	0.0164152
916.017	0.0165450
916.096	0.0164945
916.174	0.0163906
916.252	0.0164218
916.330	0.0165200
916.408	0.0164159
916.486	0.0164344
916.564	0.0165447
916.642	0.0166420
916.721	0.0166573
916.799	0.0166175
916.877	0.0167235
916.955	0.0164452
917.033	0.0165406
917.111	0.0167337
917.189	0.0166283
917.267	0.0165728
917.346	0.0166113
917.424	0.0167020
917.502	0.0165265
917.580	0.0165440
917.658	0.0165749
917.736	0.0165771
917.814	0.0165940
917.892	0.0165365
917.971	0.0165613
918.049	0.0164606
918.127	0.0164275
918.205	0.0164880
918.283	0.0165973
918.361	0.0165261
918.439	0.0164874
918.517	0.0164415
918.596	0.0164021
918.674	0.0164847
918.752	0.0164382
918.830	0.0164865
918.908	0.0164258
918.986	0.0163528
919.064	0.0162080
919.142	0.0162258
919.221	0.0162079
919.299	0.0162085
919.377	0.0162170
919.455	0.0160332
919.533	0.0161204
919.611	0.0162622
919.689	0.0162892
919.767	0.0161594
919.846	0.0161636
919.924	0.0162742
