06/29/2022	21:46:10	Ver.	4.1	UNKNOWN
Optical Delay	600.001752	Delta X		0.078125	Sweeps	1	Scan Rate	0/0
Coordinates	Axis 1	NaN	Axis 2	NaN	Axis 3	NaN	Axis 4	NaN	Axis 5	NaN	Axis 6	0.000000
TX Power	0.000000	RX Power	0.000000

600.002	0.0170574
600.080	0.0159707
600.158	0.0159039
600.236	0.0160206
600.314	0.0157993
600.392	0.0161387
600.471	0.0159760
600.549	0.0159341
600.627	0.0160506
600.705	0.0159776
600.783	0.0162688
600.861	0.0161948
600.939	0.0162864
601.017	0.0162123
601.096	0.0162251
601.174	0.0163164
601.252	0.0163006
601.330	0.0166071
601.408	0.0164858
601.486	0.0164445
601.564	0.0163597
601.642	0.0164294
601.721	0.0164236
601.799	0.0163058
601.877	0.0161731
601.955	0.0161735
602.033	0.0162129
602.111	0.0159548
602.189	0.0159859
602.267	0.0161294
602.346	0.0161761
602.424	0.0159505
602.502	0.0158675
602.580	0.0159577
602.658	0.0160995
602.736	0.0160419
602.814	0.0159206
602.892	0.0159935
602.971	0.0159310
603.049	0.0160079
603.127	0.0159835
603.205	0.0161153
603.283	0.0159840
603.361	0.0160524
603.439	0.0158932
603.517	0.0159000
603.596	0.0159103
603.674	0.0158073
603.752	0.0159193
603.830	0.0158647
603.908	0.0157600
603.986	0.0158390
604.064	0.0157175
604.142	0.0159762
604.221	0.0159206
604.299	0.0159299
604.377	0.0161554
604.455	0.0161901
604.533	0.0160765
604.611	0.0162627
604.689	0.0161951
604.767	0.0163449
604.846	0.0163657
604.924	0.0164164
605.002	0.0165229
605.080	0.0165826
605.158	0.0166254
605.236	0.0167171
605.314	0.0167288
605.392	0.0168895
605.471	0.0166087
605.549	0.0165263
605.627	0.0167545
605.705	0.0166384
605.783	0.0168251
605.861	0.0168515
605.939	0.0168404
606.017	0.0170316
606.096	0.0170129
606.174	0.0170724
606.252	0.0170547
606.330	0.0168745
606.408	0.0165913
606.486	0.0163289
606.564	0.0157944
606.642	0.0153638
606.721	0.0151880
606.799	0.0146942
606.877	0.0146339
606.955	0.0145725
607.033	0.0145107
607.111	0.0145298
607.189	0.0147874
607.267	0.0150016
607.346	0.0149991
607.424	0.0151958
607.502	0.0154185
607.580	0.0155254
607.658	0.0156847
607.736	0.0157542
607.814	0.0160485
607.892	0.0160463
607.971	0.0162119
608.049	0.0161076
608.127	0.0162948
608.205	0.0161716
608.283	0.0164409
608.361	0.0163714
608.439	0.0163691
608.517	0.0164587
608.596	0.0164107
608.674	0.0163217
608.752	0.0162286
608.830	0.0160791
608.908	0.0159849
608.986	0.0158885
609.064	0.0158305
609.142	0.0158309
609.221	0.0157854
609.299	0.0158117
609.377	0.0157415
609.455	0.0158656
609.533	0.0158725
609.611	0.0157444
609.689	0.0158076
609.767	0.0156933
609.846	0.0157310
609.924	0.0157925
610.002	0.0157948
610.080	0.0159862
610.158	0.0158250
610.236	0.0158402
610.314	0.0159608
610.392	0.0160437
610.471	0.0161049
610.549	0.0161395
610.627	0.0162138
610.705	0.0160481
610.783	0.0161340
610.861	0.0161364
610.939	0.0162516
611.017	0.0164073
611.096	0.0165177
611.174	0.0165618
611.252	0.0166275
611.330	0.0168433
611.408	0.0166075
611.486	0.0169794
611.564	0.0169869
611.642	0.0168171
611.721	0.0170072
611.799	0.0172662
611.877	0.0171424
611.955	0.0172705
612.033	0.0173212
612.111	0.0174183
612.189	0.0173118
612.267	0.0172426
612.346	0.0174220
612.424	0.0172826
612.502	0.0171677
612.580	0.0172992
612.658	0.0173050
612.736	0.0170217
612.814	0.0170828
612.892	0.0169718
612.971	0.0171244
613.049	0.0169971
613.127	0.0170313
613.205	0.0171064
613.283	0.0169568
613.361	0.0167448
613.439	0.0169026
613.517	0.0168851
613.596	0.0169061
613.674	0.0167606
613.752	0.0167442
613.830	0.0168053
613.908	0.0166167
613.986	0.0164149
614.064	0.0167115
614.142	0.0165881
614.221	0.0163589
614.299	0.0164165
614.377	0.0163361
614.455	0.0161949
614.533	0.0162291
614.611	0.0160258
614.689	0.0159615
614.767	0.0159465
614.846	0.0160320
614.924	0.0159291
615.002	0.0158676
615.080	0.0158212
615.158	0.0157554
615.236	0.0158206
615.314	0.0156591
615.392	0.0156479
615.471	0.0157752
615.549	0.0156474
615.627	0.0156381
615.705	0.0154671
615.783	0.0156516
615.861	0.0155731
615.939	0.0155213
616.017	0.0154770
616.096	0.0155396
616.174	0.0154828
616.252	0.0154580
616.330	0.0154819
616.408	0.0153102
616.486	0.0153783
616.564	0.0151933
616.642	0.0153888
616.721	0.0153226
616.799	0.0151209
616.877	0.0151634
616.955	0.0152975
617.033	0.0153386
617.111	0.0154132
617.189	0.0151863
617.267	0.0153554
617.346	0.0154048
617.424	0.0154661
617.502	0.0154539
617.580	0.0157726
617.658	0.0157034
617.736	0.0155516
617.814	0.0155237
617.892	0.0156460
617.971	0.0153577
618.049	0.0152724
618.127	0.0150554
618.205	0.0148074
618.283	0.0148506
618.361	0.0148283
618.439	0.0148598
618.517	0.0148785
618.596	0.0148554
618.674	0.0151023
618.752	0.0152486
618.830	0.0152545
618.908	0.0153536
618.986	0.0155706
619.064	0.0156512
619.142	0.0157786
619.221	0.0159348
619.299	0.0158542
619.377	0.0159751
619.455	0.0159302
619.533	0.0162001
619.611	0.0161704
619.689	0.0162575
619.767	0.0163616
619.846	0.0161671
619.924	0.0161632
620.002	0.0163454
620.080	0.0161541
620.158	0.0162791
620.236	0.0162379
620.314	0.0163012
620.392	0.0161821
620.471	0.0161829
620.549	0.0162769
620.627	0.0161949
620.705	0.0161009
620.783	0.0161265
620.861	0.0162510
620.939	0.0162177
621.017	0.0161725
621.096	0.0160912
621.174	0.0160681
621.252	0.0161122
621.330	0.0160225
621.408	0.0159187
621.486	0.0160704
621.564	0.0161972
621.642	0.0161813
621.721	0.0158784
621.799	0.0160992
621.877	0.0160951
621.955	0.0158247
622.033	0.0160165
622.111	0.0160220
622.189	0.0161091
622.267	0.0161025
622.346	0.0161420
622.424	0.0161652
622.502	0.0161758
622.580	0.0163026
622.658	0.0162588
622.736	0.0163625
622.814	0.0165316
622.892	0.0165130
622.971	0.0164528
623.049	0.0165198
623.127	0.0164781
623.205	0.0167635
623.283	0.0166917
623.361	0.0166555
623.439	0.0167545
623.517	0.0167976
623.596	0.0166742
623.674	0.0165731
623.752	0.0166779
623.830	0.0167254
623.908	0.0166206
623.986	0.0168120
624.064	0.0168738
624.142	0.0168430
624.221	0.0166884
624.299	0.0167217
624.377	0.0167920
624.455	0.0167383
624.533	0.0166431
624.611	0.0167394
624.689	0.0167631
624.767	0.0166776
624.846	0.0165919
624.924	0.0165472
625.002	0.0164605
625.080	0.0165405
625.158	0.0163945
625.236	0.0165642
625.314	0.0163292
625.392	0.0164688
625.471	0.0164495
625.549	0.0162305
625.627	0.0161604
625.705	0.0162633
625.783	0.0162298
625.861	0.0160641
625.939	0.0161674
626.017	0.0161512
626.096	0.0161864
626.174	0.0163203
626.252	0.0162357
626.330	0.0162240
626.408	0.0161351
626.486	0.0161715
626.564	0.0161388
626.642	0.0161564
626.721	0.0162939
626.799	0.0162759
626.877	0.0160745
626.955	0.0162354
627.033	0.0161910
627.111	0.0161921
627.189	0.0162135
627.267	0.0163632
627.346	0.0162496
627.424	0.0163336
627.502	0.0163473
627.580	0.0162923
627.658	0.0163996
627.736	0.0161516
627.814	0.0161890
627.892	0.0161656
627.971	0.0160449
628.049	0.0161525
628.127	0.0160034
628.205	0.0159401
628.283	0.0156992
628.361	0.0156361
628.439	0.0157724
628.517	0.0155544
628.596	0.0156072
628.674	0.0156588
628.752	0.0156475
628.830	0.0157090
628.908	0.0155870
628.986	0.0156978
629.064	0.0156181
629.142	0.0157455
629.221	0.0157165
629.299	0.0157050
629.377	0.0157285
629.455	0.0157864
629.533	0.0158334
629.611	0.0158809
629.689	0.0157506
629.767	0.0158458
629.846	0.0158136
629.924	0.0159364
630.002	0.0157558
630.080	0.0157304
630.158	0.0157970
630.236	0.0156739
630.314	0.0156929
630.392	0.0156854
630.471	0.0155761
630.549	0.0156636
630.627	0.0157315
630.705	0.0156840
630.783	0.0156898
630.861	0.0156637
630.939	0.0156419
631.017	0.0157120
631.096	0.0157235
631.174	0.0156331
631.252	0.0157566
631.330	0.0157744
631.408	0.0158715
631.486	0.0158906
631.564	0.0157999
631.642	0.0158068
631.721	0.0158674
631.799	0.0159376
631.877	0.0159934
631.955	0.0160815
632.033	0.0162063
632.111	0.0162159
632.189	0.0162802
632.267	0.0163309
632.346	0.0164252
632.424	0.0162919
632.502	0.0163341
632.580	0.0163855
632.658	0.0166669
632.736	0.0164708
632.814	0.0164177
632.892	0.0167590
632.971	0.0168623
633.049	0.0166348
633.127	0.0167546
633.205	0.0168755
633.283	0.0168964
633.361	0.0167623
633.439	0.0168769
633.517	0.0168615
633.596	0.0169861
633.674	0.0168597
633.752	0.0169376
633.830	0.0167575
633.908	0.0167654
633.986	0.0167386
634.064	0.0167080
634.142	0.0167959
634.221	0.0166800
634.299	0.0167689
634.377	0.0167966
634.455	0.0167828
634.533	0.0168511
634.611	0.0169228
634.689	0.0168365
634.767	0.0168814
634.846	0.0168844
634.924	0.0168938
635.002	0.0168298
635.080	0.0170050
635.158	0.0169333
635.236	0.0169733
635.314	0.0167879
635.392	0.0169100
635.471	0.0168240
635.549	0.0168214
635.627	0.0169116
635.705	0.0167963
635.783	0.0166401
635.861	0.0167101
635.939	0.0166599
636.017	0.0166251
636.096	0.0167683
636.174	0.0166906
636.252	0.0166031
636.330	0.0165157
636.408	0.0165936
636.486	0.0164455
636.564	0.0163460
636.642	0.0163039
636.721	0.0165332
636.799	0.0164470
636.877	0.0162364
636.955	0.0162417
637.033	0.0162094
637.111	0.0161090
637.189	0.0160754
637.267	0.0159433
637.346	0.0158466
637.424	0.0158707
637.502	0.0156958
637.580	0.0156911
637.658	0.0155994
637.736	0.0157111
637.814	0.0157228
637.892	0.0156913
637.971	0.0158033
638.049	0.0156594
638.127	0.0156872
638.205	0.0154912
638.283	0.0156741
638.361	0.0157545
638.439	0.0156661
638.517	0.0155807
638.596	0.0156645
638.674	0.0156911
638.752	0.0157640
638.830	0.0156944
638.908	0.0157570
638.986	0.0158408
639.064	0.0159652
639.142	0.0158254
639.221	0.0158142
639.299	0.0158815
639.377	0.0159212
639.455	0.0160658
639.533	0.0159241
639.611	0.0159272
639.689	0.0159846
639.767	0.0159902
639.846	0.0159743
639.924	0.0160201
640.002	0.0162035
640.080	0.0160467
640.158	0.0159519
640.236	0.0161590
640.314	0.0162070
640.392	0.0160482
640.471	0.0162160
640.549	0.0161911
640.627	0.0162122
640.705	0.0161225
640.783	0.0161476
640.861	0.0162267
640.939	0.0161931
641.017	0.0162884
641.096	0.0161955
641.174	0.0162155
641.252	0.0161877
641.330	0.0162639
641.408	0.0161275
641.486	0.0162714
641.564	0.0161678
641.642	0.0163776
641.721	0.0162157
641.799	0.0160498
641.877	0.0160749
641.955	0.0160844
642.033	0.0161780
642.111	0.0160140
642.189	0.0160973
642.267	0.0161275
642.346	0.0160629
642.424	0.0160361
642.502	0.0161381
642.580	0.0162719
642.658	0.0162561
642.736	0.0160792
642.814	0.0160933
642.892	0.0160937
642.971	0.0160361
643.049	0.0161823
643.127	0.0161015
643.205	0.0160056
643.283	0.0160461
643.361	0.0160530
643.439	0.0159681
643.517	0.0160690
643.596	0.0159573
643.674	0.0159474
643.752	0.0159492
643.830	0.0160220
643.908	0.0160410
643.986	0.0159850
644.064	0.0160062
644.142	0.0160345
644.221	0.0160233
644.299	0.0160257
644.377	0.0159457
644.455	0.0159498
644.533	0.0159685
644.611	0.0158400
644.689	0.0159239
644.767	0.0159219
644.846	0.0159055
644.924	0.0157211
645.002	0.0156351
645.080	0.0158167
645.158	0.0158108
645.236	0.0158810
645.314	0.0159393
645.392	0.0157970
645.471	0.0159280
645.549	0.0159401
645.627	0.0159776
645.705	0.0158025
645.783	0.0158508
645.861	0.0158517
645.939	0.0158390
646.017	0.0157542
646.096	0.0156228
646.174	0.0158505
646.252	0.0157868
646.330	0.0157206
646.408	0.0157439
646.486	0.0157119
646.564	0.0156847
646.642	0.0156821
646.721	0.0157326
646.799	0.0158522
646.877	0.0157661
646.955	0.0158184
647.033	0.0158519
647.111	0.0157172
647.189	0.0157782
647.267	0.0157736
647.346	0.0159336
647.424	0.0158265
647.502	0.0157914
647.580	0.0159201
647.658	0.0160490
647.736	0.0159899
647.814	0.0161514
647.892	0.0161400
647.971	0.0161262
648.049	0.0161907
648.127	0.0162619
648.205	0.0161206
648.283	0.0161165
648.361	0.0162147
648.439	0.0161359
648.517	0.0161597
648.596	0.0162764
648.674	0.0161848
648.752	0.0161337
648.830	0.0162044
648.908	0.0163078
648.986	0.0162129
649.064	0.0161560
649.142	0.0161984
649.221	0.0162509
649.299	0.0161359
649.377	0.0162904
649.455	0.0163963
649.533	0.0161643
649.611	0.0161809
649.689	0.0160849
649.767	0.0161121
649.846	0.0162054
649.924	0.0162543
650.002	0.0161324
650.080	0.0161758
650.158	0.0161229
650.236	0.0161354
650.314	0.0160204
650.392	0.0162167
650.471	0.0161791
650.549	0.0162285
650.627	0.0161136
650.705	0.0160941
650.783	0.0161759
650.861	0.0162109
650.939	0.0161431
651.017	0.0160838
651.096	0.0162052
651.174	0.0162122
651.252	0.0163315
651.330	0.0163725
651.408	0.0162688
651.486	0.0161953
651.564	0.0162682
651.642	0.0162444
651.721	0.0162661
651.799	0.0162572
651.877	0.0162011
651.955	0.0162172
652.033	0.0161015
652.111	0.0161846
652.189	0.0162959
652.267	0.0163389
652.346	0.0161929
652.424	0.0161478
652.502	0.0160881
652.580	0.0161171
652.658	0.0160868
652.736	0.0160954
652.814	0.0161578
652.892	0.0159694
652.971	0.0161524
653.049	0.0160797
653.127	0.0161124
653.205	0.0161982
653.283	0.0161400
653.361	0.0160414
653.439	0.0161970
653.517	0.0162805
653.596	0.0162579
653.674	0.0160822
653.752	0.0162029
653.830	0.0161024
653.908	0.0163171
653.986	0.0162511
654.064	0.0161086
654.142	0.0161080
654.221	0.0161226
654.299	0.0161827
654.377	0.0160228
654.455	0.0159509
654.533	0.0160714
654.611	0.0160948
654.689	0.0160254
654.767	0.0160473
654.846	0.0160901
654.924	0.0160493
655.002	0.0160789
655.080	0.0160776
655.158	0.0160610
655.236	0.0160059
655.314	0.0161698
655.392	0.0161864
655.471	0.0163274
655.549	0.0163014
655.627	0.0162872
655.705	0.0164452
655.783	0.0164630
655.861	0.0164159
655.939	0.0165258
656.017	0.0165147
656.096	0.0165366
656.174	0.0164732
656.252	0.0164471
656.330	0.0166082
656.408	0.0164570
656.486	0.0165833
656.564	0.0164623
656.642	0.0165176
656.721	0.0164925
656.799	0.0163968
656.877	0.0164174
656.955	0.0164317
657.033	0.0164949
657.111	0.0164748
657.189	0.0166722
657.267	0.0165843
657.346	0.0164426
657.424	0.0166209
657.502	0.0165230
657.580	0.0163493
657.658	0.0164005
657.736	0.0163755
657.814	0.0163605
657.892	0.0164801
657.971	0.0164759
658.049	0.0163637
658.127	0.0163136
658.205	0.0164096
658.283	0.0165877
658.361	0.0166990
658.439	0.0168171
658.517	0.0166405
658.596	0.0165423
658.674	0.0167103
658.752	0.0168143
658.830	0.0167406
658.908	0.0167927
658.986	0.0168328
659.064	0.0167937
659.142	0.0169267
659.221	0.0168407
659.299	0.0167925
659.377	0.0167290
659.455	0.0166290
659.533	0.0167815
659.611	0.0167052
659.689	0.0166841
659.767	0.0167615
659.846	0.0165358
659.924	0.0166736
660.002	0.0166012
660.080	0.0166241
660.158	0.0165788
660.236	0.0165052
660.314	0.0166893
660.392	0.0165797
660.471	0.0165713
660.549	0.0165541
660.627	0.0165569
660.705	0.0165726
660.783	0.0165031
660.861	0.0165866
660.939	0.0164544
661.017	0.0163805
661.096	0.0162987
661.174	0.0164248
661.252	0.0164832
661.330	0.0163770
661.408	0.0162658
661.486	0.0163285
661.564	0.0163204
661.642	0.0162220
661.721	0.0162045
661.799	0.0162440
661.877	0.0161556
661.955	0.0160866
662.033	0.0160577
662.111	0.0162237
662.189	0.0161356
662.267	0.0160222
662.346	0.0161427
662.424	0.0161137
662.502	0.0161204
662.580	0.0159640
662.658	0.0161250
662.736	0.0159280
662.814	0.0159777
662.892	0.0158177
662.971	0.0157708
663.049	0.0158540
663.127	0.0157671
663.205	0.0158077
663.283	0.0156486
663.361	0.0156876
663.439	0.0156989
663.517	0.0156979
663.596	0.0155116
663.674	0.0156040
663.752	0.0156081
663.830	0.0156748
663.908	0.0156042
663.986	0.0156042
664.064	0.0156389
664.142	0.0158266
664.221	0.0155920
664.299	0.0157146
664.377	0.0158766
664.455	0.0159959
664.533	0.0157766
664.611	0.0159930
664.689	0.0160739
664.767	0.0159776
664.846	0.0161008
664.924	0.0161767
665.002	0.0159810
665.080	0.0160829
665.158	0.0160413
665.236	0.0162097
665.314	0.0161571
665.392	0.0161456
665.471	0.0162392
665.549	0.0161536
665.627	0.0159927
665.705	0.0161967
665.783	0.0160258
665.861	0.0158257
665.939	0.0159352
666.017	0.0158976
666.096	0.0157815
666.174	0.0157121
666.252	0.0155828
666.330	0.0156848
666.408	0.0155694
666.486	0.0155482
666.564	0.0155813
666.642	0.0155485
666.721	0.0155793
666.799	0.0156943
666.877	0.0155945
666.955	0.0156277
667.033	0.0156789
667.111	0.0156692
667.189	0.0156700
667.267	0.0157098
667.346	0.0157956
667.424	0.0157040
667.502	0.0157005
667.580	0.0159163
667.658	0.0159255
667.736	0.0159127
667.814	0.0159652
667.892	0.0160560
667.971	0.0161522
668.049	0.0161607
668.127	0.0162122
668.205	0.0162972
668.283	0.0164236
668.361	0.0163874
668.439	0.0164819
668.517	0.0166242
668.596	0.0165721
668.674	0.0166686
668.752	0.0167195
668.830	0.0169455
668.908	0.0169338
668.986	0.0170164
669.064	0.0171226
669.142	0.0171001
669.221	0.0171571
669.299	0.0171279
669.377	0.0173368
669.455	0.0172718
669.533	0.0172000
669.611	0.0172462
669.689	0.0172105
669.767	0.0171375
669.846	0.0169695
669.924	0.0170062
670.002	0.0170129
670.080	0.0169398
670.158	0.0169717
670.236	0.0168835
670.314	0.0167743
670.392	0.0167030
670.471	0.0167584
670.549	0.0166218
670.627	0.0165491
670.705	0.0164381
670.783	0.0163358
670.861	0.0163398
670.939	0.0161906
671.017	0.0162276
671.096	0.0162517
671.174	0.0162106
671.252	0.0160903
671.330	0.0161094
671.408	0.0159546
671.486	0.0159066
671.564	0.0158098
671.642	0.0159748
671.721	0.0159440
671.799	0.0160195
671.877	0.0160979
671.955	0.0159863
672.033	0.0159958
672.111	0.0160578
672.189	0.0161119
672.267	0.0161333
672.346	0.0160366
672.424	0.0162726
672.502	0.0163157
672.580	0.0163324
672.658	0.0163071
672.736	0.0162566
672.814	0.0164075
672.892	0.0163406
672.971	0.0163888
673.049	0.0164639
673.127	0.0165079
673.205	0.0164928
673.283	0.0163902
673.361	0.0165128
673.439	0.0164261
673.517	0.0162815
673.596	0.0162875
673.674	0.0162776
673.752	0.0162363
673.830	0.0162492
673.908	0.0162384
673.986	0.0162235
674.064	0.0161214
674.142	0.0161398
674.221	0.0160007
674.299	0.0159946
674.377	0.0160222
674.455	0.0160275
674.533	0.0160808
674.611	0.0160466
674.689	0.0160839
674.767	0.0160078
674.846	0.0160685
674.924	0.0158713
675.002	0.0158086
675.080	0.0157839
675.158	0.0159264
675.236	0.0159714
675.314	0.0156705
675.392	0.0157477
675.471	0.0157852
675.549	0.0157743
675.627	0.0157078
675.705	0.0159112
675.783	0.0157327
675.861	0.0158216
675.939	0.0157902
676.017	0.0157291
676.096	0.0159204
676.174	0.0158900
676.252	0.0158308
676.330	0.0159039
676.408	0.0159708
676.486	0.0159706
676.564	0.0159643
676.642	0.0158996
676.721	0.0160247
676.799	0.0160301
676.877	0.0159979
676.955	0.0161471
677.033	0.0162022
677.111	0.0160733
677.189	0.0161591
677.267	0.0161504
677.346	0.0161964
677.424	0.0162639
677.502	0.0162619
677.580	0.0161436
677.658	0.0163324
677.736	0.0161509
677.814	0.0162734
677.892	0.0163010
677.971	0.0163467
678.049	0.0162948
678.127	0.0162324
678.205	0.0162639
678.283	0.0162884
678.361	0.0162832
678.439	0.0163850
678.517	0.0163898
678.596	0.0163374
678.674	0.0164237
678.752	0.0164201
678.830	0.0164024
678.908	0.0164320
678.986	0.0164933
679.064	0.0164069
679.142	0.0163802
679.221	0.0165222
679.299	0.0166473
679.377	0.0165778
679.455	0.0164596
679.533	0.0165258
679.611	0.0166068
679.689	0.0165681
679.767	0.0165221
679.846	0.0164702
679.924	0.0166387
680.002	0.0167156
680.080	0.0166210
680.158	0.0166239
680.236	0.0164735
680.314	0.0166790
680.392	0.0167564
680.471	0.0167197
680.549	0.0165986
680.627	0.0165991
680.705	0.0165962
680.783	0.0166472
680.861	0.0167130
680.939	0.0167921
681.017	0.0166168
681.096	0.0166540
681.174	0.0166340
681.252	0.0163950
681.330	0.0165533
681.408	0.0164305
681.486	0.0163961
681.564	0.0164699
681.642	0.0164902
681.721	0.0162682
681.799	0.0163054
681.877	0.0162235
681.955	0.0162002
682.033	0.0161602
682.111	0.0160825
682.189	0.0160545
682.267	0.0162984
682.346	0.0161022
682.424	0.0159554
682.502	0.0160554
682.580	0.0158468
682.658	0.0159200
682.736	0.0158803
682.814	0.0157191
682.892	0.0157219
682.971	0.0158222
683.049	0.0157430
683.127	0.0156531
683.205	0.0157495
683.283	0.0156834
683.361	0.0157914
683.439	0.0156116
683.517	0.0155981
683.596	0.0156986
683.674	0.0157206
683.752	0.0156445
683.830	0.0156850
683.908	0.0158431
683.986	0.0159033
684.064	0.0158411
684.142	0.0159948
684.221	0.0160722
684.299	0.0160238
684.377	0.0162257
684.455	0.0160845
684.533	0.0161333
684.611	0.0161869
684.689	0.0162708
684.767	0.0162550
684.846	0.0163533
684.924	0.0162247
685.002	0.0162225
685.080	0.0162630
685.158	0.0163139
685.236	0.0164761
685.314	0.0165063
685.392	0.0164102
685.471	0.0164253
685.549	0.0164488
685.627	0.0165035
685.705	0.0167332
685.783	0.0165304
685.861	0.0164821
685.939	0.0163815
686.017	0.0163672
686.096	0.0162492
686.174	0.0162050
686.252	0.0162949
686.330	0.0162740
686.408	0.0162724
686.486	0.0161720
686.564	0.0161572
686.642	0.0161936
686.721	0.0160811
686.799	0.0160569
686.877	0.0161668
686.955	0.0161430
687.033	0.0162138
687.111	0.0162479
687.189	0.0160824
687.267	0.0161211
687.346	0.0160839
687.424	0.0161302
687.502	0.0161721
687.580	0.0160121
687.658	0.0160112
687.736	0.0159056
687.814	0.0159264
687.892	0.0158579
687.971	0.0158068
688.049	0.0157916
688.127	0.0157617
688.205	0.0158392
688.283	0.0158244
688.361	0.0158807
688.439	0.0157424
688.517	0.0156562
688.596	0.0156758
688.674	0.0158146
688.752	0.0158652
688.830	0.0157488
688.908	0.0157658
688.986	0.0157169
689.064	0.0156275
689.142	0.0155405
689.221	0.0155730
689.299	0.0155706
689.377	0.0154549
689.455	0.0151891
689.533	0.0153484
689.611	0.0153372
689.689	0.0152721
689.767	0.0153466
689.846	0.0152482
689.924	0.0153581
690.002	0.0153194
690.080	0.0155416
690.158	0.0153709
690.236	0.0155450
690.314	0.0155354
690.392	0.0156821
690.471	0.0158097
690.549	0.0158315
690.627	0.0158395
690.705	0.0160781
690.783	0.0159818
690.861	0.0161803
690.939	0.0161732
691.017	0.0162302
691.096	0.0162074
691.174	0.0162578
691.252	0.0163418
691.330	0.0162433
691.408	0.0164906
691.486	0.0163326
691.564	0.0162288
691.642	0.0164413
691.721	0.0162966
691.799	0.0162395
691.877	0.0162350
691.955	0.0161882
692.033	0.0161681
692.111	0.0160046
692.189	0.0162733
692.267	0.0161884
692.346	0.0161250
692.424	0.0161521
692.502	0.0162329
692.580	0.0160795
692.658	0.0160442
692.736	0.0160836
692.814	0.0161828
692.892	0.0161379
692.971	0.0159913
693.049	0.0161983
693.127	0.0160403
693.205	0.0162756
693.283	0.0162982
693.361	0.0161362
693.439	0.0161809
693.517	0.0161578
693.596	0.0162585
693.674	0.0161459
693.752	0.0163714
693.830	0.0164052
693.908	0.0163631
693.986	0.0163138
694.064	0.0164424
694.142	0.0164214
694.221	0.0165318
694.299	0.0164859
694.377	0.0165338
694.455	0.0164906
694.533	0.0166114
694.611	0.0165708
694.689	0.0167032
694.767	0.0167317
694.846	0.0168058
694.924	0.0168819
695.002	0.0168869
695.080	0.0168492
695.158	0.0168938
695.236	0.0168444
695.314	0.0167973
695.392	0.0168271
695.471	0.0168196
695.549	0.0169170
695.627	0.0168248
695.705	0.0168124
695.783	0.0169675
695.861	0.0167994
695.939	0.0167909
696.017	0.0167582
696.096	0.0168260
696.174	0.0167897
696.252	0.0167532
696.330	0.0167897
696.408	0.0166963
696.486	0.0167320
696.564	0.0166398
696.642	0.0167636
696.721	0.0165109
696.799	0.0166278
696.877	0.0167030
696.955	0.0165240
697.033	0.0166367
697.111	0.0165161
697.189	0.0164896
697.267	0.0163708
697.346	0.0165774
697.424	0.0166424
697.502	0.0165025
697.580	0.0164085
697.658	0.0165341
697.736	0.0165852
697.814	0.0164341
697.892	0.0163245
697.971	0.0163647
698.049	0.0163441
698.127	0.0164494
698.205	0.0162856
698.283	0.0164868
698.361	0.0164647
698.439	0.0162225
698.517	0.0160458
698.596	0.0161644
698.674	0.0162409
698.752	0.0161290
698.830	0.0161745
698.908	0.0161108
698.986	0.0160821
699.064	0.0159956
699.142	0.0158875
699.221	0.0158838
699.299	0.0157975
699.377	0.0157849
699.455	0.0155926
699.533	0.0156739
699.611	0.0157096
699.689	0.0157356
699.767	0.0157328
699.846	0.0154910
699.924	0.0155676
700.002	0.0155491
700.080	0.0155225
700.158	0.0156072
700.236	0.0155587
700.314	0.0155709
700.392	0.0155181
700.471	0.0154894
700.549	0.0154491
700.627	0.0154839
700.705	0.0156312
700.783	0.0155535
700.861	0.0154471
700.939	0.0155602
701.017	0.0155168
701.096	0.0154948
701.174	0.0156063
701.252	0.0156729
701.330	0.0156216
701.408	0.0157500
701.486	0.0156944
701.564	0.0156933
701.642	0.0158456
701.721	0.0159041
701.799	0.0161929
701.877	0.0158929
701.955	0.0159439
702.033	0.0160796
702.111	0.0161372
702.189	0.0160359
702.267	0.0160669
702.346	0.0160405
702.424	0.0160922
702.502	0.0160499
702.580	0.0160116
702.658	0.0160791
702.736	0.0159544
702.814	0.0159843
702.892	0.0160692
702.971	0.0160551
703.049	0.0160467
703.127	0.0159885
703.205	0.0160471
703.283	0.0160863
703.361	0.0159819
703.439	0.0160625
703.517	0.0160822
703.596	0.0161656
703.674	0.0161224
703.752	0.0161492
703.830	0.0162679
703.908	0.0162769
703.986	0.0162166
704.064	0.0161258
704.142	0.0161968
704.221	0.0161993
704.299	0.0162179
704.377	0.0161679
704.455	0.0160755
704.533	0.0161036
704.611	0.0161017
704.689	0.0162006
704.767	0.0160984
704.846	0.0160668
704.924	0.0159926
705.002	0.0160548
705.080	0.0160505
705.158	0.0161260
705.236	0.0160361
705.314	0.0161526
705.392	0.0160780
705.471	0.0161629
705.549	0.0162231
705.627	0.0161761
705.705	0.0161357
705.783	0.0161466
705.861	0.0161468
705.939	0.0161414
706.017	0.0162294
706.096	0.0162080
706.174	0.0162072
706.252	0.0162933
706.330	0.0161228
706.408	0.0161303
706.486	0.0163633
706.564	0.0162762
706.642	0.0161229
706.721	0.0160593
706.799	0.0160130
706.877	0.0161441
706.955	0.0160059
707.033	0.0159240
707.111	0.0160830
707.189	0.0159486
707.267	0.0158942
707.346	0.0160101
707.424	0.0159032
707.502	0.0159798
707.580	0.0159334
707.658	0.0158144
707.736	0.0158778
707.814	0.0159444
707.892	0.0159523
707.971	0.0159570
708.049	0.0159609
708.127	0.0158774
708.205	0.0158418
708.283	0.0158595
708.361	0.0158247
708.439	0.0158774
708.517	0.0157948
708.596	0.0159695
708.674	0.0159249
708.752	0.0159018
708.830	0.0159191
708.908	0.0158913
708.986	0.0158936
709.064	0.0158722
709.142	0.0159016
709.221	0.0158553
709.299	0.0158833
709.377	0.0159486
709.455	0.0158051
709.533	0.0159610
709.611	0.0159160
709.689	0.0159769
709.767	0.0160092
709.846	0.0160423
709.924	0.0160735
710.002	0.0159758
710.080	0.0159979
710.158	0.0162425
710.236	0.0160536
710.314	0.0160123
710.392	0.0160944
710.471	0.0161139
710.549	0.0160673
710.627	0.0160918
710.705	0.0160265
710.783	0.0158711
710.861	0.0159048
710.939	0.0158482
711.017	0.0159955
711.096	0.0159094
711.174	0.0156830
711.252	0.0158627
711.330	0.0158458
711.408	0.0157514
711.486	0.0157636
711.564	0.0158397
711.642	0.0159322
711.721	0.0158919
711.799	0.0160178
711.877	0.0159252
711.955	0.0160179
712.033	0.0160722
712.111	0.0160362
712.189	0.0162132
712.267	0.0161689
712.346	0.0161245
712.424	0.0161825
712.502	0.0163477
712.580	0.0161710
712.658	0.0163364
712.736	0.0163017
712.814	0.0163099
712.892	0.0164051
712.971	0.0164376
713.049	0.0163498
713.127	0.0163663
713.205	0.0163896
713.283	0.0163093
713.361	0.0162737
713.439	0.0162167
713.517	0.0163287
713.596	0.0161002
713.674	0.0162683
713.752	0.0161293
713.830	0.0161257
713.908	0.0160871
713.986	0.0161961
714.064	0.0160693
714.142	0.0160046
714.221	0.0159919
714.299	0.0160958
714.377	0.0160227
714.455	0.0159981
714.533	0.0159229
714.611	0.0159769
714.689	0.0159061
714.767	0.0160643
714.846	0.0161975
714.924	0.0159830
715.002	0.0159531
715.080	0.0159399
715.158	0.0160329
715.236	0.0161785
715.314	0.0160296
715.392	0.0161130
715.471	0.0159537
715.549	0.0161507
715.627	0.0160827
715.705	0.0160656
715.783	0.0159435
715.861	0.0158960
715.939	0.0159745
716.017	0.0159626
716.096	0.0160627
716.174	0.0160308
716.252	0.0159404
716.330	0.0160775
716.408	0.0158717
716.486	0.0160381
716.564	0.0161498
716.642	0.0161032
716.721	0.0159558
716.799	0.0160537
716.877	0.0162096
716.955	0.0161002
717.033	0.0160780
717.111	0.0160399
717.189	0.0162611
717.267	0.0163316
717.346	0.0162813
717.424	0.0162733
717.502	0.0164123
717.580	0.0164840
717.658	0.0162800
717.736	0.0162714
717.814	0.0163418
717.892	0.0164128
717.971	0.0162612
718.049	0.0160515
718.127	0.0162344
718.205	0.0161729
718.283	0.0160653
718.361	0.0160605
718.439	0.0162735
718.517	0.0159916
718.596	0.0160206
718.674	0.0159037
718.752	0.0159914
718.830	0.0159600
718.908	0.0160306
718.986	0.0161113
719.064	0.0161483
719.142	0.0161146
719.221	0.0160777
719.299	0.0160383
719.377	0.0162468
719.455	0.0161754
719.533	0.0162544
719.611	0.0162289
719.689	0.0164017
719.767	0.0162290
719.846	0.0162553
719.924	0.0163423
720.002	0.0164242
720.080	0.0164127
720.158	0.0163741
720.236	0.0165112
720.314	0.0164571
720.392	0.0162708
720.471	0.0164642
720.549	0.0165629
720.627	0.0165521
720.705	0.0166131
720.783	0.0165340
720.861	0.0164989
720.939	0.0165598
721.017	0.0166336
721.096	0.0165996
721.174	0.0167103
721.252	0.0165717
721.330	0.0164247
721.408	0.0163859
721.486	0.0166236
721.564	0.0165311
721.642	0.0164578
721.721	0.0165116
721.799	0.0164150
721.877	0.0163196
721.955	0.0163205
722.033	0.0163569
722.111	0.0164247
722.189	0.0162899
722.267	0.0164362
722.346	0.0163967
722.424	0.0163558
722.502	0.0163340
722.580	0.0161686
722.658	0.0162798
722.736	0.0163353
722.814	0.0163509
722.892	0.0162935
722.971	0.0161848
723.049	0.0161211
723.127	0.0161500
723.205	0.0162231
723.283	0.0161433
723.361	0.0160999
723.439	0.0160277
723.517	0.0159331
723.596	0.0160187
723.674	0.0159713
723.752	0.0159776
723.830	0.0159986
723.908	0.0160178
723.986	0.0159290
724.064	0.0158707
724.142	0.0158073
724.221	0.0158724
724.299	0.0159379
724.377	0.0158935
724.455	0.0159396
724.533	0.0158968
724.611	0.0158723
724.689	0.0157778
724.767	0.0158728
724.846	0.0158754
724.924	0.0159208
725.002	0.0158371
725.080	0.0158862
725.158	0.0157471
725.236	0.0157617
725.314	0.0156699
725.392	0.0158527
725.471	0.0159730
725.549	0.0159703
725.627	0.0159305
725.705	0.0158646
725.783	0.0159680
725.861	0.0160451
725.939	0.0159249
726.017	0.0159462
726.096	0.0160751
726.174	0.0161194
726.252	0.0160680
726.330	0.0161031
726.408	0.0162764
726.486	0.0163294
726.564	0.0161092
726.642	0.0161569
726.721	0.0162079
726.799	0.0161842
726.877	0.0163659
726.955	0.0163493
727.033	0.0162476
727.111	0.0164293
727.189	0.0164085
727.267	0.0164087
727.346	0.0165499
727.424	0.0163573
727.502	0.0162582
727.580	0.0163599
727.658	0.0163592
727.736	0.0163165
727.814	0.0162335
727.892	0.0163403
727.971	0.0162416
728.049	0.0160320
728.127	0.0162094
728.205	0.0161613
728.283	0.0160536
728.361	0.0159246
728.439	0.0160121
728.517	0.0159658
728.596	0.0160795
728.674	0.0161309
728.752	0.0159254
728.830	0.0159835
728.908	0.0158053
728.986	0.0158936
729.064	0.0159187
729.142	0.0159118
729.221	0.0159766
729.299	0.0158691
729.377	0.0158226
729.455	0.0160902
729.533	0.0159282
729.611	0.0159034
729.689	0.0159610
729.767	0.0158294
729.846	0.0159098
729.924	0.0159634
730.002	0.0158536
730.080	0.0158640
730.158	0.0160658
730.236	0.0159447
730.314	0.0159942
730.392	0.0160773
730.471	0.0160968
730.549	0.0161024
730.627	0.0161020
730.705	0.0161712
730.783	0.0161548
730.861	0.0162115
730.939	0.0162379
731.017	0.0162464
731.096	0.0162580
731.174	0.0163680
731.252	0.0163590
731.330	0.0161371
731.408	0.0161974
731.486	0.0161501
731.564	0.0162485
731.642	0.0161681
731.721	0.0160544
731.799	0.0162022
731.877	0.0161098
731.955	0.0159348
732.033	0.0159701
732.111	0.0160935
732.189	0.0161310
732.267	0.0159297
732.346	0.0160628
732.424	0.0159834
732.502	0.0159043
732.580	0.0160497
732.658	0.0160413
732.736	0.0161269
732.814	0.0160091
732.892	0.0160259
732.971	0.0160367
733.049	0.0159533
733.127	0.0160667
733.205	0.0160796
733.283	0.0160317
733.361	0.0158687
733.439	0.0158601
733.517	0.0159981
733.596	0.0160896
733.674	0.0160353
733.752	0.0161033
733.830	0.0160909
733.908	0.0160773
733.986	0.0162189
734.064	0.0162877
734.142	0.0164500
734.221	0.0164142
734.299	0.0164531
734.377	0.0163448
734.455	0.0163649
734.533	0.0164828
734.611	0.0165942
734.689	0.0165609
734.767	0.0164527
734.846	0.0165585
734.924	0.0166308
735.002	0.0165488
735.080	0.0164317
735.158	0.0165023
735.236	0.0165713
735.314	0.0165042
735.392	0.0164752
735.471	0.0165489
735.549	0.0165023
735.627	0.0165614
735.705	0.0163850
735.783	0.0164574
735.861	0.0163316
735.939	0.0163824
736.017	0.0164383
736.096	0.0163923
736.174	0.0163562
736.252	0.0162543
736.330	0.0163953
736.408	0.0162188
736.486	0.0161819
736.564	0.0163409
736.642	0.0162422
736.721	0.0163069
736.799	0.0162151
736.877	0.0164321
736.955	0.0163594
737.033	0.0162837
737.111	0.0163032
737.189	0.0162572
737.267	0.0164164
737.346	0.0162947
737.424	0.0164317
737.502	0.0164849
737.580	0.0164557
737.658	0.0164902
737.736	0.0165688
737.814	0.0166658
737.892	0.0166283
737.971	0.0165548
738.049	0.0165658
738.127	0.0165472
738.205	0.0164964
738.283	0.0165262
738.361	0.0165749
738.439	0.0166442
738.517	0.0166908
738.596	0.0166373
738.674	0.0167071
738.752	0.0167794
738.830	0.0167398
738.908	0.0166882
738.986	0.0167791
739.064	0.0166140
739.142	0.0166984
739.221	0.0165678
739.299	0.0166877
739.377	0.0163972
739.455	0.0163615
739.533	0.0165183
739.611	0.0164716
739.689	0.0164545
739.767	0.0162567
739.846	0.0162345
739.924	0.0162099
740.002	0.0161696
740.080	0.0161183
740.158	0.0161189
740.236	0.0161633
740.314	0.0161842
740.392	0.0161015
740.471	0.0160902
740.549	0.0160898
740.627	0.0162520
740.705	0.0161990
740.783	0.0160567
740.861	0.0161275
740.939	0.0163564
741.017	0.0163298
741.096	0.0163299
741.174	0.0164133
741.252	0.0164565
741.330	0.0163537
741.408	0.0164606
741.486	0.0164968
741.564	0.0165454
741.642	0.0166129
741.721	0.0164780
741.799	0.0165095
741.877	0.0165094
741.955	0.0164908
742.033	0.0164428
742.111	0.0164296
742.189	0.0164290
742.267	0.0164818
742.346	0.0163323
742.424	0.0162904
742.502	0.0162119
742.580	0.0162587
742.658	0.0162391
742.736	0.0161701
742.814	0.0162822
742.892	0.0162247
742.971	0.0162530
743.049	0.0160722
743.127	0.0160850
743.205	0.0162055
743.283	0.0159988
743.361	0.0161834
743.439	0.0161997
743.517	0.0160831
743.596	0.0161206
743.674	0.0160558
743.752	0.0160864
743.830	0.0161684
743.908	0.0162383
743.986	0.0161515
744.064	0.0162765
744.142	0.0162663
744.221	0.0162409
744.299	0.0162489
744.377	0.0163429
744.455	0.0163268
744.533	0.0163075
744.611	0.0165203
744.689	0.0164054
744.767	0.0164600
744.846	0.0166266
744.924	0.0165320
745.002	0.0164162
745.080	0.0164678
745.158	0.0164117
745.236	0.0166125
745.314	0.0166011
745.392	0.0164542
745.471	0.0165910
745.549	0.0166885
745.627	0.0166822
745.705	0.0166789
745.783	0.0166093
745.861	0.0168065
745.939	0.0168076
746.017	0.0167843
746.096	0.0168452
746.174	0.0167471
746.252	0.0168942
746.330	0.0169862
746.408	0.0170029
746.486	0.0168261
746.564	0.0167181
746.642	0.0168587
746.721	0.0168013
746.799	0.0167755
746.877	0.0167771
746.955	0.0168080
747.033	0.0167355
747.111	0.0164932
747.189	0.0165909
747.267	0.0165536
747.346	0.0164695
747.424	0.0166165
747.502	0.0164336
747.580	0.0163135
747.658	0.0163575
747.736	0.0163467
747.814	0.0162770
747.892	0.0161446
747.971	0.0161903
748.049	0.0162207
748.127	0.0161182
748.205	0.0160706
748.283	0.0159200
748.361	0.0158710
748.439	0.0159954
748.517	0.0159656
748.596	0.0159228
748.674	0.0159071
748.752	0.0159663
748.830	0.0158356
748.908	0.0158346
748.986	0.0158880
749.064	0.0157309
749.142	0.0156492
749.221	0.0156829
749.299	0.0157686
749.377	0.0156892
749.455	0.0157330
749.533	0.0157114
749.611	0.0156322
749.689	0.0156239
749.767	0.0156377
749.846	0.0158270
749.924	0.0157479
750.002	0.0158501
750.080	0.0157800
750.158	0.0158018
750.236	0.0159122
750.314	0.0159620
750.392	0.0159341
750.471	0.0160089
750.549	0.0157912
750.627	0.0158116
750.705	0.0159711
750.783	0.0160258
750.861	0.0159256
750.939	0.0159969
751.017	0.0158946
751.096	0.0158030
751.174	0.0158542
751.252	0.0157878
751.330	0.0156874
751.408	0.0155213
751.486	0.0156824
751.564	0.0155383
751.642	0.0156308
751.721	0.0156482
751.799	0.0155331
751.877	0.0155352
751.955	0.0155012
752.033	0.0155857
752.111	0.0154718
752.189	0.0155258
752.267	0.0154577
752.346	0.0157950
752.424	0.0158179
752.502	0.0156021
752.580	0.0158124
752.658	0.0159270
752.736	0.0157728
752.814	0.0157761
752.892	0.0159743
752.971	0.0158904
753.049	0.0158312
753.127	0.0159498
753.205	0.0158950
753.283	0.0160897
753.361	0.0159511
753.439	0.0159485
753.517	0.0159324
753.596	0.0159885
753.674	0.0159220
753.752	0.0158871
753.830	0.0160095
753.908	0.0159365
753.986	0.0159409
754.064	0.0160093
754.142	0.0159935
754.221	0.0160519
754.299	0.0160736
754.377	0.0161105
754.455	0.0161617
754.533	0.0162120
754.611	0.0163329
754.689	0.0162736
754.767	0.0163593
754.846	0.0164321
754.924	0.0163919
755.002	0.0164161
755.080	0.0165712
755.158	0.0163162
755.236	0.0164079
755.314	0.0165739
755.392	0.0165747
755.471	0.0164802
755.549	0.0163659
755.627	0.0163964
755.705	0.0164584
755.783	0.0164450
755.861	0.0163866
755.939	0.0163309
756.017	0.0163135
756.096	0.0163674
756.174	0.0162950
756.252	0.0161384
756.330	0.0160962
756.408	0.0163992
756.486	0.0164043
756.564	0.0163722
756.642	0.0164796
756.721	0.0164811
756.799	0.0166968
756.877	0.0165872
756.955	0.0166867
757.033	0.0167302
757.111	0.0166019
757.189	0.0168019
757.267	0.0169485
757.346	0.0169086
757.424	0.0169043
757.502	0.0168631
757.580	0.0168559
757.658	0.0168204
757.736	0.0167886
757.814	0.0168143
757.892	0.0168827
757.971	0.0168744
758.049	0.0167916
758.127	0.0168021
758.205	0.0168048
758.283	0.0166473
758.361	0.0166966
758.439	0.0166724
758.517	0.0167111
758.596	0.0168373
758.674	0.0167675
758.752	0.0168722
758.830	0.0169160
758.908	0.0167975
758.986	0.0167608
759.064	0.0167353
759.142	0.0167504
759.221	0.0169921
759.299	0.0168331
759.377	0.0166315
759.455	0.0166025
759.533	0.0165318
759.611	0.0166243
759.689	0.0164722
759.767	0.0163633
759.846	0.0162712
759.924	0.0162724
760.002	0.0163005
760.080	0.0161109
760.158	0.0161307
760.236	0.0161876
760.314	0.0162135
760.392	0.0160959
760.471	0.0159184
760.549	0.0159651
760.627	0.0158943
760.705	0.0159002
760.783	0.0159634
760.861	0.0159251
760.939	0.0157964
761.017	0.0158656
761.096	0.0160792
761.174	0.0159395
761.252	0.0159808
761.330	0.0161716
761.408	0.0163148
761.486	0.0162299
761.564	0.0163560
761.642	0.0163889
761.721	0.0164426
761.799	0.0165916
761.877	0.0166518
761.955	0.0167593
762.033	0.0168732
762.111	0.0167915
762.189	0.0168413
762.267	0.0168047
762.346	0.0167046
762.424	0.0167961
762.502	0.0169724
762.580	0.0169485
762.658	0.0167725
762.736	0.0167587
762.814	0.0167701
762.892	0.0167693
762.971	0.0165771
763.049	0.0167413
763.127	0.0167307
763.205	0.0166267
763.283	0.0167527
763.361	0.0166360
763.439	0.0165452
763.517	0.0164041
763.596	0.0162824
763.674	0.0162982
763.752	0.0161780
763.830	0.0160571
763.908	0.0159666
763.986	0.0158713
764.064	0.0158350
764.142	0.0157509
764.221	0.0156533
764.299	0.0155355
764.377	0.0156818
764.455	0.0156372
764.533	0.0154845
764.611	0.0153340
764.689	0.0153214
764.767	0.0153716
764.846	0.0154324
764.924	0.0154694
765.002	0.0155427
765.080	0.0155176
765.158	0.0155057
765.236	0.0155888
765.314	0.0156513
765.392	0.0155576
765.471	0.0157361
765.549	0.0158451
765.627	0.0158698
765.705	0.0160358
765.783	0.0160610
765.861	0.0161880
765.939	0.0162230
766.017	0.0163217
766.096	0.0164185
766.174	0.0163725
766.252	0.0164693
766.330	0.0165630
766.408	0.0167753
766.486	0.0167115
766.564	0.0166115
766.642	0.0167142
766.721	0.0168181
766.799	0.0167900
766.877	0.0167521
766.955	0.0169351
767.033	0.0168690
767.111	0.0168446
767.189	0.0167876
767.267	0.0166762
767.346	0.0166353
767.424	0.0165870
767.502	0.0165470
767.580	0.0164616
767.658	0.0165190
767.736	0.0165269
767.814	0.0166212
767.892	0.0164590
767.971	0.0163275
768.049	0.0163003
768.127	0.0161702
768.205	0.0162925
768.283	0.0162519
768.361	0.0160984
768.439	0.0160156
768.517	0.0160454
768.596	0.0161183
768.674	0.0160690
768.752	0.0159102
768.830	0.0159015
768.908	0.0159386
768.986	0.0159946
769.064	0.0160670
769.142	0.0159736
769.221	0.0160326
769.299	0.0160250
769.377	0.0160141
769.455	0.0161507
769.533	0.0160747
769.611	0.0162251
769.689	0.0160882
769.767	0.0160842
769.846	0.0161649
769.924	0.0160224
770.002	0.0161082
770.080	0.0161252
770.158	0.0162009
770.236	0.0160103
770.314	0.0160979
770.392	0.0160129
770.471	0.0161250
770.549	0.0162719
770.627	0.0162399
770.705	0.0161399
770.783	0.0159983
770.861	0.0159815
770.939	0.0161720
771.017	0.0162015
771.096	0.0161517
771.174	0.0161991
771.252	0.0163396
771.330	0.0162401
771.408	0.0160938
771.486	0.0161404
771.564	0.0163544
771.642	0.0163464
771.721	0.0162460
771.799	0.0163322
771.877	0.0162805
771.955	0.0162533
772.033	0.0163046
772.111	0.0162650
772.189	0.0163626
772.267	0.0161766
772.346	0.0162357
772.424	0.0162010
772.502	0.0161987
772.580	0.0162600
772.658	0.0162106
772.736	0.0162719
772.814	0.0162149
772.892	0.0161576
772.971	0.0162478
773.049	0.0162569
773.127	0.0162792
773.205	0.0163251
773.283	0.0163177
773.361	0.0161993
773.439	0.0163181
773.517	0.0164535
773.596	0.0162907
773.674	0.0164038
773.752	0.0163826
773.830	0.0163348
773.908	0.0164261
773.986	0.0162235
774.064	0.0160915
774.142	0.0161486
774.221	0.0160689
774.299	0.0161053
774.377	0.0160406
774.455	0.0160472
774.533	0.0159869
774.611	0.0157659
774.689	0.0158130
774.767	0.0158522
774.846	0.0157936
774.924	0.0158392
775.002	0.0156417
775.080	0.0156391
775.158	0.0156319
775.236	0.0157577
775.314	0.0157324
775.392	0.0158143
775.471	0.0158469
775.549	0.0158140
775.627	0.0157524
775.705	0.0157845
775.783	0.0158155
775.861	0.0157713
775.939	0.0159218
776.017	0.0159798
776.096	0.0157756
776.174	0.0158977
776.252	0.0158612
776.330	0.0159428
776.408	0.0159731
776.486	0.0159728
776.564	0.0158809
776.642	0.0160897
776.721	0.0160852
776.799	0.0160236
776.877	0.0160869
776.955	0.0160432
777.033	0.0161247
777.111	0.0161160
777.189	0.0161086
777.267	0.0160497
777.346	0.0161715
777.424	0.0161655
777.502	0.0159583
777.580	0.0160188
777.658	0.0158821
777.736	0.0159551
777.814	0.0158400
777.892	0.0158527
777.971	0.0157650
778.049	0.0157429
778.127	0.0158645
778.205	0.0158418
778.283	0.0157748
778.361	0.0157518
778.439	0.0157952
778.517	0.0157080
778.596	0.0157124
778.674	0.0156284
778.752	0.0156178
778.830	0.0156470
778.908	0.0157534
778.986	0.0158144
779.064	0.0157286
779.142	0.0157175
779.221	0.0157821
779.299	0.0157542
779.377	0.0157600
779.455	0.0157897
779.533	0.0158546
779.611	0.0159854
779.689	0.0159981
779.767	0.0159411
779.846	0.0159491
779.924	0.0160279
780.002	0.0158775
780.080	0.0160452
780.158	0.0161293
780.236	0.0159782
780.314	0.0160226
780.392	0.0160406
780.471	0.0159621
780.549	0.0160149
780.627	0.0160160
780.705	0.0158643
780.783	0.0159134
780.861	0.0158575
780.939	0.0159795
781.017	0.0158038
781.096	0.0156212
781.174	0.0157711
781.252	0.0158533
781.330	0.0158294
781.408	0.0159023
781.486	0.0158249
781.564	0.0158582
781.642	0.0160383
781.721	0.0159395
781.799	0.0159806
781.877	0.0160201
781.955	0.0160960
782.033	0.0161914
782.111	0.0161845
782.189	0.0162255
782.267	0.0162666
782.346	0.0164433
782.424	0.0164808
782.502	0.0166393
782.580	0.0165527
782.658	0.0166801
782.736	0.0168114
782.814	0.0168275
782.892	0.0169093
782.971	0.0167802
783.049	0.0167828
783.127	0.0168510
783.205	0.0169262
783.283	0.0168017
783.361	0.0168378
783.439	0.0167747
783.517	0.0168192
783.596	0.0167879
783.674	0.0167105
783.752	0.0165784
783.830	0.0165507
783.908	0.0165997
783.986	0.0164305
784.064	0.0167960
784.142	0.0167272
784.221	0.0167038
784.299	0.0166732
784.377	0.0166786
784.455	0.0165972
784.533	0.0164734
784.611	0.0164909
784.689	0.0165584
784.767	0.0163660
784.846	0.0162481
784.924	0.0162840
785.002	0.0162717
785.080	0.0162238
785.158	0.0160831
785.236	0.0159771
785.314	0.0160576
785.392	0.0160367
785.471	0.0160183
785.549	0.0159313
785.627	0.0159923
785.705	0.0159232
785.783	0.0158278
785.861	0.0159066
785.939	0.0159035
786.017	0.0159325
786.096	0.0158678
786.174	0.0156589
786.252	0.0158473
786.330	0.0159534
786.408	0.0158843
786.486	0.0160165
786.564	0.0160261
786.642	0.0161036
786.721	0.0162996
786.799	0.0163935
786.877	0.0163452
786.955	0.0163515
787.033	0.0164672
787.111	0.0165002
787.189	0.0167067
787.267	0.0166393
787.346	0.0165624
787.424	0.0166895
787.502	0.0165903
787.580	0.0167070
787.658	0.0166168
787.736	0.0165516
787.814	0.0166795
787.892	0.0166212
787.971	0.0166878
788.049	0.0166341
788.127	0.0166047
788.205	0.0165514
788.283	0.0165887
788.361	0.0165869
788.439	0.0165260
788.517	0.0165157
788.596	0.0166428
788.674	0.0164584
788.752	0.0165447
788.830	0.0164864
788.908	0.0163023
788.986	0.0162912
789.064	0.0162529
789.142	0.0162013
789.221	0.0161108
789.299	0.0162363
789.377	0.0160197
789.455	0.0160389
789.533	0.0161234
789.611	0.0160954
789.689	0.0160511
789.767	0.0158575
789.846	0.0159685
789.924	0.0160180
790.002	0.0160689
790.080	0.0160249
790.158	0.0160062
790.236	0.0160329
790.314	0.0160352
790.392	0.0159586
790.471	0.0159274
790.549	0.0161729
790.627	0.0159716
790.705	0.0159198
790.783	0.0159201
790.861	0.0158198
790.939	0.0159372
791.017	0.0160013
791.096	0.0158906
791.174	0.0158586
791.252	0.0157523
791.330	0.0156263
791.408	0.0156518
791.486	0.0156379
791.564	0.0155723
791.642	0.0157649
791.721	0.0156387
791.799	0.0157798
791.877	0.0156448
791.955	0.0157903
792.033	0.0158289
792.111	0.0157642
792.189	0.0155603
792.267	0.0156583
792.346	0.0157479
792.424	0.0156429
792.502	0.0156742
792.580	0.0156412
792.658	0.0155979
792.736	0.0156810
792.814	0.0156214
792.892	0.0157146
792.971	0.0156628
793.049	0.0157011
793.127	0.0157049
793.205	0.0156306
793.283	0.0154790
793.361	0.0154580
793.439	0.0155070
793.517	0.0154663
793.596	0.0154762
793.674	0.0154843
793.752	0.0154760
793.830	0.0155518
793.908	0.0153899
793.986	0.0155579
794.064	0.0154742
794.142	0.0153991
794.221	0.0155851
794.299	0.0156602
794.377	0.0156077
794.455	0.0155728
794.533	0.0156001
794.611	0.0157605
794.689	0.0157050
794.767	0.0156650
794.846	0.0157070
794.924	0.0157751
795.002	0.0158611
795.080	0.0158582
795.158	0.0159084
795.236	0.0159634
795.314	0.0159081
795.392	0.0159645
795.471	0.0159666
795.549	0.0160203
795.627	0.0161685
795.705	0.0159516
795.783	0.0160185
795.861	0.0160188
795.939	0.0160161
796.017	0.0160348
796.096	0.0161103
796.174	0.0160437
796.252	0.0161395
796.330	0.0161930
796.408	0.0162555
796.486	0.0162508
796.564	0.0162910
796.642	0.0163508
796.721	0.0163781
796.799	0.0164044
796.877	0.0164446
796.955	0.0164841
797.033	0.0165720
797.111	0.0166677
797.189	0.0167340
797.267	0.0166767
797.346	0.0167517
797.424	0.0169318
797.502	0.0168925
797.580	0.0167828
797.658	0.0167514
797.736	0.0169041
797.814	0.0169112
797.892	0.0167838
797.971	0.0167156
798.049	0.0166064
798.127	0.0167073
798.205	0.0166593
798.283	0.0165891
798.361	0.0164745
798.439	0.0166169
798.517	0.0165952
798.596	0.0164964
798.674	0.0164077
798.752	0.0165187
798.830	0.0164659
798.908	0.0164520
798.986	0.0165166
799.064	0.0165246
799.142	0.0164312
799.221	0.0163725
799.299	0.0163435
799.377	0.0162385
799.455	0.0163151
799.533	0.0162432
799.611	0.0161158
799.689	0.0161745
799.767	0.0162117
799.846	0.0161639
799.924	0.0159798
800.002	0.0161476
800.080	0.0161037
800.158	0.0160817
800.236	0.0161761
800.314	0.0159580
800.392	0.0159655
800.471	0.0160145
800.549	0.0159859
800.627	0.0159286
800.705	0.0158952
800.783	0.0160307
800.861	0.0159673
800.939	0.0160345
801.017	0.0159795
801.096	0.0160797
801.174	0.0159854
801.252	0.0161039
801.330	0.0159177
801.408	0.0160706
801.486	0.0161328
801.564	0.0161581
801.642	0.0160928
801.721	0.0161965
801.799	0.0161322
801.877	0.0162528
801.955	0.0162209
802.033	0.0160013
802.111	0.0161217
802.189	0.0161887
802.267	0.0161124
802.346	0.0162682
802.424	0.0162429
802.502	0.0161871
802.580	0.0162426
802.658	0.0162016
802.736	0.0162489
802.814	0.0162922
802.892	0.0162418
802.971	0.0163486
803.049	0.0163657
803.127	0.0162700
803.205	0.0163786
803.283	0.0165200
803.361	0.0163831
803.439	0.0165517
803.517	0.0165614
803.596	0.0165822
803.674	0.0166208
803.752	0.0166143
803.830	0.0166455
803.908	0.0166325
803.986	0.0165148
804.064	0.0166394
804.142	0.0165504
804.221	0.0166828
804.299	0.0165556
804.377	0.0164543
804.455	0.0165146
804.533	0.0164755
804.611	0.0165455
804.689	0.0165429
804.767	0.0164503
804.846	0.0166438
804.924	0.0164354
805.002	0.0166348
805.080	0.0164685
805.158	0.0164363
805.236	0.0163089
805.314	0.0161762
805.392	0.0163603
805.471	0.0164729
805.549	0.0162464
805.627	0.0162601
805.705	0.0160551
805.783	0.0160564
805.861	0.0161215
805.939	0.0160728
806.017	0.0160733
806.096	0.0159438
806.174	0.0160448
806.252	0.0159909
806.330	0.0159573
806.408	0.0158759
806.486	0.0160159
806.564	0.0160191
806.642	0.0160111
806.721	0.0160264
806.799	0.0161940
806.877	0.0162025
806.955	0.0159025
807.033	0.0160677
807.111	0.0159944
807.189	0.0161481
807.267	0.0160834
807.346	0.0160022
807.424	0.0158875
807.502	0.0159264
807.580	0.0157706
807.658	0.0158617
807.736	0.0158340
807.814	0.0157944
807.892	0.0158245
807.971	0.0157268
808.049	0.0155693
808.127	0.0155120
808.205	0.0155302
808.283	0.0155116
808.361	0.0154479
808.439	0.0155344
808.517	0.0154637
808.596	0.0154090
808.674	0.0156116
808.752	0.0155408
808.830	0.0154768
808.908	0.0156162
808.986	0.0156321
809.064	0.0156440
809.142	0.0157372
809.221	0.0158937
809.299	0.0159383
809.377	0.0158418
809.455	0.0160524
809.533	0.0161446
809.611	0.0161345
809.689	0.0162543
809.767	0.0164028
809.846	0.0163467
809.924	0.0162897
810.002	0.0166262
810.080	0.0165018
810.158	0.0165565
810.236	0.0167429
810.314	0.0164522
810.392	0.0166594
810.471	0.0166634
810.549	0.0167571
810.627	0.0167126
810.705	0.0166815
810.783	0.0166751
810.861	0.0166007
810.939	0.0166048
811.017	0.0166578
811.096	0.0166728
811.174	0.0167017
811.252	0.0165443
811.330	0.0166219
811.408	0.0166816
811.486	0.0166333
811.564	0.0167323
811.642	0.0166367
811.721	0.0165090
811.799	0.0165469
811.877	0.0163911
811.955	0.0163514
812.033	0.0163869
812.111	0.0164011
812.189	0.0163850
812.267	0.0162910
812.346	0.0162833
812.424	0.0161710
812.502	0.0161224
812.580	0.0160359
812.658	0.0159570
812.736	0.0159894
812.814	0.0158826
812.892	0.0159583
812.971	0.0159464
813.049	0.0159310
813.127	0.0160706
813.205	0.0159253
813.283	0.0158542
813.361	0.0159954
813.439	0.0159173
813.517	0.0159286
813.596	0.0160075
813.674	0.0160812
813.752	0.0160724
813.830	0.0161657
813.908	0.0162846
813.986	0.0161555
814.064	0.0161162
814.142	0.0162090
814.221	0.0163058
814.299	0.0162908
814.377	0.0163014
814.455	0.0162862
814.533	0.0162304
814.611	0.0163075
814.689	0.0162991
814.767	0.0162147
814.846	0.0163021
814.924	0.0163125
815.002	0.0161703
815.080	0.0163018
815.158	0.0161721
815.236	0.0161944
815.314	0.0162393
815.392	0.0161411
815.471	0.0162124
815.549	0.0160667
815.627	0.0159911
815.705	0.0161949
815.783	0.0160566
815.861	0.0161273
815.939	0.0160303
816.017	0.0160519
816.096	0.0159830
816.174	0.0159335
816.252	0.0159091
816.330	0.0159694
816.408	0.0159122
816.486	0.0159757
816.564	0.0158224
816.642	0.0157193
816.721	0.0157565
816.799	0.0158353
816.877	0.0155064
816.955	0.0155668
817.033	0.0156010
817.111	0.0156480
817.189	0.0156276
817.267	0.0155452
817.346	0.0154121
817.424	0.0154801
817.502	0.0154654
817.580	0.0153926
817.658	0.0154882
817.736	0.0155012
817.814	0.0156088
817.892	0.0156314
817.971	0.0156525
818.049	0.0156887
818.127	0.0158282
818.205	0.0155974
818.283	0.0158164
818.361	0.0158466
818.439	0.0160147
818.517	0.0158543
818.596	0.0158983
818.674	0.0159532
818.752	0.0161910
818.830	0.0160894
818.908	0.0160768
818.986	0.0161887
819.064	0.0161353
819.142	0.0161732
819.221	0.0162183
819.299	0.0162389
819.377	0.0162804
819.455	0.0163496
819.533	0.0161742
819.611	0.0162453
819.689	0.0161741
819.767	0.0162743
819.846	0.0164294
819.924	0.0162725
820.002	0.0160790
820.080	0.0162128
820.158	0.0162070
820.236	0.0162518
820.314	0.0162875
820.392	0.0161918
820.471	0.0163407
820.549	0.0162255
820.627	0.0163219
820.705	0.0162430
820.783	0.0162000
820.861	0.0161519
820.939	0.0163785
821.017	0.0162886
821.096	0.0163706
821.174	0.0164458
821.252	0.0163196
821.330	0.0163675
821.408	0.0160785
821.486	0.0161781
821.564	0.0164053
821.642	0.0163274
821.721	0.0162663
821.799	0.0162231
821.877	0.0163040
821.955	0.0163795
822.033	0.0163766
822.111	0.0162610
822.189	0.0162465
822.267	0.0163896
822.346	0.0161543
822.424	0.0161258
822.502	0.0163477
822.580	0.0164310
822.658	0.0161952
822.736	0.0163763
822.814	0.0164849
822.892	0.0163389
822.971	0.0162723
823.049	0.0165944
823.127	0.0164314
823.205	0.0164729
823.283	0.0164619
823.361	0.0165568
823.439	0.0165974
823.517	0.0164680
823.596	0.0166656
823.674	0.0165663
823.752	0.0167285
823.830	0.0166116
823.908	0.0165558
823.986	0.0167041
824.064	0.0167162
824.142	0.0167390
824.221	0.0166196
824.299	0.0167120
824.377	0.0166563
824.455	0.0166148
824.533	0.0166210
824.611	0.0166010
824.689	0.0165659
824.767	0.0165219
824.846	0.0167912
824.924	0.0165398
825.002	0.0165144
825.080	0.0164839
825.158	0.0163361
825.236	0.0163776
825.314	0.0163673
825.392	0.0163440
825.471	0.0162806
825.549	0.0163605
825.627	0.0163884
825.705	0.0163450
825.783	0.0163187
825.861	0.0162993
825.939	0.0162975
826.017	0.0163181
826.096	0.0162298
826.174	0.0162504
826.252	0.0163865
826.330	0.0161835
826.408	0.0160430
826.486	0.0161972
826.564	0.0161321
826.642	0.0161308
826.721	0.0161739
826.799	0.0162061
826.877	0.0161309
826.955	0.0161893
827.033	0.0160788
827.111	0.0161116
827.189	0.0162698
827.267	0.0160655
827.346	0.0161101
827.424	0.0162412
827.502	0.0160763
827.580	0.0160642
827.658	0.0161649
827.736	0.0162032
827.814	0.0162395
827.892	0.0162016
827.971	0.0162376
828.049	0.0161678
828.127	0.0160946
828.205	0.0161337
828.283	0.0161841
828.361	0.0161329
828.439	0.0159442
828.517	0.0160459
828.596	0.0160429
828.674	0.0160388
828.752	0.0160781
828.830	0.0162222
828.908	0.0161561
828.986	0.0160646
829.064	0.0162530
829.142	0.0162050
829.221	0.0161875
829.299	0.0160580
829.377	0.0164167
829.455	0.0162700
829.533	0.0163219
829.611	0.0161646
829.689	0.0160556
829.767	0.0162180
829.846	0.0162015
829.924	0.0161007
830.002	0.0161783
830.080	0.0161093
830.158	0.0160760
830.236	0.0160515
830.314	0.0160804
830.392	0.0161423
830.471	0.0160217
830.549	0.0159761
830.627	0.0159758
830.705	0.0159953
830.783	0.0161710
830.861	0.0158623
830.939	0.0159137
831.017	0.0158862
831.096	0.0159434
831.174	0.0159499
831.252	0.0159174
831.330	0.0161390
831.408	0.0159920
831.486	0.0158739
831.564	0.0160201
831.642	0.0160445
831.721	0.0158847
831.799	0.0160851
831.877	0.0160241
831.955	0.0160944
832.033	0.0158726
832.111	0.0158215
832.189	0.0159322
832.267	0.0160699
832.346	0.0158981
832.424	0.0157948
832.502	0.0157150
832.580	0.0157544
832.658	0.0157629
832.736	0.0157912
832.814	0.0156661
832.892	0.0157054
832.971	0.0157045
833.049	0.0155557
833.127	0.0157118
833.205	0.0158161
833.283	0.0156035
833.361	0.0157778
833.439	0.0157338
833.517	0.0156843
833.596	0.0157140
833.674	0.0156948
833.752	0.0157600
833.830	0.0157938
833.908	0.0157743
833.986	0.0157635
834.064	0.0157574
834.142	0.0157771
834.221	0.0158510
834.299	0.0157173
834.377	0.0159227
834.455	0.0159165
834.533	0.0159974
834.611	0.0160754
834.689	0.0158775
834.767	0.0160369
834.846	0.0162335
834.924	0.0161269
835.002	0.0162493
835.080	0.0164532
835.158	0.0163075
835.236	0.0164429
835.314	0.0163432
835.392	0.0164590
835.471	0.0164361
835.549	0.0164667
835.627	0.0164947
835.705	0.0166006
835.783	0.0164441
835.861	0.0165677
835.939	0.0165697
836.017	0.0164851
836.096	0.0164857
836.174	0.0163772
836.252	0.0165426
836.330	0.0163448
836.408	0.0164137
836.486	0.0162576
836.564	0.0163554
836.642	0.0164381
836.721	0.0164739
836.799	0.0163536
836.877	0.0161903
836.955	0.0163170
837.033	0.0161868
837.111	0.0162939
837.189	0.0162651
837.267	0.0163177
837.346	0.0162481
837.424	0.0164090
837.502	0.0164081
837.580	0.0162965
837.658	0.0163493
837.736	0.0163572
837.814	0.0163818
837.892	0.0163540
837.971	0.0162352
838.049	0.0164949
838.127	0.0163521
838.205	0.0163987
838.283	0.0162371
838.361	0.0162579
838.439	0.0163982
838.517	0.0163541
838.596	0.0164661
838.674	0.0164016
838.752	0.0163136
838.830	0.0162527
838.908	0.0162769
838.986	0.0164378
839.064	0.0163386
839.142	0.0162312
839.221	0.0163316
839.299	0.0163447
839.377	0.0162603
839.455	0.0162632
839.533	0.0161655
839.611	0.0163626
839.689	0.0162109
839.767	0.0163327
839.846	0.0162655
839.924	0.0161407
840.002	0.0160035
840.080	0.0159888
840.158	0.0161349
840.236	0.0162271
840.314	0.0161341
840.392	0.0160503
840.471	0.0159310
840.549	0.0160370
840.627	0.0160217
840.705	0.0160253
840.783	0.0160608
840.861	0.0160550
840.939	0.0160120
841.017	0.0158820
841.096	0.0159395
841.174	0.0160738
841.252	0.0159823
841.330	0.0159020
841.408	0.0157832
841.486	0.0158585
841.564	0.0159463
841.642	0.0160050
841.721	0.0158492
841.799	0.0159556
841.877	0.0161548
841.955	0.0160626
842.033	0.0159576
842.111	0.0159808
842.189	0.0159200
842.267	0.0159216
842.346	0.0160760
842.424	0.0159887
842.502	0.0159052
842.580	0.0159803
842.658	0.0159229
842.736	0.0159354
842.814	0.0159039
842.892	0.0159887
842.971	0.0159785
843.049	0.0157430
843.127	0.0160344
843.205	0.0160963
843.283	0.0158520
843.361	0.0159174
843.439	0.0160064
843.517	0.0160671
843.596	0.0159178
843.674	0.0159462
843.752	0.0160201
843.830	0.0159010
843.908	0.0159848
843.986	0.0159288
844.064	0.0161269
844.142	0.0161324
844.221	0.0159994
844.299	0.0159962
844.377	0.0160055
844.455	0.0162312
844.533	0.0161453
844.611	0.0159115
844.689	0.0159898
844.767	0.0160495
844.846	0.0160441
844.924	0.0161763
845.002	0.0161486
845.080	0.0159639
845.158	0.0160642
845.236	0.0160793
845.314	0.0159987
845.392	0.0160773
845.471	0.0162943
845.549	0.0161073
845.627	0.0160897
845.705	0.0163158
845.783	0.0162116
845.861	0.0161111
845.939	0.0161892
846.017	0.0162968
846.096	0.0161659
846.174	0.0163429
846.252	0.0163381
846.330	0.0162093
846.408	0.0161086
846.486	0.0163274
846.564	0.0162388
846.642	0.0162225
846.721	0.0163376
846.799	0.0162516
846.877	0.0162804
846.955	0.0164091
847.033	0.0162614
847.111	0.0162879
847.189	0.0162794
847.267	0.0164135
847.346	0.0166171
847.424	0.0164963
847.502	0.0164671
847.580	0.0166323
847.658	0.0165081
847.736	0.0165314
847.814	0.0165340
847.892	0.0164594
847.971	0.0165318
848.049	0.0166454
848.127	0.0165430
848.205	0.0166039
848.283	0.0166579
848.361	0.0167210
848.439	0.0166730
848.517	0.0166950
848.596	0.0166396
848.674	0.0165742
848.752	0.0165875
848.830	0.0165875
848.908	0.0166481
848.986	0.0166935
849.064	0.0167309
849.142	0.0166821
849.221	0.0166526
849.299	0.0166415
849.377	0.0166096
849.455	0.0166566
849.533	0.0166168
849.611	0.0167338
849.689	0.0166454
849.767	0.0166221
849.846	0.0166771
849.924	0.0165653
850.002	0.0166998
850.080	0.0165788
850.158	0.0165160
850.236	0.0165229
850.314	0.0166468
850.392	0.0166365
850.471	0.0165553
850.549	0.0165967
850.627	0.0166299
850.705	0.0164477
850.783	0.0165521
850.861	0.0163972
850.939	0.0163707
851.017	0.0164729
851.096	0.0163504
851.174	0.0164529
851.252	0.0162467
851.330	0.0162092
851.408	0.0163655
851.486	0.0161259
851.564	0.0161258
851.642	0.0161882
851.721	0.0162238
851.799	0.0161371
851.877	0.0161372
851.955	0.0161739
852.033	0.0162150
852.111	0.0161386
852.189	0.0161014
852.267	0.0159779
852.346	0.0160371
852.424	0.0159339
852.502	0.0159341
852.580	0.0161224
852.658	0.0159273
852.736	0.0159646
852.814	0.0158994
852.892	0.0159048
852.971	0.0158662
853.049	0.0159410
853.127	0.0157548
853.205	0.0158108
853.283	0.0159176
853.361	0.0159138
853.439	0.0159454
853.517	0.0159605
853.596	0.0160834
853.674	0.0160760
853.752	0.0161100
853.830	0.0161202
853.908	0.0161098
853.986	0.0162355
854.064	0.0162889
854.142	0.0162946
854.221	0.0162376
854.299	0.0163313
854.377	0.0163644
854.455	0.0164536
854.533	0.0163920
854.611	0.0163300
854.689	0.0162944
854.767	0.0163844
854.846	0.0163072
854.924	0.0165667
855.002	0.0163534
855.080	0.0163110
855.158	0.0163629
855.236	0.0163171
855.314	0.0162839
855.392	0.0164545
855.471	0.0164279
855.549	0.0164674
855.627	0.0164036
855.705	0.0163192
855.783	0.0163707
855.861	0.0163466
855.939	0.0164336
856.017	0.0162318
856.096	0.0164059
856.174	0.0162988
856.252	0.0162856
856.330	0.0162153
856.408	0.0162006
856.486	0.0162540
856.564	0.0161263
856.642	0.0161008
856.721	0.0160268
856.799	0.0160208
856.877	0.0158850
856.955	0.0158031
857.033	0.0159702
857.111	0.0157876
857.189	0.0156306
857.267	0.0157661
857.346	0.0157412
857.424	0.0154608
857.502	0.0156166
857.580	0.0156897
857.658	0.0156606
857.736	0.0155460
857.814	0.0156308
857.892	0.0156293
857.971	0.0155910
858.049	0.0155462
858.127	0.0156036
858.205	0.0157853
858.283	0.0156767
858.361	0.0155738
858.439	0.0155926
858.517	0.0156709
858.596	0.0155754
858.674	0.0157014
858.752	0.0157617
858.830	0.0156768
858.908	0.0157255
858.986	0.0158064
859.064	0.0156364
859.142	0.0157586
859.221	0.0158158
859.299	0.0157738
859.377	0.0158026
859.455	0.0160793
859.533	0.0159224
859.611	0.0159410
859.689	0.0159478
859.767	0.0159682
859.846	0.0161175
859.924	0.0161702
860.002	0.0158782
860.080	0.0159984
860.158	0.0161355
860.236	0.0160592
860.314	0.0160305
860.392	0.0160753
860.471	0.0161918
860.549	0.0160961
860.627	0.0161410
860.705	0.0160717
860.783	0.0161026
860.861	0.0161668
860.939	0.0160160
861.017	0.0161456
861.096	0.0161251
861.174	0.0162763
861.252	0.0160607
861.330	0.0161664
861.408	0.0162109
861.486	0.0163146
861.564	0.0163215
861.642	0.0163154
861.721	0.0163477
861.799	0.0164898
861.877	0.0164751
861.955	0.0163708
862.033	0.0165234
862.111	0.0166776
862.189	0.0165925
862.267	0.0165996
862.346	0.0166344
862.424	0.0166961
862.502	0.0167593
862.580	0.0169021
862.658	0.0168803
862.736	0.0168813
862.814	0.0169530
862.892	0.0168877
862.971	0.0170638
863.049	0.0171886
863.127	0.0171221
863.205	0.0171760
863.283	0.0172291
863.361	0.0173417
863.439	0.0174019
863.517	0.0172855
863.596	0.0172142
863.674	0.0172496
863.752	0.0171265
863.830	0.0171336
863.908	0.0172344
863.986	0.0171638
864.064	0.0167837
864.142	0.0168742
864.221	0.0169016
864.299	0.0167425
864.377	0.0166663
864.455	0.0165927
864.533	0.0164266
864.611	0.0162891
864.689	0.0162999
864.767	0.0160719
864.846	0.0160817
864.924	0.0159706
865.002	0.0158774
865.080	0.0157730
865.158	0.0157135
865.236	0.0156277
865.314	0.0155780
865.392	0.0155162
865.471	0.0155116
865.549	0.0153536
865.627	0.0153431
865.705	0.0154060
865.783	0.0153628
865.861	0.0154173
865.939	0.0152641
866.017	0.0152805
866.096	0.0154980
866.174	0.0155450
866.252	0.0154742
866.330	0.0153922
866.408	0.0153371
866.486	0.0155460
866.564	0.0155581
866.642	0.0156039
866.721	0.0155778
866.799	0.0155966
866.877	0.0156367
866.955	0.0157111
867.033	0.0157977
867.111	0.0157126
867.189	0.0158458
867.267	0.0159470
867.346	0.0158689
867.424	0.0158572
867.502	0.0159552
867.580	0.0160601
867.658	0.0160233
867.736	0.0159351
867.814	0.0159614
867.892	0.0161296
867.971	0.0160777
868.049	0.0160847
868.127	0.0162280
868.205	0.0161456
868.283	0.0163107
868.361	0.0161074
868.439	0.0162849
868.517	0.0162148
868.596	0.0162238
868.674	0.0164184
868.752	0.0161546
868.830	0.0162389
868.908	0.0162848
868.986	0.0163233
869.064	0.0162807
869.142	0.0163192
869.221	0.0162572
869.299	0.0161982
869.377	0.0162083
869.455	0.0162855
869.533	0.0162820
869.611	0.0163187
869.689	0.0164486
869.767	0.0162466
869.846	0.0162492
869.924	0.0162812
870.002	0.0162819
870.080	0.0161687
870.158	0.0162421
870.236	0.0162561
870.314	0.0162158
870.392	0.0162756
870.471	0.0163077
870.549	0.0162726
870.627	0.0162536
870.705	0.0161951
870.783	0.0162154
870.861	0.0161859
870.939	0.0163154
871.017	0.0162038
871.096	0.0162028
871.174	0.0164097
871.252	0.0163017
871.330	0.0163479
871.408	0.0163377
871.486	0.0164157
871.564	0.0163427
871.642	0.0163202
871.721	0.0162653
871.799	0.0163185
871.877	0.0163250
871.955	0.0162420
872.033	0.0161883
872.111	0.0162727
872.189	0.0163874
872.267	0.0162740
872.346	0.0161508
872.424	0.0161149
872.502	0.0162254
872.580	0.0161294
872.658	0.0161312
872.736	0.0162089
872.814	0.0162415
872.892	0.0161051
872.971	0.0161508
873.049	0.0162444
873.127	0.0161433
873.205	0.0161005
873.283	0.0161338
873.361	0.0163117
873.439	0.0160008
873.517	0.0160488
873.596	0.0161332
873.674	0.0161832
873.752	0.0161063
873.830	0.0161078
873.908	0.0160831
873.986	0.0159822
874.064	0.0160604
874.142	0.0161306
874.221	0.0159725
874.299	0.0161376
874.377	0.0160961
874.455	0.0162637
874.533	0.0162180
874.611	0.0160539
874.689	0.0161820
874.767	0.0163641
874.846	0.0161090
874.924	0.0163196
875.002	0.0163191
875.080	0.0162901
875.158	0.0164134
875.236	0.0163013
875.314	0.0164227
875.392	0.0163956
875.471	0.0163294
875.549	0.0163434
875.627	0.0163528
875.705	0.0162988
875.783	0.0162065
875.861	0.0162329
875.939	0.0162071
876.017	0.0161705
876.096	0.0160855
876.174	0.0160629
876.252	0.0159550
876.330	0.0160843
876.408	0.0160332
876.486	0.0158538
876.564	0.0160661
876.642	0.0158026
876.721	0.0160257
876.799	0.0159330
876.877	0.0160171
876.955	0.0159087
877.033	0.0157434
877.111	0.0158871
877.189	0.0159962
877.267	0.0160923
877.346	0.0158677
877.424	0.0159089
877.502	0.0160677
877.580	0.0159586
877.658	0.0160455
877.736	0.0160262
877.814	0.0161129
877.892	0.0160962
877.971	0.0163095
878.049	0.0161241
878.127	0.0160912
878.205	0.0162103
878.283	0.0160796
878.361	0.0159823
878.439	0.0161215
878.517	0.0162081
878.596	0.0161515
878.674	0.0162329
878.752	0.0163435
878.830	0.0161165
878.908	0.0161837
878.986	0.0161436
879.064	0.0162273
879.142	0.0163878
879.221	0.0161406
879.299	0.0161928
879.377	0.0163638
879.455	0.0162972
879.533	0.0163400
879.611	0.0162544
879.689	0.0162741
879.767	0.0163840
879.846	0.0164203
879.924	0.0163571
880.002	0.0163517
880.080	0.0163310
880.158	0.0164230
880.236	0.0163585
880.314	0.0162874
880.392	0.0162921
880.471	0.0162658
880.549	0.0162694
880.627	0.0163155
880.705	0.0162864
880.783	0.0162366
880.861	0.0161971
880.939	0.0160816
881.017	0.0160255
881.096	0.0160956
881.174	0.0161007
881.252	0.0160161
881.330	0.0161084
881.408	0.0160625
881.486	0.0162093
881.564	0.0160797
881.642	0.0161392
881.721	0.0160958
881.799	0.0160731
881.877	0.0161532
881.955	0.0162883
882.033	0.0160952
882.111	0.0161208
882.189	0.0161449
882.267	0.0162933
882.346	0.0161250
882.424	0.0161150
882.502	0.0159837
882.580	0.0159792
882.658	0.0161478
882.736	0.0162032
882.814	0.0160299
882.892	0.0161626
882.971	0.0159328
883.049	0.0159739
883.127	0.0161191
883.205	0.0160727
883.283	0.0161073
883.361	0.0160999
883.439	0.0159956
883.517	0.0159718
883.596	0.0159052
883.674	0.0159772
883.752	0.0159563
883.830	0.0159995
883.908	0.0159528
883.986	0.0161452
884.064	0.0162195
884.142	0.0160102
884.221	0.0158613
884.299	0.0159727
884.377	0.0161691
884.455	0.0161691
884.533	0.0160549
884.611	0.0161221
884.689	0.0161982
884.767	0.0161755
884.846	0.0162910
884.924	0.0161278
885.002	0.0162643
885.080	0.0161987
885.158	0.0163342
885.236	0.0163132
885.314	0.0163570
885.392	0.0163589
885.471	0.0162750
885.549	0.0164731
885.627	0.0163777
885.705	0.0164105
885.783	0.0162158
885.861	0.0162266
885.939	0.0164003
886.017	0.0162939
886.096	0.0162624
886.174	0.0161316
886.252	0.0161063
886.330	0.0163462
886.408	0.0163674
886.486	0.0162536
886.564	0.0162409
886.642	0.0161988
886.721	0.0163195
886.799	0.0163926
886.877	0.0163477
886.955	0.0162646
887.033	0.0164381
887.111	0.0164439
887.189	0.0164417
887.267	0.0164003
887.346	0.0164877
887.424	0.0164043
887.502	0.0165268
887.580	0.0165546
887.658	0.0164375
887.736	0.0164693
887.814	0.0165594
887.892	0.0164223
887.971	0.0167384
888.049	0.0166529
888.127	0.0165128
888.205	0.0166479
888.283	0.0167295
888.361	0.0166097
888.439	0.0167310
888.517	0.0166267
888.596	0.0167488
888.674	0.0167496
888.752	0.0166183
888.830	0.0167023
888.908	0.0166451
888.986	0.0165498
889.064	0.0166037
889.142	0.0167786
889.221	0.0167319
889.299	0.0165366
889.377	0.0165485
889.455	0.0164551
889.533	0.0163844
889.611	0.0163686
889.689	0.0163630
889.767	0.0164586
889.846	0.0163464
889.924	0.0161187
890.002	0.0160329
890.080	0.0161123
890.158	0.0160845
890.236	0.0159392
890.314	0.0160349
890.392	0.0158919
890.471	0.0159509
890.549	0.0158143
890.627	0.0157605
890.705	0.0157726
890.783	0.0158096
890.861	0.0157143
890.939	0.0156445
891.017	0.0157289
891.096	0.0157778
891.174	0.0156848
891.252	0.0157153
891.330	0.0156653
891.408	0.0156700
891.486	0.0155994
891.564	0.0157705
891.642	0.0158438
891.721	0.0158061
891.799	0.0158044
891.877	0.0158764
891.955	0.0159663
892.033	0.0160328
892.111	0.0158449
892.189	0.0159348
892.267	0.0158717
892.346	0.0159791
892.424	0.0159819
892.502	0.0160100
892.580	0.0160672
892.658	0.0158928
892.736	0.0159512
892.814	0.0160494
892.892	0.0160725
892.971	0.0159966
893.049	0.0160578
893.127	0.0159961
893.205	0.0161455
893.283	0.0160680
893.361	0.0160664
893.439	0.0160856
893.517	0.0160693
893.596	0.0161479
893.674	0.0160636
893.752	0.0160910
893.830	0.0160902
893.908	0.0160827
893.986	0.0160513
894.064	0.0161628
894.142	0.0159716
894.221	0.0159150
894.299	0.0159616
894.377	0.0159611
894.455	0.0159046
894.533	0.0159648
894.611	0.0160491
894.689	0.0159983
894.767	0.0159468
894.846	0.0160687
894.924	0.0159506
895.002	0.0159733
895.080	0.0160435
895.158	0.0160576
895.236	0.0159789
895.314	0.0160242
895.392	0.0159480
895.471	0.0160781
895.549	0.0161427
895.627	0.0162486
895.705	0.0159242
895.783	0.0161652
895.861	0.0160964
895.939	0.0160011
896.017	0.0160667
896.096	0.0161649
896.174	0.0161749
896.252	0.0161263
896.330	0.0161763
896.408	0.0162658
896.486	0.0162630
896.564	0.0162288
896.642	0.0163177
896.721	0.0163480
896.799	0.0162589
896.877	0.0163694
896.955	0.0163659
897.033	0.0161868
897.111	0.0163127
897.189	0.0162823
897.267	0.0162268
897.346	0.0164444
897.424	0.0163071
897.502	0.0160491
897.580	0.0163521
897.658	0.0163849
897.736	0.0161159
897.814	0.0161351
897.892	0.0162360
897.971	0.0162151
898.049	0.0161757
898.127	0.0161536
898.205	0.0160760
898.283	0.0159906
898.361	0.0162032
898.439	0.0160892
898.517	0.0159914
898.596	0.0160800
898.674	0.0159341
898.752	0.0160282
898.830	0.0160352
898.908	0.0161074
898.986	0.0158311
899.064	0.0159803
899.142	0.0159991
899.221	0.0160699
899.299	0.0159251
899.377	0.0160912
899.455	0.0159523
899.533	0.0160522
899.611	0.0160122
899.689	0.0160706
899.767	0.0161962
899.846	0.0160867
899.924	0.0160829
900.002	0.0160633
900.080	0.0161274
900.158	0.0161282
900.236	0.0160733
900.314	0.0160869
900.392	0.0161369
900.471	0.0161642
900.549	0.0160720
900.627	0.0161033
900.705	0.0162027
900.783	0.0159146
900.861	0.0159697
900.939	0.0160349
901.017	0.0160184
901.096	0.0160453
901.174	0.0159142
901.252	0.0158274
901.330	0.0158558
901.408	0.0159557
901.486	0.0158408
901.564	0.0158651
901.642	0.0159767
901.721	0.0160916
901.799	0.0160397
901.877	0.0159559
901.955	0.0160191
902.033	0.0161047
902.111	0.0161847
902.189	0.0161111
902.267	0.0161346
902.346	0.0160936
902.424	0.0162187
902.502	0.0160908
902.580	0.0162662
902.658	0.0162298
902.736	0.0162505
902.814	0.0162141
902.892	0.0161679
902.971	0.0162939
903.049	0.0163200
903.127	0.0163583
903.205	0.0163392
903.283	0.0164683
903.361	0.0164125
903.439	0.0165996
903.517	0.0164914
903.596	0.0165089
903.674	0.0165965
903.752	0.0162885
903.830	0.0165497
903.908	0.0165788
903.986	0.0166067
904.064	0.0165417
904.142	0.0166425
904.221	0.0164641
904.299	0.0165565
904.377	0.0166010
904.455	0.0164893
904.533	0.0164867
904.611	0.0165835
904.689	0.0164961
904.767	0.0165298
904.846	0.0163493
904.924	0.0163400
905.002	0.0163213
905.080	0.0163407
905.158	0.0162975
905.236	0.0160739
905.314	0.0160453
905.392	0.0162518
905.471	0.0161069
905.549	0.0159744
905.627	0.0158882
905.705	0.0159748
905.783	0.0158774
905.861	0.0157730
905.939	0.0158631
906.017	0.0157074
906.096	0.0156529
906.174	0.0157156
906.252	0.0157495
906.330	0.0157101
906.408	0.0157982
906.486	0.0158075
906.564	0.0156660
906.642	0.0155604
906.721	0.0159158
906.799	0.0158555
906.877	0.0158018
906.955	0.0157639
907.033	0.0158595
907.111	0.0159232
907.189	0.0159030
907.267	0.0158598
907.346	0.0159736
907.424	0.0157949
907.502	0.0159617
907.580	0.0159202
907.658	0.0159270
907.736	0.0160780
907.814	0.0160563
907.892	0.0159711
907.971	0.0160766
908.049	0.0162054
908.127	0.0161617
908.205	0.0163621
908.283	0.0161918
908.361	0.0160959
908.439	0.0162016
908.517	0.0161815
908.596	0.0162202
908.674	0.0162156
908.752	0.0162954
908.830	0.0163316
908.908	0.0163862
908.986	0.0162890
909.064	0.0162061
909.142	0.0164226
909.221	0.0162464
909.299	0.0163160
909.377	0.0162138
909.455	0.0161446
909.533	0.0161475
909.611	0.0161250
909.689	0.0162118
909.767	0.0161640
909.846	0.0162385
909.924	0.0161771
910.002	0.0160097
910.080	0.0160990
910.158	0.0159736
910.236	0.0161076
910.314	0.0161610
910.392	0.0160997
910.471	0.0160832
910.549	0.0160753
910.627	0.0160433
910.705	0.0160960
910.783	0.0161317
910.861	0.0161532
910.939	0.0161450
911.017	0.0161218
911.096	0.0161233
911.174	0.0160864
911.252	0.0162892
911.330	0.0163239
911.408	0.0162943
911.486	0.0162897
911.564	0.0161856
911.642	0.0161784
911.721	0.0162225
911.799	0.0161811
911.877	0.0164034
911.955	0.0162383
912.033	0.0162864
912.111	0.0163666
912.189	0.0163583
912.267	0.0161584
912.346	0.0162904
912.424	0.0163176
912.502	0.0162443
912.580	0.0163040
912.658	0.0162786
912.736	0.0162949
912.814	0.0163111
912.892	0.0162827
912.971	0.0161804
913.049	0.0163479
913.127	0.0161703
913.205	0.0161043
913.283	0.0162066
913.361	0.0161292
913.439	0.0160605
913.517	0.0160410
913.596	0.0162331
913.674	0.0161320
913.752	0.0161498
913.830	0.0163232
913.908	0.0162572
913.986	0.0163585
914.064	0.0162394
914.142	0.0162588
914.221	0.0163329
914.299	0.0163133
914.377	0.0164128
914.455	0.0164631
914.533	0.0163703
914.611	0.0165624
914.689	0.0164716
914.767	0.0164030
914.846	0.0164515
914.924	0.0165169
915.002	0.0165712
915.080	0.0164843
915.158	0.0165240
915.236	0.0165297
915.314	0.0165717
915.392	0.0165877
915.471	0.0166856
915.549	0.0166625
915.627	0.0165969
915.705	0.0165996
915.783	0.0167664
915.861	0.0166246
915.939	0.0167237
916.017	0.0166708
916.096	0.0166998
916.174	0.0166087
916.252	0.0167316
916.330	0.0168133
916.408	0.0167002
916.486	0.0166546
916.564	0.0166497
916.642	0.0167674
916.721	0.0167173
916.799	0.0166698
916.877	0.0166557
916.955	0.0166255
917.033	0.0165701
917.111	0.0164458
917.189	0.0165813
917.267	0.0165408
917.346	0.0164705
917.424	0.0164948
917.502	0.0164384
917.580	0.0164603
917.658	0.0165912
917.736	0.0164946
917.814	0.0163538
917.892	0.0163449
917.971	0.0163549
918.049	0.0163474
918.127	0.0162997
918.205	0.0162069
918.283	0.0162558
918.361	0.0161875
918.439	0.0163004
918.517	0.0162427
918.596	0.0161600
918.674	0.0162413
918.752	0.0162270
918.830	0.0161636
918.908	0.0162232
918.986	0.0160589
919.064	0.0161195
919.142	0.0160351
919.221	0.0160343
919.299	0.0161694
919.377	0.0161655
919.455	0.0160639
919.533	0.0159750
919.611	0.0161607
919.689	0.0158952
919.767	0.0160679
919.846	0.0159080
919.924	0.0160324
