06/29/2022	21:46:25	Ver.	4.1	UNKNOWN
Optical Delay	600.001752	Delta X		0.078125	Sweeps	1	Scan Rate	0/0
Coordinates	Axis 1	NaN	Axis 2	NaN	Axis 3	NaN	Axis 4	NaN	Axis 5	NaN	Axis 6	0.000000
TX Power	0.000000	RX Power	0.000000

600.002	0.0161562
600.080	0.0160354
600.158	0.0158946
600.236	0.0160938
600.314	0.0161207
600.392	0.0162836
600.471	0.0163003
600.549	0.0163496
600.627	0.0163085
600.705	0.0162727
600.783	0.0161329
600.861	0.0161617
600.939	0.0160939
601.017	0.0158743
601.096	0.0158077
601.174	0.0157849
601.252	0.0156178
601.330	0.0155407
601.408	0.0156666
601.486	0.0157452
601.564	0.0158247
601.642	0.0156664
601.721	0.0157210
601.799	0.0155982
601.877	0.0155889
601.955	0.0155919
602.033	0.0154221
602.111	0.0154429
602.189	0.0154578
602.267	0.0154550
602.346	0.0155984
602.424	0.0155192
602.502	0.0154900
602.580	0.0154609
602.658	0.0152406
602.736	0.0152927
602.814	0.0151744
602.892	0.0152374
602.971	0.0151769
603.049	0.0151981
603.127	0.0153325
603.205	0.0152348
603.283	0.0154686
603.361	0.0157053
603.439	0.0156360
603.517	0.0157555
603.596	0.0157077
603.674	0.0159220
603.752	0.0158734
603.830	0.0159017
603.908	0.0158982
603.986	0.0160448
604.064	0.0162424
604.142	0.0161912
604.221	0.0161382
604.299	0.0162022
604.377	0.0161659
604.455	0.0163048
604.533	0.0163932
604.611	0.0163451
604.689	0.0163323
604.767	0.0164524
604.846	0.0165677
604.924	0.0168031
605.002	0.0168298
605.080	0.0169302
605.158	0.0169756
605.236	0.0170153
605.314	0.0170741
605.392	0.0169386
605.471	0.0166777
605.549	0.0161821
605.627	0.0156614
605.705	0.0150687
605.783	0.0144524
605.861	0.0140324
605.939	0.0136111
606.017	0.0133499
606.096	0.0133654
606.174	0.0134942
606.252	0.0136599
606.330	0.0139091
606.408	0.0142043
606.486	0.0146772
606.564	0.0150558
606.642	0.0154321
606.721	0.0157076
606.799	0.0159473
606.877	0.0161820
606.955	0.0163235
607.033	0.0165317
607.111	0.0165036
607.189	0.0164529
607.267	0.0163758
607.346	0.0163316
607.424	0.0162402
607.502	0.0162238
607.580	0.0162518
607.658	0.0161483
607.736	0.0159121
607.814	0.0159512
607.892	0.0158632
607.971	0.0155658
608.049	0.0154733
608.127	0.0153973
608.205	0.0152251
608.283	0.0152369
608.361	0.0153397
608.439	0.0153768
608.517	0.0153912
608.596	0.0155573
608.674	0.0153662
608.752	0.0153613
608.830	0.0153392
608.908	0.0154706
608.986	0.0154595
609.064	0.0154644
609.142	0.0154549
609.221	0.0156569
609.299	0.0156607
609.377	0.0157520
609.455	0.0159135
609.533	0.0160300
609.611	0.0160133
609.689	0.0161349
609.767	0.0161485
609.846	0.0161355
609.924	0.0162052
610.002	0.0163280
610.080	0.0163358
610.158	0.0163718
610.236	0.0164767
610.314	0.0167545
610.392	0.0167149
610.471	0.0169032
610.549	0.0168439
610.627	0.0169286
610.705	0.0171103
610.783	0.0171653
610.861	0.0172038
610.939	0.0173288
611.017	0.0173883
611.096	0.0174243
611.174	0.0173245
611.252	0.0174286
611.330	0.0175034
611.408	0.0174558
611.486	0.0171818
611.564	0.0173730
611.642	0.0172882
611.721	0.0171332
611.799	0.0169863
611.877	0.0170434
611.955	0.0169229
612.033	0.0169518
612.111	0.0168090
612.189	0.0167963
612.267	0.0167014
612.346	0.0166370
612.424	0.0165528
612.502	0.0166413
612.580	0.0164420
612.658	0.0163882
612.736	0.0164475
612.814	0.0162457
612.892	0.0162280
612.971	0.0160783
613.049	0.0160947
613.127	0.0159409
613.205	0.0158481
613.283	0.0158471
613.361	0.0155914
613.439	0.0155482
613.517	0.0154950
613.596	0.0153178
613.674	0.0152562
613.752	0.0152041
613.830	0.0152821
613.908	0.0151876
613.986	0.0150744
614.064	0.0150477
614.142	0.0150726
614.221	0.0149971
614.299	0.0150610
614.377	0.0148818
614.455	0.0150762
614.533	0.0147926
614.611	0.0148738
614.689	0.0151272
614.767	0.0150496
614.846	0.0149511
614.924	0.0150921
615.002	0.0150957
615.080	0.0150227
615.158	0.0150452
615.236	0.0150896
615.314	0.0150328
615.392	0.0150494
615.471	0.0149905
615.549	0.0150709
615.627	0.0149251
615.705	0.0148958
615.783	0.0148886
615.861	0.0150259
615.939	0.0149149
616.017	0.0150036
616.096	0.0149884
616.174	0.0149723
616.252	0.0148798
616.330	0.0150208
616.408	0.0151847
616.486	0.0150219
616.564	0.0152120
616.642	0.0153983
616.721	0.0155354
616.799	0.0153860
616.877	0.0154251
616.955	0.0153639
617.033	0.0152699
617.111	0.0149862
617.189	0.0149266
617.267	0.0145908
617.346	0.0145042
617.424	0.0143091
617.502	0.0143008
617.580	0.0143797
617.658	0.0144568
617.736	0.0143591
617.814	0.0147302
617.892	0.0149526
617.971	0.0151254
618.049	0.0152887
618.127	0.0155701
618.205	0.0156336
618.283	0.0157187
618.361	0.0160896
618.439	0.0158469
618.517	0.0159489
618.596	0.0160352
618.674	0.0159989
618.752	0.0161157
618.830	0.0162823
618.908	0.0161434
618.986	0.0161707
619.064	0.0161411
619.142	0.0160045
619.221	0.0161403
619.299	0.0159967
619.377	0.0159791
619.455	0.0159747
619.533	0.0160273
619.611	0.0160137
619.689	0.0160340
619.767	0.0159885
619.846	0.0160086
619.924	0.0159407
620.002	0.0159558
620.080	0.0159134
620.158	0.0158749
620.236	0.0159178
620.314	0.0159160
620.392	0.0159612
620.471	0.0157186
620.549	0.0159309
620.627	0.0158865
620.705	0.0158344
620.783	0.0158961
620.861	0.0158725
620.939	0.0157759
621.017	0.0156585
621.096	0.0157465
621.174	0.0156237
621.252	0.0158967
621.330	0.0160123
621.408	0.0160718
621.486	0.0159953
621.564	0.0161273
621.642	0.0161129
621.721	0.0163181
621.799	0.0162934
621.877	0.0163319
621.955	0.0163309
622.033	0.0165572
622.111	0.0164547
622.189	0.0165432
622.267	0.0165209
622.346	0.0166447
622.424	0.0165031
622.502	0.0165837
622.580	0.0165762
622.658	0.0165550
622.736	0.0164941
622.814	0.0164719
622.892	0.0164556
622.971	0.0164258
623.049	0.0165237
623.127	0.0165060
623.205	0.0165136
623.283	0.0164825
623.361	0.0165513
623.439	0.0164640
623.517	0.0163573
623.596	0.0164960
623.674	0.0164240
623.752	0.0163443
623.830	0.0164361
623.908	0.0163731
623.986	0.0163517
624.064	0.0163881
624.142	0.0162266
624.221	0.0161449
624.299	0.0159964
624.377	0.0159609
624.455	0.0160078
624.533	0.0159381
624.611	0.0159316
624.689	0.0157635
624.767	0.0157037
624.846	0.0158081
624.924	0.0158028
625.002	0.0158210
625.080	0.0158259
625.158	0.0158311
625.236	0.0157241
625.314	0.0158134
625.392	0.0157998
625.471	0.0158136
625.549	0.0158676
625.627	0.0157404
625.705	0.0159402
625.783	0.0160432
625.861	0.0159526
625.939	0.0160708
626.017	0.0159438
626.096	0.0161073
626.174	0.0160476
626.252	0.0160550
626.330	0.0159925
626.408	0.0161060
626.486	0.0160258
626.564	0.0160483
626.642	0.0162115
626.721	0.0160342
626.799	0.0160423
626.877	0.0161872
626.955	0.0160014
627.033	0.0158170
627.111	0.0157429
627.189	0.0155597
627.267	0.0155823
627.346	0.0154478
627.424	0.0153328
627.502	0.0152180
627.580	0.0152824
627.658	0.0151946
627.736	0.0151456
627.814	0.0153452
627.892	0.0152447
627.971	0.0153120
628.049	0.0153010
628.127	0.0151936
628.205	0.0152932
628.283	0.0153642
628.361	0.0153786
628.439	0.0153791
628.517	0.0154135
628.596	0.0155029
628.674	0.0154527
628.752	0.0155627
628.830	0.0153892
628.908	0.0155206
628.986	0.0154077
629.064	0.0153667
629.142	0.0153985
629.221	0.0154153
629.299	0.0152572
629.377	0.0151622
629.455	0.0153903
629.533	0.0151737
629.611	0.0151345
629.689	0.0151817
629.767	0.0152289
629.846	0.0153632
629.924	0.0152357
630.002	0.0152774
630.080	0.0153867
630.158	0.0152300
630.236	0.0152695
630.314	0.0153268
630.392	0.0153296
630.471	0.0156511
630.549	0.0154619
630.627	0.0154663
630.705	0.0156226
630.783	0.0156465
630.861	0.0156932
630.939	0.0159121
631.017	0.0158337
631.096	0.0159201
631.174	0.0160594
631.252	0.0161932
631.330	0.0160598
631.408	0.0161372
631.486	0.0162797
631.564	0.0164106
631.642	0.0164201
631.721	0.0164759
631.799	0.0163943
631.877	0.0164597
631.955	0.0166963
632.033	0.0166412
632.111	0.0167439
632.189	0.0167593
632.267	0.0167855
632.346	0.0168893
632.424	0.0170128
632.502	0.0167123
632.580	0.0167522
632.658	0.0169004
632.736	0.0169488
632.814	0.0167649
632.892	0.0167712
632.971	0.0167766
633.049	0.0167899
633.127	0.0165589
633.205	0.0165679
633.283	0.0164665
633.361	0.0164656
633.439	0.0164309
633.517	0.0166013
633.596	0.0166142
633.674	0.0165241
633.752	0.0165606
633.830	0.0165857
633.908	0.0165321
633.986	0.0164729
634.064	0.0164861
634.142	0.0165530
634.221	0.0166685
634.299	0.0166386
634.377	0.0165948
634.455	0.0165627
634.533	0.0166587
634.611	0.0166186
634.689	0.0165631
634.767	0.0164730
634.846	0.0163663
634.924	0.0163039
635.002	0.0164118
635.080	0.0162334
635.158	0.0164285
635.236	0.0162939
635.314	0.0162827
635.392	0.0162919
635.471	0.0162429
635.549	0.0161286
635.627	0.0160313
635.705	0.0159244
635.783	0.0159371
635.861	0.0160001
635.939	0.0160403
636.017	0.0157576
636.096	0.0158546
636.174	0.0159303
636.252	0.0157707
636.330	0.0155808
636.408	0.0156490
636.486	0.0155296
636.564	0.0154351
636.642	0.0155005
636.721	0.0154314
636.799	0.0153622
636.877	0.0152682
636.955	0.0154495
637.033	0.0155444
637.111	0.0155245
637.189	0.0154282
637.267	0.0153222
637.346	0.0154450
637.424	0.0155745
637.502	0.0155500
637.580	0.0155135
637.658	0.0155452
637.736	0.0154565
637.814	0.0154518
637.892	0.0154700
637.971	0.0155728
638.049	0.0155882
638.127	0.0157045
638.205	0.0156339
638.283	0.0155793
638.361	0.0156996
638.439	0.0156107
638.517	0.0155715
638.596	0.0156693
638.674	0.0156427
638.752	0.0157123
638.830	0.0156316
638.908	0.0157827
638.986	0.0156941
639.064	0.0157526
639.142	0.0157000
639.221	0.0158851
639.299	0.0157677
639.377	0.0157447
639.455	0.0157806
639.533	0.0157907
639.611	0.0156275
639.689	0.0157519
639.767	0.0158349
639.846	0.0156895
639.924	0.0158081
640.002	0.0157758
640.080	0.0158624
640.158	0.0158627
640.236	0.0158125
640.314	0.0157566
640.392	0.0158192
640.471	0.0158163
640.549	0.0156274
640.627	0.0157511
640.705	0.0157610
640.783	0.0156824
640.861	0.0156843
640.939	0.0156944
641.017	0.0156556
641.096	0.0156807
641.174	0.0155676
641.252	0.0155820
641.330	0.0157359
641.408	0.0157248
641.486	0.0157378
641.564	0.0156132
641.642	0.0157242
641.721	0.0155419
641.799	0.0156985
641.877	0.0157183
641.955	0.0156201
642.033	0.0156309
642.111	0.0156054
642.189	0.0156772
642.267	0.0156012
642.346	0.0155711
642.424	0.0155779
642.502	0.0155158
642.580	0.0155525
642.658	0.0154749
642.736	0.0155198
642.814	0.0154807
642.892	0.0156736
642.971	0.0155659
643.049	0.0155450
643.127	0.0158111
643.205	0.0156314
643.283	0.0155246
643.361	0.0155922
643.439	0.0156892
643.517	0.0156451
643.596	0.0156388
643.674	0.0156272
643.752	0.0155930
643.830	0.0156533
643.908	0.0155761
643.986	0.0155785
644.064	0.0157171
644.142	0.0156058
644.221	0.0155278
644.299	0.0154813
644.377	0.0154776
644.455	0.0155381
644.533	0.0156309
644.611	0.0154456
644.689	0.0155294
644.767	0.0156811
644.846	0.0155961
644.924	0.0155482
645.002	0.0155254
645.080	0.0155192
645.158	0.0155299
645.236	0.0154961
645.314	0.0154135
645.392	0.0153112
645.471	0.0152817
645.549	0.0154018
645.627	0.0152146
645.705	0.0154858
645.783	0.0154893
645.861	0.0155233
645.939	0.0154491
646.017	0.0154862
646.096	0.0154112
646.174	0.0155138
646.252	0.0155367
646.330	0.0154449
646.408	0.0156568
646.486	0.0156550
646.564	0.0155241
646.642	0.0155409
646.721	0.0156741
646.799	0.0157324
646.877	0.0158469
646.955	0.0158173
647.033	0.0158544
647.111	0.0158345
647.189	0.0158494
647.267	0.0158808
647.346	0.0157954
647.424	0.0158119
647.502	0.0158785
647.580	0.0158887
647.658	0.0160148
647.736	0.0159235
647.814	0.0158747
647.892	0.0158881
647.971	0.0160225
648.049	0.0159345
648.127	0.0160395
648.205	0.0159867
648.283	0.0158181
648.361	0.0159044
648.439	0.0158956
648.517	0.0158237
648.596	0.0159168
648.674	0.0157749
648.752	0.0159042
648.830	0.0158347
648.908	0.0158201
648.986	0.0157146
649.064	0.0157308
649.142	0.0158516
649.221	0.0159113
649.299	0.0157564
649.377	0.0158374
649.455	0.0157912
649.533	0.0159341
649.611	0.0159568
649.689	0.0158305
649.767	0.0161009
649.846	0.0159607
649.924	0.0158183
650.002	0.0159404
650.080	0.0158958
650.158	0.0159395
650.236	0.0159275
650.314	0.0159143
650.392	0.0159250
650.471	0.0157762
650.549	0.0158797
650.627	0.0159940
650.705	0.0159259
650.783	0.0160915
650.861	0.0160173
650.939	0.0159444
651.017	0.0159708
651.096	0.0159182
651.174	0.0158803
651.252	0.0158202
651.330	0.0160118
651.408	0.0158620
651.486	0.0158948
651.564	0.0157283
651.642	0.0159235
651.721	0.0158430
651.799	0.0158606
651.877	0.0159000
651.955	0.0158908
652.033	0.0159512
652.111	0.0158772
652.189	0.0159391
652.267	0.0159527
652.346	0.0159901
652.424	0.0160786
652.502	0.0159135
652.580	0.0160262
652.658	0.0159026
652.736	0.0159622
652.814	0.0160040
652.892	0.0158860
652.971	0.0159587
653.049	0.0160842
653.127	0.0158911
653.205	0.0158125
653.283	0.0159706
653.361	0.0159000
653.439	0.0159711
653.517	0.0159631
653.596	0.0160032
653.674	0.0159324
653.752	0.0158767
653.830	0.0159908
653.908	0.0158771
653.986	0.0158488
654.064	0.0159058
654.142	0.0159520
654.221	0.0160563
654.299	0.0158513
654.377	0.0160245
654.455	0.0161378
654.533	0.0159914
654.611	0.0159425
654.689	0.0161853
654.767	0.0161933
654.846	0.0162708
654.924	0.0161875
655.002	0.0162822
655.080	0.0161469
655.158	0.0164259
655.236	0.0164777
655.314	0.0163759
655.392	0.0162769
655.471	0.0160574
655.549	0.0162193
655.627	0.0161896
655.705	0.0162049
655.783	0.0159768
655.861	0.0161108
655.939	0.0161043
656.017	0.0162514
656.096	0.0161577
656.174	0.0160931
656.252	0.0162229
656.330	0.0161650
656.408	0.0161454
656.486	0.0160960
656.564	0.0161224
656.642	0.0159709
656.721	0.0160140
656.799	0.0160874
656.877	0.0160593
656.955	0.0160014
657.033	0.0160728
657.111	0.0160673
657.189	0.0161709
657.267	0.0160970
657.346	0.0161772
657.424	0.0162055
657.502	0.0162424
657.580	0.0164059
657.658	0.0165641
657.736	0.0163595
657.814	0.0164192
657.892	0.0165977
657.971	0.0164713
658.049	0.0164921
658.127	0.0164288
658.205	0.0164376
658.283	0.0164218
658.361	0.0164913
658.439	0.0164037
658.517	0.0162773
658.596	0.0164156
658.674	0.0164070
658.752	0.0162796
658.830	0.0162895
658.908	0.0163535
658.986	0.0162994
659.064	0.0163145
659.142	0.0162880
659.221	0.0163244
659.299	0.0161947
659.377	0.0162665
659.455	0.0160655
659.533	0.0162344
659.611	0.0162313
659.689	0.0162040
659.767	0.0161782
659.846	0.0160435
659.924	0.0160642
660.002	0.0160487
660.080	0.0160213
660.158	0.0161105
660.236	0.0161611
660.314	0.0161633
660.392	0.0161730
660.471	0.0158792
660.549	0.0159406
660.627	0.0160997
660.705	0.0159718
660.783	0.0158470
660.861	0.0159195
660.939	0.0158054
661.017	0.0158331
661.096	0.0159113
661.174	0.0157605
661.252	0.0158861
661.330	0.0157092
661.408	0.0156712
661.486	0.0156941
661.564	0.0157751
661.642	0.0157255
661.721	0.0156583
661.799	0.0156581
661.877	0.0155918
661.955	0.0156260
662.033	0.0155013
662.111	0.0154513
662.189	0.0153503
662.267	0.0153017
662.346	0.0152803
662.424	0.0151383
662.502	0.0152116
662.580	0.0153043
662.658	0.0154050
662.736	0.0151796
662.814	0.0151662
662.892	0.0154264
662.971	0.0153316
663.049	0.0153803
663.127	0.0155030
663.205	0.0155650
663.283	0.0157060
663.361	0.0155521
663.439	0.0156413
663.517	0.0156540
663.596	0.0156168
663.674	0.0156605
663.752	0.0156985
663.830	0.0156919
663.908	0.0156020
663.986	0.0156551
664.064	0.0156059
664.142	0.0157100
664.221	0.0158100
664.299	0.0158396
664.377	0.0157996
664.455	0.0155657
664.533	0.0155779
664.611	0.0156580
664.689	0.0158125
664.767	0.0155804
664.846	0.0155567
664.924	0.0155622
665.002	0.0154898
665.080	0.0153680
665.158	0.0153857
665.236	0.0153257
665.314	0.0152528
665.392	0.0152908
665.471	0.0153188
665.549	0.0153876
665.627	0.0153154
665.705	0.0150059
665.783	0.0152607
665.861	0.0153439
665.939	0.0152992
666.017	0.0153844
666.096	0.0153747
666.174	0.0154334
666.252	0.0154739
666.330	0.0154374
666.408	0.0154450
666.486	0.0155844
666.564	0.0156247
666.642	0.0156934
666.721	0.0158106
666.799	0.0158411
666.877	0.0158714
666.955	0.0159310
667.033	0.0158962
667.111	0.0160499
667.189	0.0160999
667.267	0.0161279
667.346	0.0162766
667.424	0.0162395
667.502	0.0163660
667.580	0.0163381
667.658	0.0165417
667.736	0.0165067
667.814	0.0166428
667.892	0.0166143
667.971	0.0167257
668.049	0.0166306
668.127	0.0167568
668.205	0.0167915
668.283	0.0169433
668.361	0.0168875
668.439	0.0170344
668.517	0.0168905
668.596	0.0167793
668.674	0.0168289
668.752	0.0168383
668.830	0.0167338
668.908	0.0165723
668.986	0.0167680
669.064	0.0168014
669.142	0.0165549
669.221	0.0164812
669.299	0.0165100
669.377	0.0164217
669.455	0.0163700
669.533	0.0162077
669.611	0.0161648
669.689	0.0161439
669.767	0.0160545
669.846	0.0158575
669.924	0.0158824
670.002	0.0158877
670.080	0.0158037
670.158	0.0158913
670.236	0.0157818
670.314	0.0157052
670.392	0.0156996
670.471	0.0157607
670.549	0.0156021
670.627	0.0156500
670.705	0.0155653
670.783	0.0156476
670.861	0.0158120
670.939	0.0158138
671.017	0.0158085
671.096	0.0159208
671.174	0.0158926
671.252	0.0159451
671.330	0.0159323
671.408	0.0160446
671.486	0.0161280
671.564	0.0161660
671.642	0.0161761
671.721	0.0161977
671.799	0.0161404
671.877	0.0163226
671.955	0.0163152
672.033	0.0163622
672.111	0.0162190
672.189	0.0161807
672.267	0.0162959
672.346	0.0161789
672.424	0.0161670
672.502	0.0163086
672.580	0.0161696
672.658	0.0161658
672.736	0.0159406
672.814	0.0158769
672.892	0.0158970
672.971	0.0160117
673.049	0.0158430
673.127	0.0158445
673.205	0.0157922
673.283	0.0156367
673.361	0.0156991
673.439	0.0156404
673.517	0.0157540
673.596	0.0157701
673.674	0.0155961
673.752	0.0156917
673.830	0.0155920
673.908	0.0156852
673.986	0.0157570
674.064	0.0156329
674.142	0.0156077
674.221	0.0157516
674.299	0.0156483
674.377	0.0154662
674.455	0.0154971
674.533	0.0155333
674.611	0.0155781
674.689	0.0155592
674.767	0.0156261
674.846	0.0155355
674.924	0.0155735
675.002	0.0155043
675.080	0.0154742
675.158	0.0155223
675.236	0.0155768
675.314	0.0155380
675.392	0.0157052
675.471	0.0157040
675.549	0.0157069
675.627	0.0156452
675.705	0.0156438
675.783	0.0157658
675.861	0.0158230
675.939	0.0158474
676.017	0.0157441
676.096	0.0158037
676.174	0.0159885
676.252	0.0158352
676.330	0.0158717
676.408	0.0159188
676.486	0.0157973
676.564	0.0158164
676.642	0.0158407
676.721	0.0159010
676.799	0.0159748
676.877	0.0158852
676.955	0.0158158
677.033	0.0158614
677.111	0.0157864
677.189	0.0157896
677.267	0.0159177
677.346	0.0158596
677.424	0.0159062
677.502	0.0158727
677.580	0.0158681
677.658	0.0158899
677.736	0.0159077
677.814	0.0160167
677.892	0.0158644
677.971	0.0159225
678.049	0.0159593
678.127	0.0160253
678.205	0.0161299
678.283	0.0161053
678.361	0.0160257
678.439	0.0162637
678.517	0.0161738
678.596	0.0159497
678.674	0.0161669
678.752	0.0162217
678.830	0.0162619
678.908	0.0162996
678.986	0.0163223
679.064	0.0162968
679.142	0.0163295
679.221	0.0162357
679.299	0.0162437
679.377	0.0163515
679.455	0.0163246
679.533	0.0163702
679.611	0.0163189
679.689	0.0164307
679.767	0.0164124
679.846	0.0162192
679.924	0.0163795
680.002	0.0163684
680.080	0.0161672
680.158	0.0162045
680.236	0.0161433
680.314	0.0161076
680.392	0.0160094
680.471	0.0160392
680.549	0.0160047
680.627	0.0159583
680.705	0.0158533
680.783	0.0158566
680.861	0.0157043
680.939	0.0157151
681.017	0.0157960
681.096	0.0155267
681.174	0.0156410
681.252	0.0155678
681.330	0.0156021
681.408	0.0154379
681.486	0.0153931
681.564	0.0154222
681.642	0.0154528
681.721	0.0152981
681.799	0.0155836
681.877	0.0153739
681.955	0.0153883
682.033	0.0152913
682.111	0.0153503
682.189	0.0153346
682.267	0.0153058
682.346	0.0153476
682.424	0.0153162
682.502	0.0153598
682.580	0.0153573
682.658	0.0154279
682.736	0.0155040
682.814	0.0154826
682.892	0.0155956
682.971	0.0154716
683.049	0.0155440
683.127	0.0157293
683.205	0.0156651
683.283	0.0156041
683.361	0.0158433
683.439	0.0157129
683.517	0.0158575
683.596	0.0160039
683.674	0.0158317
683.752	0.0159350
683.830	0.0160246
683.908	0.0159509
683.986	0.0158831
684.064	0.0159772
684.142	0.0160600
684.221	0.0161986
684.299	0.0160134
684.377	0.0161734
684.455	0.0162164
684.533	0.0162424
684.611	0.0160881
684.689	0.0160538
684.767	0.0160345
684.846	0.0160786
684.924	0.0159490
685.002	0.0160004
685.080	0.0160436
685.158	0.0158490
685.236	0.0159225
685.314	0.0158456
685.392	0.0157351
685.471	0.0157722
685.549	0.0157632
685.627	0.0159352
685.705	0.0159058
685.783	0.0157859
685.861	0.0159173
685.939	0.0159255
686.017	0.0158215
686.096	0.0157822
686.174	0.0158615
686.252	0.0159071
686.330	0.0158866
686.408	0.0158498
686.486	0.0158607
686.564	0.0156947
686.642	0.0156982
686.721	0.0156537
686.799	0.0156212
686.877	0.0155651
686.955	0.0154555
687.033	0.0154224
687.111	0.0153177
687.189	0.0154360
687.267	0.0152907
687.346	0.0153476
687.424	0.0153727
687.502	0.0154481
687.580	0.0153962
687.658	0.0155530
687.736	0.0155524
687.814	0.0155240
687.892	0.0153129
687.971	0.0153880
688.049	0.0152314
688.127	0.0153293
688.205	0.0152248
688.283	0.0152630
688.361	0.0151273
688.439	0.0151173
688.517	0.0150465
688.596	0.0149575
688.674	0.0149551
688.752	0.0150780
688.830	0.0149831
688.908	0.0150291
688.986	0.0150742
689.064	0.0149549
689.142	0.0152970
689.221	0.0152953
689.299	0.0153241
689.377	0.0154296
689.455	0.0154520
689.533	0.0155119
689.611	0.0156525
689.689	0.0157633
689.767	0.0156940
689.846	0.0157793
689.924	0.0160157
690.002	0.0159662
690.080	0.0160504
690.158	0.0160273
690.236	0.0161279
690.314	0.0161139
690.392	0.0160249
690.471	0.0161239
690.549	0.0160959
690.627	0.0161280
690.705	0.0160093
690.783	0.0159984
690.861	0.0160062
690.939	0.0161585
691.017	0.0161626
691.096	0.0160471
691.174	0.0160363
691.252	0.0158981
691.330	0.0160987
691.408	0.0159146
691.486	0.0159636
691.564	0.0159908
691.642	0.0158673
691.721	0.0158680
691.799	0.0159241
691.877	0.0159633
691.955	0.0159486
692.033	0.0160738
692.111	0.0159338
692.189	0.0160187
692.267	0.0160347
692.346	0.0160109
692.424	0.0160204
692.502	0.0160486
692.580	0.0162206
692.658	0.0162385
692.736	0.0161568
692.814	0.0160532
692.892	0.0160997
692.971	0.0161116
693.049	0.0162709
693.127	0.0163551
693.205	0.0161801
693.283	0.0161880
693.361	0.0162218
693.439	0.0163461
693.517	0.0164565
693.596	0.0164514
693.674	0.0165351
693.752	0.0166461
693.830	0.0165430
693.908	0.0166706
693.986	0.0165741
694.064	0.0165320
694.142	0.0166546
694.221	0.0167101
694.299	0.0167255
694.377	0.0166316
694.455	0.0165379
694.533	0.0165759
694.611	0.0165313
694.689	0.0165771
694.767	0.0165459
694.846	0.0165469
694.924	0.0164858
695.002	0.0164611
695.080	0.0165347
695.158	0.0164899
695.236	0.0163284
695.314	0.0162262
695.392	0.0163638
695.471	0.0164399
695.549	0.0163875
695.627	0.0162783
695.705	0.0162071
695.783	0.0161889
695.861	0.0162886
695.939	0.0162521
696.017	0.0161858
696.096	0.0161401
696.174	0.0161406
696.252	0.0161567
696.330	0.0162520
696.408	0.0162120
696.486	0.0161877
696.564	0.0161166
696.642	0.0161308
696.721	0.0162766
696.799	0.0161050
696.877	0.0160860
696.955	0.0163107
697.033	0.0161321
697.111	0.0160001
697.189	0.0160711
697.267	0.0159236
697.346	0.0160071
697.424	0.0160787
697.502	0.0159944
697.580	0.0158300
697.658	0.0158595
697.736	0.0157852
697.814	0.0156669
697.892	0.0158541
697.971	0.0156534
698.049	0.0156205
698.127	0.0154478
698.205	0.0154674
698.283	0.0153724
698.361	0.0153581
698.439	0.0152438
698.517	0.0153296
698.596	0.0152461
698.674	0.0150846
698.752	0.0150700
698.830	0.0150326
698.908	0.0149546
698.986	0.0149617
699.064	0.0148952
699.142	0.0150229
699.221	0.0148210
699.299	0.0148573
699.377	0.0148487
699.455	0.0149578
699.533	0.0148653
699.611	0.0149799
699.689	0.0149319
699.767	0.0150652
699.846	0.0152087
699.924	0.0152181
700.002	0.0150896
700.080	0.0152035
700.158	0.0152273
700.236	0.0153551
700.314	0.0154969
700.392	0.0154563
700.471	0.0154286
700.549	0.0156294
700.627	0.0156592
700.705	0.0157125
700.783	0.0157432
700.861	0.0157804
700.939	0.0157169
701.017	0.0158913
701.096	0.0159828
701.174	0.0158741
701.252	0.0159158
701.330	0.0159152
701.408	0.0158280
701.486	0.0158978
701.564	0.0158025
701.642	0.0156632
701.721	0.0157814
701.799	0.0156310
701.877	0.0156219
701.955	0.0157760
702.033	0.0158548
702.111	0.0157135
702.189	0.0156273
702.267	0.0158913
702.346	0.0156805
702.424	0.0156272
702.502	0.0158598
702.580	0.0157887
702.658	0.0157127
702.736	0.0157794
702.814	0.0158346
702.892	0.0157847
702.971	0.0156614
703.049	0.0156110
703.127	0.0156956
703.205	0.0157082
703.283	0.0155514
703.361	0.0156954
703.439	0.0156734
703.517	0.0156638
703.596	0.0155309
703.674	0.0155116
703.752	0.0155836
703.830	0.0156807
703.908	0.0156319
703.986	0.0156715
704.064	0.0156584
704.142	0.0157479
704.221	0.0158034
704.299	0.0158995
704.377	0.0158450
704.455	0.0158737
704.533	0.0160025
704.611	0.0159344
704.689	0.0161842
704.767	0.0159628
704.846	0.0161383
704.924	0.0159970
705.002	0.0160713
705.080	0.0160064
705.158	0.0158947
705.236	0.0160662
705.314	0.0159345
705.392	0.0160645
705.471	0.0157986
705.549	0.0157772
705.627	0.0158964
705.705	0.0156561
705.783	0.0157664
705.861	0.0157815
705.939	0.0156950
706.017	0.0156485
706.096	0.0155277
706.174	0.0155128
706.252	0.0155592
706.330	0.0156052
706.408	0.0155427
706.486	0.0154989
706.564	0.0156829
706.642	0.0156612
706.721	0.0155875
706.799	0.0155485
706.877	0.0156754
706.955	0.0158063
707.033	0.0156013
707.111	0.0156509
707.189	0.0156087
707.267	0.0156883
707.346	0.0155718
707.424	0.0157570
707.502	0.0155036
707.580	0.0155771
707.658	0.0157002
707.736	0.0155845
707.814	0.0155927
707.892	0.0154552
707.971	0.0155569
708.049	0.0156924
708.127	0.0156792
708.205	0.0155381
708.283	0.0155273
708.361	0.0156055
708.439	0.0155920
708.517	0.0157052
708.596	0.0156320
708.674	0.0156128
708.752	0.0156393
708.830	0.0155433
708.908	0.0156732
708.986	0.0156043
709.064	0.0155776
709.142	0.0157629
709.221	0.0157608
709.299	0.0156467
709.377	0.0157385
709.455	0.0159129
709.533	0.0158413
709.611	0.0158997
709.689	0.0158158
709.767	0.0158054
709.846	0.0157727
709.924	0.0158463
710.002	0.0157458
710.080	0.0158440
710.158	0.0157089
710.236	0.0157027
710.314	0.0157134
710.392	0.0157993
710.471	0.0157054
710.549	0.0157395
710.627	0.0159052
710.705	0.0155934
710.783	0.0156946
710.861	0.0157632
710.939	0.0157767
711.017	0.0158661
711.096	0.0159042
711.174	0.0158147
711.252	0.0159459
711.330	0.0160190
711.408	0.0158602
711.486	0.0159398
711.564	0.0161021
711.642	0.0161636
711.721	0.0160310
711.799	0.0160661
711.877	0.0161456
711.955	0.0161812
712.033	0.0161120
712.111	0.0160014
712.189	0.0160651
712.267	0.0160735
712.346	0.0159055
712.424	0.0160665
712.502	0.0159253
712.580	0.0158098
712.658	0.0157205
712.736	0.0158546
712.814	0.0157050
712.892	0.0156689
712.971	0.0156529
713.049	0.0155869
713.127	0.0158400
713.205	0.0156894
713.283	0.0156834
713.361	0.0157343
713.439	0.0157436
713.517	0.0156772
713.596	0.0156530
713.674	0.0157120
713.752	0.0156229
713.830	0.0157145
713.908	0.0156727
713.986	0.0156480
714.064	0.0155859
714.142	0.0157681
714.221	0.0157117
714.299	0.0157258
714.377	0.0158418
714.455	0.0157752
714.533	0.0157988
714.611	0.0159124
714.689	0.0159137
714.767	0.0158424
714.846	0.0157862
714.924	0.0158799
715.002	0.0159039
715.080	0.0157790
715.158	0.0159080
715.236	0.0159046
715.314	0.0157862
715.392	0.0159011
715.471	0.0158056
715.549	0.0158243
715.627	0.0158315
715.705	0.0156757
715.783	0.0158205
715.861	0.0158735
715.939	0.0157990
716.017	0.0156392
716.096	0.0157240
716.174	0.0157719
716.252	0.0156314
716.330	0.0157249
716.408	0.0157683
716.486	0.0158395
716.564	0.0156863
716.642	0.0158327
716.721	0.0158804
716.799	0.0161008
716.877	0.0159586
716.955	0.0158789
717.033	0.0159629
717.111	0.0160024
717.189	0.0159147
717.267	0.0160062
717.346	0.0158962
717.424	0.0159045
717.502	0.0159653
717.580	0.0159599
717.658	0.0159003
717.736	0.0159912
717.814	0.0157535
717.892	0.0157224
717.971	0.0158224
718.049	0.0158057
718.127	0.0156857
718.205	0.0158248
718.283	0.0158347
718.361	0.0159228
718.439	0.0157661
718.517	0.0157219
718.596	0.0158382
718.674	0.0159573
718.752	0.0158690
718.830	0.0159139
718.908	0.0160575
718.986	0.0159352
719.064	0.0160677
719.142	0.0160274
719.221	0.0160716
719.299	0.0161271
719.377	0.0159373
719.455	0.0161253
719.533	0.0160080
719.611	0.0161986
719.689	0.0161037
719.767	0.0162086
719.846	0.0164298
719.924	0.0162390
720.002	0.0164185
720.080	0.0163445
720.158	0.0163710
720.236	0.0164292
720.314	0.0163103
720.392	0.0163335
720.471	0.0163136
720.549	0.0163467
720.627	0.0163173
720.705	0.0162032
720.783	0.0161813
720.861	0.0161908
720.939	0.0161523
721.017	0.0161229
721.096	0.0160896
721.174	0.0161427
721.252	0.0161276
721.330	0.0159671
721.408	0.0159170
721.486	0.0160971
721.564	0.0158481
721.642	0.0159971
721.721	0.0159830
721.799	0.0159217
721.877	0.0157612
721.955	0.0157565
722.033	0.0157793
722.111	0.0157886
722.189	0.0156390
722.267	0.0156198
722.346	0.0156507
722.424	0.0157179
722.502	0.0156107
722.580	0.0155546
722.658	0.0153841
722.736	0.0155881
722.814	0.0154860
722.892	0.0156118
722.971	0.0154191
723.049	0.0154370
723.127	0.0155051
723.205	0.0154177
723.283	0.0153535
723.361	0.0155086
723.439	0.0154129
723.517	0.0154768
723.596	0.0153487
723.674	0.0154145
723.752	0.0152615
723.830	0.0153990
723.908	0.0153105
723.986	0.0153403
724.064	0.0152713
724.142	0.0154055
724.221	0.0155100
724.299	0.0153763
724.377	0.0153803
724.455	0.0155609
724.533	0.0155556
724.611	0.0155734
724.689	0.0156594
724.767	0.0156373
724.846	0.0156580
724.924	0.0158144
725.002	0.0156544
725.080	0.0156763
725.158	0.0157777
725.236	0.0157516
725.314	0.0157925
725.392	0.0158784
725.471	0.0158573
725.549	0.0159065
725.627	0.0158275
725.705	0.0160128
725.783	0.0160487
725.861	0.0160417
725.939	0.0160320
726.017	0.0161446
726.096	0.0161475
726.174	0.0162539
726.252	0.0161627
726.330	0.0159887
726.408	0.0160430
726.486	0.0161667
726.564	0.0161778
726.642	0.0162418
726.721	0.0160784
726.799	0.0160582
726.877	0.0160452
726.955	0.0159422
727.033	0.0158625
727.111	0.0157612
727.189	0.0156992
727.267	0.0156605
727.346	0.0155439
727.424	0.0156382
727.502	0.0156883
727.580	0.0155096
727.658	0.0153484
727.736	0.0154022
727.814	0.0154601
727.892	0.0154861
727.971	0.0154984
728.049	0.0154138
728.127	0.0154207
728.205	0.0154818
728.283	0.0153220
728.361	0.0155754
728.439	0.0155231
728.517	0.0155940
728.596	0.0155343
728.674	0.0155833
728.752	0.0156313
728.830	0.0155773
728.908	0.0155730
728.986	0.0155593
729.064	0.0157013
729.142	0.0157661
729.221	0.0156830
729.299	0.0156965
729.377	0.0156329
729.455	0.0158482
729.533	0.0158067
729.611	0.0156605
729.689	0.0156670
729.767	0.0157110
729.846	0.0158277
729.924	0.0157430
730.002	0.0156906
730.080	0.0158202
730.158	0.0157687
730.236	0.0159167
730.314	0.0159469
730.392	0.0160073
730.471	0.0159727
730.549	0.0160278
730.627	0.0160225
730.705	0.0161429
730.783	0.0160007
730.861	0.0161425
730.939	0.0160464
731.017	0.0158881
731.096	0.0159187
731.174	0.0160014
731.252	0.0159939
731.330	0.0159811
731.408	0.0159546
731.486	0.0158887
731.564	0.0159093
731.642	0.0159279
731.721	0.0157915
731.799	0.0157186
731.877	0.0157483
731.955	0.0156482
732.033	0.0156207
732.111	0.0156680
732.189	0.0157536
732.267	0.0157925
732.346	0.0157124
732.424	0.0158147
732.502	0.0158377
732.580	0.0158806
732.658	0.0157759
732.736	0.0158253
732.814	0.0159158
732.892	0.0160097
732.971	0.0159798
733.049	0.0159729
733.127	0.0159019
733.205	0.0159741
733.283	0.0160595
733.361	0.0160236
733.439	0.0160309
733.517	0.0161140
733.596	0.0163152
733.674	0.0163647
733.752	0.0163025
733.830	0.0162214
733.908	0.0162653
733.986	0.0162778
734.064	0.0162500
734.142	0.0163191
734.221	0.0163385
734.299	0.0164809
734.377	0.0163025
734.455	0.0163696
734.533	0.0162825
734.611	0.0161824
734.689	0.0161967
734.767	0.0162141
734.846	0.0161682
734.924	0.0162218
735.002	0.0161703
735.080	0.0162804
735.158	0.0162853
735.236	0.0160687
735.314	0.0161419
735.392	0.0162134
735.471	0.0161552
735.549	0.0160267
735.627	0.0161990
735.705	0.0162705
735.783	0.0161131
735.861	0.0160376
735.939	0.0162807
736.017	0.0160667
736.096	0.0161832
736.174	0.0161826
736.252	0.0160341
736.330	0.0162481
736.408	0.0161298
736.486	0.0160682
736.564	0.0159638
736.642	0.0159170
736.721	0.0158769
736.799	0.0159051
736.877	0.0159919
736.955	0.0159212
737.033	0.0158829
737.111	0.0158939
737.189	0.0158602
737.267	0.0158971
737.346	0.0159351
737.424	0.0159519
737.502	0.0160084
737.580	0.0160279
737.658	0.0160284
737.736	0.0160210
737.814	0.0162610
737.892	0.0160764
737.971	0.0162755
738.049	0.0162627
738.127	0.0163235
738.205	0.0163396
738.283	0.0164150
738.361	0.0162518
738.439	0.0163763
738.517	0.0163544
738.596	0.0163298
738.674	0.0163132
738.752	0.0163261
738.830	0.0163116
738.908	0.0161979
738.986	0.0162801
739.064	0.0160268
739.142	0.0160539
739.221	0.0161131
739.299	0.0159889
739.377	0.0159003
739.455	0.0159389
739.533	0.0159607
739.611	0.0158595
739.689	0.0157804
739.767	0.0157372
739.846	0.0155615
739.924	0.0157328
740.002	0.0156894
740.080	0.0157407
740.158	0.0156739
740.236	0.0156422
740.314	0.0157021
740.392	0.0156718
740.471	0.0156875
740.549	0.0158605
740.627	0.0158062
740.705	0.0158079
740.783	0.0157587
740.861	0.0159438
740.939	0.0160477
741.017	0.0159810
741.096	0.0159052
741.174	0.0160017
741.252	0.0160608
741.330	0.0160548
741.408	0.0161420
741.486	0.0160306
741.564	0.0160190
741.642	0.0160862
741.721	0.0158323
741.799	0.0160445
741.877	0.0160116
741.955	0.0160229
742.033	0.0158971
742.111	0.0160401
742.189	0.0158519
742.267	0.0158973
742.346	0.0158795
742.424	0.0158401
742.502	0.0159637
742.580	0.0158850
742.658	0.0159866
742.736	0.0158874
742.814	0.0158697
742.892	0.0159465
742.971	0.0160030
743.049	0.0160326
743.127	0.0162140
743.205	0.0162429
743.283	0.0162424
743.361	0.0161691
743.439	0.0162240
743.517	0.0161991
743.596	0.0162863
743.674	0.0162864
743.752	0.0163460
743.830	0.0163341
743.908	0.0162377
743.986	0.0163038
744.064	0.0163512
744.142	0.0162714
744.221	0.0162743
744.299	0.0162350
744.377	0.0163583
744.455	0.0162395
744.533	0.0162590
744.611	0.0161357
744.689	0.0162856
744.767	0.0161952
744.846	0.0161466
744.924	0.0160047
745.002	0.0161420
745.080	0.0159550
745.158	0.0159750
745.236	0.0159973
745.314	0.0158357
745.392	0.0159286
745.471	0.0161383
745.549	0.0161852
745.627	0.0161483
745.705	0.0160226
745.783	0.0160279
745.861	0.0160642
745.939	0.0162650
746.017	0.0162803
746.096	0.0162125
746.174	0.0163225
746.252	0.0163116
746.330	0.0161864
746.408	0.0161776
746.486	0.0162074
746.564	0.0160857
746.642	0.0160473
746.721	0.0160361
746.799	0.0160661
746.877	0.0161205
746.955	0.0159386
747.033	0.0158808
747.111	0.0159140
747.189	0.0158448
747.267	0.0158199
747.346	0.0156460
747.424	0.0156581
747.502	0.0155676
747.580	0.0155670
747.658	0.0153670
747.736	0.0153968
747.814	0.0153820
747.892	0.0155647
747.971	0.0152619
748.049	0.0152721
748.127	0.0152621
748.205	0.0152422
748.283	0.0152420
748.361	0.0152293
748.439	0.0151342
748.517	0.0152156
748.596	0.0151973
748.674	0.0151469
748.752	0.0152925
748.830	0.0153351
748.908	0.0152866
748.986	0.0152855
749.064	0.0152960
749.142	0.0154041
749.221	0.0154442
749.299	0.0153281
749.377	0.0153869
749.455	0.0154035
749.533	0.0153849
749.611	0.0154556
749.689	0.0153911
749.767	0.0153135
749.846	0.0154847
749.924	0.0153780
750.002	0.0154955
750.080	0.0154397
750.158	0.0153555
750.236	0.0154327
750.314	0.0155153
750.392	0.0154525
750.471	0.0153987
750.549	0.0153119
750.627	0.0153870
750.705	0.0155257
750.783	0.0154037
750.861	0.0154498
750.939	0.0154955
751.017	0.0153857
751.096	0.0153846
751.174	0.0157037
751.252	0.0156058
751.330	0.0155446
751.408	0.0154901
751.486	0.0155924
751.564	0.0155681
751.642	0.0156572
751.721	0.0156642
751.799	0.0156064
751.877	0.0156773
751.955	0.0158260
752.033	0.0155105
752.111	0.0157354
752.189	0.0157136
752.267	0.0155364
752.346	0.0155901
752.424	0.0156854
752.502	0.0154750
752.580	0.0156363
752.658	0.0156606
752.736	0.0156755
752.814	0.0156555
752.892	0.0156252
752.971	0.0156342
753.049	0.0156500
753.127	0.0157655
753.205	0.0157887
753.283	0.0158257
753.361	0.0158429
753.439	0.0157388
753.517	0.0157526
753.596	0.0157937
753.674	0.0160117
753.752	0.0158596
753.830	0.0159814
753.908	0.0159753
753.986	0.0159811
754.064	0.0160150
754.142	0.0159423
754.221	0.0159642
754.299	0.0158716
754.377	0.0159754
754.455	0.0160786
754.533	0.0160511
754.611	0.0161553
754.689	0.0161356
754.767	0.0162353
754.846	0.0162489
754.924	0.0162844
755.002	0.0164291
755.080	0.0165734
755.158	0.0164500
755.236	0.0165438
755.314	0.0164742
755.392	0.0166116
755.471	0.0166258
755.549	0.0165875
755.627	0.0165772
755.705	0.0166625
755.783	0.0165364
755.861	0.0164512
755.939	0.0165624
756.017	0.0164410
756.096	0.0163753
756.174	0.0162843
756.252	0.0163251
756.330	0.0161961
756.408	0.0162081
756.486	0.0160764
756.564	0.0161640
756.642	0.0161267
756.721	0.0161705
756.799	0.0160307
756.877	0.0159119
756.955	0.0160003
757.033	0.0162160
757.111	0.0164348
757.189	0.0162253
757.267	0.0164064
757.346	0.0164002
757.424	0.0165858
757.502	0.0163916
757.580	0.0164732
757.658	0.0167805
757.736	0.0166894
757.814	0.0165311
757.892	0.0166386
757.971	0.0165928
758.049	0.0166431
758.127	0.0165955
758.205	0.0165880
758.283	0.0164474
758.361	0.0164162
758.439	0.0163554
758.517	0.0162209
758.596	0.0162479
758.674	0.0160997
758.752	0.0159531
758.830	0.0159200
758.908	0.0158555
758.986	0.0157310
759.064	0.0156544
759.142	0.0158157
759.221	0.0157416
759.299	0.0154031
759.377	0.0155355
759.455	0.0156175
759.533	0.0154636
759.611	0.0155470
759.689	0.0155818
759.767	0.0154821
759.846	0.0156104
759.924	0.0156253
760.002	0.0155067
760.080	0.0156140
760.158	0.0155485
760.236	0.0155897
760.314	0.0157568
760.392	0.0156911
760.471	0.0157990
760.549	0.0158994
760.627	0.0159566
760.705	0.0160242
760.783	0.0160923
760.861	0.0162360
760.939	0.0164434
761.017	0.0165028
761.096	0.0165800
761.174	0.0166450
761.252	0.0166515
761.330	0.0167914
761.408	0.0166977
761.486	0.0168401
761.564	0.0167567
761.642	0.0166545
761.721	0.0167060
761.799	0.0167162
761.877	0.0166953
761.955	0.0166244
762.033	0.0165498
762.111	0.0164561
762.189	0.0165008
762.267	0.0163883
762.346	0.0164124
762.424	0.0162071
762.502	0.0160911
762.580	0.0161361
762.658	0.0159535
762.736	0.0158945
762.814	0.0156779
762.892	0.0155520
762.971	0.0155198
763.049	0.0153569
763.127	0.0153052
763.205	0.0151591
763.283	0.0151264
763.361	0.0151234
763.439	0.0151005
763.517	0.0148752
763.596	0.0148855
763.674	0.0149556
763.752	0.0147985
763.830	0.0149734
763.908	0.0149759
763.986	0.0150784
764.064	0.0151945
764.142	0.0150323
764.221	0.0152518
764.299	0.0153585
764.377	0.0153929
764.455	0.0154738
764.533	0.0156599
764.611	0.0156512
764.689	0.0157780
764.767	0.0157970
764.846	0.0158590
764.924	0.0160571
765.002	0.0161552
765.080	0.0162069
765.158	0.0163190
765.236	0.0162897
765.314	0.0163754
765.392	0.0164203
765.471	0.0163713
765.549	0.0164619
765.627	0.0165182
765.705	0.0166003
765.783	0.0165242
765.861	0.0165496
765.939	0.0165353
766.017	0.0165549
766.096	0.0164712
766.174	0.0163608
766.252	0.0163461
766.330	0.0163226
766.408	0.0163315
766.486	0.0163572
766.564	0.0163212
766.642	0.0162067
766.721	0.0160313
766.799	0.0161217
766.877	0.0159158
766.955	0.0160921
767.033	0.0160516
767.111	0.0157411
767.189	0.0157384
767.267	0.0158659
767.346	0.0157573
767.424	0.0156391
767.502	0.0155006
767.580	0.0155031
767.658	0.0154373
767.736	0.0153062
767.814	0.0152779
767.892	0.0154474
767.971	0.0154051
768.049	0.0153802
768.127	0.0153514
768.205	0.0152811
768.283	0.0154865
768.361	0.0154407
768.439	0.0154901
768.517	0.0154631
768.596	0.0156366
768.674	0.0156647
768.752	0.0157056
768.830	0.0156984
768.908	0.0158170
768.986	0.0158530
769.064	0.0158297
769.142	0.0157840
769.221	0.0159677
769.299	0.0159589
769.377	0.0158944
769.455	0.0159313
769.533	0.0161584
769.611	0.0160193
769.689	0.0160442
769.767	0.0160153
769.846	0.0160193
769.924	0.0160114
770.002	0.0161606
770.080	0.0160413
770.158	0.0161629
770.236	0.0161267
770.314	0.0161536
770.392	0.0160887
770.471	0.0161927
770.549	0.0160653
770.627	0.0161560
770.705	0.0161150
770.783	0.0160214
770.861	0.0160406
770.939	0.0160016
771.017	0.0159330
771.096	0.0157585
771.174	0.0158884
771.252	0.0156676
771.330	0.0157938
771.408	0.0158500
771.486	0.0155962
771.564	0.0158395
771.642	0.0157824
771.721	0.0157655
771.799	0.0156456
771.877	0.0157930
771.955	0.0157228
772.033	0.0158742
772.111	0.0158067
772.189	0.0159105
772.267	0.0158647
772.346	0.0159264
772.424	0.0158643
772.502	0.0159132
772.580	0.0159609
772.658	0.0160603
772.736	0.0161343
772.814	0.0159625
772.892	0.0158154
772.971	0.0158364
773.049	0.0157871
773.127	0.0156747
773.205	0.0155442
773.283	0.0156212
773.361	0.0156499
773.439	0.0156474
773.517	0.0156145
773.596	0.0155392
773.674	0.0155081
773.752	0.0155807
773.830	0.0154577
773.908	0.0154936
773.986	0.0155700
774.064	0.0156729
774.142	0.0155345
774.221	0.0155326
774.299	0.0155873
774.377	0.0155097
774.455	0.0154343
774.533	0.0154988
774.611	0.0155173
774.689	0.0154071
774.767	0.0153632
774.846	0.0156087
774.924	0.0154336
775.002	0.0154540
775.080	0.0154282
775.158	0.0155768
775.236	0.0155040
775.314	0.0155243
775.392	0.0155909
775.471	0.0155797
775.549	0.0154703
775.627	0.0155441
775.705	0.0156635
775.783	0.0156670
775.861	0.0156493
775.939	0.0155611
776.017	0.0157493
776.096	0.0156555
776.174	0.0157671
776.252	0.0157656
776.330	0.0156655
776.408	0.0156957
776.486	0.0156332
776.564	0.0157391
776.642	0.0158623
776.721	0.0156499
776.799	0.0155487
776.877	0.0154884
776.955	0.0155568
777.033	0.0154776
777.111	0.0155254
777.189	0.0156050
777.267	0.0154515
777.346	0.0155166
777.424	0.0155517
777.502	0.0154818
777.580	0.0155972
777.658	0.0155671
777.736	0.0155204
777.814	0.0154834
777.892	0.0154687
777.971	0.0154494
778.049	0.0155945
778.127	0.0154678
778.205	0.0155433
778.283	0.0154045
778.361	0.0155561
778.439	0.0155969
778.517	0.0155733
778.596	0.0155478
778.674	0.0155937
778.752	0.0154978
778.830	0.0154864
778.908	0.0155163
778.986	0.0155819
779.064	0.0155081
779.142	0.0155962
779.221	0.0156451
779.299	0.0156664
779.377	0.0154018
779.455	0.0154878
779.533	0.0155169
779.611	0.0155151
779.689	0.0156075
779.767	0.0155701
779.846	0.0155658
779.924	0.0156540
780.002	0.0156541
780.080	0.0156912
780.158	0.0155592
780.236	0.0157256
780.314	0.0157513
780.392	0.0159209
780.471	0.0158703
780.549	0.0157420
780.627	0.0159691
780.705	0.0158163
780.783	0.0159173
780.861	0.0157442
780.939	0.0158582
781.017	0.0158131
781.096	0.0159311
781.174	0.0158826
781.252	0.0160412
781.330	0.0161383
781.408	0.0160862
781.486	0.0163377
781.564	0.0163667
781.642	0.0163741
781.721	0.0164219
781.799	0.0165777
781.877	0.0165723
781.955	0.0166207
782.033	0.0165222
782.111	0.0164414
782.189	0.0165753
782.267	0.0166965
782.346	0.0165902
782.424	0.0166193
782.502	0.0165373
782.580	0.0163364
782.658	0.0165052
782.736	0.0163233
782.814	0.0164182
782.892	0.0163243
782.971	0.0163130
783.049	0.0162644
783.127	0.0164630
783.205	0.0163882
783.283	0.0162962
783.361	0.0163508
783.439	0.0163459
783.517	0.0163681
783.596	0.0162014
783.674	0.0161643
783.752	0.0159921
783.830	0.0161306
783.908	0.0158595
783.986	0.0157205
784.064	0.0159035
784.142	0.0155743
784.221	0.0153239
784.299	0.0154996
784.377	0.0152763
784.455	0.0152416
784.533	0.0152176
784.611	0.0153599
784.689	0.0153278
784.767	0.0153744
784.846	0.0154845
784.924	0.0154154
785.002	0.0155487
785.080	0.0156710
785.158	0.0156702
785.236	0.0156023
785.314	0.0157452
785.392	0.0157518
785.471	0.0160027
785.549	0.0160011
785.627	0.0160032
785.705	0.0160396
785.783	0.0162403
785.861	0.0163197
785.939	0.0162265
786.017	0.0162534
786.096	0.0162421
786.174	0.0163702
786.252	0.0162834
786.330	0.0162678
786.408	0.0162072
786.486	0.0163181
786.564	0.0163245
786.642	0.0163201
786.721	0.0163004
786.799	0.0162816
786.877	0.0162015
786.955	0.0162933
787.033	0.0162864
787.111	0.0162435
787.189	0.0162286
787.267	0.0162057
787.346	0.0162835
787.424	0.0160973
787.502	0.0162994
787.580	0.0161909
787.658	0.0160723
787.736	0.0161363
787.814	0.0160748
787.892	0.0159043
787.971	0.0159109
788.049	0.0159221
788.127	0.0157945
788.205	0.0157261
788.283	0.0156553
788.361	0.0157034
788.439	0.0156458
788.517	0.0156386
788.596	0.0155027
788.674	0.0153571
788.752	0.0153912
788.830	0.0155814
788.908	0.0154616
788.986	0.0153950
789.064	0.0154608
789.142	0.0155112
789.221	0.0154397
789.299	0.0153913
789.377	0.0153284
789.455	0.0155417
789.533	0.0154948
789.611	0.0154054
789.689	0.0153733
789.767	0.0155218
789.846	0.0155315
789.924	0.0155987
790.002	0.0155927
790.080	0.0155688
790.158	0.0155208
790.236	0.0152666
790.314	0.0154809
790.392	0.0155588
790.471	0.0155563
790.549	0.0154923
790.627	0.0154959
790.705	0.0155328
790.783	0.0154019
790.861	0.0154681
790.939	0.0155074
791.017	0.0154017
791.096	0.0155157
791.174	0.0153721
791.252	0.0154562
791.330	0.0152719
791.408	0.0153056
791.486	0.0153758
791.564	0.0152451
791.642	0.0152547
791.721	0.0152745
791.799	0.0151702
791.877	0.0151910
791.955	0.0150651
792.033	0.0150002
792.111	0.0151744
792.189	0.0150714
792.267	0.0149992
792.346	0.0149364
792.424	0.0150561
792.502	0.0150612
792.580	0.0149715
792.658	0.0149473
792.736	0.0149213
792.814	0.0149886
792.892	0.0150915
792.971	0.0150701
793.049	0.0150846
793.127	0.0152096
793.205	0.0151590
793.283	0.0153062
793.361	0.0152876
793.439	0.0153226
793.517	0.0153841
793.596	0.0154189
793.674	0.0154440
793.752	0.0155818
793.830	0.0157005
793.908	0.0155883
793.986	0.0154730
794.064	0.0156991
794.142	0.0156641
794.221	0.0157798
794.299	0.0157803
794.377	0.0156594
794.455	0.0157236
794.533	0.0159068
794.611	0.0159572
794.689	0.0156999
794.767	0.0157446
794.846	0.0157377
794.924	0.0158401
795.002	0.0160045
795.080	0.0159138
795.158	0.0159327
795.236	0.0159428
795.314	0.0160481
795.392	0.0160593
795.471	0.0160020
795.549	0.0161224
795.627	0.0161931
795.705	0.0161877
795.783	0.0161851
795.861	0.0163455
795.939	0.0165042
796.017	0.0164502
796.096	0.0165128
796.174	0.0164313
796.252	0.0164537
796.330	0.0163691
796.408	0.0163360
796.486	0.0166026
796.564	0.0165039
796.642	0.0164963
796.721	0.0164529
796.799	0.0165037
796.877	0.0166046
796.955	0.0167037
797.033	0.0165635
797.111	0.0164159
797.189	0.0164462
797.267	0.0164085
797.346	0.0163770
797.424	0.0162167
797.502	0.0161917
797.580	0.0161641
797.658	0.0161246
797.736	0.0162645
797.814	0.0163751
797.892	0.0160114
797.971	0.0161603
798.049	0.0160880
798.127	0.0160330
798.205	0.0161584
798.283	0.0161928
798.361	0.0160593
798.439	0.0159747
798.517	0.0159116
798.596	0.0157742
798.674	0.0158122
798.752	0.0157619
798.830	0.0156027
798.908	0.0156557
798.986	0.0156333
799.064	0.0157392
799.142	0.0155334
799.221	0.0156316
799.299	0.0156293
799.377	0.0155612
799.455	0.0156586
799.533	0.0155591
799.611	0.0156522
799.689	0.0155677
799.767	0.0156262
799.846	0.0156380
799.924	0.0155467
800.002	0.0156709
800.080	0.0155972
800.158	0.0156472
800.236	0.0156668
800.314	0.0156389
800.392	0.0156837
800.471	0.0157348
800.549	0.0157973
800.627	0.0156687
800.705	0.0157236
800.783	0.0157691
800.861	0.0157948
800.939	0.0158368
801.017	0.0158482
801.096	0.0157779
801.174	0.0157670
801.252	0.0158707
801.330	0.0158497
801.408	0.0159604
801.486	0.0159263
801.564	0.0159438
801.642	0.0159631
801.721	0.0160312
801.799	0.0160843
801.877	0.0161758
801.955	0.0162510
802.033	0.0161099
802.111	0.0162092
802.189	0.0163976
802.267	0.0163528
802.346	0.0162569
802.424	0.0163745
802.502	0.0162255
802.580	0.0162994
802.658	0.0162345
802.736	0.0162727
802.814	0.0162686
802.892	0.0161870
802.971	0.0161533
803.049	0.0161095
803.127	0.0161021
803.205	0.0161230
803.283	0.0161353
803.361	0.0160873
803.439	0.0160548
803.517	0.0161734
803.596	0.0160175
803.674	0.0159404
803.752	0.0161760
803.830	0.0159579
803.908	0.0162240
803.986	0.0160259
804.064	0.0159678
804.142	0.0162020
804.221	0.0159898
804.299	0.0159428
804.377	0.0160273
804.455	0.0160491
804.533	0.0158851
804.611	0.0157590
804.689	0.0157825
804.767	0.0158648
804.846	0.0158495
804.924	0.0156430
805.002	0.0156369
805.080	0.0157084
805.158	0.0155313
805.236	0.0155666
805.314	0.0155479
805.392	0.0155128
805.471	0.0155447
805.549	0.0156354
805.627	0.0155867
805.705	0.0155484
805.783	0.0156130
805.861	0.0156198
805.939	0.0155504
806.017	0.0156084
806.096	0.0155595
806.174	0.0156001
806.252	0.0157333
806.330	0.0156897
806.408	0.0156346
806.486	0.0155217
806.564	0.0155269
806.642	0.0156382
806.721	0.0155170
806.799	0.0156010
806.877	0.0155690
806.955	0.0153797
807.033	0.0154243
807.111	0.0154189
807.189	0.0153571
807.267	0.0152043
807.346	0.0153545
807.424	0.0153142
807.502	0.0152418
807.580	0.0150286
807.658	0.0150745
807.736	0.0151570
807.814	0.0151730
807.892	0.0151917
807.971	0.0153154
808.049	0.0154377
808.127	0.0153667
808.205	0.0154585
808.283	0.0155817
808.361	0.0156693
808.439	0.0156968
808.517	0.0157829
808.596	0.0159557
808.674	0.0159962
808.752	0.0159702
808.830	0.0159698
808.908	0.0161580
808.986	0.0162172
809.064	0.0162521
809.142	0.0163007
809.221	0.0162949
809.299	0.0163097
809.377	0.0163489
809.455	0.0164305
809.533	0.0163545
809.611	0.0163377
809.689	0.0163733
809.767	0.0162772
809.846	0.0164315
809.924	0.0163472
810.002	0.0164548
810.080	0.0165170
810.158	0.0163788
810.236	0.0162331
810.314	0.0162701
810.392	0.0162440
810.471	0.0161909
810.549	0.0162085
810.627	0.0161198
810.705	0.0160889
810.783	0.0160966
810.861	0.0161108
810.939	0.0160298
811.017	0.0160316
811.096	0.0158755
811.174	0.0159306
811.252	0.0158714
811.330	0.0157006
811.408	0.0157921
811.486	0.0156603
811.564	0.0154803
811.642	0.0154528
811.721	0.0154547
811.799	0.0155579
811.877	0.0156007
811.955	0.0154805
812.033	0.0155497
812.111	0.0155945
812.189	0.0156316
812.267	0.0156124
812.346	0.0156439
812.424	0.0156271
812.502	0.0156464
812.580	0.0157291
812.658	0.0157262
812.736	0.0158325
812.814	0.0158365
812.892	0.0157597
812.971	0.0158865
813.049	0.0158813
813.127	0.0158779
813.205	0.0158974
813.283	0.0158781
813.361	0.0158546
813.439	0.0159417
813.517	0.0158904
813.596	0.0160285
813.674	0.0159190
813.752	0.0159106
813.830	0.0157839
813.908	0.0157922
813.986	0.0156927
814.064	0.0158378
814.142	0.0159116
814.221	0.0158172
814.299	0.0158900
814.377	0.0156524
814.455	0.0159263
814.533	0.0158520
814.611	0.0158480
814.689	0.0157293
814.767	0.0156548
814.846	0.0157267
814.924	0.0156891
815.002	0.0156760
815.080	0.0156861
815.158	0.0155407
815.236	0.0155197
815.314	0.0155177
815.392	0.0154092
815.471	0.0154674
815.549	0.0153952
815.627	0.0152831
815.705	0.0153989
815.783	0.0154000
815.861	0.0152320
815.939	0.0152510
816.017	0.0152296
816.096	0.0152737
816.174	0.0152161
816.252	0.0152258
816.330	0.0153260
816.408	0.0152004
816.486	0.0152667
816.564	0.0152654
816.642	0.0152804
816.721	0.0153017
816.799	0.0154713
816.877	0.0153114
816.955	0.0155527
817.033	0.0154173
817.111	0.0155309
817.189	0.0155258
817.267	0.0156342
817.346	0.0155877
817.424	0.0156895
817.502	0.0156584
817.580	0.0157886
817.658	0.0157880
817.736	0.0158263
817.814	0.0158160
817.892	0.0159695
817.971	0.0157285
818.049	0.0158003
818.127	0.0159044
818.205	0.0159201
818.283	0.0158455
818.361	0.0158782
818.439	0.0160716
818.517	0.0159875
818.596	0.0159434
818.674	0.0159115
818.752	0.0160606
818.830	0.0159957
818.908	0.0159565
818.986	0.0158831
819.064	0.0158721
819.142	0.0159827
819.221	0.0159615
819.299	0.0159313
819.377	0.0159069
819.455	0.0159521
819.533	0.0159521
819.611	0.0158963
819.689	0.0159547
819.767	0.0160643
819.846	0.0160893
819.924	0.0161252
820.002	0.0160458
820.080	0.0160383
820.158	0.0160739
820.236	0.0159032
820.314	0.0161520
820.392	0.0161075
820.471	0.0159556
820.549	0.0159904
820.627	0.0161259
820.705	0.0161268
820.783	0.0161454
820.861	0.0160991
820.939	0.0161000
821.017	0.0160576
821.096	0.0160789
821.174	0.0160551
821.252	0.0161046
821.330	0.0161298
821.408	0.0160835
821.486	0.0161598
821.564	0.0160682
821.642	0.0161792
821.721	0.0162138
821.799	0.0160571
821.877	0.0161561
821.955	0.0160107
822.033	0.0160693
822.111	0.0160527
822.189	0.0161755
822.267	0.0161652
822.346	0.0161783
822.424	0.0161531
822.502	0.0161810
822.580	0.0161828
822.658	0.0162775
822.736	0.0162429
822.814	0.0161904
822.892	0.0163177
822.971	0.0163238
823.049	0.0162121
823.127	0.0163074
823.205	0.0164468
823.283	0.0164343
823.361	0.0163829
823.439	0.0163134
823.517	0.0164532
823.596	0.0164248
823.674	0.0162795
823.752	0.0162753
823.830	0.0161691
823.908	0.0162210
823.986	0.0162366
824.064	0.0160867
824.142	0.0161364
824.221	0.0160780
824.299	0.0161147
824.377	0.0161038
824.455	0.0160953
824.533	0.0159926
824.611	0.0159957
824.689	0.0160358
824.767	0.0158586
824.846	0.0158207
824.924	0.0158231
825.002	0.0158133
825.080	0.0158942
825.158	0.0157932
825.236	0.0159235
825.314	0.0159402
825.392	0.0157699
825.471	0.0158482
825.549	0.0160025
825.627	0.0159157
825.705	0.0159309
825.783	0.0159505
825.861	0.0159179
825.939	0.0158028
826.017	0.0158758
826.096	0.0159151
826.174	0.0159166
826.252	0.0158981
826.330	0.0158677
826.408	0.0159410
826.486	0.0158128
826.564	0.0158292
826.642	0.0158713
826.721	0.0157922
826.799	0.0158500
826.877	0.0157920
826.955	0.0158073
827.033	0.0157983
827.111	0.0157907
827.189	0.0158389
827.267	0.0158517
827.346	0.0158430
827.424	0.0158589
827.502	0.0158909
827.580	0.0158987
827.658	0.0157285
827.736	0.0158352
827.814	0.0158046
827.892	0.0158073
827.971	0.0159038
828.049	0.0160431
828.127	0.0160083
828.205	0.0159836
828.283	0.0158678
828.361	0.0159760
828.439	0.0159935
828.517	0.0159991
828.596	0.0160219
828.674	0.0158009
828.752	0.0158337
828.830	0.0158555
828.908	0.0158364
828.986	0.0158891
829.064	0.0158098
829.142	0.0156189
829.221	0.0156367
829.299	0.0156573
829.377	0.0158520
829.455	0.0156343
829.533	0.0156208
829.611	0.0156670
829.689	0.0156945
829.767	0.0156969
829.846	0.0156106
829.924	0.0156207
830.002	0.0154758
830.080	0.0156767
830.158	0.0156071
830.236	0.0156396
830.314	0.0156338
830.392	0.0154314
830.471	0.0155863
830.549	0.0154342
830.627	0.0154857
830.705	0.0155173
830.783	0.0155231
830.861	0.0155097
830.939	0.0155092
831.017	0.0154523
831.096	0.0155103
831.174	0.0154826
831.252	0.0155647
831.330	0.0155189
831.408	0.0155546
831.486	0.0154379
831.564	0.0154175
831.642	0.0153628
831.721	0.0155251
831.799	0.0155178
831.877	0.0153941
831.955	0.0154224
832.033	0.0153947
832.111	0.0153066
832.189	0.0155079
832.267	0.0153651
832.346	0.0152290
832.424	0.0152879
832.502	0.0154258
832.580	0.0154019
832.658	0.0153051
832.736	0.0153162
832.814	0.0155597
832.892	0.0155402
832.971	0.0154827
833.049	0.0157023
833.127	0.0156074
833.205	0.0156757
833.283	0.0155729
833.361	0.0156304
833.439	0.0157331
833.517	0.0158486
833.596	0.0157571
833.674	0.0159839
833.752	0.0159104
833.830	0.0160336
833.908	0.0159435
833.986	0.0161108
834.064	0.0161678
834.142	0.0161400
834.221	0.0162239
834.299	0.0162888
834.377	0.0164487
834.455	0.0165361
834.533	0.0164608
834.611	0.0164128
834.689	0.0165412
834.767	0.0165070
834.846	0.0164371
834.924	0.0164587
835.002	0.0163426
835.080	0.0163466
835.158	0.0164541
835.236	0.0161893
835.314	0.0163335
835.392	0.0164536
835.471	0.0163654
835.549	0.0162408
835.627	0.0163299
835.705	0.0161985
835.783	0.0161396
835.861	0.0162447
835.939	0.0162518
836.017	0.0160725
836.096	0.0161723
836.174	0.0161121
836.252	0.0160944
836.330	0.0160599
836.408	0.0160769
836.486	0.0159395
836.564	0.0159124
836.642	0.0159711
836.721	0.0159724
836.799	0.0159327
836.877	0.0159351
836.955	0.0158453
837.033	0.0159149
837.111	0.0158334
837.189	0.0159326
837.267	0.0158768
837.346	0.0159335
837.424	0.0158562
837.502	0.0158858
837.580	0.0159760
837.658	0.0160232
837.736	0.0158306
837.814	0.0159244
837.892	0.0160570
837.971	0.0160423
838.049	0.0158700
838.127	0.0158615
838.205	0.0159773
838.283	0.0158956
838.361	0.0159878
838.439	0.0159745
838.517	0.0159396
838.596	0.0159448
838.674	0.0159406
838.752	0.0159130
838.830	0.0158005
838.908	0.0158701
838.986	0.0158847
839.064	0.0159313
839.142	0.0158037
839.221	0.0157243
839.299	0.0157679
839.377	0.0159820
839.455	0.0157574
839.533	0.0156606
839.611	0.0155698
839.689	0.0156644
839.767	0.0156339
839.846	0.0155952
839.924	0.0156687
840.002	0.0157436
840.080	0.0154338
840.158	0.0156272
840.236	0.0156448
840.314	0.0155551
840.392	0.0156538
840.471	0.0157684
840.549	0.0157317
840.627	0.0156949
840.705	0.0157407
840.783	0.0158475
840.861	0.0157970
840.939	0.0159355
841.017	0.0158651
841.096	0.0158929
841.174	0.0158905
841.252	0.0158093
841.330	0.0157510
841.408	0.0156287
841.486	0.0157455
841.564	0.0156028
841.642	0.0156321
841.721	0.0156911
841.799	0.0155446
841.877	0.0155775
841.955	0.0154844
842.033	0.0154698
842.111	0.0155727
842.189	0.0154357
842.267	0.0156668
842.346	0.0156505
842.424	0.0155077
842.502	0.0155502
842.580	0.0155653
842.658	0.0155820
842.736	0.0156505
842.814	0.0156845
842.892	0.0156960
842.971	0.0157121
843.049	0.0158762
843.127	0.0157240
843.205	0.0157100
843.283	0.0158633
843.361	0.0158468
843.439	0.0158109
843.517	0.0158349
843.596	0.0157712
843.674	0.0159018
843.752	0.0159869
843.830	0.0159432
843.908	0.0159217
843.986	0.0159479
844.064	0.0159525
844.142	0.0159475
844.221	0.0159359
844.299	0.0159951
844.377	0.0160511
844.455	0.0160056
844.533	0.0161732
844.611	0.0160551
844.689	0.0160484
844.767	0.0161391
844.846	0.0160770
844.924	0.0160889
845.002	0.0160393
845.080	0.0160995
845.158	0.0159984
845.236	0.0160970
845.314	0.0159585
845.392	0.0159699
845.471	0.0159206
845.549	0.0161092
845.627	0.0160593
845.705	0.0161120
845.783	0.0160539
845.861	0.0160977
845.939	0.0161357
846.017	0.0160580
846.096	0.0161044
846.174	0.0161452
846.252	0.0161527
846.330	0.0163344
846.408	0.0161102
846.486	0.0161215
846.564	0.0161027
846.642	0.0161716
846.721	0.0161844
846.799	0.0162578
846.877	0.0161930
846.955	0.0160913
847.033	0.0161649
847.111	0.0161446
847.189	0.0161204
847.267	0.0162057
847.346	0.0162556
847.424	0.0161561
847.502	0.0163483
847.580	0.0161839
847.658	0.0161658
847.736	0.0161047
847.814	0.0161951
847.892	0.0160909
847.971	0.0162954
848.049	0.0163856
848.127	0.0162176
848.205	0.0163712
848.283	0.0163022
848.361	0.0163031
848.439	0.0162081
848.517	0.0161938
848.596	0.0163292
848.674	0.0163944
848.752	0.0162314
848.830	0.0161447
848.908	0.0161219
848.986	0.0160813
849.064	0.0160197
849.142	0.0161323
849.221	0.0160944
849.299	0.0160816
849.377	0.0162139
849.455	0.0160067
849.533	0.0159281
849.611	0.0160072
849.689	0.0160104
849.767	0.0159043
849.846	0.0159608
849.924	0.0157444
850.002	0.0159135
850.080	0.0159279
850.158	0.0157980
850.236	0.0157269
850.314	0.0157061
850.392	0.0158355
850.471	0.0158176
850.549	0.0157806
850.627	0.0157792
850.705	0.0158116
850.783	0.0156502
850.861	0.0156479
850.939	0.0157986
851.017	0.0156271
851.096	0.0157386
851.174	0.0157894
851.252	0.0155207
851.330	0.0157334
851.408	0.0157285
851.486	0.0157835
851.564	0.0157898
851.642	0.0156313
851.721	0.0156114
851.799	0.0156133
851.877	0.0156284
851.955	0.0156142
852.033	0.0156293
852.111	0.0156799
852.189	0.0158551
852.267	0.0158480
852.346	0.0158218
852.424	0.0158133
852.502	0.0158045
852.580	0.0159087
852.658	0.0157623
852.736	0.0158943
852.814	0.0158839
852.892	0.0158487
852.971	0.0159996
853.049	0.0159181
853.127	0.0160264
853.205	0.0160456
853.283	0.0161336
853.361	0.0161707
853.439	0.0162515
853.517	0.0160757
853.596	0.0161960
853.674	0.0163270
853.752	0.0160607
853.830	0.0160122
853.908	0.0160278
853.986	0.0161494
854.064	0.0163005
854.142	0.0161238
854.221	0.0160647
854.299	0.0162008
854.377	0.0163026
854.455	0.0161973
854.533	0.0161493
854.611	0.0161709
854.689	0.0161384
854.767	0.0160396
854.846	0.0162076
854.924	0.0161192
855.002	0.0159931
855.080	0.0159438
855.158	0.0160103
855.236	0.0157642
855.314	0.0158151
855.392	0.0158749
855.471	0.0159191
855.549	0.0156393
855.627	0.0157500
855.705	0.0155608
855.783	0.0155028
855.861	0.0155215
855.939	0.0153620
856.017	0.0153241
856.096	0.0151853
856.174	0.0151636
856.252	0.0151756
856.330	0.0151302
856.408	0.0150504
856.486	0.0150263
856.564	0.0150775
856.642	0.0150224
856.721	0.0151000
856.799	0.0150574
856.877	0.0151079
856.955	0.0150977
857.033	0.0149622
857.111	0.0150892
857.189	0.0150903
857.267	0.0153175
857.346	0.0152579
857.424	0.0151806
857.502	0.0152379
857.580	0.0153535
857.658	0.0154140
857.736	0.0155222
857.814	0.0153793
857.892	0.0155300
857.971	0.0154829
858.049	0.0156040
858.127	0.0154758
858.205	0.0155068
858.283	0.0155209
858.361	0.0155711
858.439	0.0155132
858.517	0.0157232
858.596	0.0157030
858.674	0.0157844
858.752	0.0157014
858.830	0.0156900
858.908	0.0157870
858.986	0.0157565
859.064	0.0159100
859.142	0.0157757
859.221	0.0157811
859.299	0.0160052
859.377	0.0158504
859.455	0.0159076
859.533	0.0158411
859.611	0.0158801
859.689	0.0159561
859.767	0.0159475
859.846	0.0160487
859.924	0.0160747
860.002	0.0159482
860.080	0.0160716
860.158	0.0160345
860.236	0.0159505
860.314	0.0161358
860.392	0.0160618
860.471	0.0161314
860.549	0.0159428
860.627	0.0159721
860.705	0.0162459
860.783	0.0161033
860.861	0.0161662
860.939	0.0161620
861.017	0.0161584
861.096	0.0162361
861.174	0.0162638
861.252	0.0163551
861.330	0.0164423
861.408	0.0164536
861.486	0.0165897
861.564	0.0166506
861.642	0.0166723
861.721	0.0168218
861.799	0.0168817
861.877	0.0169564
861.955	0.0170379
862.033	0.0171948
862.111	0.0172356
862.189	0.0172891
862.267	0.0172626
862.346	0.0171301
862.424	0.0172235
862.502	0.0172967
862.580	0.0173920
862.658	0.0172037
862.736	0.0171664
862.814	0.0171255
862.892	0.0170736
862.971	0.0169109
863.049	0.0167980
863.127	0.0167559
863.205	0.0165554
863.283	0.0164724
863.361	0.0164580
863.439	0.0162540
863.517	0.0160860
863.596	0.0159103
863.674	0.0158640
863.752	0.0157756
863.830	0.0157290
863.908	0.0157725
863.986	0.0155695
864.064	0.0155019
864.142	0.0153778
864.221	0.0154578
864.299	0.0152039
864.377	0.0152398
864.455	0.0154908
864.533	0.0153741
864.611	0.0152076
864.689	0.0151757
864.767	0.0152946
864.846	0.0151802
864.924	0.0152316
865.002	0.0153564
865.080	0.0152339
865.158	0.0153407
865.236	0.0151223
865.314	0.0151949
865.392	0.0152626
865.471	0.0152921
865.549	0.0152998
865.627	0.0152974
865.705	0.0153320
865.783	0.0152661
865.861	0.0153301
865.939	0.0153903
866.017	0.0154418
866.096	0.0154298
866.174	0.0155598
866.252	0.0155033
866.330	0.0154316
866.408	0.0154259
866.486	0.0155697
866.564	0.0156606
866.642	0.0155421
866.721	0.0155398
866.799	0.0156091
866.877	0.0156702
866.955	0.0157162
867.033	0.0157215
867.111	0.0156276
867.189	0.0158376
867.267	0.0157306
867.346	0.0156519
867.424	0.0158121
867.502	0.0157785
867.580	0.0156936
867.658	0.0157123
867.736	0.0157552
867.814	0.0157216
867.892	0.0158434
867.971	0.0156609
868.049	0.0158543
868.127	0.0157061
868.205	0.0158721
868.283	0.0158984
868.361	0.0158936
868.439	0.0158977
868.517	0.0158635
868.596	0.0158288
868.674	0.0158366
868.752	0.0157774
868.830	0.0158663
868.908	0.0159039
868.986	0.0157189
869.064	0.0156474
869.142	0.0157413
869.221	0.0158223
869.299	0.0158160
869.377	0.0157573
869.455	0.0156770
869.533	0.0157273
869.611	0.0158112
869.689	0.0159109
869.767	0.0157996
869.846	0.0158643
869.924	0.0157563
870.002	0.0159209
870.080	0.0159481
870.158	0.0159351
870.236	0.0158967
870.314	0.0159620
870.392	0.0159978
870.471	0.0159671
870.549	0.0159758
870.627	0.0159081
870.705	0.0158826
870.783	0.0159081
870.861	0.0160698
870.939	0.0158969
871.017	0.0159742
871.096	0.0158426
871.174	0.0160236
871.252	0.0158371
871.330	0.0159103
871.408	0.0160176
871.486	0.0159804
871.564	0.0160046
871.642	0.0160220
871.721	0.0158579
871.799	0.0158494
871.877	0.0158633
871.955	0.0159892
872.033	0.0158584
872.111	0.0158651
872.189	0.0157468
872.267	0.0159507
872.346	0.0158143
872.424	0.0157781
872.502	0.0157385
872.580	0.0157959
872.658	0.0157350
872.736	0.0156797
872.814	0.0157598
872.892	0.0158347
872.971	0.0158234
873.049	0.0155957
873.127	0.0156380
873.205	0.0158431
873.283	0.0159007
873.361	0.0160427
873.439	0.0159568
873.517	0.0160474
873.596	0.0160023
873.674	0.0160406
873.752	0.0162209
873.830	0.0161154
873.908	0.0160883
873.986	0.0161992
874.064	0.0163054
874.142	0.0161434
874.221	0.0161543
874.299	0.0161996
874.377	0.0161920
874.455	0.0161625
874.533	0.0160832
874.611	0.0161584
874.689	0.0160873
874.767	0.0160051
874.846	0.0159563
874.924	0.0160040
875.002	0.0158377
875.080	0.0158312
875.158	0.0158602
875.236	0.0158573
875.314	0.0156537
875.392	0.0156216
875.471	0.0157597
875.549	0.0155035
875.627	0.0155934
875.705	0.0157854
875.783	0.0156985
875.861	0.0155785
875.939	0.0156823
876.017	0.0156272
876.096	0.0155989
876.174	0.0155037
876.252	0.0157774
876.330	0.0157285
876.408	0.0156763
876.486	0.0157092
876.564	0.0156785
876.642	0.0158080
876.721	0.0157639
876.799	0.0158280
876.877	0.0159359
876.955	0.0157726
877.033	0.0158530
877.111	0.0158389
877.189	0.0158208
877.267	0.0158238
877.346	0.0158949
877.424	0.0158350
877.502	0.0158941
877.580	0.0159222
877.658	0.0159844
877.736	0.0158795
877.814	0.0158479
877.892	0.0160297
877.971	0.0159805
878.049	0.0160870
878.127	0.0159748
878.205	0.0160536
878.283	0.0160544
878.361	0.0160604
878.439	0.0159917
878.517	0.0162960
878.596	0.0160401
878.674	0.0160626
878.752	0.0160423
878.830	0.0161802
878.908	0.0162115
878.986	0.0161875
879.064	0.0161864
879.142	0.0160067
879.221	0.0160434
879.299	0.0161909
879.377	0.0160320
879.455	0.0159689
879.533	0.0160413
879.611	0.0159496
879.689	0.0159066
879.767	0.0159975
879.846	0.0158974
879.924	0.0159525
880.002	0.0158522
880.080	0.0159358
880.158	0.0159267
880.236	0.0158241
880.314	0.0156828
880.392	0.0156525
880.471	0.0157098
880.549	0.0158205
880.627	0.0158541
880.705	0.0156967
880.783	0.0157393
880.861	0.0159373
880.939	0.0157512
881.017	0.0158319
881.096	0.0157766
881.174	0.0156391
881.252	0.0157594
881.330	0.0157359
881.408	0.0157504
881.486	0.0157308
881.564	0.0157521
881.642	0.0157088
881.721	0.0157169
881.799	0.0156720
881.877	0.0157172
881.955	0.0157776
882.033	0.0156969
882.111	0.0157744
882.189	0.0156094
882.267	0.0157569
882.346	0.0157722
882.424	0.0157701
882.502	0.0157952
882.580	0.0157815
882.658	0.0157363
882.736	0.0158446
882.814	0.0158550
882.892	0.0156733
882.971	0.0159337
883.049	0.0157880
883.127	0.0157931
883.205	0.0158113
883.283	0.0160054
883.361	0.0159663
883.439	0.0157953
883.517	0.0157055
883.596	0.0160046
883.674	0.0159270
883.752	0.0158878
883.830	0.0159428
883.908	0.0160170
883.986	0.0160801
884.064	0.0161419
884.142	0.0161571
884.221	0.0160614
884.299	0.0162136
884.377	0.0161358
884.455	0.0162066
884.533	0.0160959
884.611	0.0161302
884.689	0.0161485
884.767	0.0160879
884.846	0.0161491
884.924	0.0161980
885.002	0.0162639
885.080	0.0160698
885.158	0.0159881
885.236	0.0161987
885.314	0.0161412
885.392	0.0160568
885.471	0.0161552
885.549	0.0161214
885.627	0.0159830
885.705	0.0160286
885.783	0.0160319
885.861	0.0160154
885.939	0.0161400
886.017	0.0160918
886.096	0.0160715
886.174	0.0160484
886.252	0.0161267
886.330	0.0161206
886.408	0.0161967
886.486	0.0160782
886.564	0.0160526
886.642	0.0160037
886.721	0.0162283
886.799	0.0162290
886.877	0.0161286
886.955	0.0162772
887.033	0.0162234
887.111	0.0162845
887.189	0.0162471
887.267	0.0164543
887.346	0.0162107
887.424	0.0163266
887.502	0.0164379
887.580	0.0162804
887.658	0.0162366
887.736	0.0164191
887.814	0.0163508
887.892	0.0162350
887.971	0.0163996
888.049	0.0162333
888.127	0.0161525
888.205	0.0162999
888.283	0.0162986
888.361	0.0163255
888.439	0.0161819
888.517	0.0160271
888.596	0.0159822
888.674	0.0159673
888.752	0.0159710
888.830	0.0158601
888.908	0.0157613
888.986	0.0158131
889.064	0.0157058
889.142	0.0155894
889.221	0.0154546
889.299	0.0154915
889.377	0.0153334
889.455	0.0153613
889.533	0.0153297
889.611	0.0154134
889.689	0.0152753
889.767	0.0153249
889.846	0.0151402
889.924	0.0151667
890.002	0.0152163
890.080	0.0152285
890.158	0.0150775
890.236	0.0150571
890.314	0.0152484
890.392	0.0150314
890.471	0.0151328
890.549	0.0151570
890.627	0.0151107
890.705	0.0153110
890.783	0.0152734
890.861	0.0152754
890.939	0.0153819
891.017	0.0153370
891.096	0.0152776
891.174	0.0152821
891.252	0.0154161
891.330	0.0155042
891.408	0.0154398
891.486	0.0153675
891.564	0.0154768
891.642	0.0155250
891.721	0.0155041
891.799	0.0154729
891.877	0.0155360
891.955	0.0156154
892.033	0.0154594
892.111	0.0154762
892.189	0.0155798
892.267	0.0156483
892.346	0.0155382
892.424	0.0155196
892.502	0.0155891
892.580	0.0156359
892.658	0.0156894
892.736	0.0155457
892.814	0.0155743
892.892	0.0155712
892.971	0.0155673
893.049	0.0155434
893.127	0.0154468
893.205	0.0153954
893.283	0.0153377
893.361	0.0153186
893.439	0.0154040
893.517	0.0154189
893.596	0.0154176
893.674	0.0154598
893.752	0.0154256
893.830	0.0154810
893.908	0.0153973
893.986	0.0155865
894.064	0.0155395
894.142	0.0156750
894.221	0.0155596
894.299	0.0157761
894.377	0.0157610
894.455	0.0155509
894.533	0.0155802
894.611	0.0158327
894.689	0.0158710
894.767	0.0157993
894.846	0.0158101
894.924	0.0158681
895.002	0.0157304
895.080	0.0158353
895.158	0.0158981
895.236	0.0159003
895.314	0.0159312
895.392	0.0159278
895.471	0.0159132
895.549	0.0160255
895.627	0.0160798
895.705	0.0161143
895.783	0.0159683
895.861	0.0160975
895.939	0.0160559
896.017	0.0161803
896.096	0.0161726
896.174	0.0160564
896.252	0.0161756
896.330	0.0160480
896.408	0.0161452
896.486	0.0161965
896.564	0.0161267
896.642	0.0161455
896.721	0.0160279
896.799	0.0160253
896.877	0.0159233
896.955	0.0160065
897.033	0.0159758
897.111	0.0159100
897.189	0.0159254
897.267	0.0158621
897.346	0.0158298
897.424	0.0158458
897.502	0.0157796
897.580	0.0157221
897.658	0.0157867
897.736	0.0157199
897.814	0.0157629
897.892	0.0157854
897.971	0.0158273
898.049	0.0157474
898.127	0.0157649
898.205	0.0157057
898.283	0.0158106
898.361	0.0157773
898.439	0.0158890
898.517	0.0156659
898.596	0.0157438
898.674	0.0157923
898.752	0.0158483
898.830	0.0158350
898.908	0.0158331
898.986	0.0156767
899.064	0.0159310
899.142	0.0156410
899.221	0.0157257
899.299	0.0157646
899.377	0.0158710
899.455	0.0158498
899.533	0.0158405
899.611	0.0158947
899.689	0.0157566
899.767	0.0157854
899.846	0.0156960
899.924	0.0159008
900.002	0.0159161
900.080	0.0157201
900.158	0.0158063
900.236	0.0157372
900.314	0.0157330
900.392	0.0157739
900.471	0.0157930
900.549	0.0157636
900.627	0.0157294
900.705	0.0156760
900.783	0.0159020
900.861	0.0158327
900.939	0.0157780
901.017	0.0156945
901.096	0.0156617
901.174	0.0159402
901.252	0.0157941
901.330	0.0157120
901.408	0.0157706
901.486	0.0159147
901.564	0.0158513
901.642	0.0157802
901.721	0.0157514
901.799	0.0159466
901.877	0.0159147
901.955	0.0159125
902.033	0.0158494
902.111	0.0159173
902.189	0.0158762
902.267	0.0159343
902.346	0.0161180
902.424	0.0160566
902.502	0.0160095
902.580	0.0159921
902.658	0.0161517
902.736	0.0160686
902.814	0.0160987
902.892	0.0161086
902.971	0.0162016
903.049	0.0162411
903.127	0.0162844
903.205	0.0161630
903.283	0.0161394
903.361	0.0161427
903.439	0.0161044
903.517	0.0162804
903.596	0.0162202
903.674	0.0160693
903.752	0.0158964
903.830	0.0159017
903.908	0.0160302
903.986	0.0158970
904.064	0.0159875
904.142	0.0158557
904.221	0.0158326
904.299	0.0156756
904.377	0.0156326
904.455	0.0157665
904.533	0.0156564
904.611	0.0155111
904.689	0.0156657
904.767	0.0155215
904.846	0.0153810
904.924	0.0155170
905.002	0.0154823
905.080	0.0154205
905.158	0.0154732
905.236	0.0154884
905.314	0.0154273
905.392	0.0153673
905.471	0.0154020
905.549	0.0154049
905.627	0.0153989
905.705	0.0156816
905.783	0.0155107
905.861	0.0155261
905.939	0.0156262
906.017	0.0155710
906.096	0.0156354
906.174	0.0155323
906.252	0.0155704
906.330	0.0156673
906.408	0.0156147
906.486	0.0156049
906.564	0.0158177
906.642	0.0157333
906.721	0.0156993
906.799	0.0157373
906.877	0.0157231
906.955	0.0157211
907.033	0.0156175
907.111	0.0156461
907.189	0.0157507
907.267	0.0157733
907.346	0.0156750
907.424	0.0158133
907.502	0.0158066
907.580	0.0157594
907.658	0.0158941
907.736	0.0158159
907.814	0.0159166
907.892	0.0159531
907.971	0.0158199
908.049	0.0157469
908.127	0.0159840
908.205	0.0159566
908.283	0.0158331
908.361	0.0159271
908.439	0.0157724
908.517	0.0158386
908.596	0.0158062
908.674	0.0159107
908.752	0.0157555
908.830	0.0157137
908.908	0.0156483
908.986	0.0158597
909.064	0.0157913
909.142	0.0157985
909.221	0.0157504
909.299	0.0157385
909.377	0.0158958
909.455	0.0157862
909.533	0.0157256
909.611	0.0158324
909.689	0.0159453
909.767	0.0158979
909.846	0.0158825
909.924	0.0158516
910.002	0.0159579
910.080	0.0159926
910.158	0.0159238
910.236	0.0158522
910.314	0.0158465
910.392	0.0159351
910.471	0.0159977
910.549	0.0157835
910.627	0.0157594
910.705	0.0158781
910.783	0.0158842
910.861	0.0158289
910.939	0.0158797
911.017	0.0158819
911.096	0.0158503
911.174	0.0159260
911.252	0.0156718
911.330	0.0158935
911.408	0.0160354
911.486	0.0157879
911.564	0.0158888
911.642	0.0157673
911.721	0.0159193
911.799	0.0158453
911.877	0.0158260
911.955	0.0158432
912.033	0.0158126
912.111	0.0157557
912.189	0.0157109
912.267	0.0156988
912.346	0.0156154
912.424	0.0156295
912.502	0.0157109
912.580	0.0157422
912.658	0.0157458
912.736	0.0157211
912.814	0.0156225
912.892	0.0156885
912.971	0.0156640
913.049	0.0156956
913.127	0.0158953
913.205	0.0159332
913.283	0.0158342
913.361	0.0158867
913.439	0.0160134
913.517	0.0158984
913.596	0.0160179
913.674	0.0160123
913.752	0.0159737
913.830	0.0161233
913.908	0.0161120
913.986	0.0162345
914.064	0.0161842
914.142	0.0161232
914.221	0.0161445
914.299	0.0162938
914.377	0.0164106
914.455	0.0162847
914.533	0.0164034
914.611	0.0164501
914.689	0.0164833
914.767	0.0164680
914.846	0.0164736
914.924	0.0165992
915.002	0.0165704
915.080	0.0166798
915.158	0.0164749
915.236	0.0165559
915.314	0.0165982
915.392	0.0167060
915.471	0.0164525
915.549	0.0164881
915.627	0.0166223
915.705	0.0163714
915.783	0.0164448
915.861	0.0163949
915.939	0.0164295
916.017	0.0163349
916.096	0.0163152
916.174	0.0162003
916.252	0.0161208
916.330	0.0162021
916.408	0.0161800
916.486	0.0159113
916.564	0.0160034
916.642	0.0160154
916.721	0.0160282
916.799	0.0161079
916.877	0.0160156
916.955	0.0160851
917.033	0.0159229
917.111	0.0158858
917.189	0.0158093
917.267	0.0158671
917.346	0.0158584
917.424	0.0159380
917.502	0.0159927
917.580	0.0158521
917.658	0.0159347
917.736	0.0157690
917.814	0.0158228
917.892	0.0157294
917.971	0.0158193
918.049	0.0158411
918.127	0.0157318
918.205	0.0156538
918.283	0.0157055
918.361	0.0156713
918.439	0.0155391
918.517	0.0156884
918.596	0.0155219
918.674	0.0155746
918.752	0.0157030
918.830	0.0155850
918.908	0.0156584
918.986	0.0156032
919.064	0.0157485
919.142	0.0157843
919.221	0.0156800
919.299	0.0157019
919.377	0.0156906
919.455	0.0158467
919.533	0.0157628
919.611	0.0156571
919.689	0.0157014
919.767	0.0155977
919.846	0.0158159
919.924	0.0157610
