06/29/2022	21:46:40	Ver.	4.1	UNKNOWN
Optical Delay	600.001752	Delta X		0.078125	Sweeps	1	Scan Rate	0/0
Coordinates	Axis 1	NaN	Axis 2	NaN	Axis 3	NaN	Axis 4	NaN	Axis 5	NaN	Axis 6	0.000000
TX Power	0.000000	RX Power	0.000000

600.002	0.0159810
600.080	0.0157484
600.158	0.0155121
600.236	0.0155735
600.314	0.0155463
600.392	0.0154710
600.471	0.0155982
600.549	0.0156612
600.627	0.0156571
600.705	0.0157233
600.783	0.0156616
600.861	0.0155898
600.939	0.0156107
601.017	0.0155457
601.096	0.0155978
601.174	0.0156111
601.252	0.0156532
601.330	0.0156944
601.408	0.0158133
601.486	0.0158555
601.564	0.0156821
601.642	0.0156465
601.721	0.0156720
601.799	0.0157487
601.877	0.0155240
601.955	0.0154739
602.033	0.0155642
602.111	0.0157848
602.189	0.0159116
602.267	0.0161057
602.346	0.0160933
602.424	0.0163927
602.502	0.0164796
602.580	0.0164923
602.658	0.0165223
602.736	0.0166955
602.814	0.0165351
602.892	0.0164806
602.971	0.0165773
603.049	0.0168240
603.127	0.0168153
603.205	0.0168141
603.283	0.0169624
603.361	0.0167977
603.439	0.0170599
603.517	0.0171363
603.596	0.0170222
603.674	0.0170766
603.752	0.0170445
603.830	0.0170539
603.908	0.0173276
603.986	0.0175142
604.064	0.0175949
604.142	0.0177606
604.221	0.0179042
604.299	0.0178630
604.377	0.0176208
604.455	0.0172392
604.533	0.0167495
604.611	0.0159926
604.689	0.0151399
604.767	0.0142555
604.846	0.0135345
604.924	0.0127705
605.002	0.0125034
605.080	0.0124640
605.158	0.0127834
605.236	0.0131759
605.314	0.0138316
605.392	0.0144287
605.471	0.0149664
605.549	0.0156063
605.627	0.0160397
605.705	0.0164701
605.783	0.0168764
605.861	0.0169405
605.939	0.0171804
606.017	0.0171942
606.096	0.0170358
606.174	0.0168799
606.252	0.0165862
606.330	0.0165366
606.408	0.0165369
606.486	0.0164465
606.564	0.0163271
606.642	0.0163384
606.721	0.0163612
606.799	0.0163528
606.877	0.0158772
606.955	0.0156547
607.033	0.0155763
607.111	0.0153043
607.189	0.0151708
607.267	0.0153711
607.346	0.0153192
607.424	0.0153532
607.502	0.0155456
607.580	0.0154581
607.658	0.0156952
607.736	0.0156589
607.814	0.0157000
607.892	0.0157526
607.971	0.0157665
608.049	0.0157420
608.127	0.0157584
608.205	0.0159399
608.283	0.0161676
608.361	0.0162576
608.439	0.0164007
608.517	0.0166446
608.596	0.0166080
608.674	0.0166119
608.752	0.0166428
608.830	0.0167668
608.908	0.0167989
608.986	0.0167606
609.064	0.0169814
609.142	0.0171091
609.221	0.0170904
609.299	0.0171969
609.377	0.0172727
609.455	0.0173145
609.533	0.0173749
609.611	0.0174598
609.689	0.0174591
609.767	0.0173642
609.846	0.0176408
609.924	0.0174499
610.002	0.0175093
610.080	0.0175785
610.158	0.0177106
610.236	0.0176524
610.314	0.0177193
610.392	0.0174625
610.471	0.0174239
610.549	0.0172900
610.627	0.0170914
610.705	0.0171051
610.783	0.0169888
610.861	0.0169714
610.939	0.0165209
611.017	0.0166237
611.096	0.0166747
611.174	0.0165588
611.252	0.0165759
611.330	0.0165606
611.408	0.0165215
611.486	0.0164143
611.564	0.0163435
611.642	0.0163679
611.721	0.0162995
611.799	0.0162505
611.877	0.0161591
611.955	0.0162716
612.033	0.0160395
612.111	0.0161166
612.189	0.0161499
612.267	0.0159258
612.346	0.0159049
612.424	0.0158146
612.502	0.0157664
612.580	0.0156245
612.658	0.0155297
612.736	0.0153234
612.814	0.0155595
612.892	0.0154612
612.971	0.0154389
613.049	0.0153696
613.127	0.0154750
613.205	0.0154287
613.283	0.0154559
613.361	0.0153707
613.439	0.0153465
613.517	0.0154091
613.596	0.0152624
613.674	0.0152044
613.752	0.0153580
613.830	0.0154696
613.908	0.0154600
613.986	0.0156105
614.064	0.0154031
614.142	0.0154234
614.221	0.0154646
614.299	0.0154391
614.377	0.0153130
614.455	0.0152298
614.533	0.0151181
614.611	0.0151797
614.689	0.0152422
614.767	0.0150831
614.846	0.0149870
614.924	0.0150861
615.002	0.0150404
615.080	0.0151442
615.158	0.0151459
615.236	0.0152129
615.314	0.0152921
615.392	0.0154267
615.471	0.0155128
615.549	0.0156020
615.627	0.0157996
615.705	0.0158356
615.783	0.0159361
615.861	0.0160252
615.939	0.0160254
616.017	0.0157941
616.096	0.0155544
616.174	0.0150777
616.252	0.0148326
616.330	0.0143143
616.408	0.0140818
616.486	0.0139931
616.564	0.0139172
616.642	0.0142658
616.721	0.0146093
616.799	0.0149738
616.877	0.0152692
616.955	0.0154963
617.033	0.0158327
617.111	0.0160286
617.189	0.0160524
617.267	0.0163069
617.346	0.0162647
617.424	0.0162131
617.502	0.0162556
617.580	0.0164293
617.658	0.0162699
617.736	0.0163599
617.814	0.0165525
617.892	0.0163768
617.971	0.0166087
618.049	0.0163321
618.127	0.0164362
618.205	0.0162801
618.283	0.0162951
618.361	0.0162125
618.439	0.0162103
618.517	0.0162441
618.596	0.0163758
618.674	0.0162698
618.752	0.0163086
618.830	0.0161507
618.908	0.0162401
618.986	0.0161191
619.064	0.0161446
619.142	0.0160999
619.221	0.0159941
619.299	0.0160228
619.377	0.0159941
619.455	0.0160681
619.533	0.0160718
619.611	0.0160198
619.689	0.0161120
619.767	0.0162355
619.846	0.0161271
619.924	0.0161447
620.002	0.0160927
620.080	0.0162119
620.158	0.0161900
620.236	0.0163441
620.314	0.0163745
620.392	0.0164637
620.471	0.0164857
620.549	0.0166665
620.627	0.0168252
620.705	0.0168201
620.783	0.0167628
620.861	0.0170474
620.939	0.0170578
621.017	0.0169994
621.096	0.0170148
621.174	0.0172170
621.252	0.0172200
621.330	0.0170422
621.408	0.0168816
621.486	0.0169187
621.564	0.0168941
621.642	0.0167477
621.721	0.0167615
621.799	0.0166660
621.877	0.0167023
621.955	0.0166888
622.033	0.0168349
622.111	0.0166483
622.189	0.0167872
622.267	0.0168539
622.346	0.0167354
622.424	0.0167598
622.502	0.0167540
622.580	0.0166693
622.658	0.0165771
622.736	0.0164757
622.814	0.0166285
622.892	0.0166312
622.971	0.0164531
623.049	0.0163686
623.127	0.0164464
623.205	0.0165086
623.283	0.0161719
623.361	0.0162003
623.439	0.0162382
623.517	0.0163181
623.596	0.0161508
623.674	0.0160355
623.752	0.0161445
623.830	0.0161738
623.908	0.0161556
623.986	0.0160151
624.064	0.0161547
624.142	0.0162720
624.221	0.0160455
624.299	0.0162216
624.377	0.0161874
624.455	0.0162201
624.533	0.0163272
624.611	0.0162352
624.689	0.0162227
624.767	0.0162179
624.846	0.0163722
624.924	0.0162523
625.002	0.0161853
625.080	0.0163013
625.158	0.0163083
625.236	0.0161753
625.314	0.0162094
625.392	0.0162917
625.471	0.0162474
625.549	0.0163432
625.627	0.0163088
625.705	0.0163305
625.783	0.0162750
625.861	0.0164348
625.939	0.0161103
626.017	0.0159075
626.096	0.0158701
626.174	0.0156896
626.252	0.0154411
626.330	0.0153121
626.408	0.0152750
626.486	0.0149497
626.564	0.0151016
626.642	0.0149918
626.721	0.0149625
626.799	0.0151418
626.877	0.0152818
626.955	0.0154533
627.033	0.0153521
627.111	0.0155537
627.189	0.0157239
627.267	0.0157357
627.346	0.0157787
627.424	0.0158837
627.502	0.0159637
627.580	0.0158865
627.658	0.0160191
627.736	0.0161587
627.814	0.0159644
627.892	0.0158995
627.971	0.0159402
628.049	0.0159346
628.127	0.0157832
628.205	0.0157431
628.283	0.0157021
628.361	0.0156481
628.439	0.0155433
628.517	0.0157078
628.596	0.0157613
628.674	0.0156494
628.752	0.0157134
628.830	0.0156117
628.908	0.0155405
628.986	0.0157121
629.064	0.0157582
629.142	0.0156752
629.221	0.0155826
629.299	0.0157991
629.377	0.0159393
629.455	0.0156352
629.533	0.0157405
629.611	0.0158822
629.689	0.0158992
629.767	0.0160772
629.846	0.0162125
629.924	0.0163706
630.002	0.0164512
630.080	0.0164597
630.158	0.0165844
630.236	0.0165186
630.314	0.0166272
630.392	0.0167109
630.471	0.0166317
630.549	0.0166939
630.627	0.0168265
630.705	0.0169385
630.783	0.0169585
630.861	0.0170353
630.939	0.0171496
631.017	0.0170126
631.096	0.0171923
631.174	0.0172060
631.252	0.0171286
631.330	0.0172800
631.408	0.0173336
631.486	0.0174169
631.564	0.0173624
631.642	0.0173607
631.721	0.0172533
631.799	0.0173016
631.877	0.0173315
631.955	0.0171297
632.033	0.0171242
632.111	0.0170464
632.189	0.0169079
632.267	0.0169109
632.346	0.0169724
632.424	0.0169745
632.502	0.0171146
632.580	0.0172704
632.658	0.0170336
632.736	0.0170978
632.814	0.0170827
632.892	0.0170927
632.971	0.0172677
633.049	0.0172749
633.127	0.0171244
633.205	0.0170158
633.283	0.0172495
633.361	0.0171246
633.439	0.0171420
633.517	0.0171765
633.596	0.0171276
633.674	0.0170454
633.752	0.0169500
633.830	0.0170383
633.908	0.0169078
633.986	0.0167406
634.064	0.0166063
634.142	0.0165491
634.221	0.0165971
634.299	0.0165894
634.377	0.0164752
634.455	0.0164300
634.533	0.0161578
634.611	0.0161909
634.689	0.0161925
634.767	0.0161296
634.846	0.0161079
634.924	0.0161689
635.002	0.0160063
635.080	0.0159918
635.158	0.0159798
635.236	0.0158009
635.314	0.0156176
635.392	0.0155415
635.471	0.0155464
635.549	0.0153122
635.627	0.0152131
635.705	0.0151721
635.783	0.0153178
635.861	0.0152122
635.939	0.0150794
636.017	0.0153259
636.096	0.0153651
636.174	0.0153693
636.252	0.0155122
636.330	0.0154685
636.408	0.0154256
636.486	0.0154694
636.564	0.0154256
636.642	0.0157492
636.721	0.0156449
636.799	0.0156611
636.877	0.0156145
636.955	0.0156771
637.033	0.0154887
637.111	0.0155581
637.189	0.0156171
637.267	0.0155294
637.346	0.0157448
637.424	0.0157556
637.502	0.0157510
637.580	0.0157450
637.658	0.0158601
637.736	0.0159187
637.814	0.0157964
637.892	0.0158446
637.971	0.0160258
638.049	0.0159557
638.127	0.0158870
638.205	0.0160532
638.283	0.0159915
638.361	0.0159004
638.439	0.0160020
638.517	0.0159451
638.596	0.0159667
638.674	0.0161115
638.752	0.0159258
638.830	0.0160165
638.908	0.0160374
638.986	0.0162445
639.064	0.0160340
639.142	0.0160286
639.221	0.0162085
639.299	0.0159641
639.377	0.0159940
639.455	0.0158935
639.533	0.0160021
639.611	0.0158918
639.689	0.0157851
639.767	0.0159000
639.846	0.0158817
639.924	0.0158018
640.002	0.0158591
640.080	0.0158432
640.158	0.0158102
640.236	0.0158102
640.314	0.0159888
640.392	0.0159470
640.471	0.0159370
640.549	0.0159959
640.627	0.0159606
640.705	0.0158845
640.783	0.0160417
640.861	0.0159995
640.939	0.0159209
641.017	0.0159262
641.096	0.0158240
641.174	0.0158758
641.252	0.0157505
641.330	0.0157624
641.408	0.0156441
641.486	0.0156821
641.564	0.0156584
641.642	0.0157424
641.721	0.0157762
641.799	0.0156631
641.877	0.0156572
641.955	0.0157962
642.033	0.0157892
642.111	0.0158202
642.189	0.0158693
642.267	0.0160349
642.346	0.0159558
642.424	0.0160156
642.502	0.0161882
642.580	0.0160765
642.658	0.0160125
642.736	0.0159760
642.814	0.0160284
642.892	0.0159510
642.971	0.0160871
643.049	0.0158852
643.127	0.0158245
643.205	0.0158863
643.283	0.0161031
643.361	0.0159173
643.439	0.0161642
643.517	0.0160328
643.596	0.0161131
643.674	0.0159151
643.752	0.0160553
643.830	0.0161414
643.908	0.0160517
643.986	0.0159969
644.064	0.0159086
644.142	0.0158735
644.221	0.0158382
644.299	0.0157979
644.377	0.0156946
644.455	0.0157752
644.533	0.0156836
644.611	0.0157330
644.689	0.0157265
644.767	0.0158133
644.846	0.0158958
644.924	0.0158060
645.002	0.0158892
645.080	0.0158549
645.158	0.0159009
645.236	0.0159486
645.314	0.0159406
645.392	0.0159509
645.471	0.0159317
645.549	0.0160987
645.627	0.0160095
645.705	0.0159399
645.783	0.0161495
645.861	0.0161701
645.939	0.0160289
646.017	0.0160699
646.096	0.0161500
646.174	0.0161675
646.252	0.0160927
646.330	0.0161862
646.408	0.0162284
646.486	0.0161594
646.564	0.0161909
646.642	0.0163424
646.721	0.0160902
646.799	0.0160888
646.877	0.0161070
646.955	0.0163083
647.033	0.0162566
647.111	0.0162443
647.189	0.0160905
647.267	0.0161651
647.346	0.0163542
647.424	0.0163628
647.502	0.0162555
647.580	0.0161975
647.658	0.0162627
647.736	0.0162338
647.814	0.0161493
647.892	0.0162605
647.971	0.0161153
648.049	0.0161771
648.127	0.0163369
648.205	0.0163264
648.283	0.0162773
648.361	0.0161542
648.439	0.0162460
648.517	0.0163442
648.596	0.0163082
648.674	0.0163586
648.752	0.0165004
648.830	0.0164436
648.908	0.0163002
648.986	0.0164118
649.064	0.0164198
649.142	0.0164623
649.221	0.0163371
649.299	0.0164075
649.377	0.0163885
649.455	0.0163094
649.533	0.0163661
649.611	0.0162929
649.689	0.0161911
649.767	0.0164352
649.846	0.0164104
649.924	0.0161744
650.002	0.0161208
650.080	0.0162051
650.158	0.0162613
650.236	0.0163632
650.314	0.0161847
650.392	0.0161841
650.471	0.0162547
650.549	0.0162012
650.627	0.0160835
650.705	0.0161630
650.783	0.0161218
650.861	0.0162459
650.939	0.0161131
651.017	0.0162067
651.096	0.0161699
651.174	0.0161461
651.252	0.0162386
651.330	0.0163111
651.408	0.0164210
651.486	0.0162981
651.564	0.0163363
651.642	0.0163200
651.721	0.0163623
651.799	0.0162196
651.877	0.0162325
651.955	0.0161789
652.033	0.0162781
652.111	0.0162584
652.189	0.0163367
652.267	0.0162261
652.346	0.0163164
652.424	0.0163374
652.502	0.0162634
652.580	0.0162436
652.658	0.0162278
652.736	0.0161014
652.814	0.0160999
652.892	0.0161411
652.971	0.0161521
653.049	0.0161641
653.127	0.0161669
653.205	0.0162667
653.283	0.0163435
653.361	0.0161237
653.439	0.0162495
653.517	0.0162839
653.596	0.0164020
653.674	0.0165768
653.752	0.0164606
653.830	0.0164861
653.908	0.0164909
653.986	0.0166232
654.064	0.0166552
654.142	0.0165875
654.221	0.0165218
654.299	0.0164819
654.377	0.0163172
654.455	0.0163050
654.533	0.0162096
654.611	0.0162801
654.689	0.0163098
654.767	0.0163495
654.846	0.0162595
654.924	0.0162649
655.002	0.0162679
655.080	0.0163223
655.158	0.0161717
655.236	0.0163021
655.314	0.0162786
655.392	0.0163396
655.471	0.0163081
655.549	0.0163123
655.627	0.0163606
655.705	0.0161822
655.783	0.0163255
655.861	0.0163742
655.939	0.0163602
656.017	0.0164291
656.096	0.0163771
656.174	0.0163612
656.252	0.0164996
656.330	0.0166063
656.408	0.0165183
656.486	0.0167181
656.564	0.0166994
656.642	0.0167225
656.721	0.0168712
656.799	0.0169128
656.877	0.0168980
656.955	0.0168443
657.033	0.0168633
657.111	0.0168654
657.189	0.0167719
657.267	0.0166656
657.346	0.0166531
657.424	0.0165634
657.502	0.0164841
657.580	0.0166873
657.658	0.0165848
657.736	0.0164964
657.814	0.0166113
657.892	0.0164588
657.971	0.0165250
658.049	0.0165025
658.127	0.0165442
658.205	0.0164890
658.283	0.0165053
658.361	0.0164225
658.439	0.0164940
658.517	0.0165160
658.596	0.0164779
658.674	0.0164624
658.752	0.0163776
658.830	0.0163798
658.908	0.0164007
658.986	0.0163580
659.064	0.0165153
659.142	0.0163349
659.221	0.0164251
659.299	0.0163744
659.377	0.0163645
659.455	0.0163961
659.533	0.0163897
659.611	0.0163463
659.689	0.0162629
659.767	0.0163358
659.846	0.0162370
659.924	0.0163482
660.002	0.0163271
660.080	0.0161908
660.158	0.0163074
660.236	0.0163471
660.314	0.0162359
660.392	0.0160202
660.471	0.0162116
660.549	0.0161232
660.627	0.0160901
660.705	0.0159696
660.783	0.0160033
660.861	0.0159144
660.939	0.0157528
661.017	0.0156815
661.096	0.0157481
661.174	0.0156681
661.252	0.0154929
661.330	0.0153945
661.408	0.0153533
661.486	0.0154823
661.564	0.0153896
661.642	0.0154380
661.721	0.0154585
661.799	0.0155487
661.877	0.0157045
661.955	0.0157464
662.033	0.0157132
662.111	0.0157385
662.189	0.0156256
662.267	0.0156870
662.346	0.0157075
662.424	0.0158058
662.502	0.0157533
662.580	0.0157504
662.658	0.0157436
662.736	0.0157095
662.814	0.0156553
662.892	0.0155791
662.971	0.0156302
663.049	0.0157365
663.127	0.0155943
663.205	0.0157555
663.283	0.0157184
663.361	0.0155632
663.439	0.0157380
663.517	0.0158168
663.596	0.0158009
663.674	0.0157494
663.752	0.0159142
663.830	0.0158319
663.908	0.0157936
663.986	0.0156611
664.064	0.0157446
664.142	0.0157966
664.221	0.0156087
664.299	0.0155849
664.377	0.0156075
664.455	0.0156319
664.533	0.0156383
664.611	0.0155946
664.689	0.0156998
664.767	0.0156390
664.846	0.0157691
664.924	0.0159563
665.002	0.0158012
665.080	0.0158713
665.158	0.0160354
665.236	0.0160214
665.314	0.0161173
665.392	0.0161361
665.471	0.0161879
665.549	0.0161790
665.627	0.0162522
665.705	0.0162728
665.783	0.0163787
665.861	0.0164754
665.939	0.0166650
666.017	0.0166169
666.096	0.0166026
666.174	0.0167835
666.252	0.0167197
666.330	0.0168728
666.408	0.0168047
666.486	0.0168644
666.564	0.0168349
666.642	0.0169717
666.721	0.0169763
666.799	0.0169056
666.877	0.0169525
666.955	0.0169625
667.033	0.0169793
667.111	0.0169260
667.189	0.0170578
667.267	0.0170605
667.346	0.0169913
667.424	0.0171157
667.502	0.0170578
667.580	0.0170257
667.658	0.0170035
667.736	0.0169400
667.814	0.0167706
667.892	0.0168068
667.971	0.0168146
668.049	0.0167636
668.127	0.0166230
668.205	0.0164410
668.283	0.0165835
668.361	0.0167809
668.439	0.0164735
668.517	0.0163869
668.596	0.0163212
668.674	0.0163158
668.752	0.0161755
668.830	0.0162449
668.908	0.0160811
668.986	0.0161485
669.064	0.0161340
669.142	0.0161431
669.221	0.0162685
669.299	0.0160629
669.377	0.0160017
669.455	0.0159977
669.533	0.0161706
669.611	0.0162753
669.689	0.0161089
669.767	0.0161440
669.846	0.0162450
669.924	0.0163780
670.002	0.0163369
670.080	0.0164444
670.158	0.0165193
670.236	0.0164335
670.314	0.0164724
670.392	0.0166228
670.471	0.0165543
670.549	0.0165488
670.627	0.0165609
670.705	0.0165073
670.783	0.0167199
670.861	0.0166077
670.939	0.0164231
671.017	0.0164292
671.096	0.0164658
671.174	0.0164363
671.252	0.0163820
671.330	0.0163582
671.408	0.0163190
671.486	0.0163660
671.564	0.0162151
671.642	0.0161916
671.721	0.0160763
671.799	0.0161441
671.877	0.0160557
671.955	0.0160336
672.033	0.0159454
672.111	0.0159666
672.189	0.0158096
672.267	0.0160301
672.346	0.0159206
672.424	0.0158031
672.502	0.0159109
672.580	0.0159151
672.658	0.0158929
672.736	0.0158028
672.814	0.0158904
672.892	0.0159954
672.971	0.0159406
673.049	0.0158556
673.127	0.0158580
673.205	0.0159649
673.283	0.0158670
673.361	0.0158487
673.439	0.0158463
673.517	0.0157516
673.596	0.0158410
673.674	0.0157777
673.752	0.0156699
673.830	0.0158679
673.908	0.0157655
673.986	0.0157145
674.064	0.0158573
674.142	0.0158443
674.221	0.0158912
674.299	0.0158868
674.377	0.0160287
674.455	0.0158472
674.533	0.0160171
674.611	0.0160119
674.689	0.0160616
674.767	0.0161565
674.846	0.0161259
674.924	0.0160635
675.002	0.0159409
675.080	0.0160599
675.158	0.0162106
675.236	0.0160522
675.314	0.0160108
675.392	0.0161512
675.471	0.0161481
675.549	0.0160503
675.627	0.0162253
675.705	0.0162386
675.783	0.0161649
675.861	0.0161547
675.939	0.0161172
676.017	0.0161018
676.096	0.0161501
676.174	0.0161790
676.252	0.0161420
676.330	0.0161331
676.408	0.0161256
676.486	0.0162484
676.564	0.0162842
676.642	0.0160951
676.721	0.0163083
676.799	0.0162371
676.877	0.0163408
676.955	0.0162586
677.033	0.0163762
677.111	0.0163340
677.189	0.0162476
677.267	0.0161617
677.346	0.0163261
677.424	0.0164198
677.502	0.0164331
677.580	0.0166505
677.658	0.0163751
677.736	0.0164281
677.814	0.0164289
677.892	0.0165365
677.971	0.0165405
678.049	0.0164249
678.127	0.0165607
678.205	0.0166744
678.283	0.0166424
678.361	0.0165285
678.439	0.0165031
678.517	0.0164291
678.596	0.0167268
678.674	0.0165921
678.752	0.0165368
678.830	0.0164802
678.908	0.0164978
678.986	0.0164623
679.064	0.0163178
679.142	0.0164221
679.221	0.0162768
679.299	0.0163617
679.377	0.0161465
679.455	0.0160857
679.533	0.0160258
679.611	0.0159766
679.689	0.0159115
679.767	0.0158327
679.846	0.0156430
679.924	0.0157642
680.002	0.0159178
680.080	0.0158120
680.158	0.0157916
680.236	0.0157056
680.314	0.0155041
680.392	0.0157277
680.471	0.0157347
680.549	0.0155421
680.627	0.0156983
680.705	0.0156966
680.783	0.0155683
680.861	0.0156615
680.939	0.0157401
681.017	0.0159390
681.096	0.0157468
681.174	0.0157242
681.252	0.0156985
681.330	0.0158231
681.408	0.0157958
681.486	0.0156705
681.564	0.0157554
681.642	0.0158296
681.721	0.0159531
681.799	0.0160560
681.877	0.0158793
681.955	0.0159534
682.033	0.0161399
682.111	0.0162128
682.189	0.0161690
682.267	0.0160608
682.346	0.0162495
682.424	0.0161577
682.502	0.0163555
682.580	0.0161389
682.658	0.0163618
682.736	0.0164532
682.814	0.0164996
682.892	0.0165027
682.971	0.0164785
683.049	0.0164869
683.127	0.0166376
683.205	0.0165399
683.283	0.0165130
683.361	0.0164733
683.439	0.0163567
683.517	0.0165122
683.596	0.0163839
683.674	0.0164167
683.752	0.0165031
683.830	0.0164275
683.908	0.0161948
683.986	0.0162057
684.064	0.0162138
684.142	0.0161729
684.221	0.0160957
684.299	0.0164328
684.377	0.0162351
684.455	0.0162227
684.533	0.0162112
684.611	0.0163540
684.689	0.0162914
684.767	0.0164189
684.846	0.0162675
684.924	0.0162110
685.002	0.0162669
685.080	0.0162619
685.158	0.0162205
685.236	0.0161598
685.314	0.0162030
685.392	0.0160513
685.471	0.0160372
685.549	0.0160476
685.627	0.0161287
685.705	0.0159413
685.783	0.0158430
685.861	0.0157562
685.939	0.0156313
686.017	0.0154672
686.096	0.0154590
686.174	0.0154279
686.252	0.0154848
686.330	0.0154621
686.408	0.0154736
686.486	0.0155171
686.564	0.0153413
686.642	0.0155491
686.721	0.0156051
686.799	0.0158152
686.877	0.0156995
686.955	0.0158009
687.033	0.0157122
687.111	0.0157084
687.189	0.0156178
687.267	0.0154668
687.346	0.0155775
687.424	0.0154359
687.502	0.0152788
687.580	0.0151949
687.658	0.0151892
687.736	0.0151878
687.814	0.0151750
687.892	0.0153395
687.971	0.0153539
688.049	0.0154827
688.127	0.0154786
688.205	0.0157122
688.283	0.0156682
688.361	0.0157439
688.439	0.0158445
688.517	0.0160531
688.596	0.0161885
688.674	0.0161848
688.752	0.0163520
688.830	0.0163989
688.908	0.0163531
688.986	0.0165679
689.064	0.0165678
689.142	0.0165222
689.221	0.0166297
689.299	0.0164928
689.377	0.0165078
689.455	0.0165041
689.533	0.0164571
689.611	0.0164667
689.689	0.0163457
689.767	0.0162970
689.846	0.0161136
689.924	0.0162503
690.002	0.0163021
690.080	0.0160228
690.158	0.0160005
690.236	0.0160339
690.314	0.0160315
690.392	0.0160932
690.471	0.0161977
690.549	0.0160409
690.627	0.0160731
690.705	0.0161163
690.783	0.0162354
690.861	0.0163845
690.939	0.0164025
691.017	0.0165254
691.096	0.0163652
691.174	0.0164635
691.252	0.0165871
691.330	0.0165192
691.408	0.0166456
691.486	0.0166818
691.564	0.0164764
691.642	0.0165954
691.721	0.0165944
691.799	0.0166181
691.877	0.0166724
691.955	0.0165514
692.033	0.0165636
692.111	0.0166629
692.189	0.0165408
692.267	0.0165496
692.346	0.0165328
692.424	0.0167635
692.502	0.0167504
692.580	0.0169233
692.658	0.0167271
692.736	0.0166603
692.814	0.0169282
692.892	0.0168000
692.971	0.0168370
693.049	0.0168285
693.127	0.0167328
693.205	0.0168842
693.283	0.0167185
693.361	0.0167743
693.439	0.0167262
693.517	0.0166574
693.596	0.0167438
693.674	0.0167244
693.752	0.0167696
693.830	0.0167876
693.908	0.0167168
693.986	0.0168521
694.064	0.0167559
694.142	0.0166734
694.221	0.0166435
694.299	0.0167416
694.377	0.0167225
694.455	0.0167806
694.533	0.0165804
694.611	0.0165370
694.689	0.0165050
694.767	0.0166527
694.846	0.0164710
694.924	0.0164380
695.002	0.0162905
695.080	0.0163478
695.158	0.0162904
695.236	0.0163770
695.314	0.0163010
695.392	0.0162752
695.471	0.0162604
695.549	0.0162785
695.627	0.0163024
695.705	0.0162328
695.783	0.0162362
695.861	0.0161003
695.939	0.0162685
696.017	0.0163280
696.096	0.0162575
696.174	0.0162221
696.252	0.0161578
696.330	0.0161339
696.408	0.0162363
696.486	0.0161585
696.564	0.0159988
696.642	0.0158902
696.721	0.0159062
696.799	0.0158791
696.877	0.0158562
696.955	0.0156748
697.033	0.0156930
697.111	0.0156482
697.189	0.0156481
697.267	0.0154691
697.346	0.0156196
697.424	0.0153454
697.502	0.0153831
697.580	0.0153401
697.658	0.0152654
697.736	0.0152650
697.814	0.0150690
697.892	0.0151985
697.971	0.0152453
698.049	0.0152598
698.127	0.0152420
698.205	0.0151880
698.283	0.0152961
698.361	0.0153600
698.439	0.0153135
698.517	0.0152456
698.596	0.0152879
698.674	0.0153296
698.752	0.0155222
698.830	0.0154680
698.908	0.0154419
698.986	0.0155675
699.064	0.0156458
699.142	0.0156068
699.221	0.0157127
699.299	0.0158088
699.377	0.0159258
699.455	0.0157644
699.533	0.0158203
699.611	0.0159423
699.689	0.0158341
699.767	0.0159476
699.846	0.0160454
699.924	0.0160793
700.002	0.0160404
700.080	0.0160699
700.158	0.0162630
700.236	0.0160658
700.314	0.0162291
700.392	0.0160778
700.471	0.0160291
700.549	0.0160272
700.627	0.0159865
700.705	0.0159684
700.783	0.0159733
700.861	0.0160852
700.939	0.0161517
701.017	0.0160548
701.096	0.0161080
701.174	0.0161227
701.252	0.0159068
701.330	0.0159789
701.408	0.0159431
701.486	0.0159935
701.564	0.0161197
701.642	0.0160936
701.721	0.0160875
701.799	0.0159732
701.877	0.0161433
701.955	0.0158125
702.033	0.0158859
702.111	0.0159238
702.189	0.0159578
702.267	0.0157615
702.346	0.0158938
702.424	0.0158655
702.502	0.0156704
702.580	0.0158397
702.658	0.0157405
702.736	0.0157438
702.814	0.0157878
702.892	0.0158422
702.971	0.0159084
703.049	0.0159697
703.127	0.0159029
703.205	0.0160459
703.283	0.0161683
703.361	0.0163115
703.439	0.0162464
703.517	0.0163175
703.596	0.0164777
703.674	0.0163882
703.752	0.0163858
703.830	0.0163988
703.908	0.0164397
703.986	0.0163332
704.064	0.0163445
704.142	0.0161981
704.221	0.0162443
704.299	0.0162572
704.377	0.0162095
704.455	0.0161023
704.533	0.0160685
704.611	0.0159663
704.689	0.0160870
704.767	0.0160503
704.846	0.0159828
704.924	0.0159108
705.002	0.0158766
705.080	0.0159225
705.158	0.0157345
705.236	0.0157944
705.314	0.0158583
705.392	0.0159345
705.471	0.0158189
705.549	0.0158118
705.627	0.0158727
705.705	0.0160201
705.783	0.0160584
705.861	0.0159612
705.939	0.0158878
706.017	0.0161667
706.096	0.0159932
706.174	0.0158723
706.252	0.0160511
706.330	0.0158654
706.408	0.0159097
706.486	0.0159098
706.564	0.0159645
706.642	0.0160385
706.721	0.0158659
706.799	0.0160424
706.877	0.0159982
706.955	0.0158833
707.033	0.0160184
707.111	0.0160767
707.189	0.0159379
707.267	0.0162273
707.346	0.0160604
707.424	0.0160960
707.502	0.0161346
707.580	0.0162005
707.658	0.0162666
707.736	0.0161373
707.814	0.0162713
707.892	0.0163399
707.971	0.0162920
708.049	0.0162440
708.127	0.0160741
708.205	0.0162115
708.283	0.0161603
708.361	0.0161683
708.439	0.0161163
708.517	0.0161446
708.596	0.0161047
708.674	0.0159724
708.752	0.0160110
708.830	0.0159007
708.908	0.0160639
708.986	0.0157903
709.064	0.0158642
709.142	0.0158012
709.221	0.0157648
709.299	0.0158109
709.377	0.0157133
709.455	0.0158010
709.533	0.0159648
709.611	0.0158244
709.689	0.0160940
709.767	0.0161120
709.846	0.0159441
709.924	0.0163261
710.002	0.0161217
710.080	0.0162463
710.158	0.0163866
710.236	0.0163298
710.314	0.0165041
710.392	0.0164574
710.471	0.0164621
710.549	0.0164627
710.627	0.0165945
710.705	0.0165055
710.783	0.0166721
710.861	0.0164912
710.939	0.0165341
711.017	0.0163963
711.096	0.0163216
711.174	0.0162337
711.252	0.0163058
711.330	0.0161077
711.408	0.0160165
711.486	0.0159545
711.564	0.0159177
711.642	0.0158315
711.721	0.0156565
711.799	0.0156856
711.877	0.0156841
711.955	0.0154797
712.033	0.0156703
712.111	0.0156261
712.189	0.0157559
712.267	0.0156885
712.346	0.0156458
712.424	0.0157014
712.502	0.0157496
712.580	0.0157746
712.658	0.0157756
712.736	0.0159418
712.814	0.0159200
712.892	0.0160212
712.971	0.0158382
713.049	0.0159596
713.127	0.0161395
713.205	0.0159885
713.283	0.0160267
713.361	0.0160342
713.439	0.0161723
713.517	0.0162291
713.596	0.0162173
713.674	0.0161271
713.752	0.0160432
713.830	0.0162090
713.908	0.0162226
713.986	0.0160074
714.064	0.0162034
714.142	0.0162261
714.221	0.0160056
714.299	0.0160526
714.377	0.0161005
714.455	0.0161125
714.533	0.0161378
714.611	0.0160783
714.689	0.0160832
714.767	0.0160629
714.846	0.0161141
714.924	0.0160269
715.002	0.0161061
715.080	0.0161106
715.158	0.0160834
715.236	0.0160363
715.314	0.0160419
715.392	0.0159609
715.471	0.0160059
715.549	0.0160593
715.627	0.0159552
715.705	0.0159515
715.783	0.0160257
715.861	0.0159689
715.939	0.0159062
716.017	0.0159728
716.096	0.0159285
716.174	0.0159394
716.252	0.0159437
716.330	0.0158595
716.408	0.0159209
716.486	0.0160913
716.564	0.0159951
716.642	0.0160325
716.721	0.0159447
716.799	0.0160565
716.877	0.0159998
716.955	0.0161295
717.033	0.0159693
717.111	0.0162302
717.189	0.0163420
717.267	0.0162475
717.346	0.0164666
717.424	0.0164903
717.502	0.0164856
717.580	0.0163509
717.658	0.0164844
717.736	0.0164571
717.814	0.0164725
717.892	0.0165459
717.971	0.0166813
718.049	0.0166339
718.127	0.0166394
718.205	0.0164977
718.283	0.0166809
718.361	0.0165768
718.439	0.0166242
718.517	0.0167946
718.596	0.0166373
718.674	0.0165696
718.752	0.0166866
718.830	0.0166824
718.908	0.0167892
718.986	0.0167316
719.064	0.0166325
719.142	0.0167268
719.221	0.0168269
719.299	0.0166898
719.377	0.0166076
719.455	0.0166740
719.533	0.0164430
719.611	0.0164114
719.689	0.0164590
719.767	0.0165169
719.846	0.0165139
719.924	0.0163216
720.002	0.0163689
720.080	0.0163010
720.158	0.0163138
720.236	0.0162000
720.314	0.0162164
720.392	0.0162532
720.471	0.0162374
720.549	0.0160134
720.627	0.0160332
720.705	0.0159497
720.783	0.0158555
720.861	0.0158798
720.939	0.0156725
721.017	0.0158189
721.096	0.0158151
721.174	0.0157529
721.252	0.0157909
721.330	0.0157790
721.408	0.0157743
721.486	0.0156706
721.564	0.0156106
721.642	0.0157033
721.721	0.0157485
721.799	0.0156725
721.877	0.0155480
721.955	0.0155531
722.033	0.0155481
722.111	0.0155800
722.189	0.0155943
722.267	0.0156173
722.346	0.0155474
722.424	0.0157898
722.502	0.0157641
722.580	0.0156976
722.658	0.0155503
722.736	0.0155920
722.814	0.0155900
722.892	0.0156590
722.971	0.0156692
723.049	0.0156359
723.127	0.0157263
723.205	0.0157694
723.283	0.0155881
723.361	0.0156387
723.439	0.0155849
723.517	0.0157594
723.596	0.0157583
723.674	0.0159057
723.752	0.0157894
723.830	0.0157843
723.908	0.0159778
723.986	0.0159763
724.064	0.0160316
724.142	0.0160564
724.221	0.0160332
724.299	0.0160266
724.377	0.0161552
724.455	0.0161364
724.533	0.0161120
724.611	0.0161745
724.689	0.0162061
724.767	0.0163596
724.846	0.0161970
724.924	0.0163969
725.002	0.0163498
725.080	0.0162986
725.158	0.0163487
725.236	0.0164812
725.314	0.0164159
725.392	0.0163505
725.471	0.0163505
725.549	0.0162597
725.627	0.0161770
725.705	0.0161542
725.783	0.0161413
725.861	0.0161934
725.939	0.0162536
726.017	0.0161891
726.096	0.0158744
726.174	0.0160325
726.252	0.0160391
726.330	0.0159095
726.408	0.0158363
726.486	0.0157572
726.564	0.0157572
726.642	0.0157047
726.721	0.0157059
726.799	0.0157040
726.877	0.0157660
726.955	0.0158644
727.033	0.0156288
727.111	0.0156702
727.189	0.0157564
727.267	0.0157599
727.346	0.0156799
727.424	0.0158006
727.502	0.0158452
727.580	0.0158241
727.658	0.0159248
727.736	0.0158501
727.814	0.0157997
727.892	0.0159599
727.971	0.0158244
728.049	0.0159569
728.127	0.0159322
728.205	0.0159425
728.283	0.0159961
728.361	0.0160323
728.439	0.0160110
728.517	0.0161501
728.596	0.0161716
728.674	0.0161144
728.752	0.0161927
728.830	0.0161922
728.908	0.0161408
728.986	0.0163255
729.064	0.0161932
729.142	0.0160685
729.221	0.0161812
729.299	0.0161071
729.377	0.0161626
729.455	0.0161968
729.533	0.0160557
729.611	0.0160985
729.689	0.0162048
729.767	0.0161846
729.846	0.0163536
729.924	0.0161620
730.002	0.0161330
730.080	0.0161926
730.158	0.0162224
730.236	0.0164027
730.314	0.0163227
730.392	0.0162792
730.471	0.0163199
730.549	0.0164786
730.627	0.0163491
730.705	0.0163696
730.783	0.0165923
730.861	0.0163866
730.939	0.0164334
731.017	0.0163580
731.096	0.0164783
731.174	0.0163286
731.252	0.0163122
731.330	0.0165063
731.408	0.0164837
731.486	0.0165041
731.564	0.0163995
731.642	0.0164691
731.721	0.0163820
731.799	0.0164449
731.877	0.0165458
731.955	0.0165374
732.033	0.0164192
732.111	0.0164996
732.189	0.0165393
732.267	0.0165378
732.346	0.0166343
732.424	0.0164777
732.502	0.0165304
732.580	0.0162856
732.658	0.0164278
732.736	0.0164645
732.814	0.0162263
732.892	0.0164246
732.971	0.0163889
733.049	0.0163988
733.127	0.0164400
733.205	0.0160744
733.283	0.0162480
733.361	0.0163188
733.439	0.0162287
733.517	0.0161002
733.596	0.0162237
733.674	0.0161901
733.752	0.0162433
733.830	0.0163065
733.908	0.0162932
733.986	0.0163011
734.064	0.0162800
734.142	0.0163043
734.221	0.0164291
734.299	0.0163840
734.377	0.0165467
734.455	0.0163723
734.533	0.0162180
734.611	0.0164306
734.689	0.0164851
734.767	0.0165191
734.846	0.0164818
734.924	0.0164571
735.002	0.0164378
735.080	0.0164832
735.158	0.0164820
735.236	0.0164403
735.314	0.0163302
735.392	0.0163086
735.471	0.0164235
735.549	0.0164056
735.627	0.0164891
735.705	0.0164293
735.783	0.0162968
735.861	0.0161198
735.939	0.0162369
736.017	0.0162435
736.096	0.0162554
736.174	0.0162239
736.252	0.0161889
736.330	0.0162315
736.408	0.0163654
736.486	0.0163016
736.564	0.0163527
736.642	0.0163291
736.721	0.0164762
736.799	0.0164711
736.877	0.0164435
736.955	0.0165582
737.033	0.0163562
737.111	0.0163676
737.189	0.0164344
737.267	0.0165201
737.346	0.0163330
737.424	0.0164369
737.502	0.0164107
737.580	0.0162911
737.658	0.0162985
737.736	0.0162360
737.814	0.0163744
737.892	0.0164281
737.971	0.0162317
738.049	0.0163743
738.127	0.0163094
738.205	0.0163749
738.283	0.0162682
738.361	0.0163627
738.439	0.0163892
738.517	0.0163535
738.596	0.0163731
738.674	0.0163921
738.752	0.0162509
738.830	0.0163084
738.908	0.0163422
738.986	0.0162120
739.064	0.0162615
739.142	0.0164327
739.221	0.0163530
739.299	0.0164281
739.377	0.0162420
739.455	0.0163210
739.533	0.0163210
739.611	0.0162006
739.689	0.0163133
739.767	0.0162968
739.846	0.0162307
739.924	0.0161044
740.002	0.0161452
740.080	0.0162290
740.158	0.0160773
740.236	0.0160224
740.314	0.0160249
740.392	0.0161073
740.471	0.0161652
740.549	0.0161549
740.627	0.0160670
740.705	0.0161503
740.783	0.0160611
740.861	0.0162045
740.939	0.0161195
741.017	0.0161762
741.096	0.0162322
741.174	0.0160964
741.252	0.0163346
741.330	0.0163680
741.408	0.0160886
741.486	0.0161754
741.564	0.0162593
741.642	0.0162308
741.721	0.0162070
741.799	0.0162280
741.877	0.0162415
741.955	0.0162445
742.033	0.0163443
742.111	0.0163692
742.189	0.0164200
742.267	0.0165236
742.346	0.0165388
742.424	0.0164823
742.502	0.0165144
742.580	0.0165666
742.658	0.0166051
742.736	0.0165897
742.814	0.0166407
742.892	0.0166693
742.971	0.0166906
743.049	0.0166870
743.127	0.0167065
743.205	0.0165855
743.283	0.0166814
743.361	0.0165396
743.439	0.0165624
743.517	0.0166277
743.596	0.0164673
743.674	0.0165662
743.752	0.0164445
743.830	0.0163320
743.908	0.0162764
743.986	0.0163245
744.064	0.0163543
744.142	0.0162623
744.221	0.0160404
744.299	0.0161172
744.377	0.0161823
744.455	0.0160645
744.533	0.0161515
744.611	0.0161835
744.689	0.0161363
744.767	0.0161346
744.846	0.0160382
744.924	0.0160442
745.002	0.0159668
745.080	0.0159672
745.158	0.0160372
745.236	0.0160703
745.314	0.0158982
745.392	0.0160072
745.471	0.0159672
745.549	0.0159885
745.627	0.0160733
745.705	0.0160490
745.783	0.0159598
745.861	0.0159456
745.939	0.0159695
746.017	0.0158916
746.096	0.0160564
746.174	0.0158968
746.252	0.0160123
746.330	0.0160487
746.408	0.0161307
746.486	0.0159981
746.564	0.0161179
746.642	0.0159218
746.721	0.0160091
746.799	0.0160995
746.877	0.0159006
746.955	0.0159451
747.033	0.0159177
747.111	0.0158807
747.189	0.0156670
747.267	0.0159269
747.346	0.0157148
747.424	0.0157641
747.502	0.0156750
747.580	0.0158131
747.658	0.0157107
747.736	0.0156143
747.814	0.0155431
747.892	0.0154298
747.971	0.0156524
748.049	0.0156519
748.127	0.0155968
748.205	0.0156939
748.283	0.0155788
748.361	0.0155605
748.439	0.0156820
748.517	0.0155431
748.596	0.0155591
748.674	0.0156089
748.752	0.0155668
748.830	0.0155278
748.908	0.0155107
748.986	0.0153447
749.064	0.0154099
749.142	0.0153986
749.221	0.0154248
749.299	0.0153555
749.377	0.0154935
749.455	0.0154691
749.533	0.0154770
749.611	0.0155082
749.689	0.0155368
749.767	0.0156407
749.846	0.0156228
749.924	0.0155618
750.002	0.0155624
750.080	0.0155511
750.158	0.0156684
750.236	0.0159416
750.314	0.0159698
750.392	0.0159406
750.471	0.0159216
750.549	0.0161077
750.627	0.0161531
750.705	0.0160856
750.783	0.0161821
750.861	0.0162367
750.939	0.0161610
751.017	0.0162068
751.096	0.0160455
751.174	0.0160149
751.252	0.0161978
751.330	0.0161118
751.408	0.0160947
751.486	0.0161975
751.564	0.0159692
751.642	0.0159963
751.721	0.0160342
751.799	0.0162230
751.877	0.0160652
751.955	0.0160384
752.033	0.0160770
752.111	0.0160085
752.189	0.0161259
752.267	0.0161426
752.346	0.0161830
752.424	0.0162899
752.502	0.0163165
752.580	0.0163171
752.658	0.0163722
752.736	0.0163612
752.814	0.0164161
752.892	0.0164263
752.971	0.0164318
753.049	0.0163577
753.127	0.0163081
753.205	0.0164249
753.283	0.0163776
753.361	0.0162971
753.439	0.0162412
753.517	0.0161720
753.596	0.0163489
753.674	0.0162264
753.752	0.0163016
753.830	0.0163554
753.908	0.0163780
753.986	0.0165094
754.064	0.0164805
754.142	0.0164722
754.221	0.0165929
754.299	0.0166013
754.377	0.0165849
754.455	0.0167077
754.533	0.0168199
754.611	0.0168034
754.689	0.0169253
754.767	0.0168969
754.846	0.0169189
754.924	0.0169558
755.002	0.0171388
755.080	0.0171199
755.158	0.0171094
755.236	0.0171429
755.314	0.0170954
755.392	0.0170512
755.471	0.0170029
755.549	0.0170188
755.627	0.0169534
755.705	0.0170652
755.783	0.0170140
755.861	0.0168239
755.939	0.0167660
756.017	0.0168007
756.096	0.0167337
756.174	0.0168275
756.252	0.0166177
756.330	0.0166914
756.408	0.0165251
756.486	0.0166035
756.564	0.0165605
756.642	0.0165884
756.721	0.0165211
756.799	0.0163470
756.877	0.0163744
756.955	0.0163954
757.033	0.0163940
757.111	0.0162495
757.189	0.0161648
757.267	0.0163405
757.346	0.0163112
757.424	0.0162372
757.502	0.0163290
757.580	0.0163342
757.658	0.0163210
757.736	0.0161558
757.814	0.0161942
757.892	0.0162093
757.971	0.0160767
758.049	0.0160580
758.127	0.0162299
758.205	0.0162119
758.283	0.0160510
758.361	0.0160179
758.439	0.0161163
758.517	0.0160489
758.596	0.0161239
758.674	0.0161246
758.752	0.0161858
758.830	0.0162236
758.908	0.0161960
758.986	0.0161375
759.064	0.0161828
759.142	0.0162028
759.221	0.0162417
759.299	0.0162721
759.377	0.0162054
759.455	0.0163914
759.533	0.0163131
759.611	0.0164181
759.689	0.0163522
759.767	0.0163304
759.846	0.0165783
759.924	0.0166811
760.002	0.0166200
760.080	0.0167696
760.158	0.0167551
760.236	0.0169698
760.314	0.0168684
760.392	0.0169890
760.471	0.0168726
760.549	0.0170202
760.627	0.0170490
760.705	0.0168246
760.783	0.0167580
760.861	0.0167838
760.939	0.0167242
761.017	0.0166996
761.096	0.0166233
761.174	0.0165320
761.252	0.0163690
761.330	0.0163358
761.408	0.0163422
761.486	0.0160867
761.564	0.0160233
761.642	0.0158716
761.721	0.0157351
761.799	0.0157509
761.877	0.0157485
761.955	0.0154974
762.033	0.0154713
762.111	0.0153065
762.189	0.0152930
762.267	0.0153484
762.346	0.0152834
762.424	0.0151815
762.502	0.0151786
762.580	0.0152808
762.658	0.0153633
762.736	0.0153171
762.814	0.0155377
762.892	0.0155638
762.971	0.0156628
763.049	0.0157806
763.127	0.0157684
763.205	0.0157226
763.283	0.0158868
763.361	0.0160629
763.439	0.0160897
763.517	0.0162363
763.596	0.0161783
763.674	0.0162050
763.752	0.0160319
763.830	0.0162656
763.908	0.0163236
763.986	0.0163860
764.064	0.0163631
764.142	0.0164532
764.221	0.0164715
764.299	0.0165535
764.377	0.0166256
764.455	0.0166800
764.533	0.0165649
764.611	0.0165363
764.689	0.0166523
764.767	0.0165871
764.846	0.0166553
764.924	0.0166393
765.002	0.0167011
765.080	0.0166571
765.158	0.0164786
765.236	0.0164043
765.314	0.0165942
765.392	0.0163696
765.471	0.0162844
765.549	0.0162025
765.627	0.0161832
765.705	0.0162055
765.783	0.0160129
765.861	0.0161443
765.939	0.0159874
766.017	0.0158997
766.096	0.0159026
766.174	0.0158938
766.252	0.0159201
766.330	0.0158907
766.408	0.0157224
766.486	0.0156419
766.564	0.0156938
766.642	0.0158184
766.721	0.0157122
766.799	0.0155690
766.877	0.0156976
766.955	0.0156230
767.033	0.0157863
767.111	0.0154705
767.189	0.0156712
767.267	0.0157211
767.346	0.0155984
767.424	0.0158080
767.502	0.0157983
767.580	0.0157611
767.658	0.0158480
767.736	0.0158861
767.814	0.0157716
767.892	0.0158707
767.971	0.0159991
768.049	0.0158643
768.127	0.0160915
768.205	0.0161877
768.283	0.0162056
768.361	0.0162067
768.439	0.0161189
768.517	0.0161808
768.596	0.0162313
768.674	0.0162213
768.752	0.0163823
768.830	0.0164176
768.908	0.0163756
768.986	0.0164011
769.064	0.0165296
769.142	0.0164764
769.221	0.0163643
769.299	0.0165194
769.377	0.0164549
769.455	0.0163146
769.533	0.0164235
769.611	0.0162533
769.689	0.0163051
769.767	0.0163219
769.846	0.0162382
769.924	0.0162267
770.002	0.0163020
770.080	0.0161539
770.158	0.0161273
770.236	0.0162856
770.314	0.0162277
770.392	0.0160518
770.471	0.0160954
770.549	0.0162144
770.627	0.0161200
770.705	0.0161701
770.783	0.0161125
770.861	0.0159795
770.939	0.0161333
771.017	0.0162478
771.096	0.0161739
771.174	0.0160366
771.252	0.0160888
771.330	0.0160861
771.408	0.0160976
771.486	0.0161261
771.564	0.0160154
771.642	0.0159769
771.721	0.0159611
771.799	0.0159235
771.877	0.0159001
771.955	0.0159885
772.033	0.0159353
772.111	0.0157986
772.189	0.0160355
772.267	0.0158760
772.346	0.0158801
772.424	0.0159022
772.502	0.0159789
772.580	0.0160036
772.658	0.0159035
772.736	0.0159211
772.814	0.0158835
772.892	0.0158453
772.971	0.0157440
773.049	0.0157846
773.127	0.0157104
773.205	0.0157041
773.283	0.0158931
773.361	0.0157578
773.439	0.0157294
773.517	0.0157603
773.596	0.0157687
773.674	0.0157497
773.752	0.0157536
773.830	0.0158194
773.908	0.0158151
773.986	0.0157636
774.064	0.0159102
774.142	0.0159913
774.221	0.0159653
774.299	0.0160374
774.377	0.0160201
774.455	0.0161366
774.533	0.0161506
774.611	0.0161602
774.689	0.0161150
774.767	0.0160342
774.846	0.0161375
774.924	0.0160843
775.002	0.0161246
775.080	0.0161926
775.158	0.0160651
775.236	0.0159641
775.314	0.0160312
775.392	0.0158733
775.471	0.0159763
775.549	0.0158579
775.627	0.0156812
775.705	0.0158326
775.783	0.0158569
775.861	0.0156911
775.939	0.0156255
776.017	0.0157475
776.096	0.0158202
776.174	0.0158078
776.252	0.0155965
776.330	0.0156470
776.408	0.0157658
776.486	0.0157872
776.564	0.0158072
776.642	0.0158829
776.721	0.0158205
776.799	0.0158779
776.877	0.0160915
776.955	0.0158686
777.033	0.0159802
777.111	0.0160586
777.189	0.0160346
777.267	0.0160323
777.346	0.0160934
777.424	0.0162110
777.502	0.0159653
777.580	0.0158984
777.658	0.0161105
777.736	0.0160003
777.814	0.0159641
777.892	0.0156799
777.971	0.0158385
778.049	0.0159142
778.127	0.0158070
778.205	0.0156631
778.283	0.0157446
778.361	0.0157787
778.439	0.0157269
778.517	0.0157859
778.596	0.0157870
778.674	0.0157627
778.752	0.0158293
778.830	0.0158452
778.908	0.0158540
778.986	0.0159802
779.064	0.0159274
779.142	0.0159596
779.221	0.0161366
779.299	0.0159747
779.377	0.0160877
779.455	0.0159970
779.533	0.0160886
779.611	0.0162167
779.689	0.0162429
779.767	0.0161652
779.846	0.0162506
779.924	0.0161440
780.002	0.0163182
780.080	0.0162469
780.158	0.0164169
780.236	0.0164847
780.314	0.0166443
780.392	0.0166549
780.471	0.0167922
780.549	0.0167531
780.627	0.0168253
780.705	0.0169703
780.783	0.0170137
780.861	0.0169726
780.939	0.0168503
781.017	0.0170528
781.096	0.0168929
781.174	0.0168301
781.252	0.0167735
781.330	0.0167451
781.408	0.0167083
781.486	0.0165494
781.564	0.0165218
781.642	0.0165508
781.721	0.0162585
781.799	0.0163445
781.877	0.0165455
781.955	0.0164734
782.033	0.0163821
782.111	0.0164180
782.189	0.0164207
782.267	0.0165744
782.346	0.0166299
782.424	0.0165436
782.502	0.0165159
782.580	0.0164808
782.658	0.0163847
782.736	0.0162519
782.814	0.0160556
782.892	0.0160059
782.971	0.0159713
783.049	0.0158571
783.127	0.0156691
783.205	0.0154526
783.283	0.0155532
783.361	0.0154583
783.439	0.0153291
783.517	0.0153806
783.596	0.0154872
783.674	0.0155814
783.752	0.0155339
783.830	0.0155593
783.908	0.0156275
783.986	0.0157594
784.064	0.0157973
784.142	0.0158623
784.221	0.0158527
784.299	0.0159898
784.377	0.0160317
784.455	0.0161916
784.533	0.0162627
784.611	0.0163516
784.689	0.0165144
784.767	0.0164622
784.846	0.0167638
784.924	0.0167411
785.002	0.0167666
785.080	0.0169587
785.158	0.0170074
785.236	0.0169734
785.314	0.0170930
785.392	0.0171111
785.471	0.0170455
785.549	0.0169632
785.627	0.0169311
785.705	0.0167677
785.783	0.0168548
785.861	0.0168105
785.939	0.0167545
786.017	0.0165577
786.096	0.0164818
786.174	0.0164429
786.252	0.0162077
786.330	0.0162254
786.408	0.0161713
786.486	0.0160633
786.564	0.0161046
786.642	0.0160056
786.721	0.0159729
786.799	0.0159287
786.877	0.0157469
786.955	0.0157848
787.033	0.0157606
787.111	0.0156975
787.189	0.0155396
787.267	0.0154414
787.346	0.0155322
787.424	0.0155206
787.502	0.0155537
787.580	0.0155271
787.658	0.0155051
787.736	0.0154514
787.814	0.0154138
787.892	0.0155137
787.971	0.0155882
788.049	0.0154274
788.127	0.0153922
788.205	0.0155244
788.283	0.0154942
788.361	0.0154568
788.439	0.0156200
788.517	0.0155912
788.596	0.0155879
788.674	0.0156191
788.752	0.0156348
788.830	0.0157497
788.908	0.0157256
788.986	0.0155905
789.064	0.0157834
789.142	0.0156799
789.221	0.0156896
789.299	0.0157349
789.377	0.0156947
789.455	0.0157453
789.533	0.0155872
789.611	0.0156196
789.689	0.0157642
789.767	0.0156739
789.846	0.0156758
789.924	0.0157973
790.002	0.0157917
790.080	0.0157137
790.158	0.0156770
790.236	0.0158341
790.314	0.0157970
790.392	0.0157102
790.471	0.0157933
790.549	0.0156897
790.627	0.0156513
790.705	0.0156345
790.783	0.0155062
790.861	0.0153992
790.939	0.0155412
791.017	0.0155009
791.096	0.0153388
791.174	0.0151492
791.252	0.0153104
791.330	0.0153507
791.408	0.0151979
791.486	0.0151994
791.564	0.0150687
791.642	0.0150439
791.721	0.0151804
791.799	0.0150629
791.877	0.0151189
791.955	0.0153333
792.033	0.0154000
792.111	0.0152863
792.189	0.0152777
792.267	0.0153651
792.346	0.0154395
792.424	0.0157058
792.502	0.0157524
792.580	0.0156806
792.658	0.0158125
792.736	0.0159909
792.814	0.0159811
792.892	0.0159657
792.971	0.0160728
793.049	0.0161613
793.127	0.0162557
793.205	0.0163953
793.283	0.0162605
793.361	0.0163978
793.439	0.0164642
793.517	0.0164903
793.596	0.0165057
793.674	0.0164279
793.752	0.0164046
793.830	0.0163570
793.908	0.0164583
793.986	0.0165930
794.064	0.0163587
794.142	0.0164711
794.221	0.0164855
794.299	0.0164736
794.377	0.0165359
794.455	0.0166174
794.533	0.0164754
794.611	0.0165321
794.689	0.0165572
794.767	0.0164874
794.846	0.0164655
794.924	0.0165728
795.002	0.0165836
795.080	0.0165545
795.158	0.0166167
795.236	0.0165585
795.314	0.0166933
795.392	0.0167152
795.471	0.0165630
795.549	0.0167020
795.627	0.0167906
795.705	0.0168566
795.783	0.0167396
795.861	0.0167461
795.939	0.0168198
796.017	0.0168230
796.096	0.0169425
796.174	0.0167200
796.252	0.0166450
796.330	0.0165942
796.408	0.0164508
796.486	0.0164154
796.564	0.0163001
796.642	0.0163621
796.721	0.0162158
796.799	0.0163728
796.877	0.0163868
796.955	0.0163610
797.033	0.0162944
797.111	0.0166451
797.189	0.0165005
797.267	0.0165606
797.346	0.0164938
797.424	0.0164717
797.502	0.0164046
797.580	0.0162880
797.658	0.0162818
797.736	0.0160826
797.814	0.0160267
797.892	0.0161341
797.971	0.0159405
798.049	0.0159726
798.127	0.0158984
798.205	0.0159105
798.283	0.0158669
798.361	0.0158042
798.439	0.0155380
798.517	0.0156915
798.596	0.0158981
798.674	0.0157015
798.752	0.0157719
798.830	0.0157387
798.908	0.0156969
798.986	0.0155565
799.064	0.0156750
799.142	0.0156720
799.221	0.0157813
799.299	0.0158289
799.377	0.0159316
799.455	0.0158005
799.533	0.0157269
799.611	0.0160155
799.689	0.0158409
799.767	0.0159508
799.846	0.0159962
799.924	0.0160517
800.002	0.0160607
800.080	0.0160783
800.158	0.0162354
800.236	0.0162641
800.314	0.0161495
800.392	0.0163158
800.471	0.0161803
800.549	0.0160883
800.627	0.0162132
800.705	0.0163977
800.783	0.0164629
800.861	0.0164423
800.939	0.0164708
801.017	0.0165809
801.096	0.0166165
801.174	0.0165197
801.252	0.0164993
801.330	0.0166085
801.408	0.0166389
801.486	0.0166231
801.564	0.0167013
801.642	0.0166917
801.721	0.0165642
801.799	0.0165907
801.877	0.0166911
801.955	0.0165691
802.033	0.0165564
802.111	0.0164536
802.189	0.0164436
802.267	0.0163435
802.346	0.0163419
802.424	0.0163551
802.502	0.0163634
802.580	0.0162995
802.658	0.0162130
802.736	0.0163437
802.814	0.0164099
802.892	0.0163091
802.971	0.0163914
803.049	0.0162336
803.127	0.0163295
803.205	0.0162347
803.283	0.0161563
803.361	0.0164135
803.439	0.0162770
803.517	0.0162318
803.596	0.0162990
803.674	0.0161800
803.752	0.0162173
803.830	0.0162172
803.908	0.0162813
803.986	0.0160605
804.064	0.0160735
804.142	0.0162036
804.221	0.0160826
804.299	0.0159431
804.377	0.0158782
804.455	0.0160722
804.533	0.0159476
804.611	0.0157666
804.689	0.0157354
804.767	0.0157947
804.846	0.0157552
804.924	0.0158299
805.002	0.0157037
805.080	0.0156122
805.158	0.0156935
805.236	0.0155718
805.314	0.0156269
805.392	0.0155024
805.471	0.0154888
805.549	0.0155301
805.627	0.0155053
805.705	0.0154401
805.783	0.0155536
805.861	0.0154629
805.939	0.0154291
806.017	0.0153819
806.096	0.0153933
806.174	0.0153518
806.252	0.0152753
806.330	0.0153819
806.408	0.0154289
806.486	0.0154123
806.564	0.0154737
806.642	0.0156181
806.721	0.0155668
806.799	0.0156094
806.877	0.0157423
806.955	0.0158550
807.033	0.0158116
807.111	0.0159685
807.189	0.0160340
807.267	0.0158994
807.346	0.0161107
807.424	0.0162131
807.502	0.0162481
807.580	0.0163711
807.658	0.0164066
807.736	0.0163079
807.814	0.0162009
807.892	0.0163810
807.971	0.0165037
808.049	0.0164184
808.127	0.0164005
808.205	0.0163734
808.283	0.0164586
808.361	0.0165633
808.439	0.0165183
808.517	0.0164085
808.596	0.0164960
808.674	0.0166470
808.752	0.0166574
808.830	0.0166328
808.908	0.0165871
808.986	0.0165616
809.064	0.0166066
809.142	0.0165597
809.221	0.0163956
809.299	0.0165470
809.377	0.0166961
809.455	0.0165601
809.533	0.0164960
809.611	0.0163310
809.689	0.0163900
809.767	0.0161715
809.846	0.0160384
809.924	0.0161179
810.002	0.0160869
810.080	0.0159295
810.158	0.0159331
810.236	0.0158096
810.314	0.0158500
810.392	0.0157466
810.471	0.0156620
810.549	0.0156590
810.627	0.0156631
810.705	0.0155529
810.783	0.0155288
810.861	0.0157140
810.939	0.0157615
811.017	0.0157532
811.096	0.0157230
811.174	0.0158691
811.252	0.0159196
811.330	0.0159492
811.408	0.0158665
811.486	0.0160616
811.564	0.0161271
811.642	0.0161374
811.721	0.0162099
811.799	0.0160916
811.877	0.0161375
811.955	0.0161893
812.033	0.0161139
812.111	0.0162122
812.189	0.0161372
812.267	0.0162035
812.346	0.0163398
812.424	0.0162968
812.502	0.0162614
812.580	0.0161447
812.658	0.0161218
812.736	0.0161471
812.814	0.0161919
812.892	0.0160912
812.971	0.0161415
813.049	0.0160058
813.127	0.0158484
813.205	0.0159417
813.283	0.0159613
813.361	0.0159214
813.439	0.0159975
813.517	0.0160039
813.596	0.0159522
813.674	0.0157790
813.752	0.0158852
813.830	0.0159274
813.908	0.0158853
813.986	0.0159964
814.064	0.0159719
814.142	0.0158852
814.221	0.0158804
814.299	0.0158379
814.377	0.0158549
814.455	0.0157549
814.533	0.0157830
814.611	0.0157704
814.689	0.0157664
814.767	0.0157335
814.846	0.0157656
814.924	0.0156002
815.002	0.0156862
815.080	0.0156055
815.158	0.0155912
815.236	0.0155379
815.314	0.0155667
815.392	0.0156732
815.471	0.0155276
815.549	0.0156034
815.627	0.0157886
815.705	0.0158584
815.783	0.0157586
815.861	0.0157852
815.939	0.0158967
816.017	0.0159004
816.096	0.0159409
816.174	0.0159215
816.252	0.0160265
816.330	0.0160444
816.408	0.0160455
816.486	0.0159999
816.564	0.0161145
816.642	0.0161140
816.721	0.0161461
816.799	0.0161249
816.877	0.0161592
816.955	0.0163123
817.033	0.0162632
817.111	0.0161697
817.189	0.0161868
817.267	0.0163074
817.346	0.0163083
817.424	0.0163693
817.502	0.0162846
817.580	0.0164404
817.658	0.0163539
817.736	0.0163383
817.814	0.0163601
817.892	0.0164474
817.971	0.0163436
818.049	0.0163461
818.127	0.0164692
818.205	0.0163868
818.283	0.0163991
818.361	0.0163589
818.439	0.0163402
818.517	0.0162586
818.596	0.0164941
818.674	0.0165008
818.752	0.0163657
818.830	0.0164008
818.908	0.0165542
818.986	0.0163732
819.064	0.0162991
819.142	0.0163940
819.221	0.0164033
819.299	0.0163622
819.377	0.0164437
819.455	0.0164593
819.533	0.0163790
819.611	0.0164178
819.689	0.0163157
819.767	0.0163882
819.846	0.0163851
819.924	0.0165393
820.002	0.0164178
820.080	0.0163744
820.158	0.0164956
820.236	0.0164543
820.314	0.0165877
820.392	0.0164339
820.471	0.0165516
820.549	0.0163785
820.627	0.0164818
820.705	0.0164888
820.783	0.0164495
820.861	0.0165495
820.939	0.0165653
821.017	0.0164426
821.096	0.0166183
821.174	0.0164856
821.252	0.0165889
821.330	0.0164001
821.408	0.0166436
821.486	0.0167177
821.564	0.0165434
821.642	0.0166261
821.721	0.0167915
821.799	0.0166660
821.877	0.0165938
821.955	0.0167372
822.033	0.0166956
822.111	0.0167634
822.189	0.0167189
822.267	0.0166556
822.346	0.0166373
822.424	0.0165501
822.502	0.0166527
822.580	0.0166516
822.658	0.0165083
822.736	0.0164885
822.814	0.0163505
822.892	0.0165334
822.971	0.0163872
823.049	0.0163249
823.127	0.0163962
823.205	0.0163179
823.283	0.0162695
823.361	0.0162906
823.439	0.0162579
823.517	0.0161448
823.596	0.0163404
823.674	0.0160688
823.752	0.0162337
823.830	0.0162632
823.908	0.0163296
823.986	0.0162177
824.064	0.0162023
824.142	0.0160690
824.221	0.0160871
824.299	0.0160777
824.377	0.0160400
824.455	0.0159616
824.533	0.0160159
824.611	0.0160109
824.689	0.0158833
824.767	0.0159510
824.846	0.0160303
824.924	0.0159644
825.002	0.0160557
825.080	0.0159365
825.158	0.0159470
825.236	0.0160600
825.314	0.0160157
825.392	0.0160285
825.471	0.0158353
825.549	0.0160041
825.627	0.0160876
825.705	0.0161367
825.783	0.0160165
825.861	0.0160556
825.939	0.0159850
826.017	0.0160920
826.096	0.0159412
826.174	0.0159857
826.252	0.0159188
826.330	0.0157939
826.408	0.0158771
826.486	0.0160586
826.564	0.0160040
826.642	0.0160059
826.721	0.0158910
826.799	0.0159361
826.877	0.0159963
826.955	0.0160284
827.033	0.0160748
827.111	0.0160779
827.189	0.0161610
827.267	0.0161337
827.346	0.0161211
827.424	0.0163078
827.502	0.0160767
827.580	0.0161758
827.658	0.0163667
827.736	0.0162274
827.814	0.0162523
827.892	0.0160212
827.971	0.0160943
828.049	0.0161153
828.127	0.0161792
828.205	0.0160210
828.283	0.0159080
828.361	0.0158814
828.439	0.0158743
828.517	0.0159984
828.596	0.0158047
828.674	0.0158154
828.752	0.0158368
828.830	0.0157308
828.908	0.0157955
828.986	0.0157749
829.064	0.0157199
829.142	0.0157941
829.221	0.0157128
829.299	0.0156684
829.377	0.0156578
829.455	0.0158058
829.533	0.0158586
829.611	0.0158837
829.689	0.0159128
829.767	0.0157898
829.846	0.0159126
829.924	0.0159917
830.002	0.0158321
830.080	0.0158607
830.158	0.0159834
830.236	0.0158585
830.314	0.0159680
830.392	0.0159878
830.471	0.0157969
830.549	0.0157469
830.627	0.0157748
830.705	0.0158202
830.783	0.0157730
830.861	0.0157161
830.939	0.0157700
831.017	0.0156579
831.096	0.0157982
831.174	0.0155833
831.252	0.0156199
831.330	0.0156015
831.408	0.0157265
831.486	0.0157258
831.564	0.0157914
831.642	0.0160896
831.721	0.0157210
831.799	0.0157703
831.877	0.0160712
831.955	0.0160148
832.033	0.0160855
832.111	0.0162119
832.189	0.0162901
832.267	0.0162894
832.346	0.0163754
832.424	0.0163061
832.502	0.0163052
832.580	0.0164348
832.658	0.0164896
832.736	0.0165129
832.814	0.0165922
832.892	0.0165993
832.971	0.0166682
833.049	0.0166660
833.127	0.0168147
833.205	0.0167991
833.283	0.0167381
833.361	0.0169274
833.439	0.0168618
833.517	0.0167995
833.596	0.0167564
833.674	0.0168260
833.752	0.0167814
833.830	0.0168342
833.908	0.0167348
833.986	0.0166465
834.064	0.0166777
834.142	0.0165163
834.221	0.0165047
834.299	0.0165961
834.377	0.0164574
834.455	0.0165331
834.533	0.0165303
834.611	0.0164162
834.689	0.0162971
834.767	0.0164230
834.846	0.0164198
834.924	0.0162573
835.002	0.0162740
835.080	0.0163895
835.158	0.0162108
835.236	0.0163564
835.314	0.0163304
835.392	0.0163503
835.471	0.0162352
835.549	0.0162235
835.627	0.0162469
835.705	0.0162043
835.783	0.0161266
835.861	0.0162044
835.939	0.0162383
836.017	0.0162099
836.096	0.0161501
836.174	0.0160696
836.252	0.0161336
836.330	0.0159672
836.408	0.0161128
836.486	0.0162134
836.564	0.0161446
836.642	0.0162406
836.721	0.0162584
836.799	0.0161951
836.877	0.0161156
836.955	0.0162915
837.033	0.0162356
837.111	0.0163062
837.189	0.0162252
837.267	0.0161755
837.346	0.0162731
837.424	0.0162997
837.502	0.0162004
837.580	0.0162805
837.658	0.0163490
837.736	0.0162695
837.814	0.0163593
837.892	0.0163203
837.971	0.0162344
838.049	0.0161773
838.127	0.0162570
838.205	0.0162495
838.283	0.0161326
838.361	0.0159756
838.439	0.0161619
838.517	0.0161420
838.596	0.0159863
838.674	0.0160075
838.752	0.0160573
838.830	0.0160942
838.908	0.0160623
838.986	0.0159794
839.064	0.0160299
839.142	0.0158265
839.221	0.0158454
839.299	0.0159520
839.377	0.0160342
839.455	0.0159316
839.533	0.0161012
839.611	0.0161127
839.689	0.0161615
839.767	0.0160031
839.846	0.0161105
839.924	0.0160893
840.002	0.0160728
840.080	0.0160654
840.158	0.0160876
840.236	0.0161549
840.314	0.0160304
840.392	0.0159370
840.471	0.0159559
840.549	0.0159855
840.627	0.0158686
840.705	0.0158437
840.783	0.0158587
840.861	0.0158884
840.939	0.0157313
841.017	0.0158551
841.096	0.0158443
841.174	0.0157628
841.252	0.0157776
841.330	0.0160405
841.408	0.0158801
841.486	0.0158978
841.564	0.0161099
841.642	0.0159755
841.721	0.0159738
841.799	0.0160385
841.877	0.0161625
841.955	0.0162164
842.033	0.0162259
842.111	0.0162398
842.189	0.0160891
842.267	0.0162248
842.346	0.0162292
842.424	0.0162383
842.502	0.0163184
842.580	0.0161007
842.658	0.0162199
842.736	0.0163624
842.814	0.0161500
842.892	0.0161334
842.971	0.0163110
843.049	0.0162832
843.127	0.0163109
843.205	0.0161726
843.283	0.0163423
843.361	0.0163709
843.439	0.0164857
843.517	0.0163390
843.596	0.0162845
843.674	0.0162915
843.752	0.0162846
843.830	0.0163123
843.908	0.0163190
843.986	0.0162371
844.064	0.0162833
844.142	0.0162833
844.221	0.0162901
844.299	0.0162537
844.377	0.0163087
844.455	0.0161565
844.533	0.0162812
844.611	0.0163567
844.689	0.0163220
844.767	0.0162896
844.846	0.0162737
844.924	0.0163221
845.002	0.0162593
845.080	0.0163570
845.158	0.0162711
845.236	0.0162533
845.314	0.0162411
845.392	0.0163374
845.471	0.0162268
845.549	0.0162146
845.627	0.0163235
845.705	0.0162582
845.783	0.0162469
845.861	0.0162900
845.939	0.0162353
846.017	0.0163224
846.096	0.0163026
846.174	0.0162716
846.252	0.0162174
846.330	0.0162211
846.408	0.0164013
846.486	0.0163605
846.564	0.0163354
846.642	0.0165678
846.721	0.0164545
846.799	0.0165676
846.877	0.0165190
846.955	0.0165550
847.033	0.0164339
847.111	0.0164850
847.189	0.0165466
847.267	0.0165703
847.346	0.0166115
847.424	0.0164222
847.502	0.0164050
847.580	0.0164684
847.658	0.0165502
847.736	0.0165527
847.814	0.0163564
847.892	0.0163963
847.971	0.0163468
848.049	0.0164732
848.127	0.0164700
848.205	0.0165355
848.283	0.0163966
848.361	0.0162966
848.439	0.0163058
848.517	0.0163014
848.596	0.0162723
848.674	0.0162263
848.752	0.0163358
848.830	0.0160993
848.908	0.0160231
848.986	0.0161503
849.064	0.0162932
849.142	0.0161249
849.221	0.0161255
849.299	0.0161498
849.377	0.0160506
849.455	0.0161426
849.533	0.0160637
849.611	0.0160859
849.689	0.0159766
849.767	0.0159912
849.846	0.0160319
849.924	0.0159017
850.002	0.0159623
850.080	0.0159271
850.158	0.0159252
850.236	0.0158340
850.314	0.0157473
850.392	0.0159974
850.471	0.0159817
850.549	0.0158282
850.627	0.0158642
850.705	0.0159538
850.783	0.0160558
850.861	0.0159074
850.939	0.0160886
851.017	0.0158881
851.096	0.0160957
851.174	0.0161066
851.252	0.0160052
851.330	0.0160423
851.408	0.0162046
851.486	0.0161655
851.564	0.0161423
851.642	0.0162847
851.721	0.0162812
851.799	0.0163163
851.877	0.0164413
851.955	0.0165249
852.033	0.0164570
852.111	0.0165069
852.189	0.0166660
852.267	0.0165153
852.346	0.0165296
852.424	0.0166127
852.502	0.0166149
852.580	0.0164626
852.658	0.0164224
852.736	0.0164435
852.814	0.0163997
852.892	0.0164842
852.971	0.0163116
853.049	0.0163424
853.127	0.0163260
853.205	0.0164770
853.283	0.0162996
853.361	0.0161913
853.439	0.0161726
853.517	0.0160828
853.596	0.0162384
853.674	0.0161436
853.752	0.0160648
853.830	0.0161732
853.908	0.0160947
853.986	0.0159382
854.064	0.0159071
854.142	0.0159389
854.221	0.0160053
854.299	0.0159277
854.377	0.0159544
854.455	0.0159654
854.533	0.0158334
854.611	0.0157310
854.689	0.0158913
854.767	0.0156866
854.846	0.0157016
854.924	0.0156529
855.002	0.0156349
855.080	0.0155167
855.158	0.0154416
855.236	0.0155988
855.314	0.0155626
855.392	0.0154011
855.471	0.0153938
855.549	0.0154421
855.627	0.0153296
855.705	0.0153616
855.783	0.0154542
855.861	0.0154822
855.939	0.0155100
856.017	0.0156623
856.096	0.0156494
856.174	0.0155653
856.252	0.0156549
856.330	0.0157481
856.408	0.0157796
856.486	0.0157533
856.564	0.0157621
856.642	0.0157513
856.721	0.0158334
856.799	0.0159022
856.877	0.0158537
856.955	0.0157561
857.033	0.0157983
857.111	0.0157539
857.189	0.0157417
857.267	0.0157533
857.346	0.0157491
857.424	0.0157837
857.502	0.0159004
857.580	0.0157890
857.658	0.0159373
857.736	0.0158604
857.814	0.0160365
857.892	0.0160285
857.971	0.0159796
858.049	0.0158392
858.127	0.0160725
858.205	0.0160660
858.283	0.0160101
858.361	0.0161029
858.439	0.0161790
858.517	0.0162460
858.596	0.0162534
858.674	0.0162221
858.752	0.0162823
858.830	0.0164456
858.908	0.0163883
858.986	0.0161310
859.064	0.0162656
859.142	0.0162676
859.221	0.0163677
859.299	0.0164148
859.377	0.0164771
859.455	0.0164613
859.533	0.0165083
859.611	0.0165679
859.689	0.0165754
859.767	0.0165263
859.846	0.0166454
859.924	0.0168192
860.002	0.0169693
860.080	0.0168776
860.158	0.0169920
860.236	0.0169476
860.314	0.0172518
860.392	0.0173306
860.471	0.0173402
860.549	0.0173673
860.627	0.0176640
860.705	0.0176680
860.783	0.0175204
860.861	0.0175986
860.939	0.0176906
861.017	0.0176260
861.096	0.0175913
861.174	0.0178981
861.252	0.0176735
861.330	0.0175365
861.408	0.0175340
861.486	0.0175416
861.564	0.0174905
861.642	0.0174696
861.721	0.0174231
861.799	0.0172314
861.877	0.0172239
861.955	0.0170576
862.033	0.0168809
862.111	0.0168240
862.189	0.0165642
862.267	0.0165275
862.346	0.0164023
862.424	0.0162542
862.502	0.0161101
862.580	0.0160942
862.658	0.0158773
862.736	0.0158316
862.814	0.0157550
862.892	0.0156630
862.971	0.0154964
863.049	0.0155324
863.127	0.0156981
863.205	0.0154762
863.283	0.0155343
863.361	0.0154929
863.439	0.0154065
863.517	0.0153640
863.596	0.0155098
863.674	0.0154794
863.752	0.0154211
863.830	0.0154441
863.908	0.0154324
863.986	0.0153919
864.064	0.0153326
864.142	0.0154562
864.221	0.0153519
864.299	0.0153664
864.377	0.0154236
864.455	0.0154384
864.533	0.0154341
864.611	0.0153108
864.689	0.0154001
864.767	0.0153693
864.846	0.0152273
864.924	0.0153008
865.002	0.0153087
865.080	0.0153546
865.158	0.0153532
865.236	0.0152409
865.314	0.0152853
865.392	0.0152925
865.471	0.0154624
865.549	0.0155556
865.627	0.0153433
865.705	0.0154847
865.783	0.0155402
865.861	0.0155702
865.939	0.0156809
866.017	0.0155987
866.096	0.0155872
866.174	0.0156560
866.252	0.0155700
866.330	0.0156821
866.408	0.0158176
866.486	0.0155905
866.564	0.0158154
866.642	0.0158656
866.721	0.0156313
866.799	0.0156788
866.877	0.0158112
866.955	0.0158108
867.033	0.0158630
867.111	0.0159325
867.189	0.0159140
867.267	0.0157303
867.346	0.0157418
867.424	0.0158981
867.502	0.0158520
867.580	0.0157312
867.658	0.0157903
867.736	0.0159547
867.814	0.0160107
867.892	0.0160156
867.971	0.0158440
868.049	0.0158153
868.127	0.0157961
868.205	0.0159545
868.283	0.0159772
868.361	0.0158344
868.439	0.0157810
868.517	0.0159899
868.596	0.0158479
868.674	0.0159850
868.752	0.0160415
868.830	0.0161124
868.908	0.0160981
868.986	0.0160287
869.064	0.0162476
869.142	0.0161598
869.221	0.0163165
869.299	0.0163756
869.377	0.0162651
869.455	0.0162460
869.533	0.0162697
869.611	0.0163758
869.689	0.0162859
869.767	0.0163087
869.846	0.0164416
869.924	0.0164041
870.002	0.0162695
870.080	0.0162872
870.158	0.0162447
870.236	0.0163314
870.314	0.0163339
870.392	0.0162414
870.471	0.0161558
870.549	0.0162595
870.627	0.0162352
870.705	0.0161517
870.783	0.0161235
870.861	0.0163089
870.939	0.0163049
871.017	0.0164465
871.096	0.0162560
871.174	0.0162730
871.252	0.0163251
871.330	0.0163363
871.408	0.0163568
871.486	0.0165044
871.564	0.0163147
871.642	0.0164062
871.721	0.0164024
871.799	0.0162999
871.877	0.0162935
871.955	0.0163958
872.033	0.0163195
872.111	0.0163597
872.189	0.0163943
872.267	0.0163344
872.346	0.0164590
872.424	0.0163861
872.502	0.0163610
872.580	0.0162482
872.658	0.0165147
872.736	0.0165218
872.814	0.0164904
872.892	0.0163779
872.971	0.0162711
873.049	0.0164310
873.127	0.0162905
873.205	0.0163280
873.283	0.0163706
873.361	0.0162601
873.439	0.0162212
873.517	0.0163217
873.596	0.0164498
873.674	0.0162931
873.752	0.0161671
873.830	0.0161887
873.908	0.0162613
873.986	0.0160593
874.064	0.0160294
874.142	0.0161083
874.221	0.0159669
874.299	0.0158687
874.377	0.0160118
874.455	0.0158354
874.533	0.0158438
874.611	0.0157927
874.689	0.0158722
874.767	0.0158806
874.846	0.0157732
874.924	0.0158815
875.002	0.0159717
875.080	0.0160321
875.158	0.0158807
875.236	0.0160054
875.314	0.0160249
875.392	0.0159955
875.471	0.0160081
875.549	0.0159335
875.627	0.0159887
875.705	0.0161909
875.783	0.0160902
875.861	0.0160832
875.939	0.0161586
876.017	0.0160844
876.096	0.0160271
876.174	0.0161409
876.252	0.0163386
876.330	0.0161246
876.408	0.0161788
876.486	0.0161985
876.564	0.0162551
876.642	0.0162778
876.721	0.0162438
876.799	0.0162159
876.877	0.0162171
876.955	0.0163551
877.033	0.0163050
877.111	0.0163445
877.189	0.0163757
877.267	0.0163077
877.346	0.0162326
877.424	0.0163529
877.502	0.0163335
877.580	0.0163185
877.658	0.0163498
877.736	0.0162919
877.814	0.0162912
877.892	0.0163309
877.971	0.0163232
878.049	0.0164211
878.127	0.0162760
878.205	0.0163313
878.283	0.0162816
878.361	0.0162614
878.439	0.0162180
878.517	0.0161796
878.596	0.0161414
878.674	0.0160472
878.752	0.0162122
878.830	0.0162607
878.908	0.0160602
878.986	0.0160313
879.064	0.0159804
879.142	0.0160492
879.221	0.0159254
879.299	0.0159657
879.377	0.0160642
879.455	0.0159454
879.533	0.0159303
879.611	0.0158315
879.689	0.0158409
879.767	0.0158563
879.846	0.0158038
879.924	0.0159087
880.002	0.0160258
880.080	0.0157837
880.158	0.0159829
880.236	0.0159633
880.314	0.0159287
880.392	0.0160012
880.471	0.0158116
880.549	0.0157846
880.627	0.0159661
880.705	0.0159264
880.783	0.0158694
880.861	0.0160071
880.939	0.0158682
881.017	0.0157753
881.096	0.0160046
881.174	0.0158473
881.252	0.0159168
881.330	0.0160664
881.408	0.0160513
881.486	0.0160135
881.564	0.0159794
881.642	0.0160335
881.721	0.0160410
881.799	0.0162277
881.877	0.0161520
881.955	0.0160213
882.033	0.0160736
882.111	0.0161462
882.189	0.0160553
882.267	0.0162138
882.346	0.0160901
882.424	0.0161494
882.502	0.0162288
882.580	0.0163063
882.658	0.0162171
882.736	0.0162712
882.814	0.0162342
882.892	0.0162793
882.971	0.0161559
883.049	0.0163769
883.127	0.0164015
883.205	0.0164034
883.283	0.0163879
883.361	0.0164782
883.439	0.0164862
883.517	0.0164355
883.596	0.0164433
883.674	0.0163372
883.752	0.0164251
883.830	0.0162698
883.908	0.0163789
883.986	0.0163557
884.064	0.0162090
884.142	0.0161018
884.221	0.0161263
884.299	0.0160899
884.377	0.0160469
884.455	0.0160342
884.533	0.0160777
884.611	0.0159895
884.689	0.0161456
884.767	0.0161118
884.846	0.0159621
884.924	0.0160097
885.002	0.0160765
885.080	0.0161035
885.158	0.0161753
885.236	0.0162586
885.314	0.0164152
885.392	0.0163918
885.471	0.0163036
885.549	0.0164458
885.627	0.0163594
885.705	0.0163655
885.783	0.0164319
885.861	0.0165025
885.939	0.0164886
886.017	0.0164914
886.096	0.0165912
886.174	0.0165195
886.252	0.0165155
886.330	0.0166006
886.408	0.0165726
886.486	0.0164868
886.564	0.0165664
886.642	0.0165710
886.721	0.0165260
886.799	0.0164425
886.877	0.0165059
886.955	0.0165745
887.033	0.0164688
887.111	0.0163349
887.189	0.0164219
887.267	0.0162899
887.346	0.0161827
887.424	0.0162954
887.502	0.0162035
887.580	0.0162563
887.658	0.0161497
887.736	0.0158898
887.814	0.0159505
887.892	0.0159174
887.971	0.0159039
888.049	0.0158340
888.127	0.0157573
888.205	0.0156097
888.283	0.0154768
888.361	0.0154845
888.439	0.0154535
888.517	0.0156190
888.596	0.0153961
888.674	0.0153246
888.752	0.0153150
888.830	0.0153540
888.908	0.0153005
888.986	0.0153197
889.064	0.0153724
889.142	0.0154051
889.221	0.0153094
889.299	0.0154072
889.377	0.0153624
889.455	0.0153932
889.533	0.0153871
889.611	0.0154779
889.689	0.0154828
889.767	0.0156017
889.846	0.0155429
889.924	0.0155061
890.002	0.0156232
890.080	0.0156282
890.158	0.0156416
890.236	0.0156719
890.314	0.0156306
890.392	0.0156450
890.471	0.0156267
890.549	0.0155628
890.627	0.0156178
890.705	0.0156972
890.783	0.0156602
890.861	0.0156929
890.939	0.0156672
891.017	0.0157041
891.096	0.0157556
891.174	0.0156857
891.252	0.0156506
891.330	0.0156757
891.408	0.0158913
891.486	0.0157959
891.564	0.0157424
891.642	0.0157699
891.721	0.0158691
891.799	0.0159111
891.877	0.0158421
891.955	0.0158709
892.033	0.0158630
892.111	0.0159395
892.189	0.0160165
892.267	0.0157814
892.346	0.0158501
892.424	0.0159673
892.502	0.0158939
892.580	0.0159172
892.658	0.0159620
892.736	0.0159254
892.814	0.0158890
892.892	0.0159267
892.971	0.0159379
893.049	0.0160079
893.127	0.0160319
893.205	0.0159625
893.283	0.0160732
893.361	0.0161593
893.439	0.0161744
893.517	0.0161346
893.596	0.0161736
893.674	0.0163161
893.752	0.0163543
893.830	0.0161983
893.908	0.0162870
893.986	0.0162552
894.064	0.0163844
894.142	0.0163395
894.221	0.0163265
894.299	0.0163640
894.377	0.0163810
894.455	0.0164478
894.533	0.0164155
894.611	0.0164775
894.689	0.0165463
894.767	0.0165214
894.846	0.0164199
894.924	0.0164484
895.002	0.0164835
895.080	0.0163890
895.158	0.0165468
895.236	0.0164378
895.314	0.0164333
895.392	0.0165686
895.471	0.0163932
895.549	0.0164268
895.627	0.0163297
895.705	0.0163239
895.783	0.0164371
895.861	0.0164652
895.939	0.0164451
896.017	0.0163384
896.096	0.0162823
896.174	0.0161329
896.252	0.0161118
896.330	0.0161867
896.408	0.0162067
896.486	0.0162012
896.564	0.0160767
896.642	0.0161337
896.721	0.0162049
896.799	0.0161996
896.877	0.0160556
896.955	0.0162215
897.033	0.0162128
897.111	0.0162255
897.189	0.0161744
897.267	0.0161581
897.346	0.0160735
897.424	0.0161823
897.502	0.0161949
897.580	0.0161939
897.658	0.0162018
897.736	0.0162470
897.814	0.0162166
897.892	0.0161804
897.971	0.0162660
898.049	0.0162042
898.127	0.0163586
898.205	0.0163212
898.283	0.0161253
898.361	0.0161141
898.439	0.0163264
898.517	0.0162549
898.596	0.0162838
898.674	0.0161777
898.752	0.0161581
898.830	0.0161545
898.908	0.0160527
898.986	0.0159669
899.064	0.0159615
899.142	0.0159270
899.221	0.0158216
899.299	0.0159045
899.377	0.0157982
899.455	0.0156747
899.533	0.0157200
899.611	0.0157453
899.689	0.0158670
899.767	0.0158076
899.846	0.0158805
899.924	0.0158262
900.002	0.0158415
900.080	0.0157941
900.158	0.0158548
900.236	0.0158878
900.314	0.0159842
900.392	0.0159719
900.471	0.0158197
900.549	0.0160806
900.627	0.0160242
900.705	0.0161589
900.783	0.0160340
900.861	0.0161382
900.939	0.0160533
901.017	0.0162685
901.096	0.0161496
901.174	0.0161975
901.252	0.0162395
901.330	0.0162432
901.408	0.0162679
901.486	0.0163329
901.564	0.0161641
901.642	0.0163113
901.721	0.0163698
901.799	0.0164554
901.877	0.0163336
901.955	0.0163308
902.033	0.0164029
902.111	0.0164374
902.189	0.0162884
902.267	0.0160759
902.346	0.0162885
902.424	0.0162144
902.502	0.0162453
902.580	0.0161670
902.658	0.0162391
902.736	0.0160589
902.814	0.0161293
902.892	0.0161528
902.971	0.0161067
903.049	0.0161197
903.127	0.0160033
903.205	0.0160340
903.283	0.0160089
903.361	0.0160398
903.439	0.0158747
903.517	0.0157850
903.596	0.0158884
903.674	0.0158473
903.752	0.0158353
903.830	0.0158865
903.908	0.0158290
903.986	0.0159319
904.064	0.0158438
904.142	0.0158765
904.221	0.0157368
904.299	0.0158460
904.377	0.0158962
904.455	0.0159148
904.533	0.0158022
904.611	0.0158095
904.689	0.0159815
904.767	0.0157210
904.846	0.0159517
904.924	0.0159735
905.002	0.0159325
905.080	0.0158971
905.158	0.0159832
905.236	0.0160327
905.314	0.0161241
905.392	0.0160004
905.471	0.0160101
905.549	0.0161559
905.627	0.0159815
905.705	0.0159583
905.783	0.0159079
905.861	0.0162186
905.939	0.0158886
906.017	0.0160271
906.096	0.0162376
906.174	0.0159983
906.252	0.0161335
906.330	0.0159941
906.408	0.0160120
906.486	0.0162678
906.564	0.0162002
906.642	0.0160333
906.721	0.0162981
906.799	0.0162244
906.877	0.0162383
906.955	0.0161929
907.033	0.0163158
907.111	0.0162112
907.189	0.0162550
907.267	0.0162825
907.346	0.0161755
907.424	0.0162687
907.502	0.0161217
907.580	0.0160085
907.658	0.0163290
907.736	0.0161785
907.814	0.0161298
907.892	0.0160632
907.971	0.0160101
908.049	0.0158906
908.127	0.0159151
908.205	0.0161308
908.283	0.0159399
908.361	0.0159101
908.439	0.0159840
908.517	0.0159528
908.596	0.0160876
908.674	0.0159004
908.752	0.0159908
908.830	0.0160542
908.908	0.0160104
908.986	0.0159789
909.064	0.0161134
909.142	0.0160828
909.221	0.0160845
909.299	0.0161430
909.377	0.0160656
909.455	0.0159924
909.533	0.0161796
909.611	0.0160256
909.689	0.0160719
909.767	0.0161045
909.846	0.0161715
909.924	0.0161357
910.002	0.0160157
910.080	0.0161042
910.158	0.0159784
910.236	0.0160107
910.314	0.0159084
910.392	0.0158739
910.471	0.0158152
910.549	0.0158344
910.627	0.0158958
910.705	0.0158326
910.783	0.0156741
910.861	0.0158030
910.939	0.0155774
911.017	0.0155926
911.096	0.0157204
911.174	0.0156013
911.252	0.0154897
911.330	0.0155921
911.408	0.0156137
911.486	0.0156505
911.564	0.0157375
911.642	0.0156801
911.721	0.0157308
911.799	0.0158278
911.877	0.0160590
911.955	0.0160899
912.033	0.0159566
912.111	0.0160679
912.189	0.0160484
912.267	0.0161443
912.346	0.0162756
912.424	0.0164400
912.502	0.0164182
912.580	0.0165578
912.658	0.0166264
912.736	0.0167203
912.814	0.0165858
912.892	0.0164986
912.971	0.0165792
913.049	0.0168056
913.127	0.0168542
913.205	0.0167910
913.283	0.0168407
913.361	0.0170100
913.439	0.0169050
913.517	0.0169574
913.596	0.0168926
913.674	0.0168390
913.752	0.0168649
913.830	0.0170267
913.908	0.0168317
913.986	0.0169247
914.064	0.0169608
914.142	0.0168220
914.221	0.0169279
914.299	0.0171020
914.377	0.0169665
914.455	0.0168331
914.533	0.0169917
914.611	0.0169387
914.689	0.0167554
914.767	0.0167166
914.846	0.0165791
914.924	0.0166965
915.002	0.0165370
915.080	0.0163367
915.158	0.0164130
915.236	0.0163843
915.314	0.0163676
915.392	0.0162666
915.471	0.0162505
915.549	0.0162003
915.627	0.0161581
915.705	0.0161517
915.783	0.0161471
915.861	0.0161491
915.939	0.0160870
916.017	0.0161741
916.096	0.0161133
916.174	0.0159521
916.252	0.0160220
916.330	0.0161499
916.408	0.0161015
916.486	0.0159306
916.564	0.0160945
916.642	0.0158765
916.721	0.0159911
916.799	0.0159663
916.877	0.0159738
916.955	0.0159782
917.033	0.0159714
917.111	0.0159015
917.189	0.0158598
917.267	0.0159677
917.346	0.0159447
917.424	0.0158663
917.502	0.0158237
917.580	0.0158375
917.658	0.0159056
917.736	0.0157660
917.814	0.0158974
917.892	0.0159983
917.971	0.0158788
918.049	0.0161625
918.127	0.0160353
918.205	0.0161140
918.283	0.0160860
918.361	0.0160753
918.439	0.0160987
918.517	0.0160464
918.596	0.0159689
918.674	0.0159561
918.752	0.0158641
918.830	0.0159001
918.908	0.0159464
918.986	0.0158039
919.064	0.0158303
919.142	0.0159227
919.221	0.0158602
919.299	0.0158944
919.377	0.0158695
919.455	0.0159127
919.533	0.0160519
919.611	0.0158260
919.689	0.0158922
919.767	0.0160707
919.846	0.0160612
919.924	0.0161792
