06/29/2022	21:46:55	Ver.	4.1	UNKNOWN
Optical Delay	600.001752	Delta X		0.078125	Sweeps	1	Scan Rate	0/0
Coordinates	Axis 1	NaN	Axis 2	NaN	Axis 3	NaN	Axis 4	NaN	Axis 5	NaN	Axis 6	0.000000
TX Power	0.000000	RX Power	0.000000

600.002	0.0157023
600.080	0.0155251
600.158	0.0155439
600.236	0.0156654
600.314	0.0156475
600.392	0.0155816
600.471	0.0156451
600.549	0.0156870
600.627	0.0156896
600.705	0.0157093
600.783	0.0158002
600.861	0.0156343
600.939	0.0156020
601.017	0.0156097
601.096	0.0155749
601.174	0.0154156
601.252	0.0153504
601.330	0.0155698
601.408	0.0154946
601.486	0.0156546
601.564	0.0157108
601.642	0.0158910
601.721	0.0160812
601.799	0.0162248
601.877	0.0163343
601.955	0.0163815
602.033	0.0165234
602.111	0.0164331
602.189	0.0164410
602.267	0.0164627
602.346	0.0165153
602.424	0.0167715
602.502	0.0167470
602.580	0.0168073
602.658	0.0168092
602.736	0.0166551
602.814	0.0167574
602.892	0.0168928
602.971	0.0169075
603.049	0.0170319
603.127	0.0172411
603.205	0.0172728
603.283	0.0173731
603.361	0.0176903
603.439	0.0177722
603.517	0.0179832
603.596	0.0180178
603.674	0.0179311
603.752	0.0175753
603.830	0.0170943
603.908	0.0161813
603.986	0.0152474
604.064	0.0141528
604.142	0.0131374
604.221	0.0123399
604.299	0.0118079
604.377	0.0116741
604.455	0.0120625
604.533	0.0123865
604.611	0.0131825
604.689	0.0139034
604.767	0.0148122
604.846	0.0153834
604.924	0.0161153
605.002	0.0164292
605.080	0.0166966
605.158	0.0170524
605.236	0.0172105
605.314	0.0171729
605.392	0.0170077
605.471	0.0165476
605.549	0.0162930
605.627	0.0162180
605.705	0.0159705
605.783	0.0158728
605.861	0.0156876
605.939	0.0156557
606.017	0.0156249
606.096	0.0154077
606.174	0.0152802
606.252	0.0149932
606.330	0.0149364
606.408	0.0148357
606.486	0.0145638
606.564	0.0145721
606.642	0.0148782
606.721	0.0149038
606.799	0.0150368
606.877	0.0153843
606.955	0.0153899
607.033	0.0155637
607.111	0.0154553
607.189	0.0155914
607.267	0.0156719
607.346	0.0156001
607.424	0.0157170
607.502	0.0157671
607.580	0.0158834
607.658	0.0161279
607.736	0.0161777
607.814	0.0164606
607.892	0.0166533
607.971	0.0167326
608.049	0.0166280
608.127	0.0168214
608.205	0.0166351
608.283	0.0167017
608.361	0.0167935
608.439	0.0171366
608.517	0.0171326
608.596	0.0172300
608.674	0.0172304
608.752	0.0172676
608.830	0.0173666
608.908	0.0172631
608.986	0.0173853
609.064	0.0172747
609.142	0.0173492
609.221	0.0173521
609.299	0.0172057
609.377	0.0172572
609.455	0.0174287
609.533	0.0173650
609.611	0.0173941
609.689	0.0172239
609.767	0.0172018
609.846	0.0170380
609.924	0.0170525
610.002	0.0168116
610.080	0.0166813
610.158	0.0164648
610.236	0.0165298
610.314	0.0164835
610.392	0.0163527
610.471	0.0163638
610.549	0.0164693
610.627	0.0163936
610.705	0.0164323
610.783	0.0163538
610.861	0.0163051
610.939	0.0162678
611.017	0.0163084
611.096	0.0162777
611.174	0.0162454
611.252	0.0161507
611.330	0.0160966
611.408	0.0157945
611.486	0.0159871
611.564	0.0158495
611.642	0.0158028
611.721	0.0156703
611.799	0.0154321
611.877	0.0152791
611.955	0.0152900
612.033	0.0153841
612.111	0.0152206
612.189	0.0151776
612.267	0.0152591
612.346	0.0152203
612.424	0.0152373
612.502	0.0151340
612.580	0.0151924
612.658	0.0151077
612.736	0.0149423
612.814	0.0151669
612.892	0.0150922
612.971	0.0151669
613.049	0.0152260
613.127	0.0152438
613.205	0.0151237
613.283	0.0152692
613.361	0.0152098
613.439	0.0153548
613.517	0.0152293
613.596	0.0152753
613.674	0.0151554
613.752	0.0149894
613.830	0.0149970
613.908	0.0147786
613.986	0.0147800
614.064	0.0147082
614.142	0.0147557
614.221	0.0148195
614.299	0.0148577
614.377	0.0148863
614.455	0.0150893
614.533	0.0150542
614.611	0.0151213
614.689	0.0151481
614.767	0.0153801
614.846	0.0155610
614.924	0.0156377
615.002	0.0158385
615.080	0.0159366
615.158	0.0159762
615.236	0.0161076
615.314	0.0158782
615.392	0.0156505
615.471	0.0152953
615.549	0.0147205
615.627	0.0141950
615.705	0.0138332
615.783	0.0136861
615.861	0.0136767
615.939	0.0137507
616.017	0.0142096
616.096	0.0145747
616.174	0.0147830
616.252	0.0153464
616.330	0.0157428
616.408	0.0158359
616.486	0.0160318
616.564	0.0161639
616.642	0.0162243
616.721	0.0162019
616.799	0.0161051
616.877	0.0161390
616.955	0.0161793
617.033	0.0162443
617.111	0.0160330
617.189	0.0161646
617.267	0.0159872
617.346	0.0160878
617.424	0.0160068
617.502	0.0159990
617.580	0.0160007
617.658	0.0157690
617.736	0.0157824
617.814	0.0157896
617.892	0.0157604
617.971	0.0158852
618.049	0.0158430
618.127	0.0159305
618.205	0.0160262
618.283	0.0159254
618.361	0.0158656
618.439	0.0159629
618.517	0.0159430
618.596	0.0160396
618.674	0.0160139
618.752	0.0160364
618.830	0.0160420
618.908	0.0160663
618.986	0.0161055
619.064	0.0161488
619.142	0.0161597
619.221	0.0162903
619.299	0.0161779
619.377	0.0162123
619.455	0.0163848
619.533	0.0162259
619.611	0.0164285
619.689	0.0165273
619.767	0.0166017
619.846	0.0167874
619.924	0.0167944
620.002	0.0168832
620.080	0.0168459
620.158	0.0169786
620.236	0.0171214
620.314	0.0170520
620.392	0.0169586
620.471	0.0169296
620.549	0.0169801
620.627	0.0169814
620.705	0.0167914
620.783	0.0167724
620.861	0.0165064
620.939	0.0165408
621.017	0.0165884
621.096	0.0165498
621.174	0.0165237
621.252	0.0163789
621.330	0.0163850
621.408	0.0164230
621.486	0.0163744
621.564	0.0164559
621.642	0.0165289
621.721	0.0162798
621.799	0.0162241
621.877	0.0163122
621.955	0.0163622
622.033	0.0162070
622.111	0.0162157
622.189	0.0161674
622.267	0.0162176
622.346	0.0159764
622.424	0.0160619
622.502	0.0159293
622.580	0.0158264
622.658	0.0158417
622.736	0.0156845
622.814	0.0158669
622.892	0.0157048
622.971	0.0157138
623.049	0.0156912
623.127	0.0158208
623.205	0.0158506
623.283	0.0158176
623.361	0.0157246
623.439	0.0158266
623.517	0.0159714
623.596	0.0159560
623.674	0.0159040
623.752	0.0159199
623.830	0.0160056
623.908	0.0160049
623.986	0.0160264
624.064	0.0161008
624.142	0.0160758
624.221	0.0160107
624.299	0.0160836
624.377	0.0160767
624.455	0.0160767
624.533	0.0159576
624.611	0.0160107
624.689	0.0159370
624.767	0.0162565
624.846	0.0162030
624.924	0.0161611
625.002	0.0163463
625.080	0.0162489
625.158	0.0162930
625.236	0.0161315
625.314	0.0161521
625.392	0.0160130
625.471	0.0157772
625.549	0.0153145
625.627	0.0153168
625.705	0.0150043
625.783	0.0150747
625.861	0.0147833
625.939	0.0147025
626.017	0.0149540
626.096	0.0149287
626.174	0.0151414
626.252	0.0152528
626.330	0.0152738
626.408	0.0152387
626.486	0.0154380
626.564	0.0155177
626.642	0.0155972
626.721	0.0156204
626.799	0.0157028
626.877	0.0158365
626.955	0.0158912
627.033	0.0156991
627.111	0.0157154
627.189	0.0158436
627.267	0.0155231
627.346	0.0155609
627.424	0.0155450
627.502	0.0154175
627.580	0.0154425
627.658	0.0153410
627.736	0.0152679
627.814	0.0152578
627.892	0.0152836
627.971	0.0154028
628.049	0.0152077
628.127	0.0151894
628.205	0.0155141
628.283	0.0153805
628.361	0.0154546
628.439	0.0155379
628.517	0.0155556
628.596	0.0155164
628.674	0.0156006
628.752	0.0156406
628.830	0.0155791
628.908	0.0157686
628.986	0.0160419
629.064	0.0160317
629.142	0.0160668
629.221	0.0162753
629.299	0.0162021
629.377	0.0163271
629.455	0.0165575
629.533	0.0165450
629.611	0.0166708
629.689	0.0167193
629.767	0.0167187
629.846	0.0168498
629.924	0.0168838
630.002	0.0168487
630.080	0.0169109
630.158	0.0170070
630.236	0.0170101
630.314	0.0170720
630.392	0.0170717
630.471	0.0169759
630.549	0.0172091
630.627	0.0172337
630.705	0.0171788
630.783	0.0171477
630.861	0.0172857
630.939	0.0171700
631.017	0.0169940
631.096	0.0169917
631.174	0.0170521
631.252	0.0167912
631.330	0.0166492
631.408	0.0166535
631.486	0.0166829
631.564	0.0166367
631.642	0.0165650
631.721	0.0166486
631.799	0.0167052
631.877	0.0167389
631.955	0.0167369
632.033	0.0167145
632.111	0.0166993
632.189	0.0166171
632.267	0.0165800
632.346	0.0166803
632.424	0.0166405
632.502	0.0167849
632.580	0.0166815
632.658	0.0166095
632.736	0.0167178
632.814	0.0167946
632.892	0.0165813
632.971	0.0166083
633.049	0.0164771
633.127	0.0165574
633.205	0.0163450
633.283	0.0164168
633.361	0.0162836
633.439	0.0162337
633.517	0.0161556
633.596	0.0159882
633.674	0.0161421
633.752	0.0160253
633.830	0.0158684
633.908	0.0159263
633.986	0.0159252
634.064	0.0157477
634.142	0.0157520
634.221	0.0157531
634.299	0.0158769
634.377	0.0158038
634.455	0.0156298
634.533	0.0157122
634.611	0.0156441
634.689	0.0154893
634.767	0.0153770
634.846	0.0151424
634.924	0.0150363
635.002	0.0149847
635.080	0.0149653
635.158	0.0149850
635.236	0.0151260
635.314	0.0151788
635.392	0.0151318
635.471	0.0151730
635.549	0.0152538
635.627	0.0153067
635.705	0.0153529
635.783	0.0152261
635.861	0.0152024
635.939	0.0154524
636.017	0.0153472
636.096	0.0153473
636.174	0.0152493
636.252	0.0153912
636.330	0.0153990
636.408	0.0152710
636.486	0.0153714
636.564	0.0153310
636.642	0.0155018
636.721	0.0155331
636.799	0.0156184
636.877	0.0156342
636.955	0.0155666
637.033	0.0156977
637.111	0.0156503
637.189	0.0156814
637.267	0.0153857
637.346	0.0156444
637.424	0.0159130
637.502	0.0156515
637.580	0.0156771
637.658	0.0157922
637.736	0.0156322
637.814	0.0155621
637.892	0.0155871
637.971	0.0157616
638.049	0.0156638
638.127	0.0157032
638.205	0.0155384
638.283	0.0157745
638.361	0.0157732
638.439	0.0157269
638.517	0.0158437
638.596	0.0158292
638.674	0.0158393
638.752	0.0157684
638.830	0.0156417
638.908	0.0158283
638.986	0.0156582
639.064	0.0156852
639.142	0.0156859
639.221	0.0158127
639.299	0.0156435
639.377	0.0155125
639.455	0.0157024
639.533	0.0157151
639.611	0.0157275
639.689	0.0157838
639.767	0.0157306
639.846	0.0159962
639.924	0.0159733
640.002	0.0159314
640.080	0.0158101
640.158	0.0158340
640.236	0.0158728
640.314	0.0159282
640.392	0.0158624
640.471	0.0155766
640.549	0.0156519
640.627	0.0156861
640.705	0.0156664
640.783	0.0154993
640.861	0.0155029
640.939	0.0156457
641.017	0.0156527
641.096	0.0157504
641.174	0.0157252
641.252	0.0157420
641.330	0.0157139
641.408	0.0157604
641.486	0.0159645
641.564	0.0158830
641.642	0.0157855
641.721	0.0160010
641.799	0.0158986
641.877	0.0158212
641.955	0.0158647
642.033	0.0158782
642.111	0.0159098
642.189	0.0157079
642.267	0.0157825
642.346	0.0157388
642.424	0.0158514
642.502	0.0158339
642.580	0.0159413
642.658	0.0158321
642.736	0.0157153
642.814	0.0158790
642.892	0.0160129
642.971	0.0161223
643.049	0.0160338
643.127	0.0161245
643.205	0.0160227
643.283	0.0160027
643.361	0.0158867
643.439	0.0158938
643.517	0.0158112
643.596	0.0157977
643.674	0.0156114
643.752	0.0155532
643.830	0.0155218
643.908	0.0156058
643.986	0.0156290
644.064	0.0157013
644.142	0.0157940
644.221	0.0157555
644.299	0.0156618
644.377	0.0158073
644.455	0.0156418
644.533	0.0157865
644.611	0.0159027
644.689	0.0157967
644.767	0.0159119
644.846	0.0157758
644.924	0.0157071
645.002	0.0157925
645.080	0.0159188
645.158	0.0159759
645.236	0.0159436
645.314	0.0158611
645.392	0.0159857
645.471	0.0160694
645.549	0.0159227
645.627	0.0159374
645.705	0.0159562
645.783	0.0160005
645.861	0.0160567
645.939	0.0159200
646.017	0.0160290
646.096	0.0160255
646.174	0.0158705
646.252	0.0160172
646.330	0.0159765
646.408	0.0159260
646.486	0.0160592
646.564	0.0158500
646.642	0.0160297
646.721	0.0161108
646.799	0.0160592
646.877	0.0160753
646.955	0.0160666
647.033	0.0159975
647.111	0.0159147
647.189	0.0160650
647.267	0.0159026
647.346	0.0160098
647.424	0.0160126
647.502	0.0159995
647.580	0.0158978
647.658	0.0159297
647.736	0.0160677
647.814	0.0161600
647.892	0.0160872
647.971	0.0161913
648.049	0.0161997
648.127	0.0162311
648.205	0.0161655
648.283	0.0160538
648.361	0.0160588
648.439	0.0160411
648.517	0.0160773
648.596	0.0160453
648.674	0.0160606
648.752	0.0160302
648.830	0.0160691
648.908	0.0160635
648.986	0.0160790
649.064	0.0159144
649.142	0.0158840
649.221	0.0159860
649.299	0.0159323
649.377	0.0158784
649.455	0.0159070
649.533	0.0158627
649.611	0.0159116
649.689	0.0159029
649.767	0.0159998
649.846	0.0158704
649.924	0.0160238
650.002	0.0159052
650.080	0.0159078
650.158	0.0159647
650.236	0.0159090
650.314	0.0158649
650.392	0.0160992
650.471	0.0160210
650.549	0.0159732
650.627	0.0161253
650.705	0.0161050
650.783	0.0161681
650.861	0.0160854
650.939	0.0162310
651.017	0.0160439
651.096	0.0161266
651.174	0.0160718
651.252	0.0162383
651.330	0.0161800
651.408	0.0162380
651.486	0.0162642
651.564	0.0160953
651.642	0.0161056
651.721	0.0162076
651.799	0.0160992
651.877	0.0161139
651.955	0.0160712
652.033	0.0160854
652.111	0.0160632
652.189	0.0159398
652.267	0.0159225
652.346	0.0159407
652.424	0.0159151
652.502	0.0159407
652.580	0.0159850
652.658	0.0160772
652.736	0.0159344
652.814	0.0160701
652.892	0.0162356
652.971	0.0161970
653.049	0.0162398
653.127	0.0163184
653.205	0.0162600
653.283	0.0163371
653.361	0.0163034
653.439	0.0161324
653.517	0.0162066
653.596	0.0162469
653.674	0.0162374
653.752	0.0161568
653.830	0.0161958
653.908	0.0160613
653.986	0.0160799
654.064	0.0160306
654.142	0.0160088
654.221	0.0159756
654.299	0.0160347
654.377	0.0159963
654.455	0.0160133
654.533	0.0161360
654.611	0.0161659
654.689	0.0161427
654.767	0.0162446
654.846	0.0161298
654.924	0.0161604
655.002	0.0161795
655.080	0.0162070
655.158	0.0161515
655.236	0.0161877
655.314	0.0161777
655.392	0.0161740
655.471	0.0162250
655.549	0.0162668
655.627	0.0162531
655.705	0.0164092
655.783	0.0163280
655.861	0.0164606
655.939	0.0166233
656.017	0.0167059
656.096	0.0165347
656.174	0.0166710
656.252	0.0166016
656.330	0.0166794
656.408	0.0165357
656.486	0.0167284
656.564	0.0165166
656.642	0.0166312
656.721	0.0165507
656.799	0.0165121
656.877	0.0164080
656.955	0.0162730
657.033	0.0163541
657.111	0.0161772
657.189	0.0162889
657.267	0.0163354
657.346	0.0161779
657.424	0.0161914
657.502	0.0162590
657.580	0.0163333
657.658	0.0162004
657.736	0.0162785
657.814	0.0161006
657.892	0.0161340
657.971	0.0162132
658.049	0.0160715
658.127	0.0160750
658.205	0.0161404
658.283	0.0161764
658.361	0.0160563
658.439	0.0160435
658.517	0.0160503
658.596	0.0161407
658.674	0.0160973
658.752	0.0161301
658.830	0.0162106
658.908	0.0162330
658.986	0.0160877
659.064	0.0161058
659.142	0.0161220
659.221	0.0159660
659.299	0.0159963
659.377	0.0159541
659.455	0.0159377
659.533	0.0159533
659.611	0.0158990
659.689	0.0160632
659.767	0.0158772
659.846	0.0159290
659.924	0.0158736
660.002	0.0157856
660.080	0.0156663
660.158	0.0156239
660.236	0.0154053
660.314	0.0154682
660.392	0.0155470
660.471	0.0153327
660.549	0.0153381
660.627	0.0152389
660.705	0.0151852
660.783	0.0152117
660.861	0.0151219
660.939	0.0151261
661.017	0.0152519
661.096	0.0152893
661.174	0.0152924
661.252	0.0152915
661.330	0.0153474
661.408	0.0155083
661.486	0.0155598
661.564	0.0156271
661.642	0.0154816
661.721	0.0154785
661.799	0.0154152
661.877	0.0154224
661.955	0.0154607
662.033	0.0153681
662.111	0.0154544
662.189	0.0155070
662.267	0.0154459
662.346	0.0154247
662.424	0.0152917
662.502	0.0154404
662.580	0.0154469
662.658	0.0154300
662.736	0.0153222
662.814	0.0154248
662.892	0.0155349
662.971	0.0156097
663.049	0.0154561
663.127	0.0155496
663.205	0.0156709
663.283	0.0155285
663.361	0.0155144
663.439	0.0154992
663.517	0.0155149
663.596	0.0155509
663.674	0.0155316
663.752	0.0154256
663.830	0.0153910
663.908	0.0154452
663.986	0.0155471
664.064	0.0155688
664.142	0.0155664
664.221	0.0156631
664.299	0.0156639
664.377	0.0158517
664.455	0.0159373
664.533	0.0158324
664.611	0.0160235
664.689	0.0161355
664.767	0.0161475
664.846	0.0162829
664.924	0.0163049
665.002	0.0163384
665.080	0.0165015
665.158	0.0164295
665.236	0.0167056
665.314	0.0167960
665.392	0.0165885
665.471	0.0166795
665.549	0.0165652
665.627	0.0166593
665.705	0.0166870
665.783	0.0167369
665.861	0.0167387
665.939	0.0166504
666.017	0.0166240
666.096	0.0167838
666.174	0.0167693
666.252	0.0167544
666.330	0.0167240
666.408	0.0167386
666.486	0.0167070
666.564	0.0167818
666.642	0.0166740
666.721	0.0167834
666.799	0.0168198
666.877	0.0168760
666.955	0.0168913
667.033	0.0167947
667.111	0.0168507
667.189	0.0166024
667.267	0.0165090
667.346	0.0164194
667.424	0.0164046
667.502	0.0163852
667.580	0.0163621
667.658	0.0162251
667.736	0.0162466
667.814	0.0161590
667.892	0.0161443
667.971	0.0160324
668.049	0.0160121
668.127	0.0159787
668.205	0.0159886
668.283	0.0158295
668.361	0.0158665
668.439	0.0159197
668.517	0.0159763
668.596	0.0159297
668.674	0.0160461
668.752	0.0159992
668.830	0.0159137
668.908	0.0159325
668.986	0.0159444
669.064	0.0159280
669.142	0.0158756
669.221	0.0161525
669.299	0.0159578
669.377	0.0161366
669.455	0.0161256
669.533	0.0162392
669.611	0.0163809
669.689	0.0162894
669.767	0.0161904
669.846	0.0163166
669.924	0.0162256
670.002	0.0162637
670.080	0.0161202
670.158	0.0161801
670.236	0.0162438
670.314	0.0162250
670.392	0.0161494
670.471	0.0161430
670.549	0.0161293
670.627	0.0160683
670.705	0.0160398
670.783	0.0159316
670.861	0.0159323
670.939	0.0158907
671.017	0.0160014
671.096	0.0159038
671.174	0.0159305
671.252	0.0159026
671.330	0.0159538
671.408	0.0157846
671.486	0.0157559
671.564	0.0157589
671.642	0.0156965
671.721	0.0156524
671.799	0.0156268
671.877	0.0156390
671.955	0.0155998
672.033	0.0156540
672.111	0.0156306
672.189	0.0155684
672.267	0.0156242
672.346	0.0156858
672.424	0.0157176
672.502	0.0156115
672.580	0.0156813
672.658	0.0156181
672.736	0.0156450
672.814	0.0155505
672.892	0.0155500
672.971	0.0155296
673.049	0.0155215
673.127	0.0156383
673.205	0.0156586
673.283	0.0156767
673.361	0.0157574
673.439	0.0156315
673.517	0.0156981
673.596	0.0155801
673.674	0.0156808
673.752	0.0156922
673.830	0.0156754
673.908	0.0157698
673.986	0.0157659
674.064	0.0156738
674.142	0.0158344
674.221	0.0157730
674.299	0.0158129
674.377	0.0157887
674.455	0.0158376
674.533	0.0157974
674.611	0.0158079
674.689	0.0157487
674.767	0.0157394
674.846	0.0158343
674.924	0.0157920
675.002	0.0158568
675.080	0.0158270
675.158	0.0158513
675.236	0.0158847
675.314	0.0159649
675.392	0.0158340
675.471	0.0160818
675.549	0.0159923
675.627	0.0159396
675.705	0.0158802
675.783	0.0159976
675.861	0.0160806
675.939	0.0160214
676.017	0.0160789
676.096	0.0160326
676.174	0.0161137
676.252	0.0160211
676.330	0.0161755
676.408	0.0162005
676.486	0.0161818
676.564	0.0161414
676.642	0.0161797
676.721	0.0161384
676.799	0.0162407
676.877	0.0162086
676.955	0.0161030
677.033	0.0162270
677.111	0.0162856
677.189	0.0162627
677.267	0.0163040
677.346	0.0161339
677.424	0.0162395
677.502	0.0163469
677.580	0.0163996
677.658	0.0163844
677.736	0.0163954
677.814	0.0163913
677.892	0.0162231
677.971	0.0162546
678.049	0.0163987
678.127	0.0161198
678.205	0.0160487
678.283	0.0161676
678.361	0.0160835
678.439	0.0161634
678.517	0.0160058
678.596	0.0160050
678.674	0.0158861
678.752	0.0157907
678.830	0.0157086
678.908	0.0157085
678.986	0.0156905
679.064	0.0156334
679.142	0.0154226
679.221	0.0155888
679.299	0.0156651
679.377	0.0156487
679.455	0.0156543
679.533	0.0155818
679.611	0.0156921
679.689	0.0156501
679.767	0.0155327
679.846	0.0156950
679.924	0.0157457
680.002	0.0156944
680.080	0.0157625
680.158	0.0157246
680.236	0.0156476
680.314	0.0156623
680.392	0.0156426
680.471	0.0156744
680.549	0.0156057
680.627	0.0155251
680.705	0.0157233
680.783	0.0156916
680.861	0.0155465
680.939	0.0157333
681.017	0.0157920
681.096	0.0157518
681.174	0.0158926
681.252	0.0157529
681.330	0.0159132
681.408	0.0159666
681.486	0.0159634
681.564	0.0159956
681.642	0.0161183
681.721	0.0160684
681.799	0.0161535
681.877	0.0164495
681.955	0.0163682
682.033	0.0162728
682.111	0.0163955
682.189	0.0164006
682.267	0.0163826
682.346	0.0162727
682.424	0.0164000
682.502	0.0163017
682.580	0.0163556
682.658	0.0162560
682.736	0.0162904
682.814	0.0162759
682.892	0.0162808
682.971	0.0161586
683.049	0.0162342
683.127	0.0160571
683.205	0.0159956
683.283	0.0160835
683.361	0.0159761
683.439	0.0159952
683.517	0.0160031
683.596	0.0160953
683.674	0.0160593
683.752	0.0161024
683.830	0.0160686
683.908	0.0160340
683.986	0.0159591
684.064	0.0161109
684.142	0.0162045
684.221	0.0161226
684.299	0.0161403
684.377	0.0159691
684.455	0.0160250
684.533	0.0160095
684.611	0.0159072
684.689	0.0159523
684.767	0.0159534
684.846	0.0158101
684.924	0.0157359
685.002	0.0157168
685.080	0.0155608
685.158	0.0155139
685.236	0.0153724
685.314	0.0153879
685.392	0.0153306
685.471	0.0151713
685.549	0.0152281
685.627	0.0153526
685.705	0.0152112
685.783	0.0151893
685.861	0.0153295
685.939	0.0153704
686.017	0.0153820
686.096	0.0154176
686.174	0.0155595
686.252	0.0155623
686.330	0.0155525
686.408	0.0153894
686.486	0.0153775
686.564	0.0153294
686.642	0.0152772
686.721	0.0151667
686.799	0.0151215
686.877	0.0151360
686.955	0.0151590
687.033	0.0151256
687.111	0.0150333
687.189	0.0152444
687.267	0.0152630
687.346	0.0153757
687.424	0.0153859
687.502	0.0154700
687.580	0.0155387
687.658	0.0157880
687.736	0.0157845
687.814	0.0159150
687.892	0.0161212
687.971	0.0161152
688.049	0.0161616
688.127	0.0162346
688.205	0.0162879
688.283	0.0163231
688.361	0.0163203
688.439	0.0164354
688.517	0.0163025
688.596	0.0163301
688.674	0.0162758
688.752	0.0163318
688.830	0.0162155
688.908	0.0162412
688.986	0.0161461
689.064	0.0160719
689.142	0.0159895
689.221	0.0159218
689.299	0.0158898
689.377	0.0158588
689.455	0.0159624
689.533	0.0158952
689.611	0.0158710
689.689	0.0158405
689.767	0.0159924
689.846	0.0159290
689.924	0.0159082
690.002	0.0159935
690.080	0.0159750
690.158	0.0160371
690.236	0.0161191
690.314	0.0162313
690.392	0.0163426
690.471	0.0163801
690.549	0.0162994
690.627	0.0163613
690.705	0.0164409
690.783	0.0164357
690.861	0.0164034
690.939	0.0164401
691.017	0.0165135
691.096	0.0166203
691.174	0.0164706
691.252	0.0163152
691.330	0.0166198
691.408	0.0165999
691.486	0.0164614
691.564	0.0165572
691.642	0.0164423
691.721	0.0166345
691.799	0.0166003
691.877	0.0166088
691.955	0.0166386
692.033	0.0166994
692.111	0.0165777
692.189	0.0167638
692.267	0.0167426
692.346	0.0166563
692.424	0.0166460
692.502	0.0167065
692.580	0.0166976
692.658	0.0166412
692.736	0.0164938
692.814	0.0165203
692.892	0.0165093
692.971	0.0164333
693.049	0.0164313
693.127	0.0165961
693.205	0.0165215
693.283	0.0164321
693.361	0.0164241
693.439	0.0163348
693.517	0.0164311
693.596	0.0165217
693.674	0.0163841
693.752	0.0165317
693.830	0.0163442
693.908	0.0164429
693.986	0.0163287
694.064	0.0161655
694.142	0.0161108
694.221	0.0161341
694.299	0.0160950
694.377	0.0160109
694.455	0.0160615
694.533	0.0160962
694.611	0.0160220
694.689	0.0160033
694.767	0.0160382
694.846	0.0159941
694.924	0.0160667
695.002	0.0160786
695.080	0.0160493
695.158	0.0159711
695.236	0.0159207
695.314	0.0159747
695.392	0.0159184
695.471	0.0159909
695.549	0.0158818
695.627	0.0158784
695.705	0.0160054
695.783	0.0158434
695.861	0.0158352
695.939	0.0158095
696.017	0.0156500
696.096	0.0156026
696.174	0.0156798
696.252	0.0155080
696.330	0.0155481
696.408	0.0154960
696.486	0.0154465
696.564	0.0154178
696.642	0.0153626
696.721	0.0152801
696.799	0.0152912
696.877	0.0152349
696.955	0.0151393
697.033	0.0151149
697.111	0.0150713
697.189	0.0150993
697.267	0.0150349
697.346	0.0151019
697.424	0.0151295
697.502	0.0152011
697.580	0.0151545
697.658	0.0151370
697.736	0.0153075
697.814	0.0153337
697.892	0.0152585
697.971	0.0152585
698.049	0.0153282
698.127	0.0152789
698.205	0.0154193
698.283	0.0154459
698.361	0.0154582
698.439	0.0153963
698.517	0.0154990
698.596	0.0155418
698.674	0.0156500
698.752	0.0156523
698.830	0.0155698
698.908	0.0156189
698.986	0.0156970
699.064	0.0155706
699.142	0.0156040
699.221	0.0156543
699.299	0.0157575
699.377	0.0157487
699.455	0.0157428
699.533	0.0158063
699.611	0.0157374
699.689	0.0157761
699.767	0.0157774
699.846	0.0158649
699.924	0.0157725
700.002	0.0156775
700.080	0.0157153
700.158	0.0158382
700.236	0.0157819
700.314	0.0158435
700.392	0.0157035
700.471	0.0156472
700.549	0.0157449
700.627	0.0157387
700.705	0.0157813
700.783	0.0158152
700.861	0.0158147
700.939	0.0159354
701.017	0.0158970
701.096	0.0157457
701.174	0.0158910
701.252	0.0157291
701.330	0.0156888
701.408	0.0157719
701.486	0.0156168
701.564	0.0156396
701.642	0.0156382
701.721	0.0157824
701.799	0.0158852
701.877	0.0157809
701.955	0.0158251
702.033	0.0157400
702.111	0.0156310
702.189	0.0159435
702.267	0.0158743
702.346	0.0159360
702.424	0.0159862
702.502	0.0159904
702.580	0.0160661
702.658	0.0160480
702.736	0.0161002
702.814	0.0160969
702.892	0.0162206
702.971	0.0162832
703.049	0.0163303
703.127	0.0163425
703.205	0.0161717
703.283	0.0162617
703.361	0.0163554
703.439	0.0161689
703.517	0.0161737
703.596	0.0161050
703.674	0.0160111
703.752	0.0159799
703.830	0.0158904
703.908	0.0158195
703.986	0.0158184
704.064	0.0158504
704.142	0.0159653
704.221	0.0157742
704.299	0.0155653
704.377	0.0157611
704.455	0.0156903
704.533	0.0158694
704.611	0.0158389
704.689	0.0157363
704.767	0.0158465
704.846	0.0159028
704.924	0.0158363
705.002	0.0158821
705.080	0.0159219
705.158	0.0159145
705.236	0.0158470
705.314	0.0160127
705.392	0.0160171
705.471	0.0159420
705.549	0.0159025
705.627	0.0158671
705.705	0.0159834
705.783	0.0159238
705.861	0.0160614
705.939	0.0158829
706.017	0.0158125
706.096	0.0158372
706.174	0.0158488
706.252	0.0157915
706.330	0.0158282
706.408	0.0159374
706.486	0.0158860
706.564	0.0157728
706.642	0.0158331
706.721	0.0158882
706.799	0.0159845
706.877	0.0159512
706.955	0.0159581
707.033	0.0158111
707.111	0.0159309
707.189	0.0161713
707.267	0.0161891
707.346	0.0160809
707.424	0.0159361
707.502	0.0159514
707.580	0.0160374
707.658	0.0159150
707.736	0.0160191
707.814	0.0157904
707.892	0.0158508
707.971	0.0158392
708.049	0.0157037
708.127	0.0156677
708.205	0.0155452
708.283	0.0156396
708.361	0.0155887
708.439	0.0154828
708.517	0.0156052
708.596	0.0155478
708.674	0.0156478
708.752	0.0156300
708.830	0.0156383
708.908	0.0156210
708.986	0.0158775
709.064	0.0157262
709.142	0.0158072
709.221	0.0160841
709.299	0.0160088
709.377	0.0161139
709.455	0.0162628
709.533	0.0163274
709.611	0.0162241
709.689	0.0163561
709.767	0.0165034
709.846	0.0162990
709.924	0.0164496
710.002	0.0164326
710.080	0.0163756
710.158	0.0164790
710.236	0.0164297
710.314	0.0163721
710.392	0.0162424
710.471	0.0161578
710.549	0.0160361
710.627	0.0159364
710.705	0.0159271
710.783	0.0157940
710.861	0.0155971
710.939	0.0156239
711.017	0.0155341
711.096	0.0155085
711.174	0.0156097
711.252	0.0154865
711.330	0.0154671
711.408	0.0154547
711.486	0.0153507
711.564	0.0153743
711.642	0.0154879
711.721	0.0155254
711.799	0.0154121
711.877	0.0155048
711.955	0.0155586
712.033	0.0155489
712.111	0.0155481
712.189	0.0156477
712.267	0.0156379
712.346	0.0156707
712.424	0.0156961
712.502	0.0158478
712.580	0.0158984
712.658	0.0159949
712.736	0.0160439
712.814	0.0160223
712.892	0.0162800
712.971	0.0162650
713.049	0.0161402
713.127	0.0160583
713.205	0.0162659
713.283	0.0161699
713.361	0.0160088
713.439	0.0158668
713.517	0.0160793
713.596	0.0160244
713.674	0.0160901
713.752	0.0161131
713.830	0.0160000
713.908	0.0160405
713.986	0.0159623
714.064	0.0158531
714.142	0.0158183
714.221	0.0157307
714.299	0.0158338
714.377	0.0157271
714.455	0.0156596
714.533	0.0157343
714.611	0.0156734
714.689	0.0157921
714.767	0.0156533
714.846	0.0157575
714.924	0.0158286
715.002	0.0157402
715.080	0.0156139
715.158	0.0157411
715.236	0.0157156
715.314	0.0157841
715.392	0.0157706
715.471	0.0158705
715.549	0.0159692
715.627	0.0158792
715.705	0.0158570
715.783	0.0158955
715.861	0.0158795
715.939	0.0159299
716.017	0.0159929
716.096	0.0158575
716.174	0.0160262
716.252	0.0160249
716.330	0.0160267
716.408	0.0161539
716.486	0.0162003
716.564	0.0161808
716.642	0.0163484
716.721	0.0163023
716.799	0.0164946
716.877	0.0162772
716.955	0.0163625
717.033	0.0165218
717.111	0.0166731
717.189	0.0167416
717.267	0.0167085
717.346	0.0165993
717.424	0.0168178
717.502	0.0167090
717.580	0.0167732
717.658	0.0167397
717.736	0.0166737
717.814	0.0166628
717.892	0.0167377
717.971	0.0167706
718.049	0.0166995
718.127	0.0166123
718.205	0.0167435
718.283	0.0166133
718.361	0.0164322
718.439	0.0164687
718.517	0.0164075
718.596	0.0163315
718.674	0.0162568
718.752	0.0164153
718.830	0.0162003
718.908	0.0163451
718.986	0.0162195
719.064	0.0160506
719.142	0.0159837
719.221	0.0159818
719.299	0.0158064
719.377	0.0158900
719.455	0.0159205
719.533	0.0158424
719.611	0.0158222
719.689	0.0156891
719.767	0.0156401
719.846	0.0156546
719.924	0.0156559
720.002	0.0155399
720.080	0.0155019
720.158	0.0154769
720.236	0.0154227
720.314	0.0153555
720.392	0.0154083
720.471	0.0153305
720.549	0.0153347
720.627	0.0152067
720.705	0.0153661
720.783	0.0153804
720.861	0.0154382
720.939	0.0154781
721.017	0.0153181
721.096	0.0152335
721.174	0.0153683
721.252	0.0153162
721.330	0.0155074
721.408	0.0155383
721.486	0.0153899
721.564	0.0153397
721.642	0.0152802
721.721	0.0154071
721.799	0.0154021
721.877	0.0153791
721.955	0.0152213
722.033	0.0153906
722.111	0.0154662
722.189	0.0152710
722.267	0.0153068
722.346	0.0154301
722.424	0.0153378
722.502	0.0152121
722.580	0.0153604
722.658	0.0153124
722.736	0.0153957
722.814	0.0155090
722.892	0.0155378
722.971	0.0155829
723.049	0.0157545
723.127	0.0155920
723.205	0.0155959
723.283	0.0157975
723.361	0.0156918
723.439	0.0157018
723.517	0.0159084
723.596	0.0158890
723.674	0.0157700
723.752	0.0159301
723.830	0.0158993
723.908	0.0159589
723.986	0.0159815
724.064	0.0160646
724.142	0.0161829
724.221	0.0163483
724.299	0.0162645
724.377	0.0162514
724.455	0.0161780
724.533	0.0162596
724.611	0.0162510
724.689	0.0162231
724.767	0.0161724
724.846	0.0162715
724.924	0.0162014
725.002	0.0160442
725.080	0.0160408
725.158	0.0160577
725.236	0.0159930
725.314	0.0159090
725.392	0.0158665
725.471	0.0157771
725.549	0.0157307
725.627	0.0157359
725.705	0.0156816
725.783	0.0157169
725.861	0.0156154
725.939	0.0155947
726.017	0.0155116
726.096	0.0156016
726.174	0.0157789
726.252	0.0155819
726.330	0.0155711
726.408	0.0156330
726.486	0.0156476
726.564	0.0156688
726.642	0.0158169
726.721	0.0156244
726.799	0.0158063
726.877	0.0158465
726.955	0.0158840
727.033	0.0158058
727.111	0.0158707
727.189	0.0158305
727.267	0.0157357
727.346	0.0158558
727.424	0.0160413
727.502	0.0159213
727.580	0.0158932
727.658	0.0161097
727.736	0.0159340
727.814	0.0160363
727.892	0.0160416
727.971	0.0159818
728.049	0.0161803
728.127	0.0159521
728.205	0.0159063
728.283	0.0160714
728.361	0.0159647
728.439	0.0161496
728.517	0.0161404
728.596	0.0159725
728.674	0.0160386
728.752	0.0161508
728.830	0.0162658
728.908	0.0162726
728.986	0.0161540
729.064	0.0161765
729.142	0.0162142
729.221	0.0162007
729.299	0.0161334
729.377	0.0161440
729.455	0.0161189
729.533	0.0161867
729.611	0.0161052
729.689	0.0162283
729.767	0.0161848
729.846	0.0161943
729.924	0.0162206
730.002	0.0161568
730.080	0.0161976
730.158	0.0161591
730.236	0.0161090
730.314	0.0163047
730.392	0.0163531
730.471	0.0162411
730.549	0.0162834
730.627	0.0162339
730.705	0.0162868
730.783	0.0163209
730.861	0.0163657
730.939	0.0163075
731.017	0.0164277
731.096	0.0163683
731.174	0.0163131
731.252	0.0164148
731.330	0.0164336
731.408	0.0164033
731.486	0.0164616
731.564	0.0164349
731.642	0.0163851
731.721	0.0163074
731.799	0.0162383
731.877	0.0161470
731.955	0.0162955
732.033	0.0161655
732.111	0.0161587
732.189	0.0162433
732.267	0.0161863
732.346	0.0160885
732.424	0.0159515
732.502	0.0160721
732.580	0.0159179
732.658	0.0159605
732.736	0.0159399
732.814	0.0159563
732.892	0.0159116
732.971	0.0160839
733.049	0.0159969
733.127	0.0160235
733.205	0.0159972
733.283	0.0161121
733.361	0.0159972
733.439	0.0162274
733.517	0.0161076
733.596	0.0161838
733.674	0.0161976
733.752	0.0162050
733.830	0.0162672
733.908	0.0162670
733.986	0.0163773
734.064	0.0164159
734.142	0.0163871
734.221	0.0163076
734.299	0.0165079
734.377	0.0164062
734.455	0.0163165
734.533	0.0164945
734.611	0.0164070
734.689	0.0163628
734.767	0.0164043
734.846	0.0163282
734.924	0.0162981
735.002	0.0161942
735.080	0.0163148
735.158	0.0163069
735.236	0.0163305
735.314	0.0163245
735.392	0.0163007
735.471	0.0163541
735.549	0.0162660
735.627	0.0163012
735.705	0.0162954
735.783	0.0164125
735.861	0.0162340
735.939	0.0163087
736.017	0.0163745
736.096	0.0163607
736.174	0.0163834
736.252	0.0164069
736.330	0.0163946
736.408	0.0162816
736.486	0.0162329
736.564	0.0163247
736.642	0.0162077
736.721	0.0161468
736.799	0.0161229
736.877	0.0161276
736.955	0.0160516
737.033	0.0161484
737.111	0.0159017
737.189	0.0159928
737.267	0.0160361
737.346	0.0160005
737.424	0.0161186
737.502	0.0160634
737.580	0.0159927
737.658	0.0160743
737.736	0.0162834
737.814	0.0161751
737.892	0.0161449
737.971	0.0161362
738.049	0.0162510
738.127	0.0162550
738.205	0.0162640
738.283	0.0162802
738.361	0.0163336
738.439	0.0163692
738.517	0.0163346
738.596	0.0163670
738.674	0.0163580
738.752	0.0162699
738.830	0.0163069
738.908	0.0162306
738.986	0.0164333
739.064	0.0163694
739.142	0.0163309
739.221	0.0162421
739.299	0.0161253
739.377	0.0161280
739.455	0.0161320
739.533	0.0161846
739.611	0.0160907
739.689	0.0160719
739.767	0.0162111
739.846	0.0160116
739.924	0.0159667
740.002	0.0158833
740.080	0.0159405
740.158	0.0158729
740.236	0.0157853
740.314	0.0157648
740.392	0.0158132
740.471	0.0158772
740.549	0.0157065
740.627	0.0157037
740.705	0.0158118
740.783	0.0158102
740.861	0.0158305
740.939	0.0158635
741.017	0.0158415
741.096	0.0159176
741.174	0.0159139
741.252	0.0159912
741.330	0.0158731
741.408	0.0160191
741.486	0.0160650
741.564	0.0162393
741.642	0.0164017
741.721	0.0162797
741.799	0.0163811
741.877	0.0164301
741.955	0.0163071
742.033	0.0164991
742.111	0.0166196
742.189	0.0165192
742.267	0.0165254
742.346	0.0166904
742.424	0.0165887
742.502	0.0167868
742.580	0.0166779
742.658	0.0165462
742.736	0.0164005
742.814	0.0164196
742.892	0.0164709
742.971	0.0164207
743.049	0.0163851
743.127	0.0163082
743.205	0.0163716
743.283	0.0162463
743.361	0.0162195
743.439	0.0162053
743.517	0.0160059
743.596	0.0159006
743.674	0.0160144
743.752	0.0158797
743.830	0.0159319
743.908	0.0158686
743.986	0.0160676
744.064	0.0159077
744.142	0.0159377
744.221	0.0158571
744.299	0.0158489
744.377	0.0158302
744.455	0.0158575
744.533	0.0158784
744.611	0.0159027
744.689	0.0159393
744.767	0.0158379
744.846	0.0159116
744.924	0.0158938
745.002	0.0158798
745.080	0.0157220
745.158	0.0157249
745.236	0.0158585
745.314	0.0157051
745.392	0.0157272
745.471	0.0157053
745.549	0.0154685
745.627	0.0154890
745.705	0.0154849
745.783	0.0155807
745.861	0.0155401
745.939	0.0156596
746.017	0.0156222
746.096	0.0156957
746.174	0.0154704
746.252	0.0156301
746.330	0.0156507
746.408	0.0155196
746.486	0.0156338
746.564	0.0155612
746.642	0.0157045
746.721	0.0156845
746.799	0.0155620
746.877	0.0156124
746.955	0.0155647
747.033	0.0154597
747.111	0.0155900
747.189	0.0155756
747.267	0.0154574
747.346	0.0155690
747.424	0.0156864
747.502	0.0155199
747.580	0.0154641
747.658	0.0154008
747.736	0.0154491
747.814	0.0154585
747.892	0.0154886
747.971	0.0153170
748.049	0.0152691
748.127	0.0152529
748.205	0.0152250
748.283	0.0153318
748.361	0.0153574
748.439	0.0152366
748.517	0.0153220
748.596	0.0152930
748.674	0.0152493
748.752	0.0153426
748.830	0.0153825
748.908	0.0153260
748.986	0.0155091
749.064	0.0154616
749.142	0.0153677
749.221	0.0155409
749.299	0.0154748
749.377	0.0154740
749.455	0.0157661
749.533	0.0157238
749.611	0.0156290
749.689	0.0157285
749.767	0.0157838
749.846	0.0158308
749.924	0.0157633
750.002	0.0158829
750.080	0.0158762
750.158	0.0158912
750.236	0.0158158
750.314	0.0158122
750.392	0.0159763
750.471	0.0159301
750.549	0.0158541
750.627	0.0158408
750.705	0.0159110
750.783	0.0159447
750.861	0.0158934
750.939	0.0158683
751.017	0.0160005
751.096	0.0158740
751.174	0.0159830
751.252	0.0158994
751.330	0.0160130
751.408	0.0161485
751.486	0.0160310
751.564	0.0160542
751.642	0.0160562
751.721	0.0161865
751.799	0.0161852
751.877	0.0163060
751.955	0.0163434
752.033	0.0162646
752.111	0.0163512
752.189	0.0162880
752.267	0.0163284
752.346	0.0163790
752.424	0.0162105
752.502	0.0161855
752.580	0.0162498
752.658	0.0162698
752.736	0.0161767
752.814	0.0160966
752.892	0.0160759
752.971	0.0161943
753.049	0.0162626
753.127	0.0162796
753.205	0.0161507
753.283	0.0162688
753.361	0.0164484
753.439	0.0165322
753.517	0.0165936
753.596	0.0166727
753.674	0.0166255
753.752	0.0167147
753.830	0.0167175
753.908	0.0167525
753.986	0.0168674
754.064	0.0169695
754.142	0.0168027
754.221	0.0168559
754.299	0.0169706
754.377	0.0170724
754.455	0.0168993
754.533	0.0166019
754.611	0.0168871
754.689	0.0167638
754.767	0.0167336
754.846	0.0167577
754.924	0.0166724
755.002	0.0167019
755.080	0.0166355
755.158	0.0168074
755.236	0.0165409
755.314	0.0165807
755.392	0.0165368
755.471	0.0166275
755.549	0.0166547
755.627	0.0167771
755.705	0.0168563
755.783	0.0166732
755.861	0.0166624
755.939	0.0164876
756.017	0.0166082
756.096	0.0166016
756.174	0.0165734
756.252	0.0163420
756.330	0.0162428
756.408	0.0162009
756.486	0.0160357
756.564	0.0159980
756.642	0.0158060
756.721	0.0156686
756.799	0.0156657
756.877	0.0155919
756.955	0.0153716
757.033	0.0153484
757.111	0.0154717
757.189	0.0156046
757.267	0.0155433
757.346	0.0153894
757.424	0.0155653
757.502	0.0157152
757.580	0.0155376
757.658	0.0157523
757.736	0.0158656
757.814	0.0159450
757.892	0.0161151
757.971	0.0162286
758.049	0.0163069
758.127	0.0163601
758.205	0.0162549
758.283	0.0164341
758.361	0.0163978
758.439	0.0162922
758.517	0.0163815
758.596	0.0163606
758.674	0.0162671
758.752	0.0162206
758.830	0.0163076
758.908	0.0162376
758.986	0.0161867
759.064	0.0161694
759.142	0.0162777
759.221	0.0163783
759.299	0.0165018
759.377	0.0164834
759.455	0.0165424
759.533	0.0165920
759.611	0.0165849
759.689	0.0167604
759.767	0.0167073
759.846	0.0167528
759.924	0.0166840
760.002	0.0166103
760.080	0.0165856
760.158	0.0164027
760.236	0.0162270
760.314	0.0162236
760.392	0.0161620
760.471	0.0161234
760.549	0.0159836
760.627	0.0157977
760.705	0.0157121
760.783	0.0156818
760.861	0.0155585
760.939	0.0154298
761.017	0.0153707
761.096	0.0153833
761.174	0.0151570
761.252	0.0152287
761.330	0.0151068
761.408	0.0149880
761.486	0.0152167
761.564	0.0149220
761.642	0.0149390
761.721	0.0150488
761.799	0.0152310
761.877	0.0150970
761.955	0.0151743
762.033	0.0151277
762.111	0.0153576
762.189	0.0152953
762.267	0.0156744
762.346	0.0156322
762.424	0.0156217
762.502	0.0157542
762.580	0.0158248
762.658	0.0157981
762.736	0.0159222
762.814	0.0160182
762.892	0.0160825
762.971	0.0161656
763.049	0.0161331
763.127	0.0163341
763.205	0.0162588
763.283	0.0163287
763.361	0.0163329
763.439	0.0163696
763.517	0.0164302
763.596	0.0164677
763.674	0.0163602
763.752	0.0164180
763.830	0.0164351
763.908	0.0164945
763.986	0.0164841
764.064	0.0163025
764.142	0.0163404
764.221	0.0163712
764.299	0.0164073
764.377	0.0162605
764.455	0.0162634
764.533	0.0162406
764.611	0.0162828
764.689	0.0162243
764.767	0.0161325
764.846	0.0161170
764.924	0.0159715
765.002	0.0159075
765.080	0.0157948
765.158	0.0159306
765.236	0.0159204
765.314	0.0157617
765.392	0.0157590
765.471	0.0157614
765.549	0.0157219
765.627	0.0155521
765.705	0.0155833
765.783	0.0155072
765.861	0.0155094
765.939	0.0154662
766.017	0.0155314
766.096	0.0155720
766.174	0.0156018
766.252	0.0154962
766.330	0.0156184
766.408	0.0154263
766.486	0.0156746
766.564	0.0156308
766.642	0.0156711
766.721	0.0156532
766.799	0.0156627
766.877	0.0157561
766.955	0.0157509
767.033	0.0157990
767.111	0.0158609
767.189	0.0158303
767.267	0.0158730
767.346	0.0158162
767.424	0.0159114
767.502	0.0159452
767.580	0.0158493
767.658	0.0159402
767.736	0.0159467
767.814	0.0158918
767.892	0.0160503
767.971	0.0160372
768.049	0.0160242
768.127	0.0159059
768.205	0.0159469
768.283	0.0160634
768.361	0.0160070
768.439	0.0158565
768.517	0.0159657
768.596	0.0160973
768.674	0.0160764
768.752	0.0161205
768.830	0.0161440
768.908	0.0161366
768.986	0.0162270
769.064	0.0160870
769.142	0.0162370
769.221	0.0163028
769.299	0.0161176
769.377	0.0161414
769.455	0.0161385
769.533	0.0161877
769.611	0.0162423
769.689	0.0160699
769.767	0.0160477
769.846	0.0161086
769.924	0.0159939
770.002	0.0159864
770.080	0.0158453
770.158	0.0159264
770.236	0.0160191
770.314	0.0159147
770.392	0.0158545
770.471	0.0159118
770.549	0.0158936
770.627	0.0158345
770.705	0.0159310
770.783	0.0158652
770.861	0.0158030
770.939	0.0159362
771.017	0.0158199
771.096	0.0157224
771.174	0.0157692
771.252	0.0158555
771.330	0.0157133
771.408	0.0156220
771.486	0.0157563
771.564	0.0156171
771.642	0.0155722
771.721	0.0156713
771.799	0.0154572
771.877	0.0155022
771.955	0.0154680
772.033	0.0156631
772.111	0.0153338
772.189	0.0155438
772.267	0.0155688
772.346	0.0155499
772.424	0.0156765
772.502	0.0155962
772.580	0.0157658
772.658	0.0157066
772.736	0.0157445
772.814	0.0155265
772.892	0.0157671
772.971	0.0157114
773.049	0.0156961
773.127	0.0156945
773.205	0.0157034
773.283	0.0158796
773.361	0.0158870
773.439	0.0156480
773.517	0.0158192
773.596	0.0157467
773.674	0.0156943
773.752	0.0156835
773.830	0.0157471
773.908	0.0158105
773.986	0.0156770
774.064	0.0157815
774.142	0.0159472
774.221	0.0159602
774.299	0.0158866
774.377	0.0159191
774.455	0.0159566
774.533	0.0158994
774.611	0.0158659
774.689	0.0159229
774.767	0.0159785
774.846	0.0158581
774.924	0.0157787
775.002	0.0157748
775.080	0.0158512
775.158	0.0157005
775.236	0.0157888
775.314	0.0157237
775.392	0.0155851
775.471	0.0157635
775.549	0.0155544
775.627	0.0155592
775.705	0.0156517
775.783	0.0158342
775.861	0.0157473
775.939	0.0157211
776.017	0.0157497
776.096	0.0158267
776.174	0.0158150
776.252	0.0157974
776.330	0.0158535
776.408	0.0157730
776.486	0.0158916
776.564	0.0156573
776.642	0.0156136
776.721	0.0156287
776.799	0.0156945
776.877	0.0156872
776.955	0.0154961
777.033	0.0157207
777.111	0.0155180
777.189	0.0154780
777.267	0.0153548
777.346	0.0155411
777.424	0.0154974
777.502	0.0155685
777.580	0.0154051
777.658	0.0154989
777.736	0.0155876
777.814	0.0155707
777.892	0.0155318
777.971	0.0156553
778.049	0.0155935
778.127	0.0156299
778.205	0.0157000
778.283	0.0158553
778.361	0.0157479
778.439	0.0157415
778.517	0.0158367
778.596	0.0158065
778.674	0.0158834
778.752	0.0159196
778.830	0.0159378
778.908	0.0161340
778.986	0.0160369
779.064	0.0159210
779.142	0.0161962
779.221	0.0159527
779.299	0.0161658
779.377	0.0160919
779.455	0.0162651
779.533	0.0162914
779.611	0.0163230
779.689	0.0162722
779.767	0.0164328
779.846	0.0166022
779.924	0.0165585
780.002	0.0167819
780.080	0.0165730
780.158	0.0167497
780.236	0.0167440
780.314	0.0166477
780.392	0.0167178
780.471	0.0166944
780.549	0.0166142
780.627	0.0166962
780.705	0.0166308
780.783	0.0166396
780.861	0.0164790
780.939	0.0164568
781.017	0.0164383
781.096	0.0164103
781.174	0.0163951
781.252	0.0164534
781.330	0.0163254
781.408	0.0163958
781.486	0.0163756
781.564	0.0163416
781.642	0.0162762
781.721	0.0163498
781.799	0.0163428
781.877	0.0163463
781.955	0.0161777
782.033	0.0160596
782.111	0.0160583
782.189	0.0156594
782.267	0.0155548
782.346	0.0153512
782.424	0.0154110
782.502	0.0152925
782.580	0.0151451
782.658	0.0150798
782.736	0.0151675
782.814	0.0151129
782.892	0.0153094
782.971	0.0151673
783.049	0.0152335
783.127	0.0154250
783.205	0.0153939
783.283	0.0155834
783.361	0.0157458
783.439	0.0157269
783.517	0.0157829
783.596	0.0159267
783.674	0.0159649
783.752	0.0162123
783.830	0.0160368
783.908	0.0163011
783.986	0.0164265
784.064	0.0164877
784.142	0.0166602
784.221	0.0166039
784.299	0.0165742
784.377	0.0167503
784.455	0.0166480
784.533	0.0167289
784.611	0.0167979
784.689	0.0167848
784.767	0.0167647
784.846	0.0166665
784.924	0.0167289
785.002	0.0165983
785.080	0.0164327
785.158	0.0165453
785.236	0.0163019
785.314	0.0164017
785.392	0.0163218
785.471	0.0163639
785.549	0.0161911
785.627	0.0159944
785.705	0.0160089
785.783	0.0158630
785.861	0.0159306
785.939	0.0158590
786.017	0.0156270
786.096	0.0155733
786.174	0.0154754
786.252	0.0154586
786.330	0.0153405
786.408	0.0152809
786.486	0.0151932
786.564	0.0152235
786.642	0.0150201
786.721	0.0151196
786.799	0.0150594
786.877	0.0151817
786.955	0.0153165
787.033	0.0151684
787.111	0.0153408
787.189	0.0151130
787.267	0.0152851
787.346	0.0152417
787.424	0.0152962
787.502	0.0155482
787.580	0.0153468
787.658	0.0152734
787.736	0.0154437
787.814	0.0156397
787.892	0.0156066
787.971	0.0155672
788.049	0.0155017
788.127	0.0157272
788.205	0.0156396
788.283	0.0154926
788.361	0.0157302
788.439	0.0157056
788.517	0.0155509
788.596	0.0156601
788.674	0.0157180
788.752	0.0155280
788.830	0.0156912
788.908	0.0155701
788.986	0.0155485
789.064	0.0155413
789.142	0.0155566
789.221	0.0156150
789.299	0.0155186
789.377	0.0155660
789.455	0.0155969
789.533	0.0156514
789.611	0.0155763
789.689	0.0154351
789.767	0.0154185
789.846	0.0154903
789.924	0.0155595
790.002	0.0155526
790.080	0.0154530
790.158	0.0154073
790.236	0.0154440
790.314	0.0152357
790.392	0.0152474
790.471	0.0152365
790.549	0.0151905
790.627	0.0151751
790.705	0.0152580
790.783	0.0152154
790.861	0.0149672
790.939	0.0149372
791.017	0.0149581
791.096	0.0151002
791.174	0.0151361
791.252	0.0151720
791.330	0.0152416
791.408	0.0153957
791.486	0.0154706
791.564	0.0152378
791.642	0.0155313
791.721	0.0156342
791.799	0.0157038
791.877	0.0155949
791.955	0.0155804
792.033	0.0158210
792.111	0.0158113
792.189	0.0158305
792.267	0.0159804
792.346	0.0161256
792.424	0.0160748
792.502	0.0160525
792.580	0.0161509
792.658	0.0162290
792.736	0.0161526
792.814	0.0161697
792.892	0.0162482
792.971	0.0162956
793.049	0.0162901
793.127	0.0163547
793.205	0.0162479
793.283	0.0162644
793.361	0.0163580
793.439	0.0164782
793.517	0.0164575
793.596	0.0165852
793.674	0.0165054
793.752	0.0162675
793.830	0.0164458
793.908	0.0163859
793.986	0.0165481
794.064	0.0164635
794.142	0.0165033
794.221	0.0164877
794.299	0.0165154
794.377	0.0165701
794.455	0.0164338
794.533	0.0163774
794.611	0.0166115
794.689	0.0165045
794.767	0.0166344
794.846	0.0165327
794.924	0.0165820
795.002	0.0167333
795.080	0.0166898
795.158	0.0165423
795.236	0.0165524
795.314	0.0167073
795.392	0.0166245
795.471	0.0165553
795.549	0.0164410
795.627	0.0163313
795.705	0.0163571
795.783	0.0162997
795.861	0.0161509
795.939	0.0160089
796.017	0.0160696
796.096	0.0161756
796.174	0.0162019
796.252	0.0162027
796.330	0.0163232
796.408	0.0163119
796.486	0.0162739
796.564	0.0163231
796.642	0.0162111
796.721	0.0162433
796.799	0.0161909
796.877	0.0160355
796.955	0.0160713
797.033	0.0158756
797.111	0.0157814
797.189	0.0156547
797.267	0.0156095
797.346	0.0156193
797.424	0.0155054
797.502	0.0155489
797.580	0.0153754
797.658	0.0155756
797.736	0.0155094
797.814	0.0154276
797.892	0.0156356
797.971	0.0155524
798.049	0.0154648
798.127	0.0155829
798.205	0.0154406
798.283	0.0155460
798.361	0.0156237
798.439	0.0156995
798.517	0.0157987
798.596	0.0156855
798.674	0.0156468
798.752	0.0157546
798.830	0.0157752
798.908	0.0158440
798.986	0.0157652
799.064	0.0159494
799.142	0.0159180
799.221	0.0158691
799.299	0.0159394
799.377	0.0160025
799.455	0.0159174
799.533	0.0159183
799.611	0.0160421
799.689	0.0160945
799.767	0.0160364
799.846	0.0162168
799.924	0.0163293
800.002	0.0163015
800.080	0.0162068
800.158	0.0162978
800.236	0.0164940
800.314	0.0162667
800.392	0.0164494
800.471	0.0165240
800.549	0.0163866
800.627	0.0164922
800.705	0.0163844
800.783	0.0164512
800.861	0.0165092
800.939	0.0164781
801.017	0.0162405
801.096	0.0163209
801.174	0.0163615
801.252	0.0163159
801.330	0.0162641
801.408	0.0163300
801.486	0.0161411
801.564	0.0162222
801.642	0.0161442
801.721	0.0159943
801.799	0.0161752
801.877	0.0159777
801.955	0.0160263
802.033	0.0160517
802.111	0.0159583
802.189	0.0160464
802.267	0.0160121
802.346	0.0160101
802.424	0.0160428
802.502	0.0159972
802.580	0.0159864
802.658	0.0160637
802.736	0.0159585
802.814	0.0159679
802.892	0.0159956
802.971	0.0160201
803.049	0.0160114
803.127	0.0159316
803.205	0.0159134
803.283	0.0159202
803.361	0.0157536
803.439	0.0157204
803.517	0.0156425
803.596	0.0156670
803.674	0.0156880
803.752	0.0157133
803.830	0.0156080
803.908	0.0157564
803.986	0.0155105
804.064	0.0154702
804.142	0.0156342
804.221	0.0154983
804.299	0.0155712
804.377	0.0153336
804.455	0.0153601
804.533	0.0154164
804.611	0.0153246
804.689	0.0154462
804.767	0.0154711
804.846	0.0155022
804.924	0.0155690
805.002	0.0154981
805.080	0.0154623
805.158	0.0153328
805.236	0.0153751
805.314	0.0152708
805.392	0.0153309
805.471	0.0150757
805.549	0.0152173
805.627	0.0151843
805.705	0.0151171
805.783	0.0152592
805.861	0.0152654
805.939	0.0152808
806.017	0.0153230
806.096	0.0154022
806.174	0.0154848
806.252	0.0153787
806.330	0.0155981
806.408	0.0154356
806.486	0.0154985
806.564	0.0157422
806.642	0.0159659
806.721	0.0159144
806.799	0.0160664
806.877	0.0160940
806.955	0.0162042
807.033	0.0161236
807.111	0.0161629
807.189	0.0162826
807.267	0.0162711
807.346	0.0162770
807.424	0.0162612
807.502	0.0163587
807.580	0.0163496
807.658	0.0163533
807.736	0.0163878
807.814	0.0163831
807.892	0.0163734
807.971	0.0164140
808.049	0.0164031
808.127	0.0163299
808.205	0.0163703
808.283	0.0161964
808.361	0.0161364
808.439	0.0162379
808.517	0.0162049
808.596	0.0160848
808.674	0.0159803
808.752	0.0160927
808.830	0.0161168
808.908	0.0160162
808.986	0.0160068
809.064	0.0157665
809.142	0.0157607
809.221	0.0158773
809.299	0.0158408
809.377	0.0157120
809.455	0.0156878
809.533	0.0156551
809.611	0.0157504
809.689	0.0157090
809.767	0.0154501
809.846	0.0155830
809.924	0.0155193
810.002	0.0154948
810.080	0.0155072
810.158	0.0155344
810.236	0.0156409
810.314	0.0154234
810.392	0.0155893
810.471	0.0155400
810.549	0.0158444
810.627	0.0157603
810.705	0.0159617
810.783	0.0158359
810.861	0.0159509
810.939	0.0159337
811.017	0.0160531
811.096	0.0159970
811.174	0.0159803
811.252	0.0161391
811.330	0.0162196
811.408	0.0160635
811.486	0.0160976
811.564	0.0162898
811.642	0.0159294
811.721	0.0161064
811.799	0.0162384
811.877	0.0161420
811.955	0.0161266
812.033	0.0161167
812.111	0.0159619
812.189	0.0160799
812.267	0.0159782
812.346	0.0158875
812.424	0.0158723
812.502	0.0158630
812.580	0.0158662
812.658	0.0159161
812.736	0.0158099
812.814	0.0158147
812.892	0.0157600
812.971	0.0157983
813.049	0.0157988
813.127	0.0156782
813.205	0.0158043
813.283	0.0156395
813.361	0.0157496
813.439	0.0157295
813.517	0.0155864
813.596	0.0155733
813.674	0.0155719
813.752	0.0156284
813.830	0.0154969
813.908	0.0155387
813.986	0.0154786
814.064	0.0153751
814.142	0.0154166
814.221	0.0152772
814.299	0.0153282
814.377	0.0153964
814.455	0.0155270
814.533	0.0154178
814.611	0.0155229
814.689	0.0154041
814.767	0.0152251
814.846	0.0154929
814.924	0.0157735
815.002	0.0156928
815.080	0.0158145
815.158	0.0157413
815.236	0.0157611
815.314	0.0159024
815.392	0.0158852
815.471	0.0159692
815.549	0.0157774
815.627	0.0159073
815.705	0.0159794
815.783	0.0159872
815.861	0.0159447
815.939	0.0159578
816.017	0.0159444
816.096	0.0159579
816.174	0.0160060
816.252	0.0158388
816.330	0.0159021
816.408	0.0158842
816.486	0.0161112
816.564	0.0161283
816.642	0.0160286
816.721	0.0161239
816.799	0.0160587
816.877	0.0161447
816.955	0.0160949
817.033	0.0161238
817.111	0.0160805
817.189	0.0161326
817.267	0.0163488
817.346	0.0161830
817.424	0.0161687
817.502	0.0161890
817.580	0.0161349
817.658	0.0162388
817.736	0.0162378
817.814	0.0162869
817.892	0.0164388
817.971	0.0163209
818.049	0.0163861
818.127	0.0162858
818.205	0.0161845
818.283	0.0162949
818.361	0.0162736
818.439	0.0161339
818.517	0.0162662
818.596	0.0161227
818.674	0.0160899
818.752	0.0161514
818.830	0.0162240
818.908	0.0162894
818.986	0.0160488
819.064	0.0161317
819.142	0.0160940
819.221	0.0161654
819.299	0.0162420
819.377	0.0163715
819.455	0.0162357
819.533	0.0163143
819.611	0.0162605
819.689	0.0163689
819.767	0.0163338
819.846	0.0163545
819.924	0.0163813
820.002	0.0162324
820.080	0.0163021
820.158	0.0163300
820.236	0.0162333
820.314	0.0163854
820.392	0.0163248
820.471	0.0163242
820.549	0.0162508
820.627	0.0163407
820.705	0.0162138
820.783	0.0162376
820.861	0.0161939
820.939	0.0163328
821.017	0.0162144
821.096	0.0163249
821.174	0.0162614
821.252	0.0162656
821.330	0.0163653
821.408	0.0162910
821.486	0.0160810
821.564	0.0163158
821.642	0.0162947
821.721	0.0162804
821.799	0.0162199
821.877	0.0162845
821.955	0.0162711
822.033	0.0161851
822.111	0.0162502
822.189	0.0163662
822.267	0.0160973
822.346	0.0161420
822.424	0.0160428
822.502	0.0159947
822.580	0.0160175
822.658	0.0159096
822.736	0.0158738
822.814	0.0159342
822.892	0.0157262
822.971	0.0157462
823.049	0.0157757
823.127	0.0156973
823.205	0.0157955
823.283	0.0157741
823.361	0.0157453
823.439	0.0157272
823.517	0.0157566
823.596	0.0157395
823.674	0.0155976
823.752	0.0156530
823.830	0.0156984
823.908	0.0155135
823.986	0.0156484
824.064	0.0158540
824.142	0.0158278
824.221	0.0158624
824.299	0.0159499
824.377	0.0157798
824.455	0.0157922
824.533	0.0158282
824.611	0.0157175
824.689	0.0157433
824.767	0.0159207
824.846	0.0157749
824.924	0.0157031
825.002	0.0158077
825.080	0.0158192
825.158	0.0159224
825.236	0.0157948
825.314	0.0156474
825.392	0.0158940
825.471	0.0157346
825.549	0.0157801
825.627	0.0157871
825.705	0.0158284
825.783	0.0158987
825.861	0.0158581
825.939	0.0158501
826.017	0.0158339
826.096	0.0157618
826.174	0.0159384
826.252	0.0159828
826.330	0.0159634
826.408	0.0160249
826.486	0.0159778
826.564	0.0160359
826.642	0.0160130
826.721	0.0160746
826.799	0.0160101
826.877	0.0161784
826.955	0.0160934
827.033	0.0160158
827.111	0.0159142
827.189	0.0159690
827.267	0.0160857
827.346	0.0159631
827.424	0.0159125
827.502	0.0159319
827.580	0.0158685
827.658	0.0156748
827.736	0.0156451
827.814	0.0157240
827.892	0.0156234
827.971	0.0156975
828.049	0.0157275
828.127	0.0157156
828.205	0.0157356
828.283	0.0155058
828.361	0.0156561
828.439	0.0156367
828.517	0.0157101
828.596	0.0157331
828.674	0.0157661
828.752	0.0156755
828.830	0.0156909
828.908	0.0157996
828.986	0.0157214
829.064	0.0158257
829.142	0.0158363
829.221	0.0159008
829.299	0.0158791
829.377	0.0158936
829.455	0.0158939
829.533	0.0159633
829.611	0.0157923
829.689	0.0158298
829.767	0.0157898
829.846	0.0158262
829.924	0.0158482
830.002	0.0157495
830.080	0.0156025
830.158	0.0156059
830.236	0.0156670
830.314	0.0156536
830.392	0.0155129
830.471	0.0154578
830.549	0.0154317
830.627	0.0154636
830.705	0.0156815
830.783	0.0155824
830.861	0.0156940
830.939	0.0156264
831.017	0.0157871
831.096	0.0159010
831.174	0.0158755
831.252	0.0159521
831.330	0.0160052
831.408	0.0162376
831.486	0.0162159
831.564	0.0162646
831.642	0.0162576
831.721	0.0164211
831.799	0.0163683
831.877	0.0163169
831.955	0.0164722
832.033	0.0164799
832.111	0.0164834
832.189	0.0165060
832.267	0.0165781
832.346	0.0167030
832.424	0.0165585
832.502	0.0165466
832.580	0.0165913
832.658	0.0165569
832.736	0.0165582
832.814	0.0164849
832.892	0.0164610
832.971	0.0165431
833.049	0.0166142
833.127	0.0164080
833.205	0.0163156
833.283	0.0162917
833.361	0.0162057
833.439	0.0162183
833.517	0.0162196
833.596	0.0161778
833.674	0.0160716
833.752	0.0162417
833.830	0.0161031
833.908	0.0159483
833.986	0.0160243
834.064	0.0161084
834.142	0.0160195
834.221	0.0161792
834.299	0.0160847
834.377	0.0160912
834.455	0.0160426
834.533	0.0160360
834.611	0.0160509
834.689	0.0160111
834.767	0.0160291
834.846	0.0160606
834.924	0.0161932
835.002	0.0161115
835.080	0.0159280
835.158	0.0159634
835.236	0.0159474
835.314	0.0159310
835.392	0.0158657
835.471	0.0159975
835.549	0.0158618
835.627	0.0157819
835.705	0.0158105
835.783	0.0159206
835.861	0.0160297
835.939	0.0159128
836.017	0.0159971
836.096	0.0159128
836.174	0.0159589
836.252	0.0159545
836.330	0.0159791
836.408	0.0160723
836.486	0.0159778
836.564	0.0160129
836.642	0.0160192
836.721	0.0160461
836.799	0.0159425
836.877	0.0160748
836.955	0.0160264
837.033	0.0160885
837.111	0.0160354
837.189	0.0160603
837.267	0.0160874
837.346	0.0159615
837.424	0.0159064
837.502	0.0159518
837.580	0.0158788
837.658	0.0156885
837.736	0.0159174
837.814	0.0158455
837.892	0.0159525
837.971	0.0156759
838.049	0.0158401
838.127	0.0157048
838.205	0.0156696
838.283	0.0157692
838.361	0.0157725
838.439	0.0156802
838.517	0.0158240
838.596	0.0156906
838.674	0.0158392
838.752	0.0158469
838.830	0.0159599
838.908	0.0159467
838.986	0.0159286
839.064	0.0158513
839.142	0.0160704
839.221	0.0160336
839.299	0.0158911
839.377	0.0160493
839.455	0.0160812
839.533	0.0160005
839.611	0.0159967
839.689	0.0158371
839.767	0.0158725
839.846	0.0158977
839.924	0.0156916
840.002	0.0156813
840.080	0.0156937
840.158	0.0156834
840.236	0.0157297
840.314	0.0156216
840.392	0.0157066
840.471	0.0156769
840.549	0.0155640
840.627	0.0156773
840.705	0.0157292
840.783	0.0157785
840.861	0.0159576
840.939	0.0158973
841.017	0.0159606
841.096	0.0157737
841.174	0.0158000
841.252	0.0159020
841.330	0.0159167
841.408	0.0159674
841.486	0.0159800
841.564	0.0159625
841.642	0.0158549
841.721	0.0158624
841.799	0.0158392
841.877	0.0158720
841.955	0.0160847
842.033	0.0160481
842.111	0.0158232
842.189	0.0160529
842.267	0.0159357
842.346	0.0160856
842.424	0.0160496
842.502	0.0161915
842.580	0.0161832
842.658	0.0160968
842.736	0.0162675
842.814	0.0163338
842.892	0.0162991
842.971	0.0162167
843.049	0.0162363
843.127	0.0162486
843.205	0.0161581
843.283	0.0161914
843.361	0.0160805
843.439	0.0159893
843.517	0.0160450
843.596	0.0160191
843.674	0.0160384
843.752	0.0162912
843.830	0.0160819
843.908	0.0161096
843.986	0.0161428
844.064	0.0163127
844.142	0.0161126
844.221	0.0162033
844.299	0.0161666
844.377	0.0161835
844.455	0.0161586
844.533	0.0161298
844.611	0.0162366
844.689	0.0162139
844.767	0.0161086
844.846	0.0161645
844.924	0.0160095
845.002	0.0160792
845.080	0.0160746
845.158	0.0161681
845.236	0.0160588
845.314	0.0159665
845.392	0.0160026
845.471	0.0160738
845.549	0.0161495
845.627	0.0160883
845.705	0.0160597
845.783	0.0161181
845.861	0.0162273
845.939	0.0161758
846.017	0.0161793
846.096	0.0161961
846.174	0.0163206
846.252	0.0163342
846.330	0.0163908
846.408	0.0163159
846.486	0.0163525
846.564	0.0163326
846.642	0.0163341
846.721	0.0161429
846.799	0.0160310
846.877	0.0162909
846.955	0.0161577
847.033	0.0161627
847.111	0.0162201
847.189	0.0161356
847.267	0.0161740
847.346	0.0161185
847.424	0.0160760
847.502	0.0160497
847.580	0.0160435
847.658	0.0160439
847.736	0.0160040
847.814	0.0160548
847.892	0.0160789
847.971	0.0160400
848.049	0.0160586
848.127	0.0160378
848.205	0.0160415
848.283	0.0161113
848.361	0.0161004
848.439	0.0160961
848.517	0.0159891
848.596	0.0160036
848.674	0.0159217
848.752	0.0159774
848.830	0.0161333
848.908	0.0160384
848.986	0.0159554
849.064	0.0160407
849.142	0.0158746
849.221	0.0159184
849.299	0.0158700
849.377	0.0158636
849.455	0.0157794
849.533	0.0158378
849.611	0.0158131
849.689	0.0157343
849.767	0.0158081
849.846	0.0157545
849.924	0.0157527
850.002	0.0157442
850.080	0.0157314
850.158	0.0156518
850.236	0.0158654
850.314	0.0158721
850.392	0.0160191
850.471	0.0158823
850.549	0.0160675
850.627	0.0160310
850.705	0.0161746
850.783	0.0161171
850.861	0.0161678
850.939	0.0162691
851.017	0.0163348
851.096	0.0163629
851.174	0.0164088
851.252	0.0163148
851.330	0.0164491
851.408	0.0162905
851.486	0.0164176
851.564	0.0165143
851.642	0.0163188
851.721	0.0163352
851.799	0.0164220
851.877	0.0163820
851.955	0.0164587
852.033	0.0163629
852.111	0.0162474
852.189	0.0162090
852.267	0.0162061
852.346	0.0161655
852.424	0.0161313
852.502	0.0161785
852.580	0.0161153
852.658	0.0160997
852.736	0.0160142
852.814	0.0160638
852.892	0.0159968
852.971	0.0156957
853.049	0.0158199
853.127	0.0159558
853.205	0.0158318
853.283	0.0157268
853.361	0.0157813
853.439	0.0157938
853.517	0.0155745
853.596	0.0155673
853.674	0.0156281
853.752	0.0154485
853.830	0.0155630
853.908	0.0156662
853.986	0.0156269
854.064	0.0154427
854.142	0.0153398
854.221	0.0153556
854.299	0.0154780
854.377	0.0152507
854.455	0.0152039
854.533	0.0151499
854.611	0.0152929
854.689	0.0154199
854.767	0.0152796
854.846	0.0152213
854.924	0.0152773
855.002	0.0152273
855.080	0.0154425
855.158	0.0152666
855.236	0.0152469
855.314	0.0153533
855.392	0.0155173
855.471	0.0154236
855.549	0.0154646
855.627	0.0154185
855.705	0.0156587
855.783	0.0155840
855.861	0.0156409
855.939	0.0157164
856.017	0.0157247
856.096	0.0155910
856.174	0.0157478
856.252	0.0155724
856.330	0.0155719
856.408	0.0156084
856.486	0.0156816
856.564	0.0156005
856.642	0.0157188
856.721	0.0157328
856.799	0.0155124
856.877	0.0155952
856.955	0.0156348
857.033	0.0157232
857.111	0.0156237
857.189	0.0157185
857.267	0.0157892
857.346	0.0157968
857.424	0.0158858
857.502	0.0158057
857.580	0.0158126
857.658	0.0157443
857.736	0.0159576
857.814	0.0160032
857.892	0.0159709
857.971	0.0159665
858.049	0.0160323
858.127	0.0159818
858.205	0.0161110
858.283	0.0161935
858.361	0.0161490
858.439	0.0161987
858.517	0.0162993
858.596	0.0163091
858.674	0.0163318
858.752	0.0163364
858.830	0.0165533
858.908	0.0166050
858.986	0.0167026
859.064	0.0166696
859.142	0.0169249
859.221	0.0167429
859.299	0.0169112
859.377	0.0171523
859.455	0.0172542
859.533	0.0170842
859.611	0.0172414
859.689	0.0175040
859.767	0.0174069
859.846	0.0174249
859.924	0.0175217
860.002	0.0174322
860.080	0.0176063
860.158	0.0175298
860.236	0.0176082
860.314	0.0175707
860.392	0.0175820
860.471	0.0175134
860.549	0.0175500
860.627	0.0173853
860.705	0.0173858
860.783	0.0174163
860.861	0.0172042
860.939	0.0170665
861.017	0.0170201
861.096	0.0169837
861.174	0.0168141
861.252	0.0166978
861.330	0.0165765
861.408	0.0165702
861.486	0.0163231
861.564	0.0161789
861.642	0.0160989
861.721	0.0158185
861.799	0.0157835
861.877	0.0157873
861.955	0.0156306
862.033	0.0156143
862.111	0.0154357
862.189	0.0154531
862.267	0.0154258
862.346	0.0153978
862.424	0.0152853
862.502	0.0152665
862.580	0.0152081
862.658	0.0151453
862.736	0.0152576
862.814	0.0152634
862.892	0.0152326
862.971	0.0152199
863.049	0.0151854
863.127	0.0151339
863.205	0.0150388
863.283	0.0152068
863.361	0.0151392
863.439	0.0150915
863.517	0.0151006
863.596	0.0151475
863.674	0.0150646
863.752	0.0151502
863.830	0.0152679
863.908	0.0150632
863.986	0.0151011
864.064	0.0150735
864.142	0.0151938
864.221	0.0150868
864.299	0.0150080
864.377	0.0149693
864.455	0.0150581
864.533	0.0152343
864.611	0.0151096
864.689	0.0152152
864.767	0.0152943
864.846	0.0151383
864.924	0.0152011
865.002	0.0151835
865.080	0.0151647
865.158	0.0152231
865.236	0.0152881
865.314	0.0152897
865.392	0.0153606
865.471	0.0153533
865.549	0.0152650
865.627	0.0154004
865.705	0.0152824
865.783	0.0154230
865.861	0.0155045
865.939	0.0155487
866.017	0.0155029
866.096	0.0154523
866.174	0.0155946
866.252	0.0155201
866.330	0.0156524
866.408	0.0154651
866.486	0.0154980
866.564	0.0156652
866.642	0.0157547
866.721	0.0157692
866.799	0.0159002
866.877	0.0157648
866.955	0.0158702
867.033	0.0159377
867.111	0.0157674
867.189	0.0157128
867.267	0.0157555
867.346	0.0159062
867.424	0.0157818
867.502	0.0157640
867.580	0.0157897
867.658	0.0157811
867.736	0.0156682
867.814	0.0157970
867.892	0.0159016
867.971	0.0158896
868.049	0.0158314
868.127	0.0159456
868.205	0.0158564
868.283	0.0158931
868.361	0.0161118
868.439	0.0162212
868.517	0.0160704
868.596	0.0162639
868.674	0.0162711
868.752	0.0163148
868.830	0.0163358
868.908	0.0162650
868.986	0.0164177
869.064	0.0164045
869.142	0.0163007
869.221	0.0163045
869.299	0.0163019
869.377	0.0162853
869.455	0.0163430
869.533	0.0162177
869.611	0.0163533
869.689	0.0163460
869.767	0.0163530
869.846	0.0163297
869.924	0.0161610
870.002	0.0161961
870.080	0.0162855
870.158	0.0162102
870.236	0.0161491
870.314	0.0162633
870.392	0.0163909
870.471	0.0161676
870.549	0.0161624
870.627	0.0161352
870.705	0.0162115
870.783	0.0163980
870.861	0.0163874
870.939	0.0163793
871.017	0.0162163
871.096	0.0163332
871.174	0.0164377
871.252	0.0162614
871.330	0.0162614
871.408	0.0162708
871.486	0.0162309
871.564	0.0162138
871.642	0.0164053
871.721	0.0161331
871.799	0.0161928
871.877	0.0161894
871.955	0.0163383
872.033	0.0161779
872.111	0.0162671
872.189	0.0161444
872.267	0.0161747
872.346	0.0161082
872.424	0.0161997
872.502	0.0163400
872.580	0.0163620
872.658	0.0162444
872.736	0.0159661
872.814	0.0162007
872.892	0.0162443
872.971	0.0158377
873.049	0.0157999
873.127	0.0159556
873.205	0.0157695
873.283	0.0157008
873.361	0.0157110
873.439	0.0157219
873.517	0.0156835
873.596	0.0156706
873.674	0.0156433
873.752	0.0155899
873.830	0.0156299
873.908	0.0156219
873.986	0.0155602
874.064	0.0156319
874.142	0.0157590
874.221	0.0157585
874.299	0.0157336
874.377	0.0157911
874.455	0.0158559
874.533	0.0158724
874.611	0.0158460
874.689	0.0158013
874.767	0.0159612
874.846	0.0161037
874.924	0.0160304
875.002	0.0160101
875.080	0.0160094
875.158	0.0159534
875.236	0.0160239
875.314	0.0159674
875.392	0.0159881
875.471	0.0159948
875.549	0.0160917
875.627	0.0161165
875.705	0.0161188
875.783	0.0161131
875.861	0.0160510
875.939	0.0161255
876.017	0.0160825
876.096	0.0161753
876.174	0.0160410
876.252	0.0160279
876.330	0.0160294
876.408	0.0161031
876.486	0.0160665
876.564	0.0161239
876.642	0.0161311
876.721	0.0160629
876.799	0.0159449
876.877	0.0159491
876.955	0.0161152
877.033	0.0160360
877.111	0.0160883
877.189	0.0160236
877.267	0.0160715
877.346	0.0161070
877.424	0.0157980
877.502	0.0159878
877.580	0.0159798
877.658	0.0159912
877.736	0.0159653
877.814	0.0159429
877.892	0.0159640
877.971	0.0158913
878.049	0.0158939
878.127	0.0158123
878.205	0.0156379
878.283	0.0156852
878.361	0.0155472
878.439	0.0156221
878.517	0.0157654
878.596	0.0155109
878.674	0.0154880
878.752	0.0154378
878.830	0.0153628
878.908	0.0152909
878.986	0.0154070
879.064	0.0155211
879.142	0.0154430
879.221	0.0154266
879.299	0.0154814
879.377	0.0157054
879.455	0.0155719
879.533	0.0154192
879.611	0.0152119
879.689	0.0156187
879.767	0.0155651
879.846	0.0157030
879.924	0.0155971
880.002	0.0156358
880.080	0.0155529
880.158	0.0156148
880.236	0.0158733
880.314	0.0156531
880.392	0.0156520
880.471	0.0158711
880.549	0.0159376
880.627	0.0157161
880.705	0.0158221
880.783	0.0158733
880.861	0.0159274
880.939	0.0158486
881.017	0.0158162
881.096	0.0159102
881.174	0.0158989
881.252	0.0161347
881.330	0.0160928
881.408	0.0160323
881.486	0.0161603
881.564	0.0161736
881.642	0.0160538
881.721	0.0160996
881.799	0.0160896
881.877	0.0162448
881.955	0.0162313
882.033	0.0162197
882.111	0.0160804
882.189	0.0161679
882.267	0.0162884
882.346	0.0162230
882.424	0.0162278
882.502	0.0161423
882.580	0.0163065
882.658	0.0163155
882.736	0.0163136
882.814	0.0162842
882.892	0.0161872
882.971	0.0162254
883.049	0.0161000
883.127	0.0160773
883.205	0.0159943
883.283	0.0159480
883.361	0.0160518
883.439	0.0157816
883.517	0.0157238
883.596	0.0159235
883.674	0.0158432
883.752	0.0158327
883.830	0.0158172
883.908	0.0159081
883.986	0.0158518
884.064	0.0159013
884.142	0.0159413
884.221	0.0158965
884.299	0.0160528
884.377	0.0161109
884.455	0.0159845
884.533	0.0161218
884.611	0.0160934
884.689	0.0162032
884.767	0.0162841
884.846	0.0162345
884.924	0.0162917
885.002	0.0163875
885.080	0.0164133
885.158	0.0164080
885.236	0.0163809
885.314	0.0164974
885.392	0.0164601
885.471	0.0165228
885.549	0.0163910
885.627	0.0164986
885.705	0.0162949
885.783	0.0165659
885.861	0.0162611
885.939	0.0162346
886.017	0.0163825
886.096	0.0163208
886.174	0.0162222
886.252	0.0162582
886.330	0.0161382
886.408	0.0162033
886.486	0.0162109
886.564	0.0162202
886.642	0.0161395
886.721	0.0160963
886.799	0.0159496
886.877	0.0159544
886.955	0.0158688
887.033	0.0159410
887.111	0.0157619
887.189	0.0158741
887.267	0.0158642
887.346	0.0158036
887.424	0.0156198
887.502	0.0156850
887.580	0.0155047
887.658	0.0154956
887.736	0.0156310
887.814	0.0155648
887.892	0.0154832
887.971	0.0154434
888.049	0.0153418
888.127	0.0151768
888.205	0.0151530
888.283	0.0152493
888.361	0.0151452
888.439	0.0151060
888.517	0.0150449
888.596	0.0151559
888.674	0.0150397
888.752	0.0150302
888.830	0.0152564
888.908	0.0151479
888.986	0.0151273
889.064	0.0150687
889.142	0.0152544
889.221	0.0153418
889.299	0.0153712
889.377	0.0152360
889.455	0.0152752
889.533	0.0153538
889.611	0.0152644
889.689	0.0153083
889.767	0.0154186
889.846	0.0153667
889.924	0.0152961
890.002	0.0152427
890.080	0.0153812
890.158	0.0154517
890.236	0.0153605
890.314	0.0153334
890.392	0.0153560
890.471	0.0153481
890.549	0.0153881
890.627	0.0154759
890.705	0.0155231
890.783	0.0154709
890.861	0.0156397
890.939	0.0157793
891.017	0.0157581
891.096	0.0157257
891.174	0.0157734
891.252	0.0158179
891.330	0.0158379
891.408	0.0159577
891.486	0.0158647
891.564	0.0159711
891.642	0.0159661
891.721	0.0160383
891.799	0.0159695
891.877	0.0158989
891.955	0.0158572
892.033	0.0158990
892.111	0.0160365
892.189	0.0159086
892.267	0.0161202
892.346	0.0160532
892.424	0.0160734
892.502	0.0161922
892.580	0.0161275
892.658	0.0161172
892.736	0.0160820
892.814	0.0161318
892.892	0.0160898
892.971	0.0160878
893.049	0.0159875
893.127	0.0161574
893.205	0.0162849
893.283	0.0161626
893.361	0.0162025
893.439	0.0160863
893.517	0.0161742
893.596	0.0161097
893.674	0.0161203
893.752	0.0161965
893.830	0.0162816
893.908	0.0162717
893.986	0.0160998
894.064	0.0162141
894.142	0.0162886
894.221	0.0162362
894.299	0.0162498
894.377	0.0164403
894.455	0.0162428
894.533	0.0161043
894.611	0.0160898
894.689	0.0161089
894.767	0.0161974
894.846	0.0162248
894.924	0.0162093
895.002	0.0163297
895.080	0.0161869
895.158	0.0161449
895.236	0.0162729
895.314	0.0162827
895.392	0.0161975
895.471	0.0160386
895.549	0.0161581
895.627	0.0161486
895.705	0.0161619
895.783	0.0160379
895.861	0.0160631
895.939	0.0159988
896.017	0.0159019
896.096	0.0160774
896.174	0.0161238
896.252	0.0159739
896.330	0.0160764
896.408	0.0160592
896.486	0.0160052
896.564	0.0160954
896.642	0.0161351
896.721	0.0161261
896.799	0.0159663
896.877	0.0159143
896.955	0.0160356
897.033	0.0158518
897.111	0.0160300
897.189	0.0160104
897.267	0.0160300
897.346	0.0159875
897.424	0.0158748
897.502	0.0159526
897.580	0.0159350
897.658	0.0158114
897.736	0.0158720
897.814	0.0156826
897.892	0.0156826
897.971	0.0158042
898.049	0.0157894
898.127	0.0155986
898.205	0.0155610
898.283	0.0155186
898.361	0.0154363
898.439	0.0153956
898.517	0.0154948
898.596	0.0152695
898.674	0.0154319
898.752	0.0154020
898.830	0.0155445
898.908	0.0153320
898.986	0.0155451
899.064	0.0155013
899.142	0.0155061
899.221	0.0157074
899.299	0.0157136
899.377	0.0156322
899.455	0.0156669
899.533	0.0158385
899.611	0.0157577
899.689	0.0157095
899.767	0.0157092
899.846	0.0157918
899.924	0.0158868
900.002	0.0160157
900.080	0.0158955
900.158	0.0159734
900.236	0.0160722
900.314	0.0160263
900.392	0.0161498
900.471	0.0161845
900.549	0.0159284
900.627	0.0162358
900.705	0.0161274
900.783	0.0160036
900.861	0.0160539
900.939	0.0161177
901.017	0.0162418
901.096	0.0161981
901.174	0.0161092
901.252	0.0161037
901.330	0.0160157
901.408	0.0159828
901.486	0.0161851
901.564	0.0160427
901.642	0.0159878
901.721	0.0160583
901.799	0.0160233
901.877	0.0160860
901.955	0.0160990
902.033	0.0160693
902.111	0.0161349
902.189	0.0160267
902.267	0.0158518
902.346	0.0159634
902.424	0.0158836
902.502	0.0159946
902.580	0.0160495
902.658	0.0159526
902.736	0.0158453
902.814	0.0160022
902.892	0.0158951
902.971	0.0159526
903.049	0.0157450
903.127	0.0158870
903.205	0.0158856
903.283	0.0159736
903.361	0.0157849
903.439	0.0157810
903.517	0.0158159
903.596	0.0156729
903.674	0.0158236
903.752	0.0158914
903.830	0.0157105
903.908	0.0158628
903.986	0.0159389
904.064	0.0158819
904.142	0.0159596
904.221	0.0157753
904.299	0.0158894
904.377	0.0160135
904.455	0.0159363
904.533	0.0159075
904.611	0.0159031
904.689	0.0157188
904.767	0.0157913
904.846	0.0158578
904.924	0.0158174
905.002	0.0157893
905.080	0.0158234
905.158	0.0157175
905.236	0.0158379
905.314	0.0157188
905.392	0.0157991
905.471	0.0156528
905.549	0.0157841
905.627	0.0158186
905.705	0.0159899
905.783	0.0157693
905.861	0.0158425
905.939	0.0158853
906.017	0.0158057
906.096	0.0159798
906.174	0.0159852
906.252	0.0159928
906.330	0.0159219
906.408	0.0160220
906.486	0.0160172
906.564	0.0159206
906.642	0.0160168
906.721	0.0158974
906.799	0.0158799
906.877	0.0158118
906.955	0.0158249
907.033	0.0157556
907.111	0.0156928
907.189	0.0155992
907.267	0.0155932
907.346	0.0156816
907.424	0.0156446
907.502	0.0155775
907.580	0.0156165
907.658	0.0156349
907.736	0.0156853
907.814	0.0157564
907.892	0.0156244
907.971	0.0156100
908.049	0.0157593
908.127	0.0157278
908.205	0.0156188
908.283	0.0156716
908.361	0.0159339
908.439	0.0158717
908.517	0.0157161
908.596	0.0157667
908.674	0.0158966
908.752	0.0158580
908.830	0.0160673
908.908	0.0158543
908.986	0.0157933
909.064	0.0157621
909.142	0.0158124
909.221	0.0159074
909.299	0.0157703
909.377	0.0156683
909.455	0.0159058
909.533	0.0157681
909.611	0.0156621
909.689	0.0156939
909.767	0.0156612
909.846	0.0155254
909.924	0.0155645
910.002	0.0155283
910.080	0.0155058
910.158	0.0155875
910.236	0.0153609
910.314	0.0154537
910.392	0.0155092
910.471	0.0154088
910.549	0.0154095
910.627	0.0155197
910.705	0.0155276
910.783	0.0154803
910.861	0.0156052
910.939	0.0156616
911.017	0.0157523
911.096	0.0155856
911.174	0.0159160
911.252	0.0158908
911.330	0.0159604
911.408	0.0159865
911.486	0.0160394
911.564	0.0162506
911.642	0.0161726
911.721	0.0162218
911.799	0.0163779
911.877	0.0164678
911.955	0.0165792
912.033	0.0165746
912.111	0.0165805
912.189	0.0167787
912.267	0.0166096
912.346	0.0167413
912.424	0.0167303
912.502	0.0166410
912.580	0.0166312
912.658	0.0167180
912.736	0.0167262
912.814	0.0167996
912.892	0.0165838
912.971	0.0167913
913.049	0.0166774
913.127	0.0167541
913.205	0.0166439
913.283	0.0167732
913.361	0.0167605
913.439	0.0167709
913.517	0.0167903
913.596	0.0169161
913.674	0.0166673
913.752	0.0167191
913.830	0.0166190
913.908	0.0166180
913.986	0.0166000
914.064	0.0165513
914.142	0.0163512
914.221	0.0162235
914.299	0.0163422
914.377	0.0163618
914.455	0.0161322
914.533	0.0161022
914.611	0.0159889
914.689	0.0160408
914.767	0.0160619
914.846	0.0159177
914.924	0.0160809
915.002	0.0158192
915.080	0.0160461
915.158	0.0159830
915.236	0.0158776
915.314	0.0159605
915.392	0.0158331
915.471	0.0158954
915.549	0.0159436
915.627	0.0158073
915.705	0.0158228
915.783	0.0159431
915.861	0.0157594
915.939	0.0158332
916.017	0.0157985
916.096	0.0156828
916.174	0.0158225
916.252	0.0157851
916.330	0.0157312
916.408	0.0157433
916.486	0.0156146
916.564	0.0157387
916.642	0.0156455
916.721	0.0156398
916.799	0.0156859
916.877	0.0154781
916.955	0.0156440
917.033	0.0157077
917.111	0.0155805
917.189	0.0157359
917.267	0.0158965
917.346	0.0158236
917.424	0.0159174
917.502	0.0157973
917.580	0.0159408
917.658	0.0159143
917.736	0.0159022
917.814	0.0158412
917.892	0.0157344
917.971	0.0158037
918.049	0.0156807
918.127	0.0156367
918.205	0.0157224
918.283	0.0157379
918.361	0.0156313
918.439	0.0156032
918.517	0.0155743
918.596	0.0156327
918.674	0.0155084
918.752	0.0155259
918.830	0.0156614
918.908	0.0155813
918.986	0.0156260
919.064	0.0156278
919.142	0.0157787
919.221	0.0157990
919.299	0.0156287
919.377	0.0157340
919.455	0.0157941
919.533	0.0158288
919.611	0.0158239
919.689	0.0158496
919.767	0.0157831
919.846	0.0157543
919.924	0.0157686
