06/29/2022	21:09:33	Ver.	4.1	UNKNOWN
Optical Delay	629.995835	Delta X		0.078125	Sweeps	1	Scan Rate	0/0
Coordinates	Axis 1	NaN	Axis 2	NaN	Axis 3	NaN	Axis 4	NaN	Axis 5	NaN	Axis 6	0.000000
TX Power	0.000000	RX Power	0.000000

629.996	0.0167174
630.074	0.0167448
630.152	0.0168489
630.230	0.0167661
630.308	0.0166850
630.386	0.0166437
630.465	0.0166961
630.543	0.0165634
630.621	0.0166678
630.699	0.0167957
630.777	0.0167260
630.855	0.0166916
630.933	0.0167490
631.011	0.0166105
631.090	0.0166097
631.168	0.0166846
631.246	0.0168929
631.324	0.0167966
631.402	0.0165907
631.480	0.0166649
631.558	0.0167591
631.636	0.0167741
631.715	0.0168430
631.793	0.0166964
631.871	0.0167384
631.949	0.0167376
632.027	0.0166318
632.105	0.0166293
632.183	0.0167966
632.261	0.0167097
632.340	0.0167454
632.418	0.0166853
632.496	0.0167532
632.574	0.0166116
632.652	0.0166996
632.730	0.0168051
632.808	0.0165590
632.886	0.0167981
632.965	0.0167510
633.043	0.0167242
633.121	0.0166490
633.199	0.0167834
633.277	0.0167391
633.355	0.0165501
633.433	0.0167999
633.511	0.0168035
633.590	0.0168445
633.668	0.0168030
633.746	0.0166113
633.824	0.0167265
633.902	0.0166689
633.980	0.0167902
634.058	0.0167826
634.136	0.0166713
634.215	0.0166532
634.293	0.0166651
634.371	0.0168013
634.449	0.0167117
634.527	0.0166704
634.605	0.0167525
634.683	0.0167726
634.761	0.0166983
634.840	0.0166313
634.918	0.0167535
634.996	0.0166856
635.074	0.0167849
635.152	0.0168671
635.230	0.0166138
635.308	0.0166032
635.386	0.0167945
635.465	0.0166747
635.543	0.0166242
635.621	0.0167191
635.699	0.0166631
635.777	0.0167608
635.855	0.0168237
635.933	0.0166978
636.011	0.0166508
636.090	0.0167426
636.168	0.0166642
636.246	0.0166406
636.324	0.0167358
636.402	0.0167154
636.480	0.0167542
636.558	0.0166246
636.636	0.0167202
636.715	0.0166926
636.793	0.0165881
636.871	0.0166473
636.949	0.0168420
637.027	0.0167792
637.105	0.0167130
637.183	0.0166866
637.261	0.0167785
637.340	0.0167344
637.418	0.0168335
637.496	0.0166574
637.574	0.0165689
637.652	0.0167255
637.730	0.0167439
637.808	0.0167174
637.886	0.0166891
637.965	0.0166158
638.043	0.0168613
638.121	0.0167959
638.199	0.0167350
638.277	0.0168052
638.355	0.0167049
638.433	0.0166474
638.511	0.0167746
638.590	0.0168041
638.668	0.0167048
638.746	0.0166642
638.824	0.0166499
638.902	0.0167141
638.980	0.0168174
639.058	0.0166006
639.136	0.0167329
639.215	0.0168273
639.293	0.0166114
639.371	0.0165799
639.449	0.0166186
639.527	0.0168557
639.605	0.0167731
639.683	0.0166866
639.761	0.0165693
639.840	0.0166212
639.918	0.0166475
639.996	0.0166677
640.074	0.0166479
640.152	0.0165735
640.230	0.0166911
640.308	0.0167162
640.386	0.0165469
640.465	0.0167007
640.543	0.0165682
640.621	0.0168131
640.699	0.0166396
640.777	0.0166411
640.855	0.0167173
640.933	0.0166479
641.011	0.0167609
641.090	0.0166569
641.168	0.0165160
641.246	0.0165905
641.324	0.0167392
641.402	0.0167763
641.480	0.0167819
641.558	0.0168298
641.636	0.0165693
641.715	0.0166035
641.793	0.0166119
641.871	0.0168204
641.949	0.0166640
642.027	0.0166777
642.105	0.0167424
642.183	0.0167959
642.261	0.0168128
642.340	0.0166028
642.418	0.0166775
642.496	0.0166953
642.574	0.0165505
642.652	0.0167183
642.730	0.0167165
642.808	0.0166623
642.886	0.0165639
642.965	0.0166807
643.043	0.0166553
643.121	0.0166076
643.199	0.0166769
643.277	0.0167745
643.355	0.0166837
643.433	0.0166216
643.511	0.0166995
643.590	0.0167345
643.668	0.0166211
643.746	0.0166357
643.824	0.0167448
643.902	0.0167096
643.980	0.0166412
644.058	0.0167205
644.136	0.0166299
644.215	0.0167622
644.293	0.0166859
644.371	0.0166573
644.449	0.0168472
644.527	0.0166753
644.605	0.0168070
644.683	0.0167035
644.761	0.0166992
644.840	0.0167908
644.918	0.0168586
644.996	0.0167656
645.074	0.0166103
645.152	0.0168297
645.230	0.0168133
645.308	0.0166590
645.386	0.0166702
645.465	0.0168054
645.543	0.0165797
645.621	0.0165454
645.699	0.0166975
645.777	0.0165648
645.855	0.0167606
645.933	0.0168913
646.011	0.0166086
646.090	0.0166732
646.168	0.0167367
646.246	0.0166491
646.324	0.0165742
646.402	0.0166674
646.480	0.0165775
646.558	0.0166987
646.636	0.0167455
646.715	0.0167328
646.793	0.0167181
646.871	0.0165557
646.949	0.0166920
647.027	0.0167200
647.105	0.0166272
647.183	0.0168043
647.261	0.0166164
647.340	0.0166322
647.418	0.0165843
647.496	0.0167720
647.574	0.0167529
647.652	0.0165573
647.730	0.0168127
647.808	0.0167391
647.886	0.0166984
647.965	0.0167397
648.043	0.0167953
648.121	0.0167352
648.199	0.0166458
648.277	0.0167448
648.355	0.0166557
648.433	0.0166998
648.511	0.0168253
648.590	0.0164792
648.668	0.0166707
648.746	0.0166298
648.824	0.0165958
648.902	0.0166039
648.980	0.0166443
649.058	0.0167873
649.136	0.0168057
649.215	0.0165217
649.293	0.0166245
649.371	0.0166841
649.449	0.0166833
649.527	0.0166502
649.605	0.0166594
649.683	0.0165642
649.761	0.0166929
649.840	0.0166819
649.918	0.0166514
649.996	0.0166912
650.074	0.0166906
650.152	0.0167181
650.230	0.0166517
650.308	0.0167537
650.386	0.0166830
650.465	0.0166408
650.543	0.0167201
650.621	0.0166161
650.699	0.0166573
650.777	0.0167775
650.855	0.0166741
650.933	0.0167410
651.011	0.0168069
651.090	0.0166846
651.168	0.0167733
651.246	0.0166367
651.324	0.0167487
651.402	0.0166914
651.480	0.0167793
651.558	0.0167128
651.636	0.0166319
651.715	0.0168118
651.793	0.0167651
651.871	0.0166853
651.949	0.0167576
652.027	0.0166779
652.105	0.0166914
652.183	0.0166764
652.261	0.0167441
652.340	0.0167714
652.418	0.0166717
652.496	0.0165809
652.574	0.0166129
652.652	0.0166030
652.730	0.0167723
652.808	0.0167356
652.886	0.0166957
652.965	0.0167490
653.043	0.0166516
653.121	0.0166472
653.199	0.0167171
653.277	0.0167255
653.355	0.0167805
653.433	0.0167496
653.511	0.0167176
653.590	0.0165430
653.668	0.0166614
653.746	0.0167106
653.824	0.0165934
653.902	0.0166562
653.980	0.0167453
654.058	0.0166289
654.136	0.0167245
654.215	0.0167709
654.293	0.0167438
654.371	0.0165469
654.449	0.0167049
654.527	0.0167131
654.605	0.0167169
654.683	0.0166816
654.761	0.0167003
654.840	0.0167844
654.918	0.0165937
654.996	0.0167131
655.074	0.0167371
655.152	0.0166164
655.230	0.0166142
655.308	0.0166904
655.386	0.0167271
655.465	0.0165655
655.543	0.0166453
655.621	0.0166323
655.699	0.0165588
655.777	0.0166763
655.855	0.0168649
655.933	0.0167783
656.011	0.0167312
656.090	0.0166206
656.168	0.0167252
656.246	0.0167155
656.324	0.0167274
656.402	0.0165921
656.480	0.0167628
656.558	0.0166654
656.636	0.0168172
656.715	0.0167111
656.793	0.0165409
656.871	0.0166596
656.949	0.0166535
657.027	0.0166121
657.105	0.0165941
657.183	0.0167386
657.261	0.0166135
657.340	0.0167100
657.418	0.0166023
657.496	0.0167775
657.574	0.0166463
657.652	0.0166971
657.730	0.0168225
657.808	0.0166387
657.886	0.0166253
657.965	0.0166233
658.043	0.0166771
658.121	0.0165510
658.199	0.0167129
658.277	0.0167920
658.355	0.0166611
658.433	0.0167466
658.511	0.0166940
658.590	0.0166592
658.668	0.0168019
658.746	0.0166188
658.824	0.0167109
658.902	0.0167187
658.980	0.0166299
659.058	0.0166611
659.136	0.0167784
659.215	0.0167257
659.293	0.0166927
659.371	0.0167072
659.449	0.0166978
659.527	0.0167539
659.605	0.0167043
659.683	0.0166422
659.761	0.0166862
659.840	0.0166739
659.918	0.0166965
659.996	0.0167464
660.074	0.0167449
660.152	0.0166889
660.230	0.0166656
660.308	0.0166936
660.386	0.0167348
660.465	0.0168118
660.543	0.0167306
660.621	0.0166767
660.699	0.0165853
660.777	0.0167194
660.855	0.0167027
660.933	0.0167892
661.011	0.0166969
661.090	0.0167153
661.168	0.0167200
661.246	0.0167756
661.324	0.0167849
661.402	0.0166721
661.480	0.0165947
661.558	0.0166141
661.636	0.0165883
661.715	0.0166629
661.793	0.0166802
661.871	0.0166755
661.949	0.0168330
662.027	0.0167067
662.105	0.0167554
662.183	0.0166756
662.261	0.0165913
662.340	0.0166576
662.418	0.0167287
662.496	0.0165591
662.574	0.0166491
662.652	0.0167381
662.730	0.0166237
662.808	0.0166369
662.886	0.0167352
662.965	0.0167014
663.043	0.0166486
663.121	0.0166239
663.199	0.0166177
663.277	0.0166669
663.355	0.0167910
663.433	0.0166167
663.511	0.0166779
663.590	0.0166662
663.668	0.0166443
663.746	0.0167047
663.824	0.0166145
663.902	0.0168704
663.980	0.0166743
664.058	0.0167609
664.136	0.0167413
664.215	0.0166480
664.293	0.0165814
664.371	0.0167159
664.449	0.0167226
664.527	0.0166611
664.605	0.0166830
664.683	0.0166563
664.761	0.0167265
664.840	0.0166851
664.918	0.0166615
664.996	0.0167101
665.074	0.0167900
665.152	0.0167316
665.230	0.0166101
665.308	0.0165802
665.386	0.0167068
665.465	0.0167764
665.543	0.0165933
665.621	0.0166592
665.699	0.0166972
665.777	0.0167010
665.855	0.0165826
665.933	0.0166396
666.011	0.0166862
666.090	0.0166034
666.168	0.0166704
666.246	0.0167151
666.324	0.0166750
666.402	0.0166122
666.480	0.0166969
666.558	0.0166412
666.636	0.0165797
666.715	0.0166975
666.793	0.0166692
666.871	0.0166885
666.949	0.0165478
667.027	0.0167147
667.105	0.0164563
667.183	0.0166430
667.261	0.0167401
667.340	0.0167068
667.418	0.0166552
667.496	0.0167276
667.574	0.0166238
667.652	0.0166994
667.730	0.0166931
667.808	0.0167851
667.886	0.0168123
667.965	0.0167525
668.043	0.0166167
668.121	0.0165984
668.199	0.0167253
668.277	0.0167497
668.355	0.0167330
668.433	0.0166196
668.511	0.0166637
668.590	0.0166348
668.668	0.0167233
668.746	0.0168084
668.824	0.0167106
668.902	0.0167006
668.980	0.0166494
669.058	0.0167766
669.136	0.0166974
669.215	0.0166703
669.293	0.0167142
669.371	0.0165950
669.449	0.0167357
669.527	0.0166739
669.605	0.0166828
669.683	0.0166023
669.761	0.0166654
669.840	0.0167196
669.918	0.0167565
669.996	0.0166397
670.074	0.0167021
670.152	0.0167329
670.230	0.0165598
670.308	0.0166362
670.386	0.0167215
670.465	0.0166478
670.543	0.0166749
670.621	0.0168431
670.699	0.0167384
670.777	0.0166239
670.855	0.0167519
670.933	0.0167864
671.011	0.0165534
671.090	0.0167376
671.168	0.0166663
671.246	0.0167626
671.324	0.0167522
671.402	0.0166917
671.480	0.0165855
671.558	0.0166831
671.636	0.0166601
671.715	0.0166206
671.793	0.0166055
671.871	0.0166718
671.949	0.0166181
672.027	0.0167159
672.105	0.0165848
672.183	0.0166969
672.261	0.0166548
672.340	0.0166476
672.418	0.0166141
672.496	0.0167410
672.574	0.0167974
672.652	0.0166365
672.730	0.0166176
672.808	0.0167076
672.886	0.0167210
672.965	0.0166330
673.043	0.0165451
673.121	0.0167620
673.199	0.0166477
673.277	0.0166588
673.355	0.0167099
673.433	0.0167081
673.511	0.0167300
673.590	0.0167435
673.668	0.0167068
673.746	0.0167487
673.824	0.0166278
673.902	0.0166034
673.980	0.0169313
674.058	0.0166859
674.136	0.0165953
674.215	0.0166483
674.293	0.0166640
674.371	0.0167585
674.449	0.0166755
674.527	0.0167374
674.605	0.0167267
674.683	0.0165937
674.761	0.0166111
674.840	0.0167703
674.918	0.0166037
674.996	0.0167297
675.074	0.0167473
675.152	0.0166139
675.230	0.0166576
675.308	0.0167138
675.386	0.0167902
675.465	0.0167271
675.543	0.0166953
675.621	0.0165634
675.699	0.0165714
675.777	0.0166437
675.855	0.0166566
675.933	0.0166536
676.011	0.0167067
676.090	0.0166830
676.168	0.0167292
676.246	0.0166384
676.324	0.0165701
676.402	0.0166251
676.480	0.0166008
676.558	0.0166226
676.636	0.0167283
676.715	0.0168250
676.793	0.0165524
676.871	0.0167100
676.949	0.0165240
677.027	0.0165239
677.105	0.0166462
677.183	0.0167525
677.261	0.0166167
677.340	0.0167175
677.418	0.0167895
677.496	0.0166891
677.574	0.0166279
677.652	0.0165760
677.730	0.0167142
677.808	0.0168500
677.886	0.0166519
677.965	0.0167412
678.043	0.0166007
678.121	0.0165668
678.199	0.0166693
678.277	0.0167205
678.355	0.0166232
678.433	0.0167284
678.511	0.0166209
678.590	0.0167109
678.668	0.0167036
678.746	0.0167488
678.824	0.0166378
678.902	0.0166487
678.980	0.0166488
679.058	0.0166834
679.136	0.0166238
679.215	0.0166462
679.293	0.0166055
679.371	0.0168651
679.449	0.0166277
679.527	0.0167102
679.605	0.0166297
679.683	0.0168780
679.761	0.0167599
679.840	0.0167365
679.918	0.0166490
679.996	0.0168415
680.074	0.0166704
680.152	0.0166320
680.230	0.0167233
680.308	0.0165743
680.386	0.0166057
680.465	0.0166782
680.543	0.0166727
680.621	0.0165588
680.699	0.0165620
680.777	0.0167133
680.855	0.0166938
680.933	0.0167178
681.011	0.0166440
681.090	0.0167691
681.168	0.0167332
681.246	0.0167009
681.324	0.0165665
681.402	0.0166778
681.480	0.0167684
681.558	0.0167464
681.636	0.0166312
681.715	0.0166634
681.793	0.0166332
681.871	0.0166021
681.949	0.0167592
682.027	0.0165950
682.105	0.0166245
682.183	0.0166599
682.261	0.0166405
682.340	0.0166574
682.418	0.0166176
682.496	0.0167917
682.574	0.0166054
682.652	0.0166650
682.730	0.0166129
682.808	0.0166814
682.886	0.0168234
682.965	0.0166711
683.043	0.0165444
683.121	0.0166936
683.199	0.0167259
683.277	0.0165468
683.355	0.0165945
683.433	0.0167010
683.511	0.0167246
683.590	0.0166746
683.668	0.0165606
683.746	0.0167548
683.824	0.0166872
683.902	0.0166433
683.980	0.0166805
684.058	0.0166967
684.136	0.0165911
684.215	0.0165828
684.293	0.0167262
684.371	0.0167659
684.449	0.0167229
684.527	0.0166597
684.605	0.0166176
684.683	0.0166844
684.761	0.0166969
684.840	0.0166086
684.918	0.0167097
684.996	0.0167062
685.074	0.0167015
685.152	0.0168049
685.230	0.0167538
685.308	0.0166843
685.386	0.0166096
685.465	0.0166644
685.543	0.0165562
685.621	0.0167274
685.699	0.0166338
685.777	0.0166079
685.855	0.0166504
685.933	0.0167635
686.011	0.0165936
686.090	0.0167465
686.168	0.0167931
686.246	0.0165123
686.324	0.0166898
686.402	0.0166004
686.480	0.0166441
686.558	0.0165947
686.636	0.0167390
686.715	0.0166737
686.793	0.0167433
686.871	0.0167282
686.949	0.0167152
687.027	0.0165954
687.105	0.0165574
687.183	0.0166447
687.261	0.0166513
687.340	0.0166424
687.418	0.0166309
687.496	0.0167512
687.574	0.0167738
687.652	0.0166553
687.730	0.0166478
687.808	0.0166208
687.886	0.0166794
687.965	0.0166877
688.043	0.0166615
688.121	0.0166038
688.199	0.0166219
688.277	0.0167601
688.355	0.0166764
688.433	0.0165825
688.511	0.0166322
688.590	0.0166588
688.668	0.0167464
688.746	0.0165987
688.824	0.0166260
688.902	0.0167516
688.980	0.0166048
689.058	0.0166695
689.136	0.0166086
689.215	0.0166600
689.293	0.0166847
689.371	0.0165755
689.449	0.0165556
689.527	0.0168164
689.605	0.0166713
689.683	0.0166137
689.761	0.0165565
689.840	0.0167214
689.918	0.0167278
689.996	0.0167467
690.074	0.0166557
690.152	0.0166349
690.230	0.0166029
690.308	0.0164829
690.386	0.0167540
690.465	0.0167210
690.543	0.0166014
690.621	0.0167303
690.699	0.0166494
690.777	0.0166652
690.855	0.0166122
690.933	0.0166096
691.011	0.0166180
691.090	0.0167223
691.168	0.0167342
691.246	0.0165573
691.324	0.0166768
691.402	0.0166195
691.480	0.0167356
691.558	0.0166590
691.636	0.0166824
691.715	0.0166061
691.793	0.0167198
691.871	0.0167200
691.949	0.0166087
692.027	0.0166747
692.105	0.0165086
692.183	0.0167310
692.261	0.0167485
692.340	0.0166380
692.418	0.0168378
692.496	0.0165466
692.574	0.0165926
692.652	0.0166705
692.730	0.0168039
692.808	0.0168084
692.886	0.0167301
692.965	0.0166096
693.043	0.0165760
693.121	0.0167662
693.199	0.0168173
693.277	0.0166140
693.355	0.0166235
693.433	0.0167703
693.511	0.0166247
693.590	0.0167338
693.668	0.0166740
693.746	0.0165804
693.824	0.0166604
693.902	0.0167136
693.980	0.0168640
694.058	0.0166677
694.136	0.0166574
694.215	0.0166250
694.293	0.0167118
694.371	0.0167175
694.449	0.0167216
694.527	0.0165621
694.605	0.0166817
694.683	0.0166470
694.761	0.0166249
694.840	0.0166967
694.918	0.0166438
694.996	0.0166924
695.074	0.0166863
695.152	0.0166890
695.230	0.0167719
695.308	0.0167159
695.386	0.0166992
695.465	0.0168156
695.543	0.0166206
695.621	0.0166230
695.699	0.0165862
695.777	0.0166118
695.855	0.0167237
695.933	0.0166912
696.011	0.0166801
696.090	0.0167144
696.168	0.0166234
696.246	0.0167185
696.324	0.0167222
696.402	0.0167011
696.480	0.0166728
696.558	0.0165909
696.636	0.0167040
696.715	0.0166345
696.793	0.0166504
696.871	0.0165744
696.949	0.0166438
697.027	0.0166803
697.105	0.0165749
697.183	0.0167780
697.261	0.0167572
697.340	0.0166186
697.418	0.0166444
697.496	0.0167123
697.574	0.0166793
697.652	0.0167102
697.730	0.0166360
697.808	0.0166612
697.886	0.0167447
697.965	0.0167738
698.043	0.0166660
698.121	0.0165680
698.199	0.0165907
698.277	0.0167514
698.355	0.0167848
698.433	0.0167918
698.511	0.0166913
698.590	0.0167844
698.668	0.0166681
698.746	0.0166483
698.824	0.0166039
698.902	0.0167216
698.980	0.0167340
699.058	0.0165976
699.136	0.0166643
699.215	0.0166903
699.293	0.0165542
699.371	0.0166245
699.449	0.0167114
699.527	0.0166276
699.605	0.0166176
699.683	0.0168114
699.761	0.0166793
699.840	0.0165825
699.918	0.0166403
699.996	0.0167435
700.074	0.0166482
700.152	0.0166733
700.230	0.0166261
700.308	0.0165298
700.386	0.0166534
700.465	0.0167744
700.543	0.0166502
700.621	0.0166360
700.699	0.0166733
700.777	0.0167570
700.855	0.0165688
700.933	0.0165923
701.011	0.0166898
701.090	0.0167355
701.168	0.0166057
701.246	0.0166308
701.324	0.0167344
701.402	0.0166129
701.480	0.0166418
701.558	0.0165959
701.636	0.0167842
701.715	0.0166623
701.793	0.0165549
701.871	0.0166209
701.949	0.0166665
702.027	0.0167146
702.105	0.0166080
702.183	0.0166501
702.261	0.0165910
702.340	0.0166338
702.418	0.0166612
702.496	0.0165137
702.574	0.0166196
702.652	0.0166240
702.730	0.0166541
702.808	0.0167050
702.886	0.0166999
702.965	0.0166103
703.043	0.0166689
703.121	0.0166881
703.199	0.0166399
703.277	0.0166611
703.355	0.0166306
703.433	0.0166792
703.511	0.0165875
703.590	0.0165334
703.668	0.0166512
703.746	0.0168106
703.824	0.0165009
703.902	0.0165889
703.980	0.0167278
704.058	0.0165967
704.136	0.0165649
704.215	0.0166734
704.293	0.0166203
704.371	0.0165718
704.449	0.0166653
704.527	0.0164615
704.605	0.0165921
704.683	0.0166083
704.761	0.0165948
704.840	0.0166425
704.918	0.0166251
704.996	0.0165931
705.074	0.0166375
705.152	0.0167953
705.230	0.0166561
705.308	0.0167233
705.386	0.0166185
705.465	0.0165769
705.543	0.0165405
705.621	0.0166248
705.699	0.0165961
705.777	0.0166317
705.855	0.0167510
705.933	0.0166624
706.011	0.0164949
706.090	0.0166311
706.168	0.0167269
706.246	0.0166684
706.324	0.0165649
706.402	0.0166960
706.480	0.0166331
706.558	0.0167775
706.636	0.0165563
706.715	0.0166604
706.793	0.0165938
706.871	0.0167181
706.949	0.0167410
707.027	0.0166905
707.105	0.0167815
707.183	0.0166236
707.261	0.0167721
707.340	0.0167287
707.418	0.0167475
707.496	0.0167017
707.574	0.0167224
707.652	0.0167209
707.730	0.0166838
707.808	0.0166926
707.886	0.0165999
707.965	0.0165845
708.043	0.0165896
708.121	0.0166946
708.199	0.0166274
708.277	0.0166692
708.355	0.0167888
708.433	0.0167113
708.511	0.0166228
708.590	0.0166375
708.668	0.0165678
708.746	0.0165870
708.824	0.0166509
708.902	0.0166299
708.980	0.0166798
709.058	0.0166897
709.136	0.0166187
709.215	0.0166752
709.293	0.0165392
709.371	0.0165084
709.449	0.0166697
709.527	0.0166045
709.605	0.0166615
709.683	0.0166053
709.761	0.0165553
709.840	0.0165583
709.918	0.0165761
709.996	0.0166736
710.074	0.0165981
710.152	0.0167319
710.230	0.0167964
710.308	0.0166499
710.386	0.0165646
710.465	0.0166711
710.543	0.0167174
710.621	0.0166905
710.699	0.0166264
710.777	0.0167462
710.855	0.0166861
710.933	0.0167506
711.011	0.0166350
711.090	0.0168607
711.168	0.0167919
711.246	0.0167577
711.324	0.0167464
711.402	0.0168079
711.480	0.0168563
711.558	0.0168151
711.636	0.0168116
711.715	0.0166719
711.793	0.0167783
711.871	0.0167898
711.949	0.0167477
712.027	0.0166995
712.105	0.0168430
712.183	0.0169801
712.261	0.0168600
712.340	0.0167612
712.418	0.0167671
712.496	0.0167645
712.574	0.0166003
712.652	0.0166352
712.730	0.0166221
712.808	0.0164509
712.886	0.0163381
712.965	0.0163375
713.043	0.0161307
713.121	0.0159738
713.199	0.0160738
713.277	0.0161095
713.355	0.0159608
713.433	0.0159822
713.511	0.0160017
713.590	0.0161379
713.668	0.0162547
713.746	0.0162862
713.824	0.0164886
713.902	0.0166097
713.980	0.0166492
714.058	0.0170254
714.136	0.0171478
714.215	0.0172705
714.293	0.0174329
714.371	0.0176318
714.449	0.0178246
714.527	0.0178300
714.605	0.0178572
714.683	0.0178900
714.761	0.0179815
714.840	0.0179399
714.918	0.0178983
714.996	0.0177312
715.074	0.0177126
715.152	0.0174774
715.230	0.0172213
715.308	0.0170306
715.386	0.0167007
715.465	0.0162192
715.543	0.0160567
715.621	0.0157364
715.699	0.0152003
715.777	0.0148428
715.855	0.0145000
715.933	0.0142173
716.011	0.0141087
716.090	0.0138937
716.168	0.0138739
716.246	0.0139239
716.324	0.0141259
716.402	0.0144965
716.480	0.0147507
716.558	0.0150822
716.636	0.0153875
716.715	0.0156635
716.793	0.0162911
716.871	0.0167838
716.949	0.0173167
717.027	0.0176890
717.105	0.0181223
717.183	0.0185268
717.261	0.0189307
717.340	0.0191037
717.418	0.0194140
717.496	0.0194373
717.574	0.0195765
717.652	0.0196519
717.730	0.0196005
717.808	0.0196230
717.886	0.0195092
717.965	0.0193154
718.043	0.0191104
718.121	0.0188995
718.199	0.0187766
718.277	0.0186748
718.355	0.0185381
718.433	0.0183230
718.511	0.0180264
718.590	0.0177412
718.668	0.0173840
718.746	0.0170088
718.824	0.0165511
718.902	0.0160470
718.980	0.0156251
719.058	0.0149921
719.136	0.0143181
719.215	0.0137352
719.293	0.0130170
719.371	0.0124008
719.449	0.0120700
719.527	0.0116083
719.605	0.0114072
719.683	0.0113530
719.761	0.0114029
719.840	0.0116417
719.918	0.0120600
719.996	0.0126429
720.074	0.0133298
720.152	0.0141251
720.230	0.0151102
720.308	0.0162052
720.386	0.0171833
720.465	0.0180771
720.543	0.0190054
720.621	0.0200115
720.699	0.0207631
720.777	0.0212727
720.855	0.0215018
720.933	0.0216973
721.011	0.0218211
721.090	0.0216919
721.168	0.0213899
721.246	0.0209886
721.324	0.0204959
721.402	0.0200504
721.480	0.0195287
721.558	0.0190685
721.636	0.0185715
721.715	0.0181441
721.793	0.0175310
721.871	0.0172971
721.949	0.0168510
722.027	0.0165305
722.105	0.0161497
722.183	0.0158706
722.261	0.0155657
722.340	0.0150577
722.418	0.0149256
722.496	0.0145399
722.574	0.0143132
722.652	0.0141563
722.730	0.0138727
722.808	0.0138171
722.886	0.0137906
722.965	0.0138309
723.043	0.0138736
723.121	0.0142663
723.199	0.0144093
723.277	0.0149622
723.355	0.0152078
723.433	0.0157223
723.511	0.0162625
723.590	0.0168387
723.668	0.0173388
723.746	0.0177081
723.824	0.0184181
723.902	0.0185892
723.980	0.0188036
724.058	0.0191012
724.136	0.0190652
724.215	0.0191267
724.293	0.0188898
724.371	0.0188525
724.449	0.0187088
724.527	0.0183984
724.605	0.0181651
724.683	0.0178133
724.761	0.0173423
724.840	0.0168702
724.918	0.0164848
724.996	0.0159707
725.074	0.0154043
725.152	0.0149242
725.230	0.0145030
725.308	0.0140876
725.386	0.0135633
725.465	0.0130552
725.543	0.0128928
725.621	0.0128078
725.699	0.0128651
725.777	0.0128025
725.855	0.0131823
725.933	0.0135462
726.011	0.0142578
726.090	0.0149943
726.168	0.0156998
726.246	0.0165815
726.324	0.0174335
726.402	0.0184373
726.480	0.0191357
726.558	0.0199895
726.636	0.0206655
726.715	0.0210904
726.793	0.0213290
726.871	0.0215753
726.949	0.0216225
727.027	0.0214176
727.105	0.0210148
727.183	0.0205129
727.261	0.0199480
727.340	0.0191335
727.418	0.0184332
727.496	0.0177094
727.574	0.0171455
727.652	0.0162824
727.730	0.0157986
727.808	0.0153490
727.886	0.0147614
727.965	0.0146474
728.043	0.0142738
728.121	0.0141136
728.199	0.0140224
728.277	0.0138574
728.355	0.0136955
728.433	0.0137251
728.511	0.0138193
728.590	0.0139664
728.668	0.0139777
728.746	0.0140852
728.824	0.0142032
728.902	0.0146801
728.980	0.0149554
729.058	0.0152573
729.136	0.0155524
729.215	0.0160584
729.293	0.0164500
729.371	0.0166942
729.449	0.0169828
729.527	0.0174667
729.605	0.0177940
729.683	0.0181815
729.761	0.0182583
729.840	0.0184818
729.918	0.0187254
729.996	0.0187587
730.074	0.0188334
730.152	0.0186707
730.230	0.0187271
730.308	0.0183403
730.386	0.0181178
730.465	0.0177627
730.543	0.0174867
730.621	0.0170901
730.699	0.0168399
730.777	0.0165605
730.855	0.0161817
730.933	0.0158975
731.011	0.0157784
731.090	0.0154902
731.168	0.0154119
731.246	0.0154995
731.324	0.0152952
731.402	0.0153451
731.480	0.0154342
731.558	0.0154902
731.636	0.0155792
731.715	0.0156507
731.793	0.0157525
731.871	0.0160557
731.949	0.0161568
732.027	0.0164871
732.105	0.0167852
732.183	0.0170736
732.261	0.0172019
732.340	0.0175566
732.418	0.0179620
732.496	0.0181714
732.574	0.0183949
732.652	0.0183993
732.730	0.0186692
732.808	0.0186435
732.886	0.0186022
732.965	0.0184184
733.043	0.0182115
733.121	0.0180329
733.199	0.0177512
733.277	0.0174109
733.355	0.0171857
733.433	0.0168935
733.511	0.0165161
733.590	0.0163364
733.668	0.0161143
733.746	0.0157903
733.824	0.0156709
733.902	0.0153873
733.980	0.0155417
734.058	0.0153404
734.136	0.0153835
734.215	0.0152804
734.293	0.0153329
734.371	0.0153902
734.449	0.0154229
734.527	0.0154165
734.605	0.0155098
734.683	0.0155653
734.761	0.0156388
734.840	0.0156270
734.918	0.0157867
734.996	0.0158366
735.074	0.0158810
735.152	0.0162253
735.230	0.0164175
735.308	0.0164797
735.386	0.0169178
735.465	0.0172077
735.543	0.0173602
735.621	0.0174069
735.699	0.0176431
735.777	0.0178943
735.855	0.0178133
735.933	0.0178963
736.011	0.0177087
736.090	0.0176299
736.168	0.0175172
736.246	0.0174051
736.324	0.0171042
736.402	0.0170181
736.480	0.0168291
736.558	0.0164758
736.636	0.0163332
736.715	0.0161653
736.793	0.0160224
736.871	0.0161131
736.949	0.0158336
737.027	0.0158530
737.105	0.0158070
737.183	0.0159705
737.261	0.0160985
737.340	0.0162727
737.418	0.0162138
737.496	0.0165417
737.574	0.0167468
737.652	0.0167696
737.730	0.0168885
737.808	0.0168848
737.886	0.0169307
737.965	0.0170016
738.043	0.0169366
738.121	0.0170207
738.199	0.0168438
738.277	0.0169146
738.355	0.0167043
738.433	0.0169666
738.511	0.0169310
738.590	0.0169864
738.668	0.0169123
738.746	0.0169437
738.824	0.0169316
738.902	0.0169310
738.980	0.0168801
739.058	0.0168011
739.136	0.0167137
739.215	0.0166421
739.293	0.0166522
739.371	0.0164664
739.449	0.0163880
739.527	0.0164984
739.605	0.0165855
739.683	0.0166080
739.761	0.0166148
739.840	0.0167892
739.918	0.0168513
739.996	0.0168977
740.074	0.0169382
740.152	0.0169961
740.230	0.0168726
740.308	0.0169221
740.386	0.0170139
740.465	0.0168711
740.543	0.0168990
740.621	0.0168516
740.699	0.0170083
740.777	0.0169759
740.855	0.0166588
740.933	0.0168761
741.011	0.0167533
741.090	0.0167154
741.168	0.0164761
741.246	0.0164169
741.324	0.0162126
741.402	0.0162067
741.480	0.0161424
741.558	0.0159620
741.636	0.0160420
741.715	0.0161374
741.793	0.0160993
741.871	0.0159344
741.949	0.0160051
742.027	0.0161085
742.105	0.0162151
742.183	0.0160619
742.261	0.0161591
742.340	0.0163305
742.418	0.0162314
742.496	0.0163647
742.574	0.0165725
742.652	0.0166599
742.730	0.0168725
742.808	0.0170222
742.886	0.0169416
742.965	0.0171288
743.043	0.0171308
743.121	0.0171755
743.199	0.0172235
743.277	0.0170700
743.355	0.0169299
743.433	0.0168774
743.511	0.0168855
743.590	0.0168659
743.668	0.0166842
743.746	0.0167458
743.824	0.0166983
743.902	0.0167342
743.980	0.0167262
744.058	0.0165981
744.136	0.0165858
744.215	0.0165741
744.293	0.0166362
744.371	0.0166777
744.449	0.0166877
744.527	0.0166903
744.605	0.0167199
744.683	0.0170023
744.761	0.0168787
744.840	0.0169029
744.918	0.0169533
744.996	0.0169948
745.074	0.0170115
745.152	0.0170759
745.230	0.0170894
745.308	0.0170278
745.386	0.0168894
745.465	0.0168046
745.543	0.0169177
745.621	0.0168517
745.699	0.0168115
745.777	0.0167906
745.855	0.0166702
745.933	0.0165211
746.011	0.0165464
746.090	0.0166291
746.168	0.0164668
746.246	0.0163766
746.324	0.0164154
746.402	0.0165273
746.480	0.0165440
746.558	0.0163165
746.636	0.0164693
746.715	0.0165065
746.793	0.0165656
746.871	0.0166521
746.949	0.0166074
747.027	0.0166848
747.105	0.0166292
747.183	0.0166323
747.261	0.0165688
747.340	0.0165348
747.418	0.0164902
747.496	0.0164835
747.574	0.0162956
747.652	0.0163714
747.730	0.0163736
747.808	0.0164720
747.886	0.0166480
747.965	0.0166001
748.043	0.0165338
748.121	0.0165719
748.199	0.0166132
748.277	0.0166450
748.355	0.0167183
748.433	0.0167406
748.511	0.0168387
748.590	0.0169855
748.668	0.0169111
748.746	0.0168839
748.824	0.0168679
748.902	0.0168936
748.980	0.0168700
749.058	0.0169617
749.136	0.0169720
749.215	0.0170798
749.293	0.0170237
749.371	0.0170003
749.449	0.0168629
749.527	0.0169055
749.605	0.0168426
749.683	0.0168720
749.761	0.0168188
749.840	0.0165537
749.918	0.0167168
749.996	0.0166852
750.074	0.0166336
750.152	0.0164717
750.230	0.0163493
750.308	0.0163060
750.386	0.0162569
750.465	0.0162955
750.543	0.0161293
750.621	0.0161454
750.699	0.0160925
750.777	0.0161162
750.855	0.0161598
750.933	0.0160345
751.011	0.0160847
751.090	0.0162158
751.168	0.0163660
751.246	0.0164275
751.324	0.0165317
751.402	0.0165678
751.480	0.0164674
751.558	0.0165826
751.636	0.0167525
751.715	0.0168958
751.793	0.0167195
751.871	0.0167519
751.949	0.0168311
752.027	0.0168208
752.105	0.0169739
752.183	0.0169890
752.261	0.0170831
752.340	0.0170692
752.418	0.0171455
752.496	0.0170646
752.574	0.0170827
752.652	0.0171812
752.730	0.0171656
752.808	0.0171917
752.886	0.0170702
752.965	0.0172271
753.043	0.0170850
753.121	0.0170579
753.199	0.0169782
753.277	0.0169252
753.355	0.0169979
753.433	0.0169061
753.511	0.0168121
753.590	0.0166817
753.668	0.0166400
753.746	0.0166002
753.824	0.0164498
753.902	0.0164216
753.980	0.0164611
754.058	0.0162823
754.136	0.0161903
754.215	0.0160944
754.293	0.0161041
754.371	0.0162650
754.449	0.0162381
754.527	0.0160728
754.605	0.0160126
754.683	0.0162244
754.761	0.0162707
754.840	0.0165164
754.918	0.0164236
754.996	0.0165366
755.074	0.0166150
755.152	0.0167436
755.230	0.0167245
755.308	0.0169220
755.386	0.0171838
755.465	0.0169755
755.543	0.0171645
755.621	0.0171659
755.699	0.0172455
755.777	0.0173000
755.855	0.0172819
755.933	0.0172721
756.011	0.0173182
756.090	0.0170677
756.168	0.0170117
756.246	0.0169684
756.324	0.0170201
756.402	0.0167306
756.480	0.0166585
756.558	0.0166695
756.636	0.0166669
756.715	0.0164838
756.793	0.0165292
756.871	0.0164072
756.949	0.0163949
757.027	0.0164683
757.105	0.0163610
757.183	0.0164696
757.261	0.0164341
757.340	0.0165425
757.418	0.0165992
757.496	0.0167481
757.574	0.0167523
757.652	0.0167399
757.730	0.0167740
757.808	0.0169006
757.886	0.0170207
757.965	0.0169175
758.043	0.0168922
758.121	0.0168674
758.199	0.0169473
758.277	0.0169012
758.355	0.0168559
758.433	0.0167812
758.511	0.0167588
758.590	0.0166918
758.668	0.0165747
758.746	0.0165466
758.824	0.0164447
758.902	0.0163716
758.980	0.0164230
759.058	0.0161903
759.136	0.0162421
759.215	0.0162841
759.293	0.0163466
759.371	0.0161819
759.449	0.0162603
759.527	0.0163541
759.605	0.0162833
759.683	0.0163846
759.761	0.0166430
759.840	0.0166445
759.918	0.0165388
759.996	0.0167336
760.074	0.0167441
760.152	0.0168102
760.230	0.0168290
760.308	0.0168778
760.386	0.0169280
760.465	0.0169752
760.543	0.0170393
760.621	0.0171060
760.699	0.0172116
760.777	0.0170616
760.855	0.0172446
760.933	0.0171140
761.011	0.0170705
761.090	0.0172288
761.168	0.0171156
761.246	0.0169820
761.324	0.0170490
761.402	0.0170388
761.480	0.0168990
761.558	0.0167900
761.636	0.0166601
761.715	0.0167116
761.793	0.0166034
761.871	0.0164263
761.949	0.0164265
762.027	0.0163705
762.105	0.0162491
762.183	0.0163280
762.261	0.0161716
762.340	0.0160651
762.418	0.0160539
762.496	0.0159194
762.574	0.0161485
762.652	0.0162159
762.730	0.0163470
762.808	0.0162125
762.886	0.0161324
762.965	0.0162916
763.043	0.0164649
763.121	0.0164751
763.199	0.0166439
763.277	0.0167207
763.355	0.0168839
763.433	0.0167572
763.511	0.0168810
763.590	0.0169408
763.668	0.0169170
763.746	0.0170736
763.824	0.0172059
763.902	0.0169612
763.980	0.0172163
764.058	0.0170470
764.136	0.0170052
764.215	0.0169640
764.293	0.0169798
764.371	0.0168003
764.449	0.0166927
764.527	0.0167161
764.605	0.0167378
764.683	0.0165263
764.761	0.0165680
764.840	0.0163034
764.918	0.0163184
764.996	0.0163274
765.074	0.0162804
765.152	0.0162890
765.230	0.0162229
765.308	0.0163016
765.386	0.0162711
765.465	0.0164307
765.543	0.0163353
765.621	0.0163165
765.699	0.0164355
765.777	0.0164677
765.855	0.0165617
765.933	0.0166959
766.011	0.0168578
766.090	0.0170023
766.168	0.0169180
766.246	0.0169104
766.324	0.0169866
766.402	0.0171480
766.480	0.0173332
766.558	0.0172607
766.636	0.0171129
766.715	0.0172070
766.793	0.0171007
766.871	0.0170908
766.949	0.0169259
767.027	0.0169158
767.105	0.0168723
767.183	0.0165378
767.261	0.0164303
767.340	0.0166312
767.418	0.0166064
767.496	0.0164713
767.574	0.0162969
767.652	0.0162414
767.730	0.0162594
767.808	0.0162857
767.886	0.0160559
767.965	0.0161481
768.043	0.0162922
768.121	0.0162490
768.199	0.0163490
768.277	0.0162888
768.355	0.0164527
768.433	0.0165254
768.511	0.0164664
768.590	0.0165647
768.668	0.0168029
768.746	0.0168350
768.824	0.0167654
768.902	0.0168114
768.980	0.0168716
769.058	0.0167825
769.136	0.0168195
769.215	0.0167944
769.293	0.0169607
769.371	0.0169479
769.449	0.0169688
769.527	0.0170222
769.605	0.0171848
769.683	0.0170787
769.761	0.0169791
769.840	0.0170540
769.918	0.0171853
769.996	0.0169843
770.074	0.0169351
770.152	0.0169981
770.230	0.0170383
770.308	0.0169706
770.386	0.0169423
770.465	0.0168488
770.543	0.0169669
770.621	0.0167709
770.699	0.0167624
770.777	0.0166920
770.855	0.0167358
770.933	0.0166663
771.011	0.0165565
771.090	0.0165304
771.168	0.0165973
771.246	0.0165578
771.324	0.0163575
771.402	0.0163583
771.480	0.0163130
771.558	0.0164508
771.636	0.0163947
771.715	0.0163004
771.793	0.0162646
771.871	0.0163247
771.949	0.0164577
772.027	0.0164594
772.105	0.0164971
772.183	0.0164669
772.261	0.0164754
772.340	0.0164605
772.418	0.0164673
772.496	0.0166627
772.574	0.0165523
772.652	0.0165565
772.730	0.0167210
772.808	0.0165160
772.886	0.0166876
772.965	0.0168503
773.043	0.0166761
773.121	0.0167049
773.199	0.0167979
773.277	0.0169067
773.355	0.0167750
773.433	0.0168570
773.511	0.0168288
773.590	0.0169213
773.668	0.0170301
773.746	0.0169549
773.824	0.0169818
773.902	0.0169360
773.980	0.0170076
774.058	0.0168372
774.136	0.0168144
774.215	0.0167525
774.293	0.0167604
774.371	0.0166315
774.449	0.0167015
774.527	0.0164973
774.605	0.0166002
774.683	0.0166517
774.761	0.0165325
774.840	0.0165788
774.918	0.0166839
774.996	0.0167780
775.074	0.0166238
775.152	0.0165549
775.230	0.0166240
775.308	0.0166882
775.386	0.0166016
775.465	0.0167450
775.543	0.0167025
775.621	0.0166628
775.699	0.0167404
775.777	0.0166633
775.855	0.0166563
775.933	0.0164897
776.011	0.0166472
776.090	0.0166035
776.168	0.0165764
776.246	0.0165613
776.324	0.0165525
776.402	0.0164105
776.480	0.0165686
776.558	0.0165981
776.636	0.0164240
776.715	0.0166751
776.793	0.0166516
776.871	0.0166818
776.949	0.0167196
777.027	0.0167059
777.105	0.0167308
777.183	0.0168092
777.261	0.0167097
777.340	0.0167741
777.418	0.0166501
777.496	0.0168112
777.574	0.0167598
777.652	0.0169249
777.730	0.0167538
777.808	0.0168404
777.886	0.0168008
777.965	0.0168060
778.043	0.0168480
778.121	0.0168524
778.199	0.0168318
778.277	0.0167673
778.355	0.0166482
778.433	0.0167398
778.511	0.0166447
778.590	0.0167313
778.668	0.0166217
778.746	0.0165652
778.824	0.0167376
778.902	0.0166859
778.980	0.0166789
779.058	0.0166322
779.136	0.0166770
779.215	0.0166240
779.293	0.0166285
779.371	0.0166589
779.449	0.0167007
779.527	0.0166195
779.605	0.0166187
779.683	0.0166746
779.761	0.0167767
779.840	0.0167242
779.918	0.0168170
779.996	0.0166294
780.074	0.0167629
780.152	0.0167687
780.230	0.0167856
780.308	0.0167644
780.386	0.0169213
780.465	0.0170486
780.543	0.0167567
780.621	0.0168035
780.699	0.0168718
780.777	0.0169242
780.855	0.0169472
780.933	0.0169611
781.011	0.0168991
781.090	0.0169920
781.168	0.0167939
781.246	0.0166826
781.324	0.0166374
781.402	0.0165699
781.480	0.0166151
781.558	0.0166116
781.636	0.0165338
781.715	0.0164964
781.793	0.0164175
781.871	0.0165374
781.949	0.0163960
782.027	0.0164149
782.105	0.0164175
782.183	0.0162990
782.261	0.0162827
782.340	0.0165674
782.418	0.0165287
782.496	0.0165070
782.574	0.0165903
782.652	0.0166675
782.730	0.0167410
782.808	0.0167354
782.886	0.0168945
782.965	0.0168386
783.043	0.0168237
783.121	0.0170012
783.199	0.0171135
783.277	0.0169638
783.355	0.0170135
783.433	0.0172009
783.511	0.0169833
783.590	0.0170311
783.668	0.0171275
783.746	0.0170940
783.824	0.0170486
783.902	0.0169371
783.980	0.0168621
784.058	0.0169807
784.136	0.0170258
784.215	0.0168846
784.293	0.0168517
784.371	0.0167564
784.449	0.0167632
784.527	0.0166970
784.605	0.0166660
784.683	0.0165696
784.761	0.0164938
784.840	0.0164828
784.918	0.0164236
784.996	0.0163689
785.074	0.0163151
785.152	0.0163324
785.230	0.0163503
785.308	0.0162292
785.386	0.0161886
785.465	0.0163609
785.543	0.0162943
785.621	0.0162570
785.699	0.0164016
785.777	0.0163905
785.855	0.0165105
785.933	0.0165271
786.011	0.0166097
786.090	0.0166599
786.168	0.0165270
786.246	0.0167227
786.324	0.0168764
786.402	0.0168449
786.480	0.0168796
786.558	0.0168510
786.636	0.0169832
786.715	0.0170178
786.793	0.0169443
786.871	0.0168172
786.949	0.0168521
787.027	0.0168423
787.105	0.0168713
787.183	0.0167043
787.261	0.0167673
787.340	0.0169288
787.418	0.0166966
787.496	0.0166858
787.574	0.0168057
787.652	0.0168035
787.730	0.0167059
787.808	0.0167239
787.886	0.0165044
787.965	0.0165839
788.043	0.0166483
788.121	0.0166586
788.199	0.0166084
788.277	0.0164215
788.355	0.0164321
788.433	0.0164006
788.511	0.0164950
788.590	0.0164391
788.668	0.0163035
788.746	0.0163493
788.824	0.0164629
788.902	0.0162892
788.980	0.0163322
789.058	0.0164115
789.136	0.0165614
789.215	0.0163676
789.293	0.0165509
789.371	0.0165877
789.449	0.0166430
789.527	0.0167374
789.605	0.0168315
789.683	0.0169153
789.761	0.0169802
789.840	0.0169186
789.918	0.0169044
789.996	0.0169414
790.074	0.0170367
790.152	0.0169488
790.230	0.0169372
790.308	0.0170982
790.386	0.0169382
790.465	0.0167946
790.543	0.0168861
790.621	0.0167318
790.699	0.0168069
790.777	0.0166351
790.855	0.0167274
790.933	0.0165923
791.011	0.0166819
791.090	0.0165408
791.168	0.0165453
791.246	0.0166644
791.324	0.0164491
791.402	0.0166203
791.480	0.0164474
791.558	0.0165628
791.636	0.0165166
791.715	0.0166064
791.793	0.0166008
791.871	0.0165213
791.949	0.0166708
792.027	0.0166004
792.105	0.0166953
792.183	0.0166498
792.261	0.0166602
792.340	0.0166956
792.418	0.0167221
792.496	0.0168050
792.574	0.0167494
792.652	0.0167393
792.730	0.0168643
792.808	0.0168137
792.886	0.0166994
792.965	0.0168491
793.043	0.0167394
793.121	0.0167645
793.199	0.0168493
793.277	0.0168690
793.355	0.0167873
793.433	0.0167398
793.511	0.0168893
793.590	0.0166267
793.668	0.0168574
793.746	0.0166183
793.824	0.0169289
793.902	0.0168623
793.980	0.0167739
794.058	0.0167780
794.136	0.0165950
794.215	0.0166051
794.293	0.0167107
794.371	0.0166461
794.449	0.0166986
794.527	0.0165396
794.605	0.0167129
794.683	0.0166423
794.761	0.0164962
794.840	0.0166171
794.918	0.0165887
794.996	0.0166719
795.074	0.0166572
795.152	0.0166293
795.230	0.0167302
795.308	0.0167377
795.386	0.0165494
795.465	0.0166150
795.543	0.0166618
795.621	0.0166962
795.699	0.0167065
795.777	0.0166945
795.855	0.0165408
795.933	0.0165948
796.011	0.0165672
796.090	0.0165773
796.168	0.0166243
796.246	0.0165874
796.324	0.0165776
796.402	0.0166588
796.480	0.0165729
796.558	0.0166736
796.636	0.0165837
796.715	0.0165970
796.793	0.0166011
796.871	0.0166100
796.949	0.0167236
797.027	0.0165694
797.105	0.0167549
797.183	0.0167612
797.261	0.0167609
797.340	0.0166476
797.418	0.0167996
797.496	0.0167588
797.574	0.0167442
797.652	0.0166478
797.730	0.0167979
797.808	0.0167529
797.886	0.0167517
797.965	0.0167945
798.043	0.0167805
798.121	0.0168037
798.199	0.0168206
798.277	0.0165946
798.355	0.0165865
798.433	0.0166313
798.511	0.0166439
798.590	0.0165646
798.668	0.0165133
798.746	0.0165906
798.824	0.0165836
798.902	0.0165527
798.980	0.0164876
799.058	0.0166851
799.136	0.0165282
799.215	0.0165537
799.293	0.0165983
799.371	0.0166055
799.449	0.0166144
799.527	0.0167194
799.605	0.0167407
799.683	0.0167027
799.761	0.0167436
799.840	0.0168248
799.918	0.0168591
799.996	0.0167802
800.074	0.0168205
800.152	0.0167165
800.230	0.0168860
800.308	0.0169242
800.386	0.0167873
800.465	0.0168154
800.543	0.0167594
800.621	0.0167601
800.699	0.0168114
800.777	0.0167938
800.855	0.0167381
800.933	0.0167090
801.011	0.0169275
801.090	0.0167547
801.168	0.0166622
801.246	0.0166798
801.324	0.0167147
801.402	0.0167285
801.480	0.0166365
801.558	0.0167484
801.636	0.0166909
801.715	0.0165431
801.793	0.0163293
801.871	0.0165484
801.949	0.0165428
802.027	0.0165810
802.105	0.0165318
802.183	0.0164561
802.261	0.0164505
802.340	0.0165462
802.418	0.0166234
802.496	0.0165404
802.574	0.0165398
802.652	0.0166077
802.730	0.0164901
802.808	0.0165372
802.886	0.0165699
802.965	0.0166718
803.043	0.0168154
803.121	0.0167606
803.199	0.0167319
803.277	0.0167161
803.355	0.0166924
803.433	0.0166930
803.511	0.0168143
803.590	0.0168376
803.668	0.0168128
803.746	0.0168041
803.824	0.0167793
803.902	0.0167242
803.980	0.0167053
804.058	0.0167314
804.136	0.0168308
804.215	0.0168681
804.293	0.0168714
804.371	0.0167268
804.449	0.0167004
804.527	0.0167344
804.605	0.0166399
804.683	0.0166692
804.761	0.0166267
804.840	0.0167892
804.918	0.0166796
804.996	0.0165600
805.074	0.0167495
805.152	0.0169080
805.230	0.0166365
805.308	0.0166073
805.386	0.0165962
805.465	0.0166616
805.543	0.0167379
805.621	0.0167209
805.699	0.0166872
805.777	0.0167377
805.855	0.0166302
805.933	0.0167965
806.011	0.0166145
806.090	0.0166676
806.168	0.0166634
806.246	0.0166811
806.324	0.0167628
806.402	0.0167015
806.480	0.0165931
806.558	0.0166955
806.636	0.0166370
806.715	0.0167120
806.793	0.0166068
806.871	0.0167413
806.949	0.0166407
807.027	0.0166852
807.105	0.0167019
807.183	0.0166770
807.261	0.0166881
807.340	0.0167274
807.418	0.0166020
807.496	0.0166661
807.574	0.0169285
807.652	0.0168578
807.730	0.0167520
807.808	0.0166254
807.886	0.0166503
807.965	0.0166246
808.043	0.0167792
808.121	0.0167639
808.199	0.0166803
808.277	0.0166872
808.355	0.0167516
808.433	0.0167637
808.511	0.0167400
808.590	0.0167587
808.668	0.0167758
808.746	0.0166798
808.824	0.0167036
808.902	0.0166483
808.980	0.0167762
809.058	0.0167187
809.136	0.0166721
809.215	0.0164674
809.293	0.0165640
809.371	0.0165620
809.449	0.0165189
809.527	0.0165971
809.605	0.0165196
809.683	0.0165008
809.761	0.0164623
809.840	0.0164848
809.918	0.0165235
809.996	0.0163727
810.074	0.0163546
810.152	0.0164783
810.230	0.0164841
810.308	0.0164178
810.386	0.0166508
810.465	0.0165941
810.543	0.0165683
810.621	0.0166935
810.699	0.0165437
810.777	0.0167225
810.855	0.0167033
810.933	0.0169131
811.011	0.0169179
811.090	0.0167851
811.168	0.0168529
811.246	0.0169194
811.324	0.0169984
811.402	0.0168716
811.480	0.0168079
811.558	0.0169010
811.636	0.0168769
811.715	0.0167946
811.793	0.0168451
811.871	0.0166827
811.949	0.0165118
812.027	0.0165602
812.105	0.0166138
812.183	0.0164611
812.261	0.0163827
812.340	0.0163713
812.418	0.0163194
812.496	0.0163301
812.574	0.0162817
812.652	0.0162578
812.730	0.0161865
812.808	0.0163390
812.886	0.0162957
812.965	0.0162604
813.043	0.0163097
813.121	0.0163210
813.199	0.0163490
813.277	0.0164343
813.355	0.0165079
813.433	0.0166769
813.511	0.0166842
813.590	0.0167828
813.668	0.0168124
813.746	0.0168147
813.824	0.0169575
813.902	0.0169851
813.980	0.0169796
814.058	0.0171590
814.136	0.0172157
814.215	0.0171798
814.293	0.0173401
814.371	0.0174112
814.449	0.0173850
814.527	0.0174748
814.605	0.0172523
814.683	0.0173983
814.761	0.0172604
814.840	0.0172263
814.918	0.0170225
814.996	0.0170374
815.074	0.0169210
815.152	0.0168980
815.230	0.0168033
815.308	0.0165250
815.386	0.0164303
815.465	0.0162856
815.543	0.0162732
815.621	0.0161513
815.699	0.0160556
815.777	0.0159119
815.855	0.0158042
815.933	0.0156647
816.011	0.0155932
816.090	0.0155879
816.168	0.0156129
816.246	0.0155350
816.324	0.0157373
816.402	0.0156987
816.480	0.0157890
816.558	0.0159515
816.636	0.0158862
816.715	0.0161616
816.793	0.0162738
816.871	0.0164436
816.949	0.0164902
817.027	0.0166921
817.105	0.0168103
817.183	0.0170208
817.261	0.0171091
817.340	0.0171619
817.418	0.0173275
817.496	0.0174311
817.574	0.0174290
817.652	0.0174704
817.730	0.0176283
817.808	0.0176881
817.886	0.0175404
817.965	0.0175323
818.043	0.0174775
818.121	0.0174953
818.199	0.0172904
818.277	0.0172906
818.355	0.0172066
818.433	0.0170670
818.511	0.0169268
818.590	0.0168710
818.668	0.0166846
818.746	0.0164921
818.824	0.0162865
818.902	0.0163790
818.980	0.0162513
819.058	0.0162724
819.136	0.0160351
819.215	0.0161107
819.293	0.0159574
819.371	0.0160457
819.449	0.0159425
819.527	0.0159697
819.605	0.0160246
819.683	0.0159319
819.761	0.0160843
819.840	0.0163102
819.918	0.0163750
819.996	0.0165645
820.074	0.0165150
820.152	0.0167547
820.230	0.0166943
820.308	0.0167702
820.386	0.0168863
820.465	0.0167707
820.543	0.0169764
820.621	0.0170550
820.699	0.0169671
820.777	0.0170415
820.855	0.0169193
820.933	0.0167680
821.011	0.0168122
821.090	0.0167540
821.168	0.0166847
821.246	0.0166541
821.324	0.0164532
821.402	0.0166390
821.480	0.0165950
821.558	0.0163167
821.636	0.0162610
821.715	0.0164355
821.793	0.0164529
821.871	0.0163564
821.949	0.0163822
822.027	0.0162635
822.105	0.0163067
822.183	0.0164445
822.261	0.0165573
822.340	0.0165533
822.418	0.0164866
822.496	0.0167321
822.574	0.0167647
822.652	0.0167346
822.730	0.0166825
822.808	0.0168014
822.886	0.0168352
822.965	0.0169875
823.043	0.0168867
823.121	0.0170354
823.199	0.0169528
823.277	0.0171910
823.355	0.0171232
823.433	0.0170950
823.511	0.0170092
823.590	0.0170051
823.668	0.0170666
823.746	0.0170721
823.824	0.0169604
823.902	0.0169600
823.980	0.0169505
824.058	0.0168283
824.136	0.0168552
824.215	0.0167713
824.293	0.0166940
824.371	0.0166814
824.449	0.0165836
824.527	0.0164680
824.605	0.0165830
824.683	0.0163799
824.761	0.0163004
824.840	0.0162230
824.918	0.0164468
824.996	0.0162569
825.074	0.0162390
825.152	0.0161057
825.230	0.0163142
825.308	0.0162570
825.386	0.0161454
825.465	0.0162952
825.543	0.0164148
825.621	0.0162844
825.699	0.0163402
825.777	0.0163718
825.855	0.0163754
825.933	0.0163629
826.011	0.0164365
826.090	0.0165530
826.168	0.0166284
826.246	0.0166146
826.324	0.0166502
826.402	0.0166682
826.480	0.0167036
826.558	0.0167295
826.636	0.0168135
826.715	0.0169218
826.793	0.0169947
826.871	0.0167546
826.949	0.0167238
827.027	0.0168994
827.105	0.0167549
827.183	0.0168285
827.261	0.0168710
827.340	0.0168822
827.418	0.0167966
827.496	0.0168085
827.574	0.0167778
827.652	0.0167728
827.730	0.0167985
827.808	0.0165791
827.886	0.0167182
827.965	0.0167158
828.043	0.0166617
828.121	0.0167409
828.199	0.0166997
828.277	0.0166364
828.355	0.0166839
828.433	0.0165956
828.511	0.0167133
828.590	0.0167520
828.668	0.0166872
828.746	0.0167799
828.824	0.0166302
828.902	0.0166759
828.980	0.0167004
829.058	0.0166990
829.136	0.0167002
829.215	0.0166259
829.293	0.0168062
829.371	0.0167232
829.449	0.0166271
829.527	0.0168006
829.605	0.0168359
829.683	0.0167934
829.761	0.0166277
829.840	0.0167130
829.918	0.0168155
829.996	0.0167741
830.074	0.0168755
830.152	0.0168695
830.230	0.0167982
830.308	0.0166875
830.386	0.0168491
830.465	0.0167352
830.543	0.0167223
830.621	0.0167305
830.699	0.0165869
830.777	0.0167043
830.855	0.0165095
830.933	0.0165872
831.011	0.0165417
831.090	0.0164200
831.168	0.0164126
831.246	0.0163913
831.324	0.0163927
831.402	0.0165897
831.480	0.0163929
831.558	0.0163940
831.636	0.0164172
831.715	0.0164973
831.793	0.0164616
831.871	0.0164603
831.949	0.0165464
832.027	0.0165170
832.105	0.0164594
832.183	0.0165140
832.261	0.0165460
832.340	0.0165556
832.418	0.0165730
832.496	0.0167284
832.574	0.0166384
832.652	0.0165741
832.730	0.0167360
832.808	0.0168088
832.886	0.0167493
832.965	0.0167473
833.043	0.0168060
833.121	0.0167958
833.199	0.0167578
833.277	0.0168335
833.355	0.0167324
833.433	0.0167759
833.511	0.0167402
833.590	0.0166940
833.668	0.0169727
833.746	0.0168609
833.824	0.0167307
833.902	0.0166903
833.980	0.0168687
834.058	0.0167623
834.136	0.0168194
834.215	0.0166314
834.293	0.0165256
834.371	0.0165929
834.449	0.0165546
834.527	0.0165285
834.605	0.0165903
834.683	0.0165399
834.761	0.0164956
834.840	0.0166536
834.918	0.0165973
834.996	0.0164744
835.074	0.0164413
835.152	0.0165504
835.230	0.0166644
835.308	0.0165979
835.386	0.0165967
835.465	0.0167051
835.543	0.0168211
835.621	0.0166897
835.699	0.0166178
835.777	0.0167667
835.855	0.0166920
835.933	0.0167484
836.011	0.0166991
836.090	0.0166739
836.168	0.0167984
836.246	0.0167239
836.324	0.0166969
836.402	0.0166068
836.480	0.0168127
836.558	0.0166782
836.636	0.0166573
836.715	0.0166616
836.793	0.0166082
836.871	0.0167661
836.949	0.0167691
837.027	0.0167635
837.105	0.0166885
837.183	0.0166801
837.261	0.0167593
837.340	0.0167097
837.418	0.0167107
837.496	0.0166573
837.574	0.0165678
837.652	0.0166980
837.730	0.0166570
837.808	0.0166443
837.886	0.0165235
837.965	0.0164227
838.043	0.0165563
838.121	0.0166044
838.199	0.0166557
838.277	0.0166631
838.355	0.0165746
838.433	0.0165267
838.511	0.0166819
838.590	0.0167722
838.668	0.0165939
838.746	0.0166264
838.824	0.0165974
838.902	0.0165726
838.980	0.0167931
839.058	0.0167093
839.136	0.0166386
839.215	0.0166984
839.293	0.0168607
839.371	0.0166280
839.449	0.0167870
839.527	0.0165960
839.605	0.0167027
839.683	0.0165495
839.761	0.0165732
839.840	0.0167146
839.918	0.0166082
839.996	0.0165386
840.074	0.0164863
840.152	0.0165908
840.230	0.0165847
840.308	0.0164805
840.386	0.0164763
840.465	0.0165203
840.543	0.0164919
840.621	0.0165317
840.699	0.0165481
840.777	0.0166804
840.855	0.0165135
840.933	0.0165012
841.011	0.0165523
841.090	0.0166333
841.168	0.0166355
841.246	0.0166946
841.324	0.0166956
841.402	0.0167176
841.480	0.0166682
841.558	0.0166856
841.636	0.0168307
841.715	0.0167316
841.793	0.0167212
841.871	0.0167218
841.949	0.0166761
842.027	0.0166801
842.105	0.0167740
842.183	0.0168227
842.261	0.0168651
842.340	0.0168198
842.418	0.0167897
842.496	0.0166903
842.574	0.0166669
842.652	0.0166399
842.730	0.0167369
842.808	0.0166450
842.886	0.0165999
842.965	0.0165166
843.043	0.0165338
843.121	0.0164890
843.199	0.0165083
843.277	0.0165022
843.355	0.0164809
843.433	0.0164732
843.511	0.0165280
843.590	0.0163811
843.668	0.0164827
843.746	0.0164687
843.824	0.0164733
843.902	0.0165929
843.980	0.0166337
844.058	0.0166428
844.136	0.0166686
844.215	0.0166597
844.293	0.0167221
844.371	0.0167068
844.449	0.0167483
844.527	0.0167789
844.605	0.0168457
844.683	0.0168120
844.761	0.0168935
844.840	0.0169836
844.918	0.0169420
844.996	0.0168171
845.074	0.0168916
845.152	0.0168222
845.230	0.0170928
845.308	0.0169848
845.386	0.0169033
845.465	0.0169296
845.543	0.0168661
845.621	0.0167819
845.699	0.0168674
845.777	0.0170408
845.855	0.0169835
845.933	0.0168975
846.011	0.0168786
846.090	0.0168435
846.168	0.0168176
846.246	0.0167024
846.324	0.0166836
846.402	0.0165669
846.480	0.0166602
846.558	0.0165742
846.636	0.0163522
846.715	0.0165358
846.793	0.0164695
846.871	0.0162892
846.949	0.0162698
847.027	0.0163953
847.105	0.0163583
847.183	0.0163451
847.261	0.0163357
847.340	0.0164198
847.418	0.0165377
847.496	0.0163792
847.574	0.0164078
847.652	0.0164783
847.730	0.0165327
847.808	0.0166349
847.886	0.0166023
847.965	0.0166267
848.043	0.0165660
848.121	0.0165642
848.199	0.0167632
848.277	0.0167825
848.355	0.0167604
848.433	0.0168417
848.511	0.0169031
848.590	0.0169207
848.668	0.0168413
848.746	0.0169211
848.824	0.0170613
848.902	0.0168605
848.980	0.0170322
849.058	0.0169153
849.136	0.0168652
849.215	0.0167068
849.293	0.0169283
849.371	0.0168237
849.449	0.0166790
849.527	0.0167783
849.605	0.0166160
849.683	0.0166740
849.761	0.0165888
849.840	0.0166599
849.918	0.0166197
849.996	0.0166010
850.074	0.0164177
850.152	0.0163068
850.230	0.0164127
850.308	0.0164507
850.386	0.0164189
850.465	0.0164342
850.543	0.0164935
850.621	0.0164632
850.699	0.0165869
850.777	0.0165940
850.855	0.0165255
850.933	0.0167252
851.011	0.0165388
851.090	0.0165852
851.168	0.0167054
851.246	0.0167818
851.324	0.0169275
851.402	0.0167969
851.480	0.0168451
851.558	0.0167993
851.636	0.0169143
851.715	0.0168954
851.793	0.0170734
851.871	0.0169521
851.949	0.0168764
852.027	0.0167196
852.105	0.0167570
852.183	0.0168972
852.261	0.0168244
852.340	0.0166337
852.418	0.0166032
852.496	0.0165060
852.574	0.0165273
852.652	0.0163932
852.730	0.0164138
852.808	0.0165238
852.886	0.0164151
852.965	0.0163565
853.043	0.0164308
853.121	0.0164880
853.199	0.0164692
853.277	0.0165379
853.355	0.0164668
853.433	0.0164900
853.511	0.0165478
853.590	0.0165958
853.668	0.0166766
853.746	0.0167033
853.824	0.0168204
853.902	0.0167127
853.980	0.0168130
854.058	0.0168114
854.136	0.0167698
854.215	0.0169077
854.293	0.0169403
854.371	0.0167937
854.449	0.0168552
854.527	0.0169334
854.605	0.0167665
854.683	0.0169530
854.761	0.0170323
854.840	0.0169392
854.918	0.0169379
854.996	0.0168981
855.074	0.0169199
855.152	0.0167103
855.230	0.0167005
855.308	0.0167359
855.386	0.0166493
855.465	0.0168218
855.543	0.0165706
855.621	0.0165778
855.699	0.0164850
855.777	0.0165291
855.855	0.0164695
855.933	0.0164422
856.011	0.0164142
856.090	0.0164482
856.168	0.0164856
856.246	0.0164240
856.324	0.0163084
856.402	0.0164374
856.480	0.0165662
856.558	0.0164853
856.636	0.0163173
856.715	0.0163850
856.793	0.0163855
856.871	0.0165004
856.949	0.0164986
857.027	0.0166042
857.105	0.0166672
857.183	0.0167812
857.261	0.0166035
857.340	0.0167796
857.418	0.0166959
857.496	0.0168299
857.574	0.0168044
857.652	0.0167709
857.730	0.0168247
857.808	0.0167895
857.886	0.0168372
857.965	0.0167327
858.043	0.0167136
858.121	0.0166483
858.199	0.0167838
858.277	0.0167078
858.355	0.0166256
858.433	0.0165116
858.511	0.0166560
858.590	0.0167153
858.668	0.0165221
858.746	0.0164574
858.824	0.0166805
858.902	0.0165590
858.980	0.0164610
859.058	0.0166096
859.136	0.0166076
859.215	0.0165236
859.293	0.0165728
859.371	0.0167454
859.449	0.0167610
859.527	0.0165906
859.605	0.0166808
859.683	0.0166425
859.761	0.0166323
859.840	0.0167113
859.918	0.0166656
859.996	0.0166316
860.074	0.0167525
860.152	0.0167249
860.230	0.0167801
860.308	0.0167221
860.386	0.0167662
860.465	0.0168030
860.543	0.0168468
860.621	0.0168591
860.699	0.0167161
860.777	0.0166571
860.855	0.0165820
860.933	0.0166454
861.011	0.0166544
861.090	0.0166542
861.168	0.0167795
861.246	0.0167735
861.324	0.0165295
861.402	0.0165590
861.480	0.0166263
861.558	0.0164968
861.636	0.0164990
861.715	0.0164616
861.793	0.0164013
861.871	0.0165150
861.949	0.0167252
862.027	0.0166248
862.105	0.0163924
862.183	0.0165351
862.261	0.0164558
862.340	0.0165857
862.418	0.0166202
862.496	0.0164236
862.574	0.0166028
862.652	0.0167336
862.730	0.0166779
862.808	0.0166565
862.886	0.0165530
862.965	0.0165739
863.043	0.0165688
863.121	0.0167318
863.199	0.0165826
863.277	0.0167617
863.355	0.0167827
863.433	0.0166571
863.511	0.0167741
863.590	0.0167472
863.668	0.0166880
863.746	0.0165932
863.824	0.0166924
863.902	0.0166730
863.980	0.0166409
864.058	0.0168100
864.136	0.0167239
864.215	0.0166558
864.293	0.0166419
864.371	0.0166660
864.449	0.0165511
864.527	0.0166633
864.605	0.0166351
864.683	0.0166828
864.761	0.0165443
864.840	0.0167046
864.918	0.0166270
864.996	0.0167244
865.074	0.0167014
865.152	0.0166982
865.230	0.0166708
865.308	0.0167052
865.386	0.0166413
865.465	0.0167492
865.543	0.0167315
865.621	0.0167149
865.699	0.0166673
865.777	0.0167817
865.855	0.0166333
865.933	0.0167323
866.011	0.0167238
866.090	0.0168915
866.168	0.0167802
866.246	0.0167052
866.324	0.0166960
866.402	0.0167000
866.480	0.0167801
866.558	0.0167165
866.636	0.0166021
866.715	0.0165289
866.793	0.0163749
866.871	0.0165060
866.949	0.0166633
867.027	0.0164434
867.105	0.0166217
867.183	0.0166805
867.261	0.0164696
867.340	0.0166161
867.418	0.0167436
867.496	0.0166161
867.574	0.0165331
867.652	0.0166416
867.730	0.0167648
867.808	0.0166815
867.886	0.0167789
867.965	0.0167030
868.043	0.0168793
868.121	0.0169268
868.199	0.0167275
868.277	0.0165833
868.355	0.0167642
868.433	0.0168443
868.511	0.0168601
868.590	0.0167480
868.668	0.0169011
868.746	0.0167661
868.824	0.0167502
868.902	0.0168047
868.980	0.0166557
869.058	0.0167095
869.136	0.0166861
869.215	0.0167619
869.293	0.0167379
869.371	0.0167081
869.449	0.0165424
869.527	0.0166695
869.605	0.0166954
869.683	0.0166361
869.761	0.0165810
869.840	0.0166526
869.918	0.0167854
869.996	0.0166207
870.074	0.0167392
870.152	0.0167785
870.230	0.0165599
870.308	0.0166878
870.386	0.0166257
870.465	0.0166302
870.543	0.0167064
870.621	0.0167197
870.699	0.0166840
870.777	0.0167171
870.855	0.0165927
870.933	0.0167196
871.011	0.0168964
871.090	0.0168226
871.168	0.0167552
871.246	0.0167244
871.324	0.0167019
871.402	0.0167502
871.480	0.0167682
871.558	0.0167220
871.636	0.0166984
871.715	0.0166509
871.793	0.0167764
871.871	0.0167146
871.949	0.0167850
872.027	0.0168073
872.105	0.0167722
872.183	0.0166850
872.261	0.0166437
872.340	0.0166114
872.418	0.0166624
872.496	0.0166486
872.574	0.0164298
872.652	0.0165462
872.730	0.0165121
872.808	0.0166406
872.886	0.0164540
872.965	0.0164616
873.043	0.0166595
873.121	0.0166525
873.199	0.0166222
873.277	0.0165873
873.355	0.0165850
873.433	0.0167300
873.511	0.0167870
873.590	0.0167379
873.668	0.0166821
873.746	0.0168073
873.824	0.0168190
873.902	0.0169241
873.980	0.0169252
874.058	0.0169227
874.136	0.0167739
874.215	0.0168455
874.293	0.0168771
874.371	0.0168214
874.449	0.0168735
874.527	0.0168669
874.605	0.0168833
874.683	0.0167384
874.761	0.0166596
874.840	0.0167378
874.918	0.0167285
874.996	0.0167789
875.074	0.0166798
875.152	0.0164935
875.230	0.0165710
875.308	0.0165819
875.386	0.0166245
875.465	0.0165515
875.543	0.0164319
875.621	0.0163966
875.699	0.0165262
875.777	0.0164923
875.855	0.0165990
875.933	0.0166552
876.011	0.0165944
876.090	0.0165432
876.168	0.0167172
876.246	0.0167224
876.324	0.0167051
876.402	0.0166790
876.480	0.0167978
876.558	0.0168216
876.636	0.0166848
876.715	0.0167345
876.793	0.0167656
876.871	0.0168058
876.949	0.0168784
877.027	0.0168128
877.105	0.0170501
877.183	0.0169485
877.261	0.0168912
877.340	0.0169045
877.418	0.0168951
877.496	0.0169827
877.574	0.0168147
877.652	0.0168460
877.730	0.0169505
877.808	0.0168188
877.886	0.0166832
877.965	0.0168269
878.043	0.0167970
878.121	0.0166138
878.199	0.0166319
878.277	0.0167308
878.355	0.0167192
878.433	0.0167381
878.511	0.0167562
878.590	0.0167095
878.668	0.0166859
878.746	0.0166136
878.824	0.0166933
878.902	0.0167341
878.980	0.0165031
879.058	0.0165094
879.136	0.0164480
879.215	0.0163689
879.293	0.0166243
879.371	0.0165445
879.449	0.0165847
879.527	0.0165751
879.605	0.0165878
879.683	0.0166434
879.761	0.0167496
879.840	0.0166452
879.918	0.0166664
879.996	0.0166246
880.074	0.0167139
880.152	0.0167820
880.230	0.0167976
880.308	0.0167603
880.386	0.0167654
880.465	0.0168185
880.543	0.0167000
880.621	0.0168614
880.699	0.0167784
880.777	0.0168374
880.855	0.0165943
880.933	0.0166608
881.011	0.0166833
881.090	0.0168286
881.168	0.0168471
881.246	0.0167730
881.324	0.0167787
881.402	0.0166889
881.480	0.0167886
881.558	0.0167771
881.636	0.0166512
881.715	0.0166068
881.793	0.0166576
881.871	0.0167201
881.949	0.0165615
882.027	0.0165839
882.105	0.0165829
882.183	0.0168130
882.261	0.0166684
882.340	0.0166759
882.418	0.0166341
882.496	0.0165000
882.574	0.0166333
882.652	0.0166454
882.730	0.0166304
882.808	0.0166883
882.886	0.0165961
882.965	0.0165329
883.043	0.0165553
883.121	0.0165435
883.199	0.0166721
883.277	0.0167307
883.355	0.0164318
883.433	0.0166617
883.511	0.0166380
883.590	0.0166199
883.668	0.0166306
883.746	0.0166099
883.824	0.0166723
883.902	0.0166748
883.980	0.0166644
884.058	0.0166856
884.136	0.0167979
884.215	0.0166063
884.293	0.0167757
884.371	0.0166525
884.449	0.0168260
884.527	0.0166702
884.605	0.0167384
884.683	0.0166676
884.761	0.0167687
884.840	0.0167154
884.918	0.0166563
884.996	0.0167401
885.074	0.0166114
885.152	0.0167952
885.230	0.0167227
885.308	0.0166766
885.386	0.0167542
885.465	0.0168009
885.543	0.0166373
885.621	0.0166054
885.699	0.0168646
885.777	0.0167052
885.855	0.0167499
885.933	0.0167933
886.011	0.0166367
886.090	0.0167627
886.168	0.0168050
886.246	0.0168590
886.324	0.0169082
886.402	0.0167902
886.480	0.0168146
886.558	0.0168314
886.636	0.0168361
886.715	0.0167375
886.793	0.0166619
886.871	0.0168111
886.949	0.0168069
887.027	0.0167121
887.105	0.0167811
887.183	0.0167324
887.261	0.0167429
887.340	0.0167365
887.418	0.0166920
887.496	0.0168359
887.574	0.0168000
887.652	0.0166722
887.730	0.0167495
887.808	0.0166735
887.886	0.0167578
887.965	0.0166896
888.043	0.0166805
888.121	0.0167163
888.199	0.0168293
888.277	0.0166861
888.355	0.0166846
888.433	0.0168197
888.511	0.0167972
888.590	0.0166662
888.668	0.0166460
888.746	0.0166332
888.824	0.0166782
888.902	0.0166093
888.980	0.0165169
889.058	0.0166652
889.136	0.0168281
889.215	0.0167156
889.293	0.0166872
889.371	0.0166802
889.449	0.0167947
889.527	0.0166629
889.605	0.0168288
889.683	0.0167471
889.761	0.0167384
889.840	0.0167273
889.918	0.0167958
889.996	0.0167232
890.074	0.0167998
890.152	0.0166534
890.230	0.0169772
890.308	0.0167477
890.386	0.0166649
890.465	0.0166555
890.543	0.0167595
890.621	0.0167600
890.699	0.0165923
890.777	0.0167033
890.855	0.0168060
890.933	0.0165994
891.011	0.0166277
891.090	0.0167649
891.168	0.0167474
891.246	0.0166161
891.324	0.0165783
891.402	0.0167375
891.480	0.0166383
891.558	0.0166581
891.636	0.0166805
891.715	0.0167722
891.793	0.0167476
891.871	0.0165884
891.949	0.0166040
892.027	0.0167522
892.105	0.0166967
892.183	0.0166866
892.261	0.0167271
892.340	0.0167719
892.418	0.0166558
892.496	0.0166648
892.574	0.0165529
892.652	0.0166940
892.730	0.0165533
892.808	0.0167727
892.886	0.0165664
892.965	0.0165137
893.043	0.0167384
893.121	0.0166449
893.199	0.0166622
893.277	0.0167250
893.355	0.0167356
893.433	0.0167725
893.511	0.0166541
893.590	0.0166001
893.668	0.0168679
893.746	0.0167017
893.824	0.0167393
893.902	0.0167787
893.980	0.0167371
894.058	0.0167611
894.136	0.0167955
894.215	0.0167609
894.293	0.0168855
894.371	0.0169152
894.449	0.0168567
894.527	0.0168156
894.605	0.0167669
894.683	0.0166354
894.761	0.0166728
894.840	0.0168869
894.918	0.0168299
894.996	0.0167311
895.074	0.0166885
895.152	0.0165383
895.230	0.0167525
895.308	0.0166351
895.386	0.0167266
895.465	0.0165623
895.543	0.0165904
895.621	0.0166647
895.699	0.0166342
895.777	0.0165708
895.855	0.0167089
895.933	0.0165578
896.011	0.0166370
896.090	0.0166476
896.168	0.0166376
896.246	0.0166575
896.324	0.0167477
896.402	0.0165953
896.480	0.0167544
896.558	0.0166972
896.636	0.0166747
896.715	0.0166949
896.793	0.0166605
896.871	0.0168838
896.949	0.0166473
897.027	0.0166469
897.105	0.0165703
897.183	0.0166949
897.261	0.0166264
897.340	0.0167883
897.418	0.0167435
897.496	0.0166738
897.574	0.0167140
897.652	0.0167876
897.730	0.0165785
897.808	0.0165990
897.886	0.0165485
897.965	0.0166817
898.043	0.0165843
898.121	0.0166494
898.199	0.0166387
898.277	0.0166035
898.355	0.0166254
898.433	0.0166662
898.511	0.0165479
898.590	0.0166780
898.668	0.0166053
898.746	0.0165157
898.824	0.0166122
898.902	0.0167515
898.980	0.0167200
899.058	0.0166878
899.136	0.0164989
899.215	0.0165203
899.293	0.0167626
899.371	0.0166076
899.449	0.0166608
899.527	0.0168158
899.605	0.0167191
899.683	0.0167594
899.761	0.0167623
899.840	0.0167207
899.918	0.0166872
899.996	0.0167875
900.074	0.0166895
900.152	0.0166880
900.230	0.0167814
900.308	0.0166895
900.386	0.0167145
900.465	0.0167051
900.543	0.0166253
900.621	0.0167363
900.699	0.0167462
900.777	0.0165372
900.855	0.0167648
900.933	0.0166760
901.011	0.0166173
901.090	0.0164663
901.168	0.0165453
901.246	0.0163721
901.324	0.0165082
901.402	0.0165182
901.480	0.0165687
901.558	0.0165082
901.636	0.0167118
901.715	0.0164860
901.793	0.0165339
901.871	0.0164853
901.949	0.0165595
902.027	0.0167445
902.105	0.0164803
902.183	0.0165466
902.261	0.0166300
902.340	0.0167481
902.418	0.0168101
902.496	0.0166873
902.574	0.0166199
902.652	0.0168267
902.730	0.0167192
902.808	0.0167142
902.886	0.0167930
902.965	0.0167825
903.043	0.0169293
903.121	0.0168203
903.199	0.0168654
903.277	0.0168787
903.355	0.0168042
903.433	0.0168641
903.511	0.0169473
903.590	0.0168001
903.668	0.0168581
903.746	0.0165923
903.824	0.0167818
903.902	0.0168515
903.980	0.0165323
904.058	0.0166953
904.136	0.0165453
904.215	0.0166622
904.293	0.0167025
904.371	0.0165295
904.449	0.0164996
904.527	0.0166642
904.605	0.0165849
904.683	0.0166264
904.761	0.0165326
904.840	0.0164758
904.918	0.0165291
904.996	0.0166422
905.074	0.0165255
905.152	0.0167472
905.230	0.0166594
905.308	0.0166324
905.386	0.0167991
905.465	0.0168176
905.543	0.0167632
905.621	0.0167333
905.699	0.0168331
905.777	0.0168327
905.855	0.0167362
905.933	0.0167628
906.011	0.0168032
906.090	0.0167073
906.168	0.0168159
906.246	0.0168324
906.324	0.0167068
906.402	0.0167815
906.480	0.0168224
906.558	0.0167844
906.636	0.0166477
906.715	0.0164956
906.793	0.0166079
906.871	0.0165673
906.949	0.0167019
907.027	0.0165315
907.105	0.0166019
907.183	0.0163451
907.261	0.0164836
907.340	0.0164737
907.418	0.0165248
907.496	0.0165222
907.574	0.0165469
907.652	0.0165471
907.730	0.0164738
907.808	0.0166383
907.886	0.0165974
907.965	0.0166763
908.043	0.0165310
908.121	0.0167548
908.199	0.0168978
908.277	0.0168521
908.355	0.0168810
908.433	0.0169124
908.511	0.0169540
908.590	0.0168935
908.668	0.0169202
908.746	0.0170172
908.824	0.0168780
908.902	0.0169012
908.980	0.0168211
909.058	0.0170145
909.136	0.0170036
909.215	0.0168782
909.293	0.0167715
909.371	0.0168295
909.449	0.0168738
909.527	0.0168326
909.605	0.0167136
909.683	0.0165462
909.761	0.0166441
909.840	0.0167048
909.918	0.0165052
909.996	0.0165474
910.074	0.0165745
910.152	0.0165891
910.230	0.0165186
910.308	0.0163376
910.386	0.0164315
910.465	0.0164467
910.543	0.0164487
910.621	0.0164234
910.699	0.0163877
910.777	0.0162929
910.855	0.0163464
910.933	0.0162773
911.011	0.0162749
911.090	0.0163828
911.168	0.0163733
911.246	0.0163791
911.324	0.0163222
911.402	0.0163897
911.480	0.0166676
911.558	0.0165826
911.636	0.0166784
911.715	0.0167504
911.793	0.0167541
911.871	0.0169603
911.949	0.0170520
912.027	0.0172216
912.105	0.0172158
912.183	0.0172421
912.261	0.0173341
912.340	0.0173769
912.418	0.0173590
912.496	0.0173696
912.574	0.0172758
912.652	0.0172368
912.730	0.0171759
912.808	0.0169572
912.886	0.0168448
912.965	0.0168374
913.043	0.0166506
913.121	0.0164731
913.199	0.0164030
913.277	0.0162317
913.355	0.0162639
913.433	0.0162532
913.511	0.0160806
913.590	0.0162778
913.668	0.0161818
913.746	0.0161575
913.824	0.0162684
913.902	0.0162527
913.980	0.0163355
914.058	0.0163345
914.136	0.0163906
914.215	0.0163326
914.293	0.0164273
914.371	0.0165012
914.449	0.0164999
914.527	0.0164293
914.605	0.0165659
914.683	0.0165977
914.761	0.0165801
914.840	0.0166233
914.918	0.0168245
914.996	0.0169129
915.074	0.0169859
915.152	0.0169260
915.230	0.0170728
915.308	0.0171670
915.386	0.0172619
915.465	0.0171709
915.543	0.0171177
915.621	0.0172006
915.699	0.0171183
915.777	0.0168914
915.855	0.0168415
915.933	0.0168172
916.011	0.0167546
916.090	0.0167416
916.168	0.0167075
916.246	0.0164803
916.324	0.0163895
916.402	0.0164620
916.480	0.0164352
916.558	0.0163393
916.636	0.0163467
916.715	0.0163693
916.793	0.0164380
916.871	0.0163031
916.949	0.0162183
917.027	0.0163330
917.105	0.0164806
917.183	0.0164742
917.261	0.0162732
917.340	0.0163669
917.418	0.0164442
917.496	0.0164668
917.574	0.0163033
917.652	0.0164632
917.730	0.0165696
917.808	0.0166016
917.886	0.0165985
917.965	0.0166364
918.043	0.0167783
918.121	0.0168171
918.199	0.0167846
918.277	0.0168810
918.355	0.0169106
918.433	0.0168645
918.511	0.0170345
918.590	0.0169889
918.668	0.0169508
918.746	0.0168327
918.824	0.0168555
918.902	0.0167499
918.980	0.0167866
919.058	0.0166463
919.136	0.0167645
919.215	0.0166049
919.293	0.0166447
919.371	0.0165698
919.449	0.0166069
919.527	0.0166096
919.605	0.0164921
919.683	0.0164935
919.761	0.0164040
919.840	0.0164467
919.918	0.0165637
919.996	0.0165987
920.074	0.0165246
920.152	0.0166520
920.230	0.0164689
920.308	0.0166380
920.386	0.0166541
920.465	0.0165585
920.543	0.0165883
920.621	0.0166450
920.699	0.0165491
920.777	0.0165902
920.855	0.0165948
920.933	0.0165918
921.011	0.0165360
921.090	0.0165554
921.168	0.0166087
921.246	0.0166572
921.324	0.0166711
921.402	0.0167530
921.480	0.0165483
921.558	0.0166136
921.636	0.0166957
921.715	0.0167206
921.793	0.0166737
921.871	0.0167902
921.949	0.0165787
922.027	0.0165793
922.105	0.0167780
922.183	0.0167690
922.261	0.0164877
922.340	0.0166004
922.418	0.0166305
922.496	0.0165698
922.574	0.0166200
922.652	0.0165430
922.730	0.0166095
922.808	0.0164850
922.886	0.0163261
922.965	0.0165545
923.043	0.0166172
923.121	0.0166176
923.199	0.0165446
923.277	0.0164645
923.355	0.0167911
923.433	0.0165517
923.511	0.0165796
923.590	0.0165267
923.668	0.0163402
923.746	0.0165302
923.824	0.0165819
923.902	0.0165685
923.980	0.0166202
924.058	0.0165105
924.136	0.0165043
924.215	0.0166039
924.293	0.0166904
924.371	0.0167480
924.449	0.0167513
924.527	0.0167994
924.605	0.0168271
924.683	0.0168569
924.761	0.0168021
924.840	0.0166768
924.918	0.0168829
924.996	0.0168918
925.074	0.0167793
925.152	0.0168926
925.230	0.0169597
925.308	0.0168186
925.386	0.0168476
925.465	0.0167477
925.543	0.0168723
925.621	0.0167227
925.699	0.0168285
925.777	0.0167138
925.855	0.0167065
925.933	0.0167441
926.011	0.0167840
926.090	0.0166912
926.168	0.0168225
926.246	0.0165925
926.324	0.0166080
926.402	0.0165572
926.480	0.0165070
926.558	0.0165519
926.636	0.0165332
926.715	0.0165136
926.793	0.0165240
926.871	0.0163937
926.949	0.0164446
927.027	0.0164075
927.105	0.0164180
927.183	0.0164627
927.261	0.0165416
927.340	0.0166325
927.418	0.0167048
927.496	0.0165175
927.574	0.0167136
927.652	0.0167637
927.730	0.0166523
927.808	0.0168212
927.886	0.0168943
927.965	0.0168720
928.043	0.0167052
928.121	0.0167254
928.199	0.0168358
928.277	0.0168953
928.355	0.0168161
928.433	0.0166833
928.511	0.0167147
928.590	0.0168514
928.668	0.0167319
928.746	0.0167493
928.824	0.0167959
928.902	0.0166263
928.980	0.0167415
929.058	0.0166968
929.136	0.0166467
929.215	0.0165284
929.293	0.0166019
929.371	0.0167261
929.449	0.0165981
929.527	0.0163770
929.605	0.0164629
929.683	0.0165697
929.761	0.0163782
929.840	0.0161573
929.918	0.0164108
929.996	0.0162831
930.074	0.0163335
930.152	0.0162221
930.230	0.0162759
930.308	0.0165043
930.386	0.0165310
930.465	0.0163739
930.543	0.0164822
930.621	0.0166182
930.699	0.0166393
930.777	0.0166053
930.855	0.0165853
930.933	0.0167856
931.011	0.0166055
931.090	0.0167448
931.168	0.0167185
931.246	0.0167025
931.324	0.0167568
931.402	0.0167916
931.480	0.0167767
931.558	0.0167080
931.636	0.0169038
931.715	0.0169849
931.793	0.0167374
931.871	0.0168196
931.949	0.0169270
932.027	0.0167631
932.105	0.0168716
932.183	0.0167439
932.261	0.0168552
932.340	0.0167831
932.418	0.0166854
932.496	0.0166843
932.574	0.0166589
932.652	0.0166565
932.730	0.0167423
932.808	0.0164275
932.886	0.0165409
932.965	0.0165546
933.043	0.0165819
933.121	0.0165598
933.199	0.0166072
933.277	0.0165257
933.355	0.0164567
933.433	0.0164767
933.511	0.0164645
933.590	0.0165316
933.668	0.0166439
933.746	0.0165815
933.824	0.0165055
933.902	0.0164915
933.980	0.0165913
934.058	0.0166174
934.136	0.0166538
934.215	0.0165648
934.293	0.0167088
934.371	0.0166975
934.449	0.0166512
934.527	0.0167130
934.605	0.0166910
934.683	0.0166859
934.761	0.0166106
934.840	0.0167825
934.918	0.0167007
934.996	0.0166899
935.074	0.0166975
935.152	0.0165475
935.230	0.0166333
935.308	0.0166390
935.386	0.0167737
935.465	0.0166302
935.543	0.0166342
935.621	0.0167252
935.699	0.0167622
935.777	0.0167040
935.855	0.0167594
935.933	0.0167062
936.011	0.0167101
936.090	0.0166863
936.168	0.0166901
936.246	0.0166805
936.324	0.0165352
936.402	0.0167756
936.480	0.0165853
936.558	0.0164835
936.636	0.0166409
936.715	0.0167785
936.793	0.0166180
936.871	0.0164584
936.949	0.0166029
937.027	0.0166148
937.105	0.0165763
937.183	0.0165060
937.261	0.0165736
937.340	0.0166114
937.418	0.0166660
937.496	0.0165574
937.574	0.0165592
937.652	0.0165862
937.730	0.0165350
937.808	0.0166967
937.886	0.0166067
937.965	0.0165417
938.043	0.0165451
938.121	0.0166278
938.199	0.0165706
938.277	0.0165474
938.355	0.0164828
938.433	0.0166548
938.511	0.0165327
938.590	0.0165896
938.668	0.0166778
938.746	0.0166169
938.824	0.0166305
938.902	0.0166898
938.980	0.0166870
939.058	0.0166782
939.136	0.0165455
939.215	0.0165913
939.293	0.0166161
939.371	0.0165497
939.449	0.0166966
939.527	0.0166891
939.605	0.0166475
939.683	0.0166285
939.761	0.0165004
939.840	0.0166842
939.918	0.0167745
939.996	0.0166722
940.074	0.0165988
940.152	0.0166464
940.230	0.0167052
940.308	0.0166936
940.386	0.0166921
940.465	0.0168262
940.543	0.0166222
940.621	0.0166295
940.699	0.0167571
940.777	0.0167340
940.855	0.0166326
940.933	0.0167870
941.011	0.0166495
941.090	0.0167396
941.168	0.0167000
941.246	0.0167579
941.324	0.0166748
941.402	0.0166035
941.480	0.0167528
941.558	0.0166534
941.636	0.0168152
941.715	0.0167014
941.793	0.0165450
941.871	0.0168916
941.949	0.0166599
942.027	0.0166675
942.105	0.0166475
942.183	0.0166933
942.261	0.0166250
942.340	0.0167765
942.418	0.0167622
942.496	0.0166278
942.574	0.0165911
942.652	0.0166164
942.730	0.0166869
942.808	0.0165984
942.886	0.0164629
942.965	0.0167315
943.043	0.0165436
943.121	0.0164796
943.199	0.0164838
943.277	0.0165830
943.355	0.0166157
943.433	0.0165264
943.511	0.0164365
943.590	0.0165228
943.668	0.0165691
943.746	0.0165656
943.824	0.0165916
943.902	0.0166438
943.980	0.0165731
944.058	0.0167494
944.136	0.0166463
944.215	0.0165807
944.293	0.0167020
944.371	0.0168215
944.449	0.0167510
944.527	0.0166990
944.605	0.0168170
944.683	0.0167983
944.761	0.0166592
944.840	0.0167282
944.918	0.0168582
944.996	0.0166476
945.074	0.0167380
945.152	0.0166026
945.230	0.0167518
945.308	0.0167568
945.386	0.0165228
945.465	0.0166258
945.543	0.0166406
945.621	0.0166712
945.699	0.0166386
945.777	0.0166315
945.855	0.0166486
945.933	0.0164519
946.011	0.0166336
946.090	0.0165049
946.168	0.0165823
946.246	0.0164161
946.324	0.0166118
946.402	0.0165694
946.480	0.0166373
946.558	0.0165462
946.636	0.0166339
946.715	0.0167401
946.793	0.0166309
946.871	0.0166399
946.949	0.0166698
947.027	0.0167374
947.105	0.0166454
947.183	0.0166422
947.261	0.0167415
947.340	0.0167630
947.418	0.0167688
947.496	0.0167768
947.574	0.0168109
947.652	0.0168542
947.730	0.0166606
947.808	0.0167182
947.886	0.0167218
947.965	0.0167797
948.043	0.0168182
948.121	0.0167857
948.199	0.0166565
948.277	0.0166957
948.355	0.0167035
948.433	0.0167392
948.511	0.0166805
948.590	0.0167757
948.668	0.0168403
948.746	0.0166227
948.824	0.0166816
948.902	0.0166232
948.980	0.0167192
949.058	0.0167430
949.136	0.0166518
949.215	0.0166322
949.293	0.0166604
949.371	0.0166392
949.449	0.0166840
949.527	0.0165037
949.605	0.0165178
949.683	0.0166469
949.761	0.0166386
949.840	0.0165722
949.918	0.0165161
