06/29/2022	21:11:13	Ver.	4.1	UNKNOWN
Optical Delay	629.995835	Delta X		0.078125	Sweeps	1	Scan Rate	0/0
Coordinates	Axis 1	NaN	Axis 2	NaN	Axis 3	NaN	Axis 4	NaN	Axis 5	NaN	Axis 6	0.000000
TX Power	0.000000	RX Power	0.000000

629.996	0.0161414
630.074	0.0160638
630.152	0.0160812
630.230	0.0160406
630.308	0.0161391
630.386	0.0160982
630.465	0.0160759
630.543	0.0160206
630.621	0.0161829
630.699	0.0161704
630.777	0.0161485
630.855	0.0160961
630.933	0.0160686
631.011	0.0160271
631.090	0.0160559
631.168	0.0160712
631.246	0.0161133
631.324	0.0161353
631.402	0.0161374
631.480	0.0159443
631.558	0.0160434
631.636	0.0161558
631.715	0.0162228
631.793	0.0159978
631.871	0.0160367
631.949	0.0161032
632.027	0.0161362
632.105	0.0161321
632.183	0.0161009
632.261	0.0161652
632.340	0.0161631
632.418	0.0161318
632.496	0.0161087
632.574	0.0162149
632.652	0.0161945
632.730	0.0161311
632.808	0.0160664
632.886	0.0162505
632.965	0.0160733
633.043	0.0161251
633.121	0.0161882
633.199	0.0160751
633.277	0.0161398
633.355	0.0161453
633.433	0.0160734
633.511	0.0161320
633.590	0.0161646
633.668	0.0161522
633.746	0.0159566
633.824	0.0160670
633.902	0.0160214
633.980	0.0160806
634.058	0.0161902
634.136	0.0160613
634.215	0.0162344
634.293	0.0159908
634.371	0.0161320
634.449	0.0162288
634.527	0.0162208
634.605	0.0161083
634.683	0.0161685
634.761	0.0160591
634.840	0.0160551
634.918	0.0161932
634.996	0.0162463
635.074	0.0161524
635.152	0.0161098
635.230	0.0162040
635.308	0.0162495
635.386	0.0160302
635.465	0.0161034
635.543	0.0162189
635.621	0.0161989
635.699	0.0161870
635.777	0.0161150
635.855	0.0161249
635.933	0.0162902
636.011	0.0160117
636.090	0.0160911
636.168	0.0162455
636.246	0.0161331
636.324	0.0161001
636.402	0.0160930
636.480	0.0160287
636.558	0.0160380
636.636	0.0160947
636.715	0.0162270
636.793	0.0160477
636.871	0.0161076
636.949	0.0160431
637.027	0.0161510
637.105	0.0161951
637.183	0.0160415
637.261	0.0161584
637.340	0.0161170
637.418	0.0161475
637.496	0.0161224
637.574	0.0160368
637.652	0.0161755
637.730	0.0161753
637.808	0.0161726
637.886	0.0161285
637.965	0.0161491
638.043	0.0162299
638.121	0.0161136
638.199	0.0162183
638.277	0.0162622
638.355	0.0160400
638.433	0.0160262
638.511	0.0161487
638.590	0.0161922
638.668	0.0161230
638.746	0.0162109
638.824	0.0162840
638.902	0.0162311
638.980	0.0162078
639.058	0.0160299
639.136	0.0160575
639.215	0.0161159
639.293	0.0161135
639.371	0.0162398
639.449	0.0161858
639.527	0.0162007
639.605	0.0161145
639.683	0.0160715
639.761	0.0161308
639.840	0.0161063
639.918	0.0161111
639.996	0.0161201
640.074	0.0162254
640.152	0.0162397
640.230	0.0160782
640.308	0.0161110
640.386	0.0161002
640.465	0.0161917
640.543	0.0162306
640.621	0.0160612
640.699	0.0161774
640.777	0.0160990
640.855	0.0161486
640.933	0.0160364
641.011	0.0159125
641.090	0.0160874
641.168	0.0161765
641.246	0.0161931
641.324	0.0162587
641.402	0.0162113
641.480	0.0161303
641.558	0.0162757
641.636	0.0162190
641.715	0.0161079
641.793	0.0161649
641.871	0.0160497
641.949	0.0161777
642.027	0.0162316
642.105	0.0160779
642.183	0.0162426
642.261	0.0160732
642.340	0.0162209
642.418	0.0160249
642.496	0.0161488
642.574	0.0160983
642.652	0.0160228
642.730	0.0161702
642.808	0.0161302
642.886	0.0161497
642.965	0.0160254
643.043	0.0161063
643.121	0.0161916
643.199	0.0161716
643.277	0.0160654
643.355	0.0162425
643.433	0.0161673
643.511	0.0160931
643.590	0.0161312
643.668	0.0163174
643.746	0.0161491
643.824	0.0160642
643.902	0.0160462
643.980	0.0162227
644.058	0.0160776
644.136	0.0161270
644.215	0.0162856
644.293	0.0162500
644.371	0.0161965
644.449	0.0160896
644.527	0.0161526
644.605	0.0160532
644.683	0.0160329
644.761	0.0161571
644.840	0.0161815
644.918	0.0161082
644.996	0.0160081
645.074	0.0161687
645.152	0.0161303
645.230	0.0160454
645.308	0.0160671
645.386	0.0160971
645.465	0.0160724
645.543	0.0161739
645.621	0.0161513
645.699	0.0160736
645.777	0.0161638
645.855	0.0161276
645.933	0.0160838
646.011	0.0160940
646.090	0.0161053
646.168	0.0160847
646.246	0.0161141
646.324	0.0161108
646.402	0.0162368
646.480	0.0161182
646.558	0.0161740
646.636	0.0161780
646.715	0.0160744
646.793	0.0161078
646.871	0.0162082
646.949	0.0161671
647.027	0.0161785
647.105	0.0161907
647.183	0.0161583
647.261	0.0161210
647.340	0.0162077
647.418	0.0162133
647.496	0.0161679
647.574	0.0161366
647.652	0.0160629
647.730	0.0161658
647.808	0.0160889
647.886	0.0162148
647.965	0.0162215
648.043	0.0161472
648.121	0.0162155
648.199	0.0160898
648.277	0.0161335
648.355	0.0161399
648.433	0.0160484
648.511	0.0161952
648.590	0.0160825
648.668	0.0160525
648.746	0.0161201
648.824	0.0161753
648.902	0.0160957
648.980	0.0160699
649.058	0.0161456
649.136	0.0161818
649.215	0.0160072
649.293	0.0160877
649.371	0.0161165
649.449	0.0160131
649.527	0.0160648
649.605	0.0161399
649.683	0.0161137
649.761	0.0161002
649.840	0.0160924
649.918	0.0160740
649.996	0.0162426
650.074	0.0160718
650.152	0.0160430
650.230	0.0161533
650.308	0.0162572
650.386	0.0161223
650.465	0.0161103
650.543	0.0159753
650.621	0.0161140
650.699	0.0161494
650.777	0.0160817
650.855	0.0161748
650.933	0.0162512
651.011	0.0161349
651.090	0.0160518
651.168	0.0159597
651.246	0.0161354
651.324	0.0161377
651.402	0.0161079
651.480	0.0160416
651.558	0.0161777
651.636	0.0161578
651.715	0.0161352
651.793	0.0160391
651.871	0.0161023
651.949	0.0162267
652.027	0.0160913
652.105	0.0161776
652.183	0.0162019
652.261	0.0161700
652.340	0.0160808
652.418	0.0160802
652.496	0.0162023
652.574	0.0161750
652.652	0.0161387
652.730	0.0161757
652.808	0.0161268
652.886	0.0162454
652.965	0.0162144
653.043	0.0160674
653.121	0.0162317
653.199	0.0160542
653.277	0.0160656
653.355	0.0161304
653.433	0.0160432
653.511	0.0161655
653.590	0.0160689
653.668	0.0160825
653.746	0.0161117
653.824	0.0160999
653.902	0.0161722
653.980	0.0160768
654.058	0.0160310
654.136	0.0160181
654.215	0.0161523
654.293	0.0161102
654.371	0.0162760
654.449	0.0161010
654.527	0.0161390
654.605	0.0161991
654.683	0.0162048
654.761	0.0161017
654.840	0.0161555
654.918	0.0160979
654.996	0.0161595
655.074	0.0160680
655.152	0.0160332
655.230	0.0160841
655.308	0.0161367
655.386	0.0160327
655.465	0.0162317
655.543	0.0161512
655.621	0.0161769
655.699	0.0162103
655.777	0.0162148
655.855	0.0160671
655.933	0.0160439
656.011	0.0161625
656.090	0.0163098
656.168	0.0161494
656.246	0.0160822
656.324	0.0161848
656.402	0.0160753
656.480	0.0161568
656.558	0.0162068
656.636	0.0160881
656.715	0.0160728
656.793	0.0161274
656.871	0.0161250
656.949	0.0161309
657.027	0.0161763
657.105	0.0161867
657.183	0.0161576
657.261	0.0160268
657.340	0.0161338
657.418	0.0163314
657.496	0.0161404
657.574	0.0161485
657.652	0.0160311
657.730	0.0159778
657.808	0.0160897
657.886	0.0162046
657.965	0.0160242
658.043	0.0161815
658.121	0.0161079
658.199	0.0161803
658.277	0.0161824
658.355	0.0161428
658.433	0.0160956
658.511	0.0162199
658.590	0.0162384
658.668	0.0161919
658.746	0.0162530
658.824	0.0162083
658.902	0.0162440
658.980	0.0161711
659.058	0.0161690
659.136	0.0161382
659.215	0.0160807
659.293	0.0160894
659.371	0.0162766
659.449	0.0161156
659.527	0.0161102
659.605	0.0161292
659.683	0.0159986
659.761	0.0163416
659.840	0.0161534
659.918	0.0162114
659.996	0.0161389
660.074	0.0161226
660.152	0.0161897
660.230	0.0162701
660.308	0.0161859
660.386	0.0160863
660.465	0.0161210
660.543	0.0161638
660.621	0.0161240
660.699	0.0160300
660.777	0.0161420
660.855	0.0162009
660.933	0.0161761
661.011	0.0160562
661.090	0.0161464
661.168	0.0161682
661.246	0.0162115
661.324	0.0161591
661.402	0.0161464
661.480	0.0161965
661.558	0.0161626
661.636	0.0161281
661.715	0.0161694
661.793	0.0160778
661.871	0.0161099
661.949	0.0160458
662.027	0.0162013
662.105	0.0161629
662.183	0.0161130
662.261	0.0161727
662.340	0.0161871
662.418	0.0162502
662.496	0.0161004
662.574	0.0161208
662.652	0.0160606
662.730	0.0160679
662.808	0.0161354
662.886	0.0161941
662.965	0.0161936
663.043	0.0160622
663.121	0.0161525
663.199	0.0161847
663.277	0.0161534
663.355	0.0161030
663.433	0.0160368
663.511	0.0162234
663.590	0.0161800
663.668	0.0161763
663.746	0.0163061
663.824	0.0160618
663.902	0.0160234
663.980	0.0162152
664.058	0.0160703
664.136	0.0162097
664.215	0.0160057
664.293	0.0161688
664.371	0.0161582
664.449	0.0161823
664.527	0.0160728
664.605	0.0161551
664.683	0.0162422
664.761	0.0160419
664.840	0.0161163
664.918	0.0161791
664.996	0.0162744
665.074	0.0162360
665.152	0.0160448
665.230	0.0161860
665.308	0.0162248
665.386	0.0161539
665.465	0.0161915
665.543	0.0162258
665.621	0.0162370
665.699	0.0160337
665.777	0.0160842
665.855	0.0161597
665.933	0.0161642
666.011	0.0161381
666.090	0.0160566
666.168	0.0161156
666.246	0.0160676
666.324	0.0161658
666.402	0.0161315
666.480	0.0160709
666.558	0.0161245
666.636	0.0161296
666.715	0.0161622
666.793	0.0161064
666.871	0.0162103
666.949	0.0160806
667.027	0.0160088
667.105	0.0162092
667.183	0.0160152
667.261	0.0161099
667.340	0.0160593
667.418	0.0161026
667.496	0.0161808
667.574	0.0160690
667.652	0.0162477
667.730	0.0161283
667.808	0.0160305
667.886	0.0160265
667.965	0.0160876
668.043	0.0161190
668.121	0.0161214
668.199	0.0160802
668.277	0.0161472
668.355	0.0162059
668.433	0.0159933
668.511	0.0161649
668.590	0.0162123
668.668	0.0161925
668.746	0.0160977
668.824	0.0161530
668.902	0.0162267
668.980	0.0159949
669.058	0.0161200
669.136	0.0161236
669.215	0.0161805
669.293	0.0162153
669.371	0.0160856
669.449	0.0161533
669.527	0.0160939
669.605	0.0161816
669.683	0.0161024
669.761	0.0161425
669.840	0.0161296
669.918	0.0160123
669.996	0.0160555
670.074	0.0162153
670.152	0.0161384
670.230	0.0160243
670.308	0.0162525
670.386	0.0161229
670.465	0.0162688
670.543	0.0161602
670.621	0.0160262
670.699	0.0162855
670.777	0.0161149
670.855	0.0161869
670.933	0.0161111
671.011	0.0160832
671.090	0.0163482
671.168	0.0162708
671.246	0.0161016
671.324	0.0160345
671.402	0.0161481
671.480	0.0161343
671.558	0.0161734
671.636	0.0162291
671.715	0.0161135
671.793	0.0162569
671.871	0.0161987
671.949	0.0161173
672.027	0.0161311
672.105	0.0162155
672.183	0.0161621
672.261	0.0161449
672.340	0.0162360
672.418	0.0162667
672.496	0.0162598
672.574	0.0162299
672.652	0.0161637
672.730	0.0160817
672.808	0.0161360
672.886	0.0162199
672.965	0.0161801
673.043	0.0162198
673.121	0.0160838
673.199	0.0162133
673.277	0.0161568
673.355	0.0162204
673.433	0.0162431
673.511	0.0162760
673.590	0.0160904
673.668	0.0161198
673.746	0.0160999
673.824	0.0162860
673.902	0.0161552
673.980	0.0162234
674.058	0.0162371
674.136	0.0161801
674.215	0.0160083
674.293	0.0161058
674.371	0.0162652
674.449	0.0160670
674.527	0.0160085
674.605	0.0162215
674.683	0.0160802
674.761	0.0161285
674.840	0.0160905
674.918	0.0161174
674.996	0.0162093
675.074	0.0161371
675.152	0.0161021
675.230	0.0160950
675.308	0.0161894
675.386	0.0160587
675.465	0.0160825
675.543	0.0162302
675.621	0.0161632
675.699	0.0160586
675.777	0.0161780
675.855	0.0161920
675.933	0.0161048
676.011	0.0160826
676.090	0.0161078
676.168	0.0162596
676.246	0.0161645
676.324	0.0161520
676.402	0.0160999
676.480	0.0160517
676.558	0.0160577
676.636	0.0162061
676.715	0.0161834
676.793	0.0161376
676.871	0.0161681
676.949	0.0160946
677.027	0.0160976
677.105	0.0161304
677.183	0.0161399
677.261	0.0162209
677.340	0.0162473
677.418	0.0161360
677.496	0.0160542
677.574	0.0161964
677.652	0.0161404
677.730	0.0160861
677.808	0.0161337
677.886	0.0162229
677.965	0.0161956
678.043	0.0160671
678.121	0.0161531
678.199	0.0161156
678.277	0.0161276
678.355	0.0162122
678.433	0.0162299
678.511	0.0161347
678.590	0.0160732
678.668	0.0161177
678.746	0.0162290
678.824	0.0160809
678.902	0.0161312
678.980	0.0161854
679.058	0.0161462
679.136	0.0160458
679.215	0.0161658
679.293	0.0161922
679.371	0.0161916
679.449	0.0162962
679.527	0.0162101
679.605	0.0160798
679.683	0.0161282
679.761	0.0160992
679.840	0.0161019
679.918	0.0162279
679.996	0.0161779
680.074	0.0161916
680.152	0.0161684
680.230	0.0161872
680.308	0.0161588
680.386	0.0161442
680.465	0.0161140
680.543	0.0162103
680.621	0.0162109
680.699	0.0161088
680.777	0.0161233
680.855	0.0162799
680.933	0.0163049
681.011	0.0161518
681.090	0.0160820
681.168	0.0162164
681.246	0.0161859
681.324	0.0161131
681.402	0.0160750
681.480	0.0159976
681.558	0.0160527
681.636	0.0160866
681.715	0.0161029
681.793	0.0160899
681.871	0.0161332
681.949	0.0160628
682.027	0.0161822
682.105	0.0161502
682.183	0.0160879
682.261	0.0161461
682.340	0.0162221
682.418	0.0162306
682.496	0.0160020
682.574	0.0162801
682.652	0.0161330
682.730	0.0160757
682.808	0.0161025
682.886	0.0162057
682.965	0.0161276
683.043	0.0161809
683.121	0.0161307
683.199	0.0162685
683.277	0.0162385
683.355	0.0162137
683.433	0.0161208
683.511	0.0160219
683.590	0.0161611
683.668	0.0161528
683.746	0.0161919
683.824	0.0161764
683.902	0.0160841
683.980	0.0162022
684.058	0.0161143
684.136	0.0162334
684.215	0.0161254
684.293	0.0161752
684.371	0.0161314
684.449	0.0161972
684.527	0.0161713
684.605	0.0161627
684.683	0.0162307
684.761	0.0161201
684.840	0.0159760
684.918	0.0160889
684.996	0.0161599
685.074	0.0161158
685.152	0.0162149
685.230	0.0161660
685.308	0.0160963
685.386	0.0160149
685.465	0.0160973
685.543	0.0164274
685.621	0.0163306
685.699	0.0161227
685.777	0.0162777
685.855	0.0161652
685.933	0.0161643
686.011	0.0161850
686.090	0.0160390
686.168	0.0162673
686.246	0.0160926
686.324	0.0161460
686.402	0.0161090
686.480	0.0161116
686.558	0.0162189
686.636	0.0161554
686.715	0.0161092
686.793	0.0161469
686.871	0.0160908
686.949	0.0160945
687.027	0.0162395
687.105	0.0160986
687.183	0.0161818
687.261	0.0160857
687.340	0.0161028
687.418	0.0160474
687.496	0.0161599
687.574	0.0161639
687.652	0.0162504
687.730	0.0160350
687.808	0.0161954
687.886	0.0162357
687.965	0.0161507
688.043	0.0161143
688.121	0.0162047
688.199	0.0161061
688.277	0.0162214
688.355	0.0162450
688.433	0.0160106
688.511	0.0160959
688.590	0.0161668
688.668	0.0161867
688.746	0.0161240
688.824	0.0160694
688.902	0.0161063
688.980	0.0162983
689.058	0.0162296
689.136	0.0160835
689.215	0.0161018
689.293	0.0162412
689.371	0.0161279
689.449	0.0161433
689.527	0.0161695
689.605	0.0160436
689.683	0.0161623
689.761	0.0161395
689.840	0.0161929
689.918	0.0161241
689.996	0.0161840
690.074	0.0162434
690.152	0.0162572
690.230	0.0160849
690.308	0.0161826
690.386	0.0160733
690.465	0.0161054
690.543	0.0160711
690.621	0.0162468
690.699	0.0161909
690.777	0.0161621
690.855	0.0162246
690.933	0.0161143
691.011	0.0161464
691.090	0.0161317
691.168	0.0160327
691.246	0.0161765
691.324	0.0161707
691.402	0.0162950
691.480	0.0161732
691.558	0.0162260
691.636	0.0162196
691.715	0.0161868
691.793	0.0161016
691.871	0.0161773
691.949	0.0161047
692.027	0.0161416
692.105	0.0162000
692.183	0.0162719
692.261	0.0161930
692.340	0.0161420
692.418	0.0161061
692.496	0.0161488
692.574	0.0161400
692.652	0.0161499
692.730	0.0163172
692.808	0.0161611
692.886	0.0162084
692.965	0.0160709
693.043	0.0161973
693.121	0.0163139
693.199	0.0162087
693.277	0.0161514
693.355	0.0162076
693.433	0.0161170
693.511	0.0162180
693.590	0.0161571
693.668	0.0161498
693.746	0.0161330
693.824	0.0161544
693.902	0.0160865
693.980	0.0161292
694.058	0.0162081
694.136	0.0162712
694.215	0.0160698
694.293	0.0162068
694.371	0.0162951
694.449	0.0164133
694.527	0.0162030
694.605	0.0160544
694.683	0.0161789
694.761	0.0160944
694.840	0.0161812
694.918	0.0161829
694.996	0.0161816
695.074	0.0161517
695.152	0.0161214
695.230	0.0162558
695.308	0.0161515
695.386	0.0161785
695.465	0.0161742
695.543	0.0161445
695.621	0.0161984
695.699	0.0160550
695.777	0.0160799
695.855	0.0163026
695.933	0.0162032
696.011	0.0162007
696.090	0.0160558
696.168	0.0160435
696.246	0.0162419
696.324	0.0162623
696.402	0.0161728
696.480	0.0161181
696.558	0.0163098
696.636	0.0162048
696.715	0.0161678
696.793	0.0161556
696.871	0.0161206
696.949	0.0161724
697.027	0.0162530
697.105	0.0162121
697.183	0.0159702
697.261	0.0161338
697.340	0.0161340
697.418	0.0161853
697.496	0.0161224
697.574	0.0161511
697.652	0.0162270
697.730	0.0160683
697.808	0.0161668
697.886	0.0161008
697.965	0.0161224
698.043	0.0160863
698.121	0.0160785
698.199	0.0162023
698.277	0.0160726
698.355	0.0162176
698.433	0.0161950
698.511	0.0161986
698.590	0.0162086
698.668	0.0162233
698.746	0.0161706
698.824	0.0159998
698.902	0.0161961
698.980	0.0160792
699.058	0.0161633
699.136	0.0160078
699.215	0.0160683
699.293	0.0160651
699.371	0.0160707
699.449	0.0161533
699.527	0.0162730
699.605	0.0160140
699.683	0.0160689
699.761	0.0161589
699.840	0.0159957
699.918	0.0160742
699.996	0.0161304
700.074	0.0160962
700.152	0.0160510
700.230	0.0161097
700.308	0.0161528
700.386	0.0161491
700.465	0.0160655
700.543	0.0160857
700.621	0.0162066
700.699	0.0162034
700.777	0.0161781
700.855	0.0161073
700.933	0.0160529
701.011	0.0162232
701.090	0.0162693
701.168	0.0161632
701.246	0.0162498
701.324	0.0161605
701.402	0.0161725
701.480	0.0161643
701.558	0.0161584
701.636	0.0161716
701.715	0.0161812
701.793	0.0160847
701.871	0.0161757
701.949	0.0161830
702.027	0.0161417
702.105	0.0161020
702.183	0.0161159
702.261	0.0161667
702.340	0.0161257
702.418	0.0162276
702.496	0.0161314
702.574	0.0161606
702.652	0.0162057
702.730	0.0160294
702.808	0.0162794
702.886	0.0161738
702.965	0.0160927
703.043	0.0162218
703.121	0.0159708
703.199	0.0161443
703.277	0.0162702
703.355	0.0160312
703.433	0.0161616
703.511	0.0160991
703.590	0.0162222
703.668	0.0161502
703.746	0.0162252
703.824	0.0162170
703.902	0.0161937
703.980	0.0162129
704.058	0.0161823
704.136	0.0160316
704.215	0.0161481
704.293	0.0160577
704.371	0.0161165
704.449	0.0161568
704.527	0.0161005
704.605	0.0162061
704.683	0.0162740
704.761	0.0160725
704.840	0.0161014
704.918	0.0164178
704.996	0.0160505
705.074	0.0161845
705.152	0.0161726
705.230	0.0160875
705.308	0.0159120
705.386	0.0161631
705.465	0.0162048
705.543	0.0160706
705.621	0.0160425
705.699	0.0163092
705.777	0.0162361
705.855	0.0161838
705.933	0.0161357
706.011	0.0161649
706.090	0.0160956
706.168	0.0160494
706.246	0.0160408
706.324	0.0162061
706.402	0.0161833
706.480	0.0162179
706.558	0.0160739
706.636	0.0162257
706.715	0.0161998
706.793	0.0160127
706.871	0.0161660
706.949	0.0161631
707.027	0.0160588
707.105	0.0161150
707.183	0.0161007
707.261	0.0162121
707.340	0.0162186
707.418	0.0159888
707.496	0.0160558
707.574	0.0159901
707.652	0.0161005
707.730	0.0162491
707.808	0.0161172
707.886	0.0159710
707.965	0.0161884
708.043	0.0160518
708.121	0.0160865
708.199	0.0161659
708.277	0.0161061
708.355	0.0162358
708.433	0.0161597
708.511	0.0161070
708.590	0.0161549
708.668	0.0163039
708.746	0.0161509
708.824	0.0160654
708.902	0.0161682
708.980	0.0162347
709.058	0.0161718
709.136	0.0162646
709.215	0.0161457
709.293	0.0163238
709.371	0.0161983
709.449	0.0162280
709.527	0.0162327
709.605	0.0160818
709.683	0.0162258
709.761	0.0161921
709.840	0.0160753
709.918	0.0161942
709.996	0.0163095
710.074	0.0162309
710.152	0.0162025
710.230	0.0162361
710.308	0.0161906
710.386	0.0163240
710.465	0.0162169
710.543	0.0161726
710.621	0.0161898
710.699	0.0160980
710.777	0.0161581
710.855	0.0160124
710.933	0.0159506
711.011	0.0161598
711.090	0.0159098
711.168	0.0159869
711.246	0.0160691
711.324	0.0161256
711.402	0.0161475
711.480	0.0160438
711.558	0.0161371
711.636	0.0161815
711.715	0.0161894
711.793	0.0160944
711.871	0.0162154
711.949	0.0161494
712.027	0.0161029
712.105	0.0160039
712.183	0.0159928
712.261	0.0160162
712.340	0.0159750
712.418	0.0159016
712.496	0.0158281
712.574	0.0158589
712.652	0.0159782
712.730	0.0158263
712.808	0.0157098
712.886	0.0157520
712.965	0.0157993
713.043	0.0157970
713.121	0.0155552
713.199	0.0156124
713.277	0.0157335
713.355	0.0158578
713.433	0.0158829
713.511	0.0159830
713.590	0.0160245
713.668	0.0162650
713.746	0.0162498
713.824	0.0164075
713.902	0.0165001
713.980	0.0165927
714.058	0.0166936
714.136	0.0170428
714.215	0.0170635
714.293	0.0171535
714.371	0.0172881
714.449	0.0172133
714.527	0.0173835
714.605	0.0174002
714.683	0.0171722
714.761	0.0171394
714.840	0.0170302
714.918	0.0169386
714.996	0.0168291
715.074	0.0164352
715.152	0.0161922
715.230	0.0160273
715.308	0.0156915
715.386	0.0155069
715.465	0.0151717
715.543	0.0148106
715.621	0.0145224
715.699	0.0145049
715.777	0.0142376
715.855	0.0140127
715.933	0.0138671
716.011	0.0140572
716.090	0.0139775
716.168	0.0141038
716.246	0.0142310
716.324	0.0144861
716.402	0.0147120
716.480	0.0151962
716.558	0.0155123
716.636	0.0158246
716.715	0.0162131
716.793	0.0165625
716.871	0.0169489
716.949	0.0173819
717.027	0.0175610
717.105	0.0177792
717.183	0.0180148
717.261	0.0181971
717.340	0.0183711
717.418	0.0184213
717.496	0.0182162
717.574	0.0181809
717.652	0.0180341
717.730	0.0178743
717.808	0.0178602
717.886	0.0176133
717.965	0.0175500
718.043	0.0174290
718.121	0.0172032
718.199	0.0173766
718.277	0.0171822
718.355	0.0172363
718.433	0.0173105
718.511	0.0172717
718.590	0.0173413
718.668	0.0171814
718.746	0.0170436
718.824	0.0168901
718.902	0.0167346
718.980	0.0163165
719.058	0.0160796
719.136	0.0157367
719.215	0.0151092
719.293	0.0146569
719.371	0.0139095
719.449	0.0134435
719.527	0.0127275
719.605	0.0125115
719.683	0.0118091
719.761	0.0113663
719.840	0.0112709
719.918	0.0112210
719.996	0.0113937
720.074	0.0116771
720.152	0.0120078
720.230	0.0125199
720.308	0.0134198
720.386	0.0142552
720.465	0.0151459
720.543	0.0160760
720.621	0.0168682
720.699	0.0177338
720.777	0.0185640
720.855	0.0191975
720.933	0.0198940
721.011	0.0202766
721.090	0.0206602
721.168	0.0208041
721.246	0.0207529
721.324	0.0204624
721.402	0.0201609
721.480	0.0197794
721.558	0.0191688
721.636	0.0186158
721.715	0.0181851
721.793	0.0176643
721.871	0.0170756
721.949	0.0168676
722.027	0.0164636
722.105	0.0164091
722.183	0.0166215
722.261	0.0167345
722.340	0.0170238
722.418	0.0173872
722.496	0.0176720
722.574	0.0178722
722.652	0.0182406
722.730	0.0182999
722.808	0.0185046
722.886	0.0182098
722.965	0.0178535
723.043	0.0173444
723.121	0.0166567
723.199	0.0158270
723.277	0.0149005
723.355	0.0140218
723.433	0.0128576
723.511	0.0119376
723.590	0.0112475
723.668	0.0103398
723.746	0.00986954
723.824	0.00967979
723.902	0.00948257
723.980	0.00978462
724.058	0.0100812
724.136	0.0105537
724.215	0.0115089
724.293	0.0123666
724.371	0.0132834
724.449	0.0143774
724.527	0.0153511
724.605	0.0163898
724.683	0.0173287
724.761	0.0181938
724.840	0.0188470
724.918	0.0194015
724.996	0.0196630
725.074	0.0198321
725.152	0.0198634
725.230	0.0196507
725.308	0.0195982
725.386	0.0193337
725.465	0.0188985
725.543	0.0186078
725.621	0.0184270
725.699	0.0179942
725.777	0.0177525
725.855	0.0175512
725.933	0.0174535
726.011	0.0175137
726.090	0.0174784
726.168	0.0175249
726.246	0.0174519
726.324	0.0174418
726.402	0.0174493
726.480	0.0173029
726.558	0.0171748
726.636	0.0172765
726.715	0.0170537
726.793	0.0167680
726.871	0.0164341
726.949	0.0159737
727.027	0.0155274
727.105	0.0150711
727.183	0.0145388
727.261	0.0141085
727.340	0.0138270
727.418	0.0134838
727.496	0.0132289
727.574	0.0131911
727.652	0.0131956
727.730	0.0134156
727.808	0.0135834
727.886	0.0139748
727.965	0.0142625
728.043	0.0149966
728.121	0.0154089
728.199	0.0160723
728.277	0.0165938
728.355	0.0170732
728.433	0.0175330
728.511	0.0178744
728.590	0.0181184
728.668	0.0183786
728.746	0.0184750
728.824	0.0185197
728.902	0.0182282
728.980	0.0178967
729.058	0.0177660
729.136	0.0175258
729.215	0.0169857
729.293	0.0163193
729.371	0.0159638
729.449	0.0155418
729.527	0.0150253
729.605	0.0147206
729.683	0.0143761
729.761	0.0141675
729.840	0.0141277
729.918	0.0143001
729.996	0.0143596
730.074	0.0146763
730.152	0.0148466
730.230	0.0152357
730.308	0.0156420
730.386	0.0159181
730.465	0.0160968
730.543	0.0163694
730.621	0.0164471
730.699	0.0166024
730.777	0.0164234
730.855	0.0162884
730.933	0.0161624
731.011	0.0160160
731.090	0.0156283
731.168	0.0154501
731.246	0.0152185
731.324	0.0150372
731.402	0.0150159
731.480	0.0151163
731.558	0.0153226
731.636	0.0154718
731.715	0.0156887
731.793	0.0161042
731.871	0.0167168
731.949	0.0169009
732.027	0.0174861
732.105	0.0178003
732.183	0.0181643
732.261	0.0185976
732.340	0.0186842
732.418	0.0188031
732.496	0.0187745
732.574	0.0185753
732.652	0.0184364
732.730	0.0180984
732.808	0.0178415
732.886	0.0173192
732.965	0.0170371
733.043	0.0164953
733.121	0.0162151
733.199	0.0157154
733.277	0.0153468
733.355	0.0151358
733.433	0.0148933
733.511	0.0147424
733.590	0.0148137
733.668	0.0147169
733.746	0.0146609
733.824	0.0149245
733.902	0.0150470
733.980	0.0152544
734.058	0.0154404
734.136	0.0157539
734.215	0.0156985
734.293	0.0159093
734.371	0.0159882
734.449	0.0161765
734.527	0.0160609
734.605	0.0159951
734.683	0.0159882
734.761	0.0157259
734.840	0.0156564
734.918	0.0153889
734.996	0.0151176
735.074	0.0150537
735.152	0.0150552
735.230	0.0148883
735.308	0.0148610
735.386	0.0147652
735.465	0.0148700
735.543	0.0149801
735.621	0.0151669
735.699	0.0153181
735.777	0.0155487
735.855	0.0158179
735.933	0.0161141
736.011	0.0161544
736.090	0.0166797
736.168	0.0167405
736.246	0.0171197
736.324	0.0173152
736.402	0.0173636
736.480	0.0174412
736.558	0.0175260
736.636	0.0175130
736.715	0.0173894
736.793	0.0171074
736.871	0.0170642
736.949	0.0168544
737.027	0.0167126
737.105	0.0164155
737.183	0.0162760
737.261	0.0162562
737.340	0.0161815
737.418	0.0161277
737.496	0.0161221
737.574	0.0159895
737.652	0.0160648
737.730	0.0161770
737.808	0.0160789
737.886	0.0161508
737.965	0.0160812
738.043	0.0161271
738.121	0.0159808
738.199	0.0159278
738.277	0.0159543
738.355	0.0159056
738.433	0.0159490
738.511	0.0158798
738.590	0.0158035
738.668	0.0157017
738.746	0.0155794
738.824	0.0155544
738.902	0.0154548
738.980	0.0153445
739.058	0.0154452
739.136	0.0153561
739.215	0.0151812
739.293	0.0153313
739.371	0.0154948
739.449	0.0157161
739.527	0.0158496
739.605	0.0161134
739.683	0.0165259
739.761	0.0167590
739.840	0.0167451
739.918	0.0170731
739.996	0.0172079
740.074	0.0173557
740.152	0.0175278
740.230	0.0177531
740.308	0.0175773
740.386	0.0175245
740.465	0.0175768
740.543	0.0174178
740.621	0.0171143
740.699	0.0169924
740.777	0.0167994
740.855	0.0166808
740.933	0.0164780
741.011	0.0161360
741.090	0.0162187
741.168	0.0158183
741.246	0.0156933
741.324	0.0155337
741.402	0.0154609
741.480	0.0152092
741.558	0.0151709
741.636	0.0151885
741.715	0.0150108
741.793	0.0150071
741.871	0.0150081
741.949	0.0149366
742.027	0.0150837
742.105	0.0151363
742.183	0.0152401
742.261	0.0152382
742.340	0.0152071
742.418	0.0152652
742.496	0.0153686
742.574	0.0154087
742.652	0.0155659
742.730	0.0156636
742.808	0.0156510
742.886	0.0159365
742.965	0.0158750
743.043	0.0160429
743.121	0.0160473
743.199	0.0161603
743.277	0.0162376
743.355	0.0164050
743.433	0.0165034
743.511	0.0165655
743.590	0.0165453
743.668	0.0166376
743.746	0.0168545
743.824	0.0169642
743.902	0.0169917
743.980	0.0169740
744.058	0.0169613
744.136	0.0169932
744.215	0.0170140
744.293	0.0171262
744.371	0.0169798
744.449	0.0169984
744.527	0.0170983
744.605	0.0169555
744.683	0.0168726
744.761	0.0167744
744.840	0.0167641
744.918	0.0167832
744.996	0.0165430
745.074	0.0163616
745.152	0.0162730
745.230	0.0160567
745.308	0.0157460
745.386	0.0157510
745.465	0.0154834
745.543	0.0154008
745.621	0.0153465
745.699	0.0151202
745.777	0.0149593
745.855	0.0151373
745.933	0.0150803
746.011	0.0152631
746.090	0.0152827
746.168	0.0153035
746.246	0.0153008
746.324	0.0153495
746.402	0.0156231
746.480	0.0158794
746.558	0.0158662
746.636	0.0158973
746.715	0.0161948
746.793	0.0162587
746.871	0.0164618
746.949	0.0165199
747.027	0.0165063
747.105	0.0166398
747.183	0.0166708
747.261	0.0166899
747.340	0.0168047
747.418	0.0168565
747.496	0.0166499
747.574	0.0166047
747.652	0.0165388
747.730	0.0165421
747.808	0.0162561
747.886	0.0161317
747.965	0.0163164
748.043	0.0162415
748.121	0.0160805
748.199	0.0161037
748.277	0.0161392
748.355	0.0159946
748.433	0.0161498
748.511	0.0161147
748.590	0.0161764
748.668	0.0160934
748.746	0.0162669
748.824	0.0161392
748.902	0.0161545
748.980	0.0162289
749.058	0.0160337
749.136	0.0162544
749.215	0.0162625
749.293	0.0162048
749.371	0.0158588
749.449	0.0158377
749.527	0.0159547
749.605	0.0156280
749.683	0.0157330
749.761	0.0157759
749.840	0.0157772
749.918	0.0155964
749.996	0.0157169
750.074	0.0158947
750.152	0.0157532
750.230	0.0159512
750.308	0.0159039
750.386	0.0158467
750.465	0.0159957
750.543	0.0160316
750.621	0.0159844
750.699	0.0161420
750.777	0.0161781
750.855	0.0161122
750.933	0.0161452
751.011	0.0162254
751.090	0.0162939
751.168	0.0162133
751.246	0.0161229
751.324	0.0163226
751.402	0.0163278
751.480	0.0163383
751.558	0.0164232
751.636	0.0164032
751.715	0.0163337
751.793	0.0162733
751.871	0.0163993
751.949	0.0163013
752.027	0.0163008
752.105	0.0162954
752.183	0.0163879
752.261	0.0163787
752.340	0.0162349
752.418	0.0163180
752.496	0.0162294
752.574	0.0161710
752.652	0.0161549
752.730	0.0162099
752.808	0.0160114
752.886	0.0161543
752.965	0.0160312
753.043	0.0161050
753.121	0.0160233
753.199	0.0159858
753.277	0.0161378
753.355	0.0160823
753.433	0.0161298
753.511	0.0161028
753.590	0.0161745
753.668	0.0161948
753.746	0.0160761
753.824	0.0161665
753.902	0.0162116
753.980	0.0162209
754.058	0.0161720
754.136	0.0161617
754.215	0.0161664
754.293	0.0161062
754.371	0.0162399
754.449	0.0161661
754.527	0.0161456
754.605	0.0160465
754.683	0.0160803
754.761	0.0162070
754.840	0.0159705
754.918	0.0160483
754.996	0.0161071
755.074	0.0159850
755.152	0.0160017
755.230	0.0161366
755.308	0.0160381
755.386	0.0159138
755.465	0.0160679
755.543	0.0160679
755.621	0.0160035
755.699	0.0160711
755.777	0.0161578
755.855	0.0161257
755.933	0.0160506
756.011	0.0159948
756.090	0.0161549
756.168	0.0162882
756.246	0.0163172
756.324	0.0163063
756.402	0.0165047
756.480	0.0162636
756.558	0.0163715
756.636	0.0165722
756.715	0.0164080
756.793	0.0164829
756.871	0.0164333
756.949	0.0163548
757.027	0.0163771
757.105	0.0164599
757.183	0.0164512
757.261	0.0163123
757.340	0.0162634
757.418	0.0162808
757.496	0.0162743
757.574	0.0163398
757.652	0.0162753
757.730	0.0161761
757.808	0.0161695
757.886	0.0160541
757.965	0.0160835
758.043	0.0159743
758.121	0.0157104
758.199	0.0158704
758.277	0.0159048
758.355	0.0156081
758.433	0.0155322
758.511	0.0154730
758.590	0.0153500
758.668	0.0153266
758.746	0.0154707
758.824	0.0155630
758.902	0.0154914
758.980	0.0155467
759.058	0.0156589
759.136	0.0157408
759.215	0.0158373
759.293	0.0157590
759.371	0.0159948
759.449	0.0160442
759.527	0.0162502
759.605	0.0163696
759.683	0.0163716
759.761	0.0166348
759.840	0.0166545
759.918	0.0167091
759.996	0.0167706
760.074	0.0167975
760.152	0.0166576
760.230	0.0166825
760.308	0.0167552
760.386	0.0165317
760.465	0.0164786
760.543	0.0164558
760.621	0.0164302
760.699	0.0162672
760.777	0.0161972
760.855	0.0162852
760.933	0.0162003
761.011	0.0159364
761.090	0.0159507
761.168	0.0160266
761.246	0.0161229
761.324	0.0158710
761.402	0.0161008
761.480	0.0159773
761.558	0.0159866
761.636	0.0160938
761.715	0.0161577
761.793	0.0161237
761.871	0.0161677
761.949	0.0160177
762.027	0.0158578
762.105	0.0160070
762.183	0.0159498
762.261	0.0159563
762.340	0.0158774
762.418	0.0156825
762.496	0.0157187
762.574	0.0156261
762.652	0.0159154
762.730	0.0158741
762.808	0.0158736
762.886	0.0159322
762.965	0.0159237
763.043	0.0158858
763.121	0.0160518
763.199	0.0158694
763.277	0.0160498
763.355	0.0161525
763.433	0.0162541
763.511	0.0161674
763.590	0.0162694
763.668	0.0163370
763.746	0.0162655
763.824	0.0162672
763.902	0.0162499
763.980	0.0163577
764.058	0.0163393
764.136	0.0161436
764.215	0.0163292
764.293	0.0163287
764.371	0.0163113
764.449	0.0165823
764.527	0.0162772
764.605	0.0162644
764.683	0.0161862
764.761	0.0164249
764.840	0.0164018
764.918	0.0162067
764.996	0.0162949
765.074	0.0162712
765.152	0.0162393
765.230	0.0162238
765.308	0.0162192
765.386	0.0163602
765.465	0.0161362
765.543	0.0159615
765.621	0.0160640
765.699	0.0160380
765.777	0.0159014
765.855	0.0157842
765.933	0.0157989
766.011	0.0158211
766.090	0.0158087
766.168	0.0157159
766.246	0.0157267
766.324	0.0157258
766.402	0.0157426
766.480	0.0157674
766.558	0.0158559
766.636	0.0157196
766.715	0.0158569
766.793	0.0158536
766.871	0.0161131
766.949	0.0161253
767.027	0.0162198
767.105	0.0162564
767.183	0.0160132
767.261	0.0162615
767.340	0.0163362
767.418	0.0162258
767.496	0.0161012
767.574	0.0161602
767.652	0.0162527
767.730	0.0161425
767.808	0.0161603
767.886	0.0161741
767.965	0.0160629
768.043	0.0160147
768.121	0.0160464
768.199	0.0161825
768.277	0.0163097
768.355	0.0162978
768.433	0.0162527
768.511	0.0163652
768.590	0.0164552
768.668	0.0162587
768.746	0.0163479
768.824	0.0164399
768.902	0.0163890
768.980	0.0162488
769.058	0.0161667
769.136	0.0159549
769.215	0.0160199
769.293	0.0159189
769.371	0.0159190
769.449	0.0158386
769.527	0.0157446
769.605	0.0158952
769.683	0.0159188
769.761	0.0158036
769.840	0.0158336
769.918	0.0159027
769.996	0.0160044
770.074	0.0161120
770.152	0.0162243
770.230	0.0161509
770.308	0.0162189
770.386	0.0164609
770.465	0.0167661
770.543	0.0166920
770.621	0.0167618
770.699	0.0166763
770.777	0.0166008
770.855	0.0166409
770.933	0.0165610
771.011	0.0164992
771.090	0.0165136
771.168	0.0163731
771.246	0.0163515
771.324	0.0160847
771.402	0.0161827
771.480	0.0159960
771.558	0.0159050
771.636	0.0159318
771.715	0.0158871
771.793	0.0157726
771.871	0.0158401
771.949	0.0157301
772.027	0.0158897
772.105	0.0157715
772.183	0.0158109
772.261	0.0157747
772.340	0.0157637
772.418	0.0158050
772.496	0.0158237
772.574	0.0158604
772.652	0.0159100
772.730	0.0159415
772.808	0.0158734
772.886	0.0157611
772.965	0.0158289
773.043	0.0158568
773.121	0.0158980
773.199	0.0159182
773.277	0.0159547
773.355	0.0161214
773.433	0.0160201
773.511	0.0161178
773.590	0.0162067
773.668	0.0162083
773.746	0.0163895
773.824	0.0165353
773.902	0.0165369
773.980	0.0165420
774.058	0.0165321
774.136	0.0166340
774.215	0.0166729
774.293	0.0166299
774.371	0.0166401
774.449	0.0165838
774.527	0.0165299
774.605	0.0164894
774.683	0.0164571
774.761	0.0162515
774.840	0.0162933
774.918	0.0161362
774.996	0.0161876
775.074	0.0161336
775.152	0.0160864
775.230	0.0159886
775.308	0.0158740
775.386	0.0159067
775.465	0.0159251
775.543	0.0158370
775.621	0.0156142
775.699	0.0156905
775.777	0.0157230
775.855	0.0158356
775.933	0.0157558
776.011	0.0157341
776.090	0.0156805
776.168	0.0156577
776.246	0.0157381
776.324	0.0157574
776.402	0.0156869
776.480	0.0157086
776.558	0.0157386
776.636	0.0156876
776.715	0.0157157
776.793	0.0158643
776.871	0.0158855
776.949	0.0160314
777.027	0.0160410
777.105	0.0159520
777.183	0.0161906
777.261	0.0162368
777.340	0.0162294
777.418	0.0163353
777.496	0.0166701
777.574	0.0165147
777.652	0.0166918
777.730	0.0167723
777.808	0.0167596
777.886	0.0168120
777.965	0.0166653
778.043	0.0166109
778.121	0.0165445
778.199	0.0165890
778.277	0.0164305
778.355	0.0163857
778.433	0.0163299
778.511	0.0163124
778.590	0.0162199
778.668	0.0162267
778.746	0.0162132
778.824	0.0161347
778.902	0.0161913
778.980	0.0162683
779.058	0.0162135
779.136	0.0162035
779.215	0.0162430
779.293	0.0162113
779.371	0.0161974
779.449	0.0162629
779.527	0.0161224
779.605	0.0161424
779.683	0.0162058
779.761	0.0160841
779.840	0.0159970
779.918	0.0160175
779.996	0.0160838
780.074	0.0160393
780.152	0.0160046
780.230	0.0158501
780.308	0.0160033
780.386	0.0159572
780.465	0.0159607
780.543	0.0158091
780.621	0.0159679
780.699	0.0161057
780.777	0.0160702
780.855	0.0161839
780.933	0.0161305
781.011	0.0161429
781.090	0.0163100
781.168	0.0164198
781.246	0.0163148
781.324	0.0164303
781.402	0.0164871
781.480	0.0164627
781.558	0.0164163
781.636	0.0162624
781.715	0.0161966
781.793	0.0163365
781.871	0.0163172
781.949	0.0162429
782.027	0.0161805
782.105	0.0161588
782.183	0.0160338
782.261	0.0160995
782.340	0.0160780
782.418	0.0160556
782.496	0.0160705
782.574	0.0160204
782.652	0.0161119
782.730	0.0160267
782.808	0.0160911
782.886	0.0161517
782.965	0.0161578
783.043	0.0162991
783.121	0.0162072
783.199	0.0163953
783.277	0.0162866
783.355	0.0163360
783.433	0.0163487
783.511	0.0162215
783.590	0.0161036
783.668	0.0161897
783.746	0.0162279
783.824	0.0162962
783.902	0.0161880
783.980	0.0161632
784.058	0.0162179
784.136	0.0161360
784.215	0.0162199
784.293	0.0160426
784.371	0.0161848
784.449	0.0161580
784.527	0.0161480
784.605	0.0162510
784.683	0.0161012
784.761	0.0162486
784.840	0.0163111
784.918	0.0162616
784.996	0.0162929
785.074	0.0161928
785.152	0.0162504
785.230	0.0162411
785.308	0.0161455
785.386	0.0160308
785.465	0.0160679
785.543	0.0160179
785.621	0.0160036
785.699	0.0159364
785.777	0.0160503
785.855	0.0159345
785.933	0.0158327
786.011	0.0159068
786.090	0.0157494
786.168	0.0159258
786.246	0.0160027
786.324	0.0159515
786.402	0.0158703
786.480	0.0160629
786.558	0.0159679
786.636	0.0161123
786.715	0.0161638
786.793	0.0161942
786.871	0.0160662
786.949	0.0161428
787.027	0.0162766
787.105	0.0163329
787.183	0.0162810
787.261	0.0163244
787.340	0.0162836
787.418	0.0161565
787.496	0.0160680
787.574	0.0162743
787.652	0.0163321
787.730	0.0162228
787.808	0.0162173
787.886	0.0163113
787.965	0.0164366
788.043	0.0163206
788.121	0.0164725
788.199	0.0163793
788.277	0.0163136
788.355	0.0164304
788.433	0.0165219
788.511	0.0163358
788.590	0.0162702
788.668	0.0162901
788.746	0.0162231
788.824	0.0160741
788.902	0.0161944
788.980	0.0160821
789.058	0.0160105
789.136	0.0161192
789.215	0.0159681
789.293	0.0158376
789.371	0.0160368
789.449	0.0159647
789.527	0.0159511
789.605	0.0159389
789.683	0.0159550
789.761	0.0159232
789.840	0.0158794
789.918	0.0158118
789.996	0.0158698
790.074	0.0159888
790.152	0.0160665
790.230	0.0160024
790.308	0.0161061
790.386	0.0161443
790.465	0.0161619
790.543	0.0162758
790.621	0.0161972
790.699	0.0162143
790.777	0.0163345
790.855	0.0163229
790.933	0.0163657
791.011	0.0163348
791.090	0.0163419
791.168	0.0164647
791.246	0.0165698
791.324	0.0164372
791.402	0.0164195
791.480	0.0164007
791.558	0.0163795
791.636	0.0163943
791.715	0.0163407
791.793	0.0163799
791.871	0.0162430
791.949	0.0162035
792.027	0.0161905
792.105	0.0160900
792.183	0.0158873
792.261	0.0158970
792.340	0.0158507
792.418	0.0158244
792.496	0.0157691
792.574	0.0157607
792.652	0.0157314
792.730	0.0157021
792.808	0.0158180
792.886	0.0157365
792.965	0.0157265
793.043	0.0158006
793.121	0.0157027
793.199	0.0157778
793.277	0.0158872
793.355	0.0160019
793.433	0.0159048
793.511	0.0160476
793.590	0.0161272
793.668	0.0160712
793.746	0.0162557
793.824	0.0162498
793.902	0.0162254
793.980	0.0163785
794.058	0.0163301
794.136	0.0164472
794.215	0.0164768
794.293	0.0164516
794.371	0.0163109
794.449	0.0164260
794.527	0.0163078
794.605	0.0164718
794.683	0.0164111
794.761	0.0165581
794.840	0.0163416
794.918	0.0162553
794.996	0.0162977
795.074	0.0162160
795.152	0.0163059
795.230	0.0161787
795.308	0.0162236
795.386	0.0162305
795.465	0.0160509
795.543	0.0160867
795.621	0.0160896
795.699	0.0160162
795.777	0.0160100
795.855	0.0160578
795.933	0.0160765
796.011	0.0160082
796.090	0.0159544
796.168	0.0159090
796.246	0.0156731
796.324	0.0158505
796.402	0.0159140
796.480	0.0159737
796.558	0.0158459
796.636	0.0158758
796.715	0.0160849
796.793	0.0160722
796.871	0.0161155
796.949	0.0159599
797.027	0.0160979
797.105	0.0162719
797.183	0.0159576
797.261	0.0160974
797.340	0.0162357
797.418	0.0163225
797.496	0.0162331
797.574	0.0163079
797.652	0.0162032
797.730	0.0162318
797.808	0.0162677
797.886	0.0163444
797.965	0.0163000
798.043	0.0162262
798.121	0.0162090
798.199	0.0161301
798.277	0.0162672
798.355	0.0163596
798.433	0.0162589
798.511	0.0161536
798.590	0.0162310
798.668	0.0162033
798.746	0.0162399
798.824	0.0162081
798.902	0.0162106
798.980	0.0162047
799.058	0.0161364
799.136	0.0161472
799.215	0.0161426
799.293	0.0160755
799.371	0.0160432
799.449	0.0160242
799.527	0.0159410
799.605	0.0160096
799.683	0.0159318
799.761	0.0159093
799.840	0.0159590
799.918	0.0160224
799.996	0.0159105
800.074	0.0159325
800.152	0.0159632
800.230	0.0160629
800.308	0.0161726
800.386	0.0162045
800.465	0.0161992
800.543	0.0161731
800.621	0.0161971
800.699	0.0162364
800.777	0.0162639
800.855	0.0164269
800.933	0.0162856
801.011	0.0162788
801.090	0.0163411
801.168	0.0164229
801.246	0.0162352
801.324	0.0164171
801.402	0.0164386
801.480	0.0163074
801.558	0.0161997
801.636	0.0162142
801.715	0.0161719
801.793	0.0162526
801.871	0.0163119
801.949	0.0162714
802.027	0.0161057
802.105	0.0160712
802.183	0.0162023
802.261	0.0162524
802.340	0.0161829
802.418	0.0161897
802.496	0.0161243
802.574	0.0161380
802.652	0.0159656
802.730	0.0162128
802.808	0.0160621
802.886	0.0161115
802.965	0.0160872
803.043	0.0160628
803.121	0.0160319
803.199	0.0159941
803.277	0.0160834
803.355	0.0159224
803.433	0.0159496
803.511	0.0159859
803.590	0.0160520
803.668	0.0160680
803.746	0.0161413
803.824	0.0161758
803.902	0.0160968
803.980	0.0160779
804.058	0.0161770
804.136	0.0161839
804.215	0.0160294
804.293	0.0162254
804.371	0.0163176
804.449	0.0163183
804.527	0.0162974
804.605	0.0164082
804.683	0.0163723
804.761	0.0165282
804.840	0.0163952
804.918	0.0163221
804.996	0.0164399
805.074	0.0164962
805.152	0.0164272
805.230	0.0163773
805.308	0.0163431
805.386	0.0163185
805.465	0.0163209
805.543	0.0162750
805.621	0.0161874
805.699	0.0159466
805.777	0.0161309
805.855	0.0161456
805.933	0.0161045
806.011	0.0159737
806.090	0.0159403
806.168	0.0159290
806.246	0.0158646
806.324	0.0158919
806.402	0.0159154
806.480	0.0160091
806.558	0.0161064
806.636	0.0159481
806.715	0.0159801
806.793	0.0160117
806.871	0.0161035
806.949	0.0160971
807.027	0.0159722
807.105	0.0159557
807.183	0.0159985
807.261	0.0161609
807.340	0.0160962
807.418	0.0161177
807.496	0.0161179
807.574	0.0162435
807.652	0.0162891
807.730	0.0162306
807.808	0.0162102
807.886	0.0161692
807.965	0.0160873
808.043	0.0161839
808.121	0.0162054
808.199	0.0161845
808.277	0.0161892
808.355	0.0161435
808.433	0.0162894
808.511	0.0161717
808.590	0.0162148
808.668	0.0163459
808.746	0.0161584
808.824	0.0161781
808.902	0.0161927
808.980	0.0161693
809.058	0.0163969
809.136	0.0162838
809.215	0.0161079
809.293	0.0161245
809.371	0.0163445
809.449	0.0161522
809.527	0.0161459
809.605	0.0161027
809.683	0.0160777
809.761	0.0161078
809.840	0.0161420
809.918	0.0161880
809.996	0.0162115
810.074	0.0159961
810.152	0.0160725
810.230	0.0158852
810.308	0.0160065
810.386	0.0160994
810.465	0.0160767
810.543	0.0162212
810.621	0.0161649
810.699	0.0161644
810.777	0.0162601
810.855	0.0163950
810.933	0.0164879
811.011	0.0163834
811.090	0.0164426
811.168	0.0163718
811.246	0.0163112
811.324	0.0164750
811.402	0.0164421
811.480	0.0163412
811.558	0.0164598
811.636	0.0162695
811.715	0.0161594
811.793	0.0161673
811.871	0.0161127
811.949	0.0160778
812.027	0.0160700
812.105	0.0160027
812.183	0.0159688
812.261	0.0159540
812.340	0.0157951
812.418	0.0158211
812.496	0.0158746
812.574	0.0157539
812.652	0.0157355
812.730	0.0157954
812.808	0.0156779
812.886	0.0157175
812.965	0.0157812
813.043	0.0160029
813.121	0.0159461
813.199	0.0159225
813.277	0.0160136
813.355	0.0160882
813.433	0.0161375
813.511	0.0162627
813.590	0.0162962
813.668	0.0161911
813.746	0.0162490
813.824	0.0162839
813.902	0.0164745
813.980	0.0164852
814.058	0.0163843
814.136	0.0163908
814.215	0.0164769
814.293	0.0164373
814.371	0.0164808
814.449	0.0165178
814.527	0.0165849
814.605	0.0165465
814.683	0.0165578
814.761	0.0166525
814.840	0.0166138
814.918	0.0164568
814.996	0.0165590
815.074	0.0166040
815.152	0.0164659
815.230	0.0164061
815.308	0.0164312
815.386	0.0161400
815.465	0.0160533
815.543	0.0160513
815.621	0.0158212
815.699	0.0158389
815.777	0.0155713
815.855	0.0154806
815.933	0.0154322
816.011	0.0152467
816.090	0.0151125
816.168	0.0152425
816.246	0.0151378
816.324	0.0151643
816.402	0.0150327
816.480	0.0149938
816.558	0.0150466
816.636	0.0150323
816.715	0.0151579
816.793	0.0151822
816.871	0.0153675
816.949	0.0155949
817.027	0.0156970
817.105	0.0158130
817.183	0.0159145
817.261	0.0162056
817.340	0.0162175
817.418	0.0164659
817.496	0.0165455
817.574	0.0166547
817.652	0.0167487
817.730	0.0168918
817.808	0.0168917
817.886	0.0169759
817.965	0.0169657
818.043	0.0170016
818.121	0.0170992
818.199	0.0170783
818.277	0.0170324
818.355	0.0169711
818.433	0.0167821
818.511	0.0170317
818.590	0.0170435
818.668	0.0169242
818.746	0.0169345
818.824	0.0168114
818.902	0.0166381
818.980	0.0164999
819.058	0.0166511
819.136	0.0163793
819.215	0.0162035
819.293	0.0161944
819.371	0.0159958
819.449	0.0159445
819.527	0.0157262
819.605	0.0155725
819.683	0.0154643
819.761	0.0154984
819.840	0.0154282
819.918	0.0152054
819.996	0.0150735
820.074	0.0151086
820.152	0.0151581
820.230	0.0150597
820.308	0.0150707
820.386	0.0151572
820.465	0.0149076
820.543	0.0150136
820.621	0.0152018
820.699	0.0152331
820.777	0.0153663
820.855	0.0154421
820.933	0.0156036
821.011	0.0156379
821.090	0.0157856
821.168	0.0159805
821.246	0.0160645
821.324	0.0161806
821.402	0.0161874
821.480	0.0163927
821.558	0.0163776
821.636	0.0166161
821.715	0.0166601
821.793	0.0167491
821.871	0.0166968
821.949	0.0168275
822.027	0.0167135
822.105	0.0168968
822.183	0.0170204
822.261	0.0168330
822.340	0.0169672
822.418	0.0169492
822.496	0.0168909
822.574	0.0169511
822.652	0.0167865
822.730	0.0167938
822.808	0.0168140
822.886	0.0166336
822.965	0.0164133
823.043	0.0163624
823.121	0.0164184
823.199	0.0163456
823.277	0.0161080
823.355	0.0160884
823.433	0.0158963
823.511	0.0158430
823.590	0.0157128
823.668	0.0157282
823.746	0.0155345
823.824	0.0154102
823.902	0.0155856
823.980	0.0154636
824.058	0.0156187
824.136	0.0155713
824.215	0.0156320
824.293	0.0156676
824.371	0.0155740
824.449	0.0157652
824.527	0.0158587
824.605	0.0160430
824.683	0.0161626
824.761	0.0161809
824.840	0.0162035
824.918	0.0163538
824.996	0.0163270
825.074	0.0163832
825.152	0.0163218
825.230	0.0162858
825.308	0.0163702
825.386	0.0163421
825.465	0.0163473
825.543	0.0163002
825.621	0.0163560
825.699	0.0161986
825.777	0.0161668
825.855	0.0161727
825.933	0.0159760
826.011	0.0161130
826.090	0.0160550
826.168	0.0158942
826.246	0.0160175
826.324	0.0161439
826.402	0.0162141
826.480	0.0160383
826.558	0.0159431
826.636	0.0158584
826.715	0.0160593
826.793	0.0161037
826.871	0.0159771
826.949	0.0159261
827.027	0.0159497
827.105	0.0159943
827.183	0.0159639
827.261	0.0160001
827.340	0.0160062
827.418	0.0160488
827.496	0.0160973
827.574	0.0160567
827.652	0.0161073
827.730	0.0160967
827.808	0.0162174
827.886	0.0161758
827.965	0.0162511
828.043	0.0162893
828.121	0.0161962
828.199	0.0162160
828.277	0.0162664
828.355	0.0161719
828.433	0.0163742
828.511	0.0163887
828.590	0.0163767
828.668	0.0163922
828.746	0.0164812
828.824	0.0163706
828.902	0.0164531
828.980	0.0163457
829.058	0.0164743
829.136	0.0166054
829.215	0.0164440
829.293	0.0165080
829.371	0.0164143
829.449	0.0164691
829.527	0.0163474
829.605	0.0162051
829.683	0.0163998
829.761	0.0163144
829.840	0.0160872
829.918	0.0161058
829.996	0.0161660
830.074	0.0161727
830.152	0.0160049
830.230	0.0161191
830.308	0.0160589
830.386	0.0159900
830.465	0.0161723
830.543	0.0160073
830.621	0.0161406
830.699	0.0160658
830.777	0.0158504
830.855	0.0159077
830.933	0.0159153
831.011	0.0159170
831.090	0.0159629
831.168	0.0159132
831.246	0.0160287
831.324	0.0160233
831.402	0.0159692
831.480	0.0160208
831.558	0.0158197
831.636	0.0160954
831.715	0.0160134
831.793	0.0159913
831.871	0.0159919
831.949	0.0160020
832.027	0.0160555
832.105	0.0159834
832.183	0.0160218
832.261	0.0159653
832.340	0.0161307
832.418	0.0159737
832.496	0.0160566
832.574	0.0160630
832.652	0.0159752
832.730	0.0159497
832.808	0.0162294
832.886	0.0161112
832.965	0.0161436
833.043	0.0163364
833.121	0.0163129
833.199	0.0162923
833.277	0.0163949
833.355	0.0163979
833.433	0.0163432
833.511	0.0164342
833.590	0.0162910
833.668	0.0162523
833.746	0.0163697
833.824	0.0163371
833.902	0.0162476
833.980	0.0162121
834.058	0.0163451
834.136	0.0161660
834.215	0.0161412
834.293	0.0161204
834.371	0.0163120
834.449	0.0161994
834.527	0.0162186
834.605	0.0161161
834.683	0.0161276
834.761	0.0161579
834.840	0.0161227
834.918	0.0160251
834.996	0.0161048
835.074	0.0160059
835.152	0.0160134
835.230	0.0159883
835.308	0.0160000
835.386	0.0159400
835.465	0.0159358
835.543	0.0159613
835.621	0.0160098
835.699	0.0160458
835.777	0.0160334
835.855	0.0159682
835.933	0.0161450
836.011	0.0161324
836.090	0.0161322
836.168	0.0161426
836.246	0.0161180
836.324	0.0162000
836.402	0.0160905
836.480	0.0160618
836.558	0.0162023
836.636	0.0162526
836.715	0.0161351
836.793	0.0161509
836.871	0.0160477
836.949	0.0162708
837.027	0.0160965
837.105	0.0160746
837.183	0.0159567
837.261	0.0161166
837.340	0.0160332
837.418	0.0160893
837.496	0.0159913
837.574	0.0160240
837.652	0.0160068
837.730	0.0159644
837.808	0.0161469
837.886	0.0159396
837.965	0.0160510
838.043	0.0162317
838.121	0.0160888
838.199	0.0161920
838.277	0.0162236
838.355	0.0162637
838.433	0.0160378
838.511	0.0161401
838.590	0.0162612
838.668	0.0163374
838.746	0.0162167
838.824	0.0160960
838.902	0.0163021
838.980	0.0161726
839.058	0.0162244
839.136	0.0161132
839.215	0.0161287
839.293	0.0161268
839.371	0.0161252
839.449	0.0161420
839.527	0.0162045
839.605	0.0160892
839.683	0.0161548
839.761	0.0163424
839.840	0.0161372
839.918	0.0161646
839.996	0.0160460
840.074	0.0160545
840.152	0.0161388
840.230	0.0162231
840.308	0.0160935
840.386	0.0161816
840.465	0.0162411
840.543	0.0162392
840.621	0.0162796
840.699	0.0160989
840.777	0.0162777
840.855	0.0162103
840.933	0.0162772
841.011	0.0159790
841.090	0.0161690
841.168	0.0161739
841.246	0.0161218
841.324	0.0161570
841.402	0.0159457
841.480	0.0161056
841.558	0.0160690
841.636	0.0160523
841.715	0.0160954
841.793	0.0161644
841.871	0.0162083
841.949	0.0160904
842.027	0.0161364
842.105	0.0161173
842.183	0.0161499
842.261	0.0161450
842.340	0.0159875
842.418	0.0162335
842.496	0.0161927
842.574	0.0159512
842.652	0.0159903
842.730	0.0161746
842.808	0.0160560
842.886	0.0160426
842.965	0.0161916
843.043	0.0160188
843.121	0.0160967
843.199	0.0158980
843.277	0.0158620
843.355	0.0160893
843.433	0.0160391
843.511	0.0160800
843.590	0.0161259
843.668	0.0161056
843.746	0.0160630
843.824	0.0158783
843.902	0.0160757
843.980	0.0162431
844.058	0.0161547
844.136	0.0161320
844.215	0.0161507
844.293	0.0161294
844.371	0.0162201
844.449	0.0161564
844.527	0.0161533
844.605	0.0162146
844.683	0.0161759
844.761	0.0161330
844.840	0.0162138
844.918	0.0161562
844.996	0.0163525
845.074	0.0161661
845.152	0.0163074
845.230	0.0162331
845.308	0.0161329
845.386	0.0162082
845.465	0.0163245
845.543	0.0161789
845.621	0.0163504
845.699	0.0162299
845.777	0.0161977
845.855	0.0162978
845.933	0.0162754
846.011	0.0162228
846.090	0.0161014
846.168	0.0162926
846.246	0.0162402
846.324	0.0161833
846.402	0.0162186
846.480	0.0161871
846.558	0.0161225
846.636	0.0162601
846.715	0.0161161
846.793	0.0160536
846.871	0.0159436
846.949	0.0160635
847.027	0.0160244
847.105	0.0158046
847.183	0.0158383
847.261	0.0160711
847.340	0.0159216
847.418	0.0159674
847.496	0.0158340
847.574	0.0157133
847.652	0.0158042
847.730	0.0158827
847.808	0.0158099
847.886	0.0158344
847.965	0.0158932
848.043	0.0158354
848.121	0.0159070
848.199	0.0159366
848.277	0.0160635
848.355	0.0160708
848.433	0.0160831
848.511	0.0161045
848.590	0.0162161
848.668	0.0162445
848.746	0.0163721
848.824	0.0162988
848.902	0.0164121
848.980	0.0163739
849.058	0.0163201
849.136	0.0163063
849.215	0.0165692
849.293	0.0164413
849.371	0.0164748
849.449	0.0165762
849.527	0.0166253
849.605	0.0167269
849.683	0.0164326
849.761	0.0164051
849.840	0.0165443
849.918	0.0164207
849.996	0.0163669
850.074	0.0163670
850.152	0.0162350
850.230	0.0161047
850.308	0.0160726
850.386	0.0161435
850.465	0.0160873
850.543	0.0159565
850.621	0.0159869
850.699	0.0159049
850.777	0.0158637
850.855	0.0158613
850.933	0.0159865
851.011	0.0159499
851.090	0.0159364
851.168	0.0159703
851.246	0.0158800
851.324	0.0160768
851.402	0.0160370
851.480	0.0160088
851.558	0.0160380
851.636	0.0159345
851.715	0.0159335
851.793	0.0161114
851.871	0.0161047
851.949	0.0161895
852.027	0.0160208
852.105	0.0161866
852.183	0.0161206
852.261	0.0161113
852.340	0.0160577
852.418	0.0162335
852.496	0.0160945
852.574	0.0162412
852.652	0.0162345
852.730	0.0162057
852.808	0.0163354
852.886	0.0162409
852.965	0.0162794
853.043	0.0162417
853.121	0.0162173
853.199	0.0164189
853.277	0.0163898
853.355	0.0163000
853.433	0.0162537
853.511	0.0162304
853.590	0.0164952
853.668	0.0163897
853.746	0.0162719
853.824	0.0162749
853.902	0.0163052
853.980	0.0162840
854.058	0.0162941
854.136	0.0160967
854.215	0.0161681
854.293	0.0161314
854.371	0.0159329
854.449	0.0159871
854.527	0.0160706
854.605	0.0158876
854.683	0.0160039
854.761	0.0160781
854.840	0.0160413
854.918	0.0159582
854.996	0.0159265
855.074	0.0159274
855.152	0.0160356
855.230	0.0161041
855.308	0.0161565
855.386	0.0160963
855.465	0.0162165
855.543	0.0161273
855.621	0.0161310
855.699	0.0161945
855.777	0.0162058
855.855	0.0162552
855.933	0.0162463
856.011	0.0162600
856.090	0.0162505
856.168	0.0162297
856.246	0.0162803
856.324	0.0161090
856.402	0.0160871
856.480	0.0162541
856.558	0.0162921
856.636	0.0162063
856.715	0.0162161
856.793	0.0159838
856.871	0.0161534
856.949	0.0162798
857.027	0.0160348
857.105	0.0160940
857.183	0.0161066
857.261	0.0160042
857.340	0.0160706
857.418	0.0160821
857.496	0.0159352
857.574	0.0159184
857.652	0.0159375
857.730	0.0160117
857.808	0.0160110
857.886	0.0159772
857.965	0.0159780
858.043	0.0159074
858.121	0.0160006
858.199	0.0160911
858.277	0.0160278
858.355	0.0161578
858.433	0.0161190
858.511	0.0161269
858.590	0.0161893
858.668	0.0161905
858.746	0.0163112
858.824	0.0163830
858.902	0.0161716
858.980	0.0162565
859.058	0.0163746
859.136	0.0162922
859.215	0.0163686
859.293	0.0163984
859.371	0.0163326
859.449	0.0164593
859.527	0.0163503
859.605	0.0163364
859.683	0.0163278
859.761	0.0162965
859.840	0.0162354
859.918	0.0162659
859.996	0.0162098
860.074	0.0161478
860.152	0.0160867
860.230	0.0161362
860.308	0.0162125
860.386	0.0160818
860.465	0.0159543
860.543	0.0160300
860.621	0.0159043
860.699	0.0158777
860.777	0.0159631
860.855	0.0160012
860.933	0.0159916
861.011	0.0159415
861.090	0.0160027
861.168	0.0159736
861.246	0.0158717
861.324	0.0160694
861.402	0.0160291
861.480	0.0158990
861.558	0.0160583
861.636	0.0159747
861.715	0.0159538
861.793	0.0161456
861.871	0.0160020
861.949	0.0159911
862.027	0.0161525
862.105	0.0161646
862.183	0.0161575
862.261	0.0159962
862.340	0.0161404
862.418	0.0161978
862.496	0.0161951
862.574	0.0161192
862.652	0.0162785
862.730	0.0162029
862.808	0.0160800
862.886	0.0161259
862.965	0.0162766
863.043	0.0161391
863.121	0.0161716
863.199	0.0162285
863.277	0.0163718
863.355	0.0160586
863.433	0.0161060
863.511	0.0163232
863.590	0.0160404
863.668	0.0160516
863.746	0.0161962
863.824	0.0160136
863.902	0.0160513
863.980	0.0162795
864.058	0.0161967
864.136	0.0162840
864.215	0.0161806
864.293	0.0161488
864.371	0.0162006
864.449	0.0162583
864.527	0.0160309
864.605	0.0161745
864.683	0.0162739
864.761	0.0161056
864.840	0.0162315
864.918	0.0162180
864.996	0.0161390
865.074	0.0161328
865.152	0.0161832
865.230	0.0162383
865.308	0.0161961
865.386	0.0162071
865.465	0.0162067
865.543	0.0161390
865.621	0.0161548
865.699	0.0162373
865.777	0.0160985
865.855	0.0162298
865.933	0.0161302
866.011	0.0162840
866.090	0.0162329
866.168	0.0160917
866.246	0.0161900
866.324	0.0160753
866.402	0.0160618
866.480	0.0161867
866.558	0.0160756
866.636	0.0159960
866.715	0.0161388
866.793	0.0161024
866.871	0.0160367
866.949	0.0160756
867.027	0.0160564
867.105	0.0161324
867.183	0.0160522
867.261	0.0160423
867.340	0.0161404
867.418	0.0160088
867.496	0.0160826
867.574	0.0159962
867.652	0.0159742
867.730	0.0161142
867.808	0.0161165
867.886	0.0159821
867.965	0.0161249
868.043	0.0161763
868.121	0.0161979
868.199	0.0160563
868.277	0.0162085
868.355	0.0162261
868.433	0.0161646
868.511	0.0160830
868.590	0.0161588
868.668	0.0162743
868.746	0.0161084
868.824	0.0162440
868.902	0.0162490
868.980	0.0161909
869.058	0.0161574
869.136	0.0161113
869.215	0.0162004
869.293	0.0162263
869.371	0.0161202
869.449	0.0161359
869.527	0.0161702
869.605	0.0162689
869.683	0.0163927
869.761	0.0162938
869.840	0.0161664
869.918	0.0161184
869.996	0.0161364
870.074	0.0162888
870.152	0.0162664
870.230	0.0162846
870.308	0.0162063
870.386	0.0161225
870.465	0.0160933
870.543	0.0159479
870.621	0.0160926
870.699	0.0160644
870.777	0.0160955
870.855	0.0160964
870.933	0.0161993
871.011	0.0161380
871.090	0.0161112
871.168	0.0161882
871.246	0.0161195
871.324	0.0161568
871.402	0.0160759
871.480	0.0161858
871.558	0.0161438
871.636	0.0161572
871.715	0.0163033
871.793	0.0161720
871.871	0.0161134
871.949	0.0162166
872.027	0.0161280
872.105	0.0160167
872.183	0.0161306
872.261	0.0162637
872.340	0.0161779
872.418	0.0160243
872.496	0.0161790
872.574	0.0160838
872.652	0.0160928
872.730	0.0160417
872.808	0.0159840
872.886	0.0163342
872.965	0.0161098
873.043	0.0161173
873.121	0.0161161
873.199	0.0161330
873.277	0.0162447
873.355	0.0161411
873.433	0.0161829
873.511	0.0161289
873.590	0.0163142
873.668	0.0161972
873.746	0.0162315
873.824	0.0162194
873.902	0.0161708
873.980	0.0161845
874.058	0.0161362
874.136	0.0162247
874.215	0.0161692
874.293	0.0162756
874.371	0.0161964
874.449	0.0161887
874.527	0.0162213
874.605	0.0161924
874.683	0.0161887
874.761	0.0161782
874.840	0.0162110
874.918	0.0161698
874.996	0.0161461
875.074	0.0162717
875.152	0.0162171
875.230	0.0162368
875.308	0.0160925
875.386	0.0161451
875.465	0.0162820
875.543	0.0162779
875.621	0.0161071
875.699	0.0161117
875.777	0.0162018
875.855	0.0161412
875.933	0.0161377
876.011	0.0162730
876.090	0.0161559
876.168	0.0162404
876.246	0.0161782
876.324	0.0161885
876.402	0.0162123
876.480	0.0161980
876.558	0.0161283
876.636	0.0161469
876.715	0.0161741
876.793	0.0161152
876.871	0.0160835
876.949	0.0161314
877.027	0.0161868
877.105	0.0161775
877.183	0.0160280
877.261	0.0160407
877.340	0.0160271
877.418	0.0161572
877.496	0.0161378
877.574	0.0162405
877.652	0.0162472
877.730	0.0160596
877.808	0.0161548
877.886	0.0163332
877.965	0.0160241
878.043	0.0161340
878.121	0.0161810
878.199	0.0163255
878.277	0.0162835
878.355	0.0161284
878.433	0.0162680
878.511	0.0160612
878.590	0.0160524
878.668	0.0162215
878.746	0.0161384
878.824	0.0161981
878.902	0.0162465
878.980	0.0160689
879.058	0.0160462
879.136	0.0161867
879.215	0.0160021
879.293	0.0160930
879.371	0.0161058
879.449	0.0160684
879.527	0.0159959
879.605	0.0159632
879.683	0.0160808
879.761	0.0160976
879.840	0.0160889
879.918	0.0160944
879.996	0.0161178
880.074	0.0160323
880.152	0.0160952
880.230	0.0160142
880.308	0.0159401
880.386	0.0160503
880.465	0.0161548
880.543	0.0160946
880.621	0.0160738
880.699	0.0162379
880.777	0.0161746
880.855	0.0161159
880.933	0.0160896
881.011	0.0160926
881.090	0.0161988
881.168	0.0161604
881.246	0.0160852
881.324	0.0163259
881.402	0.0162899
881.480	0.0161747
881.558	0.0162646
881.636	0.0162410
881.715	0.0161798
881.793	0.0161713
881.871	0.0162527
881.949	0.0162289
882.027	0.0162540
882.105	0.0163241
882.183	0.0162054
882.261	0.0161004
882.340	0.0162590
882.418	0.0163349
882.496	0.0161935
882.574	0.0162610
882.652	0.0162137
882.730	0.0161999
882.808	0.0161687
882.886	0.0162896
882.965	0.0160863
883.043	0.0161557
883.121	0.0161852
883.199	0.0161786
883.277	0.0159860
883.355	0.0160809
883.433	0.0162200
883.511	0.0162317
883.590	0.0160101
883.668	0.0159861
883.746	0.0160134
883.824	0.0160767
883.902	0.0160295
883.980	0.0159339
884.058	0.0160543
884.136	0.0160011
884.215	0.0159057
884.293	0.0160110
884.371	0.0158655
884.449	0.0160945
884.527	0.0161159
884.605	0.0160419
884.683	0.0161401
884.761	0.0161588
884.840	0.0160946
884.918	0.0160587
884.996	0.0160696
885.074	0.0160428
885.152	0.0160432
885.230	0.0160949
885.308	0.0163979
885.386	0.0163842
885.465	0.0163644
885.543	0.0163570
885.621	0.0161744
885.699	0.0163088
885.777	0.0163699
885.855	0.0162121
885.933	0.0162681
886.011	0.0163107
886.090	0.0162059
886.168	0.0161635
886.246	0.0162416
886.324	0.0161481
886.402	0.0162421
886.480	0.0161198
886.558	0.0162191
886.636	0.0160981
886.715	0.0159625
886.793	0.0160055
886.871	0.0159680
886.949	0.0160764
887.027	0.0160056
887.105	0.0160389
887.183	0.0159651
887.261	0.0160107
887.340	0.0159731
887.418	0.0159827
887.496	0.0161131
887.574	0.0161732
887.652	0.0161436
887.730	0.0161520
887.808	0.0160924
887.886	0.0160995
887.965	0.0160902
888.043	0.0162324
888.121	0.0161530
888.199	0.0162679
888.277	0.0161384
888.355	0.0161896
888.433	0.0161539
888.511	0.0161218
888.590	0.0160966
888.668	0.0161190
888.746	0.0163205
888.824	0.0160822
888.902	0.0161356
888.980	0.0161423
889.058	0.0162237
889.136	0.0160484
889.215	0.0159705
889.293	0.0161948
889.371	0.0160455
889.449	0.0161225
889.527	0.0161034
889.605	0.0162543
889.683	0.0161707
889.761	0.0162017
889.840	0.0160885
889.918	0.0160973
889.996	0.0161891
890.074	0.0161734
890.152	0.0161462
890.230	0.0161102
890.308	0.0161214
890.386	0.0161204
890.465	0.0162769
890.543	0.0161169
890.621	0.0160350
890.699	0.0160457
890.777	0.0161235
890.855	0.0160825
890.933	0.0160143
891.011	0.0160830
891.090	0.0161113
891.168	0.0160947
891.246	0.0162151
891.324	0.0161571
891.402	0.0160058
891.480	0.0160636
891.558	0.0161232
891.636	0.0161099
891.715	0.0161582
891.793	0.0160749
891.871	0.0161487
891.949	0.0161580
892.027	0.0161815
892.105	0.0161415
892.183	0.0160944
892.261	0.0161438
892.340	0.0161701
892.418	0.0161525
892.496	0.0161261
892.574	0.0161793
892.652	0.0160404
892.730	0.0160944
892.808	0.0160215
892.886	0.0160824
892.965	0.0160759
893.043	0.0161472
893.121	0.0161095
893.199	0.0161370
893.277	0.0160208
893.355	0.0161118
893.433	0.0160931
893.511	0.0161879
893.590	0.0159934
893.668	0.0160615
893.746	0.0159571
893.824	0.0161633
893.902	0.0160436
893.980	0.0160014
894.058	0.0160240
894.136	0.0160110
894.215	0.0161366
894.293	0.0161712
894.371	0.0160222
894.449	0.0160268
894.527	0.0160519
894.605	0.0161165
894.683	0.0161389
894.761	0.0162606
894.840	0.0162178
894.918	0.0161347
894.996	0.0159761
895.074	0.0162465
895.152	0.0162099
895.230	0.0160401
895.308	0.0162041
895.386	0.0161754
895.465	0.0160419
895.543	0.0161110
895.621	0.0160469
895.699	0.0159911
895.777	0.0161042
895.855	0.0162155
895.933	0.0160560
896.011	0.0162219
896.090	0.0162401
896.168	0.0162540
896.246	0.0161472
896.324	0.0161732
896.402	0.0160539
896.480	0.0161139
896.558	0.0161428
896.636	0.0160865
896.715	0.0161276
896.793	0.0161752
896.871	0.0161443
896.949	0.0159327
897.027	0.0161089
897.105	0.0161134
897.183	0.0160998
897.261	0.0160517
897.340	0.0162032
897.418	0.0161031
897.496	0.0161984
897.574	0.0160361
897.652	0.0160824
897.730	0.0160403
897.808	0.0162192
897.886	0.0161789
897.965	0.0160850
898.043	0.0162589
898.121	0.0160452
898.199	0.0162595
898.277	0.0160659
898.355	0.0160862
898.433	0.0161308
898.511	0.0160851
898.590	0.0160596
898.668	0.0160550
898.746	0.0160612
898.824	0.0159997
898.902	0.0159061
898.980	0.0160416
899.058	0.0160652
899.136	0.0158498
899.215	0.0159668
899.293	0.0159457
899.371	0.0161072
899.449	0.0160999
899.527	0.0160534
899.605	0.0159511
899.683	0.0161130
899.761	0.0161398
899.840	0.0160949
899.918	0.0161756
899.996	0.0161861
900.074	0.0162251
900.152	0.0162361
900.230	0.0161029
900.308	0.0160966
900.386	0.0162360
900.465	0.0162234
900.543	0.0162228
900.621	0.0160972
900.699	0.0161308
900.777	0.0161295
900.855	0.0160831
900.933	0.0162109
901.011	0.0161336
901.090	0.0162174
901.168	0.0161907
901.246	0.0161801
901.324	0.0160750
901.402	0.0161613
901.480	0.0161968
901.558	0.0160899
901.636	0.0160062
901.715	0.0160851
901.793	0.0161857
901.871	0.0161865
901.949	0.0162375
902.027	0.0160946
902.105	0.0161716
902.183	0.0160133
902.261	0.0159651
902.340	0.0160542
902.418	0.0160062
902.496	0.0159768
902.574	0.0160023
902.652	0.0159350
902.730	0.0160229
902.808	0.0160717
902.886	0.0160484
902.965	0.0160307
903.043	0.0160778
903.121	0.0160300
903.199	0.0160575
903.277	0.0160199
903.355	0.0161214
903.433	0.0161327
903.511	0.0161227
903.590	0.0161663
903.668	0.0161854
903.746	0.0160719
903.824	0.0162086
903.902	0.0163231
903.980	0.0162461
904.058	0.0161795
904.136	0.0161133
904.215	0.0162488
904.293	0.0161158
904.371	0.0162350
904.449	0.0162237
904.527	0.0162922
904.605	0.0162296
904.683	0.0162171
904.761	0.0161050
904.840	0.0161464
904.918	0.0161900
904.996	0.0161380
905.074	0.0160493
905.152	0.0161811
905.230	0.0162663
905.308	0.0163229
905.386	0.0161765
905.465	0.0161640
905.543	0.0161847
905.621	0.0161311
905.699	0.0161229
905.777	0.0160996
905.855	0.0162265
905.933	0.0161050
906.011	0.0161880
906.090	0.0159470
906.168	0.0160686
906.246	0.0161758
906.324	0.0160553
906.402	0.0160058
906.480	0.0159560
906.558	0.0160090
906.636	0.0160371
906.715	0.0160249
906.793	0.0159583
906.871	0.0160392
906.949	0.0157821
907.027	0.0159589
907.105	0.0160722
907.183	0.0160166
907.261	0.0159874
907.340	0.0160298
907.418	0.0159731
907.496	0.0159917
907.574	0.0159595
907.652	0.0160973
907.730	0.0160127
907.808	0.0160940
907.886	0.0162294
907.965	0.0162562
908.043	0.0161274
908.121	0.0161951
908.199	0.0163438
908.277	0.0163315
908.355	0.0162554
908.433	0.0162518
908.511	0.0162886
908.590	0.0162337
908.668	0.0162778
908.746	0.0161444
908.824	0.0163194
908.902	0.0163142
908.980	0.0162695
909.058	0.0160997
909.136	0.0160826
909.215	0.0162431
909.293	0.0160701
909.371	0.0159964
909.449	0.0162145
909.527	0.0160840
909.605	0.0158969
909.683	0.0159666
909.761	0.0159235
909.840	0.0159369
909.918	0.0159704
909.996	0.0159672
910.074	0.0159671
910.152	0.0160350
910.230	0.0159930
910.308	0.0159565
910.386	0.0160624
910.465	0.0160873
910.543	0.0160014
910.621	0.0161863
910.699	0.0159058
910.777	0.0160669
910.855	0.0159964
910.933	0.0160816
911.011	0.0160207
911.090	0.0160426
911.168	0.0158459
911.246	0.0158340
911.324	0.0158783
911.402	0.0159591
911.480	0.0158891
911.558	0.0160292
911.636	0.0160262
911.715	0.0160976
911.793	0.0160787
911.871	0.0160329
911.949	0.0160965
912.027	0.0163710
912.105	0.0163882
912.183	0.0164294
912.261	0.0164956
912.340	0.0164618
912.418	0.0166336
912.496	0.0165454
912.574	0.0166619
912.652	0.0165540
912.730	0.0167223
912.808	0.0167178
912.886	0.0165398
912.965	0.0163129
913.043	0.0162909
913.121	0.0162759
913.199	0.0162976
913.277	0.0160967
913.355	0.0159414
913.433	0.0159048
913.511	0.0158839
913.590	0.0156599
913.668	0.0155930
913.746	0.0156611
913.824	0.0156306
913.902	0.0158338
913.980	0.0157298
914.058	0.0156685
914.136	0.0157613
914.215	0.0158556
914.293	0.0159492
914.371	0.0159876
914.449	0.0159335
914.527	0.0162011
914.605	0.0160575
914.683	0.0161092
914.761	0.0161372
914.840	0.0161026
914.918	0.0160204
914.996	0.0160836
915.074	0.0161424
915.152	0.0159908
915.230	0.0160553
915.308	0.0159869
915.386	0.0159750
915.465	0.0160490
915.543	0.0160889
915.621	0.0161998
915.699	0.0161023
915.777	0.0161450
915.855	0.0162557
915.933	0.0162830
916.011	0.0162539
916.090	0.0162706
916.168	0.0163818
916.246	0.0164346
916.324	0.0165966
916.402	0.0164626
916.480	0.0164956
916.558	0.0165376
916.636	0.0165118
916.715	0.0164690
916.793	0.0164900
916.871	0.0163849
916.949	0.0161624
917.027	0.0161333
917.105	0.0160316
917.183	0.0159421
917.261	0.0158913
917.340	0.0157860
917.418	0.0157967
917.496	0.0157779
917.574	0.0156563
917.652	0.0157941
917.730	0.0157601
917.808	0.0156744
917.886	0.0156851
917.965	0.0158216
918.043	0.0158418
918.121	0.0158801
918.199	0.0158551
918.277	0.0160886
918.355	0.0161378
918.433	0.0161345
918.511	0.0161251
918.590	0.0160853
918.668	0.0162215
918.746	0.0161760
918.824	0.0162370
918.902	0.0160133
918.980	0.0160986
919.058	0.0162646
919.136	0.0161075
919.215	0.0161037
919.293	0.0160236
919.371	0.0161208
919.449	0.0161579
919.527	0.0162434
919.605	0.0162207
919.683	0.0162331
919.761	0.0163674
919.840	0.0164164
919.918	0.0164589
919.996	0.0163824
920.074	0.0165048
920.152	0.0164365
920.230	0.0165208
920.308	0.0165305
920.386	0.0165308
920.465	0.0163776
920.543	0.0162864
920.621	0.0163485
920.699	0.0161814
920.777	0.0160635
920.855	0.0161982
920.933	0.0159813
921.011	0.0159552
921.090	0.0157232
921.168	0.0158154
921.246	0.0156345
921.324	0.0156963
921.402	0.0157826
921.480	0.0156368
921.558	0.0157567
921.636	0.0158823
921.715	0.0159348
921.793	0.0159338
921.871	0.0159103
921.949	0.0160559
922.027	0.0160601
922.105	0.0163108
922.183	0.0163248
922.261	0.0163399
922.340	0.0162066
922.418	0.0162625
922.496	0.0163466
922.574	0.0164272
922.652	0.0162521
922.730	0.0162148
922.808	0.0162616
922.886	0.0160752
922.965	0.0160827
923.043	0.0161143
923.121	0.0161314
923.199	0.0161634
923.277	0.0160915
923.355	0.0161900
923.433	0.0160805
923.511	0.0162373
923.590	0.0162458
923.668	0.0163788
923.746	0.0163927
923.824	0.0163583
923.902	0.0163168
923.980	0.0164032
924.058	0.0164191
924.136	0.0163165
924.215	0.0162359
924.293	0.0165137
924.371	0.0163485
924.449	0.0163697
924.527	0.0164627
924.605	0.0162625
924.683	0.0161430
924.761	0.0161592
924.840	0.0161685
924.918	0.0160798
924.996	0.0160701
925.074	0.0160318
925.152	0.0160074
925.230	0.0158813
925.308	0.0157178
925.386	0.0157832
925.465	0.0158564
925.543	0.0158308
925.621	0.0160319
925.699	0.0160130
925.777	0.0159843
925.855	0.0160702
925.933	0.0161517
926.011	0.0162561
926.090	0.0161710
926.168	0.0163133
926.246	0.0163019
926.324	0.0163805
926.402	0.0163354
926.480	0.0162753
926.558	0.0162580
926.636	0.0162992
926.715	0.0162667
926.793	0.0161334
926.871	0.0161793
926.949	0.0160744
927.027	0.0161094
927.105	0.0161102
927.183	0.0161318
927.261	0.0161435
927.340	0.0160438
927.418	0.0159322
927.496	0.0159938
927.574	0.0161415
927.652	0.0160654
927.730	0.0161420
927.808	0.0162054
927.886	0.0161641
927.965	0.0163054
928.043	0.0163116
928.121	0.0162352
928.199	0.0162443
928.277	0.0162717
928.355	0.0162634
928.433	0.0161198
928.511	0.0161590
928.590	0.0161111
928.668	0.0159378
928.746	0.0160088
928.824	0.0160433
928.902	0.0159202
928.980	0.0158354
929.058	0.0158997
929.136	0.0158760
929.215	0.0158904
929.293	0.0159196
929.371	0.0158373
929.449	0.0159149
929.527	0.0159920
929.605	0.0159393
929.683	0.0160117
929.761	0.0160175
929.840	0.0159763
929.918	0.0160838
929.996	0.0160089
930.074	0.0163227
930.152	0.0163634
930.230	0.0162173
930.308	0.0163168
930.386	0.0162917
930.465	0.0163208
930.543	0.0162911
930.621	0.0162601
930.699	0.0161962
930.777	0.0161040
930.855	0.0160507
930.933	0.0161135
931.011	0.0160227
931.090	0.0159744
931.168	0.0159777
931.246	0.0160768
931.324	0.0158475
931.402	0.0159599
931.480	0.0161326
931.558	0.0160512
931.636	0.0160180
931.715	0.0160716
931.793	0.0160336
931.871	0.0161152
931.949	0.0161868
932.027	0.0162540
932.105	0.0160858
932.183	0.0160578
932.261	0.0163126
932.340	0.0160773
932.418	0.0161951
932.496	0.0161611
932.574	0.0161610
932.652	0.0162138
932.730	0.0162688
932.808	0.0162158
932.886	0.0162635
932.965	0.0162673
933.043	0.0161638
933.121	0.0162937
933.199	0.0162989
933.277	0.0162342
933.355	0.0161909
933.433	0.0162518
933.511	0.0160501
933.590	0.0160687
933.668	0.0161551
933.746	0.0162400
933.824	0.0161636
933.902	0.0162614
933.980	0.0160320
934.058	0.0159888
934.136	0.0162175
934.215	0.0162002
934.293	0.0160658
934.371	0.0160564
934.449	0.0159975
934.527	0.0161047
934.605	0.0160368
934.683	0.0158425
934.761	0.0159133
934.840	0.0160401
934.918	0.0158012
934.996	0.0158956
935.074	0.0159431
935.152	0.0159504
935.230	0.0158647
935.308	0.0159399
935.386	0.0160108
935.465	0.0161294
935.543	0.0161121
935.621	0.0161274
935.699	0.0161099
935.777	0.0161951
935.855	0.0161937
935.933	0.0161823
936.011	0.0163042
936.090	0.0164059
936.168	0.0164133
936.246	0.0163120
936.324	0.0163152
936.402	0.0163657
936.480	0.0164736
936.558	0.0163443
936.636	0.0163514
936.715	0.0163266
936.793	0.0163082
936.871	0.0162096
936.949	0.0162074
937.027	0.0161887
937.105	0.0160014
937.183	0.0160299
937.261	0.0161391
937.340	0.0159352
937.418	0.0160993
937.496	0.0159284
937.574	0.0159689
937.652	0.0159584
937.730	0.0159931
937.808	0.0160229
937.886	0.0158614
937.965	0.0160765
938.043	0.0160424
938.121	0.0160508
938.199	0.0161523
938.277	0.0161790
938.355	0.0161140
938.433	0.0161247
938.511	0.0160577
938.590	0.0160478
938.668	0.0161730
938.746	0.0160094
938.824	0.0160389
938.902	0.0159604
938.980	0.0160491
939.058	0.0162910
939.136	0.0162420
939.215	0.0159351
939.293	0.0161968
939.371	0.0161140
939.449	0.0160047
939.527	0.0161504
939.605	0.0161560
939.683	0.0162788
939.761	0.0161443
939.840	0.0161388
939.918	0.0162604
939.996	0.0163551
940.074	0.0162931
940.152	0.0162643
940.230	0.0163473
940.308	0.0163452
940.386	0.0161748
940.465	0.0161942
940.543	0.0162071
940.621	0.0161862
940.699	0.0161959
940.777	0.0160912
940.855	0.0161559
940.933	0.0162234
941.011	0.0161160
941.090	0.0161666
941.168	0.0161784
941.246	0.0161491
941.324	0.0159703
941.402	0.0160922
941.480	0.0161613
941.558	0.0161833
941.636	0.0162334
941.715	0.0161414
941.793	0.0161014
941.871	0.0161143
941.949	0.0161282
942.027	0.0161349
942.105	0.0161840
942.183	0.0161383
942.261	0.0162956
942.340	0.0162044
942.418	0.0160626
942.496	0.0161907
942.574	0.0162949
942.652	0.0161279
942.730	0.0161349
942.808	0.0161674
942.886	0.0162656
942.965	0.0161967
943.043	0.0162731
943.121	0.0161911
943.199	0.0162231
943.277	0.0162097
943.355	0.0162766
943.433	0.0163910
943.511	0.0163004
943.590	0.0162204
943.668	0.0161231
943.746	0.0161492
943.824	0.0162184
943.902	0.0161503
943.980	0.0162038
944.058	0.0161310
944.136	0.0160536
944.215	0.0161610
944.293	0.0161109
944.371	0.0160789
944.449	0.0161303
944.527	0.0159994
944.605	0.0160149
944.683	0.0159957
944.761	0.0161325
944.840	0.0160801
944.918	0.0161866
944.996	0.0161962
945.074	0.0160647
945.152	0.0161694
945.230	0.0160822
945.308	0.0162383
945.386	0.0161720
945.465	0.0161662
945.543	0.0161804
945.621	0.0160261
945.699	0.0162649
945.777	0.0161161
945.855	0.0159869
945.933	0.0161336
946.011	0.0161820
946.090	0.0161407
946.168	0.0162449
946.246	0.0162479
946.324	0.0162171
946.402	0.0163139
946.480	0.0162914
946.558	0.0162208
946.636	0.0163741
946.715	0.0162062
946.793	0.0163187
946.871	0.0162388
946.949	0.0160661
947.027	0.0162464
947.105	0.0163420
947.183	0.0162798
947.261	0.0161755
947.340	0.0162161
947.418	0.0160320
947.496	0.0161002
947.574	0.0160932
947.652	0.0161558
947.730	0.0161407
947.808	0.0161939
947.886	0.0159563
947.965	0.0160516
948.043	0.0160064
948.121	0.0161034
948.199	0.0161600
948.277	0.0160909
948.355	0.0160332
948.433	0.0161541
948.511	0.0161098
948.590	0.0161947
948.668	0.0160628
948.746	0.0160949
948.824	0.0161525
948.902	0.0161478
948.980	0.0161943
949.058	0.0162113
949.136	0.0162008
949.215	0.0161699
949.293	0.0161890
949.371	0.0161089
949.449	0.0160476
949.527	0.0162380
949.605	0.0161911
949.683	0.0160883
949.761	0.0160004
949.840	0.0160970
949.918	0.0162059
