06/29/2022	21:12:43	Ver.	4.1	UNKNOWN
Optical Delay	629.995835	Delta X		0.078125	Sweeps	1	Scan Rate	0/0
Coordinates	Axis 1	NaN	Axis 2	NaN	Axis 3	NaN	Axis 4	NaN	Axis 5	NaN	Axis 6	0.000000
TX Power	0.000000	RX Power	0.000000

629.996	0.0152896
630.074	0.0153376
630.152	0.0152735
630.230	0.0152273
630.308	0.0153483
630.386	0.0152326
630.465	0.0152496
630.543	0.0152460
630.621	0.0151994
630.699	0.0151656
630.777	0.0153249
630.855	0.0153496
630.933	0.0150431
631.011	0.0152333
631.090	0.0154430
631.168	0.0152459
631.246	0.0152339
631.324	0.0152304
631.402	0.0153390
631.480	0.0153411
631.558	0.0153466
631.636	0.0152010
631.715	0.0153262
631.793	0.0152869
631.871	0.0153233
631.949	0.0153088
632.027	0.0151935
632.105	0.0154081
632.183	0.0152758
632.261	0.0151971
632.340	0.0151364
632.418	0.0152500
632.496	0.0153089
632.574	0.0153796
632.652	0.0151773
632.730	0.0153111
632.808	0.0152630
632.886	0.0152035
632.965	0.0152325
633.043	0.0153553
633.121	0.0153113
633.199	0.0153259
633.277	0.0153066
633.355	0.0152393
633.433	0.0152238
633.511	0.0153085
633.590	0.0151675
633.668	0.0153530
633.746	0.0153152
633.824	0.0151364
633.902	0.0153849
633.980	0.0153011
634.058	0.0153159
634.136	0.0154025
634.215	0.0153646
634.293	0.0153052
634.371	0.0153224
634.449	0.0152147
634.527	0.0151984
634.605	0.0153172
634.683	0.0152743
634.761	0.0152972
634.840	0.0151678
634.918	0.0153017
634.996	0.0153658
635.074	0.0152338
635.152	0.0152437
635.230	0.0152899
635.308	0.0153541
635.386	0.0154214
635.465	0.0151696
635.543	0.0152727
635.621	0.0152286
635.699	0.0153639
635.777	0.0152268
635.855	0.0154015
635.933	0.0153438
636.011	0.0152841
636.090	0.0152619
636.168	0.0152089
636.246	0.0152975
636.324	0.0152599
636.402	0.0152853
636.480	0.0153339
636.558	0.0152490
636.636	0.0151996
636.715	0.0153423
636.793	0.0152659
636.871	0.0152254
636.949	0.0153780
637.027	0.0154100
637.105	0.0151852
637.183	0.0153669
637.261	0.0152935
637.340	0.0152682
637.418	0.0152505
637.496	0.0151796
637.574	0.0153740
637.652	0.0153690
637.730	0.0153146
637.808	0.0152543
637.886	0.0154518
637.965	0.0152873
638.043	0.0153088
638.121	0.0153427
638.199	0.0152774
638.277	0.0151608
638.355	0.0153159
638.433	0.0152542
638.511	0.0152805
638.590	0.0151705
638.668	0.0153421
638.746	0.0153360
638.824	0.0152191
638.902	0.0152367
638.980	0.0151347
639.058	0.0153529
639.136	0.0151379
639.215	0.0153175
639.293	0.0153454
639.371	0.0153236
639.449	0.0153937
639.527	0.0151877
639.605	0.0151159
639.683	0.0152304
639.761	0.0154149
639.840	0.0153774
639.918	0.0152595
639.996	0.0151448
640.074	0.0152957
640.152	0.0153727
640.230	0.0151731
640.308	0.0152594
640.386	0.0154015
640.465	0.0152271
640.543	0.0151965
640.621	0.0153667
640.699	0.0152417
640.777	0.0153079
640.855	0.0153660
640.933	0.0154086
641.011	0.0153840
641.090	0.0151892
641.168	0.0152616
641.246	0.0153892
641.324	0.0153107
641.402	0.0152747
641.480	0.0153075
641.558	0.0154016
641.636	0.0152921
641.715	0.0154337
641.793	0.0153149
641.871	0.0152570
641.949	0.0153317
642.027	0.0152782
642.105	0.0152946
642.183	0.0153242
642.261	0.0152930
642.340	0.0152534
642.418	0.0150098
642.496	0.0152593
642.574	0.0153152
642.652	0.0153009
642.730	0.0152055
642.808	0.0153342
642.886	0.0153197
642.965	0.0151644
643.043	0.0152176
643.121	0.0153300
643.199	0.0153378
643.277	0.0152991
643.355	0.0153555
643.433	0.0153859
643.511	0.0152254
643.590	0.0153455
643.668	0.0152730
643.746	0.0153035
643.824	0.0153011
643.902	0.0152834
643.980	0.0152371
644.058	0.0153026
644.136	0.0152856
644.215	0.0153263
644.293	0.0152745
644.371	0.0151849
644.449	0.0152514
644.527	0.0152299
644.605	0.0151849
644.683	0.0152101
644.761	0.0153197
644.840	0.0152135
644.918	0.0152184
644.996	0.0153352
645.074	0.0152442
645.152	0.0152896
645.230	0.0152534
645.308	0.0152146
645.386	0.0151431
645.465	0.0153389
645.543	0.0153167
645.621	0.0153305
645.699	0.0152331
645.777	0.0152738
645.855	0.0154266
645.933	0.0154145
646.011	0.0152825
646.090	0.0153472
646.168	0.0153183
646.246	0.0153683
646.324	0.0153344
646.402	0.0153452
646.480	0.0152515
646.558	0.0153748
646.636	0.0154034
646.715	0.0152668
646.793	0.0152277
646.871	0.0153185
646.949	0.0152837
647.027	0.0153676
647.105	0.0153117
647.183	0.0152183
647.261	0.0152907
647.340	0.0153948
647.418	0.0153244
647.496	0.0153574
647.574	0.0153234
647.652	0.0151926
647.730	0.0150799
647.808	0.0152276
647.886	0.0153039
647.965	0.0153519
648.043	0.0151686
648.121	0.0152443
648.199	0.0154475
648.277	0.0152111
648.355	0.0152847
648.433	0.0152245
648.511	0.0152933
648.590	0.0153146
648.668	0.0151502
648.746	0.0151973
648.824	0.0153272
648.902	0.0153452
648.980	0.0152460
649.058	0.0152409
649.136	0.0153660
649.215	0.0152818
649.293	0.0153550
649.371	0.0153278
649.449	0.0153466
649.527	0.0153322
649.605	0.0152584
649.683	0.0152479
649.761	0.0153207
649.840	0.0153844
649.918	0.0152464
649.996	0.0152740
650.074	0.0152937
650.152	0.0152372
650.230	0.0151757
650.308	0.0152994
650.386	0.0154273
650.465	0.0154147
650.543	0.0151503
650.621	0.0152585
650.699	0.0153712
650.777	0.0152476
650.855	0.0152101
650.933	0.0152424
651.011	0.0152553
651.090	0.0152235
651.168	0.0152145
651.246	0.0152909
651.324	0.0152044
651.402	0.0152837
651.480	0.0150699
651.558	0.0151383
651.636	0.0151971
651.715	0.0154153
651.793	0.0152189
651.871	0.0151416
651.949	0.0152305
652.027	0.0153062
652.105	0.0152600
652.183	0.0152644
652.261	0.0153225
652.340	0.0153410
652.418	0.0152606
652.496	0.0152467
652.574	0.0154210
652.652	0.0152852
652.730	0.0153484
652.808	0.0153748
652.886	0.0152039
652.965	0.0152767
653.043	0.0153060
653.121	0.0152760
653.199	0.0152708
653.277	0.0153640
653.355	0.0152377
653.433	0.0151485
653.511	0.0153078
653.590	0.0153175
653.668	0.0153722
653.746	0.0152225
653.824	0.0152428
653.902	0.0153263
653.980	0.0153858
654.058	0.0151564
654.136	0.0152688
654.215	0.0152164
654.293	0.0153481
654.371	0.0153368
654.449	0.0153416
654.527	0.0153276
654.605	0.0152451
654.683	0.0152559
654.761	0.0152325
654.840	0.0152332
654.918	0.0151423
654.996	0.0152712
655.074	0.0153520
655.152	0.0153052
655.230	0.0153070
655.308	0.0152546
655.386	0.0152843
655.465	0.0152267
655.543	0.0152291
655.621	0.0152541
655.699	0.0153345
655.777	0.0153179
655.855	0.0151965
655.933	0.0152359
656.011	0.0153091
656.090	0.0153424
656.168	0.0152208
656.246	0.0152364
656.324	0.0151672
656.402	0.0152378
656.480	0.0152516
656.558	0.0152393
656.636	0.0153060
656.715	0.0152753
656.793	0.0152310
656.871	0.0152295
656.949	0.0151033
657.027	0.0152905
657.105	0.0151632
657.183	0.0152562
657.261	0.0152811
657.340	0.0152549
657.418	0.0152039
657.496	0.0152206
657.574	0.0150973
657.652	0.0151431
657.730	0.0153345
657.808	0.0151852
657.886	0.0153288
657.965	0.0153287
658.043	0.0149983
658.121	0.0151949
658.199	0.0152956
658.277	0.0152400
658.355	0.0152802
658.433	0.0152903
658.511	0.0153082
658.590	0.0153079
658.668	0.0153012
658.746	0.0152483
658.824	0.0152082
658.902	0.0152027
658.980	0.0152665
659.058	0.0152235
659.136	0.0151195
659.215	0.0151702
659.293	0.0152807
659.371	0.0152918
659.449	0.0152924
659.527	0.0152629
659.605	0.0151882
659.683	0.0152058
659.761	0.0152562
659.840	0.0152861
659.918	0.0153394
659.996	0.0152535
660.074	0.0152338
660.152	0.0153251
660.230	0.0152027
660.308	0.0153729
660.386	0.0152527
660.465	0.0152034
660.543	0.0151958
660.621	0.0153909
660.699	0.0153221
660.777	0.0152152
660.855	0.0152998
660.933	0.0152336
661.011	0.0152884
661.090	0.0153023
661.168	0.0153068
661.246	0.0154224
661.324	0.0152316
661.402	0.0151835
661.480	0.0152826
661.558	0.0152782
661.636	0.0152596
661.715	0.0153669
661.793	0.0152551
661.871	0.0151891
661.949	0.0151801
662.027	0.0151563
662.105	0.0151974
662.183	0.0152167
662.261	0.0152305
662.340	0.0152182
662.418	0.0153638
662.496	0.0153365
662.574	0.0151935
662.652	0.0152236
662.730	0.0152466
662.808	0.0153025
662.886	0.0151736
662.965	0.0152160
663.043	0.0151936
663.121	0.0152357
663.199	0.0151828
663.277	0.0152638
663.355	0.0154427
663.433	0.0151836
663.511	0.0152647
663.590	0.0152035
663.668	0.0152816
663.746	0.0153204
663.824	0.0151897
663.902	0.0151087
663.980	0.0152914
664.058	0.0151757
664.136	0.0151395
664.215	0.0152314
664.293	0.0152895
664.371	0.0152216
664.449	0.0152494
664.527	0.0152792
664.605	0.0154979
664.683	0.0152204
664.761	0.0152807
664.840	0.0151490
664.918	0.0152988
664.996	0.0152521
665.074	0.0152477
665.152	0.0151872
665.230	0.0153172
665.308	0.0152210
665.386	0.0152643
665.465	0.0152470
665.543	0.0152223
665.621	0.0152290
665.699	0.0152832
665.777	0.0152737
665.855	0.0152002
665.933	0.0153764
666.011	0.0152641
666.090	0.0152872
666.168	0.0153508
666.246	0.0153032
666.324	0.0152847
666.402	0.0152505
666.480	0.0151010
666.558	0.0153012
666.636	0.0152232
666.715	0.0152718
666.793	0.0153783
666.871	0.0152574
666.949	0.0150942
667.027	0.0151621
667.105	0.0153823
667.183	0.0152650
667.261	0.0152186
667.340	0.0152874
667.418	0.0152975
667.496	0.0151506
667.574	0.0153151
667.652	0.0153056
667.730	0.0151852
667.808	0.0152027
667.886	0.0152470
667.965	0.0152853
668.043	0.0152155
668.121	0.0153756
668.199	0.0153247
668.277	0.0152399
668.355	0.0154253
668.433	0.0153482
668.511	0.0151936
668.590	0.0153114
668.668	0.0153440
668.746	0.0153238
668.824	0.0152708
668.902	0.0152642
668.980	0.0151704
669.058	0.0152302
669.136	0.0152300
669.215	0.0154327
669.293	0.0153108
669.371	0.0152969
669.449	0.0153253
669.527	0.0152561
669.605	0.0152877
669.683	0.0152881
669.761	0.0152154
669.840	0.0153333
669.918	0.0153906
669.996	0.0152919
670.074	0.0152206
670.152	0.0152686
670.230	0.0152412
670.308	0.0152134
670.386	0.0153533
670.465	0.0152508
670.543	0.0152302
670.621	0.0153064
670.699	0.0151875
670.777	0.0150977
670.855	0.0152301
670.933	0.0153039
671.011	0.0153655
671.090	0.0152757
671.168	0.0152238
671.246	0.0152378
671.324	0.0152657
671.402	0.0151668
671.480	0.0151271
671.558	0.0152812
671.636	0.0153062
671.715	0.0153251
671.793	0.0152689
671.871	0.0152464
671.949	0.0152562
672.027	0.0153213
672.105	0.0152357
672.183	0.0152861
672.261	0.0152399
672.340	0.0153072
672.418	0.0152968
672.496	0.0152673
672.574	0.0153011
672.652	0.0152558
672.730	0.0153359
672.808	0.0152325
672.886	0.0152439
672.965	0.0152721
673.043	0.0151592
673.121	0.0153782
673.199	0.0152992
673.277	0.0153259
673.355	0.0152305
673.433	0.0153790
673.511	0.0153367
673.590	0.0152845
673.668	0.0152240
673.746	0.0152309
673.824	0.0154054
673.902	0.0153148
673.980	0.0153198
674.058	0.0152343
674.136	0.0152712
674.215	0.0152572
674.293	0.0153449
674.371	0.0152754
674.449	0.0152400
674.527	0.0152331
674.605	0.0153748
674.683	0.0152696
674.761	0.0153450
674.840	0.0151763
674.918	0.0152077
674.996	0.0151593
675.074	0.0152286
675.152	0.0153849
675.230	0.0152599
675.308	0.0152245
675.386	0.0152042
675.465	0.0152816
675.543	0.0153139
675.621	0.0153316
675.699	0.0153072
675.777	0.0152019
675.855	0.0153190
675.933	0.0153632
676.011	0.0151503
676.090	0.0152738
676.168	0.0153442
676.246	0.0152607
676.324	0.0152358
676.402	0.0154249
676.480	0.0152386
676.558	0.0152973
676.636	0.0153371
676.715	0.0152586
676.793	0.0152912
676.871	0.0151952
676.949	0.0153120
677.027	0.0152623
677.105	0.0152860
677.183	0.0153194
677.261	0.0152154
677.340	0.0152290
677.418	0.0153324
677.496	0.0153436
677.574	0.0152663
677.652	0.0152401
677.730	0.0152363
677.808	0.0151227
677.886	0.0152250
677.965	0.0152582
678.043	0.0153809
678.121	0.0151614
678.199	0.0152381
678.277	0.0153873
678.355	0.0152104
678.433	0.0152016
678.511	0.0152318
678.590	0.0151643
678.668	0.0153339
678.746	0.0153464
678.824	0.0152171
678.902	0.0153696
678.980	0.0151231
679.058	0.0152401
679.136	0.0152624
679.215	0.0152952
679.293	0.0152721
679.371	0.0152211
679.449	0.0152285
679.527	0.0151892
679.605	0.0152605
679.683	0.0152928
679.761	0.0152530
679.840	0.0153386
679.918	0.0152391
679.996	0.0151746
680.074	0.0153906
680.152	0.0152301
680.230	0.0151899
680.308	0.0151997
680.386	0.0151859
680.465	0.0152793
680.543	0.0152669
680.621	0.0152534
680.699	0.0152361
680.777	0.0153491
680.855	0.0152447
680.933	0.0152313
681.011	0.0152256
681.090	0.0153427
681.168	0.0153058
681.246	0.0152747
681.324	0.0151539
681.402	0.0151894
681.480	0.0151888
681.558	0.0152343
681.636	0.0153316
681.715	0.0152966
681.793	0.0151784
681.871	0.0153329
681.949	0.0152959
682.027	0.0153734
682.105	0.0153001
682.183	0.0152216
682.261	0.0152301
682.340	0.0153502
682.418	0.0153481
682.496	0.0153162
682.574	0.0151907
682.652	0.0152647
682.730	0.0153355
682.808	0.0152699
682.886	0.0153007
682.965	0.0151424
683.043	0.0150925
683.121	0.0153281
683.199	0.0152249
683.277	0.0151643
683.355	0.0153305
683.433	0.0152586
683.511	0.0152690
683.590	0.0152249
683.668	0.0152118
683.746	0.0153676
683.824	0.0153043
683.902	0.0152496
683.980	0.0153704
684.058	0.0153477
684.136	0.0153006
684.215	0.0152634
684.293	0.0152023
684.371	0.0152841
684.449	0.0152896
684.527	0.0151181
684.605	0.0151842
684.683	0.0152431
684.761	0.0153070
684.840	0.0153311
684.918	0.0152773
684.996	0.0152442
685.074	0.0151821
685.152	0.0152861
685.230	0.0153090
685.308	0.0153635
685.386	0.0152678
685.465	0.0151081
685.543	0.0151986
685.621	0.0152027
685.699	0.0152018
685.777	0.0151569
685.855	0.0152074
685.933	0.0154165
686.011	0.0153532
686.090	0.0153191
686.168	0.0152396
686.246	0.0153430
686.324	0.0151963
686.402	0.0152308
686.480	0.0153049
686.558	0.0151886
686.636	0.0152840
686.715	0.0152308
686.793	0.0152067
686.871	0.0153086
686.949	0.0153242
687.027	0.0151097
687.105	0.0152626
687.183	0.0153230
687.261	0.0153227
687.340	0.0152525
687.418	0.0153401
687.496	0.0153425
687.574	0.0153236
687.652	0.0154230
687.730	0.0152811
687.808	0.0153006
687.886	0.0152184
687.965	0.0152930
688.043	0.0152267
688.121	0.0153312
688.199	0.0152987
688.277	0.0151971
688.355	0.0153175
688.433	0.0151969
688.511	0.0151767
688.590	0.0152906
688.668	0.0152884
688.746	0.0153891
688.824	0.0152736
688.902	0.0152425
688.980	0.0152742
689.058	0.0153446
689.136	0.0153235
689.215	0.0154403
689.293	0.0152747
689.371	0.0152393
689.449	0.0153474
689.527	0.0152142
689.605	0.0152973
689.683	0.0152350
689.761	0.0152785
689.840	0.0152510
689.918	0.0151766
689.996	0.0153371
690.074	0.0154420
690.152	0.0152318
690.230	0.0152522
690.308	0.0152449
690.386	0.0152876
690.465	0.0152917
690.543	0.0152814
690.621	0.0152956
690.699	0.0153052
690.777	0.0152905
690.855	0.0152121
690.933	0.0152621
691.011	0.0152556
691.090	0.0152494
691.168	0.0151952
691.246	0.0151750
691.324	0.0152796
691.402	0.0152612
691.480	0.0152551
691.558	0.0153090
691.636	0.0153256
691.715	0.0153414
691.793	0.0154182
691.871	0.0153447
691.949	0.0153516
692.027	0.0151828
692.105	0.0152605
692.183	0.0153884
692.261	0.0152924
692.340	0.0152527
692.418	0.0152624
692.496	0.0153013
692.574	0.0153881
692.652	0.0154096
692.730	0.0152921
692.808	0.0152008
692.886	0.0150833
692.965	0.0151661
693.043	0.0152749
693.121	0.0153648
693.199	0.0153159
693.277	0.0153230
693.355	0.0153031
693.433	0.0152979
693.511	0.0152586
693.590	0.0153660
693.668	0.0153223
693.746	0.0152997
693.824	0.0152811
693.902	0.0151800
693.980	0.0153423
694.058	0.0153381
694.136	0.0153622
694.215	0.0152882
694.293	0.0154451
694.371	0.0153012
694.449	0.0151525
694.527	0.0151673
694.605	0.0152529
694.683	0.0152733
694.761	0.0153294
694.840	0.0152820
694.918	0.0150910
694.996	0.0154102
695.074	0.0153046
695.152	0.0152683
695.230	0.0152150
695.308	0.0153931
695.386	0.0152998
695.465	0.0152866
695.543	0.0152274
695.621	0.0152373
695.699	0.0153209
695.777	0.0153007
695.855	0.0153014
695.933	0.0152619
696.011	0.0152788
696.090	0.0151916
696.168	0.0153065
696.246	0.0153712
696.324	0.0151469
696.402	0.0151505
696.480	0.0152415
696.558	0.0152110
696.636	0.0152544
696.715	0.0152457
696.793	0.0151974
696.871	0.0153711
696.949	0.0152388
697.027	0.0152824
697.105	0.0152003
697.183	0.0151842
697.261	0.0152148
697.340	0.0152591
697.418	0.0152192
697.496	0.0152478
697.574	0.0152823
697.652	0.0153202
697.730	0.0153904
697.808	0.0152845
697.886	0.0152416
697.965	0.0151010
698.043	0.0151611
698.121	0.0153331
698.199	0.0153251
698.277	0.0151853
698.355	0.0152605
698.433	0.0150572
698.511	0.0152477
698.590	0.0151721
698.668	0.0152824
698.746	0.0151920
698.824	0.0152426
698.902	0.0153229
698.980	0.0152214
699.058	0.0152984
699.136	0.0152729
699.215	0.0151851
699.293	0.0153894
699.371	0.0152578
699.449	0.0152104
699.527	0.0151678
699.605	0.0152766
699.683	0.0152974
699.761	0.0152104
699.840	0.0153539
699.918	0.0153032
699.996	0.0153865
700.074	0.0153541
700.152	0.0153108
700.230	0.0152111
700.308	0.0152515
700.386	0.0152541
700.465	0.0153263
700.543	0.0153719
700.621	0.0152946
700.699	0.0153018
700.777	0.0153719
700.855	0.0153033
700.933	0.0152052
701.011	0.0153389
701.090	0.0151711
701.168	0.0152899
701.246	0.0151588
701.324	0.0152538
701.402	0.0153504
701.480	0.0153255
701.558	0.0151592
701.636	0.0152408
701.715	0.0152612
701.793	0.0153057
701.871	0.0153354
701.949	0.0152341
702.027	0.0152750
702.105	0.0152423
702.183	0.0152796
702.261	0.0153059
702.340	0.0152199
702.418	0.0153317
702.496	0.0152894
702.574	0.0154302
702.652	0.0152918
702.730	0.0152478
702.808	0.0152808
702.886	0.0152456
702.965	0.0152672
703.043	0.0152314
703.121	0.0151196
703.199	0.0151479
703.277	0.0151407
703.355	0.0151893
703.433	0.0153084
703.511	0.0152279
703.590	0.0152141
703.668	0.0150452
703.746	0.0152347
703.824	0.0152937
703.902	0.0152116
703.980	0.0152081
704.058	0.0151347
704.136	0.0151432
704.215	0.0152321
704.293	0.0150962
704.371	0.0151497
704.449	0.0153269
704.527	0.0153438
704.605	0.0153391
704.683	0.0152711
704.761	0.0151051
704.840	0.0152306
704.918	0.0151450
704.996	0.0151256
705.074	0.0152768
705.152	0.0152962
705.230	0.0151833
705.308	0.0152249
705.386	0.0151394
705.465	0.0151832
705.543	0.0153490
705.621	0.0151899
705.699	0.0152403
705.777	0.0153015
705.855	0.0153500
705.933	0.0152361
706.011	0.0153030
706.090	0.0154362
706.168	0.0153340
706.246	0.0152322
706.324	0.0151962
706.402	0.0152795
706.480	0.0152171
706.558	0.0153503
706.636	0.0154197
706.715	0.0154243
706.793	0.0153349
706.871	0.0153201
706.949	0.0153614
707.027	0.0153680
707.105	0.0152854
707.183	0.0153011
707.261	0.0153176
707.340	0.0153036
707.418	0.0152447
707.496	0.0152465
707.574	0.0151622
707.652	0.0151557
707.730	0.0152242
707.808	0.0152415
707.886	0.0152802
707.965	0.0151530
708.043	0.0150871
708.121	0.0154023
708.199	0.0151979
708.277	0.0151156
708.355	0.0152168
708.433	0.0152991
708.511	0.0153697
708.590	0.0153120
708.668	0.0152525
708.746	0.0151989
708.824	0.0152575
708.902	0.0153265
708.980	0.0151897
709.058	0.0152168
709.136	0.0152062
709.215	0.0152660
709.293	0.0152876
709.371	0.0152717
709.449	0.0152724
709.527	0.0152665
709.605	0.0152518
709.683	0.0152468
709.761	0.0152946
709.840	0.0152193
709.918	0.0153242
709.996	0.0152566
710.074	0.0152307
710.152	0.0151797
710.230	0.0152246
710.308	0.0151196
710.386	0.0153413
710.465	0.0152882
710.543	0.0152424
710.621	0.0154398
710.699	0.0153718
710.777	0.0154220
710.855	0.0152602
710.933	0.0154422
711.011	0.0155372
711.090	0.0153980
711.168	0.0153761
711.246	0.0153563
711.324	0.0150729
711.402	0.0150728
711.480	0.0150116
711.558	0.0150017
711.636	0.0150909
711.715	0.0149324
711.793	0.0148383
711.871	0.0149305
711.949	0.0150155
712.027	0.0152112
712.105	0.0151334
712.183	0.0150551
712.261	0.0151969
712.340	0.0154105
712.418	0.0153262
712.496	0.0152292
712.574	0.0153264
712.652	0.0154606
712.730	0.0155241
712.808	0.0154180
712.886	0.0156063
712.965	0.0156712
713.043	0.0156655
713.121	0.0157087
713.199	0.0156960
713.277	0.0157819
713.355	0.0157157
713.433	0.0157552
713.511	0.0157604
713.590	0.0159438
713.668	0.0159209
713.746	0.0159024
713.824	0.0158645
713.902	0.0159333
713.980	0.0159394
714.058	0.0156157
714.136	0.0156008
714.215	0.0153675
714.293	0.0153269
714.371	0.0150333
714.449	0.0147137
714.527	0.0146026
714.605	0.0143132
714.683	0.0143190
714.761	0.0143228
714.840	0.0141113
714.918	0.0140919
714.996	0.0140563
715.074	0.0140428
715.152	0.0141400
715.230	0.0141478
715.308	0.0142351
715.386	0.0142287
715.465	0.0143366
715.543	0.0145752
715.621	0.0144804
715.699	0.0147781
715.777	0.0149247
715.855	0.0152954
715.933	0.0154956
716.011	0.0157328
716.090	0.0157707
716.168	0.0161258
716.246	0.0161671
716.324	0.0162928
716.402	0.0162617
716.480	0.0165121
716.558	0.0164240
716.636	0.0164893
716.715	0.0166274
716.793	0.0166629
716.871	0.0166492
716.949	0.0165276
717.027	0.0163437
717.105	0.0163630
717.183	0.0162531
717.261	0.0162104
717.340	0.0162006
717.418	0.0160738
717.496	0.0159484
717.574	0.0159181
717.652	0.0159573
717.730	0.0160191
717.808	0.0159412
717.886	0.0159571
717.965	0.0159251
718.043	0.0158163
718.121	0.0157142
718.199	0.0156614
718.277	0.0153941
718.355	0.0149320
718.433	0.0147065
718.511	0.0145164
718.590	0.0141623
718.668	0.0138300
718.746	0.0133844
718.824	0.0129885
718.902	0.0126762
718.980	0.0123277
719.058	0.0118834
719.136	0.0117216
719.215	0.0117616
719.293	0.0116152
719.371	0.0117257
719.449	0.0118188
719.527	0.0121564
719.605	0.0124531
719.683	0.0128584
719.761	0.0134121
719.840	0.0138680
719.918	0.0145060
719.996	0.0149836
720.074	0.0157471
720.152	0.0164464
720.230	0.0170548
720.308	0.0176271
720.386	0.0182967
720.465	0.0187280
720.543	0.0191018
720.621	0.0192194
720.699	0.0193302
720.777	0.0192233
720.855	0.0190997
720.933	0.0187266
721.011	0.0185059
721.090	0.0179850
721.168	0.0175513
721.246	0.0169202
721.324	0.0164631
721.402	0.0159650
721.480	0.0156420
721.558	0.0151154
721.636	0.0148328
721.715	0.0148559
721.793	0.0146741
721.871	0.0146104
721.949	0.0148083
722.027	0.0148911
722.105	0.0152517
722.183	0.0155306
722.261	0.0158904
722.340	0.0161610
722.418	0.0164746
722.496	0.0165552
722.574	0.0167178
722.652	0.0167897
722.730	0.0164938
722.808	0.0163695
722.886	0.0161247
722.965	0.0155441
723.043	0.0151624
723.121	0.0146703
723.199	0.0139552
723.277	0.0132864
723.355	0.0125261
723.433	0.0119130
723.511	0.0110772
723.590	0.0104694
723.668	0.00985664
723.746	0.00951752
723.824	0.00924438
723.902	0.00911209
723.980	0.00936958
724.058	0.00951141
724.136	0.00996666
724.215	0.0106696
724.293	0.0116365
724.371	0.0124733
724.449	0.0134731
724.527	0.0145516
724.605	0.0154991
724.683	0.0164925
724.761	0.0176310
724.840	0.0183629
724.918	0.0190493
724.996	0.0196651
725.074	0.0200538
725.152	0.0201057
725.230	0.0204283
725.308	0.0203860
725.386	0.0199930
725.465	0.0198189
725.543	0.0194444
725.621	0.0188120
725.699	0.0184921
725.777	0.0180943
725.855	0.0175697
725.933	0.0170238
726.011	0.0166364
726.090	0.0163436
726.168	0.0160554
726.246	0.0159427
726.324	0.0159592
726.402	0.0159120
726.480	0.0159293
726.558	0.0160641
726.636	0.0161840
726.715	0.0161818
726.793	0.0162290
726.871	0.0164045
726.949	0.0164333
727.027	0.0163665
727.105	0.0163609
727.183	0.0161435
727.261	0.0159998
727.340	0.0157368
727.418	0.0152665
727.496	0.0146648
727.574	0.0141331
727.652	0.0136968
727.730	0.0130646
727.808	0.0125698
727.886	0.0119648
727.965	0.0115391
728.043	0.0110217
728.121	0.0108298
728.199	0.0105313
728.277	0.0104346
728.355	0.0104175
728.433	0.0106387
728.511	0.0107447
728.590	0.0111660
728.668	0.0116798
728.746	0.0121981
728.824	0.0127831
728.902	0.0132922
728.980	0.0139683
729.058	0.0147328
729.136	0.0154113
729.215	0.0160802
729.293	0.0166615
729.371	0.0171743
729.449	0.0176064
729.527	0.0178849
729.605	0.0181184
729.683	0.0184359
729.761	0.0185037
729.840	0.0183163
729.918	0.0181618
729.996	0.0179588
730.074	0.0178332
730.152	0.0176816
730.230	0.0174344
730.308	0.0170638
730.386	0.0167574
730.465	0.0165108
730.543	0.0163068
730.621	0.0162054
730.699	0.0161773
730.777	0.0159830
730.855	0.0157961
730.933	0.0158150
731.011	0.0158402
731.090	0.0159112
731.168	0.0159820
731.246	0.0159666
731.324	0.0158712
731.402	0.0158383
731.480	0.0159719
731.558	0.0158215
731.636	0.0157339
731.715	0.0156503
731.793	0.0152680
731.871	0.0151159
731.949	0.0149120
732.027	0.0144180
732.105	0.0141595
732.183	0.0138677
732.261	0.0135897
732.340	0.0132860
732.418	0.0132385
732.496	0.0131244
732.574	0.0132161
732.652	0.0133882
732.730	0.0135880
732.808	0.0136474
732.886	0.0140171
732.965	0.0142918
733.043	0.0144361
733.121	0.0147953
733.199	0.0149915
733.277	0.0151951
733.355	0.0154278
733.433	0.0158317
733.511	0.0158944
733.590	0.0160839
733.668	0.0162797
733.746	0.0163520
733.824	0.0165336
733.902	0.0166333
733.980	0.0165393
734.058	0.0164772
734.136	0.0163770
734.215	0.0164052
734.293	0.0161579
734.371	0.0158826
734.449	0.0157021
734.527	0.0154839
734.605	0.0153245
734.683	0.0150773
734.761	0.0148953
734.840	0.0146930
734.918	0.0145694
734.996	0.0144234
735.074	0.0143456
735.152	0.0143521
735.230	0.0144144
735.308	0.0144559
735.386	0.0145299
735.465	0.0144987
735.543	0.0146871
735.621	0.0148537
735.699	0.0147955
735.777	0.0147918
735.855	0.0148821
735.933	0.0148461
736.011	0.0148821
736.090	0.0149903
736.168	0.0147691
736.246	0.0148940
736.324	0.0148421
736.402	0.0148788
736.480	0.0146769
736.558	0.0147498
736.636	0.0148145
736.715	0.0149348
736.793	0.0148277
736.871	0.0149936
736.949	0.0151142
737.027	0.0153236
737.105	0.0155069
737.183	0.0158055
737.261	0.0159522
737.340	0.0162124
737.418	0.0164124
737.496	0.0166547
737.574	0.0164896
737.652	0.0165957
737.730	0.0167130
737.808	0.0166801
737.886	0.0165544
737.965	0.0165213
738.043	0.0164300
738.121	0.0162482
738.199	0.0160880
738.277	0.0158667
738.355	0.0156327
738.433	0.0154183
738.511	0.0152348
738.590	0.0151329
738.668	0.0149130
738.746	0.0148921
738.824	0.0147813
738.902	0.0148409
738.980	0.0147200
739.058	0.0150052
739.136	0.0151017
739.215	0.0151394
739.293	0.0152511
739.371	0.0154400
739.449	0.0154506
739.527	0.0155518
739.605	0.0156923
739.683	0.0155606
739.761	0.0155360
739.840	0.0155058
739.918	0.0154378
739.996	0.0153056
740.074	0.0152736
740.152	0.0150564
740.230	0.0150475
740.308	0.0149232
740.386	0.0147807
740.465	0.0145969
740.543	0.0144942
740.621	0.0144283
740.699	0.0144321
740.777	0.0142840
740.855	0.0142242
740.933	0.0142120
741.011	0.0142853
741.090	0.0144797
741.168	0.0145155
741.246	0.0147393
741.324	0.0148417
741.402	0.0150449
741.480	0.0152257
741.558	0.0154376
741.636	0.0154163
741.715	0.0154789
741.793	0.0155788
741.871	0.0155290
741.949	0.0157679
742.027	0.0157249
742.105	0.0157402
742.183	0.0157348
742.261	0.0156921
742.340	0.0156474
742.418	0.0154063
742.496	0.0153457
742.574	0.0152139
742.652	0.0150388
742.730	0.0150755
742.808	0.0148065
742.886	0.0149075
742.965	0.0147201
743.043	0.0147691
743.121	0.0149205
743.199	0.0147256
743.277	0.0149258
743.355	0.0151296
743.433	0.0153734
743.511	0.0153328
743.590	0.0155122
743.668	0.0156651
743.746	0.0159265
743.824	0.0159519
743.902	0.0158817
743.980	0.0158871
744.058	0.0160998
744.136	0.0160856
744.215	0.0160522
744.293	0.0158676
744.371	0.0159035
744.449	0.0158327
744.527	0.0158955
744.605	0.0159723
744.683	0.0158927
744.761	0.0158846
744.840	0.0158361
744.918	0.0158488
744.996	0.0157716
745.074	0.0155931
745.152	0.0154411
745.230	0.0154482
745.308	0.0153540
745.386	0.0152906
745.465	0.0152539
745.543	0.0151317
745.621	0.0148085
745.699	0.0146660
745.777	0.0146365
745.855	0.0146177
745.933	0.0144848
746.011	0.0142596
746.090	0.0141897
746.168	0.0144069
746.246	0.0143050
746.324	0.0146435
746.402	0.0144788
746.480	0.0144416
746.558	0.0148125
746.636	0.0149506
746.715	0.0150626
746.793	0.0151241
746.871	0.0153577
746.949	0.0152520
747.027	0.0154119
747.105	0.0155234
747.183	0.0152813
747.261	0.0153059
747.340	0.0153033
747.418	0.0152789
747.496	0.0152186
747.574	0.0151810
747.652	0.0151061
747.730	0.0151971
747.808	0.0152666
747.886	0.0153539
747.965	0.0153698
748.043	0.0155518
748.121	0.0156181
748.199	0.0156816
748.277	0.0159669
748.355	0.0160792
748.433	0.0161842
748.511	0.0161516
748.590	0.0161909
748.668	0.0163811
748.746	0.0163129
748.824	0.0163177
748.902	0.0163699
748.980	0.0163363
749.058	0.0162570
749.136	0.0161669
749.215	0.0158382
749.293	0.0156440
749.371	0.0154935
749.449	0.0152738
749.527	0.0151607
749.605	0.0148021
749.683	0.0146840
749.761	0.0145042
749.840	0.0143581
749.918	0.0142042
749.996	0.0141040
750.074	0.0140604
750.152	0.0139590
750.230	0.0141366
750.308	0.0140833
750.386	0.0142033
750.465	0.0143008
750.543	0.0143826
750.621	0.0144186
750.699	0.0145023
750.777	0.0149194
750.855	0.0148837
750.933	0.0150347
751.011	0.0152251
751.090	0.0153366
751.168	0.0154758
751.246	0.0155533
751.324	0.0155550
751.402	0.0156678
751.480	0.0158752
751.558	0.0159293
751.636	0.0158492
751.715	0.0157655
751.793	0.0158083
751.871	0.0157534
751.949	0.0158962
752.027	0.0157537
752.105	0.0156954
752.183	0.0156302
752.261	0.0157584
752.340	0.0158269
752.418	0.0157449
752.496	0.0155844
752.574	0.0157534
752.652	0.0156425
752.730	0.0158326
752.808	0.0158347
752.886	0.0158745
752.965	0.0160308
753.043	0.0160393
753.121	0.0161172
753.199	0.0161961
753.277	0.0161118
753.355	0.0160973
753.433	0.0159479
753.511	0.0158718
753.590	0.0156980
753.668	0.0155503
753.746	0.0155871
753.824	0.0151788
753.902	0.0149686
753.980	0.0150487
754.058	0.0148466
754.136	0.0145594
754.215	0.0144534
754.293	0.0144073
754.371	0.0144167
754.449	0.0143583
754.527	0.0143008
754.605	0.0142462
754.683	0.0143938
754.761	0.0144108
754.840	0.0145063
754.918	0.0145083
754.996	0.0146017
755.074	0.0147681
755.152	0.0147384
755.230	0.0148357
755.308	0.0150089
755.386	0.0150413
755.465	0.0151869
755.543	0.0152758
755.621	0.0154345
755.699	0.0154379
755.777	0.0155007
755.855	0.0155826
755.933	0.0158053
756.011	0.0159080
756.090	0.0159822
756.168	0.0160287
756.246	0.0160391
756.324	0.0160423
756.402	0.0162904
756.480	0.0162400
756.558	0.0162786
756.636	0.0162240
756.715	0.0161250
756.793	0.0161674
756.871	0.0159529
756.949	0.0159170
757.027	0.0158633
757.105	0.0158048
757.183	0.0155839
757.261	0.0154080
757.340	0.0152483
757.418	0.0152478
757.496	0.0151271
757.574	0.0148820
757.652	0.0147919
757.730	0.0147939
757.808	0.0146006
757.886	0.0146643
757.965	0.0146781
758.043	0.0145927
758.121	0.0145366
758.199	0.0146703
758.277	0.0148608
758.355	0.0145731
758.433	0.0147809
758.511	0.0147168
758.590	0.0148225
758.668	0.0150283
758.746	0.0149491
758.824	0.0152569
758.902	0.0151513
758.980	0.0150334
759.058	0.0151554
759.136	0.0152794
759.215	0.0153671
759.293	0.0151850
759.371	0.0152079
759.449	0.0152518
759.527	0.0152406
759.605	0.0150432
759.683	0.0152033
759.761	0.0153555
759.840	0.0152412
759.918	0.0152603
759.996	0.0152274
760.074	0.0153493
760.152	0.0153891
760.230	0.0154022
760.308	0.0153492
760.386	0.0154522
760.465	0.0156240
760.543	0.0154987
760.621	0.0156425
760.699	0.0156626
760.777	0.0157416
760.855	0.0158180
760.933	0.0157359
761.011	0.0157265
761.090	0.0158520
761.168	0.0158138
761.246	0.0159535
761.324	0.0158340
761.402	0.0156377
761.480	0.0156237
761.558	0.0156255
761.636	0.0154787
761.715	0.0153961
761.793	0.0153806
761.871	0.0153233
761.949	0.0152774
762.027	0.0149346
762.105	0.0149677
762.183	0.0148798
762.261	0.0146566
762.340	0.0146555
762.418	0.0145291
762.496	0.0145303
762.574	0.0145560
762.652	0.0143880
762.730	0.0144666
762.808	0.0145171
762.886	0.0144822
762.965	0.0146051
763.043	0.0146796
763.121	0.0147523
763.199	0.0148784
763.277	0.0150008
763.355	0.0150059
763.433	0.0151817
763.511	0.0151015
763.590	0.0152988
763.668	0.0154602
763.746	0.0154015
763.824	0.0155547
763.902	0.0157059
763.980	0.0158704
764.058	0.0159196
764.136	0.0158228
764.215	0.0158649
764.293	0.0158117
764.371	0.0159493
764.449	0.0160918
764.527	0.0158919
764.605	0.0158348
764.683	0.0159765
764.761	0.0157750
764.840	0.0158135
764.918	0.0156628
764.996	0.0156832
765.074	0.0155506
765.152	0.0156370
765.230	0.0155017
765.308	0.0154902
765.386	0.0153889
765.465	0.0154713
765.543	0.0153902
765.621	0.0152180
765.699	0.0153431
765.777	0.0153609
765.855	0.0152280
765.933	0.0151284
766.011	0.0150842
766.090	0.0150403
766.168	0.0148021
766.246	0.0150335
766.324	0.0149624
766.402	0.0149408
766.480	0.0147685
766.558	0.0148495
766.636	0.0146992
766.715	0.0147057
766.793	0.0148633
766.871	0.0147964
766.949	0.0146716
767.027	0.0147295
767.105	0.0148492
767.183	0.0148721
767.261	0.0150423
767.340	0.0150105
767.418	0.0151349
767.496	0.0150025
767.574	0.0149977
767.652	0.0151908
767.730	0.0151612
767.808	0.0152011
767.886	0.0151936
767.965	0.0150722
768.043	0.0151849
768.121	0.0152117
768.199	0.0152419
768.277	0.0152458
768.355	0.0151862
768.433	0.0152174
768.511	0.0153418
768.590	0.0155080
768.668	0.0153793
768.746	0.0153948
768.824	0.0156969
768.902	0.0157077
768.980	0.0156618
769.058	0.0156927
769.136	0.0156664
769.215	0.0157677
769.293	0.0159174
769.371	0.0158466
769.449	0.0159810
769.527	0.0158962
769.605	0.0158627
769.683	0.0157721
769.761	0.0157650
769.840	0.0157094
769.918	0.0155685
769.996	0.0155058
770.074	0.0155697
770.152	0.0154549
770.230	0.0153830
770.308	0.0152286
770.386	0.0151866
770.465	0.0149467
770.543	0.0151630
770.621	0.0149361
770.699	0.0147289
770.777	0.0148080
770.855	0.0147353
770.933	0.0147141
771.011	0.0145808
771.090	0.0146035
771.168	0.0145558
771.246	0.0145993
771.324	0.0146581
771.402	0.0146700
771.480	0.0145818
771.558	0.0146896
771.636	0.0147978
771.715	0.0149334
771.793	0.0149344
771.871	0.0151068
771.949	0.0152097
772.027	0.0151590
772.105	0.0151049
772.183	0.0152767
772.261	0.0153703
772.340	0.0154447
772.418	0.0153498
772.496	0.0155909
772.574	0.0157008
772.652	0.0156669
772.730	0.0154705
772.808	0.0157561
772.886	0.0156776
772.965	0.0156716
773.043	0.0157250
773.121	0.0156189
773.199	0.0156288
773.277	0.0155700
773.355	0.0155971
773.433	0.0156042
773.511	0.0154989
773.590	0.0156539
773.668	0.0155656
773.746	0.0154236
773.824	0.0154797
773.902	0.0155087
773.980	0.0155267
774.058	0.0153909
774.136	0.0155127
774.215	0.0155016
774.293	0.0153802
774.371	0.0153614
774.449	0.0153838
774.527	0.0153899
774.605	0.0154343
774.683	0.0151977
774.761	0.0151621
774.840	0.0153423
774.918	0.0150963
774.996	0.0150366
775.074	0.0150995
775.152	0.0150366
775.230	0.0150023
775.308	0.0150456
775.386	0.0149893
775.465	0.0149474
775.543	0.0148592
775.621	0.0148700
775.699	0.0149063
775.777	0.0148769
775.855	0.0146814
775.933	0.0148747
776.011	0.0147758
776.090	0.0148783
776.168	0.0148712
776.246	0.0147917
776.324	0.0149509
776.402	0.0149492
776.480	0.0148729
776.558	0.0150212
776.636	0.0152423
776.715	0.0152670
776.793	0.0153742
776.871	0.0154561
776.949	0.0154271
777.027	0.0154875
777.105	0.0157548
777.183	0.0157121
777.261	0.0157909
777.340	0.0158940
777.418	0.0158319
777.496	0.0158399
777.574	0.0159980
777.652	0.0160564
777.730	0.0159045
777.808	0.0159530
777.886	0.0157967
777.965	0.0158086
778.043	0.0158543
778.121	0.0156954
778.199	0.0158311
778.277	0.0155405
778.355	0.0154656
778.433	0.0155091
778.511	0.0154006
778.590	0.0153064
778.668	0.0154501
778.746	0.0152061
778.824	0.0154421
778.902	0.0152514
778.980	0.0151036
779.058	0.0152300
779.136	0.0150632
779.215	0.0152267
779.293	0.0152917
779.371	0.0151910
779.449	0.0150799
779.527	0.0153482
779.605	0.0153442
779.683	0.0150439
779.761	0.0150044
779.840	0.0151900
779.918	0.0150982
779.996	0.0150000
780.074	0.0149944
780.152	0.0149950
780.230	0.0150945
780.308	0.0150584
780.386	0.0149054
780.465	0.0149978
780.543	0.0149652
780.621	0.0149963
780.699	0.0150920
780.777	0.0151124
780.855	0.0150333
780.933	0.0150591
781.011	0.0151804
781.090	0.0151865
781.168	0.0152213
781.246	0.0153639
781.324	0.0153555
781.402	0.0154449
781.480	0.0153913
781.558	0.0154276
781.636	0.0155064
781.715	0.0155970
781.793	0.0154813
781.871	0.0154294
781.949	0.0155439
782.027	0.0155755
782.105	0.0155730
782.183	0.0155225
782.261	0.0155935
782.340	0.0153671
782.418	0.0154406
782.496	0.0156631
782.574	0.0156779
782.652	0.0155443
782.730	0.0155598
782.808	0.0154697
782.886	0.0155396
782.965	0.0154873
783.043	0.0154948
783.121	0.0153162
783.199	0.0153371
783.277	0.0154456
783.355	0.0152839
783.433	0.0153930
783.511	0.0151992
783.590	0.0152328
783.668	0.0151973
783.746	0.0151188
783.824	0.0150054
783.902	0.0151283
783.980	0.0151452
784.058	0.0150500
784.136	0.0149819
784.215	0.0149705
784.293	0.0150533
784.371	0.0150045
784.449	0.0150066
784.527	0.0149725
784.605	0.0149720
784.683	0.0151219
784.761	0.0149446
784.840	0.0149532
784.918	0.0150534
784.996	0.0150319
785.074	0.0149290
785.152	0.0149710
785.230	0.0152259
785.308	0.0150719
785.386	0.0150902
785.465	0.0151836
785.543	0.0151956
785.621	0.0153230
785.699	0.0153345
785.777	0.0153609
785.855	0.0152448
785.933	0.0153210
786.011	0.0154199
786.090	0.0153967
786.168	0.0156625
786.246	0.0155824
786.324	0.0156274
786.402	0.0155938
786.480	0.0155029
786.558	0.0156752
786.636	0.0156480
786.715	0.0156969
786.793	0.0156227
786.871	0.0156157
786.949	0.0156516
787.027	0.0154260
787.105	0.0155910
787.183	0.0155449
787.261	0.0154281
787.340	0.0153008
787.418	0.0153144
787.496	0.0152716
787.574	0.0152350
787.652	0.0151450
787.730	0.0152433
787.808	0.0151409
787.886	0.0151699
787.965	0.0151414
788.043	0.0151643
788.121	0.0150730
788.199	0.0151797
788.277	0.0151933
788.355	0.0150045
788.433	0.0152210
788.511	0.0150893
788.590	0.0151369
788.668	0.0152215
788.746	0.0151203
788.824	0.0150346
788.902	0.0151164
788.980	0.0149879
789.058	0.0148615
789.136	0.0149172
789.215	0.0150481
789.293	0.0150596
789.371	0.0151158
789.449	0.0149506
789.527	0.0152369
789.605	0.0153169
789.683	0.0150734
789.761	0.0152470
789.840	0.0153525
789.918	0.0153426
789.996	0.0152994
790.074	0.0155442
790.152	0.0155650
790.230	0.0155288
790.308	0.0154484
790.386	0.0154819
790.465	0.0154771
790.543	0.0153336
790.621	0.0155329
790.699	0.0153495
790.777	0.0154619
790.855	0.0154208
790.933	0.0152196
791.011	0.0153221
791.090	0.0153082
791.168	0.0152113
791.246	0.0150880
791.324	0.0153416
791.402	0.0151881
791.480	0.0152978
791.558	0.0151151
791.636	0.0151198
791.715	0.0151620
791.793	0.0152006
791.871	0.0151786
791.949	0.0150584
792.027	0.0151250
792.105	0.0150362
792.183	0.0150914
792.261	0.0151517
792.340	0.0151247
792.418	0.0151878
792.496	0.0151170
792.574	0.0150850
792.652	0.0150956
792.730	0.0151494
792.808	0.0151443
792.886	0.0151579
792.965	0.0150816
793.043	0.0152563
793.121	0.0152167
793.199	0.0151411
793.277	0.0152894
793.355	0.0150711
793.433	0.0152866
793.511	0.0152441
793.590	0.0151872
793.668	0.0153304
793.746	0.0152968
793.824	0.0154340
793.902	0.0153445
793.980	0.0153465
794.058	0.0154083
794.136	0.0152697
794.215	0.0154625
794.293	0.0152941
794.371	0.0153379
794.449	0.0154211
794.527	0.0151761
794.605	0.0152900
794.683	0.0154106
794.761	0.0153402
794.840	0.0153833
794.918	0.0155461
794.996	0.0154922
795.074	0.0153738
795.152	0.0153354
795.230	0.0154270
795.308	0.0153883
795.386	0.0154023
795.465	0.0154020
795.543	0.0153788
795.621	0.0152808
795.699	0.0154228
795.777	0.0152792
795.855	0.0153812
795.933	0.0153661
796.011	0.0152897
796.090	0.0153898
796.168	0.0153082
796.246	0.0152660
796.324	0.0152609
796.402	0.0151550
796.480	0.0150194
796.558	0.0149896
796.636	0.0151134
796.715	0.0150259
796.793	0.0149119
796.871	0.0151516
796.949	0.0150504
797.027	0.0149722
797.105	0.0149654
797.183	0.0150971
797.261	0.0151611
797.340	0.0149743
797.418	0.0151398
797.496	0.0153955
797.574	0.0151850
797.652	0.0153045
797.730	0.0153162
797.808	0.0154374
797.886	0.0154794
797.965	0.0152203
798.043	0.0154639
798.121	0.0155194
798.199	0.0153773
798.277	0.0154330
798.355	0.0154052
798.433	0.0153136
798.511	0.0154765
798.590	0.0154395
798.668	0.0154445
798.746	0.0154478
798.824	0.0152898
798.902	0.0155189
798.980	0.0152964
799.058	0.0153535
799.136	0.0152372
799.215	0.0152974
799.293	0.0151966
799.371	0.0152917
799.449	0.0153964
799.527	0.0153288
799.605	0.0153057
799.683	0.0153011
799.761	0.0152325
799.840	0.0153114
799.918	0.0152471
799.996	0.0152196
800.074	0.0152907
800.152	0.0152641
800.230	0.0151035
800.308	0.0151040
800.386	0.0151989
800.465	0.0152764
800.543	0.0153077
800.621	0.0152732
800.699	0.0152576
800.777	0.0150972
800.855	0.0150702
800.933	0.0152230
801.011	0.0151044
801.090	0.0150188
801.168	0.0150461
801.246	0.0151483
801.324	0.0152749
801.402	0.0151718
801.480	0.0151395
801.558	0.0150219
801.636	0.0152544
801.715	0.0152544
801.793	0.0152966
801.871	0.0152272
801.949	0.0152822
802.027	0.0152717
802.105	0.0151637
802.183	0.0152943
802.261	0.0152100
802.340	0.0153098
802.418	0.0152440
802.496	0.0153192
802.574	0.0154608
802.652	0.0153237
802.730	0.0153487
802.808	0.0153942
802.886	0.0154689
802.965	0.0155738
803.043	0.0154338
803.121	0.0153170
803.199	0.0153645
803.277	0.0155168
803.355	0.0153690
803.433	0.0154571
803.511	0.0154855
803.590	0.0153991
803.668	0.0153996
803.746	0.0152895
803.824	0.0151928
803.902	0.0153518
803.980	0.0152882
804.058	0.0153494
804.136	0.0153505
804.215	0.0153763
804.293	0.0153937
804.371	0.0153109
804.449	0.0153385
804.527	0.0153004
804.605	0.0153131
804.683	0.0152929
804.761	0.0152433
804.840	0.0154085
804.918	0.0153379
804.996	0.0153554
805.074	0.0152891
805.152	0.0152805
805.230	0.0153931
805.308	0.0153127
805.386	0.0154136
805.465	0.0153550
805.543	0.0154103
805.621	0.0153461
805.699	0.0152727
805.777	0.0153619
805.855	0.0152938
805.933	0.0152421
806.011	0.0153876
806.090	0.0152906
806.168	0.0153194
806.246	0.0152102
806.324	0.0152582
806.402	0.0152068
806.480	0.0152549
806.558	0.0152335
806.636	0.0151763
806.715	0.0152380
806.793	0.0152235
806.871	0.0153055
806.949	0.0151350
807.027	0.0152116
807.105	0.0151924
807.183	0.0152357
807.261	0.0151485
807.340	0.0151267
807.418	0.0151732
807.496	0.0150958
807.574	0.0151525
807.652	0.0151326
807.730	0.0152257
807.808	0.0151874
807.886	0.0152526
807.965	0.0150714
808.043	0.0152072
808.121	0.0151277
808.199	0.0151031
808.277	0.0153250
808.355	0.0151604
808.433	0.0152046
808.511	0.0152819
808.590	0.0152293
808.668	0.0152604
808.746	0.0153052
808.824	0.0153181
808.902	0.0153275
808.980	0.0153207
809.058	0.0153817
809.136	0.0155701
809.215	0.0153758
809.293	0.0154045
809.371	0.0154594
809.449	0.0153308
809.527	0.0154742
809.605	0.0154722
809.683	0.0155233
809.761	0.0155991
809.840	0.0155339
809.918	0.0154929
809.996	0.0153783
810.074	0.0155429
810.152	0.0154480
810.230	0.0152883
810.308	0.0153297
810.386	0.0153680
810.465	0.0153857
810.543	0.0151812
810.621	0.0152336
810.699	0.0153118
810.777	0.0153884
810.855	0.0152773
810.933	0.0151517
811.011	0.0150771
811.090	0.0151099
811.168	0.0150255
811.246	0.0149957
811.324	0.0149399
811.402	0.0148610
811.480	0.0148225
811.558	0.0149976
811.636	0.0149336
811.715	0.0148121
811.793	0.0149083
811.871	0.0149431
811.949	0.0148131
812.027	0.0148737
812.105	0.0148552
812.183	0.0148691
812.261	0.0150404
812.340	0.0151118
812.418	0.0151806
812.496	0.0152203
812.574	0.0151660
812.652	0.0153255
812.730	0.0154264
812.808	0.0153761
812.886	0.0155196
812.965	0.0157072
813.043	0.0157285
813.121	0.0155695
813.199	0.0157079
813.277	0.0156972
813.355	0.0156621
813.433	0.0157494
813.511	0.0156895
813.590	0.0157218
813.668	0.0157036
813.746	0.0156320
813.824	0.0156290
813.902	0.0155669
813.980	0.0155904
814.058	0.0156509
814.136	0.0155750
814.215	0.0155515
814.293	0.0153806
814.371	0.0153364
814.449	0.0153655
814.527	0.0153927
814.605	0.0151879
814.683	0.0152831
814.761	0.0152029
814.840	0.0151277
814.918	0.0149883
814.996	0.0150106
815.074	0.0150722
815.152	0.0149271
815.230	0.0148531
815.308	0.0146464
815.386	0.0146599
815.465	0.0147422
815.543	0.0145252
815.621	0.0144536
815.699	0.0144311
815.777	0.0145049
815.855	0.0144219
815.933	0.0144724
816.011	0.0143717
816.090	0.0144740
816.168	0.0146239
816.246	0.0147200
816.324	0.0147351
816.402	0.0148679
816.480	0.0149310
816.558	0.0151940
816.636	0.0153606
816.715	0.0154063
816.793	0.0154723
816.871	0.0156074
816.949	0.0157493
817.027	0.0158544
817.105	0.0159711
817.183	0.0160589
817.261	0.0159052
817.340	0.0158918
817.418	0.0159340
817.496	0.0160635
817.574	0.0160316
817.652	0.0159340
817.730	0.0159518
817.808	0.0159057
817.886	0.0158961
817.965	0.0157312
818.043	0.0157695
818.121	0.0156730
818.199	0.0157388
818.277	0.0158041
818.355	0.0156525
818.433	0.0156165
818.511	0.0155647
818.590	0.0155469
818.668	0.0155163
818.746	0.0154965
818.824	0.0154435
818.902	0.0153714
818.980	0.0153649
819.058	0.0152078
819.136	0.0151165
819.215	0.0152237
819.293	0.0150761
819.371	0.0148547
819.449	0.0149847
819.527	0.0147877
819.605	0.0147411
819.683	0.0146770
819.761	0.0145722
819.840	0.0145045
819.918	0.0144278
819.996	0.0142709
820.074	0.0142207
820.152	0.0142192
820.230	0.0141877
820.308	0.0142683
820.386	0.0142523
820.465	0.0141848
820.543	0.0143026
820.621	0.0144019
820.699	0.0144860
820.777	0.0143839
820.855	0.0147379
820.933	0.0148480
821.011	0.0149695
821.090	0.0151590
821.168	0.0152226
821.246	0.0152464
821.324	0.0155262
821.402	0.0157024
821.480	0.0157972
821.558	0.0158793
821.636	0.0160223
821.715	0.0160423
821.793	0.0162144
821.871	0.0162874
821.949	0.0161402
822.027	0.0161922
822.105	0.0161916
822.183	0.0162730
822.261	0.0163859
822.340	0.0161746
822.418	0.0161381
822.496	0.0162444
822.574	0.0161607
822.652	0.0159847
822.730	0.0160631
822.808	0.0160381
822.886	0.0157864
822.965	0.0158073
823.043	0.0157486
823.121	0.0156107
823.199	0.0154824
823.277	0.0154311
823.355	0.0152812
823.433	0.0151756
823.511	0.0151082
823.590	0.0150565
823.668	0.0150577
823.746	0.0148193
823.824	0.0146819
823.902	0.0146639
823.980	0.0147085
824.058	0.0145580
824.136	0.0144738
824.215	0.0145314
824.293	0.0143615
824.371	0.0142566
824.449	0.0144254
824.527	0.0144111
824.605	0.0143125
824.683	0.0142438
824.761	0.0143277
824.840	0.0143593
824.918	0.0143387
824.996	0.0144675
825.074	0.0145101
825.152	0.0144795
825.230	0.0145511
825.308	0.0146475
825.386	0.0147334
825.465	0.0148064
825.543	0.0148985
825.621	0.0149963
825.699	0.0151009
825.777	0.0152589
825.855	0.0153642
825.933	0.0153761
826.011	0.0156316
826.090	0.0157607
826.168	0.0158342
826.246	0.0158638
826.324	0.0159258
826.402	0.0158305
826.480	0.0159444
826.558	0.0159927
826.636	0.0159072
826.715	0.0158385
826.793	0.0159058
826.871	0.0160663
826.949	0.0159774
827.027	0.0158059
827.105	0.0158846
827.183	0.0158588
827.261	0.0157777
827.340	0.0157780
827.418	0.0156617
827.496	0.0156116
827.574	0.0154146
827.652	0.0155125
827.730	0.0154617
827.808	0.0154024
827.886	0.0154341
827.965	0.0154558
828.043	0.0152776
828.121	0.0151147
828.199	0.0152111
828.277	0.0151200
828.355	0.0151405
828.433	0.0150525
828.511	0.0149564
828.590	0.0149235
828.668	0.0148527
828.746	0.0149358
828.824	0.0149059
828.902	0.0149073
828.980	0.0148598
829.058	0.0148965
829.136	0.0149384
829.215	0.0150153
829.293	0.0150753
829.371	0.0149912
829.449	0.0151021
829.527	0.0151546
829.605	0.0153226
829.683	0.0154389
829.761	0.0153561
829.840	0.0153288
829.918	0.0154620
829.996	0.0153555
830.074	0.0154131
830.152	0.0153407
830.230	0.0152973
830.308	0.0154574
830.386	0.0153853
830.465	0.0152589
830.543	0.0152766
830.621	0.0153086
830.699	0.0152312
830.777	0.0151270
830.855	0.0150958
830.933	0.0152225
831.011	0.0152090
831.090	0.0150453
831.168	0.0151125
831.246	0.0149776
831.324	0.0151467
831.402	0.0151034
831.480	0.0150543
831.558	0.0149796
831.636	0.0150317
831.715	0.0151060
831.793	0.0151750
831.871	0.0151531
831.949	0.0152624
832.027	0.0152075
832.105	0.0153128
832.183	0.0151963
832.261	0.0151415
832.340	0.0151721
832.418	0.0151919
832.496	0.0153107
832.574	0.0150246
832.652	0.0150304
832.730	0.0151716
832.808	0.0150861
832.886	0.0150429
832.965	0.0152264
833.043	0.0151936
833.121	0.0150944
833.199	0.0151875
833.277	0.0153587
833.355	0.0154821
833.433	0.0154845
833.511	0.0155520
833.590	0.0154828
833.668	0.0155602
833.746	0.0156590
833.824	0.0156694
833.902	0.0155904
833.980	0.0156606
834.058	0.0157218
834.136	0.0156618
834.215	0.0156060
834.293	0.0155744
834.371	0.0155582
834.449	0.0154508
834.527	0.0154414
834.605	0.0155242
834.683	0.0154881
834.761	0.0154113
834.840	0.0152204
834.918	0.0152847
834.996	0.0152625
835.074	0.0151522
835.152	0.0151972
835.230	0.0150274
835.308	0.0150629
835.386	0.0151450
835.465	0.0150311
835.543	0.0151637
835.621	0.0151196
835.699	0.0149874
835.777	0.0150042
835.855	0.0151839
835.933	0.0150095
836.011	0.0150467
836.090	0.0150961
836.168	0.0150380
836.246	0.0150835
836.324	0.0150619
836.402	0.0148633
836.480	0.0148980
836.558	0.0150974
836.636	0.0150018
836.715	0.0148952
836.793	0.0151144
836.871	0.0151134
836.949	0.0151128
837.027	0.0150036
837.105	0.0151623
837.183	0.0153530
837.261	0.0151788
837.340	0.0151903
837.418	0.0152091
837.496	0.0152592
837.574	0.0153680
837.652	0.0152930
837.730	0.0153976
837.808	0.0154440
837.886	0.0154443
837.965	0.0154817
838.043	0.0154993
838.121	0.0153374
838.199	0.0154406
838.277	0.0156373
838.355	0.0154155
838.433	0.0155455
838.511	0.0154839
838.590	0.0153374
838.668	0.0155016
838.746	0.0155929
838.824	0.0153608
838.902	0.0153675
838.980	0.0153260
839.058	0.0152770
839.136	0.0153694
839.215	0.0152357
839.293	0.0153367
839.371	0.0152898
839.449	0.0151380
839.527	0.0150528
839.605	0.0151693
839.683	0.0152573
839.761	0.0151876
839.840	0.0151425
839.918	0.0151886
839.996	0.0151350
840.074	0.0151550
840.152	0.0152711
840.230	0.0153444
840.308	0.0153587
840.386	0.0152908
840.465	0.0153164
840.543	0.0153114
840.621	0.0153082
840.699	0.0154388
840.777	0.0153641
840.855	0.0152157
840.933	0.0153490
841.011	0.0153982
841.090	0.0154218
841.168	0.0153674
841.246	0.0151975
841.324	0.0152920
841.402	0.0153405
841.480	0.0152635
841.558	0.0152241
841.636	0.0153904
841.715	0.0151175
841.793	0.0151559
841.871	0.0151534
841.949	0.0152202
842.027	0.0152374
842.105	0.0151524
842.183	0.0152520
842.261	0.0151334
842.340	0.0151306
842.418	0.0151688
842.496	0.0150537
842.574	0.0150936
842.652	0.0153176
842.730	0.0152321
842.808	0.0151780
842.886	0.0152149
842.965	0.0151376
843.043	0.0152663
843.121	0.0153024
843.199	0.0152854
843.277	0.0153139
843.355	0.0153342
843.433	0.0152981
843.511	0.0152786
843.590	0.0154153
843.668	0.0154776
843.746	0.0153105
843.824	0.0154057
843.902	0.0153448
843.980	0.0153610
844.058	0.0154025
844.136	0.0152574
844.215	0.0153903
844.293	0.0154961
844.371	0.0155093
844.449	0.0153194
844.527	0.0152962
844.605	0.0154916
844.683	0.0153438
844.761	0.0153432
844.840	0.0153762
844.918	0.0153368
844.996	0.0155593
845.074	0.0155396
845.152	0.0154064
845.230	0.0154076
845.308	0.0153862
845.386	0.0154925
845.465	0.0155210
845.543	0.0154852
845.621	0.0153403
845.699	0.0152911
845.777	0.0153785
845.855	0.0153011
845.933	0.0151768
846.011	0.0152568
846.090	0.0154256
846.168	0.0152979
846.246	0.0151811
846.324	0.0151961
846.402	0.0152516
846.480	0.0152222
846.558	0.0151528
846.636	0.0151851
846.715	0.0152007
846.793	0.0151266
846.871	0.0150385
846.949	0.0152036
847.027	0.0150142
847.105	0.0149508
847.183	0.0150039
847.261	0.0148455
847.340	0.0148711
847.418	0.0149252
847.496	0.0149545
847.574	0.0149170
847.652	0.0149429
847.730	0.0149622
847.808	0.0152055
847.886	0.0151588
847.965	0.0151172
848.043	0.0152290
848.121	0.0154047
848.199	0.0154414
848.277	0.0154646
848.355	0.0154559
848.433	0.0154687
848.511	0.0155814
848.590	0.0156840
848.668	0.0154687
848.746	0.0155057
848.824	0.0156190
848.902	0.0156326
848.980	0.0154109
849.058	0.0156390
849.136	0.0155000
849.215	0.0154648
849.293	0.0156767
849.371	0.0154532
849.449	0.0155029
849.527	0.0154373
849.605	0.0154009
849.683	0.0154951
849.761	0.0153145
849.840	0.0153790
849.918	0.0154849
849.996	0.0153522
850.074	0.0152399
850.152	0.0154495
850.230	0.0153373
850.308	0.0152338
850.386	0.0152840
850.465	0.0153293
850.543	0.0153841
850.621	0.0153535
850.699	0.0153058
850.777	0.0151958
850.855	0.0151067
850.933	0.0151671
851.011	0.0151575
851.090	0.0151374
851.168	0.0149170
851.246	0.0149326
851.324	0.0151160
851.402	0.0151511
851.480	0.0151003
851.558	0.0149563
851.636	0.0149168
851.715	0.0149434
851.793	0.0149367
851.871	0.0149859
851.949	0.0150937
852.027	0.0151166
852.105	0.0151350
852.183	0.0151769
852.261	0.0152964
852.340	0.0151667
852.418	0.0154191
852.496	0.0152469
852.574	0.0153621
852.652	0.0154797
852.730	0.0154056
852.808	0.0154319
852.886	0.0154689
852.965	0.0155864
853.043	0.0154915
853.121	0.0154838
853.199	0.0155501
853.277	0.0155273
853.355	0.0154008
853.433	0.0154359
853.511	0.0155154
853.590	0.0155783
853.668	0.0155341
853.746	0.0154090
853.824	0.0154721
853.902	0.0155531
853.980	0.0155486
854.058	0.0154098
854.136	0.0154867
854.215	0.0155203
854.293	0.0154758
854.371	0.0155146
854.449	0.0154310
854.527	0.0154830
854.605	0.0152469
854.683	0.0152325
854.761	0.0152886
854.840	0.0153695
854.918	0.0153093
854.996	0.0152497
855.074	0.0152384
855.152	0.0150632
855.230	0.0151107
855.308	0.0150774
855.386	0.0150230
855.465	0.0151292
855.543	0.0149948
855.621	0.0150799
855.699	0.0151363
855.777	0.0149635
855.855	0.0150955
855.933	0.0149777
856.011	0.0152365
856.090	0.0151551
856.168	0.0151082
856.246	0.0151287
856.324	0.0150589
856.402	0.0151785
856.480	0.0152085
856.558	0.0150352
856.636	0.0152486
856.715	0.0150800
856.793	0.0151743
856.871	0.0151839
856.949	0.0151585
857.027	0.0152490
857.105	0.0151701
857.183	0.0153719
857.261	0.0151868
857.340	0.0152505
857.418	0.0151888
857.496	0.0152036
857.574	0.0152158
857.652	0.0152805
857.730	0.0152579
857.808	0.0154040
857.886	0.0153944
857.965	0.0154121
858.043	0.0152805
858.121	0.0155540
858.199	0.0154945
858.277	0.0154512
858.355	0.0154669
858.433	0.0155137
858.511	0.0155082
858.590	0.0154254
858.668	0.0154875
858.746	0.0153606
858.824	0.0152597
858.902	0.0154433
858.980	0.0153706
859.058	0.0152385
859.136	0.0152386
859.215	0.0152855
859.293	0.0151987
859.371	0.0151672
859.449	0.0152611
859.527	0.0152464
859.605	0.0151620
859.683	0.0152633
859.761	0.0152775
859.840	0.0150842
859.918	0.0153080
859.996	0.0152174
860.074	0.0151929
860.152	0.0151819
860.230	0.0151166
860.308	0.0152281
860.386	0.0152795
860.465	0.0150296
860.543	0.0152409
860.621	0.0153716
860.699	0.0151958
860.777	0.0152541
860.855	0.0153765
860.933	0.0151176
861.011	0.0152835
861.090	0.0152976
861.168	0.0151675
861.246	0.0152208
861.324	0.0151260
861.402	0.0151820
861.480	0.0152027
861.558	0.0152936
861.636	0.0152008
861.715	0.0151004
861.793	0.0149849
861.871	0.0152376
861.949	0.0152319
862.027	0.0151608
862.105	0.0151471
862.183	0.0151634
862.261	0.0151459
862.340	0.0152161
862.418	0.0152877
862.496	0.0153017
862.574	0.0152392
862.652	0.0153319
862.730	0.0153182
862.808	0.0153341
862.886	0.0153566
862.965	0.0153275
863.043	0.0152101
863.121	0.0154803
863.199	0.0155567
863.277	0.0153971
863.355	0.0153674
863.433	0.0154185
863.511	0.0155022
863.590	0.0153686
863.668	0.0155207
863.746	0.0155107
863.824	0.0154507
863.902	0.0153841
863.980	0.0154066
864.058	0.0155387
864.136	0.0153158
864.215	0.0152296
864.293	0.0152803
864.371	0.0153859
864.449	0.0151209
864.527	0.0153628
864.605	0.0151671
864.683	0.0150396
864.761	0.0151756
864.840	0.0153040
864.918	0.0153229
864.996	0.0152570
865.074	0.0153329
865.152	0.0152748
865.230	0.0153772
865.308	0.0151833
865.386	0.0153045
865.465	0.0153575
865.543	0.0152640
865.621	0.0152985
865.699	0.0153530
865.777	0.0153432
865.855	0.0152541
865.933	0.0152289
866.011	0.0153687
866.090	0.0152554
866.168	0.0153167
866.246	0.0152792
866.324	0.0152612
866.402	0.0152656
866.480	0.0152580
866.558	0.0153590
866.636	0.0153777
866.715	0.0152101
866.793	0.0152231
866.871	0.0153998
866.949	0.0153912
867.027	0.0152202
867.105	0.0153042
867.183	0.0154133
867.261	0.0151592
867.340	0.0152642
867.418	0.0151962
867.496	0.0152187
867.574	0.0153312
867.652	0.0153947
867.730	0.0153233
867.808	0.0153452
867.886	0.0152583
867.965	0.0152135
868.043	0.0153020
868.121	0.0153867
868.199	0.0152445
868.277	0.0151442
868.355	0.0153229
868.433	0.0153608
868.511	0.0154148
868.590	0.0154469
868.668	0.0153687
868.746	0.0152242
868.824	0.0153291
868.902	0.0153334
868.980	0.0153199
869.058	0.0155070
869.136	0.0154361
869.215	0.0153077
869.293	0.0153877
869.371	0.0153686
869.449	0.0154110
869.527	0.0153877
869.605	0.0153423
869.683	0.0154753
869.761	0.0154166
869.840	0.0154511
869.918	0.0153075
869.996	0.0152421
870.074	0.0153434
870.152	0.0151157
870.230	0.0154547
870.308	0.0153924
870.386	0.0153057
870.465	0.0151968
870.543	0.0152229
870.621	0.0151766
870.699	0.0151830
870.777	0.0152644
870.855	0.0152958
870.933	0.0152151
871.011	0.0153172
871.090	0.0152706
871.168	0.0152962
871.246	0.0153139
871.324	0.0152300
871.402	0.0153255
871.480	0.0152462
871.558	0.0153256
871.636	0.0153142
871.715	0.0153177
871.793	0.0151980
871.871	0.0152543
871.949	0.0152187
872.027	0.0153114
872.105	0.0153218
872.183	0.0153379
872.261	0.0153172
872.340	0.0152642
872.418	0.0151862
872.496	0.0151424
872.574	0.0152563
872.652	0.0153429
872.730	0.0152670
872.808	0.0152576
872.886	0.0153283
872.965	0.0154209
873.043	0.0152725
873.121	0.0153676
873.199	0.0153454
873.277	0.0153283
873.355	0.0154700
873.433	0.0152108
873.511	0.0152645
873.590	0.0152918
873.668	0.0153503
873.746	0.0153073
873.824	0.0153221
873.902	0.0151870
873.980	0.0152811
874.058	0.0152442
874.136	0.0154260
874.215	0.0153619
874.293	0.0152628
874.371	0.0154603
874.449	0.0153595
874.527	0.0154070
874.605	0.0153017
874.683	0.0154681
874.761	0.0154156
874.840	0.0153709
874.918	0.0154495
874.996	0.0154874
875.074	0.0154073
875.152	0.0153610
875.230	0.0152562
875.308	0.0152731
875.386	0.0153687
875.465	0.0153363
875.543	0.0152734
875.621	0.0153424
875.699	0.0152944
875.777	0.0152487
875.855	0.0150735
875.933	0.0151407
876.011	0.0153076
876.090	0.0151107
876.168	0.0151072
876.246	0.0152495
876.324	0.0151784
876.402	0.0152937
876.480	0.0152615
876.558	0.0152528
876.636	0.0152812
876.715	0.0153111
876.793	0.0153664
876.871	0.0152409
876.949	0.0151595
877.027	0.0152293
877.105	0.0152512
877.183	0.0152277
877.261	0.0152844
877.340	0.0152582
877.418	0.0152483
877.496	0.0151343
877.574	0.0152387
877.652	0.0152163
877.730	0.0152432
877.808	0.0151116
877.886	0.0151405
877.965	0.0152229
878.043	0.0152047
878.121	0.0151472
878.199	0.0153141
878.277	0.0153056
878.355	0.0152570
878.433	0.0152213
878.511	0.0151299
878.590	0.0151253
878.668	0.0152803
878.746	0.0151203
878.824	0.0153105
878.902	0.0151875
878.980	0.0152296
879.058	0.0152817
879.136	0.0151057
879.215	0.0152388
879.293	0.0152493
879.371	0.0150773
879.449	0.0152198
879.527	0.0152698
879.605	0.0152489
879.683	0.0153587
879.761	0.0151888
879.840	0.0152275
879.918	0.0153474
879.996	0.0151486
880.074	0.0151748
880.152	0.0153203
880.230	0.0153429
880.308	0.0152563
880.386	0.0152019
880.465	0.0152932
880.543	0.0153313
880.621	0.0153075
880.699	0.0153028
880.777	0.0155104
880.855	0.0153021
880.933	0.0154023
881.011	0.0153160
881.090	0.0153732
881.168	0.0155236
881.246	0.0152782
881.324	0.0153492
881.402	0.0154157
881.480	0.0153659
881.558	0.0154030
881.636	0.0153340
881.715	0.0154044
881.793	0.0151729
881.871	0.0151095
881.949	0.0151221
882.027	0.0152715
882.105	0.0153216
882.183	0.0151788
882.261	0.0151919
882.340	0.0151384
882.418	0.0150887
882.496	0.0152113
882.574	0.0152132
882.652	0.0151535
882.730	0.0151859
882.808	0.0152147
882.886	0.0150438
882.965	0.0152775
883.043	0.0152095
883.121	0.0151482
883.199	0.0152678
883.277	0.0152088
883.355	0.0151550
883.433	0.0152256
883.511	0.0153468
883.590	0.0153100
883.668	0.0152630
883.746	0.0152000
883.824	0.0151300
883.902	0.0152374
883.980	0.0151270
884.058	0.0150542
884.136	0.0151973
884.215	0.0150932
884.293	0.0151658
884.371	0.0152137
884.449	0.0153001
884.527	0.0152195
884.605	0.0151662
884.683	0.0152193
884.761	0.0153041
884.840	0.0152332
884.918	0.0151967
884.996	0.0153749
885.074	0.0153548
885.152	0.0152757
885.230	0.0153013
885.308	0.0151556
885.386	0.0153934
885.465	0.0154369
885.543	0.0153003
885.621	0.0154030
885.699	0.0152445
885.777	0.0154433
885.855	0.0154802
885.933	0.0153008
886.011	0.0153185
886.090	0.0153009
886.168	0.0152705
886.246	0.0151467
886.324	0.0152383
886.402	0.0151973
886.480	0.0151734
886.558	0.0152783
886.636	0.0152627
886.715	0.0150570
886.793	0.0150558
886.871	0.0151421
886.949	0.0150626
887.027	0.0152242
887.105	0.0152139
887.183	0.0151296
887.261	0.0152615
887.340	0.0152519
887.418	0.0153298
887.496	0.0152940
887.574	0.0153424
887.652	0.0154558
887.730	0.0153580
887.808	0.0153606
887.886	0.0152784
887.965	0.0153685
888.043	0.0153945
888.121	0.0152878
888.199	0.0153347
888.277	0.0153621
888.355	0.0153455
888.433	0.0152357
888.511	0.0153016
888.590	0.0152276
888.668	0.0150851
888.746	0.0150478
888.824	0.0151624
888.902	0.0151258
888.980	0.0151572
889.058	0.0150629
889.136	0.0150285
889.215	0.0151266
889.293	0.0150550
889.371	0.0150871
889.449	0.0152597
889.527	0.0152844
889.605	0.0153487
889.683	0.0152618
889.761	0.0153460
889.840	0.0153922
889.918	0.0153117
889.996	0.0154794
890.074	0.0153877
890.152	0.0153459
890.230	0.0153452
890.308	0.0152867
890.386	0.0153966
890.465	0.0153442
890.543	0.0151082
890.621	0.0151922
890.699	0.0152040
890.777	0.0152486
890.855	0.0152102
890.933	0.0151417
891.011	0.0150377
891.090	0.0150919
891.168	0.0151978
891.246	0.0151746
891.324	0.0151657
891.402	0.0152205
891.480	0.0151769
891.558	0.0151923
891.636	0.0151616
891.715	0.0151317
891.793	0.0151826
891.871	0.0152813
891.949	0.0153210
892.027	0.0152301
892.105	0.0152370
892.183	0.0153877
892.261	0.0153764
892.340	0.0154048
892.418	0.0153265
892.496	0.0152628
892.574	0.0152916
892.652	0.0152472
892.730	0.0152983
892.808	0.0154071
892.886	0.0152010
892.965	0.0152815
893.043	0.0152055
893.121	0.0152261
893.199	0.0151682
893.277	0.0151437
893.355	0.0150965
893.433	0.0153039
893.511	0.0151652
893.590	0.0151514
893.668	0.0153734
893.746	0.0151891
893.824	0.0152106
893.902	0.0152633
893.980	0.0153568
894.058	0.0153081
894.136	0.0152148
894.215	0.0154054
894.293	0.0154383
894.371	0.0151748
894.449	0.0153206
894.527	0.0154182
894.605	0.0153039
894.683	0.0153647
894.761	0.0153622
894.840	0.0152116
894.918	0.0153603
894.996	0.0152657
895.074	0.0153026
895.152	0.0152677
895.230	0.0152753
895.308	0.0151006
895.386	0.0153226
895.465	0.0153412
895.543	0.0151907
895.621	0.0152824
895.699	0.0153195
895.777	0.0153386
895.855	0.0152180
895.933	0.0152256
896.011	0.0152516
896.090	0.0152375
896.168	0.0152746
896.246	0.0152423
896.324	0.0152481
896.402	0.0152184
896.480	0.0152536
896.558	0.0151693
896.636	0.0152084
896.715	0.0151889
896.793	0.0151470
896.871	0.0151173
896.949	0.0152161
897.027	0.0152281
897.105	0.0151997
897.183	0.0153023
897.261	0.0152392
897.340	0.0151908
897.418	0.0152411
897.496	0.0152710
897.574	0.0153597
897.652	0.0152882
897.730	0.0151871
897.808	0.0152989
897.886	0.0153596
897.965	0.0152979
898.043	0.0151646
898.121	0.0151809
898.199	0.0151342
898.277	0.0152686
898.355	0.0152808
898.433	0.0153831
898.511	0.0153187
898.590	0.0153716
898.668	0.0151983
898.746	0.0155254
898.824	0.0154013
898.902	0.0153277
898.980	0.0152546
899.058	0.0151852
899.136	0.0152451
899.215	0.0153425
899.293	0.0153592
899.371	0.0152015
899.449	0.0152577
899.527	0.0152304
899.605	0.0151167
899.683	0.0151615
899.761	0.0152213
899.840	0.0153936
899.918	0.0152871
899.996	0.0151290
900.074	0.0153493
900.152	0.0154958
900.230	0.0153031
900.308	0.0152320
900.386	0.0153510
900.465	0.0153530
900.543	0.0152711
900.621	0.0153095
900.699	0.0152654
900.777	0.0152988
900.855	0.0153003
900.933	0.0152587
901.011	0.0152032
901.090	0.0152843
901.168	0.0153217
901.246	0.0153269
901.324	0.0151561
901.402	0.0152776
901.480	0.0151244
901.558	0.0152754
901.636	0.0152377
901.715	0.0151260
901.793	0.0152862
901.871	0.0152785
901.949	0.0152303
902.027	0.0151798
902.105	0.0153577
902.183	0.0153228
902.261	0.0153632
902.340	0.0152917
902.418	0.0154484
902.496	0.0153961
902.574	0.0153596
902.652	0.0153736
902.730	0.0154286
902.808	0.0154260
902.886	0.0154069
902.965	0.0153603
903.043	0.0152962
903.121	0.0151407
903.199	0.0153062
903.277	0.0152180
903.355	0.0152620
903.433	0.0152235
903.511	0.0152354
903.590	0.0152793
903.668	0.0152334
903.746	0.0154222
903.824	0.0153368
903.902	0.0152293
903.980	0.0152844
904.058	0.0153387
904.136	0.0152242
904.215	0.0151858
904.293	0.0153418
904.371	0.0152785
904.449	0.0151608
904.527	0.0151334
904.605	0.0153411
904.683	0.0152941
904.761	0.0152534
904.840	0.0153011
904.918	0.0153821
904.996	0.0153288
905.074	0.0153196
905.152	0.0152010
905.230	0.0152921
905.308	0.0152184
905.386	0.0151678
905.465	0.0151682
905.543	0.0152449
905.621	0.0151925
905.699	0.0151897
905.777	0.0151984
905.855	0.0152177
905.933	0.0150361
906.011	0.0150526
906.090	0.0151293
906.168	0.0149968
906.246	0.0150909
906.324	0.0151695
906.402	0.0150446
906.480	0.0149722
906.558	0.0152320
906.636	0.0151144
906.715	0.0151654
906.793	0.0153133
906.871	0.0152712
906.949	0.0152943
907.027	0.0153060
907.105	0.0153805
907.183	0.0153542
907.261	0.0152670
907.340	0.0153426
907.418	0.0154629
907.496	0.0154204
907.574	0.0153269
907.652	0.0153518
907.730	0.0154615
907.808	0.0153206
907.886	0.0152897
907.965	0.0154854
908.043	0.0155186
908.121	0.0154147
908.199	0.0154284
908.277	0.0154253
908.355	0.0155373
908.433	0.0154024
908.511	0.0153045
908.590	0.0152088
908.668	0.0151437
908.746	0.0151190
908.824	0.0152856
908.902	0.0151686
908.980	0.0152645
909.058	0.0151226
909.136	0.0150543
909.215	0.0152136
909.293	0.0152122
909.371	0.0153157
909.449	0.0152155
909.527	0.0152253
909.605	0.0152155
909.683	0.0152668
909.761	0.0152837
909.840	0.0152760
909.918	0.0152526
909.996	0.0151601
910.074	0.0151923
910.152	0.0150488
910.230	0.0151910
910.308	0.0151266
910.386	0.0150106
910.465	0.0151655
910.543	0.0149359
910.621	0.0150558
910.699	0.0150997
910.777	0.0150671
910.855	0.0151313
910.933	0.0151212
911.011	0.0150499
911.090	0.0149622
911.168	0.0151957
911.246	0.0151943
911.324	0.0152460
911.402	0.0153397
911.480	0.0153575
911.558	0.0152792
911.636	0.0154059
911.715	0.0155359
911.793	0.0157030
911.871	0.0155137
911.949	0.0156693
912.027	0.0156402
912.105	0.0156497
912.183	0.0156711
912.261	0.0156752
912.340	0.0155109
912.418	0.0154470
912.496	0.0154148
912.574	0.0154841
912.652	0.0153443
912.730	0.0153304
912.808	0.0150967
912.886	0.0150300
912.965	0.0149512
913.043	0.0149023
913.121	0.0150030
913.199	0.0149239
913.277	0.0147966
913.355	0.0147424
913.433	0.0149017
913.511	0.0150041
913.590	0.0149354
913.668	0.0149158
913.746	0.0149445
913.824	0.0151595
913.902	0.0151754
913.980	0.0153041
914.058	0.0153278
914.136	0.0153374
914.215	0.0153407
914.293	0.0154287
914.371	0.0155028
914.449	0.0153785
914.527	0.0154522
914.605	0.0153739
914.683	0.0152456
914.761	0.0153465
914.840	0.0153185
914.918	0.0153697
914.996	0.0151953
915.074	0.0153355
915.152	0.0153747
915.230	0.0151186
915.308	0.0150409
915.386	0.0152254
915.465	0.0152506
915.543	0.0150624
915.621	0.0150909
915.699	0.0151405
915.777	0.0151363
915.855	0.0150561
915.933	0.0152508
916.011	0.0151604
916.090	0.0152197
916.168	0.0153851
916.246	0.0153984
916.324	0.0154501
916.402	0.0155103
916.480	0.0155266
916.558	0.0155793
916.636	0.0156114
916.715	0.0154947
916.793	0.0156975
916.871	0.0155923
916.949	0.0154662
917.027	0.0155087
917.105	0.0154164
917.183	0.0153594
917.261	0.0152542
917.340	0.0151778
917.418	0.0152328
917.496	0.0151411
917.574	0.0149416
917.652	0.0150354
917.730	0.0148965
917.808	0.0149450
917.886	0.0149348
917.965	0.0147805
918.043	0.0148374
918.121	0.0149180
918.199	0.0149466
918.277	0.0150783
918.355	0.0150256
918.433	0.0150945
918.511	0.0152792
918.590	0.0151485
918.668	0.0153632
918.746	0.0153584
918.824	0.0153387
918.902	0.0153619
918.980	0.0155875
919.058	0.0154639
919.136	0.0154815
919.215	0.0155105
919.293	0.0154611
919.371	0.0153493
919.449	0.0153214
919.527	0.0154826
919.605	0.0153053
919.683	0.0154340
919.761	0.0153150
919.840	0.0152608
919.918	0.0153078
919.996	0.0154572
920.074	0.0152621
920.152	0.0152377
920.230	0.0153439
920.308	0.0152959
920.386	0.0152642
920.465	0.0153706
920.543	0.0154298
920.621	0.0153539
920.699	0.0154062
920.777	0.0153792
920.855	0.0154588
920.933	0.0154790
921.011	0.0154331
921.090	0.0154845
921.168	0.0155361
921.246	0.0155704
921.324	0.0153716
921.402	0.0153001
921.480	0.0153288
921.558	0.0152958
921.636	0.0151675
921.715	0.0149603
921.793	0.0151295
921.871	0.0149700
921.949	0.0150669
922.027	0.0148816
922.105	0.0149902
922.183	0.0149094
922.261	0.0149508
922.340	0.0149126
922.418	0.0150077
922.496	0.0150280
922.574	0.0149849
922.652	0.0151711
922.730	0.0152214
922.808	0.0152106
922.886	0.0153088
922.965	0.0153302
923.043	0.0153407
923.121	0.0153983
923.199	0.0153539
923.277	0.0155301
923.355	0.0154780
923.433	0.0154733
923.511	0.0153657
923.590	0.0153154
923.668	0.0153471
923.746	0.0155209
923.824	0.0153952
923.902	0.0153275
923.980	0.0154173
924.058	0.0152122
924.136	0.0152631
924.215	0.0153381
924.293	0.0152731
924.371	0.0153064
924.449	0.0153001
924.527	0.0154184
924.605	0.0153889
924.683	0.0154907
924.761	0.0154454
924.840	0.0152745
924.918	0.0153799
924.996	0.0153365
925.074	0.0152950
925.152	0.0152206
925.230	0.0152682
925.308	0.0152042
925.386	0.0152652
925.465	0.0152142
925.543	0.0151937
925.621	0.0150957
925.699	0.0152301
925.777	0.0150859
925.855	0.0152123
925.933	0.0150714
926.011	0.0151420
926.090	0.0151995
926.168	0.0152689
926.246	0.0151611
926.324	0.0152460
926.402	0.0150340
926.480	0.0152203
926.558	0.0152761
926.636	0.0152776
926.715	0.0151562
926.793	0.0152614
926.871	0.0152156
926.949	0.0153450
927.027	0.0152817
927.105	0.0153316
927.183	0.0153226
927.261	0.0153516
927.340	0.0153229
927.418	0.0153191
927.496	0.0153708
927.574	0.0153879
927.652	0.0153716
927.730	0.0153396
927.808	0.0155527
927.886	0.0155064
927.965	0.0154093
928.043	0.0154369
928.121	0.0153955
928.199	0.0153711
928.277	0.0154182
928.355	0.0153554
928.433	0.0153266
928.511	0.0153555
928.590	0.0151866
928.668	0.0153138
928.746	0.0153015
928.824	0.0152087
928.902	0.0151814
928.980	0.0151337
929.058	0.0150403
929.136	0.0151641
929.215	0.0150644
929.293	0.0151383
929.371	0.0150145
929.449	0.0150182
929.527	0.0152548
929.605	0.0152458
929.683	0.0150540
929.761	0.0150780
929.840	0.0150241
929.918	0.0150333
929.996	0.0151184
930.074	0.0152441
930.152	0.0153870
930.230	0.0153275
930.308	0.0153893
930.386	0.0153250
930.465	0.0154277
930.543	0.0154700
930.621	0.0154883
930.699	0.0154594
930.777	0.0154657
930.855	0.0154084
930.933	0.0154672
931.011	0.0153874
931.090	0.0153622
931.168	0.0153844
931.246	0.0154086
931.324	0.0153718
931.402	0.0153931
931.480	0.0154408
931.558	0.0152728
931.636	0.0153194
931.715	0.0153472
931.793	0.0153635
931.871	0.0152779
931.949	0.0152773
932.027	0.0154361
932.105	0.0152788
932.183	0.0155088
932.261	0.0154272
932.340	0.0152734
932.418	0.0154440
932.496	0.0152841
932.574	0.0153552
932.652	0.0152224
932.730	0.0152059
932.808	0.0152452
932.886	0.0151860
932.965	0.0153159
933.043	0.0149878
933.121	0.0149817
933.199	0.0151590
933.277	0.0151437
933.355	0.0149887
933.433	0.0151753
933.511	0.0150045
933.590	0.0151897
933.668	0.0151482
933.746	0.0151640
933.824	0.0151983
933.902	0.0151588
933.980	0.0151076
934.058	0.0152108
934.136	0.0152527
934.215	0.0151931
934.293	0.0152634
934.371	0.0152487
934.449	0.0152708
934.527	0.0154202
934.605	0.0152957
934.683	0.0153649
934.761	0.0153919
934.840	0.0154135
934.918	0.0153624
934.996	0.0152982
935.074	0.0152172
935.152	0.0153529
935.230	0.0153242
935.308	0.0152576
935.386	0.0152830
935.465	0.0153958
935.543	0.0153364
935.621	0.0153988
935.699	0.0153391
935.777	0.0152215
935.855	0.0152761
935.933	0.0153335
936.011	0.0153213
936.090	0.0152859
936.168	0.0152777
936.246	0.0152987
936.324	0.0152814
936.402	0.0153727
936.480	0.0152894
936.558	0.0152920
936.636	0.0153609
936.715	0.0153800
936.793	0.0153415
936.871	0.0154558
936.949	0.0153334
937.027	0.0151869
937.105	0.0153132
937.183	0.0152371
937.261	0.0153172
937.340	0.0151663
937.418	0.0152402
937.496	0.0151989
937.574	0.0150866
937.652	0.0151158
937.730	0.0152048
937.808	0.0151853
937.886	0.0151707
937.965	0.0150912
938.043	0.0151588
938.121	0.0152510
938.199	0.0151952
938.277	0.0152360
938.355	0.0151863
938.433	0.0152475
938.511	0.0152136
938.590	0.0153185
938.668	0.0154002
938.746	0.0152110
938.824	0.0152557
938.902	0.0153141
938.980	0.0151803
939.058	0.0152386
939.136	0.0152477
939.215	0.0152158
939.293	0.0151476
939.371	0.0153052
939.449	0.0153339
939.527	0.0153069
939.605	0.0153741
939.683	0.0152818
939.761	0.0152180
939.840	0.0151961
939.918	0.0152908
939.996	0.0154215
940.074	0.0153313
940.152	0.0153889
940.230	0.0153259
940.308	0.0153493
940.386	0.0153049
940.465	0.0153001
940.543	0.0152724
940.621	0.0153171
940.699	0.0154179
940.777	0.0152283
940.855	0.0153288
940.933	0.0152190
941.011	0.0151878
941.090	0.0152820
941.168	0.0153749
941.246	0.0153446
941.324	0.0152012
941.402	0.0152187
941.480	0.0152036
941.558	0.0152106
941.636	0.0152874
941.715	0.0152565
941.793	0.0151560
941.871	0.0152486
941.949	0.0151955
942.027	0.0152171
942.105	0.0153864
942.183	0.0152086
942.261	0.0151350
942.340	0.0150945
942.418	0.0151616
942.496	0.0152696
942.574	0.0151183
942.652	0.0152605
942.730	0.0153003
942.808	0.0151683
942.886	0.0151923
942.965	0.0152109
943.043	0.0152851
943.121	0.0153886
943.199	0.0152805
943.277	0.0152679
943.355	0.0153983
943.433	0.0153406
943.511	0.0151529
943.590	0.0154070
943.668	0.0153990
943.746	0.0152784
943.824	0.0153851
943.902	0.0150874
943.980	0.0151437
944.058	0.0153660
944.136	0.0154066
944.215	0.0152118
944.293	0.0151423
944.371	0.0152312
944.449	0.0154087
944.527	0.0153053
944.605	0.0153727
944.683	0.0153822
944.761	0.0152586
944.840	0.0153313
944.918	0.0153907
944.996	0.0154114
945.074	0.0154628
945.152	0.0154472
945.230	0.0153603
945.308	0.0153669
945.386	0.0152616
945.465	0.0152593
945.543	0.0153951
945.621	0.0152712
945.699	0.0152449
945.777	0.0152331
945.855	0.0153108
945.933	0.0153750
946.011	0.0151556
946.090	0.0151160
946.168	0.0152171
946.246	0.0152106
946.324	0.0152321
946.402	0.0153633
946.480	0.0152277
946.558	0.0153289
946.636	0.0154000
946.715	0.0153657
946.793	0.0153271
946.871	0.0153008
946.949	0.0153365
947.027	0.0153763
947.105	0.0153072
947.183	0.0154681
947.261	0.0153848
947.340	0.0152084
947.418	0.0152505
947.496	0.0151489
947.574	0.0151620
947.652	0.0153742
947.730	0.0151890
947.808	0.0152115
947.886	0.0152122
947.965	0.0152845
948.043	0.0151565
948.121	0.0153548
948.199	0.0152715
948.277	0.0151488
948.355	0.0151936
948.433	0.0152790
948.511	0.0152416
948.590	0.0151749
948.668	0.0153732
948.746	0.0153445
948.824	0.0152110
948.902	0.0153234
948.980	0.0152271
949.058	0.0152429
949.136	0.0151125
949.215	0.0152235
949.293	0.0153355
949.371	0.0152322
949.449	0.0152920
949.527	0.0153428
949.605	0.0151843
949.683	0.0151267
949.761	0.0151421
949.840	0.0151293
949.918	0.0152670
