06/29/2022	21:15:18	Ver.	4.1	UNKNOWN
Optical Delay	629.995835	Delta X		0.078125	Sweeps	1	Scan Rate	0/0
Coordinates	Axis 1	NaN	Axis 2	NaN	Axis 3	NaN	Axis 4	NaN	Axis 5	NaN	Axis 6	0.000000
TX Power	0.000000	RX Power	0.000000

629.996	0.0154369
630.074	0.0153926
630.152	0.0154265
630.230	0.0154295
630.308	0.0152276
630.386	0.0153439
630.465	0.0153931
630.543	0.0154346
630.621	0.0154333
630.699	0.0155261
630.777	0.0154490
630.855	0.0154163
630.933	0.0154821
631.011	0.0154156
631.090	0.0153151
631.168	0.0154656
631.246	0.0155274
631.324	0.0154450
631.402	0.0154574
631.480	0.0153497
631.558	0.0154139
631.636	0.0153902
631.715	0.0153616
631.793	0.0152973
631.871	0.0153741
631.949	0.0157082
632.027	0.0153642
632.105	0.0153562
632.183	0.0154212
632.261	0.0154239
632.340	0.0154089
632.418	0.0154506
632.496	0.0153520
632.574	0.0153464
632.652	0.0154098
632.730	0.0154601
632.808	0.0155469
632.886	0.0155290
632.965	0.0154070
633.043	0.0154311
633.121	0.0155032
633.199	0.0153505
633.277	0.0153150
633.355	0.0155077
633.433	0.0155371
633.511	0.0154507
633.590	0.0154552
633.668	0.0155445
633.746	0.0154388
633.824	0.0154420
633.902	0.0154274
633.980	0.0152264
634.058	0.0152851
634.136	0.0155432
634.215	0.0155411
634.293	0.0155241
634.371	0.0153085
634.449	0.0154051
634.527	0.0155386
634.605	0.0154072
634.683	0.0153526
634.761	0.0152235
634.840	0.0155688
634.918	0.0156125
634.996	0.0154771
635.074	0.0154761
635.152	0.0155190
635.230	0.0153582
635.308	0.0154377
635.386	0.0154156
635.465	0.0154142
635.543	0.0154673
635.621	0.0155362
635.699	0.0153741
635.777	0.0154309
635.855	0.0155351
635.933	0.0154393
636.011	0.0154239
636.090	0.0154230
636.168	0.0155202
636.246	0.0153346
636.324	0.0153687
636.402	0.0154966
636.480	0.0153788
636.558	0.0154722
636.636	0.0155470
636.715	0.0154362
636.793	0.0154651
636.871	0.0154616
636.949	0.0154885
637.027	0.0154210
637.105	0.0153922
637.183	0.0153794
637.261	0.0155029
637.340	0.0153457
637.418	0.0154825
637.496	0.0154787
637.574	0.0154462
637.652	0.0154641
637.730	0.0154662
637.808	0.0155607
637.886	0.0155039
637.965	0.0154234
638.043	0.0153851
638.121	0.0154584
638.199	0.0154985
638.277	0.0154621
638.355	0.0153973
638.433	0.0154060
638.511	0.0153820
638.590	0.0153686
638.668	0.0154507
638.746	0.0153287
638.824	0.0154703
638.902	0.0154227
638.980	0.0154805
639.058	0.0154961
639.136	0.0154198
639.215	0.0154315
639.293	0.0154362
639.371	0.0153338
639.449	0.0153614
639.527	0.0154462
639.605	0.0153400
639.683	0.0154054
639.761	0.0153374
639.840	0.0155750
639.918	0.0154755
639.996	0.0154623
640.074	0.0154925
640.152	0.0153745
640.230	0.0154855
640.308	0.0154064
640.386	0.0152549
640.465	0.0155415
640.543	0.0154890
640.621	0.0154459
640.699	0.0155413
640.777	0.0155562
640.855	0.0153464
640.933	0.0153252
641.011	0.0154388
641.090	0.0152808
641.168	0.0154357
641.246	0.0153513
641.324	0.0154012
641.402	0.0154776
641.480	0.0154835
641.558	0.0154584
641.636	0.0155085
641.715	0.0154421
641.793	0.0154390
641.871	0.0154568
641.949	0.0153259
642.027	0.0154995
642.105	0.0155028
642.183	0.0153379
642.261	0.0153868
642.340	0.0154112
642.418	0.0154996
642.496	0.0153771
642.574	0.0154334
642.652	0.0154328
642.730	0.0155290
642.808	0.0154023
642.886	0.0154559
642.965	0.0154958
643.043	0.0154173
643.121	0.0154642
643.199	0.0154780
643.277	0.0153811
643.355	0.0153584
643.433	0.0153043
643.511	0.0155153
643.590	0.0153917
643.668	0.0154243
643.746	0.0153412
643.824	0.0154206
643.902	0.0154070
643.980	0.0154104
644.058	0.0154315
644.136	0.0153377
644.215	0.0154454
644.293	0.0154910
644.371	0.0153240
644.449	0.0156407
644.527	0.0155119
644.605	0.0154228
644.683	0.0154314
644.761	0.0154081
644.840	0.0155214
644.918	0.0155141
644.996	0.0154732
645.074	0.0154060
645.152	0.0153210
645.230	0.0154849
645.308	0.0155346
645.386	0.0153757
645.465	0.0154989
645.543	0.0154112
645.621	0.0153642
645.699	0.0154850
645.777	0.0153223
645.855	0.0153977
645.933	0.0153197
646.011	0.0154052
646.090	0.0153046
646.168	0.0154844
646.246	0.0154517
646.324	0.0154767
646.402	0.0154140
646.480	0.0154884
646.558	0.0155109
646.636	0.0153036
646.715	0.0154820
646.793	0.0154755
646.871	0.0154269
646.949	0.0154433
647.027	0.0154342
647.105	0.0153831
647.183	0.0153510
647.261	0.0153922
647.340	0.0153785
647.418	0.0154253
647.496	0.0153857
647.574	0.0154996
647.652	0.0154433
647.730	0.0153912
647.808	0.0153349
647.886	0.0153206
647.965	0.0154074
648.043	0.0154366
648.121	0.0154174
648.199	0.0153008
648.277	0.0154361
648.355	0.0154569
648.433	0.0153952
648.511	0.0155164
648.590	0.0153586
648.668	0.0154095
648.746	0.0154765
648.824	0.0154772
648.902	0.0154166
648.980	0.0154715
649.058	0.0155499
649.136	0.0154808
649.215	0.0154729
649.293	0.0154079
649.371	0.0155119
649.449	0.0154231
649.527	0.0155778
649.605	0.0153712
649.683	0.0153236
649.761	0.0154706
649.840	0.0154151
649.918	0.0153004
649.996	0.0154070
650.074	0.0153323
650.152	0.0155611
650.230	0.0154572
650.308	0.0154213
650.386	0.0154276
650.465	0.0154516
650.543	0.0153854
650.621	0.0154620
650.699	0.0154105
650.777	0.0154063
650.855	0.0154852
650.933	0.0154315
651.011	0.0154302
651.090	0.0153730
651.168	0.0154589
651.246	0.0154093
651.324	0.0154827
651.402	0.0154234
651.480	0.0155312
651.558	0.0154141
651.636	0.0153236
651.715	0.0154684
651.793	0.0154017
651.871	0.0154607
651.949	0.0155459
652.027	0.0153803
652.105	0.0154321
652.183	0.0153848
652.261	0.0154403
652.340	0.0154791
652.418	0.0154839
652.496	0.0155054
652.574	0.0153671
652.652	0.0154757
652.730	0.0154964
652.808	0.0155326
652.886	0.0153634
652.965	0.0153247
653.043	0.0154274
653.121	0.0154111
653.199	0.0153547
653.277	0.0154723
653.355	0.0154542
653.433	0.0154928
653.511	0.0154731
653.590	0.0152740
653.668	0.0154309
653.746	0.0155191
653.824	0.0154099
653.902	0.0154333
653.980	0.0153974
654.058	0.0154226
654.136	0.0155216
654.215	0.0155287
654.293	0.0155077
654.371	0.0155222
654.449	0.0154276
654.527	0.0155157
654.605	0.0153574
654.683	0.0155109
654.761	0.0155542
654.840	0.0154130
654.918	0.0154952
654.996	0.0156074
655.074	0.0155247
655.152	0.0155505
655.230	0.0155362
655.308	0.0154557
655.386	0.0155100
655.465	0.0154192
655.543	0.0153587
655.621	0.0153191
655.699	0.0155220
655.777	0.0154282
655.855	0.0154421
655.933	0.0154122
656.011	0.0153088
656.090	0.0154832
656.168	0.0155631
656.246	0.0154868
656.324	0.0154563
656.402	0.0155505
656.480	0.0154695
656.558	0.0155341
656.636	0.0154381
656.715	0.0155509
656.793	0.0153964
656.871	0.0153767
656.949	0.0153391
657.027	0.0153879
657.105	0.0153892
657.183	0.0155032
657.261	0.0154590
657.340	0.0153539
657.418	0.0155080
657.496	0.0154250
657.574	0.0154900
657.652	0.0153564
657.730	0.0154799
657.808	0.0154276
657.886	0.0154153
657.965	0.0154050
658.043	0.0155070
658.121	0.0155206
658.199	0.0155259
658.277	0.0152708
658.355	0.0155322
658.433	0.0154166
658.511	0.0154726
658.590	0.0155828
658.668	0.0154569
658.746	0.0154670
658.824	0.0155290
658.902	0.0154949
658.980	0.0154382
659.058	0.0153975
659.136	0.0154108
659.215	0.0154585
659.293	0.0154219
659.371	0.0154034
659.449	0.0154976
659.527	0.0155319
659.605	0.0155067
659.683	0.0155238
659.761	0.0154675
659.840	0.0155935
659.918	0.0155548
659.996	0.0154525
660.074	0.0154583
660.152	0.0153662
660.230	0.0154973
660.308	0.0155302
660.386	0.0156368
660.465	0.0155401
660.543	0.0154014
660.621	0.0153960
660.699	0.0154707
660.777	0.0154984
660.855	0.0155257
660.933	0.0154121
661.011	0.0154825
661.090	0.0153999
661.168	0.0153857
661.246	0.0154247
661.324	0.0156658
661.402	0.0155958
661.480	0.0153265
661.558	0.0154319
661.636	0.0154246
661.715	0.0154567
661.793	0.0153447
661.871	0.0154876
661.949	0.0154730
662.027	0.0155039
662.105	0.0154489
662.183	0.0155073
662.261	0.0153477
662.340	0.0154637
662.418	0.0154896
662.496	0.0155695
662.574	0.0153933
662.652	0.0154826
662.730	0.0154267
662.808	0.0155391
662.886	0.0155296
662.965	0.0154888
663.043	0.0154575
663.121	0.0153103
663.199	0.0153324
663.277	0.0153664
663.355	0.0154772
663.433	0.0155672
663.511	0.0155315
663.590	0.0153810
663.668	0.0153418
663.746	0.0154665
663.824	0.0156068
663.902	0.0154769
663.980	0.0153838
664.058	0.0155424
664.136	0.0154298
664.215	0.0154083
664.293	0.0153853
664.371	0.0155035
664.449	0.0154776
664.527	0.0155154
664.605	0.0154539
664.683	0.0153285
664.761	0.0153860
664.840	0.0154005
664.918	0.0154549
664.996	0.0154118
665.074	0.0155856
665.152	0.0154755
665.230	0.0153501
665.308	0.0155190
665.386	0.0154953
665.465	0.0155159
665.543	0.0154196
665.621	0.0154114
665.699	0.0154539
665.777	0.0154279
665.855	0.0154871
665.933	0.0154246
666.011	0.0152924
666.090	0.0155195
666.168	0.0154960
666.246	0.0154262
666.324	0.0154343
666.402	0.0155109
666.480	0.0154006
666.558	0.0153846
666.636	0.0154434
666.715	0.0154321
666.793	0.0155135
666.871	0.0154585
666.949	0.0153873
667.027	0.0155003
667.105	0.0154321
667.183	0.0153973
667.261	0.0153827
667.340	0.0153923
667.418	0.0154383
667.496	0.0154016
667.574	0.0153818
667.652	0.0155035
667.730	0.0155334
667.808	0.0154626
667.886	0.0153943
667.965	0.0154544
668.043	0.0154234
668.121	0.0154898
668.199	0.0154339
668.277	0.0153343
668.355	0.0154482
668.433	0.0154327
668.511	0.0154048
668.590	0.0153735
668.668	0.0154945
668.746	0.0153675
668.824	0.0154156
668.902	0.0156044
668.980	0.0153519
669.058	0.0154643
669.136	0.0155008
669.215	0.0154897
669.293	0.0153771
669.371	0.0154204
669.449	0.0153859
669.527	0.0154450
669.605	0.0154198
669.683	0.0154655
669.761	0.0152608
669.840	0.0154861
669.918	0.0154882
669.996	0.0154588
670.074	0.0154272
670.152	0.0154012
670.230	0.0153583
670.308	0.0154902
670.386	0.0154143
670.465	0.0153648
670.543	0.0154574
670.621	0.0154046
670.699	0.0154294
670.777	0.0155588
670.855	0.0154354
670.933	0.0154276
671.011	0.0154355
671.090	0.0153776
671.168	0.0154265
671.246	0.0153893
671.324	0.0153986
671.402	0.0155277
671.480	0.0153810
671.558	0.0155296
671.636	0.0154297
671.715	0.0154163
671.793	0.0155938
671.871	0.0154954
671.949	0.0153246
672.027	0.0154797
672.105	0.0155141
672.183	0.0154452
672.261	0.0154870
672.340	0.0154408
672.418	0.0153197
672.496	0.0154625
672.574	0.0154789
672.652	0.0153535
672.730	0.0153054
672.808	0.0155524
672.886	0.0154919
672.965	0.0153643
673.043	0.0155819
673.121	0.0154273
673.199	0.0154428
673.277	0.0154914
673.355	0.0154161
673.433	0.0153172
673.511	0.0154964
673.590	0.0155550
673.668	0.0154371
673.746	0.0154817
673.824	0.0155116
673.902	0.0154891
673.980	0.0154613
674.058	0.0154715
674.136	0.0155119
674.215	0.0154695
674.293	0.0155080
674.371	0.0154549
674.449	0.0155855
674.527	0.0153450
674.605	0.0154470
674.683	0.0155592
674.761	0.0154356
674.840	0.0153749
674.918	0.0154390
674.996	0.0155016
675.074	0.0154108
675.152	0.0154179
675.230	0.0153797
675.308	0.0154568
675.386	0.0155624
675.465	0.0153914
675.543	0.0154482
675.621	0.0153796
675.699	0.0155194
675.777	0.0155270
675.855	0.0155229
675.933	0.0155726
676.011	0.0154681
676.090	0.0154761
676.168	0.0154103
676.246	0.0154881
676.324	0.0153499
676.402	0.0154816
676.480	0.0154472
676.558	0.0154675
676.636	0.0154217
676.715	0.0156091
676.793	0.0154128
676.871	0.0155328
676.949	0.0154655
677.027	0.0154582
677.105	0.0155938
677.183	0.0154305
677.261	0.0154083
677.340	0.0154400
677.418	0.0155510
677.496	0.0154604
677.574	0.0155460
677.652	0.0154755
677.730	0.0154010
677.808	0.0154271
677.886	0.0155228
677.965	0.0154559
678.043	0.0153580
678.121	0.0155637
678.199	0.0153788
678.277	0.0155225
678.355	0.0153774
678.433	0.0154963
678.511	0.0154590
678.590	0.0154281
678.668	0.0155112
678.746	0.0153383
678.824	0.0152972
678.902	0.0154548
678.980	0.0156252
679.058	0.0154912
679.136	0.0153708
679.215	0.0155255
679.293	0.0154063
679.371	0.0153711
679.449	0.0152953
679.527	0.0154301
679.605	0.0154394
679.683	0.0153823
679.761	0.0153826
679.840	0.0154114
679.918	0.0154653
679.996	0.0154977
680.074	0.0155094
680.152	0.0152425
680.230	0.0153973
680.308	0.0153819
680.386	0.0155331
680.465	0.0154576
680.543	0.0154913
680.621	0.0153300
680.699	0.0153544
680.777	0.0154663
680.855	0.0155350
680.933	0.0154957
681.011	0.0153457
681.090	0.0153359
681.168	0.0155085
681.246	0.0155146
681.324	0.0153808
681.402	0.0153435
681.480	0.0154308
681.558	0.0154396
681.636	0.0155159
681.715	0.0154140
681.793	0.0154890
681.871	0.0153825
681.949	0.0154371
682.027	0.0155938
682.105	0.0154405
682.183	0.0154436
682.261	0.0154129
682.340	0.0154766
682.418	0.0154913
682.496	0.0153841
682.574	0.0154720
682.652	0.0152747
682.730	0.0153019
682.808	0.0155005
682.886	0.0155212
682.965	0.0154158
683.043	0.0154699
683.121	0.0156419
683.199	0.0155475
683.277	0.0153040
683.355	0.0155753
683.433	0.0155352
683.511	0.0154229
683.590	0.0152773
683.668	0.0153877
683.746	0.0154214
683.824	0.0155283
683.902	0.0151904
683.980	0.0154520
684.058	0.0154871
684.136	0.0153559
684.215	0.0155411
684.293	0.0155041
684.371	0.0155368
684.449	0.0155216
684.527	0.0155231
684.605	0.0154207
684.683	0.0154544
684.761	0.0153733
684.840	0.0153270
684.918	0.0154573
684.996	0.0155108
685.074	0.0154209
685.152	0.0155346
685.230	0.0155395
685.308	0.0154153
685.386	0.0153729
685.465	0.0154703
685.543	0.0153899
685.621	0.0154510
685.699	0.0153829
685.777	0.0155480
685.855	0.0153623
685.933	0.0154919
686.011	0.0155391
686.090	0.0154372
686.168	0.0154063
686.246	0.0153772
686.324	0.0154523
686.402	0.0154740
686.480	0.0154491
686.558	0.0154297
686.636	0.0153316
686.715	0.0154874
686.793	0.0154465
686.871	0.0152512
686.949	0.0153506
687.027	0.0154807
687.105	0.0154531
687.183	0.0155667
687.261	0.0154571
687.340	0.0154446
687.418	0.0154735
687.496	0.0154272
687.574	0.0153554
687.652	0.0154676
687.730	0.0154431
687.808	0.0154137
687.886	0.0154803
687.965	0.0153672
688.043	0.0153387
688.121	0.0154104
688.199	0.0155193
688.277	0.0155057
688.355	0.0154839
688.433	0.0155008
688.511	0.0153290
688.590	0.0154404
688.668	0.0155022
688.746	0.0153772
688.824	0.0154288
688.902	0.0154301
688.980	0.0155293
689.058	0.0154214
689.136	0.0154412
689.215	0.0155402
689.293	0.0153954
689.371	0.0155019
689.449	0.0153355
689.527	0.0154333
689.605	0.0155310
689.683	0.0155286
689.761	0.0153609
689.840	0.0153419
689.918	0.0153112
689.996	0.0154193
690.074	0.0154939
690.152	0.0153735
690.230	0.0154718
690.308	0.0154415
690.386	0.0155409
690.465	0.0154264
690.543	0.0154451
690.621	0.0155319
690.699	0.0154648
690.777	0.0154053
690.855	0.0156003
690.933	0.0154822
691.011	0.0154600
691.090	0.0155428
691.168	0.0153759
691.246	0.0154218
691.324	0.0154682
691.402	0.0155646
691.480	0.0154102
691.558	0.0154370
691.636	0.0153694
691.715	0.0153946
691.793	0.0153791
691.871	0.0154400
691.949	0.0154025
692.027	0.0154720
692.105	0.0154794
692.183	0.0154865
692.261	0.0153996
692.340	0.0154163
692.418	0.0154472
692.496	0.0155032
692.574	0.0155499
692.652	0.0154228
692.730	0.0152715
692.808	0.0155100
692.886	0.0155435
692.965	0.0153228
693.043	0.0154747
693.121	0.0155109
693.199	0.0153785
693.277	0.0155441
693.355	0.0151953
693.433	0.0155370
693.511	0.0155112
693.590	0.0154721
693.668	0.0154415
693.746	0.0154825
693.824	0.0154544
693.902	0.0154847
693.980	0.0155475
694.058	0.0154712
694.136	0.0153731
694.215	0.0153530
694.293	0.0154463
694.371	0.0153943
694.449	0.0155215
694.527	0.0154033
694.605	0.0154646
694.683	0.0154277
694.761	0.0153601
694.840	0.0154520
694.918	0.0154940
694.996	0.0154253
695.074	0.0153937
695.152	0.0154663
695.230	0.0154251
695.308	0.0155072
695.386	0.0154861
695.465	0.0154866
695.543	0.0154855
695.621	0.0153571
695.699	0.0153017
695.777	0.0154583
695.855	0.0154598
695.933	0.0154478
696.011	0.0153345
696.090	0.0154591
696.168	0.0153471
696.246	0.0153081
696.324	0.0152995
696.402	0.0153693
696.480	0.0152670
696.558	0.0153016
696.636	0.0154454
696.715	0.0154012
696.793	0.0153616
696.871	0.0154530
696.949	0.0154270
697.027	0.0153926
697.105	0.0154833
697.183	0.0153113
697.261	0.0154326
697.340	0.0153809
697.418	0.0154691
697.496	0.0153262
697.574	0.0153926
697.652	0.0153948
697.730	0.0154726
697.808	0.0154806
697.886	0.0154001
697.965	0.0154028
698.043	0.0154822
698.121	0.0155296
698.199	0.0154754
698.277	0.0154331
698.355	0.0155982
698.433	0.0154491
698.511	0.0153883
698.590	0.0153997
698.668	0.0156231
698.746	0.0153899
698.824	0.0155259
698.902	0.0155112
698.980	0.0154708
699.058	0.0153935
699.136	0.0155200
699.215	0.0154420
699.293	0.0156623
699.371	0.0155248
699.449	0.0155807
699.527	0.0154817
699.605	0.0156020
699.683	0.0157539
699.761	0.0156770
699.840	0.0156125
699.918	0.0154830
699.996	0.0154420
700.074	0.0153252
700.152	0.0153246
700.230	0.0154108
700.308	0.0154386
700.386	0.0152979
700.465	0.0152139
700.543	0.0154524
700.621	0.0154069
700.699	0.0153130
700.777	0.0153296
700.855	0.0153355
700.933	0.0155548
701.011	0.0154391
701.090	0.0154201
701.168	0.0155743
701.246	0.0154926
701.324	0.0153776
701.402	0.0153576
701.480	0.0154867
701.558	0.0154388
701.636	0.0153642
701.715	0.0153405
701.793	0.0152637
701.871	0.0153438
701.949	0.0153091
702.027	0.0153352
702.105	0.0153814
702.183	0.0153794
702.261	0.0154157
702.340	0.0153983
702.418	0.0153925
702.496	0.0154751
702.574	0.0154058
702.652	0.0154350
702.730	0.0152275
702.808	0.0154266
702.886	0.0154688
702.965	0.0153992
703.043	0.0153607
703.121	0.0153207
703.199	0.0153839
703.277	0.0154268
703.355	0.0155872
703.433	0.0154626
703.511	0.0155432
703.590	0.0156833
703.668	0.0155867
703.746	0.0156331
703.824	0.0156334
703.902	0.0155659
703.980	0.0153815
704.058	0.0153455
704.136	0.0152889
704.215	0.0152564
704.293	0.0153795
704.371	0.0153913
704.449	0.0154961
704.527	0.0155377
704.605	0.0154132
704.683	0.0155313
704.761	0.0154693
704.840	0.0154137
704.918	0.0155381
704.996	0.0155079
705.074	0.0155273
705.152	0.0155379
705.230	0.0155315
705.308	0.0156077
705.386	0.0155824
705.465	0.0155041
705.543	0.0155849
705.621	0.0154914
705.699	0.0155007
705.777	0.0154006
705.855	0.0153654
705.933	0.0153152
706.011	0.0153661
706.090	0.0155484
706.168	0.0153829
706.246	0.0154077
706.324	0.0155943
706.402	0.0155811
706.480	0.0155626
706.558	0.0156309
706.636	0.0156299
706.715	0.0156027
706.793	0.0154608
706.871	0.0154980
706.949	0.0153365
707.027	0.0154079
707.105	0.0155000
707.183	0.0153216
707.261	0.0153645
707.340	0.0152827
707.418	0.0153446
707.496	0.0154497
707.574	0.0156711
707.652	0.0154628
707.730	0.0155200
707.808	0.0155476
707.886	0.0153964
707.965	0.0154156
708.043	0.0154306
708.121	0.0153405
708.199	0.0153492
708.277	0.0153505
708.355	0.0152302
708.433	0.0152523
708.511	0.0153323
708.590	0.0153846
708.668	0.0153909
708.746	0.0153181
708.824	0.0154436
708.902	0.0153023
708.980	0.0154305
709.058	0.0154301
709.136	0.0155512
709.215	0.0156404
709.293	0.0157110
709.371	0.0156072
709.449	0.0157965
709.527	0.0158076
709.605	0.0156878
709.683	0.0157603
709.761	0.0157510
709.840	0.0155715
709.918	0.0155920
709.996	0.0156798
710.074	0.0156434
710.152	0.0155172
710.230	0.0155743
710.308	0.0155952
710.386	0.0156325
710.465	0.0158034
710.543	0.0158096
710.621	0.0154885
710.699	0.0154116
710.777	0.0154778
710.855	0.0154565
710.933	0.0152164
711.011	0.0151317
711.090	0.0150934
711.168	0.0149953
711.246	0.0150615
711.324	0.0149268
711.402	0.0148348
711.480	0.0148657
711.558	0.0150191
711.636	0.0151366
711.715	0.0151694
711.793	0.0151486
711.871	0.0154157
711.949	0.0153452
712.027	0.0154412
712.105	0.0155935
712.183	0.0154803
712.261	0.0154138
712.340	0.0154097
712.418	0.0152711
712.496	0.0150673
712.574	0.0151463
712.652	0.0151969
712.730	0.0150686
712.808	0.0151501
712.886	0.0151074
712.965	0.0152776
713.043	0.0153343
713.121	0.0153999
713.199	0.0154499
713.277	0.0157701
713.355	0.0157924
713.433	0.0159255
713.511	0.0158536
713.590	0.0159617
713.668	0.0160268
713.746	0.0159750
713.824	0.0160586
713.902	0.0158865
713.980	0.0158427
714.058	0.0158797
714.136	0.0157915
714.215	0.0156300
714.293	0.0155031
714.371	0.0155762
714.449	0.0156247
714.527	0.0153725
714.605	0.0153322
714.683	0.0153919
714.761	0.0154301
714.840	0.0157283
714.918	0.0156823
714.996	0.0156097
715.074	0.0156878
715.152	0.0158122
715.230	0.0158282
715.308	0.0157636
715.386	0.0157242
715.465	0.0156181
715.543	0.0156342
715.621	0.0156513
715.699	0.0154018
715.777	0.0154324
715.855	0.0153449
715.933	0.0151457
716.011	0.0149924
716.090	0.0150131
716.168	0.0148243
716.246	0.0146120
716.324	0.0143197
716.402	0.0143324
716.480	0.0141691
716.558	0.0140109
716.636	0.0137914
716.715	0.0137732
716.793	0.0139469
716.871	0.0141199
716.949	0.0139153
717.027	0.0141412
717.105	0.0142029
717.183	0.0145477
717.261	0.0148579
717.340	0.0149882
717.418	0.0152761
717.496	0.0154411
717.574	0.0155257
717.652	0.0159754
717.730	0.0162548
717.808	0.0164819
717.886	0.0167274
717.965	0.0168752
718.043	0.0171254
718.121	0.0173180
718.199	0.0175270
718.277	0.0175653
718.355	0.0175387
718.433	0.0175332
718.511	0.0172858
718.590	0.0172828
718.668	0.0169492
718.746	0.0167036
718.824	0.0164409
718.902	0.0159901
718.980	0.0157063
719.058	0.0156039
719.136	0.0152961
719.215	0.0150336
719.293	0.0149924
719.371	0.0148475
719.449	0.0150393
719.527	0.0150928
719.605	0.0151649
719.683	0.0153952
719.761	0.0158202
719.840	0.0157391
719.918	0.0159853
719.996	0.0159606
720.074	0.0161377
720.152	0.0161857
720.230	0.0161587
720.308	0.0160065
720.386	0.0158521
720.465	0.0156538
720.543	0.0155060
720.621	0.0152391
720.699	0.0151478
720.777	0.0148592
720.855	0.0146059
720.933	0.0143079
721.011	0.0142760
721.090	0.0141850
721.168	0.0139590
721.246	0.0137684
721.324	0.0136419
721.402	0.0136623
721.480	0.0136493
721.558	0.0134804
721.636	0.0133922
721.715	0.0134683
721.793	0.0134758
721.871	0.0134037
721.949	0.0133753
722.027	0.0137752
722.105	0.0137526
722.183	0.0138708
722.261	0.0139021
722.340	0.0141364
722.418	0.0143186
722.496	0.0146216
722.574	0.0148737
722.652	0.0151922
722.730	0.0155392
722.808	0.0157912
722.886	0.0160509
722.965	0.0164062
723.043	0.0168395
723.121	0.0171091
723.199	0.0174605
723.277	0.0176401
723.355	0.0179067
723.433	0.0179890
723.511	0.0180891
723.590	0.0181171
723.668	0.0181144
723.746	0.0179752
723.824	0.0180424
723.902	0.0178210
723.980	0.0176353
724.058	0.0174995
724.136	0.0171806
724.215	0.0168444
724.293	0.0165643
724.371	0.0162540
724.449	0.0158694
724.527	0.0157503
724.605	0.0154865
724.683	0.0155280
724.761	0.0151698
724.840	0.0152301
724.918	0.0152613
724.996	0.0153551
725.074	0.0154355
725.152	0.0157566
725.230	0.0157513
725.308	0.0160722
725.386	0.0161281
725.465	0.0163756
725.543	0.0164618
725.621	0.0163776
725.699	0.0164482
725.777	0.0162355
725.855	0.0160076
725.933	0.0158205
726.011	0.0153058
726.090	0.0148923
726.168	0.0143781
726.246	0.0139429
726.324	0.0134822
726.402	0.0129525
726.480	0.0124701
726.558	0.0122614
726.636	0.0118945
726.715	0.0116344
726.793	0.0115219
726.871	0.0113170
726.949	0.0114021
727.027	0.0115457
727.105	0.0116736
727.183	0.0118126
727.261	0.0119753
727.340	0.0124268
727.418	0.0125483
727.496	0.0131258
727.574	0.0135134
727.652	0.0137240
727.730	0.0144835
727.808	0.0148566
727.886	0.0152417
727.965	0.0157888
728.043	0.0161776
728.121	0.0168244
728.199	0.0168842
728.277	0.0172484
728.355	0.0176408
728.433	0.0179337
728.511	0.0181697
728.590	0.0184501
728.668	0.0185970
728.746	0.0188388
728.824	0.0190497
728.902	0.0191645
728.980	0.0191383
729.058	0.0191615
729.136	0.0191511
729.215	0.0189407
729.293	0.0188448
729.371	0.0185667
729.449	0.0181801
729.527	0.0178414
729.605	0.0174349
729.683	0.0169920
729.761	0.0167475
729.840	0.0163913
729.918	0.0159816
729.996	0.0155107
730.074	0.0154668
730.152	0.0151517
730.230	0.0150100
730.308	0.0147551
730.386	0.0146320
730.465	0.0147413
730.543	0.0147849
730.621	0.0147070
730.699	0.0148147
730.777	0.0149557
730.855	0.0149147
730.933	0.0149066
731.011	0.0151382
731.090	0.0154362
731.168	0.0153426
731.246	0.0153365
731.324	0.0154673
731.402	0.0154592
731.480	0.0152680
731.558	0.0153589
731.636	0.0151560
731.715	0.0148629
731.793	0.0146271
731.871	0.0145621
731.949	0.0142584
732.027	0.0139405
732.105	0.0137028
732.183	0.0132488
732.261	0.0129119
732.340	0.0125979
732.418	0.0124956
732.496	0.0121912
732.574	0.0119126
732.652	0.0117695
732.730	0.0117256
732.808	0.0117504
732.886	0.0116169
732.965	0.0118525
733.043	0.0121246
733.121	0.0123106
733.199	0.0128072
733.277	0.0133189
733.355	0.0136726
733.433	0.0142926
733.511	0.0149782
733.590	0.0155688
733.668	0.0161280
733.746	0.0167793
733.824	0.0172311
733.902	0.0178777
733.980	0.0185933
734.058	0.0189525
734.136	0.0192119
734.215	0.0196277
734.293	0.0198763
734.371	0.0199220
734.449	0.0199639
734.527	0.0199153
734.605	0.0196837
734.683	0.0195131
734.761	0.0191548
734.840	0.0188055
734.918	0.0184402
734.996	0.0180326
735.074	0.0175574
735.152	0.0170686
735.230	0.0166456
735.308	0.0161714
735.386	0.0157536
735.465	0.0153141
735.543	0.0151016
735.621	0.0147213
735.699	0.0145743
735.777	0.0146888
735.855	0.0144780
735.933	0.0144150
736.011	0.0144911
736.090	0.0146064
736.168	0.0146430
736.246	0.0148370
736.324	0.0148982
736.402	0.0150748
736.480	0.0151171
736.558	0.0151925
736.636	0.0151871
736.715	0.0147613
736.793	0.0147372
736.871	0.0146566
736.949	0.0143764
737.027	0.0141599
737.105	0.0140900
737.183	0.0139691
737.261	0.0138221
737.340	0.0135205
737.418	0.0134802
737.496	0.0136856
737.574	0.0136626
737.652	0.0138707
737.730	0.0138564
737.808	0.0141456
737.886	0.0142349
737.965	0.0144238
738.043	0.0145722
738.121	0.0147450
738.199	0.0148592
738.277	0.0151247
738.355	0.0151422
738.433	0.0152757
738.511	0.0153155
738.590	0.0153101
738.668	0.0151776
738.746	0.0151434
738.824	0.0150494
738.902	0.0151920
738.980	0.0150597
739.058	0.0150745
739.136	0.0153070
739.215	0.0155755
739.293	0.0156078
739.371	0.0157493
739.449	0.0161402
739.527	0.0163532
739.605	0.0164481
739.683	0.0167475
739.761	0.0169747
739.840	0.0171822
739.918	0.0173061
739.996	0.0172469
740.074	0.0173564
740.152	0.0172879
740.230	0.0171999
740.308	0.0170773
740.386	0.0166885
740.465	0.0167210
740.543	0.0164211
740.621	0.0161600
740.699	0.0160757
740.777	0.0156404
740.855	0.0155952
740.933	0.0152152
741.011	0.0150406
741.090	0.0149825
741.168	0.0149651
741.246	0.0149022
741.324	0.0150002
741.402	0.0150455
741.480	0.0150238
741.558	0.0151912
741.636	0.0153678
741.715	0.0153638
741.793	0.0154924
741.871	0.0155899
741.949	0.0156799
742.027	0.0156001
742.105	0.0156305
742.183	0.0154882
742.261	0.0155312
742.340	0.0152412
742.418	0.0151571
742.496	0.0149924
742.574	0.0150105
742.652	0.0148890
742.730	0.0147227
742.808	0.0146249
742.886	0.0147364
742.965	0.0149185
743.043	0.0149790
743.121	0.0150472
743.199	0.0151602
743.277	0.0153010
743.355	0.0155582
743.433	0.0158366
743.511	0.0159388
743.590	0.0161521
743.668	0.0161298
743.746	0.0163673
743.824	0.0164027
743.902	0.0162938
743.980	0.0163462
744.058	0.0161364
744.136	0.0160859
744.215	0.0159017
744.293	0.0158439
744.371	0.0155089
744.449	0.0152766
744.527	0.0151329
744.605	0.0149648
744.683	0.0148476
744.761	0.0147291
744.840	0.0144670
744.918	0.0145495
744.996	0.0146051
745.074	0.0145962
745.152	0.0147222
745.230	0.0148627
745.308	0.0150805
745.386	0.0153393
745.465	0.0154717
745.543	0.0156979
745.621	0.0157092
745.699	0.0158403
745.777	0.0160236
745.855	0.0161479
745.933	0.0159158
746.011	0.0159774
746.090	0.0159917
746.168	0.0158749
746.246	0.0157689
746.324	0.0156559
746.402	0.0154541
746.480	0.0152219
746.558	0.0152624
746.636	0.0153022
746.715	0.0150507
746.793	0.0151691
746.871	0.0151947
746.949	0.0150888
747.027	0.0150757
747.105	0.0152052
747.183	0.0151453
747.261	0.0154184
747.340	0.0154221
747.418	0.0154668
747.496	0.0155418
747.574	0.0156145
747.652	0.0156364
747.730	0.0156433
747.808	0.0156857
747.886	0.0156553
747.965	0.0156785
748.043	0.0157216
748.121	0.0157935
748.199	0.0155852
748.277	0.0156732
748.355	0.0156359
748.433	0.0155424
748.511	0.0154910
748.590	0.0155073
748.668	0.0156019
748.746	0.0156157
748.824	0.0156022
748.902	0.0155658
748.980	0.0156747
749.058	0.0154429
749.136	0.0156891
749.215	0.0156421
749.293	0.0156236
749.371	0.0157066
749.449	0.0157301
749.527	0.0156346
749.605	0.0156240
749.683	0.0155247
749.761	0.0156166
749.840	0.0155980
749.918	0.0155733
749.996	0.0153200
750.074	0.0154008
750.152	0.0152944
750.230	0.0152579
750.308	0.0151799
750.386	0.0151923
750.465	0.0151807
750.543	0.0150728
750.621	0.0151041
750.699	0.0151827
750.777	0.0152793
750.855	0.0153410
750.933	0.0154222
751.011	0.0152701
751.090	0.0153448
751.168	0.0154781
751.246	0.0155541
751.324	0.0155496
751.402	0.0154404
751.480	0.0154328
751.558	0.0154730
751.636	0.0155581
751.715	0.0154974
751.793	0.0154633
751.871	0.0155000
751.949	0.0154926
752.027	0.0155721
752.105	0.0153792
752.183	0.0154150
752.261	0.0153375
752.340	0.0154557
752.418	0.0153771
752.496	0.0153763
752.574	0.0152927
752.652	0.0154159
752.730	0.0154299
752.808	0.0154103
752.886	0.0154913
752.965	0.0155613
753.043	0.0154836
753.121	0.0156101
753.199	0.0157028
753.277	0.0156651
753.355	0.0159484
753.433	0.0159651
753.511	0.0158365
753.590	0.0160916
753.668	0.0160236
753.746	0.0159982
753.824	0.0157990
753.902	0.0157225
753.980	0.0156464
754.058	0.0153297
754.136	0.0153577
754.215	0.0151837
754.293	0.0148944
754.371	0.0147195
754.449	0.0146843
754.527	0.0144973
754.605	0.0143462
754.683	0.0143079
754.761	0.0142549
754.840	0.0143378
754.918	0.0143711
754.996	0.0144046
755.074	0.0145024
755.152	0.0147938
755.230	0.0150758
755.308	0.0151490
755.386	0.0152312
755.465	0.0153698
755.543	0.0156766
755.621	0.0157926
755.699	0.0159446
755.777	0.0160217
755.855	0.0160165
755.933	0.0160831
756.011	0.0158746
756.090	0.0160461
756.168	0.0159412
756.246	0.0160057
756.324	0.0159472
756.402	0.0159801
756.480	0.0159301
756.558	0.0158650
756.636	0.0157789
756.715	0.0156237
756.793	0.0156416
756.871	0.0155147
756.949	0.0155528
757.027	0.0153695
757.105	0.0152640
757.183	0.0152047
757.261	0.0151701
757.340	0.0151390
757.418	0.0149526
757.496	0.0150910
757.574	0.0149947
757.652	0.0149376
757.730	0.0150913
757.808	0.0149965
757.886	0.0150781
757.965	0.0153318
758.043	0.0153803
758.121	0.0154642
758.199	0.0155096
758.277	0.0157136
758.355	0.0158514
758.433	0.0160155
758.511	0.0160794
758.590	0.0161502
758.668	0.0162488
758.746	0.0163226
758.824	0.0163830
758.902	0.0162965
758.980	0.0162297
759.058	0.0161762
759.136	0.0159827
759.215	0.0158622
759.293	0.0157275
759.371	0.0153898
759.449	0.0153979
759.527	0.0152862
759.605	0.0150919
759.683	0.0147785
759.761	0.0145588
759.840	0.0145850
759.918	0.0144382
759.996	0.0143863
760.074	0.0144816
760.152	0.0144855
760.230	0.0146667
760.308	0.0146236
760.386	0.0145950
760.465	0.0147304
760.543	0.0150756
760.621	0.0151023
760.699	0.0152323
760.777	0.0152937
760.855	0.0153745
760.933	0.0154390
761.011	0.0155695
761.090	0.0158783
761.168	0.0160851
761.246	0.0159237
761.324	0.0159905
761.402	0.0161401
761.480	0.0160439
761.558	0.0161624
761.636	0.0160777
761.715	0.0159809
761.793	0.0158629
761.871	0.0159212
761.949	0.0158600
762.027	0.0156312
762.105	0.0154629
762.183	0.0155925
762.261	0.0154972
762.340	0.0151946
762.418	0.0151665
762.496	0.0150921
762.574	0.0150986
762.652	0.0150114
762.730	0.0147687
762.808	0.0147874
762.886	0.0146403
762.965	0.0146272
763.043	0.0147295
763.121	0.0146690
763.199	0.0146432
763.277	0.0147014
763.355	0.0148112
763.433	0.0150070
763.511	0.0149741
763.590	0.0151089
763.668	0.0153237
763.746	0.0155371
763.824	0.0157504
763.902	0.0158261
763.980	0.0160311
764.058	0.0160645
764.136	0.0163567
764.215	0.0163290
764.293	0.0163528
764.371	0.0163070
764.449	0.0164280
764.527	0.0162490
764.605	0.0160873
764.683	0.0159784
764.761	0.0157868
764.840	0.0157973
764.918	0.0157642
764.996	0.0154411
765.074	0.0153085
765.152	0.0152898
765.230	0.0151220
765.308	0.0151013
765.386	0.0149844
765.465	0.0148884
765.543	0.0149963
765.621	0.0147861
765.699	0.0148460
765.777	0.0150575
765.855	0.0148959
765.933	0.0148531
766.011	0.0148769
766.090	0.0149819
766.168	0.0151316
766.246	0.0149978
766.324	0.0152473
766.402	0.0152496
766.480	0.0153318
766.558	0.0154971
766.636	0.0155157
766.715	0.0157536
766.793	0.0159586
766.871	0.0158631
766.949	0.0158569
767.027	0.0160642
767.105	0.0161317
767.183	0.0162582
767.261	0.0162041
767.340	0.0162785
767.418	0.0163250
767.496	0.0162096
767.574	0.0160732
767.652	0.0160649
767.730	0.0159275
767.808	0.0157760
767.886	0.0156816
767.965	0.0154767
768.043	0.0152717
768.121	0.0151658
768.199	0.0148288
768.277	0.0148061
768.355	0.0146285
768.433	0.0147798
768.511	0.0145113
768.590	0.0144623
768.668	0.0144284
768.746	0.0144935
768.824	0.0146499
768.902	0.0146468
768.980	0.0149308
769.058	0.0150686
769.136	0.0150858
769.215	0.0151942
769.293	0.0155520
769.371	0.0155469
769.449	0.0157477
769.527	0.0158863
769.605	0.0159760
769.683	0.0160718
769.761	0.0161059
769.840	0.0160165
769.918	0.0159977
769.996	0.0161663
770.074	0.0158057
770.152	0.0157956
770.230	0.0158015
770.308	0.0157353
770.386	0.0155377
770.465	0.0154457
770.543	0.0154274
770.621	0.0152564
770.699	0.0152619
770.777	0.0152881
770.855	0.0151530
770.933	0.0151477
771.011	0.0153220
771.090	0.0151351
771.168	0.0151721
771.246	0.0152071
771.324	0.0153242
771.402	0.0151816
771.480	0.0152234
771.558	0.0153714
771.636	0.0153651
771.715	0.0154434
771.793	0.0155122
771.871	0.0155293
771.949	0.0154691
772.027	0.0156396
772.105	0.0156573
772.183	0.0157620
772.261	0.0156496
772.340	0.0157301
772.418	0.0157894
772.496	0.0158092
772.574	0.0157880
772.652	0.0158808
772.730	0.0159728
772.808	0.0157467
772.886	0.0158342
772.965	0.0157624
773.043	0.0158198
773.121	0.0157388
773.199	0.0155341
773.277	0.0154813
773.355	0.0154720
773.433	0.0153008
773.511	0.0151766
773.590	0.0151553
773.668	0.0150462
773.746	0.0148620
773.824	0.0148426
773.902	0.0147955
773.980	0.0149676
774.058	0.0150539
774.136	0.0149611
774.215	0.0150294
774.293	0.0151650
774.371	0.0153362
774.449	0.0155436
774.527	0.0155302
774.605	0.0156083
774.683	0.0159088
774.761	0.0159723
774.840	0.0161336
774.918	0.0161388
774.996	0.0160042
775.074	0.0161060
775.152	0.0160197
775.230	0.0158489
775.308	0.0159451
775.386	0.0157747
775.465	0.0157732
775.543	0.0156714
775.621	0.0154379
775.699	0.0153488
775.777	0.0153361
775.855	0.0150174
775.933	0.0149570
776.011	0.0149492
776.090	0.0147964
776.168	0.0148572
776.246	0.0149545
776.324	0.0148490
776.402	0.0148962
776.480	0.0149612
776.558	0.0151128
776.636	0.0152515
776.715	0.0152311
776.793	0.0152755
776.871	0.0154013
776.949	0.0154776
777.027	0.0154935
777.105	0.0156845
777.183	0.0157105
777.261	0.0157239
777.340	0.0156886
777.418	0.0157715
777.496	0.0159479
777.574	0.0157572
777.652	0.0157112
777.730	0.0158569
777.808	0.0159008
777.886	0.0157382
777.965	0.0157261
778.043	0.0157990
778.121	0.0159029
778.199	0.0156656
778.277	0.0156190
778.355	0.0156722
778.433	0.0156716
778.511	0.0155059
778.590	0.0153135
778.668	0.0152650
778.746	0.0152821
778.824	0.0152119
778.902	0.0151125
778.980	0.0150736
779.058	0.0149181
779.136	0.0147662
779.215	0.0146967
779.293	0.0147478
779.371	0.0147406
779.449	0.0148395
779.527	0.0146748
779.605	0.0147630
779.683	0.0148263
779.761	0.0150122
779.840	0.0152482
779.918	0.0152212
779.996	0.0152879
780.074	0.0152679
780.152	0.0154397
780.230	0.0155983
780.308	0.0156853
780.386	0.0157063
780.465	0.0158439
780.543	0.0157705
780.621	0.0159116
780.699	0.0157018
780.777	0.0158813
780.855	0.0157716
780.933	0.0156835
781.011	0.0157140
781.090	0.0157487
781.168	0.0155446
781.246	0.0153700
781.324	0.0155343
781.402	0.0154373
781.480	0.0153615
781.558	0.0153294
781.636	0.0153490
781.715	0.0154328
781.793	0.0153024
781.871	0.0153011
781.949	0.0154265
782.027	0.0155008
782.105	0.0155060
782.183	0.0155762
782.261	0.0155263
782.340	0.0155660
782.418	0.0155875
782.496	0.0155605
782.574	0.0154604
782.652	0.0155612
782.730	0.0155569
782.808	0.0155756
782.886	0.0154500
782.965	0.0155171
783.043	0.0155723
783.121	0.0155130
783.199	0.0154699
783.277	0.0154936
783.355	0.0154137
783.433	0.0152299
783.511	0.0152130
783.590	0.0153180
783.668	0.0150793
783.746	0.0152354
783.824	0.0151620
783.902	0.0152386
783.980	0.0151503
784.058	0.0150732
784.136	0.0151308
784.215	0.0153252
784.293	0.0153457
784.371	0.0152078
784.449	0.0153537
784.527	0.0152632
784.605	0.0152543
784.683	0.0153172
784.761	0.0152621
784.840	0.0153973
784.918	0.0153950
784.996	0.0154652
785.074	0.0155293
785.152	0.0154478
785.230	0.0154538
785.308	0.0154166
785.386	0.0155787
785.465	0.0156669
785.543	0.0154123
785.621	0.0155463
785.699	0.0156122
785.777	0.0157331
785.855	0.0154314
785.933	0.0156303
786.011	0.0155153
786.090	0.0154713
786.168	0.0155752
786.246	0.0153848
786.324	0.0154692
786.402	0.0155699
786.480	0.0153909
786.558	0.0154128
786.636	0.0153774
786.715	0.0153998
786.793	0.0154272
786.871	0.0153042
786.949	0.0153377
787.027	0.0153178
787.105	0.0153305
787.183	0.0152617
787.261	0.0154160
787.340	0.0154516
787.418	0.0154536
787.496	0.0156129
787.574	0.0154914
787.652	0.0155541
787.730	0.0157647
787.808	0.0156579
787.886	0.0157194
787.965	0.0158197
788.043	0.0158820
788.121	0.0157053
788.199	0.0156818
788.277	0.0156950
788.355	0.0155760
788.433	0.0154884
788.511	0.0154588
788.590	0.0153803
788.668	0.0154488
788.746	0.0153490
788.824	0.0152393
788.902	0.0151833
788.980	0.0151548
789.058	0.0152444
789.136	0.0150327
789.215	0.0149790
789.293	0.0151694
789.371	0.0149800
789.449	0.0149891
789.527	0.0150107
789.605	0.0150372
789.683	0.0151178
789.761	0.0152284
789.840	0.0152600
789.918	0.0153122
789.996	0.0152450
790.074	0.0153755
790.152	0.0154239
790.230	0.0156726
790.308	0.0156838
790.386	0.0156931
790.465	0.0157809
790.543	0.0156629
790.621	0.0157169
790.699	0.0159006
790.777	0.0159868
790.855	0.0159762
790.933	0.0159167
791.011	0.0157937
791.090	0.0159575
791.168	0.0159010
791.246	0.0158177
791.324	0.0159354
791.402	0.0157223
791.480	0.0157144
791.558	0.0155450
791.636	0.0154307
791.715	0.0154185
791.793	0.0153266
791.871	0.0153430
791.949	0.0154874
792.027	0.0152205
792.105	0.0151308
792.183	0.0151449
792.261	0.0150442
792.340	0.0151781
792.418	0.0152635
792.496	0.0152753
792.574	0.0152857
792.652	0.0152496
792.730	0.0153148
792.808	0.0152033
792.886	0.0152940
792.965	0.0154827
793.043	0.0155287
793.121	0.0153752
793.199	0.0154435
793.277	0.0155659
793.355	0.0154911
793.433	0.0156351
793.511	0.0154942
793.590	0.0155531
793.668	0.0155105
793.746	0.0154926
793.824	0.0154492
793.902	0.0155039
793.980	0.0154418
794.058	0.0153554
794.136	0.0153019
794.215	0.0153626
794.293	0.0153481
794.371	0.0152782
794.449	0.0152323
794.527	0.0153540
794.605	0.0154041
794.683	0.0152874
794.761	0.0152502
794.840	0.0151703
794.918	0.0153053
794.996	0.0152588
795.074	0.0154562
795.152	0.0153866
795.230	0.0153687
795.308	0.0153949
795.386	0.0153862
795.465	0.0154710
795.543	0.0155930
795.621	0.0154214
795.699	0.0155360
795.777	0.0156893
795.855	0.0156698
795.933	0.0156549
796.011	0.0156763
796.090	0.0156196
796.168	0.0156148
796.246	0.0156853
796.324	0.0157466
796.402	0.0158428
796.480	0.0157546
796.558	0.0156509
796.636	0.0157955
796.715	0.0157375
796.793	0.0155827
796.871	0.0154527
796.949	0.0156235
797.027	0.0156070
797.105	0.0154298
797.183	0.0153715
797.261	0.0152776
797.340	0.0153400
797.418	0.0152861
797.496	0.0151431
797.574	0.0152732
797.652	0.0152966
797.730	0.0151656
797.808	0.0153015
797.886	0.0152251
797.965	0.0153431
798.043	0.0153119
798.121	0.0154565
798.199	0.0153149
798.277	0.0153073
798.355	0.0153217
798.433	0.0154532
798.511	0.0154246
798.590	0.0155976
798.668	0.0154395
798.746	0.0155153
798.824	0.0156680
798.902	0.0156229
798.980	0.0155268
799.058	0.0155063
799.136	0.0155441
799.215	0.0155110
799.293	0.0155853
799.371	0.0155061
799.449	0.0154390
799.527	0.0154780
799.605	0.0154372
799.683	0.0154102
799.761	0.0154714
799.840	0.0153371
799.918	0.0152914
799.996	0.0153029
800.074	0.0154286
800.152	0.0153829
800.230	0.0153254
800.308	0.0152421
800.386	0.0153192
800.465	0.0153162
800.543	0.0153248
800.621	0.0153600
800.699	0.0153401
800.777	0.0153090
800.855	0.0153918
800.933	0.0154385
801.011	0.0155110
801.090	0.0154851
801.168	0.0156174
801.246	0.0154836
801.324	0.0157938
801.402	0.0157677
801.480	0.0156292
801.558	0.0158249
801.636	0.0157597
801.715	0.0158501
801.793	0.0156847
801.871	0.0157043
801.949	0.0158604
802.027	0.0157629
802.105	0.0156689
802.183	0.0156162
802.261	0.0155362
802.340	0.0156406
802.418	0.0157292
802.496	0.0154506
802.574	0.0154699
802.652	0.0154417
802.730	0.0154601
802.808	0.0153504
802.886	0.0153214
802.965	0.0153365
803.043	0.0152971
803.121	0.0151737
803.199	0.0152351
803.277	0.0152345
803.355	0.0153523
803.433	0.0153635
803.511	0.0153081
803.590	0.0152050
803.668	0.0153143
803.746	0.0153622
803.824	0.0154243
803.902	0.0154298
803.980	0.0153831
804.058	0.0155666
804.136	0.0154948
804.215	0.0155541
804.293	0.0155608
804.371	0.0152643
804.449	0.0154556
804.527	0.0155077
804.605	0.0155408
804.683	0.0155154
804.761	0.0156546
804.840	0.0156721
804.918	0.0155355
804.996	0.0153744
805.074	0.0154559
805.152	0.0155085
805.230	0.0154460
805.308	0.0154070
805.386	0.0154225
805.465	0.0154227
805.543	0.0153193
805.621	0.0153354
805.699	0.0153636
805.777	0.0153753
805.855	0.0154339
805.933	0.0152601
806.011	0.0153400
806.090	0.0152861
806.168	0.0154213
806.246	0.0152589
806.324	0.0153993
806.402	0.0153934
806.480	0.0153928
806.558	0.0153867
806.636	0.0155592
806.715	0.0155625
806.793	0.0156091
806.871	0.0155426
806.949	0.0155167
807.027	0.0156053
807.105	0.0156308
807.183	0.0156747
807.261	0.0157472
807.340	0.0156610
807.418	0.0155716
807.496	0.0156590
807.574	0.0156009
807.652	0.0155401
807.730	0.0155089
807.808	0.0154301
807.886	0.0155294
807.965	0.0154834
808.043	0.0153444
808.121	0.0152122
808.199	0.0153884
808.277	0.0154528
808.355	0.0154688
808.433	0.0155157
808.511	0.0152799
808.590	0.0154000
808.668	0.0153454
808.746	0.0154096
808.824	0.0153845
808.902	0.0153962
808.980	0.0153644
809.058	0.0155074
809.136	0.0153791
809.215	0.0153387
809.293	0.0154921
809.371	0.0156181
809.449	0.0154224
809.527	0.0156306
809.605	0.0154768
809.683	0.0155079
809.761	0.0154967
809.840	0.0155920
809.918	0.0155160
809.996	0.0154362
810.074	0.0153769
810.152	0.0155445
810.230	0.0155023
810.308	0.0153460
810.386	0.0152531
810.465	0.0153715
810.543	0.0156060
810.621	0.0155994
810.699	0.0155116
810.777	0.0154322
810.855	0.0154906
810.933	0.0155006
811.011	0.0154604
811.090	0.0153712
811.168	0.0154597
811.246	0.0157030
811.324	0.0154359
811.402	0.0154520
811.480	0.0154684
811.558	0.0154076
811.636	0.0153495
811.715	0.0152476
811.793	0.0153940
811.871	0.0153628
811.949	0.0152351
812.027	0.0153419
812.105	0.0154283
812.183	0.0153026
812.261	0.0152702
812.340	0.0153458
812.418	0.0152541
812.496	0.0153796
812.574	0.0154424
812.652	0.0153408
812.730	0.0153381
812.808	0.0153571
812.886	0.0154797
812.965	0.0153840
813.043	0.0152438
813.121	0.0152869
813.199	0.0152541
813.277	0.0151879
813.355	0.0152664
813.433	0.0153416
813.511	0.0152382
813.590	0.0152271
813.668	0.0153269
813.746	0.0152294
813.824	0.0153616
813.902	0.0153311
813.980	0.0154366
814.058	0.0154126
814.136	0.0154610
814.215	0.0155695
814.293	0.0155785
814.371	0.0155732
814.449	0.0157642
814.527	0.0157679
814.605	0.0157571
814.683	0.0158714
814.761	0.0156656
814.840	0.0158062
814.918	0.0158561
814.996	0.0156600
815.074	0.0158123
815.152	0.0157401
815.230	0.0157515
815.308	0.0157453
815.386	0.0157180
815.465	0.0158183
815.543	0.0156830
815.621	0.0158974
815.699	0.0158615
815.777	0.0156799
815.855	0.0157410
815.933	0.0156055
816.011	0.0157215
816.090	0.0158131
816.168	0.0156578
816.246	0.0156428
816.324	0.0156653
816.402	0.0156091
816.480	0.0156911
816.558	0.0155057
816.636	0.0153706
816.715	0.0153555
816.793	0.0153580
816.871	0.0153948
816.949	0.0153335
817.027	0.0151957
817.105	0.0151337
817.183	0.0151721
817.261	0.0149976
817.340	0.0150392
817.418	0.0151965
817.496	0.0150723
817.574	0.0150656
817.652	0.0150183
817.730	0.0149413
817.808	0.0150874
817.886	0.0150523
817.965	0.0150910
818.043	0.0150557
818.121	0.0149012
818.199	0.0149654
818.277	0.0149663
818.355	0.0151401
818.433	0.0150921
818.511	0.0150713
818.590	0.0150549
818.668	0.0150376
818.746	0.0151850
818.824	0.0153607
818.902	0.0152710
818.980	0.0153108
819.058	0.0152773
819.136	0.0153179
819.215	0.0154707
819.293	0.0154517
819.371	0.0154903
819.449	0.0156551
819.527	0.0157147
819.605	0.0158099
819.683	0.0158083
819.761	0.0158388
819.840	0.0157732
819.918	0.0159040
819.996	0.0158887
820.074	0.0159540
820.152	0.0160413
820.230	0.0160135
820.308	0.0158665
820.386	0.0160217
820.465	0.0160602
820.543	0.0159818
820.621	0.0161211
820.699	0.0159895
820.777	0.0159029
820.855	0.0157906
820.933	0.0159286
821.011	0.0158925
821.090	0.0158484
821.168	0.0158100
821.246	0.0156321
821.324	0.0155715
821.402	0.0157640
821.480	0.0156877
821.558	0.0155238
821.636	0.0155948
821.715	0.0153642
821.793	0.0153487
821.871	0.0154015
821.949	0.0154575
822.027	0.0153645
822.105	0.0152774
822.183	0.0153767
822.261	0.0152981
822.340	0.0153301
822.418	0.0151629
822.496	0.0151733
822.574	0.0151875
822.652	0.0150491
822.730	0.0150554
822.808	0.0150819
822.886	0.0150293
822.965	0.0148647
823.043	0.0148714
823.121	0.0148520
823.199	0.0147042
823.277	0.0149181
823.355	0.0148597
823.433	0.0147547
823.511	0.0146877
823.590	0.0146448
823.668	0.0147394
823.746	0.0146014
823.824	0.0148387
823.902	0.0148938
823.980	0.0148736
824.058	0.0149770
824.136	0.0148979
824.215	0.0149519
824.293	0.0151466
824.371	0.0152237
824.449	0.0154141
824.527	0.0154129
824.605	0.0154308
824.683	0.0156958
824.761	0.0157495
824.840	0.0158508
824.918	0.0158913
824.996	0.0158884
825.074	0.0161964
825.152	0.0162792
825.230	0.0162484
825.308	0.0163046
825.386	0.0164293
825.465	0.0162730
825.543	0.0165405
825.621	0.0165673
825.699	0.0166377
825.777	0.0163263
825.855	0.0164960
825.933	0.0164925
826.011	0.0164867
826.090	0.0164242
826.168	0.0163168
826.246	0.0161710
826.324	0.0159445
826.402	0.0160201
826.480	0.0158969
826.558	0.0158680
826.636	0.0156718
826.715	0.0157582
826.793	0.0154922
826.871	0.0154335
826.949	0.0154007
827.027	0.0154597
827.105	0.0154494
827.183	0.0153304
827.261	0.0152050
827.340	0.0152972
827.418	0.0151905
827.496	0.0152222
827.574	0.0151954
827.652	0.0152254
827.730	0.0150669
827.808	0.0150297
827.886	0.0150552
827.965	0.0150410
828.043	0.0149522
828.121	0.0148511
828.199	0.0149583
828.277	0.0148995
828.355	0.0147865
828.433	0.0147308
828.511	0.0147620
828.590	0.0147297
828.668	0.0145332
828.746	0.0146746
828.824	0.0147123
828.902	0.0146831
828.980	0.0147070
829.058	0.0147276
829.136	0.0146726
829.215	0.0148381
829.293	0.0148598
829.371	0.0148844
829.449	0.0150112
829.527	0.0150384
829.605	0.0153387
829.683	0.0151960
829.761	0.0152554
829.840	0.0154020
829.918	0.0154405
829.996	0.0154951
830.074	0.0156016
830.152	0.0157015
830.230	0.0158083
830.308	0.0158184
830.386	0.0158468
830.465	0.0160003
830.543	0.0159314
830.621	0.0161031
830.699	0.0161539
830.777	0.0162696
830.855	0.0163894
830.933	0.0164514
831.011	0.0163585
831.090	0.0163093
831.168	0.0162463
831.246	0.0163525
831.324	0.0163060
831.402	0.0162437
831.480	0.0162516
831.558	0.0161253
831.636	0.0159808
831.715	0.0160889
831.793	0.0159541
831.871	0.0157407
831.949	0.0156404
832.027	0.0156446
832.105	0.0156355
832.183	0.0155206
832.261	0.0155102
832.340	0.0154387
832.418	0.0154206
832.496	0.0153416
832.574	0.0153659
832.652	0.0153150
832.730	0.0154715
832.808	0.0152423
832.886	0.0152603
832.965	0.0153889
833.043	0.0151432
833.121	0.0152419
833.199	0.0151441
833.277	0.0149865
833.355	0.0149182
833.433	0.0150634
833.511	0.0150717
833.590	0.0149251
833.668	0.0149100
833.746	0.0149537
833.824	0.0148827
833.902	0.0148842
833.980	0.0149560
834.058	0.0148509
834.136	0.0148564
834.215	0.0151616
834.293	0.0150565
834.371	0.0152109
834.449	0.0152280
834.527	0.0151072
834.605	0.0151185
834.683	0.0153345
834.761	0.0153387
834.840	0.0152985
834.918	0.0154004
834.996	0.0154356
835.074	0.0154396
835.152	0.0156280
835.230	0.0155658
835.308	0.0156791
835.386	0.0155753
835.465	0.0156558
835.543	0.0157536
835.621	0.0156673
835.699	0.0155985
835.777	0.0157461
835.855	0.0158605
835.933	0.0157834
836.011	0.0157340
836.090	0.0157607
836.168	0.0156814
836.246	0.0157422
836.324	0.0158389
836.402	0.0157806
836.480	0.0157571
836.558	0.0158582
836.636	0.0157705
836.715	0.0156999
836.793	0.0157040
836.871	0.0156588
836.949	0.0156599
837.027	0.0155824
837.105	0.0155551
837.183	0.0157069
837.261	0.0157198
837.340	0.0154911
837.418	0.0153920
837.496	0.0154510
837.574	0.0153371
837.652	0.0155891
837.730	0.0154959
837.808	0.0153641
837.886	0.0154646
837.965	0.0153007
838.043	0.0152549
838.121	0.0153747
838.199	0.0154329
838.277	0.0152909
838.355	0.0153100
838.433	0.0153885
838.511	0.0152935
838.590	0.0150906
838.668	0.0150505
838.746	0.0151578
838.824	0.0152898
838.902	0.0153085
838.980	0.0151712
839.058	0.0152029
839.136	0.0153156
839.215	0.0153967
839.293	0.0153381
839.371	0.0153412
839.449	0.0153500
839.527	0.0155453
839.605	0.0154709
839.683	0.0154655
839.761	0.0154443
839.840	0.0155375
839.918	0.0156055
839.996	0.0155874
840.074	0.0154958
840.152	0.0154200
840.230	0.0153801
840.308	0.0155856
840.386	0.0156102
840.465	0.0155036
840.543	0.0155064
840.621	0.0155089
840.699	0.0155470
840.777	0.0154636
840.855	0.0154288
840.933	0.0154075
841.011	0.0155300
841.090	0.0154808
841.168	0.0155262
841.246	0.0155639
841.324	0.0154639
841.402	0.0156570
841.480	0.0155119
841.558	0.0154359
841.636	0.0155007
841.715	0.0155162
841.793	0.0155943
841.871	0.0156126
841.949	0.0155283
842.027	0.0154409
842.105	0.0154103
842.183	0.0155037
842.261	0.0153713
842.340	0.0154517
842.418	0.0155627
842.496	0.0155080
842.574	0.0154723
842.652	0.0155094
842.730	0.0154665
842.808	0.0154762
842.886	0.0155179
842.965	0.0154240
843.043	0.0153677
843.121	0.0154566
843.199	0.0154520
843.277	0.0154829
843.355	0.0154862
843.433	0.0153976
843.511	0.0155328
843.590	0.0153196
843.668	0.0154855
843.746	0.0154842
843.824	0.0154546
843.902	0.0154453
843.980	0.0154593
844.058	0.0153648
844.136	0.0152991
844.215	0.0153584
844.293	0.0154157
844.371	0.0154300
844.449	0.0154019
844.527	0.0152467
844.605	0.0153933
844.683	0.0152275
844.761	0.0153783
844.840	0.0153165
844.918	0.0152930
844.996	0.0153315
845.074	0.0152786
845.152	0.0153259
845.230	0.0153831
845.308	0.0153210
845.386	0.0153143
845.465	0.0153000
845.543	0.0153469
845.621	0.0153769
845.699	0.0154720
845.777	0.0154729
845.855	0.0155068
845.933	0.0155520
846.011	0.0154998
846.090	0.0155568
846.168	0.0155109
846.246	0.0154389
846.324	0.0155717
846.402	0.0157003
846.480	0.0156140
846.558	0.0155852
846.636	0.0154855
846.715	0.0157657
846.793	0.0156920
846.871	0.0156263
846.949	0.0156366
847.027	0.0156386
847.105	0.0156611
847.183	0.0156625
847.261	0.0155722
847.340	0.0155639
847.418	0.0155944
847.496	0.0155360
847.574	0.0154706
847.652	0.0155284
847.730	0.0154161
847.808	0.0154419
847.886	0.0153477
847.965	0.0153738
848.043	0.0153751
848.121	0.0153000
848.199	0.0152769
848.277	0.0152737
848.355	0.0152396
848.433	0.0152232
848.511	0.0152036
848.590	0.0153403
848.668	0.0154137
848.746	0.0153864
848.824	0.0154517
848.902	0.0154770
848.980	0.0154681
849.058	0.0156059
849.136	0.0156098
849.215	0.0156348
849.293	0.0155225
849.371	0.0156269
849.449	0.0156072
849.527	0.0157263
849.605	0.0157395
849.683	0.0155607
849.761	0.0156418
849.840	0.0155487
849.918	0.0152897
849.996	0.0153449
850.074	0.0153849
850.152	0.0154451
850.230	0.0153768
850.308	0.0152411
850.386	0.0152779
850.465	0.0152708
850.543	0.0153120
850.621	0.0152122
850.699	0.0152760
850.777	0.0151894
850.855	0.0152735
850.933	0.0153846
851.011	0.0155103
851.090	0.0153337
851.168	0.0154551
851.246	0.0154289
851.324	0.0154885
851.402	0.0155379
851.480	0.0154001
851.558	0.0154354
851.636	0.0156024
851.715	0.0155416
851.793	0.0155753
851.871	0.0156801
851.949	0.0154710
852.027	0.0155270
852.105	0.0154537
852.183	0.0154736
852.261	0.0154692
852.340	0.0154912
852.418	0.0156847
852.496	0.0154335
852.574	0.0155173
852.652	0.0155998
852.730	0.0156231
852.808	0.0156125
852.886	0.0154908
852.965	0.0155636
853.043	0.0155441
853.121	0.0156001
853.199	0.0155556
853.277	0.0154812
853.355	0.0154873
853.433	0.0155891
853.511	0.0155070
853.590	0.0154546
853.668	0.0154395
853.746	0.0154061
853.824	0.0153935
853.902	0.0153505
853.980	0.0152331
854.058	0.0153270
854.136	0.0153635
854.215	0.0152085
854.293	0.0153330
854.371	0.0153588
854.449	0.0153924
854.527	0.0154875
854.605	0.0153757
854.683	0.0154449
854.761	0.0154092
854.840	0.0152995
854.918	0.0155155
854.996	0.0154560
855.074	0.0154723
855.152	0.0154514
855.230	0.0154047
855.308	0.0154795
855.386	0.0155556
855.465	0.0155920
855.543	0.0155849
855.621	0.0156374
855.699	0.0154870
855.777	0.0153477
855.855	0.0155344
855.933	0.0154578
856.011	0.0154680
856.090	0.0155574
856.168	0.0155959
856.246	0.0155648
856.324	0.0155362
856.402	0.0155029
856.480	0.0154951
856.558	0.0156106
856.636	0.0155583
856.715	0.0157444
856.793	0.0156348
856.871	0.0155886
856.949	0.0155842
857.027	0.0156332
857.105	0.0157710
857.183	0.0156495
857.261	0.0155534
857.340	0.0157095
857.418	0.0154803
857.496	0.0155079
857.574	0.0155241
857.652	0.0154928
857.730	0.0155499
857.808	0.0154090
857.886	0.0154061
857.965	0.0153782
858.043	0.0153399
858.121	0.0154236
858.199	0.0154047
858.277	0.0153114
858.355	0.0153505
858.433	0.0153481
858.511	0.0152523
858.590	0.0153812
858.668	0.0153345
858.746	0.0153788
858.824	0.0152319
858.902	0.0152652
858.980	0.0153046
859.058	0.0154292
859.136	0.0153197
859.215	0.0154023
859.293	0.0153519
859.371	0.0154002
859.449	0.0152731
859.527	0.0152859
859.605	0.0153297
859.683	0.0152516
859.761	0.0153677
859.840	0.0153358
859.918	0.0151418
859.996	0.0153465
860.074	0.0153075
860.152	0.0152032
860.230	0.0153359
860.308	0.0153712
860.386	0.0155388
860.465	0.0154416
860.543	0.0154932
860.621	0.0154292
860.699	0.0154114
860.777	0.0155197
860.855	0.0154924
860.933	0.0157181
861.011	0.0155555
861.090	0.0155219
861.168	0.0155177
861.246	0.0157064
861.324	0.0158157
861.402	0.0156288
861.480	0.0156583
861.558	0.0156234
861.636	0.0157682
861.715	0.0158255
861.793	0.0156568
861.871	0.0155616
861.949	0.0157158
862.027	0.0156024
862.105	0.0157145
862.183	0.0155375
862.261	0.0155499
862.340	0.0154993
862.418	0.0155106
862.496	0.0155822
862.574	0.0155179
862.652	0.0154857
862.730	0.0154530
862.808	0.0154437
862.886	0.0155145
862.965	0.0153223
863.043	0.0153687
863.121	0.0154547
863.199	0.0154272
863.277	0.0154073
863.355	0.0154766
863.433	0.0155363
863.511	0.0154352
863.590	0.0155049
863.668	0.0155114
863.746	0.0155833
863.824	0.0153302
863.902	0.0153809
863.980	0.0155181
864.058	0.0154578
864.136	0.0153571
864.215	0.0154369
864.293	0.0154247
864.371	0.0153888
864.449	0.0154405
864.527	0.0153793
864.605	0.0152785
864.683	0.0151971
864.761	0.0151610
864.840	0.0153551
864.918	0.0152986
864.996	0.0152288
865.074	0.0151038
865.152	0.0150064
865.230	0.0151338
865.308	0.0151861
865.386	0.0150362
865.465	0.0151531
865.543	0.0151392
865.621	0.0153199
865.699	0.0153053
865.777	0.0153034
865.855	0.0152716
865.933	0.0155083
866.011	0.0154459
866.090	0.0154812
866.168	0.0155902
866.246	0.0155212
866.324	0.0156419
866.402	0.0155177
866.480	0.0155831
866.558	0.0157131
866.636	0.0156164
866.715	0.0157467
866.793	0.0157336
866.871	0.0157747
866.949	0.0157152
867.027	0.0157134
867.105	0.0157877
867.183	0.0157517
867.261	0.0157278
867.340	0.0156091
867.418	0.0157092
867.496	0.0157919
867.574	0.0156718
867.652	0.0154714
867.730	0.0156854
867.808	0.0155082
867.886	0.0153475
867.965	0.0155255
868.043	0.0154177
868.121	0.0154448
868.199	0.0153994
868.277	0.0152571
868.355	0.0153296
868.433	0.0152879
868.511	0.0151974
868.590	0.0151931
868.668	0.0152892
868.746	0.0153154
868.824	0.0153336
868.902	0.0151572
868.980	0.0152588
869.058	0.0155001
869.136	0.0154347
869.215	0.0153541
869.293	0.0153268
869.371	0.0155170
869.449	0.0153070
869.527	0.0154617
869.605	0.0155982
869.683	0.0154978
869.761	0.0154973
869.840	0.0154474
869.918	0.0156123
869.996	0.0155557
870.074	0.0153581
870.152	0.0153957
870.230	0.0153606
870.308	0.0152565
870.386	0.0152824
870.465	0.0152735
870.543	0.0152572
870.621	0.0151721
870.699	0.0152315
870.777	0.0151662
870.855	0.0151978
870.933	0.0153416
871.011	0.0153269
871.090	0.0151937
871.168	0.0152162
871.246	0.0151882
871.324	0.0151973
871.402	0.0154506
871.480	0.0153358
871.558	0.0153720
871.636	0.0154875
871.715	0.0153809
871.793	0.0155863
871.871	0.0157127
871.949	0.0155520
872.027	0.0156366
872.105	0.0156073
872.183	0.0157224
872.261	0.0157736
872.340	0.0158221
872.418	0.0156633
872.496	0.0156245
872.574	0.0156681
872.652	0.0158118
872.730	0.0157706
872.808	0.0156808
872.886	0.0156699
872.965	0.0157597
873.043	0.0155718
873.121	0.0156493
873.199	0.0156974
873.277	0.0154263
873.355	0.0153413
873.433	0.0154741
873.511	0.0154924
873.590	0.0155786
873.668	0.0153133
873.746	0.0151830
873.824	0.0153420
873.902	0.0154117
873.980	0.0153492
874.058	0.0151872
874.136	0.0152337
874.215	0.0152873
874.293	0.0152302
874.371	0.0152081
874.449	0.0152805
874.527	0.0151603
874.605	0.0151550
874.683	0.0153641
874.761	0.0153415
874.840	0.0153119
874.918	0.0153041
874.996	0.0153588
875.074	0.0155365
875.152	0.0153665
875.230	0.0154604
875.308	0.0153791
875.386	0.0154147
875.465	0.0154778
875.543	0.0153741
875.621	0.0154044
875.699	0.0153784
875.777	0.0154736
875.855	0.0153555
875.933	0.0153959
876.011	0.0153666
876.090	0.0153584
876.168	0.0154386
876.246	0.0153825
876.324	0.0153711
876.402	0.0154041
876.480	0.0152632
876.558	0.0154008
876.636	0.0153187
876.715	0.0153268
876.793	0.0154610
876.871	0.0154287
876.949	0.0152652
877.027	0.0154836
877.105	0.0154221
877.183	0.0153658
877.261	0.0153563
877.340	0.0154839
877.418	0.0154630
877.496	0.0154839
877.574	0.0153168
877.652	0.0156572
877.730	0.0154701
877.808	0.0155513
877.886	0.0154822
877.965	0.0156409
878.043	0.0155537
878.121	0.0153789
878.199	0.0154886
878.277	0.0155054
878.355	0.0155585
878.433	0.0154966
878.511	0.0156340
878.590	0.0156781
878.668	0.0155042
878.746	0.0155618
878.824	0.0157617
878.902	0.0156483
878.980	0.0155882
879.058	0.0155775
879.136	0.0154881
879.215	0.0156210
879.293	0.0156003
879.371	0.0154490
879.449	0.0155801
879.527	0.0154647
879.605	0.0154289
879.683	0.0153586
879.761	0.0153256
879.840	0.0153882
879.918	0.0152988
879.996	0.0152351
880.074	0.0153181
880.152	0.0153139
880.230	0.0153419
880.308	0.0153176
880.386	0.0153061
880.465	0.0152937
880.543	0.0154470
880.621	0.0154593
880.699	0.0153051
880.777	0.0154079
880.855	0.0152902
880.933	0.0153481
881.011	0.0154844
881.090	0.0153469
881.168	0.0154253
881.246	0.0154862
881.324	0.0152527
881.402	0.0155120
881.480	0.0155231
881.558	0.0155197
881.636	0.0153209
881.715	0.0153578
881.793	0.0154086
881.871	0.0155083
881.949	0.0154964
882.027	0.0153088
882.105	0.0154050
882.183	0.0153355
882.261	0.0152915
882.340	0.0153291
882.418	0.0154472
882.496	0.0154376
882.574	0.0154427
882.652	0.0154383
882.730	0.0154441
882.808	0.0154347
882.886	0.0155023
882.965	0.0155174
883.043	0.0154126
883.121	0.0156049
883.199	0.0155048
883.277	0.0154811
883.355	0.0155108
883.433	0.0155283
883.511	0.0155096
883.590	0.0154028
883.668	0.0154666
883.746	0.0154745
883.824	0.0153885
883.902	0.0154336
883.980	0.0156363
884.058	0.0154318
884.136	0.0155547
884.215	0.0154137
884.293	0.0155161
884.371	0.0155742
884.449	0.0154984
884.527	0.0154250
884.605	0.0154556
884.683	0.0155524
884.761	0.0155150
884.840	0.0156360
884.918	0.0156220
884.996	0.0155376
885.074	0.0154657
885.152	0.0154800
885.230	0.0155019
885.308	0.0155370
885.386	0.0155869
885.465	0.0154905
885.543	0.0154772
885.621	0.0155508
885.699	0.0155991
885.777	0.0155625
885.855	0.0155807
885.933	0.0154449
886.011	0.0154414
886.090	0.0154735
886.168	0.0155331
886.246	0.0153817
886.324	0.0153979
886.402	0.0154205
886.480	0.0153398
886.558	0.0153688
886.636	0.0153815
886.715	0.0153560
886.793	0.0154279
886.871	0.0154678
886.949	0.0153152
887.027	0.0153108
887.105	0.0153906
887.183	0.0152552
887.261	0.0151575
887.340	0.0152586
887.418	0.0153593
887.496	0.0153625
887.574	0.0152529
887.652	0.0153267
887.730	0.0151816
887.808	0.0154466
887.886	0.0155934
887.965	0.0154550
888.043	0.0153456
888.121	0.0153413
888.199	0.0154177
888.277	0.0155470
888.355	0.0154384
888.433	0.0155188
888.511	0.0154558
888.590	0.0155883
888.668	0.0154530
888.746	0.0154453
888.824	0.0154708
888.902	0.0154827
888.980	0.0156623
889.058	0.0156079
889.136	0.0154919
889.215	0.0155480
889.293	0.0154823
889.371	0.0154604
889.449	0.0155907
889.527	0.0153976
889.605	0.0154314
889.683	0.0154725
889.761	0.0154665
889.840	0.0154390
889.918	0.0154660
889.996	0.0154648
890.074	0.0153968
890.152	0.0154369
890.230	0.0154552
890.308	0.0154432
890.386	0.0154630
890.465	0.0153463
890.543	0.0152837
890.621	0.0153886
890.699	0.0155283
890.777	0.0155541
890.855	0.0154151
890.933	0.0154613
891.011	0.0153687
891.090	0.0155480
891.168	0.0154292
891.246	0.0154604
891.324	0.0154177
891.402	0.0155936
891.480	0.0154147
891.558	0.0154127
891.636	0.0155124
891.715	0.0154392
891.793	0.0154032
891.871	0.0154301
891.949	0.0154980
892.027	0.0154179
892.105	0.0153866
892.183	0.0154133
892.261	0.0153197
892.340	0.0153493
892.418	0.0154632
892.496	0.0153843
892.574	0.0153652
892.652	0.0153993
892.730	0.0152824
892.808	0.0154326
892.886	0.0153823
892.965	0.0153705
893.043	0.0152898
893.121	0.0153603
893.199	0.0152908
893.277	0.0153991
893.355	0.0154748
893.433	0.0153909
893.511	0.0153513
893.590	0.0153380
893.668	0.0154314
893.746	0.0155833
893.824	0.0154886
893.902	0.0153168
893.980	0.0152859
894.058	0.0156098
894.136	0.0154904
894.215	0.0153947
894.293	0.0154966
894.371	0.0155203
894.449	0.0155145
894.527	0.0156339
894.605	0.0155848
894.683	0.0155724
894.761	0.0156149
894.840	0.0155396
894.918	0.0154762
894.996	0.0156300
895.074	0.0155916
895.152	0.0155962
895.230	0.0156097
895.308	0.0155209
895.386	0.0154095
895.465	0.0154426
895.543	0.0155987
895.621	0.0155090
895.699	0.0154993
895.777	0.0155437
895.855	0.0155013
895.933	0.0153706
896.011	0.0153668
896.090	0.0155152
896.168	0.0154205
896.246	0.0153855
896.324	0.0153849
896.402	0.0155092
896.480	0.0153350
896.558	0.0154834
896.636	0.0156566
896.715	0.0154328
896.793	0.0154237
896.871	0.0154572
896.949	0.0154145
897.027	0.0153752
897.105	0.0153879
897.183	0.0154928
897.261	0.0153277
897.340	0.0153201
897.418	0.0154322
897.496	0.0154449
897.574	0.0153575
897.652	0.0154544
897.730	0.0154616
897.808	0.0154058
897.886	0.0154876
897.965	0.0155057
898.043	0.0155043
898.121	0.0154772
898.199	0.0156219
898.277	0.0154521
898.355	0.0155708
898.433	0.0155434
898.511	0.0156551
898.590	0.0155288
898.668	0.0156306
898.746	0.0156288
898.824	0.0156704
898.902	0.0156483
898.980	0.0154742
899.058	0.0155977
899.136	0.0155614
899.215	0.0154971
899.293	0.0153840
899.371	0.0155016
899.449	0.0155350
899.527	0.0155035
899.605	0.0154453
899.683	0.0153741
899.761	0.0153360
899.840	0.0153391
899.918	0.0154196
899.996	0.0153231
900.074	0.0153840
900.152	0.0154424
900.230	0.0154362
900.308	0.0153246
900.386	0.0153047
900.465	0.0153665
900.543	0.0153892
900.621	0.0154739
900.699	0.0153527
900.777	0.0153534
900.855	0.0153754
900.933	0.0153947
901.011	0.0155876
901.090	0.0154155
901.168	0.0155331
901.246	0.0154073
901.324	0.0154221
901.402	0.0155157
901.480	0.0155012
901.558	0.0153545
901.636	0.0154749
901.715	0.0155874
901.793	0.0154968
901.871	0.0155247
901.949	0.0154633
902.027	0.0156715
902.105	0.0155412
902.183	0.0155050
902.261	0.0155231
902.340	0.0155624
902.418	0.0156163
902.496	0.0154108
902.574	0.0155148
902.652	0.0154674
902.730	0.0153149
902.808	0.0154787
902.886	0.0153613
902.965	0.0153726
903.043	0.0153685
903.121	0.0154086
903.199	0.0153280
903.277	0.0152666
903.355	0.0153273
903.433	0.0153809
903.511	0.0154106
903.590	0.0155077
903.668	0.0153635
903.746	0.0153989
903.824	0.0154483
903.902	0.0154374
903.980	0.0154624
904.058	0.0155407
904.136	0.0154502
904.215	0.0156268
904.293	0.0156681
904.371	0.0156028
904.449	0.0155305
904.527	0.0154916
904.605	0.0156062
904.683	0.0156932
904.761	0.0157002
904.840	0.0155457
904.918	0.0156150
904.996	0.0156157
905.074	0.0155151
905.152	0.0155538
905.230	0.0153877
905.308	0.0153278
905.386	0.0153998
905.465	0.0153014
905.543	0.0154099
905.621	0.0153655
905.699	0.0153635
905.777	0.0152233
905.855	0.0152504
905.933	0.0153583
906.011	0.0153363
906.090	0.0152647
906.168	0.0153408
906.246	0.0154433
906.324	0.0153626
906.402	0.0153830
906.480	0.0154493
906.558	0.0154740
906.636	0.0154945
906.715	0.0154292
906.793	0.0155513
906.871	0.0155313
906.949	0.0153931
907.027	0.0155257
907.105	0.0154893
907.183	0.0154783
907.261	0.0154138
907.340	0.0155431
907.418	0.0154453
907.496	0.0154169
907.574	0.0154179
907.652	0.0154220
907.730	0.0154568
907.808	0.0154449
907.886	0.0154587
907.965	0.0154432
908.043	0.0153901
908.121	0.0154060
908.199	0.0153821
908.277	0.0154733
908.355	0.0155547
908.433	0.0153876
908.511	0.0153803
908.590	0.0154259
908.668	0.0153168
908.746	0.0153958
908.824	0.0154111
908.902	0.0154489
908.980	0.0152885
909.058	0.0152161
909.136	0.0153764
909.215	0.0153380
909.293	0.0155271
909.371	0.0154082
909.449	0.0154546
909.527	0.0153069
909.605	0.0154666
909.683	0.0153757
909.761	0.0154572
909.840	0.0154779
909.918	0.0153777
909.996	0.0155135
910.074	0.0154160
910.152	0.0154945
910.230	0.0154518
910.308	0.0155252
910.386	0.0154552
910.465	0.0153819
910.543	0.0153215
910.621	0.0153624
910.699	0.0153558
910.777	0.0154443
910.855	0.0153893
910.933	0.0154069
911.011	0.0153055
911.090	0.0154188
911.168	0.0154919
911.246	0.0154927
911.324	0.0153538
911.402	0.0154064
911.480	0.0154926
911.558	0.0155741
911.636	0.0155158
911.715	0.0154885
911.793	0.0155869
911.871	0.0154324
911.949	0.0153947
912.027	0.0154759
912.105	0.0155102
912.183	0.0154047
912.261	0.0154840
912.340	0.0154886
912.418	0.0154071
912.496	0.0153042
912.574	0.0153503
912.652	0.0154794
912.730	0.0153706
912.808	0.0154579
912.886	0.0154742
912.965	0.0152731
913.043	0.0154248
913.121	0.0153610
913.199	0.0153978
913.277	0.0153953
913.355	0.0153776
913.433	0.0153732
913.511	0.0153454
913.590	0.0153779
913.668	0.0154272
913.746	0.0154457
913.824	0.0152979
913.902	0.0153807
913.980	0.0153799
914.058	0.0155307
914.136	0.0153885
914.215	0.0154166
914.293	0.0153499
914.371	0.0155225
914.449	0.0155729
914.527	0.0155401
914.605	0.0153894
914.683	0.0154128
914.761	0.0154376
914.840	0.0154955
914.918	0.0155458
914.996	0.0153993
915.074	0.0154681
915.152	0.0155676
915.230	0.0154581
915.308	0.0153159
915.386	0.0155436
915.465	0.0154790
915.543	0.0155441
915.621	0.0154369
915.699	0.0153440
915.777	0.0154987
915.855	0.0155089
915.933	0.0154640
916.011	0.0153388
916.090	0.0153238
916.168	0.0153582
916.246	0.0153976
916.324	0.0153713
916.402	0.0152188
916.480	0.0153078
916.558	0.0153928
916.636	0.0155412
916.715	0.0152818
916.793	0.0153002
916.871	0.0155616
916.949	0.0153989
917.027	0.0154649
917.105	0.0155003
917.183	0.0153938
917.261	0.0153389
917.340	0.0154974
917.418	0.0156404
917.496	0.0157406
917.574	0.0155956
917.652	0.0155667
917.730	0.0156636
917.808	0.0156631
917.886	0.0156650
917.965	0.0156559
918.043	0.0156104
918.121	0.0156030
918.199	0.0155548
918.277	0.0153914
918.355	0.0155515
918.433	0.0153527
918.511	0.0152895
918.590	0.0152648
918.668	0.0151744
918.746	0.0152203
918.824	0.0150530
918.902	0.0151986
918.980	0.0151665
919.058	0.0150660
919.136	0.0152568
919.215	0.0150076
919.293	0.0152190
919.371	0.0153287
919.449	0.0152177
919.527	0.0152839
919.605	0.0153554
919.683	0.0154414
919.761	0.0154073
919.840	0.0155103
919.918	0.0154430
919.996	0.0155017
920.074	0.0154260
920.152	0.0155399
920.230	0.0155368
920.308	0.0156004
920.386	0.0156326
920.465	0.0155611
920.543	0.0156451
920.621	0.0156364
920.699	0.0158054
920.777	0.0156480
920.855	0.0156945
920.933	0.0155609
921.011	0.0155293
921.090	0.0155989
921.168	0.0156671
921.246	0.0154012
921.324	0.0155849
921.402	0.0155350
921.480	0.0153320
921.558	0.0154025
921.636	0.0154559
921.715	0.0153485
921.793	0.0151547
921.871	0.0154043
921.949	0.0152340
922.027	0.0153197
922.105	0.0152668
922.183	0.0152181
922.261	0.0153658
922.340	0.0153976
922.418	0.0153056
922.496	0.0153927
922.574	0.0155503
922.652	0.0155922
922.730	0.0155788
922.808	0.0154559
922.886	0.0155813
922.965	0.0155653
923.043	0.0157304
923.121	0.0156378
923.199	0.0159245
923.277	0.0158143
923.355	0.0158292
923.433	0.0159787
923.511	0.0157307
923.590	0.0157762
923.668	0.0157953
923.746	0.0157529
923.824	0.0156466
923.902	0.0154978
923.980	0.0154568
924.058	0.0155305
924.136	0.0154145
924.215	0.0153071
924.293	0.0152708
924.371	0.0152464
924.449	0.0151363
924.527	0.0150864
924.605	0.0150379
924.683	0.0150081
924.761	0.0151306
924.840	0.0150936
924.918	0.0150517
924.996	0.0151118
925.074	0.0153717
925.152	0.0152393
925.230	0.0152306
925.308	0.0154067
925.386	0.0154087
925.465	0.0154177
925.543	0.0155032
925.621	0.0153373
925.699	0.0156207
925.777	0.0156577
925.855	0.0155383
925.933	0.0156728
926.011	0.0155466
926.090	0.0156629
926.168	0.0156065
926.246	0.0156802
926.324	0.0157127
926.402	0.0156012
926.480	0.0155875
926.558	0.0155862
926.636	0.0155273
926.715	0.0155031
926.793	0.0154130
926.871	0.0154198
926.949	0.0152882
927.027	0.0152525
927.105	0.0154196
927.183	0.0153501
927.261	0.0151679
927.340	0.0152308
927.418	0.0150637
927.496	0.0151469
927.574	0.0152862
927.652	0.0152904
927.730	0.0153490
927.808	0.0153059
927.886	0.0153087
927.965	0.0154705
928.043	0.0155222
928.121	0.0154322
928.199	0.0154860
928.277	0.0155003
928.355	0.0154672
928.433	0.0154432
928.511	0.0155473
928.590	0.0155605
928.668	0.0154195
928.746	0.0156165
928.824	0.0156307
928.902	0.0155745
928.980	0.0154700
929.058	0.0156039
929.136	0.0154492
929.215	0.0156710
929.293	0.0156390
929.371	0.0155563
929.449	0.0157383
929.527	0.0156715
929.605	0.0156464
929.683	0.0157196
929.761	0.0157088
929.840	0.0156031
929.918	0.0155096
929.996	0.0156076
930.074	0.0157376
930.152	0.0155075
930.230	0.0155428
930.308	0.0154671
930.386	0.0154796
930.465	0.0153867
930.543	0.0154401
930.621	0.0152672
930.699	0.0152649
930.777	0.0154434
930.855	0.0153632
930.933	0.0153602
931.011	0.0153394
931.090	0.0153002
931.168	0.0153529
931.246	0.0153671
931.324	0.0154075
931.402	0.0153349
931.480	0.0153974
931.558	0.0152595
931.636	0.0155354
931.715	0.0153235
931.793	0.0154612
931.871	0.0154601
931.949	0.0154429
932.027	0.0153404
932.105	0.0155010
932.183	0.0154308
932.261	0.0153107
932.340	0.0153696
932.418	0.0154125
932.496	0.0152468
932.574	0.0151959
932.652	0.0150890
932.730	0.0152219
932.808	0.0153031
932.886	0.0152805
932.965	0.0152880
933.043	0.0153952
933.121	0.0152740
933.199	0.0152532
933.277	0.0153442
933.355	0.0153697
933.433	0.0154566
933.511	0.0154641
933.590	0.0155851
933.668	0.0154585
933.746	0.0154499
933.824	0.0156017
933.902	0.0155489
933.980	0.0155433
934.058	0.0156357
934.136	0.0154055
934.215	0.0153566
934.293	0.0156052
934.371	0.0156293
934.449	0.0155029
934.527	0.0154811
934.605	0.0154808
934.683	0.0153441
934.761	0.0155179
934.840	0.0155293
934.918	0.0154823
934.996	0.0155540
935.074	0.0156666
935.152	0.0155110
935.230	0.0157193
935.308	0.0156609
935.386	0.0156537
935.465	0.0154092
935.543	0.0155524
935.621	0.0155774
935.699	0.0153156
935.777	0.0154534
935.855	0.0155239
935.933	0.0154576
936.011	0.0154432
936.090	0.0153070
936.168	0.0152451
936.246	0.0152558
936.324	0.0153613
936.402	0.0153382
936.480	0.0153218
936.558	0.0153022
936.636	0.0152427
936.715	0.0154285
936.793	0.0154684
936.871	0.0153920
936.949	0.0154270
937.027	0.0154662
937.105	0.0155237
937.183	0.0154603
937.261	0.0156089
937.340	0.0154639
937.418	0.0153215
937.496	0.0154525
937.574	0.0154350
937.652	0.0152976
937.730	0.0153474
937.808	0.0154768
937.886	0.0154964
937.965	0.0153531
938.043	0.0153715
938.121	0.0155185
938.199	0.0153322
938.277	0.0153103
938.355	0.0154403
938.433	0.0154224
938.511	0.0154243
938.590	0.0155547
938.668	0.0153979
938.746	0.0153926
938.824	0.0154456
938.902	0.0155125
938.980	0.0154854
939.058	0.0153327
939.136	0.0155668
939.215	0.0154742
939.293	0.0155089
939.371	0.0155897
939.449	0.0153956
939.527	0.0155305
939.605	0.0155774
939.683	0.0156091
939.761	0.0155074
939.840	0.0155284
939.918	0.0156281
939.996	0.0156299
940.074	0.0156107
940.152	0.0154704
940.230	0.0156265
940.308	0.0156297
940.386	0.0156008
940.465	0.0154682
940.543	0.0154976
940.621	0.0154349
940.699	0.0154684
940.777	0.0154313
940.855	0.0155476
940.933	0.0153457
941.011	0.0152621
941.090	0.0153371
941.168	0.0153560
941.246	0.0154428
941.324	0.0153543
941.402	0.0154269
941.480	0.0154353
941.558	0.0153165
941.636	0.0153273
941.715	0.0152985
941.793	0.0154371
941.871	0.0155153
941.949	0.0154300
942.027	0.0153491
942.105	0.0155066
942.183	0.0153799
942.261	0.0154967
942.340	0.0155676
942.418	0.0155165
942.496	0.0155355
942.574	0.0155392
942.652	0.0155685
942.730	0.0154446
942.808	0.0155209
942.886	0.0155854
942.965	0.0154646
943.043	0.0154525
943.121	0.0156173
943.199	0.0154908
943.277	0.0154779
943.355	0.0156021
943.433	0.0155686
943.511	0.0155642
943.590	0.0155984
943.668	0.0154990
943.746	0.0153622
943.824	0.0155754
943.902	0.0155138
943.980	0.0154394
944.058	0.0153750
944.136	0.0154449
944.215	0.0155292
944.293	0.0153774
944.371	0.0154037
944.449	0.0154465
944.527	0.0153577
944.605	0.0153317
944.683	0.0151814
944.761	0.0153664
944.840	0.0155868
944.918	0.0155494
944.996	0.0154541
945.074	0.0154179
945.152	0.0156097
945.230	0.0155101
945.308	0.0154082
945.386	0.0155051
945.465	0.0155191
945.543	0.0154475
945.621	0.0154604
945.699	0.0155485
945.777	0.0155395
945.855	0.0153667
945.933	0.0154656
946.011	0.0153716
946.090	0.0154050
946.168	0.0153854
946.246	0.0153152
946.324	0.0153472
946.402	0.0152750
946.480	0.0153339
946.558	0.0152773
946.636	0.0152131
946.715	0.0152583
946.793	0.0153194
946.871	0.0152264
946.949	0.0153783
947.027	0.0155220
947.105	0.0154024
947.183	0.0154398
947.261	0.0155602
947.340	0.0154581
947.418	0.0154125
947.496	0.0156100
947.574	0.0154847
947.652	0.0154261
947.730	0.0154697
947.808	0.0156908
947.886	0.0156271
947.965	0.0154336
948.043	0.0154729
948.121	0.0156667
948.199	0.0155700
948.277	0.0155135
948.355	0.0155276
948.433	0.0155790
948.511	0.0156364
948.590	0.0155550
948.668	0.0153857
948.746	0.0154693
948.824	0.0156229
948.902	0.0154250
948.980	0.0154613
949.058	0.0154039
949.136	0.0153372
949.215	0.0152412
949.293	0.0153345
949.371	0.0153139
949.449	0.0154087
949.527	0.0153408
949.605	0.0154635
949.683	0.0155440
949.761	0.0155199
949.840	0.0153334
949.918	0.0153654
