06/29/2022	21:21:23	Ver.	4.1	UNKNOWN
Optical Delay	629.995835	Delta X		0.078125	Sweeps	1	Scan Rate	0/0
Coordinates	Axis 1	NaN	Axis 2	NaN	Axis 3	NaN	Axis 4	NaN	Axis 5	NaN	Axis 6	0.000000
TX Power	0.000000	RX Power	0.000000

629.996	0.0162629
630.074	0.0162691
630.152	0.0163342
630.230	0.0163546
630.308	0.0163322
630.386	0.0163868
630.465	0.0163317
630.543	0.0162962
630.621	0.0162061
630.699	0.0162572
630.777	0.0162283
630.855	0.0162325
630.933	0.0161969
631.011	0.0164079
631.090	0.0162402
631.168	0.0162427
631.246	0.0163296
631.324	0.0161523
631.402	0.0162735
631.480	0.0162858
631.558	0.0163238
631.636	0.0162075
631.715	0.0160728
631.793	0.0161562
631.871	0.0161951
631.949	0.0162016
632.027	0.0162234
632.105	0.0162898
632.183	0.0161966
632.261	0.0162239
632.340	0.0164138
632.418	0.0161180
632.496	0.0162051
632.574	0.0160798
632.652	0.0162938
632.730	0.0162484
632.808	0.0162494
632.886	0.0162026
632.965	0.0162069
633.043	0.0160609
633.121	0.0162342
633.199	0.0161758
633.277	0.0161724
633.355	0.0161976
633.433	0.0163508
633.511	0.0163474
633.590	0.0162049
633.668	0.0161392
633.746	0.0161007
633.824	0.0162874
633.902	0.0162161
633.980	0.0162516
634.058	0.0162767
634.136	0.0162474
634.215	0.0162758
634.293	0.0163521
634.371	0.0163213
634.449	0.0163042
634.527	0.0161781
634.605	0.0162595
634.683	0.0163251
634.761	0.0162630
634.840	0.0163750
634.918	0.0162945
634.996	0.0162469
635.074	0.0162713
635.152	0.0162187
635.230	0.0162852
635.308	0.0163979
635.386	0.0162541
635.465	0.0162757
635.543	0.0163773
635.621	0.0163193
635.699	0.0162072
635.777	0.0162972
635.855	0.0160922
635.933	0.0163720
636.011	0.0163478
636.090	0.0161691
636.168	0.0162463
636.246	0.0161314
636.324	0.0162768
636.402	0.0163154
636.480	0.0162585
636.558	0.0163173
636.636	0.0162268
636.715	0.0163197
636.793	0.0163133
636.871	0.0162730
636.949	0.0163908
637.027	0.0162724
637.105	0.0162749
637.183	0.0163361
637.261	0.0162926
637.340	0.0163171
637.418	0.0162246
637.496	0.0161842
637.574	0.0162316
637.652	0.0163936
637.730	0.0162633
637.808	0.0162648
637.886	0.0162453
637.965	0.0163384
638.043	0.0163628
638.121	0.0162979
638.199	0.0162921
638.277	0.0162516
638.355	0.0161746
638.433	0.0162862
638.511	0.0162900
638.590	0.0162973
638.668	0.0163751
638.746	0.0162598
638.824	0.0162267
638.902	0.0162258
638.980	0.0162291
639.058	0.0163278
639.136	0.0161362
639.215	0.0162498
639.293	0.0163882
639.371	0.0162834
639.449	0.0162077
639.527	0.0162051
639.605	0.0163834
639.683	0.0163976
639.761	0.0162409
639.840	0.0161278
639.918	0.0162727
639.996	0.0163879
640.074	0.0164756
640.152	0.0163294
640.230	0.0162627
640.308	0.0162945
640.386	0.0163853
640.465	0.0162490
640.543	0.0162416
640.621	0.0163123
640.699	0.0162793
640.777	0.0162464
640.855	0.0163617
640.933	0.0162904
641.011	0.0162847
641.090	0.0162495
641.168	0.0161904
641.246	0.0163904
641.324	0.0163815
641.402	0.0162764
641.480	0.0163823
641.558	0.0162399
641.636	0.0162935
641.715	0.0161927
641.793	0.0161557
641.871	0.0162226
641.949	0.0163152
642.027	0.0163166
642.105	0.0163448
642.183	0.0162976
642.261	0.0163237
642.340	0.0162309
642.418	0.0161842
642.496	0.0164184
642.574	0.0163085
642.652	0.0162313
642.730	0.0164433
642.808	0.0164671
642.886	0.0163598
642.965	0.0162645
643.043	0.0162369
643.121	0.0162920
643.199	0.0163569
643.277	0.0162207
643.355	0.0162819
643.433	0.0162347
643.511	0.0162064
643.590	0.0162589
643.668	0.0163312
643.746	0.0162450
643.824	0.0161658
643.902	0.0163243
643.980	0.0163843
644.058	0.0161478
644.136	0.0161486
644.215	0.0162685
644.293	0.0163026
644.371	0.0162441
644.449	0.0161797
644.527	0.0162724
644.605	0.0162539
644.683	0.0163150
644.761	0.0162805
644.840	0.0162819
644.918	0.0163576
644.996	0.0162886
645.074	0.0162131
645.152	0.0164020
645.230	0.0163644
645.308	0.0164088
645.386	0.0161357
645.465	0.0162832
645.543	0.0162450
645.621	0.0162514
645.699	0.0162534
645.777	0.0162437
645.855	0.0162359
645.933	0.0161709
646.011	0.0162645
646.090	0.0163106
646.168	0.0162496
646.246	0.0161887
646.324	0.0162881
646.402	0.0164534
646.480	0.0162750
646.558	0.0162273
646.636	0.0163840
646.715	0.0162343
646.793	0.0161688
646.871	0.0162362
646.949	0.0162486
647.027	0.0163881
647.105	0.0162951
647.183	0.0162412
647.261	0.0162672
647.340	0.0163749
647.418	0.0163838
647.496	0.0163834
647.574	0.0163471
647.652	0.0164334
647.730	0.0161169
647.808	0.0162148
647.886	0.0162972
647.965	0.0162321
648.043	0.0162801
648.121	0.0162151
648.199	0.0162518
648.277	0.0162528
648.355	0.0162608
648.433	0.0162778
648.511	0.0163585
648.590	0.0163194
648.668	0.0162131
648.746	0.0162448
648.824	0.0162045
648.902	0.0162262
648.980	0.0163428
649.058	0.0163557
649.136	0.0163091
649.215	0.0162457
649.293	0.0162614
649.371	0.0164137
649.449	0.0162589
649.527	0.0161689
649.605	0.0162804
649.683	0.0163790
649.761	0.0164206
649.840	0.0163171
649.918	0.0162426
649.996	0.0162064
650.074	0.0162766
650.152	0.0162108
650.230	0.0162961
650.308	0.0162431
650.386	0.0162108
650.465	0.0164019
650.543	0.0161695
650.621	0.0162170
650.699	0.0163190
650.777	0.0162085
650.855	0.0159850
650.933	0.0160685
651.011	0.0161362
651.090	0.0162491
651.168	0.0162856
651.246	0.0161807
651.324	0.0162873
651.402	0.0161738
651.480	0.0162368
651.558	0.0161951
651.636	0.0162902
651.715	0.0161795
651.793	0.0161724
651.871	0.0162479
651.949	0.0162310
652.027	0.0161738
652.105	0.0162408
652.183	0.0162849
652.261	0.0163976
652.340	0.0162038
652.418	0.0162062
652.496	0.0162627
652.574	0.0161396
652.652	0.0162241
652.730	0.0161686
652.808	0.0162440
652.886	0.0161951
652.965	0.0162947
653.043	0.0161931
653.121	0.0161855
653.199	0.0162742
653.277	0.0160841
653.355	0.0163673
653.433	0.0162277
653.511	0.0161936
653.590	0.0162755
653.668	0.0162550
653.746	0.0162429
653.824	0.0162073
653.902	0.0162466
653.980	0.0162270
654.058	0.0160470
654.136	0.0162751
654.215	0.0162559
654.293	0.0162542
654.371	0.0162937
654.449	0.0164116
654.527	0.0163036
654.605	0.0161138
654.683	0.0162827
654.761	0.0163364
654.840	0.0162516
654.918	0.0162123
654.996	0.0162357
655.074	0.0161723
655.152	0.0162662
655.230	0.0163113
655.308	0.0162283
655.386	0.0161373
655.465	0.0163299
655.543	0.0162364
655.621	0.0162036
655.699	0.0162913
655.777	0.0161866
655.855	0.0162728
655.933	0.0162526
656.011	0.0162254
656.090	0.0163532
656.168	0.0162492
656.246	0.0162176
656.324	0.0162470
656.402	0.0161520
656.480	0.0162425
656.558	0.0162685
656.636	0.0161972
656.715	0.0162045
656.793	0.0163387
656.871	0.0163003
656.949	0.0162660
657.027	0.0162769
657.105	0.0161263
657.183	0.0161991
657.261	0.0163644
657.340	0.0162846
657.418	0.0162341
657.496	0.0161283
657.574	0.0163083
657.652	0.0163490
657.730	0.0163863
657.808	0.0162798
657.886	0.0162630
657.965	0.0162478
658.043	0.0163169
658.121	0.0162971
658.199	0.0162808
658.277	0.0162807
658.355	0.0162838
658.433	0.0160687
658.511	0.0161496
658.590	0.0163735
658.668	0.0162529
658.746	0.0161340
658.824	0.0162415
658.902	0.0162636
658.980	0.0162612
659.058	0.0161288
659.136	0.0162411
659.215	0.0163931
659.293	0.0163980
659.371	0.0161856
659.449	0.0162199
659.527	0.0163230
659.605	0.0162239
659.683	0.0162939
659.761	0.0162907
659.840	0.0161972
659.918	0.0161933
659.996	0.0160746
660.074	0.0162936
660.152	0.0162843
660.230	0.0161198
660.308	0.0162879
660.386	0.0161613
660.465	0.0162277
660.543	0.0163056
660.621	0.0163340
660.699	0.0163412
660.777	0.0161642
660.855	0.0163235
660.933	0.0162291
661.011	0.0162411
661.090	0.0163168
661.168	0.0162690
661.246	0.0162548
661.324	0.0162328
661.402	0.0162257
661.480	0.0161561
661.558	0.0164093
661.636	0.0163217
661.715	0.0162186
661.793	0.0162912
661.871	0.0162882
661.949	0.0161986
662.027	0.0161192
662.105	0.0163622
662.183	0.0163840
662.261	0.0163302
662.340	0.0162708
662.418	0.0163758
662.496	0.0162978
662.574	0.0161902
662.652	0.0163081
662.730	0.0163452
662.808	0.0162836
662.886	0.0163262
662.965	0.0163666
663.043	0.0161900
663.121	0.0162448
663.199	0.0163448
663.277	0.0162299
663.355	0.0162325
663.433	0.0163542
663.511	0.0163378
663.590	0.0163111
663.668	0.0161943
663.746	0.0162425
663.824	0.0162119
663.902	0.0162573
663.980	0.0162943
664.058	0.0162739
664.136	0.0163313
664.215	0.0163387
664.293	0.0162164
664.371	0.0162807
664.449	0.0163479
664.527	0.0162907
664.605	0.0162296
664.683	0.0162944
664.761	0.0163196
664.840	0.0162720
664.918	0.0161658
664.996	0.0161835
665.074	0.0162515
665.152	0.0163739
665.230	0.0163400
665.308	0.0163699
665.386	0.0162316
665.465	0.0161255
665.543	0.0162023
665.621	0.0160914
665.699	0.0163094
665.777	0.0162843
665.855	0.0163150
665.933	0.0161611
666.011	0.0162040
666.090	0.0163176
666.168	0.0164398
666.246	0.0162559
666.324	0.0164336
666.402	0.0162718
666.480	0.0162341
666.558	0.0162752
666.636	0.0162165
666.715	0.0163161
666.793	0.0163714
666.871	0.0163025
666.949	0.0161840
667.027	0.0161735
667.105	0.0163004
667.183	0.0162584
667.261	0.0162971
667.340	0.0162827
667.418	0.0162431
667.496	0.0161797
667.574	0.0162689
667.652	0.0163019
667.730	0.0161291
667.808	0.0161752
667.886	0.0163155
667.965	0.0162759
668.043	0.0162594
668.121	0.0163277
668.199	0.0163751
668.277	0.0161140
668.355	0.0162965
668.433	0.0163818
668.511	0.0164238
668.590	0.0163621
668.668	0.0162301
668.746	0.0163127
668.824	0.0162061
668.902	0.0163233
668.980	0.0162833
669.058	0.0163345
669.136	0.0162002
669.215	0.0162899
669.293	0.0163435
669.371	0.0162716
669.449	0.0163489
669.527	0.0163713
669.605	0.0162212
669.683	0.0162228
669.761	0.0164541
669.840	0.0161940
669.918	0.0163310
669.996	0.0162560
670.074	0.0163213
670.152	0.0162050
670.230	0.0163166
670.308	0.0162407
670.386	0.0161335
670.465	0.0162565
670.543	0.0163094
670.621	0.0161861
670.699	0.0161507
670.777	0.0163417
670.855	0.0164346
670.933	0.0162720
671.011	0.0161143
671.090	0.0161344
671.168	0.0161329
671.246	0.0161484
671.324	0.0161605
671.402	0.0162428
671.480	0.0163118
671.558	0.0163165
671.636	0.0162936
671.715	0.0161088
671.793	0.0162523
671.871	0.0162936
671.949	0.0162968
672.027	0.0163183
672.105	0.0162439
672.183	0.0164281
672.261	0.0162228
672.340	0.0161912
672.418	0.0161774
672.496	0.0160691
672.574	0.0162337
672.652	0.0162093
672.730	0.0164123
672.808	0.0161537
672.886	0.0161558
672.965	0.0162562
673.043	0.0161781
673.121	0.0162222
673.199	0.0160889
673.277	0.0162454
673.355	0.0162049
673.433	0.0161861
673.511	0.0162376
673.590	0.0161555
673.668	0.0163379
673.746	0.0161414
673.824	0.0161808
673.902	0.0162592
673.980	0.0163920
674.058	0.0162263
674.136	0.0161482
674.215	0.0162959
674.293	0.0163348
674.371	0.0162814
674.449	0.0161712
674.527	0.0162321
674.605	0.0163129
674.683	0.0162925
674.761	0.0163655
674.840	0.0163136
674.918	0.0161580
674.996	0.0162715
675.074	0.0163670
675.152	0.0162227
675.230	0.0163019
675.308	0.0163513
675.386	0.0160765
675.465	0.0162627
675.543	0.0164339
675.621	0.0162431
675.699	0.0163343
675.777	0.0161640
675.855	0.0161505
675.933	0.0161700
676.011	0.0161930
676.090	0.0162364
676.168	0.0162709
676.246	0.0163029
676.324	0.0161611
676.402	0.0163243
676.480	0.0163385
676.558	0.0161858
676.636	0.0161597
676.715	0.0162151
676.793	0.0161458
676.871	0.0163485
676.949	0.0162308
677.027	0.0162572
677.105	0.0163647
677.183	0.0162961
677.261	0.0162582
677.340	0.0161951
677.418	0.0161557
677.496	0.0161706
677.574	0.0161670
677.652	0.0163274
677.730	0.0162650
677.808	0.0161420
677.886	0.0161444
677.965	0.0162606
678.043	0.0162936
678.121	0.0163275
678.199	0.0163960
678.277	0.0162491
678.355	0.0162682
678.433	0.0162897
678.511	0.0163181
678.590	0.0162178
678.668	0.0162267
678.746	0.0163208
678.824	0.0161900
678.902	0.0161995
678.980	0.0162083
679.058	0.0162617
679.136	0.0163079
679.215	0.0162591
679.293	0.0162099
679.371	0.0162518
679.449	0.0163604
679.527	0.0164775
679.605	0.0163435
679.683	0.0163204
679.761	0.0163817
679.840	0.0163422
679.918	0.0161855
679.996	0.0163577
680.074	0.0163464
680.152	0.0162294
680.230	0.0162926
680.308	0.0161275
680.386	0.0161872
680.465	0.0161690
680.543	0.0161227
680.621	0.0163476
680.699	0.0162398
680.777	0.0163161
680.855	0.0162906
680.933	0.0162370
681.011	0.0163587
681.090	0.0162424
681.168	0.0162075
681.246	0.0163689
681.324	0.0162717
681.402	0.0161387
681.480	0.0162027
681.558	0.0162003
681.636	0.0162560
681.715	0.0162462
681.793	0.0163271
681.871	0.0162386
681.949	0.0161768
682.027	0.0162917
682.105	0.0163171
682.183	0.0162624
682.261	0.0163106
682.340	0.0162897
682.418	0.0162798
682.496	0.0161955
682.574	0.0163455
682.652	0.0162829
682.730	0.0163213
682.808	0.0162333
682.886	0.0161182
682.965	0.0161114
683.043	0.0161519
683.121	0.0162158
683.199	0.0161294
683.277	0.0162956
683.355	0.0161745
683.433	0.0162952
683.511	0.0163488
683.590	0.0165128
683.668	0.0163925
683.746	0.0163004
683.824	0.0164264
683.902	0.0163419
683.980	0.0162922
684.058	0.0162754
684.136	0.0161880
684.215	0.0160461
684.293	0.0161205
684.371	0.0163133
684.449	0.0161815
684.527	0.0160709
684.605	0.0161103
684.683	0.0162794
684.761	0.0162490
684.840	0.0162711
684.918	0.0163630
684.996	0.0163823
685.074	0.0163028
685.152	0.0164236
685.230	0.0164212
685.308	0.0164232
685.386	0.0162832
685.465	0.0162009
685.543	0.0163345
685.621	0.0163309
685.699	0.0162261
685.777	0.0164532
685.855	0.0162277
685.933	0.0161747
686.011	0.0163341
686.090	0.0161704
686.168	0.0161858
686.246	0.0163167
686.324	0.0162870
686.402	0.0162939
686.480	0.0163998
686.558	0.0162722
686.636	0.0163306
686.715	0.0162643
686.793	0.0161901
686.871	0.0163078
686.949	0.0162682
687.027	0.0162806
687.105	0.0162452
687.183	0.0161478
687.261	0.0161848
687.340	0.0162918
687.418	0.0162742
687.496	0.0162605
687.574	0.0163197
687.652	0.0163187
687.730	0.0163284
687.808	0.0163293
687.886	0.0164357
687.965	0.0163715
688.043	0.0163773
688.121	0.0165005
688.199	0.0163400
688.277	0.0163229
688.355	0.0161565
688.433	0.0163162
688.511	0.0161650
688.590	0.0161156
688.668	0.0161372
688.746	0.0161040
688.824	0.0161863
688.902	0.0162908
688.980	0.0161583
689.058	0.0161545
689.136	0.0163060
689.215	0.0163159
689.293	0.0162406
689.371	0.0163227
689.449	0.0164838
689.527	0.0162932
689.605	0.0163191
689.683	0.0164370
689.761	0.0164747
689.840	0.0162756
689.918	0.0162073
689.996	0.0162206
690.074	0.0161375
690.152	0.0162514
690.230	0.0162616
690.308	0.0163210
690.386	0.0162799
690.465	0.0163338
690.543	0.0162735
690.621	0.0163367
690.699	0.0163890
690.777	0.0164071
690.855	0.0162550
690.933	0.0161768
691.011	0.0162446
691.090	0.0161597
691.168	0.0160442
691.246	0.0160503
691.324	0.0159568
691.402	0.0159624
691.480	0.0160147
691.558	0.0162020
691.636	0.0162105
691.715	0.0162359
691.793	0.0163843
691.871	0.0163964
691.949	0.0165805
692.027	0.0164328
692.105	0.0165672
692.183	0.0165435
692.261	0.0164516
692.340	0.0163715
692.418	0.0163316
692.496	0.0161403
692.574	0.0161719
692.652	0.0161028
692.730	0.0160857
692.808	0.0159926
692.886	0.0159570
692.965	0.0159922
693.043	0.0159293
693.121	0.0160262
693.199	0.0161834
693.277	0.0161672
693.355	0.0160259
693.433	0.0163232
693.511	0.0164301
693.590	0.0164375
693.668	0.0165710
693.746	0.0164456
693.824	0.0164678
693.902	0.0164156
693.980	0.0163284
694.058	0.0164088
694.136	0.0163315
694.215	0.0162464
694.293	0.0161856
694.371	0.0161811
694.449	0.0160835
694.527	0.0160497
694.605	0.0162036
694.683	0.0161832
694.761	0.0161663
694.840	0.0163065
694.918	0.0161040
694.996	0.0162352
695.074	0.0161642
695.152	0.0162554
695.230	0.0163117
695.308	0.0161137
695.386	0.0163447
695.465	0.0162910
695.543	0.0161649
695.621	0.0162080
695.699	0.0163203
695.777	0.0163154
695.855	0.0163995
695.933	0.0163012
696.011	0.0162430
696.090	0.0162150
696.168	0.0162354
696.246	0.0163372
696.324	0.0162550
696.402	0.0161776
696.480	0.0163871
696.558	0.0162060
696.636	0.0162471
696.715	0.0162736
696.793	0.0161929
696.871	0.0161909
696.949	0.0161642
697.027	0.0161921
697.105	0.0163754
697.183	0.0163469
697.261	0.0163453
697.340	0.0163704
697.418	0.0163040
697.496	0.0163162
697.574	0.0162994
697.652	0.0161731
697.730	0.0161452
697.808	0.0160354
697.886	0.0159901
697.965	0.0161201
698.043	0.0159536
698.121	0.0160771
698.199	0.0160712
698.277	0.0162622
698.355	0.0162579
698.433	0.0163378
698.511	0.0167090
698.590	0.0164889
698.668	0.0165250
698.746	0.0164892
698.824	0.0163634
698.902	0.0162614
698.980	0.0161375
699.058	0.0161209
699.136	0.0160886
699.215	0.0159507
699.293	0.0159691
699.371	0.0161001
699.449	0.0160589
699.527	0.0161124
699.605	0.0160132
699.683	0.0162203
699.761	0.0161956
699.840	0.0163174
699.918	0.0165519
699.996	0.0163531
700.074	0.0164615
700.152	0.0164986
700.230	0.0166765
700.308	0.0165108
700.386	0.0165367
700.465	0.0164651
700.543	0.0163350
700.621	0.0163838
700.699	0.0162513
700.777	0.0161859
700.855	0.0162531
700.933	0.0161912
701.011	0.0161343
701.090	0.0161436
701.168	0.0160778
701.246	0.0163164
701.324	0.0163047
701.402	0.0162408
701.480	0.0162708
701.558	0.0162940
701.636	0.0163008
701.715	0.0163618
701.793	0.0164011
701.871	0.0163622
701.949	0.0162159
702.027	0.0161460
702.105	0.0163824
702.183	0.0162064
702.261	0.0162621
702.340	0.0161073
702.418	0.0160963
702.496	0.0162364
702.574	0.0161550
702.652	0.0162518
702.730	0.0161803
702.808	0.0161256
702.886	0.0161780
702.965	0.0161717
703.043	0.0161018
703.121	0.0161894
703.199	0.0162054
703.277	0.0161377
703.355	0.0163236
703.433	0.0163438
703.511	0.0163976
703.590	0.0163408
703.668	0.0163639
703.746	0.0164227
703.824	0.0164661
703.902	0.0164584
703.980	0.0164658
704.058	0.0163943
704.136	0.0164041
704.215	0.0164167
704.293	0.0163278
704.371	0.0163176
704.449	0.0163213
704.527	0.0163996
704.605	0.0162860
704.683	0.0163577
704.761	0.0163622
704.840	0.0164035
704.918	0.0163478
704.996	0.0164346
705.074	0.0164219
705.152	0.0165327
705.230	0.0164144
705.308	0.0164233
705.386	0.0164767
705.465	0.0165667
705.543	0.0164553
705.621	0.0165036
705.699	0.0163431
705.777	0.0162588
705.855	0.0162388
705.933	0.0162314
706.011	0.0161452
706.090	0.0160600
706.168	0.0159231
706.246	0.0160210
706.324	0.0160912
706.402	0.0160646
706.480	0.0159722
706.558	0.0161720
706.636	0.0161322
706.715	0.0161868
706.793	0.0162016
706.871	0.0161795
706.949	0.0161290
707.027	0.0161825
707.105	0.0162066
707.183	0.0160586
707.261	0.0159112
707.340	0.0160986
707.418	0.0161587
707.496	0.0161017
707.574	0.0160295
707.652	0.0160748
707.730	0.0161858
707.808	0.0160729
707.886	0.0161703
707.965	0.0162209
708.043	0.0163139
708.121	0.0163042
708.199	0.0163527
708.277	0.0166243
708.355	0.0164971
708.433	0.0165689
708.511	0.0164658
708.590	0.0165360
708.668	0.0165253
708.746	0.0165032
708.824	0.0166019
708.902	0.0164407
708.980	0.0164133
709.058	0.0164867
709.136	0.0165874
709.215	0.0163164
709.293	0.0163219
709.371	0.0163225
709.449	0.0163969
709.527	0.0163181
709.605	0.0162439
709.683	0.0163100
709.761	0.0163725
709.840	0.0163313
709.918	0.0163964
709.996	0.0161877
710.074	0.0162560
710.152	0.0162536
710.230	0.0162782
710.308	0.0161069
710.386	0.0159820
710.465	0.0161664
710.543	0.0160979
710.621	0.0161799
710.699	0.0159701
710.777	0.0161452
710.855	0.0159434
710.933	0.0159743
711.011	0.0161208
711.090	0.0161011
711.168	0.0160440
711.246	0.0160457
711.324	0.0162856
711.402	0.0161105
711.480	0.0163889
711.558	0.0163974
711.636	0.0164465
711.715	0.0165190
711.793	0.0164166
711.871	0.0166084
711.949	0.0164449
712.027	0.0164762
712.105	0.0164358
712.183	0.0164314
712.261	0.0165287
712.340	0.0163619
712.418	0.0164612
712.496	0.0164037
712.574	0.0164006
712.652	0.0162478
712.730	0.0161543
712.808	0.0161870
712.886	0.0162273
712.965	0.0160318
713.043	0.0160962
713.121	0.0160735
713.199	0.0159837
713.277	0.0161169
713.355	0.0160347
713.433	0.0160686
713.511	0.0159391
713.590	0.0160746
713.668	0.0159168
713.746	0.0161441
713.824	0.0161913
713.902	0.0162811
713.980	0.0164330
714.058	0.0162831
714.136	0.0163103
714.215	0.0163335
714.293	0.0162830
714.371	0.0164291
714.449	0.0164861
714.527	0.0163119
714.605	0.0164220
714.683	0.0163235
714.761	0.0162508
714.840	0.0162206
714.918	0.0162841
714.996	0.0162094
715.074	0.0163039
715.152	0.0163147
715.230	0.0163103
715.308	0.0162304
715.386	0.0162016
715.465	0.0162064
715.543	0.0160615
715.621	0.0162046
715.699	0.0161781
715.777	0.0162850
715.855	0.0161483
715.933	0.0160751
716.011	0.0161977
716.090	0.0161301
716.168	0.0161328
716.246	0.0163186
716.324	0.0163503
716.402	0.0164347
716.480	0.0165233
716.558	0.0165213
716.636	0.0164914
716.715	0.0166281
716.793	0.0166657
716.871	0.0166360
716.949	0.0166083
717.027	0.0166842
717.105	0.0166405
717.183	0.0165729
717.261	0.0164287
717.340	0.0165294
717.418	0.0164397
717.496	0.0163711
717.574	0.0163564
717.652	0.0164284
717.730	0.0162685
717.808	0.0162044
717.886	0.0161965
717.965	0.0160921
718.043	0.0160422
718.121	0.0159892
718.199	0.0160093
718.277	0.0160883
718.355	0.0159569
718.433	0.0158420
718.511	0.0159313
718.590	0.0158817
718.668	0.0158694
718.746	0.0159457
718.824	0.0159830
718.902	0.0158810
718.980	0.0158598
719.058	0.0159464
719.136	0.0159482
719.215	0.0158794
719.293	0.0159952
719.371	0.0160474
719.449	0.0158017
719.527	0.0160077
719.605	0.0161961
719.683	0.0161421
719.761	0.0161754
719.840	0.0161909
719.918	0.0162830
719.996	0.0162121
720.074	0.0162261
720.152	0.0162552
720.230	0.0165991
720.308	0.0165602
720.386	0.0164120
720.465	0.0164438
720.543	0.0165382
720.621	0.0163750
720.699	0.0165977
720.777	0.0166553
720.855	0.0164980
720.933	0.0164985
721.011	0.0166154
721.090	0.0167191
721.168	0.0165558
721.246	0.0164320
721.324	0.0164639
721.402	0.0161359
721.480	0.0162136
721.558	0.0161856
721.636	0.0161179
721.715	0.0161033
721.793	0.0158589
721.871	0.0158892
721.949	0.0159348
722.027	0.0158228
722.105	0.0159371
722.183	0.0159305
722.261	0.0159222
722.340	0.0161121
722.418	0.0159792
722.496	0.0161813
722.574	0.0162090
722.652	0.0164060
722.730	0.0164201
722.808	0.0163120
722.886	0.0166118
722.965	0.0165536
723.043	0.0166494
723.121	0.0166819
723.199	0.0166663
723.277	0.0168518
723.355	0.0168131
723.433	0.0166705
723.511	0.0167468
723.590	0.0167081
723.668	0.0167086
723.746	0.0167377
723.824	0.0167544
723.902	0.0167860
723.980	0.0167921
724.058	0.0166775
724.136	0.0164939
724.215	0.0165762
724.293	0.0164494
724.371	0.0166470
724.449	0.0164352
724.527	0.0163315
724.605	0.0162354
724.683	0.0160829
724.761	0.0160743
724.840	0.0160777
724.918	0.0160165
724.996	0.0159176
725.074	0.0160313
725.152	0.0158921
725.230	0.0157671
725.308	0.0157957
725.386	0.0158218
725.465	0.0158813
725.543	0.0157737
725.621	0.0158618
725.699	0.0157859
725.777	0.0158672
725.855	0.0159097
725.933	0.0160001
726.011	0.0158678
726.090	0.0159546
726.168	0.0160565
726.246	0.0159845
726.324	0.0162038
726.402	0.0162198
726.480	0.0160477
726.558	0.0162913
726.636	0.0163567
726.715	0.0163072
726.793	0.0162167
726.871	0.0162620
726.949	0.0162179
727.027	0.0161936
727.105	0.0162763
727.183	0.0162322
727.261	0.0161546
727.340	0.0160477
727.418	0.0159718
727.496	0.0160016
727.574	0.0159789
727.652	0.0158450
727.730	0.0158375
727.808	0.0160176
727.886	0.0159449
727.965	0.0160644
728.043	0.0161825
728.121	0.0163070
728.199	0.0163438
728.277	0.0163706
728.355	0.0164966
728.433	0.0165117
728.511	0.0164848
728.590	0.0165117
728.668	0.0167131
728.746	0.0166367
728.824	0.0165605
728.902	0.0163740
728.980	0.0165226
729.058	0.0164195
729.136	0.0164062
729.215	0.0163528
729.293	0.0162755
729.371	0.0161818
729.449	0.0162766
729.527	0.0162415
729.605	0.0161890
729.683	0.0162411
729.761	0.0163326
729.840	0.0162083
729.918	0.0161404
729.996	0.0162144
730.074	0.0162689
730.152	0.0161349
730.230	0.0162142
730.308	0.0163530
730.386	0.0160705
730.465	0.0160780
730.543	0.0161009
730.621	0.0161351
730.699	0.0160577
730.777	0.0160913
730.855	0.0162556
730.933	0.0162258
731.011	0.0161894
731.090	0.0162595
731.168	0.0164502
731.246	0.0164699
731.324	0.0166411
731.402	0.0167052
731.480	0.0166750
731.558	0.0167838
731.636	0.0168230
731.715	0.0168700
731.793	0.0169786
731.871	0.0170025
731.949	0.0168483
732.027	0.0170708
732.105	0.0169421
732.183	0.0168591
732.261	0.0169647
732.340	0.0168103
732.418	0.0167287
732.496	0.0165531
732.574	0.0165590
732.652	0.0163803
732.730	0.0161639
732.808	0.0159914
732.886	0.0158729
732.965	0.0157162
733.043	0.0155991
733.121	0.0154191
733.199	0.0152668
733.277	0.0151936
733.355	0.0150397
733.433	0.0150109
733.511	0.0151014
733.590	0.0148988
733.668	0.0150320
733.746	0.0150100
733.824	0.0148897
733.902	0.0148343
733.980	0.0151537
734.058	0.0151826
734.136	0.0152023
734.215	0.0152847
734.293	0.0155677
734.371	0.0157654
734.449	0.0158643
734.527	0.0160742
734.605	0.0162507
734.683	0.0162641
734.761	0.0164617
734.840	0.0166751
734.918	0.0167679
734.996	0.0168356
735.074	0.0168993
735.152	0.0170166
735.230	0.0170770
735.308	0.0170722
735.386	0.0170750
735.465	0.0171127
735.543	0.0171508
735.621	0.0170506
735.699	0.0169211
735.777	0.0169498
735.855	0.0169558
735.933	0.0166478
736.011	0.0167849
736.090	0.0167590
736.168	0.0166539
736.246	0.0165457
736.324	0.0165071
736.402	0.0165320
736.480	0.0164547
736.558	0.0164784
736.636	0.0163377
736.715	0.0163562
736.793	0.0164989
736.871	0.0162807
736.949	0.0164518
737.027	0.0165285
737.105	0.0164752
737.183	0.0166455
737.261	0.0167014
737.340	0.0166567
737.418	0.0165370
737.496	0.0166646
737.574	0.0166879
737.652	0.0166858
737.730	0.0166042
737.808	0.0165082
737.886	0.0165985
737.965	0.0165747
738.043	0.0163416
738.121	0.0164083
738.199	0.0164229
738.277	0.0164558
738.355	0.0162719
738.433	0.0162729
738.511	0.0163496
738.590	0.0162904
738.668	0.0161486
738.746	0.0161862
738.824	0.0162825
738.902	0.0161732
738.980	0.0161462
739.058	0.0160982
739.136	0.0161167
739.215	0.0160556
739.293	0.0160145
739.371	0.0158772
739.449	0.0161702
739.527	0.0160513
739.605	0.0159831
739.683	0.0158923
739.761	0.0160561
739.840	0.0160014
739.918	0.0158852
739.996	0.0157632
740.074	0.0157670
740.152	0.0157832
740.230	0.0156403
740.308	0.0155963
740.386	0.0156422
740.465	0.0154967
740.543	0.0154560
740.621	0.0153111
740.699	0.0152628
740.777	0.0154386
740.855	0.0153870
740.933	0.0153046
741.011	0.0152740
741.090	0.0152216
741.168	0.0152923
741.246	0.0153255
741.324	0.0154977
741.402	0.0155596
741.480	0.0157204
741.558	0.0158894
741.636	0.0160519
741.715	0.0161782
741.793	0.0163225
741.871	0.0164969
741.949	0.0165902
742.027	0.0170354
742.105	0.0170985
742.183	0.0170614
742.261	0.0171920
742.340	0.0172702
742.418	0.0172891
742.496	0.0173244
742.574	0.0174188
742.652	0.0174086
742.730	0.0174156
742.808	0.0172086
742.886	0.0171327
742.965	0.0170406
743.043	0.0169299
743.121	0.0168349
743.199	0.0167343
743.277	0.0165473
743.355	0.0165491
743.433	0.0164938
743.511	0.0163404
743.590	0.0164268
743.668	0.0162061
743.746	0.0162320
743.824	0.0161596
743.902	0.0162443
743.980	0.0162614
744.058	0.0164140
744.136	0.0161723
744.215	0.0162599
744.293	0.0163608
744.371	0.0162108
744.449	0.0164210
744.527	0.0164409
744.605	0.0163982
744.683	0.0163999
744.761	0.0164526
744.840	0.0164383
744.918	0.0164998
744.996	0.0164792
745.074	0.0164357
745.152	0.0163730
745.230	0.0163161
745.308	0.0164306
745.386	0.0164761
745.465	0.0164878
745.543	0.0163470
745.621	0.0162569
745.699	0.0162676
745.777	0.0163676
745.855	0.0162897
745.933	0.0163541
746.011	0.0163432
746.090	0.0163634
746.168	0.0163103
746.246	0.0163303
746.324	0.0164700
746.402	0.0164779
746.480	0.0163931
746.558	0.0164195
746.636	0.0165977
746.715	0.0165594
746.793	0.0162380
746.871	0.0162937
746.949	0.0161234
747.027	0.0159357
747.105	0.0158671
747.183	0.0156822
747.261	0.0154853
747.340	0.0153447
747.418	0.0154061
747.496	0.0153090
747.574	0.0151989
747.652	0.0150559
747.730	0.0150492
747.808	0.0149474
747.886	0.0148489
747.965	0.0150087
748.043	0.0149839
748.121	0.0150983
748.199	0.0151171
748.277	0.0152789
748.355	0.0154801
748.433	0.0155111
748.511	0.0155131
748.590	0.0156852
748.668	0.0158369
748.746	0.0160273
748.824	0.0159600
748.902	0.0161641
748.980	0.0164683
749.058	0.0166292
749.136	0.0166476
749.215	0.0167084
749.293	0.0168915
749.371	0.0170187
749.449	0.0170106
749.527	0.0169091
749.605	0.0170770
749.683	0.0169386
749.761	0.0169765
749.840	0.0169775
749.918	0.0168176
749.996	0.0168645
750.074	0.0167741
750.152	0.0167496
750.230	0.0167643
750.308	0.0168095
750.386	0.0167782
750.465	0.0167781
750.543	0.0168751
750.621	0.0168544
750.699	0.0169376
750.777	0.0168685
750.855	0.0168137
750.933	0.0168266
751.011	0.0168919
751.090	0.0169922
751.168	0.0170313
751.246	0.0169038
751.324	0.0168022
751.402	0.0168929
751.480	0.0167984
751.558	0.0167730
751.636	0.0167912
751.715	0.0167870
751.793	0.0167343
751.871	0.0165334
751.949	0.0163148
752.027	0.0163044
752.105	0.0161369
752.183	0.0161440
752.261	0.0159772
752.340	0.0159151
752.418	0.0158177
752.496	0.0156686
752.574	0.0157205
752.652	0.0155679
752.730	0.0156839
752.808	0.0155872
752.886	0.0156350
752.965	0.0156040
753.043	0.0157958
753.121	0.0156267
753.199	0.0157668
753.277	0.0159493
753.355	0.0159152
753.433	0.0160474
753.511	0.0163212
753.590	0.0162232
753.668	0.0163712
753.746	0.0165773
753.824	0.0165054
753.902	0.0166041
753.980	0.0166998
754.058	0.0165801
754.136	0.0167014
754.215	0.0166206
754.293	0.0163283
754.371	0.0162696
754.449	0.0163000
754.527	0.0162177
754.605	0.0160336
754.683	0.0158167
754.761	0.0158633
754.840	0.0157460
754.918	0.0156332
754.996	0.0154781
755.074	0.0154147
755.152	0.0154407
755.230	0.0154272
755.308	0.0152926
755.386	0.0153849
755.465	0.0154707
755.543	0.0155478
755.621	0.0155196
755.699	0.0156280
755.777	0.0157967
755.855	0.0157427
755.933	0.0158495
756.011	0.0160457
756.090	0.0162305
756.168	0.0162731
756.246	0.0162488
756.324	0.0162818
756.402	0.0164164
756.480	0.0163448
756.558	0.0165678
756.636	0.0165742
756.715	0.0165892
756.793	0.0164659
756.871	0.0163416
756.949	0.0165442
757.027	0.0165097
757.105	0.0164468
757.183	0.0165503
757.261	0.0164803
757.340	0.0163898
757.418	0.0162938
757.496	0.0162740
757.574	0.0162613
757.652	0.0163769
757.730	0.0162907
757.808	0.0165035
757.886	0.0164333
757.965	0.0166270
758.043	0.0166933
758.121	0.0168090
758.199	0.0168320
758.277	0.0170728
758.355	0.0170613
758.433	0.0172221
758.511	0.0172678
758.590	0.0174418
758.668	0.0174333
758.746	0.0174626
758.824	0.0174603
758.902	0.0175620
758.980	0.0174208
759.058	0.0173138
759.136	0.0171611
759.215	0.0170683
759.293	0.0169006
759.371	0.0166757
759.449	0.0165871
759.527	0.0163853
759.605	0.0161488
759.683	0.0158292
759.761	0.0156748
759.840	0.0156373
759.918	0.0155056
759.996	0.0151932
760.074	0.0152467
760.152	0.0152699
760.230	0.0150456
760.308	0.0150704
760.386	0.0150619
760.465	0.0151731
760.543	0.0153036
760.621	0.0154400
760.699	0.0154641
760.777	0.0157698
760.855	0.0157490
760.933	0.0159399
761.011	0.0160963
761.090	0.0162548
761.168	0.0163510
761.246	0.0164600
761.324	0.0165834
761.402	0.0167299
761.480	0.0166673
761.558	0.0168699
761.636	0.0167545
761.715	0.0165942
761.793	0.0165670
761.871	0.0164198
761.949	0.0164315
762.027	0.0163451
762.105	0.0161906
762.183	0.0159835
762.261	0.0158817
762.340	0.0157587
762.418	0.0156103
762.496	0.0156694
762.574	0.0155894
762.652	0.0155619
762.730	0.0155658
762.808	0.0155012
762.886	0.0155354
762.965	0.0158141
763.043	0.0160002
763.121	0.0161259
763.199	0.0161362
763.277	0.0162261
763.355	0.0164620
763.433	0.0166300
763.511	0.0165292
763.590	0.0166321
763.668	0.0166447
763.746	0.0168483
763.824	0.0167023
763.902	0.0166625
763.980	0.0166633
764.058	0.0167453
764.136	0.0165533
764.215	0.0164314
764.293	0.0164483
764.371	0.0163838
764.449	0.0161224
764.527	0.0160743
764.605	0.0157964
764.683	0.0157556
764.761	0.0157494
764.840	0.0156134
764.918	0.0154691
764.996	0.0152147
765.074	0.0156094
765.152	0.0156122
765.230	0.0155832
765.308	0.0156346
765.386	0.0158258
765.465	0.0157667
765.543	0.0158934
765.621	0.0162518
765.699	0.0163298
765.777	0.0165781
765.855	0.0167928
765.933	0.0170393
766.011	0.0171482
766.090	0.0173704
766.168	0.0175896
766.246	0.0176225
766.324	0.0177895
766.402	0.0178648
766.480	0.0177467
766.558	0.0175615
766.636	0.0175341
766.715	0.0176080
766.793	0.0173949
766.871	0.0172282
766.949	0.0169289
767.027	0.0167429
767.105	0.0165044
767.183	0.0162601
767.261	0.0160277
767.340	0.0158036
767.418	0.0155171
767.496	0.0153641
767.574	0.0151740
767.652	0.0150980
767.730	0.0150709
767.808	0.0149255
767.886	0.0150780
767.965	0.0150286
768.043	0.0151112
768.121	0.0153580
768.199	0.0153989
768.277	0.0155565
768.355	0.0156142
768.433	0.0158784
768.511	0.0160508
768.590	0.0162321
768.668	0.0163162
768.746	0.0165188
768.824	0.0166453
768.902	0.0165252
768.980	0.0166225
769.058	0.0168067
769.136	0.0166185
769.215	0.0168289
769.293	0.0165995
769.371	0.0165817
769.449	0.0164638
769.527	0.0165388
769.605	0.0163924
769.683	0.0164380
769.761	0.0163712
769.840	0.0161469
769.918	0.0162177
769.996	0.0160868
770.074	0.0160732
770.152	0.0159594
770.230	0.0160428
770.308	0.0160679
770.386	0.0159119
770.465	0.0161246
770.543	0.0160799
770.621	0.0161723
770.699	0.0160253
770.777	0.0161288
770.855	0.0161678
770.933	0.0161008
771.011	0.0160068
771.090	0.0161412
771.168	0.0162057
771.246	0.0161080
771.324	0.0162227
771.402	0.0161732
771.480	0.0161901
771.558	0.0160220
771.636	0.0161202
771.715	0.0160782
771.793	0.0161775
771.871	0.0161205
771.949	0.0161917
772.027	0.0160303
772.105	0.0160633
772.183	0.0161847
772.261	0.0160387
772.340	0.0159406
772.418	0.0159987
772.496	0.0158942
772.574	0.0159438
772.652	0.0160193
772.730	0.0158524
772.808	0.0158339
772.886	0.0160665
772.965	0.0160902
773.043	0.0160392
773.121	0.0160040
773.199	0.0161223
773.277	0.0163058
773.355	0.0163108
773.433	0.0164944
773.511	0.0166485
773.590	0.0168147
773.668	0.0169096
773.746	0.0170383
773.824	0.0171835
773.902	0.0171893
773.980	0.0171759
774.058	0.0170743
774.136	0.0171743
774.215	0.0172556
774.293	0.0171374
774.371	0.0170644
774.449	0.0170052
774.527	0.0168973
774.605	0.0166082
774.683	0.0165727
774.761	0.0163378
774.840	0.0162001
774.918	0.0159672
774.996	0.0159257
775.074	0.0159328
775.152	0.0158157
775.230	0.0156657
775.308	0.0155858
775.386	0.0155630
775.465	0.0155543
775.543	0.0156448
775.621	0.0155058
775.699	0.0154854
775.777	0.0155300
775.855	0.0157813
775.933	0.0158274
776.011	0.0157462
776.090	0.0159653
776.168	0.0159286
776.246	0.0162444
776.324	0.0162459
776.402	0.0163760
776.480	0.0165065
776.558	0.0165558
776.636	0.0165093
776.715	0.0166176
776.793	0.0166051
776.871	0.0166556
776.949	0.0166067
777.027	0.0166869
777.105	0.0165366
777.183	0.0165566
777.261	0.0164888
777.340	0.0165104
777.418	0.0165610
777.496	0.0164594
777.574	0.0165751
777.652	0.0162888
777.730	0.0162333
777.808	0.0162566
777.886	0.0161021
777.965	0.0160167
778.043	0.0159849
778.121	0.0159931
778.199	0.0158830
778.277	0.0158825
778.355	0.0156388
778.433	0.0158837
778.511	0.0156882
778.590	0.0158433
778.668	0.0157683
778.746	0.0159338
778.824	0.0158943
778.902	0.0160202
778.980	0.0159576
779.058	0.0162202
779.136	0.0161568
779.215	0.0162386
779.293	0.0161909
779.371	0.0163123
779.449	0.0165330
779.527	0.0163630
779.605	0.0161509
779.683	0.0164008
779.761	0.0163696
779.840	0.0162154
779.918	0.0161288
779.996	0.0162550
780.074	0.0161438
780.152	0.0161929
780.230	0.0161937
780.308	0.0161397
780.386	0.0162164
780.465	0.0161147
780.543	0.0161137
780.621	0.0161970
780.699	0.0162048
780.777	0.0162496
780.855	0.0164201
780.933	0.0164828
781.011	0.0162086
781.090	0.0163844
781.168	0.0164036
781.246	0.0166493
781.324	0.0165555
781.402	0.0165472
781.480	0.0166924
781.558	0.0167373
781.636	0.0167934
781.715	0.0166674
781.793	0.0167645
781.871	0.0167005
781.949	0.0166293
782.027	0.0167150
782.105	0.0165997
782.183	0.0165133
782.261	0.0164394
782.340	0.0163896
782.418	0.0163580
782.496	0.0162929
782.574	0.0162552
782.652	0.0159563
782.730	0.0160210
782.808	0.0160361
782.886	0.0161318
782.965	0.0159700
783.043	0.0159431
783.121	0.0159782
783.199	0.0159998
783.277	0.0159109
783.355	0.0160711
783.433	0.0161805
783.511	0.0160466
783.590	0.0161221
783.668	0.0160507
783.746	0.0162130
783.824	0.0161711
783.902	0.0162095
783.980	0.0162751
784.058	0.0162585
784.136	0.0164105
784.215	0.0162997
784.293	0.0163869
784.371	0.0164263
784.449	0.0163502
784.527	0.0162930
784.605	0.0165053
784.683	0.0164095
784.761	0.0164861
784.840	0.0164893
784.918	0.0164783
784.996	0.0165301
785.074	0.0164163
785.152	0.0164843
785.230	0.0164863
785.308	0.0163975
785.386	0.0164664
785.465	0.0163586
785.543	0.0162016
785.621	0.0161168
785.699	0.0162821
785.777	0.0161354
785.855	0.0161235
785.933	0.0159704
786.011	0.0160261
786.090	0.0160391
786.168	0.0158957
786.246	0.0160110
786.324	0.0159210
786.402	0.0158803
786.480	0.0160132
786.558	0.0159264
786.636	0.0161044
786.715	0.0160352
786.793	0.0159568
786.871	0.0162437
786.949	0.0162440
787.027	0.0164178
787.105	0.0162724
787.183	0.0164603
787.261	0.0165003
787.340	0.0165778
787.418	0.0164715
787.496	0.0165031
787.574	0.0165791
787.652	0.0164608
787.730	0.0165772
787.808	0.0165523
787.886	0.0165423
787.965	0.0164343
788.043	0.0165762
788.121	0.0163436
788.199	0.0163570
788.277	0.0162814
788.355	0.0161636
788.433	0.0162457
788.511	0.0162923
788.590	0.0161958
788.668	0.0162659
788.746	0.0162770
788.824	0.0163595
788.902	0.0163712
788.980	0.0163721
789.058	0.0164484
789.136	0.0162733
789.215	0.0164237
789.293	0.0166168
789.371	0.0166473
789.449	0.0165048
789.527	0.0163490
789.605	0.0164152
789.683	0.0163516
789.761	0.0164106
789.840	0.0162483
789.918	0.0163049
789.996	0.0161713
790.074	0.0161470
790.152	0.0161151
790.230	0.0161304
790.308	0.0161779
790.386	0.0160291
790.465	0.0160008
790.543	0.0160313
790.621	0.0160199
790.699	0.0161128
790.777	0.0163089
790.855	0.0164777
790.933	0.0163148
791.011	0.0162668
791.090	0.0163319
791.168	0.0164544
791.246	0.0164548
791.324	0.0163702
791.402	0.0162077
791.480	0.0163262
791.558	0.0163232
791.636	0.0162084
791.715	0.0163389
791.793	0.0162605
791.871	0.0161988
791.949	0.0162994
792.027	0.0162372
792.105	0.0162300
792.183	0.0162396
792.261	0.0161717
792.340	0.0161785
792.418	0.0162177
792.496	0.0162688
792.574	0.0160900
792.652	0.0163165
792.730	0.0162956
792.808	0.0161993
792.886	0.0162342
792.965	0.0162785
793.043	0.0164257
793.121	0.0162109
793.199	0.0162395
793.277	0.0163266
793.355	0.0162695
793.433	0.0162041
793.511	0.0160875
793.590	0.0162424
793.668	0.0162200
793.746	0.0161156
793.824	0.0161819
793.902	0.0161618
793.980	0.0160222
794.058	0.0161037
794.136	0.0161568
794.215	0.0161778
794.293	0.0161575
794.371	0.0161249
794.449	0.0163266
794.527	0.0163924
794.605	0.0162881
794.683	0.0163498
794.761	0.0164632
794.840	0.0164120
794.918	0.0164304
794.996	0.0163958
795.074	0.0163255
795.152	0.0164500
795.230	0.0164777
795.308	0.0163039
795.386	0.0163688
795.465	0.0162164
795.543	0.0162363
795.621	0.0162617
795.699	0.0161980
795.777	0.0160714
795.855	0.0162519
795.933	0.0161179
796.011	0.0162423
796.090	0.0162328
796.168	0.0161881
796.246	0.0163246
796.324	0.0162727
796.402	0.0162234
796.480	0.0164462
796.558	0.0162476
796.636	0.0163710
796.715	0.0162546
796.793	0.0163274
796.871	0.0161791
796.949	0.0162399
797.027	0.0163235
797.105	0.0163528
797.183	0.0162007
797.261	0.0162379
797.340	0.0162320
797.418	0.0161581
797.496	0.0161334
797.574	0.0161805
797.652	0.0162247
797.730	0.0161700
797.808	0.0162016
797.886	0.0162786
797.965	0.0162473
798.043	0.0162852
798.121	0.0163029
798.199	0.0162367
798.277	0.0163390
798.355	0.0162428
798.433	0.0162402
798.511	0.0163667
798.590	0.0161449
798.668	0.0162449
798.746	0.0162519
798.824	0.0163010
798.902	0.0162283
798.980	0.0162806
799.058	0.0162624
799.136	0.0161147
799.215	0.0163195
799.293	0.0161889
799.371	0.0161557
799.449	0.0162321
799.527	0.0162439
799.605	0.0161303
799.683	0.0163074
799.761	0.0162489
799.840	0.0162363
799.918	0.0161440
799.996	0.0161383
800.074	0.0163841
800.152	0.0162352
800.230	0.0161971
800.308	0.0163025
800.386	0.0160648
800.465	0.0160870
800.543	0.0161432
800.621	0.0160989
800.699	0.0161819
800.777	0.0162191
800.855	0.0162811
800.933	0.0160680
801.011	0.0160093
801.090	0.0162063
801.168	0.0163322
801.246	0.0161739
801.324	0.0161633
801.402	0.0161756
801.480	0.0163492
801.558	0.0163112
801.636	0.0163461
801.715	0.0162983
801.793	0.0164449
801.871	0.0164312
801.949	0.0165673
802.027	0.0165546
802.105	0.0165609
802.183	0.0166173
802.261	0.0166248
802.340	0.0164790
802.418	0.0165848
802.496	0.0167580
802.574	0.0166124
802.652	0.0166313
802.730	0.0163972
802.808	0.0163654
802.886	0.0163769
802.965	0.0162280
803.043	0.0161637
803.121	0.0160889
803.199	0.0159959
803.277	0.0160255
803.355	0.0158097
803.433	0.0157642
803.511	0.0158378
803.590	0.0157819
803.668	0.0158034
803.746	0.0158299
803.824	0.0159128
803.902	0.0158945
803.980	0.0160924
804.058	0.0158869
804.136	0.0160594
804.215	0.0162630
804.293	0.0161881
804.371	0.0164088
804.449	0.0163497
804.527	0.0166094
804.605	0.0166706
804.683	0.0166611
804.761	0.0167165
804.840	0.0165324
804.918	0.0166073
804.996	0.0167422
805.074	0.0165975
805.152	0.0165215
805.230	0.0164732
805.308	0.0163310
805.386	0.0162280
805.465	0.0161369
805.543	0.0161971
805.621	0.0162408
805.699	0.0161830
805.777	0.0160013
805.855	0.0160999
805.933	0.0161170
806.011	0.0160654
806.090	0.0160450
806.168	0.0162612
806.246	0.0162189
806.324	0.0163042
806.402	0.0163344
806.480	0.0162738
806.558	0.0163992
806.636	0.0163702
806.715	0.0163997
806.793	0.0162921
806.871	0.0162659
806.949	0.0164789
807.027	0.0162699
807.105	0.0160953
807.183	0.0163007
807.261	0.0163625
807.340	0.0162404
807.418	0.0162022
807.496	0.0161829
807.574	0.0160376
807.652	0.0159367
807.730	0.0161059
807.808	0.0160448
807.886	0.0160339
807.965	0.0160697
808.043	0.0161026
808.121	0.0160642
808.199	0.0159686
808.277	0.0161182
808.355	0.0160582
808.433	0.0161270
808.511	0.0161370
808.590	0.0162440
808.668	0.0161639
808.746	0.0162080
808.824	0.0163265
808.902	0.0163096
808.980	0.0164002
809.058	0.0162948
809.136	0.0162646
809.215	0.0165423
809.293	0.0165078
809.371	0.0164804
809.449	0.0163115
809.527	0.0163811
809.605	0.0165247
809.683	0.0166708
809.761	0.0164880
809.840	0.0165068
809.918	0.0164211
809.996	0.0163792
810.074	0.0164202
810.152	0.0161260
810.230	0.0162437
810.308	0.0162117
810.386	0.0161102
810.465	0.0162609
810.543	0.0160870
810.621	0.0159890
810.699	0.0161075
810.777	0.0160454
810.855	0.0160264
810.933	0.0160168
811.011	0.0160086
811.090	0.0161119
811.168	0.0160964
811.246	0.0160456
811.324	0.0160851
811.402	0.0162295
811.480	0.0162610
811.558	0.0163299
811.636	0.0162796
811.715	0.0163104
811.793	0.0164265
811.871	0.0164687
811.949	0.0164317
812.027	0.0164268
812.105	0.0163601
812.183	0.0163847
812.261	0.0164387
812.340	0.0163759
812.418	0.0162759
812.496	0.0162308
812.574	0.0162144
812.652	0.0162059
812.730	0.0161368
812.808	0.0162147
812.886	0.0162852
812.965	0.0162936
813.043	0.0161796
813.121	0.0163426
813.199	0.0162801
813.277	0.0163008
813.355	0.0162334
813.433	0.0162818
813.511	0.0163486
813.590	0.0165173
813.668	0.0163089
813.746	0.0163570
813.824	0.0164323
813.902	0.0162564
813.980	0.0163486
814.058	0.0164011
814.136	0.0165022
814.215	0.0163401
814.293	0.0160660
814.371	0.0162320
814.449	0.0162356
814.527	0.0162740
814.605	0.0160664
814.683	0.0161240
814.761	0.0158347
814.840	0.0160192
814.918	0.0161281
814.996	0.0160354
815.074	0.0160583
815.152	0.0160542
815.230	0.0161265
815.308	0.0162373
815.386	0.0161543
815.465	0.0162009
815.543	0.0162238
815.621	0.0161131
815.699	0.0162545
815.777	0.0162140
815.855	0.0163528
815.933	0.0163506
816.011	0.0163754
816.090	0.0162770
816.168	0.0165465
816.246	0.0164446
816.324	0.0165829
816.402	0.0164296
816.480	0.0162925
816.558	0.0163497
816.636	0.0164272
816.715	0.0163499
816.793	0.0162907
816.871	0.0164027
816.949	0.0163088
817.027	0.0163182
817.105	0.0162013
817.183	0.0162697
817.261	0.0163180
817.340	0.0161379
817.418	0.0162739
817.496	0.0162807
817.574	0.0162139
817.652	0.0160937
817.730	0.0161768
817.808	0.0160345
817.886	0.0160989
817.965	0.0162029
818.043	0.0161129
818.121	0.0161047
818.199	0.0162193
818.277	0.0160827
818.355	0.0161778
818.433	0.0161469
818.511	0.0160695
818.590	0.0160780
818.668	0.0162672
818.746	0.0162952
818.824	0.0162368
818.902	0.0163954
818.980	0.0161917
819.058	0.0164031
819.136	0.0163902
819.215	0.0163387
819.293	0.0163018
819.371	0.0164068
819.449	0.0163232
819.527	0.0162263
819.605	0.0162074
819.683	0.0163863
819.761	0.0165765
819.840	0.0164140
819.918	0.0163751
819.996	0.0165102
820.074	0.0162836
820.152	0.0162853
820.230	0.0161422
820.308	0.0162493
820.386	0.0163804
820.465	0.0163109
820.543	0.0163770
820.621	0.0161115
820.699	0.0162394
820.777	0.0163309
820.855	0.0161555
820.933	0.0162367
821.011	0.0162459
821.090	0.0161523
821.168	0.0161832
821.246	0.0163226
821.324	0.0163338
821.402	0.0161735
821.480	0.0162370
821.558	0.0163087
821.636	0.0161166
821.715	0.0161382
821.793	0.0162801
821.871	0.0162405
821.949	0.0162615
822.027	0.0163320
822.105	0.0162094
822.183	0.0161539
822.261	0.0161870
822.340	0.0161689
822.418	0.0162727
822.496	0.0161314
822.574	0.0162872
822.652	0.0163646
822.730	0.0162371
822.808	0.0163353
822.886	0.0163499
822.965	0.0163158
823.043	0.0162125
823.121	0.0163284
823.199	0.0161931
823.277	0.0163905
823.355	0.0163897
823.433	0.0161769
823.511	0.0163220
823.590	0.0162805
823.668	0.0163156
823.746	0.0162367
823.824	0.0162518
823.902	0.0162482
823.980	0.0163195
824.058	0.0162552
824.136	0.0162188
824.215	0.0163251
824.293	0.0164032
824.371	0.0162177
824.449	0.0163642
824.527	0.0163498
824.605	0.0163613
824.683	0.0161662
824.761	0.0161775
824.840	0.0163143
824.918	0.0163872
824.996	0.0163702
825.074	0.0163011
825.152	0.0162935
825.230	0.0162325
825.308	0.0161081
825.386	0.0162080
825.465	0.0162818
825.543	0.0160674
825.621	0.0161269
825.699	0.0160947
825.777	0.0161339
825.855	0.0162517
825.933	0.0160851
826.011	0.0159845
826.090	0.0162820
826.168	0.0161828
826.246	0.0161005
826.324	0.0159465
826.402	0.0161867
826.480	0.0161275
826.558	0.0162843
826.636	0.0161724
826.715	0.0162428
826.793	0.0160890
826.871	0.0162847
826.949	0.0162672
827.027	0.0163757
827.105	0.0162647
827.183	0.0162859
827.261	0.0163118
827.340	0.0163058
827.418	0.0161338
827.496	0.0164494
827.574	0.0163903
827.652	0.0162648
827.730	0.0163387
827.808	0.0162680
827.886	0.0163190
827.965	0.0161910
828.043	0.0162625
828.121	0.0162621
828.199	0.0163209
828.277	0.0162358
828.355	0.0162414
828.433	0.0162656
828.511	0.0162328
828.590	0.0162492
828.668	0.0162731
828.746	0.0161574
828.824	0.0163937
828.902	0.0163346
828.980	0.0162293
829.058	0.0162559
829.136	0.0162592
829.215	0.0162174
829.293	0.0163837
829.371	0.0162360
829.449	0.0163338
829.527	0.0162458
829.605	0.0163979
829.683	0.0162253
829.761	0.0161855
829.840	0.0162865
829.918	0.0161713
829.996	0.0161026
830.074	0.0162820
830.152	0.0161958
830.230	0.0162418
830.308	0.0161079
830.386	0.0161378
830.465	0.0161405
830.543	0.0161465
830.621	0.0160920
830.699	0.0160699
830.777	0.0160747
830.855	0.0161274
830.933	0.0160954
831.011	0.0161905
831.090	0.0161927
831.168	0.0160969
831.246	0.0161213
831.324	0.0159942
831.402	0.0159709
831.480	0.0161366
831.558	0.0162942
831.636	0.0162473
831.715	0.0161646
831.793	0.0160275
831.871	0.0161151
831.949	0.0163021
832.027	0.0162611
832.105	0.0161990
832.183	0.0163050
832.261	0.0162740
832.340	0.0163081
832.418	0.0163480
832.496	0.0163755
832.574	0.0162309
832.652	0.0164265
832.730	0.0162719
832.808	0.0163371
832.886	0.0163604
832.965	0.0164391
833.043	0.0166228
833.121	0.0163672
833.199	0.0164571
833.277	0.0164740
833.355	0.0164809
833.433	0.0164447
833.511	0.0165797
833.590	0.0164800
833.668	0.0165326
833.746	0.0164168
833.824	0.0165265
833.902	0.0164684
833.980	0.0162905
834.058	0.0163585
834.136	0.0162489
834.215	0.0162755
834.293	0.0161446
834.371	0.0162988
834.449	0.0162160
834.527	0.0163207
834.605	0.0161812
834.683	0.0160926
834.761	0.0161744
834.840	0.0161695
834.918	0.0160457
834.996	0.0161092
835.074	0.0160757
835.152	0.0161445
835.230	0.0160439
835.308	0.0160709
835.386	0.0160342
835.465	0.0159406
835.543	0.0160899
835.621	0.0161409
835.699	0.0161626
835.777	0.0162042
835.855	0.0161703
835.933	0.0161424
836.011	0.0162472
836.090	0.0162353
836.168	0.0162131
836.246	0.0163197
836.324	0.0163005
836.402	0.0162476
836.480	0.0163245
836.558	0.0162686
836.636	0.0161983
836.715	0.0161199
836.793	0.0161025
836.871	0.0161140
836.949	0.0161189
837.027	0.0161007
837.105	0.0160020
837.183	0.0160794
837.261	0.0160272
837.340	0.0160777
837.418	0.0159688
837.496	0.0160841
837.574	0.0162003
837.652	0.0161237
837.730	0.0160648
837.808	0.0162444
837.886	0.0161843
837.965	0.0162846
838.043	0.0162152
838.121	0.0163031
838.199	0.0162990
838.277	0.0162092
838.355	0.0163639
838.433	0.0164429
838.511	0.0164892
838.590	0.0164555
838.668	0.0163743
838.746	0.0163413
838.824	0.0163996
838.902	0.0164190
838.980	0.0164681
839.058	0.0163992
839.136	0.0163638
839.215	0.0164093
839.293	0.0163037
839.371	0.0161953
839.449	0.0163280
839.527	0.0164610
839.605	0.0162762
839.683	0.0163018
839.761	0.0162601
839.840	0.0163511
839.918	0.0163556
839.996	0.0163689
840.074	0.0162817
840.152	0.0163329
840.230	0.0164162
840.308	0.0164609
840.386	0.0163832
840.465	0.0162727
840.543	0.0163624
840.621	0.0164266
840.699	0.0164467
840.777	0.0163033
840.855	0.0163744
840.933	0.0164315
841.011	0.0165264
841.090	0.0164492
841.168	0.0164240
841.246	0.0163634
841.324	0.0163918
841.402	0.0163770
841.480	0.0163727
841.558	0.0163703
841.636	0.0163306
841.715	0.0162787
841.793	0.0162804
841.871	0.0162629
841.949	0.0162881
842.027	0.0163200
842.105	0.0162006
842.183	0.0160514
842.261	0.0162168
842.340	0.0162081
842.418	0.0162018
842.496	0.0160494
842.574	0.0161226
842.652	0.0162533
842.730	0.0161580
842.808	0.0162511
842.886	0.0161906
842.965	0.0162713
843.043	0.0162148
843.121	0.0162728
843.199	0.0162126
843.277	0.0162320
843.355	0.0162069
843.433	0.0162326
843.511	0.0162353
843.590	0.0161636
843.668	0.0160783
843.746	0.0161501
843.824	0.0161095
843.902	0.0159949
843.980	0.0159405
844.058	0.0160564
844.136	0.0160153
844.215	0.0160413
844.293	0.0158903
844.371	0.0159713
844.449	0.0159387
844.527	0.0160199
844.605	0.0160576
844.683	0.0160046
844.761	0.0158965
844.840	0.0158884
844.918	0.0161125
844.996	0.0160274
845.074	0.0160130
845.152	0.0162443
845.230	0.0162221
845.308	0.0162538
845.386	0.0161706
845.465	0.0161767
845.543	0.0162077
845.621	0.0163148
845.699	0.0164459
845.777	0.0164732
845.855	0.0162483
845.933	0.0163704
846.011	0.0164738
846.090	0.0164719
846.168	0.0163595
846.246	0.0164277
846.324	0.0164142
846.402	0.0164452
846.480	0.0163807
846.558	0.0162969
846.636	0.0163884
846.715	0.0163165
846.793	0.0163983
846.871	0.0163210
846.949	0.0163921
847.027	0.0162294
847.105	0.0162649
847.183	0.0163025
847.261	0.0162749
847.340	0.0161491
847.418	0.0163446
847.496	0.0162318
847.574	0.0162612
847.652	0.0163840
847.730	0.0162857
847.808	0.0161924
847.886	0.0162946
847.965	0.0163282
848.043	0.0163897
848.121	0.0164092
848.199	0.0162922
848.277	0.0163625
848.355	0.0162913
848.433	0.0163531
848.511	0.0164252
848.590	0.0162254
848.668	0.0163278
848.746	0.0164148
848.824	0.0162251
848.902	0.0161344
848.980	0.0162391
849.058	0.0161144
849.136	0.0162838
849.215	0.0162714
849.293	0.0162438
849.371	0.0161533
849.449	0.0159523
849.527	0.0159881
849.605	0.0162847
849.683	0.0160353
849.761	0.0161546
849.840	0.0161620
849.918	0.0160328
849.996	0.0162161
850.074	0.0162364
850.152	0.0162305
850.230	0.0163673
850.308	0.0162860
850.386	0.0164013
850.465	0.0161581
850.543	0.0164204
850.621	0.0163183
850.699	0.0163511
850.777	0.0163425
850.855	0.0164721
850.933	0.0164101
851.011	0.0163760
851.090	0.0163403
851.168	0.0163895
851.246	0.0164058
851.324	0.0162281
851.402	0.0162444
851.480	0.0162798
851.558	0.0161214
851.636	0.0161515
851.715	0.0161399
851.793	0.0159696
851.871	0.0161200
851.949	0.0160638
852.027	0.0160188
852.105	0.0159391
852.183	0.0159505
852.261	0.0159225
852.340	0.0161293
852.418	0.0160977
852.496	0.0161082
852.574	0.0160373
852.652	0.0162094
852.730	0.0163010
852.808	0.0163432
852.886	0.0163277
852.965	0.0163042
853.043	0.0163608
853.121	0.0163885
853.199	0.0165033
853.277	0.0165108
853.355	0.0164484
853.433	0.0165656
853.511	0.0164449
853.590	0.0164022
853.668	0.0166152
853.746	0.0164700
853.824	0.0164386
853.902	0.0163267
853.980	0.0163422
854.058	0.0162049
854.136	0.0163071
854.215	0.0161294
854.293	0.0161781
854.371	0.0161263
854.449	0.0161207
854.527	0.0161069
854.605	0.0161023
854.683	0.0161336
854.761	0.0162398
854.840	0.0161058
854.918	0.0161483
854.996	0.0160986
855.074	0.0163797
855.152	0.0162627
855.230	0.0162512
855.308	0.0162965
855.386	0.0164127
855.465	0.0163851
855.543	0.0162369
855.621	0.0164053
855.699	0.0164429
855.777	0.0165295
855.855	0.0164439
855.933	0.0164484
856.011	0.0165361
856.090	0.0165189
856.168	0.0164234
856.246	0.0163123
856.324	0.0163099
856.402	0.0163404
856.480	0.0161850
856.558	0.0161650
856.636	0.0161858
856.715	0.0161623
856.793	0.0161250
856.871	0.0161866
856.949	0.0160637
857.027	0.0160826
857.105	0.0161517
857.183	0.0161449
857.261	0.0161551
857.340	0.0162213
857.418	0.0162393
857.496	0.0163060
857.574	0.0161993
857.652	0.0161729
857.730	0.0161826
857.808	0.0163026
857.886	0.0163057
857.965	0.0163710
858.043	0.0164545
858.121	0.0162045
858.199	0.0165036
858.277	0.0164922
858.355	0.0164970
858.433	0.0163967
858.511	0.0162086
858.590	0.0163464
858.668	0.0163390
858.746	0.0162990
858.824	0.0162620
858.902	0.0160824
858.980	0.0161992
859.058	0.0161307
859.136	0.0162101
859.215	0.0161386
859.293	0.0161353
859.371	0.0161333
859.449	0.0161682
859.527	0.0160988
859.605	0.0161293
859.683	0.0160892
859.761	0.0161641
859.840	0.0161930
859.918	0.0161246
859.996	0.0162888
860.074	0.0162875
860.152	0.0162850
860.230	0.0163555
860.308	0.0163405
860.386	0.0163076
860.465	0.0163508
860.543	0.0164668
860.621	0.0164400
860.699	0.0164053
860.777	0.0163379
860.855	0.0163413
860.933	0.0163708
861.011	0.0163539
861.090	0.0163738
861.168	0.0163102
861.246	0.0162500
861.324	0.0163200
861.402	0.0162144
861.480	0.0161547
861.558	0.0163425
861.636	0.0161309
861.715	0.0161268
861.793	0.0160156
861.871	0.0159641
861.949	0.0161372
862.027	0.0161464
862.105	0.0161754
862.183	0.0160593
862.261	0.0162769
862.340	0.0162215
862.418	0.0162241
862.496	0.0161428
862.574	0.0162322
862.652	0.0163670
862.730	0.0161723
862.808	0.0162700
862.886	0.0162587
862.965	0.0162776
863.043	0.0163604
863.121	0.0164414
863.199	0.0165830
863.277	0.0164082
863.355	0.0164659
863.433	0.0165207
863.511	0.0164493
863.590	0.0164514
863.668	0.0164925
863.746	0.0164307
863.824	0.0162466
863.902	0.0164832
863.980	0.0164182
864.058	0.0163144
864.136	0.0164715
864.215	0.0164046
864.293	0.0163164
864.371	0.0162946
864.449	0.0162585
864.527	0.0162874
864.605	0.0163706
864.683	0.0162706
864.761	0.0162796
864.840	0.0163725
864.918	0.0163277
864.996	0.0161894
865.074	0.0164077
865.152	0.0164857
865.230	0.0164119
865.308	0.0163475
865.386	0.0163602
865.465	0.0163898
865.543	0.0162975
865.621	0.0163758
865.699	0.0161701
865.777	0.0163143
865.855	0.0162137
865.933	0.0162733
866.011	0.0163775
866.090	0.0163790
866.168	0.0162373
866.246	0.0162018
866.324	0.0162870
866.402	0.0163243
866.480	0.0161954
866.558	0.0163210
866.636	0.0162772
866.715	0.0161814
866.793	0.0162428
866.871	0.0162688
866.949	0.0161705
867.027	0.0162970
867.105	0.0162955
867.183	0.0162411
867.261	0.0160755
867.340	0.0161292
867.418	0.0161552
867.496	0.0161250
867.574	0.0163604
867.652	0.0162325
867.730	0.0162018
867.808	0.0162412
867.886	0.0163230
867.965	0.0161762
868.043	0.0161340
868.121	0.0161731
868.199	0.0162410
868.277	0.0161280
868.355	0.0161914
868.433	0.0161812
868.511	0.0163354
868.590	0.0161410
868.668	0.0160026
868.746	0.0162447
868.824	0.0161422
868.902	0.0160972
868.980	0.0161186
869.058	0.0162154
869.136	0.0162906
869.215	0.0162641
869.293	0.0161424
869.371	0.0161256
869.449	0.0161500
869.527	0.0160152
869.605	0.0160815
869.683	0.0161468
869.761	0.0159969
869.840	0.0162137
869.918	0.0161562
869.996	0.0162378
870.074	0.0162019
870.152	0.0164721
870.230	0.0162961
870.308	0.0162304
870.386	0.0163577
870.465	0.0163372
870.543	0.0165828
870.621	0.0162913
870.699	0.0163898
870.777	0.0163436
870.855	0.0164637
870.933	0.0164246
871.011	0.0164419
871.090	0.0163600
871.168	0.0162966
871.246	0.0163675
871.324	0.0163665
871.402	0.0164491
871.480	0.0163170
871.558	0.0162259
871.636	0.0162066
871.715	0.0162814
871.793	0.0162926
871.871	0.0162280
871.949	0.0162443
872.027	0.0162183
872.105	0.0163295
872.183	0.0162081
872.261	0.0163007
872.340	0.0163600
872.418	0.0163289
872.496	0.0162744
872.574	0.0161060
872.652	0.0163291
872.730	0.0162946
872.808	0.0162347
872.886	0.0161718
872.965	0.0162046
873.043	0.0164272
873.121	0.0163015
873.199	0.0162222
873.277	0.0163596
873.355	0.0163988
873.433	0.0163921
873.511	0.0163211
873.590	0.0163133
873.668	0.0161034
873.746	0.0164092
873.824	0.0164081
873.902	0.0162482
873.980	0.0163622
874.058	0.0163641
874.136	0.0162749
874.215	0.0163970
874.293	0.0164621
874.371	0.0164667
874.449	0.0162561
874.527	0.0162852
874.605	0.0163973
874.683	0.0163818
874.761	0.0163423
874.840	0.0162683
874.918	0.0164846
874.996	0.0162856
875.074	0.0161952
875.152	0.0163783
875.230	0.0162692
875.308	0.0163609
875.386	0.0162449
875.465	0.0160683
875.543	0.0161897
875.621	0.0161800
875.699	0.0160719
875.777	0.0160851
875.855	0.0162008
875.933	0.0161058
876.011	0.0161831
876.090	0.0160778
876.168	0.0161998
876.246	0.0161726
876.324	0.0161839
876.402	0.0160519
876.480	0.0162134
876.558	0.0161727
876.636	0.0162302
876.715	0.0162370
876.793	0.0161464
876.871	0.0161311
876.949	0.0161274
877.027	0.0162312
877.105	0.0162460
877.183	0.0161131
877.261	0.0160825
877.340	0.0162115
877.418	0.0162007
877.496	0.0160904
877.574	0.0162563
877.652	0.0163297
877.730	0.0161889
877.808	0.0162753
877.886	0.0163498
877.965	0.0162344
878.043	0.0162798
878.121	0.0163403
878.199	0.0162973
878.277	0.0163105
878.355	0.0162861
878.433	0.0163246
878.511	0.0162982
878.590	0.0162921
878.668	0.0161830
878.746	0.0163156
878.824	0.0163048
878.902	0.0162196
878.980	0.0161234
879.058	0.0163108
879.136	0.0163050
879.215	0.0163953
879.293	0.0162273
879.371	0.0163310
879.449	0.0162196
879.527	0.0162435
879.605	0.0162364
879.683	0.0161419
879.761	0.0162602
879.840	0.0163559
879.918	0.0162091
879.996	0.0162144
880.074	0.0163118
880.152	0.0162833
880.230	0.0162217
880.308	0.0161425
880.386	0.0162819
880.465	0.0163879
880.543	0.0163377
880.621	0.0163174
880.699	0.0164765
880.777	0.0163339
880.855	0.0164589
880.933	0.0162753
881.011	0.0164533
881.090	0.0165105
881.168	0.0164338
881.246	0.0163375
881.324	0.0163138
881.402	0.0164130
881.480	0.0164010
881.558	0.0163270
881.636	0.0164146
881.715	0.0163911
881.793	0.0163391
881.871	0.0162739
881.949	0.0163857
882.027	0.0163516
882.105	0.0163575
882.183	0.0164160
882.261	0.0163780
882.340	0.0163493
882.418	0.0162659
882.496	0.0162479
882.574	0.0161921
882.652	0.0162997
882.730	0.0161716
882.808	0.0162352
882.886	0.0161294
882.965	0.0161826
883.043	0.0161688
883.121	0.0161702
883.199	0.0161818
883.277	0.0160714
883.355	0.0160697
883.433	0.0161819
883.511	0.0160864
883.590	0.0163100
883.668	0.0162063
883.746	0.0162482
883.824	0.0161666
883.902	0.0163173
883.980	0.0162202
884.058	0.0162468
884.136	0.0162813
884.215	0.0163586
884.293	0.0162090
884.371	0.0162982
884.449	0.0164088
884.527	0.0163332
884.605	0.0164622
884.683	0.0164156
884.761	0.0163232
884.840	0.0163846
884.918	0.0162621
884.996	0.0163544
885.074	0.0163456
885.152	0.0161175
885.230	0.0162739
885.308	0.0163563
885.386	0.0161738
885.465	0.0160927
885.543	0.0161308
885.621	0.0160869
885.699	0.0161893
885.777	0.0162474
885.855	0.0162365
885.933	0.0161353
886.011	0.0162052
886.090	0.0162001
886.168	0.0162785
886.246	0.0161995
886.324	0.0162853
886.402	0.0162286
886.480	0.0162287
886.558	0.0163489
886.636	0.0163455
886.715	0.0162846
886.793	0.0162340
886.871	0.0162045
886.949	0.0163468
887.027	0.0164216
887.105	0.0162787
887.183	0.0164037
887.261	0.0162930
887.340	0.0164015
887.418	0.0163619
887.496	0.0161639
887.574	0.0161946
887.652	0.0163489
887.730	0.0162337
887.808	0.0162790
887.886	0.0161582
887.965	0.0162607
888.043	0.0162591
888.121	0.0162550
888.199	0.0161815
888.277	0.0162379
888.355	0.0161934
888.433	0.0163005
888.511	0.0162615
888.590	0.0161995
888.668	0.0162397
888.746	0.0162292
888.824	0.0162061
888.902	0.0162154
888.980	0.0163357
889.058	0.0161150
889.136	0.0162684
889.215	0.0161980
889.293	0.0161485
889.371	0.0162559
889.449	0.0162823
889.527	0.0161196
889.605	0.0161360
889.683	0.0160509
889.761	0.0162761
889.840	0.0161114
889.918	0.0161212
889.996	0.0161224
890.074	0.0163004
890.152	0.0160900
890.230	0.0162023
890.308	0.0162660
890.386	0.0161906
890.465	0.0162988
890.543	0.0162978
890.621	0.0161514
890.699	0.0161505
890.777	0.0163528
890.855	0.0163967
890.933	0.0161433
891.011	0.0161668
891.090	0.0162785
891.168	0.0162409
891.246	0.0162318
891.324	0.0163241
891.402	0.0163383
891.480	0.0163993
891.558	0.0162852
891.636	0.0163609
891.715	0.0163158
891.793	0.0163074
891.871	0.0163418
891.949	0.0163911
892.027	0.0164247
892.105	0.0163196
892.183	0.0163439
892.261	0.0163310
892.340	0.0162804
892.418	0.0161849
892.496	0.0159684
892.574	0.0162437
892.652	0.0163671
892.730	0.0162592
892.808	0.0161600
892.886	0.0162564
892.965	0.0160432
893.043	0.0162481
893.121	0.0160838
893.199	0.0160706
893.277	0.0161936
893.355	0.0161242
893.433	0.0160593
893.511	0.0162440
893.590	0.0160863
893.668	0.0161536
893.746	0.0162663
893.824	0.0162400
893.902	0.0162282
893.980	0.0161233
894.058	0.0161306
894.136	0.0163745
894.215	0.0161903
894.293	0.0162965
894.371	0.0163139
894.449	0.0162115
894.527	0.0162653
894.605	0.0162159
894.683	0.0161991
894.761	0.0162385
894.840	0.0163358
894.918	0.0163164
894.996	0.0162724
895.074	0.0162963
895.152	0.0163538
895.230	0.0163345
895.308	0.0162309
895.386	0.0162691
895.465	0.0162765
895.543	0.0163293
895.621	0.0163745
895.699	0.0162531
895.777	0.0163936
895.855	0.0162753
895.933	0.0162473
896.011	0.0162891
896.090	0.0163348
896.168	0.0161763
896.246	0.0161721
896.324	0.0161198
896.402	0.0163177
896.480	0.0164260
896.558	0.0162175
896.636	0.0162312
896.715	0.0162766
896.793	0.0163588
896.871	0.0163470
896.949	0.0163781
897.027	0.0163606
897.105	0.0163683
897.183	0.0163403
897.261	0.0163419
897.340	0.0162543
897.418	0.0163130
897.496	0.0162442
897.574	0.0163600
897.652	0.0161736
897.730	0.0162824
897.808	0.0161392
897.886	0.0162026
897.965	0.0162859
898.043	0.0162163
898.121	0.0163382
898.199	0.0163698
898.277	0.0163329
898.355	0.0165211
898.433	0.0163323
898.511	0.0164713
898.590	0.0164009
898.668	0.0165079
898.746	0.0164938
898.824	0.0164944
898.902	0.0164910
898.980	0.0163918
899.058	0.0164606
899.136	0.0163129
899.215	0.0163821
899.293	0.0164229
899.371	0.0163414
899.449	0.0162907
899.527	0.0163060
899.605	0.0164177
899.683	0.0163905
899.761	0.0163051
899.840	0.0163694
899.918	0.0163026
899.996	0.0162868
900.074	0.0162879
900.152	0.0164082
900.230	0.0162585
900.308	0.0162251
900.386	0.0162969
900.465	0.0164047
900.543	0.0162969
900.621	0.0163266
900.699	0.0162984
900.777	0.0162411
900.855	0.0162862
900.933	0.0161667
901.011	0.0162402
901.090	0.0162096
901.168	0.0162955
901.246	0.0160480
901.324	0.0161998
901.402	0.0162537
901.480	0.0161826
901.558	0.0162546
901.636	0.0162778
901.715	0.0163584
901.793	0.0162184
901.871	0.0161070
901.949	0.0162099
902.027	0.0163183
902.105	0.0163281
902.183	0.0162687
902.261	0.0161929
902.340	0.0162746
902.418	0.0162757
902.496	0.0160659
902.574	0.0161612
902.652	0.0161807
902.730	0.0162332
902.808	0.0161341
902.886	0.0161456
902.965	0.0162048
903.043	0.0160790
903.121	0.0162057
903.199	0.0163167
903.277	0.0161029
903.355	0.0162192
903.433	0.0162141
903.511	0.0162726
903.590	0.0161826
903.668	0.0162904
903.746	0.0163074
903.824	0.0163990
903.902	0.0162964
903.980	0.0162440
904.058	0.0162939
904.136	0.0163322
904.215	0.0162788
904.293	0.0161674
904.371	0.0162824
904.449	0.0162828
904.527	0.0163913
904.605	0.0161785
904.683	0.0160807
904.761	0.0164160
904.840	0.0162313
904.918	0.0163351
904.996	0.0161508
905.074	0.0162353
905.152	0.0162844
905.230	0.0164436
905.308	0.0162811
905.386	0.0162999
905.465	0.0164616
905.543	0.0163318
905.621	0.0163356
905.699	0.0163353
905.777	0.0164342
905.855	0.0164419
905.933	0.0162848
906.011	0.0163060
906.090	0.0164464
906.168	0.0164129
906.246	0.0162897
906.324	0.0163082
906.402	0.0164171
906.480	0.0164134
906.558	0.0163804
906.636	0.0163713
906.715	0.0162984
906.793	0.0162331
906.871	0.0163288
906.949	0.0162112
907.027	0.0162537
907.105	0.0162238
907.183	0.0162598
907.261	0.0162669
907.340	0.0162581
907.418	0.0163011
907.496	0.0162506
907.574	0.0162291
907.652	0.0162093
907.730	0.0164110
907.808	0.0161781
907.886	0.0162553
907.965	0.0163065
908.043	0.0162923
908.121	0.0164462
908.199	0.0161687
908.277	0.0160853
908.355	0.0163055
908.433	0.0163670
908.511	0.0162645
908.590	0.0162598
908.668	0.0162273
908.746	0.0162123
908.824	0.0162579
908.902	0.0162502
908.980	0.0162627
909.058	0.0162278
909.136	0.0164251
909.215	0.0162724
909.293	0.0162752
909.371	0.0162253
909.449	0.0162035
909.527	0.0163737
909.605	0.0161665
909.683	0.0161517
909.761	0.0162331
909.840	0.0163956
909.918	0.0162686
909.996	0.0160934
910.074	0.0163007
910.152	0.0162147
910.230	0.0161919
910.308	0.0162264
910.386	0.0164148
910.465	0.0161784
910.543	0.0162080
910.621	0.0161584
910.699	0.0162255
910.777	0.0164142
910.855	0.0162006
910.933	0.0161646
911.011	0.0161994
911.090	0.0161647
911.168	0.0162200
911.246	0.0161301
911.324	0.0163264
911.402	0.0163100
911.480	0.0161910
911.558	0.0160727
911.636	0.0161912
911.715	0.0163560
911.793	0.0162440
911.871	0.0162462
911.949	0.0163251
912.027	0.0163515
912.105	0.0163071
912.183	0.0164461
912.261	0.0163613
912.340	0.0163794
912.418	0.0163537
912.496	0.0163129
912.574	0.0163336
912.652	0.0162501
912.730	0.0163786
912.808	0.0164687
912.886	0.0162193
912.965	0.0162083
913.043	0.0163129
913.121	0.0162852
913.199	0.0162235
913.277	0.0163212
913.355	0.0160727
913.433	0.0160777
913.511	0.0162767
913.590	0.0161063
913.668	0.0161874
913.746	0.0163200
913.824	0.0162738
913.902	0.0162690
913.980	0.0162234
914.058	0.0161053
914.136	0.0163481
914.215	0.0162165
914.293	0.0161621
914.371	0.0162011
914.449	0.0164050
914.527	0.0163403
914.605	0.0162786
914.683	0.0163145
914.761	0.0163770
914.840	0.0162914
914.918	0.0162212
914.996	0.0162930
915.074	0.0163386
915.152	0.0162522
915.230	0.0163043
915.308	0.0163951
915.386	0.0163586
915.465	0.0163297
915.543	0.0162602
915.621	0.0162185
915.699	0.0161429
915.777	0.0161745
915.855	0.0161739
915.933	0.0163303
916.011	0.0163055
916.090	0.0162197
916.168	0.0162753
916.246	0.0161989
916.324	0.0162286
916.402	0.0161578
916.480	0.0160268
916.558	0.0161244
916.636	0.0162225
916.715	0.0162446
916.793	0.0162037
916.871	0.0162237
916.949	0.0161667
917.027	0.0163239
917.105	0.0163245
917.183	0.0163896
917.261	0.0162132
917.340	0.0162179
917.418	0.0163261
917.496	0.0162122
917.574	0.0163293
917.652	0.0162944
917.730	0.0161784
917.808	0.0162189
917.886	0.0162254
917.965	0.0161762
918.043	0.0162862
918.121	0.0162307
918.199	0.0163076
918.277	0.0162509
918.355	0.0161585
918.433	0.0162186
918.511	0.0162975
918.590	0.0162653
918.668	0.0163096
918.746	0.0162626
918.824	0.0162531
918.902	0.0161879
918.980	0.0163146
919.058	0.0161107
919.136	0.0162354
919.215	0.0162429
919.293	0.0162232
919.371	0.0162547
919.449	0.0165118
919.527	0.0163560
919.605	0.0164010
919.683	0.0162237
919.761	0.0163202
919.840	0.0163146
919.918	0.0162176
919.996	0.0164477
920.074	0.0165285
920.152	0.0163776
920.230	0.0162686
920.308	0.0161649
920.386	0.0163433
920.465	0.0162589
920.543	0.0162604
920.621	0.0163527
920.699	0.0163184
920.777	0.0160989
920.855	0.0162560
920.933	0.0159647
921.011	0.0161024
921.090	0.0161928
921.168	0.0160968
921.246	0.0162491
921.324	0.0161928
921.402	0.0161514
921.480	0.0162542
921.558	0.0162892
921.636	0.0162399
921.715	0.0163577
921.793	0.0162660
921.871	0.0162913
921.949	0.0163818
922.027	0.0163704
922.105	0.0164288
922.183	0.0162582
922.261	0.0162321
922.340	0.0162745
922.418	0.0164453
922.496	0.0164295
922.574	0.0163522
922.652	0.0162885
922.730	0.0164462
922.808	0.0164280
922.886	0.0163522
922.965	0.0163449
923.043	0.0164593
923.121	0.0163469
923.199	0.0163061
923.277	0.0164243
923.355	0.0162999
923.433	0.0161926
923.511	0.0162628
923.590	0.0162972
923.668	0.0160149
923.746	0.0161060
923.824	0.0161310
923.902	0.0161298
923.980	0.0162407
924.058	0.0161906
924.136	0.0162168
924.215	0.0162288
924.293	0.0163139
924.371	0.0162256
924.449	0.0161892
924.527	0.0163133
924.605	0.0162530
924.683	0.0162429
924.761	0.0162885
924.840	0.0163225
924.918	0.0162163
924.996	0.0161982
925.074	0.0162929
925.152	0.0164606
925.230	0.0163300
925.308	0.0162497
925.386	0.0162434
925.465	0.0162543
925.543	0.0163720
925.621	0.0162077
925.699	0.0162291
925.777	0.0162217
925.855	0.0161277
925.933	0.0161880
926.011	0.0163570
926.090	0.0162569
926.168	0.0162798
926.246	0.0162138
926.324	0.0162902
926.402	0.0161452
926.480	0.0162416
926.558	0.0162380
926.636	0.0162479
926.715	0.0162467
926.793	0.0162062
926.871	0.0164172
926.949	0.0163352
927.027	0.0162917
927.105	0.0164124
927.183	0.0164481
927.261	0.0163657
927.340	0.0162305
927.418	0.0164468
927.496	0.0162470
927.574	0.0163217
927.652	0.0164086
927.730	0.0162708
927.808	0.0161650
927.886	0.0161820
927.965	0.0162035
928.043	0.0160925
928.121	0.0160079
928.199	0.0161771
928.277	0.0162579
928.355	0.0161140
928.433	0.0161737
928.511	0.0162130
928.590	0.0163448
928.668	0.0161640
928.746	0.0161766
928.824	0.0163903
928.902	0.0163517
928.980	0.0162634
929.058	0.0163317
929.136	0.0163322
929.215	0.0163619
929.293	0.0162756
929.371	0.0163889
929.449	0.0162678
929.527	0.0163503
929.605	0.0163148
929.683	0.0163310
929.761	0.0163375
929.840	0.0162465
929.918	0.0163791
929.996	0.0162742
930.074	0.0162671
930.152	0.0162966
930.230	0.0162456
930.308	0.0163221
930.386	0.0162890
930.465	0.0162537
930.543	0.0163425
930.621	0.0163197
930.699	0.0162973
930.777	0.0162865
930.855	0.0163204
930.933	0.0162126
931.011	0.0162990
931.090	0.0162221
931.168	0.0162325
931.246	0.0161794
931.324	0.0164313
931.402	0.0162740
931.480	0.0163254
931.558	0.0161709
931.636	0.0161425
931.715	0.0162941
931.793	0.0163166
931.871	0.0162505
931.949	0.0162363
932.027	0.0162212
932.105	0.0163037
932.183	0.0163203
932.261	0.0161658
932.340	0.0161687
932.418	0.0162593
932.496	0.0162258
932.574	0.0162483
932.652	0.0161987
932.730	0.0162902
932.808	0.0163064
932.886	0.0164422
932.965	0.0163281
933.043	0.0162974
933.121	0.0162683
933.199	0.0161396
933.277	0.0161008
933.355	0.0161122
933.433	0.0162028
933.511	0.0160702
933.590	0.0163000
933.668	0.0161974
933.746	0.0162157
933.824	0.0162101
933.902	0.0162116
933.980	0.0161210
934.058	0.0163627
934.136	0.0162399
934.215	0.0163260
934.293	0.0162605
934.371	0.0163617
934.449	0.0163467
934.527	0.0164659
934.605	0.0163315
934.683	0.0163124
934.761	0.0162177
934.840	0.0162315
934.918	0.0164017
934.996	0.0163390
935.074	0.0162642
935.152	0.0161276
935.230	0.0161870
935.308	0.0163308
935.386	0.0163369
935.465	0.0163547
935.543	0.0163490
935.621	0.0161663
935.699	0.0164049
935.777	0.0163797
935.855	0.0163037
935.933	0.0163907
936.011	0.0162337
936.090	0.0163437
936.168	0.0163140
936.246	0.0162861
936.324	0.0163392
936.402	0.0163655
936.480	0.0162584
936.558	0.0163305
936.636	0.0162654
936.715	0.0162087
936.793	0.0163406
936.871	0.0161817
936.949	0.0163277
937.027	0.0163139
937.105	0.0162817
937.183	0.0163219
937.261	0.0162561
937.340	0.0161950
937.418	0.0163596
937.496	0.0162485
937.574	0.0163072
937.652	0.0164095
937.730	0.0162406
937.808	0.0162928
937.886	0.0163522
937.965	0.0164684
938.043	0.0164121
938.121	0.0162650
938.199	0.0162829
938.277	0.0163993
938.355	0.0163193
938.433	0.0162094
938.511	0.0162798
938.590	0.0163210
938.668	0.0162917
938.746	0.0163021
938.824	0.0162617
938.902	0.0162920
938.980	0.0162511
939.058	0.0161282
939.136	0.0161388
939.215	0.0161616
939.293	0.0162048
939.371	0.0162838
939.449	0.0161372
939.527	0.0159983
939.605	0.0162051
939.683	0.0161034
939.761	0.0161574
939.840	0.0162012
939.918	0.0161304
939.996	0.0161307
940.074	0.0161346
940.152	0.0160699
940.230	0.0161407
940.308	0.0160334
940.386	0.0161916
940.465	0.0160666
940.543	0.0161503
940.621	0.0160308
940.699	0.0160181
940.777	0.0160175
940.855	0.0161531
940.933	0.0162210
941.011	0.0161603
941.090	0.0161565
941.168	0.0160374
941.246	0.0162788
941.324	0.0161356
941.402	0.0161750
941.480	0.0162431
941.558	0.0162389
941.636	0.0161700
941.715	0.0162770
941.793	0.0163100
941.871	0.0162041
941.949	0.0161803
942.027	0.0162687
942.105	0.0164796
942.183	0.0163650
942.261	0.0162601
942.340	0.0162711
942.418	0.0163154
942.496	0.0162569
942.574	0.0162186
942.652	0.0163629
942.730	0.0163020
942.808	0.0162958
942.886	0.0163912
942.965	0.0162771
943.043	0.0162336
943.121	0.0163873
943.199	0.0162787
943.277	0.0164290
943.355	0.0163304
943.433	0.0163052
943.511	0.0163091
943.590	0.0162600
943.668	0.0163171
943.746	0.0161977
943.824	0.0162291
943.902	0.0161591
943.980	0.0162771
944.058	0.0161609
944.136	0.0162228
944.215	0.0161745
944.293	0.0161303
944.371	0.0162917
944.449	0.0162067
944.527	0.0162660
944.605	0.0162370
944.683	0.0162409
944.761	0.0162324
944.840	0.0161147
944.918	0.0162166
944.996	0.0161769
945.074	0.0162321
945.152	0.0162794
945.230	0.0163275
945.308	0.0163310
945.386	0.0162937
945.465	0.0163818
945.543	0.0163836
945.621	0.0163770
945.699	0.0163683
945.777	0.0164436
945.855	0.0164658
945.933	0.0164938
946.011	0.0163026
946.090	0.0163091
946.168	0.0162994
946.246	0.0162865
946.324	0.0162698
946.402	0.0163184
946.480	0.0163537
946.558	0.0162788
946.636	0.0161968
946.715	0.0161470
946.793	0.0161372
946.871	0.0162283
946.949	0.0163203
947.027	0.0161855
947.105	0.0161585
947.183	0.0161146
947.261	0.0162589
947.340	0.0162630
947.418	0.0160278
947.496	0.0161951
947.574	0.0162128
947.652	0.0161600
947.730	0.0162088
947.808	0.0163909
947.886	0.0162125
947.965	0.0164282
948.043	0.0161919
948.121	0.0161193
948.199	0.0161543
948.277	0.0161795
948.355	0.0161939
948.433	0.0161830
948.511	0.0163088
948.590	0.0162221
948.668	0.0161007
948.746	0.0162076
948.824	0.0162107
948.902	0.0162568
948.980	0.0162588
949.058	0.0162727
949.136	0.0162801
949.215	0.0164511
949.293	0.0162563
949.371	0.0162174
949.449	0.0162846
949.527	0.0162791
949.605	0.0163915
949.683	0.0163358
949.761	0.0162166
949.840	0.0163400
949.918	0.0162363
