06/29/2022	21:25:59	Ver.	4.1	UNKNOWN
Optical Delay	629.995835	Delta X		0.078125	Sweeps	1	Scan Rate	0/0
Coordinates	Axis 1	NaN	Axis 2	NaN	Axis 3	NaN	Axis 4	NaN	Axis 5	NaN	Axis 6	0.000000
TX Power	0.000000	RX Power	0.000000

629.996	0.0166318
630.074	0.0167762
630.152	0.0166835
630.230	0.0166310
630.308	0.0166023
630.386	0.0165835
630.465	0.0166454
630.543	0.0165141
630.621	0.0165906
630.699	0.0167209
630.777	0.0165408
630.855	0.0164741
630.933	0.0166143
631.011	0.0166788
631.090	0.0164738
631.168	0.0164605
631.246	0.0165270
631.324	0.0165359
631.402	0.0167125
631.480	0.0166480
631.558	0.0166422
631.636	0.0166086
631.715	0.0166990
631.793	0.0165871
631.871	0.0166003
631.949	0.0166479
632.027	0.0167233
632.105	0.0167802
632.183	0.0166843
632.261	0.0166250
632.340	0.0166098
632.418	0.0165684
632.496	0.0166055
632.574	0.0166372
632.652	0.0167069
632.730	0.0166472
632.808	0.0166245
632.886	0.0165956
632.965	0.0166751
633.043	0.0166716
633.121	0.0166596
633.199	0.0166692
633.277	0.0166610
633.355	0.0166184
633.433	0.0166892
633.511	0.0167131
633.590	0.0167278
633.668	0.0167078
633.746	0.0166549
633.824	0.0166151
633.902	0.0166141
633.980	0.0165179
634.058	0.0166682
634.136	0.0166694
634.215	0.0166541
634.293	0.0167193
634.371	0.0165549
634.449	0.0167810
634.527	0.0166201
634.605	0.0167384
634.683	0.0167260
634.761	0.0166299
634.840	0.0165327
634.918	0.0166583
634.996	0.0166533
635.074	0.0166656
635.152	0.0166768
635.230	0.0164533
635.308	0.0165991
635.386	0.0166673
635.465	0.0165947
635.543	0.0166316
635.621	0.0166605
635.699	0.0166136
635.777	0.0166026
635.855	0.0165039
635.933	0.0167145
636.011	0.0166704
636.090	0.0166458
636.168	0.0165704
636.246	0.0164143
636.324	0.0166084
636.402	0.0166396
636.480	0.0165616
636.558	0.0165566
636.636	0.0165633
636.715	0.0166697
636.793	0.0164503
636.871	0.0165788
636.949	0.0166931
637.027	0.0165359
637.105	0.0166537
637.183	0.0167086
637.261	0.0166650
637.340	0.0166314
637.418	0.0164970
637.496	0.0165823
637.574	0.0165591
637.652	0.0166297
637.730	0.0166219
637.808	0.0166750
637.886	0.0166065
637.965	0.0165388
638.043	0.0164890
638.121	0.0167507
638.199	0.0167150
638.277	0.0166499
638.355	0.0164982
638.433	0.0166219
638.511	0.0166263
638.590	0.0166281
638.668	0.0166322
638.746	0.0165473
638.824	0.0165780
638.902	0.0166474
638.980	0.0164819
639.058	0.0165353
639.136	0.0166317
639.215	0.0167097
639.293	0.0166872
639.371	0.0166062
639.449	0.0166680
639.527	0.0166734
639.605	0.0166347
639.683	0.0166501
639.761	0.0165721
639.840	0.0165767
639.918	0.0166073
639.996	0.0165588
640.074	0.0166911
640.152	0.0166370
640.230	0.0166393
640.308	0.0165420
640.386	0.0166718
640.465	0.0166634
640.543	0.0166901
640.621	0.0167222
640.699	0.0165779
640.777	0.0164810
640.855	0.0167096
640.933	0.0166438
641.011	0.0167234
641.090	0.0167058
641.168	0.0166644
641.246	0.0166605
641.324	0.0167416
641.402	0.0167049
641.480	0.0166961
641.558	0.0165685
641.636	0.0166091
641.715	0.0166207
641.793	0.0166315
641.871	0.0166067
641.949	0.0166977
642.027	0.0166574
642.105	0.0166566
642.183	0.0166642
642.261	0.0167349
642.340	0.0166199
642.418	0.0166637
642.496	0.0166771
642.574	0.0166604
642.652	0.0165422
642.730	0.0166682
642.808	0.0167758
642.886	0.0167601
642.965	0.0167818
643.043	0.0166459
643.121	0.0166177
643.199	0.0167274
643.277	0.0167076
643.355	0.0166005
643.433	0.0166766
643.511	0.0167400
643.590	0.0165672
643.668	0.0166602
643.746	0.0166992
643.824	0.0167446
643.902	0.0168059
643.980	0.0166982
644.058	0.0165543
644.136	0.0166904
644.215	0.0166367
644.293	0.0167718
644.371	0.0166096
644.449	0.0166899
644.527	0.0167111
644.605	0.0166335
644.683	0.0167046
644.761	0.0166934
644.840	0.0166393
644.918	0.0166582
644.996	0.0166901
645.074	0.0167309
645.152	0.0165825
645.230	0.0167709
645.308	0.0166694
645.386	0.0166138
645.465	0.0166836
645.543	0.0166509
645.621	0.0166549
645.699	0.0165733
645.777	0.0165475
645.855	0.0166776
645.933	0.0167406
646.011	0.0166219
646.090	0.0165633
646.168	0.0165154
646.246	0.0165868
646.324	0.0166849
646.402	0.0167818
646.480	0.0166138
646.558	0.0165414
646.636	0.0166060
646.715	0.0167300
646.793	0.0165224
646.871	0.0166512
646.949	0.0165897
647.027	0.0166369
647.105	0.0167308
647.183	0.0166520
647.261	0.0165380
647.340	0.0165122
647.418	0.0166479
647.496	0.0166181
647.574	0.0166403
647.652	0.0165418
647.730	0.0166384
647.808	0.0166660
647.886	0.0166442
647.965	0.0166883
648.043	0.0166551
648.121	0.0165996
648.199	0.0165432
648.277	0.0165474
648.355	0.0166918
648.433	0.0166221
648.511	0.0165598
648.590	0.0165858
648.668	0.0166701
648.746	0.0166560
648.824	0.0166304
648.902	0.0165942
648.980	0.0166139
649.058	0.0165599
649.136	0.0165276
649.215	0.0167716
649.293	0.0166106
649.371	0.0166595
649.449	0.0166744
649.527	0.0166637
649.605	0.0166322
649.683	0.0167032
649.761	0.0165956
649.840	0.0166037
649.918	0.0166182
649.996	0.0166758
650.074	0.0166784
650.152	0.0165910
650.230	0.0166409
650.308	0.0166287
650.386	0.0166847
650.465	0.0167738
650.543	0.0166818
650.621	0.0165678
650.699	0.0166717
650.777	0.0166836
650.855	0.0166647
650.933	0.0165842
651.011	0.0166449
651.090	0.0167506
651.168	0.0166182
651.246	0.0165362
651.324	0.0166939
651.402	0.0166069
651.480	0.0166330
651.558	0.0166738
651.636	0.0167983
651.715	0.0166997
651.793	0.0165849
651.871	0.0166597
651.949	0.0165753
652.027	0.0165221
652.105	0.0166123
652.183	0.0166034
652.261	0.0165582
652.340	0.0165804
652.418	0.0166985
652.496	0.0167009
652.574	0.0166377
652.652	0.0167452
652.730	0.0166500
652.808	0.0165379
652.886	0.0165530
652.965	0.0165198
653.043	0.0166375
653.121	0.0165761
653.199	0.0167429
653.277	0.0165558
653.355	0.0166058
653.433	0.0166946
653.511	0.0166766
653.590	0.0166606
653.668	0.0166337
653.746	0.0166633
653.824	0.0166980
653.902	0.0166721
653.980	0.0165438
654.058	0.0164359
654.136	0.0167117
654.215	0.0167506
654.293	0.0168471
654.371	0.0166709
654.449	0.0167241
654.527	0.0167110
654.605	0.0168149
654.683	0.0166692
654.761	0.0166872
654.840	0.0165324
654.918	0.0164510
654.996	0.0165938
655.074	0.0166521
655.152	0.0166533
655.230	0.0166412
655.308	0.0166745
655.386	0.0166472
655.465	0.0166874
655.543	0.0167592
655.621	0.0167477
655.699	0.0165939
655.777	0.0165613
655.855	0.0166013
655.933	0.0166802
656.011	0.0166811
656.090	0.0166415
656.168	0.0166668
656.246	0.0165454
656.324	0.0166988
656.402	0.0165711
656.480	0.0166750
656.558	0.0166447
656.636	0.0166113
656.715	0.0166452
656.793	0.0165618
656.871	0.0167543
656.949	0.0166224
657.027	0.0165443
657.105	0.0167101
657.183	0.0167553
657.261	0.0167335
657.340	0.0166841
657.418	0.0166579
657.496	0.0165521
657.574	0.0166427
657.652	0.0166202
657.730	0.0166037
657.808	0.0166331
657.886	0.0166531
657.965	0.0166528
658.043	0.0167045
658.121	0.0165685
658.199	0.0166810
658.277	0.0167739
658.355	0.0165424
658.433	0.0165102
658.511	0.0166817
658.590	0.0166483
658.668	0.0165337
658.746	0.0167071
658.824	0.0166947
658.902	0.0166304
658.980	0.0165866
659.058	0.0166978
659.136	0.0165842
659.215	0.0166080
659.293	0.0165590
659.371	0.0166262
659.449	0.0167551
659.527	0.0165746
659.605	0.0164682
659.683	0.0165267
659.761	0.0166457
659.840	0.0165848
659.918	0.0165566
659.996	0.0166257
660.074	0.0165601
660.152	0.0165412
660.230	0.0165468
660.308	0.0166223
660.386	0.0165900
660.465	0.0166079
660.543	0.0166588
660.621	0.0166401
660.699	0.0167266
660.777	0.0166689
660.855	0.0166099
660.933	0.0165945
661.011	0.0167280
661.090	0.0167134
661.168	0.0166947
661.246	0.0166499
661.324	0.0165567
661.402	0.0166302
661.480	0.0167883
661.558	0.0166756
661.636	0.0167307
661.715	0.0165995
661.793	0.0166465
661.871	0.0166853
661.949	0.0167719
662.027	0.0166950
662.105	0.0166949
662.183	0.0166702
662.261	0.0166552
662.340	0.0166203
662.418	0.0164688
662.496	0.0166926
662.574	0.0167471
662.652	0.0167530
662.730	0.0166384
662.808	0.0165391
662.886	0.0167316
662.965	0.0166488
663.043	0.0165781
663.121	0.0168739
663.199	0.0167033
663.277	0.0168035
663.355	0.0166414
663.433	0.0166441
663.511	0.0167692
663.590	0.0166867
663.668	0.0166081
663.746	0.0165163
663.824	0.0167290
663.902	0.0167869
663.980	0.0167517
664.058	0.0167400
664.136	0.0167882
664.215	0.0164948
664.293	0.0165426
664.371	0.0167006
664.449	0.0166379
664.527	0.0167158
664.605	0.0166876
664.683	0.0165496
664.761	0.0166363
664.840	0.0166072
664.918	0.0165378
664.996	0.0166624
665.074	0.0165951
665.152	0.0164317
665.230	0.0165263
665.308	0.0166666
665.386	0.0166840
665.465	0.0164721
665.543	0.0166268
665.621	0.0166602
665.699	0.0166356
665.777	0.0166252
665.855	0.0166136
665.933	0.0166183
666.011	0.0165669
666.090	0.0165512
666.168	0.0166110
666.246	0.0165322
666.324	0.0165523
666.402	0.0165143
666.480	0.0166497
666.558	0.0166669
666.636	0.0166618
666.715	0.0165965
666.793	0.0167464
666.871	0.0167138
666.949	0.0166011
667.027	0.0166783
667.105	0.0167070
667.183	0.0166027
667.261	0.0166781
667.340	0.0167532
667.418	0.0166319
667.496	0.0165427
667.574	0.0165296
667.652	0.0165425
667.730	0.0166405
667.808	0.0165415
667.886	0.0166532
667.965	0.0166413
668.043	0.0166521
668.121	0.0167284
668.199	0.0166940
668.277	0.0166635
668.355	0.0165693
668.433	0.0165611
668.511	0.0166850
668.590	0.0168822
668.668	0.0167818
668.746	0.0164652
668.824	0.0166927
668.902	0.0167030
668.980	0.0166261
669.058	0.0166697
669.136	0.0166833
669.215	0.0165836
669.293	0.0165945
669.371	0.0166869
669.449	0.0166586
669.527	0.0166751
669.605	0.0166481
669.683	0.0166480
669.761	0.0166215
669.840	0.0166708
669.918	0.0165568
669.996	0.0166232
670.074	0.0166271
670.152	0.0166550
670.230	0.0166373
670.308	0.0165552
670.386	0.0166438
670.465	0.0166367
670.543	0.0165342
670.621	0.0165804
670.699	0.0167701
670.777	0.0166376
670.855	0.0166076
670.933	0.0167417
671.011	0.0166940
671.090	0.0167573
671.168	0.0166327
671.246	0.0167531
671.324	0.0167548
671.402	0.0165783
671.480	0.0165781
671.558	0.0165601
671.636	0.0165430
671.715	0.0166943
671.793	0.0165993
671.871	0.0166583
671.949	0.0165968
672.027	0.0166837
672.105	0.0165974
672.183	0.0167268
672.261	0.0167684
672.340	0.0166507
672.418	0.0166564
672.496	0.0165903
672.574	0.0166920
672.652	0.0168556
672.730	0.0165518
672.808	0.0165986
672.886	0.0166228
672.965	0.0166427
673.043	0.0166552
673.121	0.0167519
673.199	0.0166415
673.277	0.0166953
673.355	0.0168385
673.433	0.0168571
673.511	0.0167082
673.590	0.0165845
673.668	0.0167517
673.746	0.0167332
673.824	0.0166471
673.902	0.0166920
673.980	0.0166810
674.058	0.0165419
674.136	0.0167197
674.215	0.0166797
674.293	0.0164491
674.371	0.0166510
674.449	0.0165748
674.527	0.0165971
674.605	0.0165517
674.683	0.0166391
674.761	0.0164815
674.840	0.0164890
674.918	0.0167016
674.996	0.0165894
675.074	0.0167004
675.152	0.0168194
675.230	0.0167266
675.308	0.0167004
675.386	0.0166553
675.465	0.0166249
675.543	0.0167068
675.621	0.0166133
675.699	0.0165290
675.777	0.0166213
675.855	0.0165936
675.933	0.0165682
676.011	0.0165993
676.090	0.0164889
676.168	0.0165689
676.246	0.0166100
676.324	0.0165284
676.402	0.0165658
676.480	0.0166016
676.558	0.0166070
676.636	0.0165522
676.715	0.0167403
676.793	0.0167237
676.871	0.0166945
676.949	0.0166906
677.027	0.0167609
677.105	0.0166845
677.183	0.0166410
677.261	0.0166321
677.340	0.0166137
677.418	0.0166409
677.496	0.0167955
677.574	0.0165749
677.652	0.0166458
677.730	0.0165925
677.808	0.0166657
677.886	0.0165772
677.965	0.0165555
678.043	0.0165452
678.121	0.0165895
678.199	0.0166364
678.277	0.0166429
678.355	0.0166061
678.433	0.0165009
678.511	0.0166481
678.590	0.0165821
678.668	0.0166161
678.746	0.0165952
678.824	0.0166773
678.902	0.0166734
678.980	0.0166259
679.058	0.0165852
679.136	0.0166985
679.215	0.0165963
679.293	0.0167192
679.371	0.0166230
679.449	0.0165460
679.527	0.0165649
679.605	0.0166162
679.683	0.0165334
679.761	0.0166225
679.840	0.0165655
679.918	0.0166573
679.996	0.0166272
680.074	0.0165152
680.152	0.0167120
680.230	0.0167298
680.308	0.0164790
680.386	0.0167354
680.465	0.0166665
680.543	0.0166837
680.621	0.0165717
680.699	0.0167157
680.777	0.0166918
680.855	0.0166908
680.933	0.0167299
681.011	0.0166118
681.090	0.0165834
681.168	0.0166315
681.246	0.0165069
681.324	0.0165492
681.402	0.0166454
681.480	0.0168076
681.558	0.0166138
681.636	0.0165710
681.715	0.0166317
681.793	0.0166897
681.871	0.0167548
681.949	0.0165741
682.027	0.0165812
682.105	0.0165878
682.183	0.0165204
682.261	0.0167207
682.340	0.0166969
682.418	0.0166390
682.496	0.0166547
682.574	0.0165873
682.652	0.0165356
682.730	0.0166828
682.808	0.0167080
682.886	0.0166020
682.965	0.0166666
683.043	0.0167258
683.121	0.0166649
683.199	0.0166338
683.277	0.0166418
683.355	0.0166918
683.433	0.0166927
683.511	0.0167326
683.590	0.0166804
683.668	0.0166457
683.746	0.0167556
683.824	0.0166499
683.902	0.0166096
683.980	0.0166918
684.058	0.0165259
684.136	0.0165992
684.215	0.0165496
684.293	0.0164553
684.371	0.0166312
684.449	0.0167094
684.527	0.0166698
684.605	0.0165226
684.683	0.0166144
684.761	0.0167050
684.840	0.0166341
684.918	0.0166786
684.996	0.0166772
685.074	0.0166776
685.152	0.0166399
685.230	0.0167232
685.308	0.0166116
685.386	0.0166094
685.465	0.0167606
685.543	0.0166662
685.621	0.0165124
685.699	0.0166264
685.777	0.0165579
685.855	0.0166235
685.933	0.0165645
686.011	0.0165335
686.090	0.0166191
686.168	0.0167486
686.246	0.0166081
686.324	0.0165924
686.402	0.0167590
686.480	0.0165734
686.558	0.0165963
686.636	0.0167360
686.715	0.0167252
686.793	0.0166538
686.871	0.0166286
686.949	0.0166259
687.027	0.0167836
687.105	0.0166460
687.183	0.0167993
687.261	0.0166934
687.340	0.0167338
687.418	0.0166132
687.496	0.0165887
687.574	0.0166742
687.652	0.0166479
687.730	0.0166106
687.808	0.0166010
687.886	0.0167896
687.965	0.0166364
688.043	0.0165266
688.121	0.0165681
688.199	0.0167050
688.277	0.0165781
688.355	0.0166898
688.433	0.0166936
688.511	0.0165968
688.590	0.0165704
688.668	0.0166702
688.746	0.0165437
688.824	0.0167869
688.902	0.0166882
688.980	0.0168317
689.058	0.0166843
689.136	0.0165610
689.215	0.0167918
689.293	0.0165791
689.371	0.0166772
689.449	0.0165769
689.527	0.0166291
689.605	0.0167162
689.683	0.0166295
689.761	0.0166663
689.840	0.0166330
689.918	0.0164619
689.996	0.0166540
690.074	0.0165668
690.152	0.0166042
690.230	0.0165863
690.308	0.0166025
690.386	0.0166403
690.465	0.0165587
690.543	0.0165883
690.621	0.0167628
690.699	0.0166976
690.777	0.0166496
690.855	0.0166117
690.933	0.0166893
691.011	0.0165741
691.090	0.0166669
691.168	0.0166848
691.246	0.0165646
691.324	0.0167256
691.402	0.0167276
691.480	0.0165250
691.558	0.0166492
691.636	0.0167022
691.715	0.0166238
691.793	0.0167154
691.871	0.0166343
691.949	0.0165717
692.027	0.0168370
692.105	0.0167560
692.183	0.0167465
692.261	0.0167596
692.340	0.0167245
692.418	0.0167894
692.496	0.0167606
692.574	0.0167347
692.652	0.0166637
692.730	0.0166029
692.808	0.0167554
692.886	0.0167139
692.965	0.0167315
693.043	0.0167171
693.121	0.0165833
693.199	0.0166753
693.277	0.0166531
693.355	0.0166875
693.433	0.0165952
693.511	0.0166092
693.590	0.0168644
693.668	0.0166111
693.746	0.0166016
693.824	0.0165992
693.902	0.0166766
693.980	0.0165208
694.058	0.0165997
694.136	0.0165207
694.215	0.0165849
694.293	0.0166205
694.371	0.0165903
694.449	0.0166669
694.527	0.0165922
694.605	0.0165622
694.683	0.0165191
694.761	0.0165656
694.840	0.0165033
694.918	0.0167262
694.996	0.0167419
695.074	0.0165907
695.152	0.0164526
695.230	0.0167336
695.308	0.0165474
695.386	0.0165782
695.465	0.0166894
695.543	0.0165999
695.621	0.0167130
695.699	0.0166085
695.777	0.0167536
695.855	0.0165685
695.933	0.0167208
696.011	0.0166784
696.090	0.0165979
696.168	0.0166049
696.246	0.0166218
696.324	0.0166814
696.402	0.0166293
696.480	0.0166177
696.558	0.0164947
696.636	0.0166855
696.715	0.0165396
696.793	0.0166140
696.871	0.0166687
696.949	0.0166835
697.027	0.0167931
697.105	0.0167823
697.183	0.0167428
697.261	0.0166142
697.340	0.0167781
697.418	0.0167136
697.496	0.0167554
697.574	0.0164319
697.652	0.0163865
697.730	0.0166245
697.808	0.0165587
697.886	0.0167044
697.965	0.0165044
698.043	0.0165330
698.121	0.0165419
698.199	0.0164962
698.277	0.0164757
698.355	0.0166063
698.433	0.0165878
698.511	0.0165871
698.590	0.0167999
698.668	0.0167138
698.746	0.0167736
698.824	0.0167020
698.902	0.0165728
698.980	0.0167231
699.058	0.0167921
699.136	0.0166691
699.215	0.0168216
699.293	0.0166969
699.371	0.0166969
699.449	0.0166889
699.527	0.0166162
699.605	0.0166825
699.683	0.0166383
699.761	0.0166473
699.840	0.0167075
699.918	0.0167985
699.996	0.0165553
700.074	0.0165755
700.152	0.0166287
700.230	0.0166041
700.308	0.0165569
700.386	0.0167049
700.465	0.0165541
700.543	0.0164870
700.621	0.0164835
700.699	0.0166470
700.777	0.0165669
700.855	0.0165829
700.933	0.0164798
701.011	0.0163694
701.090	0.0166785
701.168	0.0164933
701.246	0.0166182
701.324	0.0164651
701.402	0.0165984
701.480	0.0165342
701.558	0.0166071
701.636	0.0166490
701.715	0.0165859
701.793	0.0165932
701.871	0.0166984
701.949	0.0167966
702.027	0.0166785
702.105	0.0167417
702.183	0.0167800
702.261	0.0168932
702.340	0.0167524
702.418	0.0168766
702.496	0.0167389
702.574	0.0167259
702.652	0.0167726
702.730	0.0167880
702.808	0.0167635
702.886	0.0166327
702.965	0.0166433
703.043	0.0166952
703.121	0.0167358
703.199	0.0167732
703.277	0.0166424
703.355	0.0167182
703.433	0.0166668
703.511	0.0166971
703.590	0.0166826
703.668	0.0167295
703.746	0.0167039
703.824	0.0165934
703.902	0.0167087
703.980	0.0166069
704.058	0.0165388
704.136	0.0166197
704.215	0.0167225
704.293	0.0165051
704.371	0.0165214
704.449	0.0164507
704.527	0.0164784
704.605	0.0164938
704.683	0.0164861
704.761	0.0165411
704.840	0.0165837
704.918	0.0165617
704.996	0.0165489
705.074	0.0165825
705.152	0.0164603
705.230	0.0165240
705.308	0.0165027
705.386	0.0164274
705.465	0.0165869
705.543	0.0165042
705.621	0.0165659
705.699	0.0165909
705.777	0.0165095
705.855	0.0165605
705.933	0.0165592
706.011	0.0166344
706.090	0.0167233
706.168	0.0166958
706.246	0.0165838
706.324	0.0168111
706.402	0.0167141
706.480	0.0167040
706.558	0.0168518
706.636	0.0166177
706.715	0.0165795
706.793	0.0166145
706.871	0.0166460
706.949	0.0166325
707.027	0.0166460
707.105	0.0166624
707.183	0.0165762
707.261	0.0166183
707.340	0.0166116
707.418	0.0165118
707.496	0.0166416
707.574	0.0164835
707.652	0.0165726
707.730	0.0166863
707.808	0.0167464
707.886	0.0166657
707.965	0.0167612
708.043	0.0167104
708.121	0.0167551
708.199	0.0167448
708.277	0.0167596
708.355	0.0168431
708.433	0.0169241
708.511	0.0169237
708.590	0.0169208
708.668	0.0170358
708.746	0.0169692
708.824	0.0169962
708.902	0.0168786
708.980	0.0169384
709.058	0.0168430
709.136	0.0168013
709.215	0.0167216
709.293	0.0167785
709.371	0.0167289
709.449	0.0168076
709.527	0.0165523
709.605	0.0164948
709.683	0.0165199
709.761	0.0164774
709.840	0.0163808
709.918	0.0163631
709.996	0.0163964
710.074	0.0165177
710.152	0.0163586
710.230	0.0161933
710.308	0.0163047
710.386	0.0163496
710.465	0.0163711
710.543	0.0164449
710.621	0.0162987
710.699	0.0163336
710.777	0.0165379
710.855	0.0164552
710.933	0.0164598
711.011	0.0165935
711.090	0.0165530
711.168	0.0165920
711.246	0.0166035
711.324	0.0166122
711.402	0.0166510
711.480	0.0166581
711.558	0.0166834
711.636	0.0167702
711.715	0.0166518
711.793	0.0167610
711.871	0.0167904
711.949	0.0168424
712.027	0.0166122
712.105	0.0168547
712.183	0.0167043
712.261	0.0168937
712.340	0.0167883
712.418	0.0166647
712.496	0.0168330
712.574	0.0169576
712.652	0.0166190
712.730	0.0167343
712.808	0.0169327
712.886	0.0166737
712.965	0.0167571
713.043	0.0166714
713.121	0.0166570
713.199	0.0166942
713.277	0.0167636
713.355	0.0168208
713.433	0.0166681
713.511	0.0166718
713.590	0.0166931
713.668	0.0167229
713.746	0.0167883
713.824	0.0167743
713.902	0.0167325
713.980	0.0167421
714.058	0.0166216
714.136	0.0166262
714.215	0.0167320
714.293	0.0166496
714.371	0.0166028
714.449	0.0165677
714.527	0.0168079
714.605	0.0166269
714.683	0.0165422
714.761	0.0164555
714.840	0.0165419
714.918	0.0165419
714.996	0.0163220
715.074	0.0164207
715.152	0.0164576
715.230	0.0164253
715.308	0.0164464
715.386	0.0164258
715.465	0.0163711
715.543	0.0163773
715.621	0.0164883
715.699	0.0164681
715.777	0.0166014
715.855	0.0164825
715.933	0.0164795
716.011	0.0166370
716.090	0.0165894
716.168	0.0166315
716.246	0.0166678
716.324	0.0167490
716.402	0.0167667
716.480	0.0166595
716.558	0.0167016
716.636	0.0167986
716.715	0.0167580
716.793	0.0167381
716.871	0.0167551
716.949	0.0167389
717.027	0.0169025
717.105	0.0168793
717.183	0.0167556
717.261	0.0169245
717.340	0.0168498
717.418	0.0167358
717.496	0.0167796
717.574	0.0168510
717.652	0.0166116
717.730	0.0166348
717.808	0.0169010
717.886	0.0168658
717.965	0.0167008
718.043	0.0166618
718.121	0.0166785
718.199	0.0167187
718.277	0.0166010
718.355	0.0165388
718.433	0.0166267
718.511	0.0166584
718.590	0.0164035
718.668	0.0164803
718.746	0.0165955
718.824	0.0164571
718.902	0.0163161
718.980	0.0162567
719.058	0.0164309
719.136	0.0163421
719.215	0.0164282
719.293	0.0163592
719.371	0.0164101
719.449	0.0165272
719.527	0.0165266
719.605	0.0164675
719.683	0.0166792
719.761	0.0166103
719.840	0.0165541
719.918	0.0167223
719.996	0.0167235
720.074	0.0167184
720.152	0.0168438
720.230	0.0166601
720.308	0.0168132
720.386	0.0167939
720.465	0.0166866
720.543	0.0166726
720.621	0.0166010
720.699	0.0166880
720.777	0.0166029
720.855	0.0166014
720.933	0.0165437
721.011	0.0164021
721.090	0.0165234
721.168	0.0165199
721.246	0.0164339
721.324	0.0163731
721.402	0.0165196
721.480	0.0165310
721.558	0.0164838
721.636	0.0166147
721.715	0.0165601
721.793	0.0165879
721.871	0.0165941
721.949	0.0166716
722.027	0.0166784
722.105	0.0166760
722.183	0.0167671
722.261	0.0167350
722.340	0.0167046
722.418	0.0167479
722.496	0.0168668
722.574	0.0167289
722.652	0.0168484
722.730	0.0167358
722.808	0.0167856
722.886	0.0167391
722.965	0.0167406
723.043	0.0167245
723.121	0.0167982
723.199	0.0166447
723.277	0.0167429
723.355	0.0166446
723.433	0.0164892
723.511	0.0165513
723.590	0.0165330
723.668	0.0164790
723.746	0.0164796
723.824	0.0163792
723.902	0.0163516
723.980	0.0164712
724.058	0.0164297
724.136	0.0163979
724.215	0.0166035
724.293	0.0164823
724.371	0.0165816
724.449	0.0166690
724.527	0.0166692
724.605	0.0164629
724.683	0.0165578
724.761	0.0164672
724.840	0.0166741
724.918	0.0166802
724.996	0.0166376
725.074	0.0168417
725.152	0.0166843
725.230	0.0166363
725.308	0.0168285
725.386	0.0167869
725.465	0.0168395
725.543	0.0168350
725.621	0.0168224
725.699	0.0167605
725.777	0.0167058
725.855	0.0168329
725.933	0.0167645
726.011	0.0166167
726.090	0.0166407
726.168	0.0165227
726.246	0.0165783
726.324	0.0164819
726.402	0.0165937
726.480	0.0163030
726.558	0.0163334
726.636	0.0164262
726.715	0.0162437
726.793	0.0162853
726.871	0.0162310
726.949	0.0161643
727.027	0.0161919
727.105	0.0161897
727.183	0.0161057
727.261	0.0162814
727.340	0.0163231
727.418	0.0163126
727.496	0.0163810
727.574	0.0163660
727.652	0.0164622
727.730	0.0165646
727.808	0.0166309
727.886	0.0167280
727.965	0.0165665
728.043	0.0167994
728.121	0.0169227
728.199	0.0168943
728.277	0.0169108
728.355	0.0170829
728.433	0.0170519
728.511	0.0170310
728.590	0.0170731
728.668	0.0169749
728.746	0.0169860
728.824	0.0169754
728.902	0.0169074
728.980	0.0168086
729.058	0.0167480
729.136	0.0166176
729.215	0.0166992
729.293	0.0165252
729.371	0.0165079
729.449	0.0165128
729.527	0.0163536
729.605	0.0163846
729.683	0.0163589
729.761	0.0162975
729.840	0.0164236
729.918	0.0163203
729.996	0.0163169
730.074	0.0163197
730.152	0.0164822
730.230	0.0163123
730.308	0.0162841
730.386	0.0163882
730.465	0.0165379
730.543	0.0165269
730.621	0.0166566
730.699	0.0167409
730.777	0.0167039
730.855	0.0165532
730.933	0.0167300
731.011	0.0169532
731.090	0.0168655
731.168	0.0168083
731.246	0.0169599
731.324	0.0170013
731.402	0.0170465
731.480	0.0170158
731.558	0.0170381
731.636	0.0170846
731.715	0.0170815
731.793	0.0170776
731.871	0.0170921
731.949	0.0171288
732.027	0.0170988
732.105	0.0170319
732.183	0.0167879
732.261	0.0167654
732.340	0.0167234
732.418	0.0166129
732.496	0.0164830
732.574	0.0163371
732.652	0.0163291
732.730	0.0162016
732.808	0.0160722
732.886	0.0160412
732.965	0.0159094
733.043	0.0161445
733.121	0.0159228
733.199	0.0158180
733.277	0.0157192
733.355	0.0158429
733.433	0.0160067
733.511	0.0158791
733.590	0.0159347
733.668	0.0160363
733.746	0.0161977
733.824	0.0162242
733.902	0.0162106
733.980	0.0165125
734.058	0.0165398
734.136	0.0165581
734.215	0.0166980
734.293	0.0168412
734.371	0.0167821
734.449	0.0169594
734.527	0.0171259
734.605	0.0169943
734.683	0.0172141
734.761	0.0171526
734.840	0.0172873
734.918	0.0172090
734.996	0.0171306
735.074	0.0171719
735.152	0.0171572
735.230	0.0169772
735.308	0.0168259
735.386	0.0169001
735.465	0.0166941
735.543	0.0166301
735.621	0.0164671
735.699	0.0163882
735.777	0.0163438
735.855	0.0162945
735.933	0.0161396
736.011	0.0159684
736.090	0.0161082
736.168	0.0159928
736.246	0.0161520
736.324	0.0161092
736.402	0.0161947
736.480	0.0163317
736.558	0.0163072
736.636	0.0162761
736.715	0.0163518
736.793	0.0165051
736.871	0.0165190
736.949	0.0166603
737.027	0.0168288
737.105	0.0169767
737.183	0.0170578
737.261	0.0170168
737.340	0.0171658
737.418	0.0170351
737.496	0.0172124
737.574	0.0171584
737.652	0.0172021
737.730	0.0170751
737.808	0.0171552
737.886	0.0170155
737.965	0.0168929
738.043	0.0168529
738.121	0.0169097
738.199	0.0167804
738.277	0.0166791
738.355	0.0166122
738.433	0.0165754
738.511	0.0165076
738.590	0.0164471
738.668	0.0164344
738.746	0.0164912
738.824	0.0164062
738.902	0.0164680
738.980	0.0164581
739.058	0.0164923
739.136	0.0164259
739.215	0.0163634
739.293	0.0165855
739.371	0.0164373
739.449	0.0164684
739.527	0.0164800
739.605	0.0164899
739.683	0.0165701
739.761	0.0164640
739.840	0.0166786
739.918	0.0165793
739.996	0.0164275
740.074	0.0164189
740.152	0.0163609
740.230	0.0162634
740.308	0.0164522
740.386	0.0164862
740.465	0.0164183
740.543	0.0163905
740.621	0.0164420
740.699	0.0163674
740.777	0.0164988
740.855	0.0164022
740.933	0.0164297
741.011	0.0166433
741.090	0.0166766
741.168	0.0165270
741.246	0.0167886
741.324	0.0169346
741.402	0.0168563
741.480	0.0167779
741.558	0.0169971
741.636	0.0172164
741.715	0.0169384
741.793	0.0171090
741.871	0.0170837
741.949	0.0168731
742.027	0.0168546
742.105	0.0169016
742.183	0.0168257
742.261	0.0168275
742.340	0.0166209
742.418	0.0165693
742.496	0.0164918
742.574	0.0164985
742.652	0.0164993
742.730	0.0162820
742.808	0.0163787
742.886	0.0163281
742.965	0.0162949
743.043	0.0162952
743.121	0.0163696
743.199	0.0161278
743.277	0.0162875
743.355	0.0163055
743.433	0.0161909
743.511	0.0163789
743.590	0.0163450
743.668	0.0163676
743.746	0.0164949
743.824	0.0164806
743.902	0.0166737
743.980	0.0165243
744.058	0.0165160
744.136	0.0166249
744.215	0.0166973
744.293	0.0167312
744.371	0.0167593
744.449	0.0168238
744.527	0.0168725
744.605	0.0168196
744.683	0.0167760
744.761	0.0167836
744.840	0.0168359
744.918	0.0170097
744.996	0.0168148
745.074	0.0167416
745.152	0.0167917
745.230	0.0169038
745.308	0.0168171
745.386	0.0167927
745.465	0.0167386
745.543	0.0167529
745.621	0.0167667
745.699	0.0168015
745.777	0.0166663
745.855	0.0165400
745.933	0.0165737
746.011	0.0164662
746.090	0.0164359
746.168	0.0165488
746.246	0.0164529
746.324	0.0163697
746.402	0.0163906
746.480	0.0163504
746.558	0.0164690
746.636	0.0165134
746.715	0.0164599
746.793	0.0165971
746.871	0.0166196
746.949	0.0167091
747.027	0.0167133
747.105	0.0167628
747.183	0.0166578
747.261	0.0168555
747.340	0.0169679
747.418	0.0170373
747.496	0.0169173
747.574	0.0170384
747.652	0.0169403
747.730	0.0167580
747.808	0.0168770
747.886	0.0168449
747.965	0.0167968
748.043	0.0165790
748.121	0.0167169
748.199	0.0166132
748.277	0.0165211
748.355	0.0164360
748.433	0.0163964
748.511	0.0163604
748.590	0.0164700
748.668	0.0163877
748.746	0.0162492
748.824	0.0162086
748.902	0.0163345
748.980	0.0161481
749.058	0.0163918
749.136	0.0164433
749.215	0.0164687
749.293	0.0165237
749.371	0.0165518
749.449	0.0164450
749.527	0.0164218
749.605	0.0166132
749.683	0.0166319
749.761	0.0167928
749.840	0.0167272
749.918	0.0166978
749.996	0.0167410
750.074	0.0167371
750.152	0.0167644
750.230	0.0168110
750.308	0.0168598
750.386	0.0167730
750.465	0.0165957
750.543	0.0165114
750.621	0.0165842
750.699	0.0164834
750.777	0.0163895
750.855	0.0163937
750.933	0.0163544
751.011	0.0163444
751.090	0.0163305
751.168	0.0161747
751.246	0.0163519
751.324	0.0162071
751.402	0.0163319
751.480	0.0163891
751.558	0.0164090
751.636	0.0163223
751.715	0.0162909
751.793	0.0164739
751.871	0.0165234
751.949	0.0164422
752.027	0.0164869
752.105	0.0166937
752.183	0.0167403
752.261	0.0167754
752.340	0.0167973
752.418	0.0169028
752.496	0.0168548
752.574	0.0169390
752.652	0.0171097
752.730	0.0170893
752.808	0.0170654
752.886	0.0169968
752.965	0.0169563
753.043	0.0169908
753.121	0.0169433
753.199	0.0169037
753.277	0.0168723
753.355	0.0168675
753.433	0.0168011
753.511	0.0166249
753.590	0.0165839
753.668	0.0165385
753.746	0.0166874
753.824	0.0166566
753.902	0.0165819
753.980	0.0163912
754.058	0.0164337
754.136	0.0165445
754.215	0.0166027
754.293	0.0164929
754.371	0.0165200
754.449	0.0167146
754.527	0.0165335
754.605	0.0166180
754.683	0.0166241
754.761	0.0167385
754.840	0.0166417
754.918	0.0167669
754.996	0.0168433
755.074	0.0167442
755.152	0.0167640
755.230	0.0168865
755.308	0.0168422
755.386	0.0167752
755.465	0.0168085
755.543	0.0168254
755.621	0.0168382
755.699	0.0167233
755.777	0.0166366
755.855	0.0167091
755.933	0.0166245
756.011	0.0164861
756.090	0.0164687
756.168	0.0163951
756.246	0.0165620
756.324	0.0164342
756.402	0.0164829
756.480	0.0162381
756.558	0.0161879
756.636	0.0162501
756.715	0.0164126
756.793	0.0164612
756.871	0.0163234
756.949	0.0163210
757.027	0.0164419
757.105	0.0163979
757.183	0.0164410
757.261	0.0166082
757.340	0.0166323
757.418	0.0167428
757.496	0.0166474
757.574	0.0166841
757.652	0.0168263
757.730	0.0167207
757.808	0.0166840
757.886	0.0167800
757.965	0.0168095
758.043	0.0167015
758.121	0.0165736
758.199	0.0166539
758.277	0.0165726
758.355	0.0164576
758.433	0.0163815
758.511	0.0164658
758.590	0.0163410
758.668	0.0163039
758.746	0.0163969
758.824	0.0162777
758.902	0.0164014
758.980	0.0164139
759.058	0.0165144
759.136	0.0163541
759.215	0.0164678
759.293	0.0163641
759.371	0.0164220
759.449	0.0165072
759.527	0.0165257
759.605	0.0165968
759.683	0.0164344
759.761	0.0165427
759.840	0.0166938
759.918	0.0165622
759.996	0.0166395
760.074	0.0166841
760.152	0.0166978
760.230	0.0166202
760.308	0.0167741
760.386	0.0168054
760.465	0.0167249
760.543	0.0167799
760.621	0.0168237
760.699	0.0168365
760.777	0.0165798
760.855	0.0169083
760.933	0.0167236
761.011	0.0167499
761.090	0.0168338
761.168	0.0166371
761.246	0.0166862
761.324	0.0166257
761.402	0.0166756
761.480	0.0166956
761.558	0.0167041
761.636	0.0166993
761.715	0.0165292
761.793	0.0166451
761.871	0.0166561
761.949	0.0166057
762.027	0.0167741
762.105	0.0166705
762.183	0.0166090
762.261	0.0166975
762.340	0.0168037
762.418	0.0167564
762.496	0.0166546
762.574	0.0168169
762.652	0.0168824
762.730	0.0168309
762.808	0.0167310
762.886	0.0168594
762.965	0.0168859
763.043	0.0167742
763.121	0.0167361
763.199	0.0169157
763.277	0.0168976
763.355	0.0168185
763.433	0.0168152
763.511	0.0167052
763.590	0.0168049
763.668	0.0167874
763.746	0.0166286
763.824	0.0167271
763.902	0.0166594
763.980	0.0166012
764.058	0.0166496
764.136	0.0164669
764.215	0.0163433
764.293	0.0162926
764.371	0.0163795
764.449	0.0163427
764.527	0.0163326
764.605	0.0162373
764.683	0.0161637
764.761	0.0162292
764.840	0.0163216
764.918	0.0163447
764.996	0.0163667
765.074	0.0165028
765.152	0.0165401
765.230	0.0166163
765.308	0.0166948
765.386	0.0165608
765.465	0.0167778
765.543	0.0168018
765.621	0.0167936
765.699	0.0168346
765.777	0.0167804
765.855	0.0168262
765.933	0.0167952
766.011	0.0165858
766.090	0.0166612
766.168	0.0167504
766.246	0.0167362
766.324	0.0165230
766.402	0.0166898
766.480	0.0165974
766.558	0.0165321
766.636	0.0164204
766.715	0.0162755
766.793	0.0163404
766.871	0.0163622
766.949	0.0164688
767.027	0.0164292
767.105	0.0165705
767.183	0.0165002
767.261	0.0163946
767.340	0.0164885
767.418	0.0166251
767.496	0.0164566
767.574	0.0166029
767.652	0.0167124
767.730	0.0166912
767.808	0.0166420
767.886	0.0166503
767.965	0.0167173
768.043	0.0168211
768.121	0.0166280
768.199	0.0167710
768.277	0.0167403
768.355	0.0167355
768.433	0.0165222
768.511	0.0166823
768.590	0.0166727
768.668	0.0167089
768.746	0.0167329
768.824	0.0166797
768.902	0.0167004
768.980	0.0166074
769.058	0.0166466
769.136	0.0166770
769.215	0.0165882
769.293	0.0166355
769.371	0.0167195
769.449	0.0167000
769.527	0.0166905
769.605	0.0165468
769.683	0.0167022
769.761	0.0166870
769.840	0.0166859
769.918	0.0167850
769.996	0.0167548
770.074	0.0167525
770.152	0.0167788
770.230	0.0167876
770.308	0.0168957
770.386	0.0168516
770.465	0.0167716
770.543	0.0168298
770.621	0.0169067
770.699	0.0168559
770.777	0.0169129
770.855	0.0169385
770.933	0.0170631
771.011	0.0168162
771.090	0.0168976
771.168	0.0169731
771.246	0.0169722
771.324	0.0169386
771.402	0.0168137
771.480	0.0168924
771.558	0.0170340
771.636	0.0170477
771.715	0.0169611
771.793	0.0166782
771.871	0.0166518
771.949	0.0166405
772.027	0.0165842
772.105	0.0165981
772.183	0.0163725
772.261	0.0164104
772.340	0.0163727
772.418	0.0163470
772.496	0.0162058
772.574	0.0162951
772.652	0.0162561
772.730	0.0162981
772.808	0.0163002
772.886	0.0163610
772.965	0.0163039
773.043	0.0163955
773.121	0.0164046
773.199	0.0163833
773.277	0.0164231
773.355	0.0164512
773.433	0.0165845
773.511	0.0166181
773.590	0.0167332
773.668	0.0168044
773.746	0.0168207
773.824	0.0168319
773.902	0.0168055
773.980	0.0168204
774.058	0.0167719
774.136	0.0169450
774.215	0.0170537
774.293	0.0168060
774.371	0.0168578
774.449	0.0170158
774.527	0.0168102
774.605	0.0166949
774.683	0.0168574
774.761	0.0168227
774.840	0.0166122
774.918	0.0166746
774.996	0.0164244
775.074	0.0163868
775.152	0.0164278
775.230	0.0164378
775.308	0.0163883
775.386	0.0164300
775.465	0.0163151
775.543	0.0163799
775.621	0.0163321
775.699	0.0163240
775.777	0.0164644
775.855	0.0165732
775.933	0.0166494
776.011	0.0167173
776.090	0.0165903
776.168	0.0167588
776.246	0.0167710
776.324	0.0168345
776.402	0.0169117
776.480	0.0169546
776.558	0.0168425
776.636	0.0168861
776.715	0.0168841
776.793	0.0169184
776.871	0.0167664
776.949	0.0166483
777.027	0.0169118
777.105	0.0167351
777.183	0.0167330
777.261	0.0167360
777.340	0.0165172
777.418	0.0163991
777.496	0.0165456
777.574	0.0165634
777.652	0.0165748
777.730	0.0165768
777.808	0.0164878
777.886	0.0166269
777.965	0.0165733
778.043	0.0165984
778.121	0.0165013
778.199	0.0167439
778.277	0.0168300
778.355	0.0168970
778.433	0.0167196
778.511	0.0169507
778.590	0.0166772
778.668	0.0168632
778.746	0.0169518
778.824	0.0168489
778.902	0.0167876
778.980	0.0169226
779.058	0.0169581
779.136	0.0170054
779.215	0.0168781
779.293	0.0169549
779.371	0.0168889
779.449	0.0168221
779.527	0.0168144
779.605	0.0167047
779.683	0.0167146
779.761	0.0166188
779.840	0.0165364
779.918	0.0165081
779.996	0.0164003
780.074	0.0162822
780.152	0.0161806
780.230	0.0161523
780.308	0.0161592
780.386	0.0161395
780.465	0.0161425
780.543	0.0160323
780.621	0.0160204
780.699	0.0160583
780.777	0.0160787
780.855	0.0161916
780.933	0.0162447
781.011	0.0162389
781.090	0.0164809
781.168	0.0163229
781.246	0.0165454
781.324	0.0166921
781.402	0.0166557
781.480	0.0166605
781.558	0.0167545
781.636	0.0169101
781.715	0.0170226
781.793	0.0169293
781.871	0.0168930
781.949	0.0169988
782.027	0.0169868
782.105	0.0169542
782.183	0.0169822
782.261	0.0168517
782.340	0.0168534
782.418	0.0168315
782.496	0.0166317
782.574	0.0167184
782.652	0.0165938
782.730	0.0164525
782.808	0.0166341
782.886	0.0164756
782.965	0.0162400
783.043	0.0162620
783.121	0.0164181
783.199	0.0162754
783.277	0.0163946
783.355	0.0164500
783.433	0.0165131
783.511	0.0164365
783.590	0.0166180
783.668	0.0166884
783.746	0.0165845
783.824	0.0167024
783.902	0.0166662
783.980	0.0168233
784.058	0.0168642
784.136	0.0168182
784.215	0.0167762
784.293	0.0168026
784.371	0.0168718
784.449	0.0168620
784.527	0.0167841
784.605	0.0167175
784.683	0.0166596
784.761	0.0166307
784.840	0.0166303
784.918	0.0166399
784.996	0.0166515
785.074	0.0166407
785.152	0.0164981
785.230	0.0164183
785.308	0.0165471
785.386	0.0166192
785.465	0.0165775
785.543	0.0163966
785.621	0.0165118
785.699	0.0165277
785.777	0.0164918
785.855	0.0165900
785.933	0.0164469
786.011	0.0166965
786.090	0.0167483
786.168	0.0166959
786.246	0.0167780
786.324	0.0169123
786.402	0.0169274
786.480	0.0167973
786.558	0.0168645
786.636	0.0168566
786.715	0.0169862
786.793	0.0170152
786.871	0.0169866
786.949	0.0170658
787.027	0.0169849
787.105	0.0168842
787.183	0.0170052
787.261	0.0168715
787.340	0.0167074
787.418	0.0168922
787.496	0.0167530
787.574	0.0167109
787.652	0.0166262
787.730	0.0165511
787.808	0.0166715
787.886	0.0163520
787.965	0.0163508
788.043	0.0161459
788.121	0.0161953
788.199	0.0163451
788.277	0.0161581
788.355	0.0160341
788.433	0.0161399
788.511	0.0160598
788.590	0.0161465
788.668	0.0160784
788.746	0.0161143
788.824	0.0162099
788.902	0.0162596
788.980	0.0163995
789.058	0.0163542
789.136	0.0163969
789.215	0.0165415
789.293	0.0167695
789.371	0.0167655
789.449	0.0166702
789.527	0.0168880
789.605	0.0170010
789.683	0.0172179
789.761	0.0169766
789.840	0.0170655
789.918	0.0170557
789.996	0.0169029
790.074	0.0169837
790.152	0.0169072
790.230	0.0168894
790.308	0.0170418
790.386	0.0167986
790.465	0.0167090
790.543	0.0166476
790.621	0.0165446
790.699	0.0165716
790.777	0.0165723
790.855	0.0165757
790.933	0.0164538
791.011	0.0165273
791.090	0.0163374
791.168	0.0164805
791.246	0.0164201
791.324	0.0165227
791.402	0.0166011
791.480	0.0165616
791.558	0.0165780
791.636	0.0166244
791.715	0.0166793
791.793	0.0167203
791.871	0.0167588
791.949	0.0168996
792.027	0.0169453
792.105	0.0170032
792.183	0.0169576
792.261	0.0168739
792.340	0.0170817
792.418	0.0171233
792.496	0.0172562
792.574	0.0170993
792.652	0.0170107
792.730	0.0168513
792.808	0.0167947
792.886	0.0167890
792.965	0.0166611
793.043	0.0165669
793.121	0.0164973
793.199	0.0164793
793.277	0.0164097
793.355	0.0163335
793.433	0.0162191
793.511	0.0162653
793.590	0.0163189
793.668	0.0161993
793.746	0.0163169
793.824	0.0162610
793.902	0.0163014
793.980	0.0163593
794.058	0.0165416
794.136	0.0166366
794.215	0.0165646
794.293	0.0166181
794.371	0.0167590
794.449	0.0168517
794.527	0.0169879
794.605	0.0170355
794.683	0.0170246
794.761	0.0170888
794.840	0.0172732
794.918	0.0171243
794.996	0.0172077
795.074	0.0173042
795.152	0.0170844
795.230	0.0169473
795.308	0.0170884
795.386	0.0168658
795.465	0.0166840
795.543	0.0166130
795.621	0.0164184
795.699	0.0164781
795.777	0.0163673
795.855	0.0162698
795.933	0.0160677
796.011	0.0159837
796.090	0.0160303
796.168	0.0159441
796.246	0.0159814
796.324	0.0160111
796.402	0.0161238
796.480	0.0160400
796.558	0.0161933
796.636	0.0161630
796.715	0.0161597
796.793	0.0164201
796.871	0.0163876
796.949	0.0165901
797.027	0.0166620
797.105	0.0166520
797.183	0.0168057
797.261	0.0170050
797.340	0.0169333
797.418	0.0170967
797.496	0.0171140
797.574	0.0171404
797.652	0.0171627
797.730	0.0171047
797.808	0.0170552
797.886	0.0170856
797.965	0.0171369
798.043	0.0169777
798.121	0.0169236
798.199	0.0169138
798.277	0.0168661
798.355	0.0168139
798.433	0.0165900
798.511	0.0167038
798.590	0.0164737
798.668	0.0164655
798.746	0.0164664
798.824	0.0163636
798.902	0.0165220
798.980	0.0163520
799.058	0.0164058
799.136	0.0163490
799.215	0.0161840
799.293	0.0163772
799.371	0.0163607
799.449	0.0163458
799.527	0.0165219
799.605	0.0165884
799.683	0.0164481
799.761	0.0165530
799.840	0.0166479
799.918	0.0167382
799.996	0.0167966
800.074	0.0167130
800.152	0.0168093
800.230	0.0169169
800.308	0.0168279
800.386	0.0168812
800.465	0.0170090
800.543	0.0170605
800.621	0.0169724
800.699	0.0170382
800.777	0.0170307
800.855	0.0168266
800.933	0.0169881
801.011	0.0169644
801.090	0.0166505
801.168	0.0168711
801.246	0.0167244
801.324	0.0168465
801.402	0.0165575
801.480	0.0165669
801.558	0.0166450
801.636	0.0165504
801.715	0.0163598
801.793	0.0163872
801.871	0.0165621
801.949	0.0164590
802.027	0.0164912
802.105	0.0165720
802.183	0.0164699
802.261	0.0163518
802.340	0.0164878
802.418	0.0166508
802.496	0.0165902
802.574	0.0165881
802.652	0.0166061
802.730	0.0167162
802.808	0.0168452
802.886	0.0168395
802.965	0.0168051
803.043	0.0167779
803.121	0.0168763
803.199	0.0169122
803.277	0.0169486
803.355	0.0167863
803.433	0.0168861
803.511	0.0168797
803.590	0.0166428
803.668	0.0165869
803.746	0.0165793
803.824	0.0164523
803.902	0.0164382
803.980	0.0163743
804.058	0.0162277
804.136	0.0161578
804.215	0.0162451
804.293	0.0162986
804.371	0.0161432
804.449	0.0161733
804.527	0.0162521
804.605	0.0163062
804.683	0.0162824
804.761	0.0163419
804.840	0.0166544
804.918	0.0166569
804.996	0.0166596
805.074	0.0167944
805.152	0.0169374
805.230	0.0169245
805.308	0.0168938
805.386	0.0170349
805.465	0.0170766
805.543	0.0170165
805.621	0.0171895
805.699	0.0171264
805.777	0.0169023
805.855	0.0170057
805.933	0.0168770
806.011	0.0169276
806.090	0.0168306
806.168	0.0167792
806.246	0.0167978
806.324	0.0166425
806.402	0.0163575
806.480	0.0164162
806.558	0.0164660
806.636	0.0163341
806.715	0.0162902
806.793	0.0162429
806.871	0.0161871
806.949	0.0162724
807.027	0.0161011
807.105	0.0161146
807.183	0.0160593
807.261	0.0161819
807.340	0.0163189
807.418	0.0162833
807.496	0.0164654
807.574	0.0164302
807.652	0.0164749
807.730	0.0164877
807.808	0.0166882
807.886	0.0166827
807.965	0.0167860
808.043	0.0169737
808.121	0.0169320
808.199	0.0168391
808.277	0.0169721
808.355	0.0170558
808.433	0.0170537
808.511	0.0170369
808.590	0.0169931
808.668	0.0168881
808.746	0.0169703
808.824	0.0168816
808.902	0.0168278
808.980	0.0168930
809.058	0.0168598
809.136	0.0166792
809.215	0.0167992
809.293	0.0167287
809.371	0.0166237
809.449	0.0166321
809.527	0.0166381
809.605	0.0165055
809.683	0.0166495
809.761	0.0165061
809.840	0.0164867
809.918	0.0165678
809.996	0.0165345
810.074	0.0166443
810.152	0.0165990
810.230	0.0164803
810.308	0.0164351
810.386	0.0165009
810.465	0.0165478
810.543	0.0165942
810.621	0.0164598
810.699	0.0164704
810.777	0.0165549
810.855	0.0165585
810.933	0.0165434
811.011	0.0164370
811.090	0.0164923
811.168	0.0165753
811.246	0.0165773
811.324	0.0165266
811.402	0.0167826
811.480	0.0167223
811.558	0.0167400
811.636	0.0166780
811.715	0.0167912
811.793	0.0166692
811.871	0.0166306
811.949	0.0166320
812.027	0.0167124
812.105	0.0167437
812.183	0.0166449
812.261	0.0166062
812.340	0.0165288
812.418	0.0165559
812.496	0.0164950
812.574	0.0165160
812.652	0.0164672
812.730	0.0164284
812.808	0.0165516
812.886	0.0166109
812.965	0.0166389
813.043	0.0165732
813.121	0.0165465
813.199	0.0167206
813.277	0.0165620
813.355	0.0167729
813.433	0.0167438
813.511	0.0167944
813.590	0.0168032
813.668	0.0166635
813.746	0.0168032
813.824	0.0169627
813.902	0.0168945
813.980	0.0168231
814.058	0.0169018
814.136	0.0167604
814.215	0.0168420
814.293	0.0166939
814.371	0.0166350
814.449	0.0166660
814.527	0.0166911
814.605	0.0165616
814.683	0.0164906
814.761	0.0163657
814.840	0.0164973
814.918	0.0163847
814.996	0.0163303
815.074	0.0162795
815.152	0.0164495
815.230	0.0165730
815.308	0.0165870
815.386	0.0165276
815.465	0.0165466
815.543	0.0165118
815.621	0.0165484
815.699	0.0167535
815.777	0.0167611
815.855	0.0167264
815.933	0.0168483
816.011	0.0168896
816.090	0.0169675
816.168	0.0168555
816.246	0.0168544
816.324	0.0168164
816.402	0.0167868
816.480	0.0168494
816.558	0.0166976
816.636	0.0166341
816.715	0.0166650
816.793	0.0166221
816.871	0.0167463
816.949	0.0166228
817.027	0.0165148
817.105	0.0165650
817.183	0.0165638
817.261	0.0165768
817.340	0.0166901
817.418	0.0166975
817.496	0.0168689
817.574	0.0168214
817.652	0.0169189
817.730	0.0168066
817.808	0.0167626
817.886	0.0168793
817.965	0.0168677
818.043	0.0167262
818.121	0.0167985
818.199	0.0167448
818.277	0.0166812
818.355	0.0166741
818.433	0.0165105
818.511	0.0164368
818.590	0.0164303
818.668	0.0164362
818.746	0.0163702
818.824	0.0162737
818.902	0.0163387
818.980	0.0162602
819.058	0.0163918
819.136	0.0162628
819.215	0.0164671
819.293	0.0164177
819.371	0.0165112
819.449	0.0166409
819.527	0.0167427
819.605	0.0166517
819.683	0.0167289
819.761	0.0168671
819.840	0.0167818
819.918	0.0167531
819.996	0.0167567
820.074	0.0168687
820.152	0.0165610
820.230	0.0168800
820.308	0.0167822
820.386	0.0167974
820.465	0.0168324
820.543	0.0167587
820.621	0.0168253
820.699	0.0167735
820.777	0.0167022
820.855	0.0166988
820.933	0.0167906
821.011	0.0167572
821.090	0.0168268
821.168	0.0167951
821.246	0.0168733
821.324	0.0166263
821.402	0.0167620
821.480	0.0165916
821.558	0.0167939
821.636	0.0166693
821.715	0.0166480
821.793	0.0167045
821.871	0.0166808
821.949	0.0166064
822.027	0.0166722
822.105	0.0165643
822.183	0.0165611
822.261	0.0165880
822.340	0.0166699
822.418	0.0164896
822.496	0.0166098
822.574	0.0165716
822.652	0.0163453
822.730	0.0164973
822.808	0.0164772
822.886	0.0165543
822.965	0.0166394
823.043	0.0165318
823.121	0.0167231
823.199	0.0167070
823.277	0.0165132
823.355	0.0166388
823.433	0.0166407
823.511	0.0165655
823.590	0.0165047
823.668	0.0164322
823.746	0.0165888
823.824	0.0165908
823.902	0.0165591
823.980	0.0165411
824.058	0.0164742
824.136	0.0165639
824.215	0.0166814
824.293	0.0166399
824.371	0.0166628
824.449	0.0166301
824.527	0.0166556
824.605	0.0166515
824.683	0.0165752
824.761	0.0165940
824.840	0.0166817
824.918	0.0167826
824.996	0.0168849
825.074	0.0169357
825.152	0.0167593
825.230	0.0167126
825.308	0.0169319
825.386	0.0168552
825.465	0.0168447
825.543	0.0170037
825.621	0.0168344
825.699	0.0167811
825.777	0.0169828
825.855	0.0168996
825.933	0.0168781
826.011	0.0168119
826.090	0.0167966
826.168	0.0168168
826.246	0.0168319
826.324	0.0165390
826.402	0.0165751
826.480	0.0166010
826.558	0.0165146
826.636	0.0164462
826.715	0.0163871
826.793	0.0164145
826.871	0.0163776
826.949	0.0163494
827.027	0.0163745
827.105	0.0163206
827.183	0.0163310
827.261	0.0163129
827.340	0.0164224
827.418	0.0165994
827.496	0.0164931
827.574	0.0165505
827.652	0.0164182
827.730	0.0165961
827.808	0.0166047
827.886	0.0167295
827.965	0.0166679
828.043	0.0166493
828.121	0.0167947
828.199	0.0168066
828.277	0.0169444
828.355	0.0169535
828.433	0.0169060
828.511	0.0168866
828.590	0.0168143
828.668	0.0169007
828.746	0.0169094
828.824	0.0168581
828.902	0.0168755
828.980	0.0168041
829.058	0.0170015
829.136	0.0167646
829.215	0.0167829
829.293	0.0166466
829.371	0.0166940
829.449	0.0166340
829.527	0.0166118
829.605	0.0164994
829.683	0.0164333
829.761	0.0165237
829.840	0.0163326
829.918	0.0162773
829.996	0.0163676
830.074	0.0163966
830.152	0.0161483
830.230	0.0161642
830.308	0.0162793
830.386	0.0164002
830.465	0.0164254
830.543	0.0163320
830.621	0.0163351
830.699	0.0164337
830.777	0.0165022
830.855	0.0164007
830.933	0.0166483
831.011	0.0165335
831.090	0.0166902
831.168	0.0166721
831.246	0.0167790
831.324	0.0167502
831.402	0.0166615
831.480	0.0166721
831.558	0.0166805
831.636	0.0169039
831.715	0.0167645
831.793	0.0166895
831.871	0.0167406
831.949	0.0166072
832.027	0.0165998
832.105	0.0166030
832.183	0.0166582
832.261	0.0165773
832.340	0.0166155
832.418	0.0166625
832.496	0.0165811
832.574	0.0166483
832.652	0.0166384
832.730	0.0166235
832.808	0.0166194
832.886	0.0166032
832.965	0.0166119
833.043	0.0167530
833.121	0.0166127
833.199	0.0168350
833.277	0.0168461
833.355	0.0168037
833.433	0.0166800
833.511	0.0167516
833.590	0.0167389
833.668	0.0168296
833.746	0.0166692
833.824	0.0166395
833.902	0.0166854
833.980	0.0166027
834.058	0.0166071
834.136	0.0167646
834.215	0.0166928
834.293	0.0166888
834.371	0.0166180
834.449	0.0165751
834.527	0.0166047
834.605	0.0166784
834.683	0.0165456
834.761	0.0166066
834.840	0.0165752
834.918	0.0165586
834.996	0.0166174
835.074	0.0165849
835.152	0.0165868
835.230	0.0165977
835.308	0.0165482
835.386	0.0166438
835.465	0.0165302
835.543	0.0165965
835.621	0.0164675
835.699	0.0163015
835.777	0.0164528
835.855	0.0165408
835.933	0.0163997
836.011	0.0165001
836.090	0.0164018
836.168	0.0164318
836.246	0.0166077
836.324	0.0165346
836.402	0.0164417
836.480	0.0166219
836.558	0.0167454
836.636	0.0166902
836.715	0.0167169
836.793	0.0167241
836.871	0.0168347
836.949	0.0168527
837.027	0.0167591
837.105	0.0168842
837.183	0.0168496
837.261	0.0168834
837.340	0.0168546
837.418	0.0167909
837.496	0.0168549
837.574	0.0166386
837.652	0.0165931
837.730	0.0165974
837.808	0.0165371
837.886	0.0165811
837.965	0.0165303
838.043	0.0165173
838.121	0.0166217
838.199	0.0164761
838.277	0.0163625
838.355	0.0163960
838.433	0.0163757
838.511	0.0163438
838.590	0.0163947
838.668	0.0165118
838.746	0.0166528
838.824	0.0165427
838.902	0.0165781
838.980	0.0166045
839.058	0.0165224
839.136	0.0166706
839.215	0.0167905
839.293	0.0167049
839.371	0.0165939
839.449	0.0166339
839.527	0.0167204
839.605	0.0165450
839.683	0.0165048
839.761	0.0167217
839.840	0.0166702
839.918	0.0166191
839.996	0.0167998
840.074	0.0167217
840.152	0.0167274
840.230	0.0166919
840.308	0.0166813
840.386	0.0166506
840.465	0.0168066
840.543	0.0166908
840.621	0.0165121
840.699	0.0166598
840.777	0.0166850
840.855	0.0166127
840.933	0.0167112
841.011	0.0167040
841.090	0.0166761
841.168	0.0165999
841.246	0.0165858
841.324	0.0167623
841.402	0.0166357
841.480	0.0166129
841.558	0.0165913
841.636	0.0167011
841.715	0.0166805
841.793	0.0166782
841.871	0.0166235
841.949	0.0167143
842.027	0.0166334
842.105	0.0166280
842.183	0.0166314
842.261	0.0167502
842.340	0.0166931
842.418	0.0167269
842.496	0.0166461
842.574	0.0167290
842.652	0.0168462
842.730	0.0167097
842.808	0.0166783
842.886	0.0166654
842.965	0.0166354
843.043	0.0167306
843.121	0.0166391
843.199	0.0166156
843.277	0.0166271
843.355	0.0164869
843.433	0.0165948
843.511	0.0165929
843.590	0.0165371
843.668	0.0167183
843.746	0.0166113
843.824	0.0164748
843.902	0.0165113
843.980	0.0166017
844.058	0.0165737
844.136	0.0166544
844.215	0.0165508
844.293	0.0165574
844.371	0.0165424
844.449	0.0165300
844.527	0.0166132
844.605	0.0165067
844.683	0.0164612
844.761	0.0167162
844.840	0.0166435
844.918	0.0167002
844.996	0.0168065
845.074	0.0168523
845.152	0.0166946
845.230	0.0166335
845.308	0.0167910
845.386	0.0166938
845.465	0.0166962
845.543	0.0168031
845.621	0.0168214
845.699	0.0166689
845.777	0.0165739
845.855	0.0168650
845.933	0.0168027
846.011	0.0166831
846.090	0.0166132
846.168	0.0165707
846.246	0.0165876
846.324	0.0166174
846.402	0.0165605
846.480	0.0164799
846.558	0.0164616
846.636	0.0165316
846.715	0.0165552
846.793	0.0166354
846.871	0.0165440
846.949	0.0165350
847.027	0.0164300
847.105	0.0163876
847.183	0.0165039
847.261	0.0164773
847.340	0.0164524
847.418	0.0164146
847.496	0.0165813
847.574	0.0165677
847.652	0.0164879
847.730	0.0166078
847.808	0.0166769
847.886	0.0164772
847.965	0.0165527
848.043	0.0166620
848.121	0.0166380
848.199	0.0166211
848.277	0.0166831
848.355	0.0165268
848.433	0.0165898
848.511	0.0166744
848.590	0.0167500
848.668	0.0167574
848.746	0.0165620
848.824	0.0167249
848.902	0.0166856
848.980	0.0165479
849.058	0.0165288
849.136	0.0167417
849.215	0.0167213
849.293	0.0167332
849.371	0.0167332
849.449	0.0166601
849.527	0.0165829
849.605	0.0168408
849.683	0.0166546
849.761	0.0166297
849.840	0.0167505
849.918	0.0167857
849.996	0.0168797
850.074	0.0168529
850.152	0.0168762
850.230	0.0166982
850.308	0.0167434
850.386	0.0168541
850.465	0.0168245
850.543	0.0167558
850.621	0.0168053
850.699	0.0167113
850.777	0.0166755
850.855	0.0166352
850.933	0.0165526
851.011	0.0165803
851.090	0.0166454
851.168	0.0165008
851.246	0.0165451
851.324	0.0166389
851.402	0.0167333
851.480	0.0166199
851.558	0.0166441
851.636	0.0167265
851.715	0.0166039
851.793	0.0166994
851.871	0.0165308
851.949	0.0166510
852.027	0.0167103
852.105	0.0166718
852.183	0.0166571
852.261	0.0165942
852.340	0.0165498
852.418	0.0166055
852.496	0.0167212
852.574	0.0165562
852.652	0.0165594
852.730	0.0166222
852.808	0.0166636
852.886	0.0165733
852.965	0.0166412
853.043	0.0166532
853.121	0.0165428
853.199	0.0164783
853.277	0.0165605
853.355	0.0165514
853.433	0.0166125
853.511	0.0165717
853.590	0.0166043
853.668	0.0166242
853.746	0.0165036
853.824	0.0164783
853.902	0.0166167
853.980	0.0165646
854.058	0.0166248
854.136	0.0166382
854.215	0.0164693
854.293	0.0164825
854.371	0.0167004
854.449	0.0166064
854.527	0.0165430
854.605	0.0166737
854.683	0.0164095
854.761	0.0164712
854.840	0.0165365
854.918	0.0166184
854.996	0.0165931
855.074	0.0165212
855.152	0.0165721
855.230	0.0165120
855.308	0.0166187
855.386	0.0165001
855.465	0.0164599
855.543	0.0164450
855.621	0.0165668
855.699	0.0165076
855.777	0.0165102
855.855	0.0164911
855.933	0.0164526
856.011	0.0165424
856.090	0.0164575
856.168	0.0166064
856.246	0.0165545
856.324	0.0166258
856.402	0.0166560
856.480	0.0166419
856.558	0.0165891
856.636	0.0166828
856.715	0.0166213
856.793	0.0166412
856.871	0.0167358
856.949	0.0168208
857.027	0.0168701
857.105	0.0167499
857.183	0.0166785
857.261	0.0167249
857.340	0.0168336
857.418	0.0165873
857.496	0.0167736
857.574	0.0169447
857.652	0.0166656
857.730	0.0166747
857.808	0.0167116
857.886	0.0166820
857.965	0.0166269
858.043	0.0164870
858.121	0.0166205
858.199	0.0167886
858.277	0.0167426
858.355	0.0165701
858.433	0.0166616
858.511	0.0166787
858.590	0.0166743
858.668	0.0167146
858.746	0.0166656
858.824	0.0166901
858.902	0.0165911
858.980	0.0166625
859.058	0.0167589
859.136	0.0166794
859.215	0.0167352
859.293	0.0166074
859.371	0.0165234
859.449	0.0166440
859.527	0.0166828
859.605	0.0166557
859.683	0.0167375
859.761	0.0166938
859.840	0.0167033
859.918	0.0167252
859.996	0.0166648
860.074	0.0167472
860.152	0.0168073
860.230	0.0167897
860.308	0.0168613
860.386	0.0168013
860.465	0.0167363
860.543	0.0167896
860.621	0.0166235
860.699	0.0166438
860.777	0.0167153
860.855	0.0166217
860.933	0.0165727
861.011	0.0165820
861.090	0.0164619
861.168	0.0164758
861.246	0.0164885
861.324	0.0164681
861.402	0.0164884
861.480	0.0165376
861.558	0.0163895
861.636	0.0163031
861.715	0.0165343
861.793	0.0164491
861.871	0.0164133
861.949	0.0164332
862.027	0.0165445
862.105	0.0165692
862.183	0.0165955
862.261	0.0165330
862.340	0.0166140
862.418	0.0166796
862.496	0.0166705
862.574	0.0166572
862.652	0.0166328
862.730	0.0166077
862.808	0.0166499
862.886	0.0166069
862.965	0.0166063
863.043	0.0168118
863.121	0.0167307
863.199	0.0166449
863.277	0.0167133
863.355	0.0167292
863.433	0.0166328
863.511	0.0165291
863.590	0.0166277
863.668	0.0166327
863.746	0.0164675
863.824	0.0165485
863.902	0.0165796
863.980	0.0164154
864.058	0.0164743
864.136	0.0164143
864.215	0.0165166
864.293	0.0165063
864.371	0.0163718
864.449	0.0165428
864.527	0.0165995
864.605	0.0166731
864.683	0.0166449
864.761	0.0166345
864.840	0.0165952
864.918	0.0166826
864.996	0.0167516
865.074	0.0167829
865.152	0.0166784
865.230	0.0166354
865.308	0.0167587
865.386	0.0166396
865.465	0.0166593
865.543	0.0167155
865.621	0.0167581
865.699	0.0168429
865.777	0.0167213
865.855	0.0165956
865.933	0.0167143
866.011	0.0165758
866.090	0.0166593
866.168	0.0167519
866.246	0.0166108
866.324	0.0166573
866.402	0.0166937
866.480	0.0167348
866.558	0.0168966
866.636	0.0168589
866.715	0.0167339
866.793	0.0167083
866.871	0.0167078
866.949	0.0167885
867.027	0.0169028
867.105	0.0166668
867.183	0.0168754
867.261	0.0168688
867.340	0.0167566
867.418	0.0168803
867.496	0.0168025
867.574	0.0169367
867.652	0.0168171
867.730	0.0168510
867.808	0.0167270
867.886	0.0167236
867.965	0.0167383
868.043	0.0168911
868.121	0.0166981
868.199	0.0167384
868.277	0.0168266
868.355	0.0167503
868.433	0.0166581
868.511	0.0167633
868.590	0.0168391
868.668	0.0166713
868.746	0.0166850
868.824	0.0165321
868.902	0.0164527
868.980	0.0166293
869.058	0.0165844
869.136	0.0166241
869.215	0.0165765
869.293	0.0165900
869.371	0.0167079
869.449	0.0164695
869.527	0.0165197
869.605	0.0165897
869.683	0.0166333
869.761	0.0165017
869.840	0.0165916
869.918	0.0165623
869.996	0.0166239
870.074	0.0165379
870.152	0.0165437
870.230	0.0166689
870.308	0.0167294
870.386	0.0165764
870.465	0.0166061
870.543	0.0165519
870.621	0.0165334
870.699	0.0164516
870.777	0.0166126
870.855	0.0165300
870.933	0.0163965
871.011	0.0165865
871.090	0.0165003
871.168	0.0164647
871.246	0.0165044
871.324	0.0166463
871.402	0.0165436
871.480	0.0163919
871.558	0.0165343
871.636	0.0165423
871.715	0.0164677
871.793	0.0165254
871.871	0.0165717
871.949	0.0166148
872.027	0.0165444
872.105	0.0167758
872.183	0.0165990
872.261	0.0166961
872.340	0.0166013
872.418	0.0166138
872.496	0.0167371
872.574	0.0167036
872.652	0.0166756
872.730	0.0165383
872.808	0.0166467
872.886	0.0164732
872.965	0.0165727
873.043	0.0166605
873.121	0.0166519
873.199	0.0166277
873.277	0.0167788
873.355	0.0167693
873.433	0.0167104
873.511	0.0165917
873.590	0.0166969
873.668	0.0167896
873.746	0.0168324
873.824	0.0167011
873.902	0.0169084
873.980	0.0168552
874.058	0.0165707
874.136	0.0166246
874.215	0.0165855
874.293	0.0167579
874.371	0.0166331
874.449	0.0165833
874.527	0.0166297
874.605	0.0166441
874.683	0.0165854
874.761	0.0165701
874.840	0.0166222
874.918	0.0166693
874.996	0.0165437
875.074	0.0165791
875.152	0.0166654
875.230	0.0166620
875.308	0.0168449
875.386	0.0168224
875.465	0.0166898
875.543	0.0167387
875.621	0.0167834
875.699	0.0167866
875.777	0.0168531
875.855	0.0167744
875.933	0.0166995
876.011	0.0168587
876.090	0.0168408
876.168	0.0165741
876.246	0.0166108
876.324	0.0166700
876.402	0.0166621
876.480	0.0165752
876.558	0.0166374
876.636	0.0165201
876.715	0.0166178
876.793	0.0165126
876.871	0.0164824
876.949	0.0165496
877.027	0.0165118
877.105	0.0164381
877.183	0.0164732
877.261	0.0164381
877.340	0.0166294
877.418	0.0165606
877.496	0.0165012
877.574	0.0164317
877.652	0.0165475
877.730	0.0168130
877.808	0.0167033
877.886	0.0164661
877.965	0.0166486
878.043	0.0165527
878.121	0.0167162
878.199	0.0165717
878.277	0.0166572
878.355	0.0167587
878.433	0.0165744
878.511	0.0165823
878.590	0.0167732
878.668	0.0166846
878.746	0.0167521
878.824	0.0166240
878.902	0.0164761
878.980	0.0165962
879.058	0.0165665
879.136	0.0165426
879.215	0.0165578
879.293	0.0165785
879.371	0.0165753
879.449	0.0165034
879.527	0.0164847
879.605	0.0165799
879.683	0.0166639
879.761	0.0165057
879.840	0.0166660
879.918	0.0166122
879.996	0.0167879
880.074	0.0166759
880.152	0.0166994
880.230	0.0166149
880.308	0.0166898
880.386	0.0166895
880.465	0.0166993
880.543	0.0167693
880.621	0.0166549
880.699	0.0166560
880.777	0.0167400
880.855	0.0166303
880.933	0.0165037
881.011	0.0166428
881.090	0.0166458
881.168	0.0166432
881.246	0.0166842
881.324	0.0166025
881.402	0.0165363
881.480	0.0166441
881.558	0.0164941
881.636	0.0165056
881.715	0.0165404
881.793	0.0166278
881.871	0.0166660
881.949	0.0165318
882.027	0.0165685
882.105	0.0165924
882.183	0.0165513
882.261	0.0165453
882.340	0.0165809
882.418	0.0165963
882.496	0.0166890
882.574	0.0166418
882.652	0.0166875
882.730	0.0166110
882.808	0.0167123
882.886	0.0166006
882.965	0.0167137
883.043	0.0167089
883.121	0.0167805
883.199	0.0167731
883.277	0.0168174
883.355	0.0166750
883.433	0.0166586
883.511	0.0166711
883.590	0.0166292
883.668	0.0167091
883.746	0.0167971
883.824	0.0167357
883.902	0.0166947
883.980	0.0165542
884.058	0.0165932
884.136	0.0166981
884.215	0.0167457
884.293	0.0166831
884.371	0.0164642
884.449	0.0165935
884.527	0.0167755
884.605	0.0165810
884.683	0.0166828
884.761	0.0165951
884.840	0.0165540
884.918	0.0165431
884.996	0.0165057
885.074	0.0165041
885.152	0.0165469
885.230	0.0165868
885.308	0.0164325
885.386	0.0165992
885.465	0.0164449
885.543	0.0166275
885.621	0.0166488
885.699	0.0165682
885.777	0.0166089
885.855	0.0166321
885.933	0.0165661
886.011	0.0167718
886.090	0.0167342
886.168	0.0166735
886.246	0.0167391
886.324	0.0168061
886.402	0.0167164
886.480	0.0167302
886.558	0.0167130
886.636	0.0167716
886.715	0.0167112
886.793	0.0167023
886.871	0.0166926
886.949	0.0166008
887.027	0.0166598
887.105	0.0166462
887.183	0.0165524
887.261	0.0165763
887.340	0.0166181
887.418	0.0165469
887.496	0.0164942
887.574	0.0165516
887.652	0.0166730
887.730	0.0165307
887.808	0.0164904
887.886	0.0165556
887.965	0.0165746
888.043	0.0166522
888.121	0.0166439
888.199	0.0166559
888.277	0.0165865
888.355	0.0166759
888.433	0.0165653
888.511	0.0166060
888.590	0.0165716
888.668	0.0167326
888.746	0.0166186
888.824	0.0167179
888.902	0.0167131
888.980	0.0166367
889.058	0.0167287
889.136	0.0165244
889.215	0.0165440
889.293	0.0166788
889.371	0.0167297
889.449	0.0167055
889.527	0.0165985
889.605	0.0165371
889.683	0.0165425
889.761	0.0164640
889.840	0.0164668
889.918	0.0165672
889.996	0.0165990
890.074	0.0166975
890.152	0.0166342
890.230	0.0165692
890.308	0.0165376
890.386	0.0167271
890.465	0.0165907
890.543	0.0166292
890.621	0.0166696
890.699	0.0167316
890.777	0.0167574
890.855	0.0165858
890.933	0.0166248
891.011	0.0166293
891.090	0.0166270
891.168	0.0166089
891.246	0.0167089
891.324	0.0166637
891.402	0.0166293
891.480	0.0165911
891.558	0.0166560
891.636	0.0165744
891.715	0.0166204
891.793	0.0165797
891.871	0.0166364
891.949	0.0167029
892.027	0.0166644
892.105	0.0166834
892.183	0.0165968
892.261	0.0164703
892.340	0.0164371
892.418	0.0165073
892.496	0.0165862
892.574	0.0165427
892.652	0.0164191
892.730	0.0164469
892.808	0.0165208
892.886	0.0166125
892.965	0.0164894
893.043	0.0164793
893.121	0.0165401
893.199	0.0165507
893.277	0.0165128
893.355	0.0165511
893.433	0.0164536
893.511	0.0165234
893.590	0.0165259
893.668	0.0166769
893.746	0.0166715
893.824	0.0167078
893.902	0.0168414
893.980	0.0167162
894.058	0.0165873
894.136	0.0167374
894.215	0.0167601
894.293	0.0166866
894.371	0.0168511
894.449	0.0166854
894.527	0.0166264
894.605	0.0166245
894.683	0.0167168
894.761	0.0167268
894.840	0.0167937
894.918	0.0165922
894.996	0.0166946
895.074	0.0166903
895.152	0.0166641
895.230	0.0166487
895.308	0.0166603
895.386	0.0165896
895.465	0.0166812
895.543	0.0167296
895.621	0.0164936
895.699	0.0165350
895.777	0.0164904
895.855	0.0166247
895.933	0.0165906
896.011	0.0166042
896.090	0.0166765
896.168	0.0164613
896.246	0.0164645
896.324	0.0166066
896.402	0.0165768
896.480	0.0166122
896.558	0.0165570
896.636	0.0165940
896.715	0.0166850
896.793	0.0166756
896.871	0.0166463
896.949	0.0166234
897.027	0.0166108
897.105	0.0167130
897.183	0.0165010
897.261	0.0166305
897.340	0.0165723
897.418	0.0166867
897.496	0.0166169
897.574	0.0165277
897.652	0.0167256
897.730	0.0167440
897.808	0.0166101
897.886	0.0166475
897.965	0.0165970
898.043	0.0166376
898.121	0.0166750
898.199	0.0165965
898.277	0.0166930
898.355	0.0166009
898.433	0.0166415
898.511	0.0166494
898.590	0.0164742
898.668	0.0164709
898.746	0.0166438
898.824	0.0166768
898.902	0.0166130
898.980	0.0166320
899.058	0.0167287
899.136	0.0166384
899.215	0.0166331
899.293	0.0165102
899.371	0.0166814
899.449	0.0166585
899.527	0.0168285
899.605	0.0167322
899.683	0.0165704
899.761	0.0166911
899.840	0.0165775
899.918	0.0165936
899.996	0.0165571
900.074	0.0167553
900.152	0.0165549
900.230	0.0166781
900.308	0.0166163
900.386	0.0165821
900.465	0.0164460
900.543	0.0165399
900.621	0.0165540
900.699	0.0166005
900.777	0.0166047
900.855	0.0166002
900.933	0.0164723
901.011	0.0165744
901.090	0.0164960
901.168	0.0165921
901.246	0.0164289
901.324	0.0164586
901.402	0.0165918
901.480	0.0166383
901.558	0.0165650
901.636	0.0165153
901.715	0.0165204
901.793	0.0165685
901.871	0.0166341
901.949	0.0167162
902.027	0.0167316
902.105	0.0167818
902.183	0.0167580
902.261	0.0167304
902.340	0.0166759
902.418	0.0166389
902.496	0.0166341
902.574	0.0167466
902.652	0.0166092
902.730	0.0166107
902.808	0.0166746
902.886	0.0167802
902.965	0.0167143
903.043	0.0166800
903.121	0.0165949
903.199	0.0166634
903.277	0.0165785
903.355	0.0165598
903.433	0.0165957
903.511	0.0166396
903.590	0.0166483
903.668	0.0165202
903.746	0.0164737
903.824	0.0165053
903.902	0.0167253
903.980	0.0165810
904.058	0.0166089
904.136	0.0166144
904.215	0.0165632
904.293	0.0165276
904.371	0.0164751
904.449	0.0165532
904.527	0.0166366
904.605	0.0165898
904.683	0.0164618
904.761	0.0166415
904.840	0.0166353
904.918	0.0165874
904.996	0.0165471
905.074	0.0166141
905.152	0.0166171
905.230	0.0165411
905.308	0.0166454
905.386	0.0165413
905.465	0.0165837
905.543	0.0165580
905.621	0.0166257
905.699	0.0166250
905.777	0.0167186
905.855	0.0165649
905.933	0.0167267
906.011	0.0165935
906.090	0.0167131
906.168	0.0166659
906.246	0.0166517
906.324	0.0166202
906.402	0.0166245
906.480	0.0166472
906.558	0.0166469
906.636	0.0166135
906.715	0.0167646
906.793	0.0166720
906.871	0.0165955
906.949	0.0165054
907.027	0.0166161
907.105	0.0164680
907.183	0.0165218
907.261	0.0166518
907.340	0.0165889
907.418	0.0166505
907.496	0.0165703
907.574	0.0165705
907.652	0.0166093
907.730	0.0165221
907.808	0.0165233
907.886	0.0166739
907.965	0.0167198
908.043	0.0167877
908.121	0.0165627
908.199	0.0165870
908.277	0.0166709
908.355	0.0165391
908.433	0.0165748
908.511	0.0166218
908.590	0.0165594
908.668	0.0166122
908.746	0.0165793
908.824	0.0164360
908.902	0.0166091
908.980	0.0165701
909.058	0.0164862
909.136	0.0165366
909.215	0.0164741
909.293	0.0164929
909.371	0.0165907
909.449	0.0165272
909.527	0.0166292
909.605	0.0166524
909.683	0.0165903
909.761	0.0165415
909.840	0.0165228
909.918	0.0165755
909.996	0.0165662
910.074	0.0167104
910.152	0.0167000
910.230	0.0166494
910.308	0.0166596
910.386	0.0164382
910.465	0.0167040
910.543	0.0167088
910.621	0.0166458
910.699	0.0166232
910.777	0.0166920
910.855	0.0166595
910.933	0.0166129
911.011	0.0165549
911.090	0.0164108
911.168	0.0166855
911.246	0.0165666
911.324	0.0166188
911.402	0.0165765
911.480	0.0165108
911.558	0.0165379
911.636	0.0166441
911.715	0.0167024
911.793	0.0166730
911.871	0.0166851
911.949	0.0165860
912.027	0.0166470
912.105	0.0166430
912.183	0.0166412
912.261	0.0166512
912.340	0.0166520
912.418	0.0165412
912.496	0.0164790
912.574	0.0164812
912.652	0.0164779
912.730	0.0164925
912.808	0.0165166
912.886	0.0166077
912.965	0.0165936
913.043	0.0163888
913.121	0.0166258
913.199	0.0163858
913.277	0.0164314
913.355	0.0165347
913.433	0.0165691
913.511	0.0167191
913.590	0.0165851
913.668	0.0165575
913.746	0.0165579
913.824	0.0164586
913.902	0.0166698
913.980	0.0167318
914.058	0.0167037
914.136	0.0165886
914.215	0.0166202
914.293	0.0164854
914.371	0.0167083
914.449	0.0167184
914.527	0.0167184
914.605	0.0167110
914.683	0.0167363
914.761	0.0166418
914.840	0.0167265
914.918	0.0167298
914.996	0.0166420
915.074	0.0167516
915.152	0.0167127
915.230	0.0166315
915.308	0.0166548
915.386	0.0166795
915.465	0.0167113
915.543	0.0165734
915.621	0.0166249
915.699	0.0166986
915.777	0.0166556
915.855	0.0167545
915.933	0.0166506
916.011	0.0166850
916.090	0.0167457
916.168	0.0165724
916.246	0.0166351
916.324	0.0167452
916.402	0.0166518
916.480	0.0166994
916.558	0.0166045
916.636	0.0165644
916.715	0.0165537
916.793	0.0163851
916.871	0.0165845
916.949	0.0166490
917.027	0.0165294
917.105	0.0165733
917.183	0.0165884
917.261	0.0165681
917.340	0.0165156
917.418	0.0163184
917.496	0.0164394
917.574	0.0164169
917.652	0.0164448
917.730	0.0165767
917.808	0.0166711
917.886	0.0164928
917.965	0.0164240
918.043	0.0165692
918.121	0.0164553
918.199	0.0165536
918.277	0.0165264
918.355	0.0165723
918.433	0.0164767
918.511	0.0164015
918.590	0.0165820
918.668	0.0165264
918.746	0.0166212
918.824	0.0166182
918.902	0.0165075
918.980	0.0164951
919.058	0.0167058
919.136	0.0166454
919.215	0.0165760
919.293	0.0165498
919.371	0.0166445
919.449	0.0166347
919.527	0.0166369
919.605	0.0165792
919.683	0.0165739
919.761	0.0166933
919.840	0.0166297
919.918	0.0166182
919.996	0.0166856
920.074	0.0167500
920.152	0.0166609
920.230	0.0167043
920.308	0.0165196
920.386	0.0166163
920.465	0.0166716
920.543	0.0165157
920.621	0.0164342
920.699	0.0165839
920.777	0.0164902
920.855	0.0166491
920.933	0.0164888
921.011	0.0164596
921.090	0.0164724
921.168	0.0165060
921.246	0.0165254
921.324	0.0164359
921.402	0.0166273
921.480	0.0165218
921.558	0.0165099
921.636	0.0165747
921.715	0.0166976
921.793	0.0167456
921.871	0.0166766
921.949	0.0166299
922.027	0.0167626
922.105	0.0168316
922.183	0.0168053
922.261	0.0167632
922.340	0.0167608
922.418	0.0168877
922.496	0.0168147
922.574	0.0167146
922.652	0.0166372
922.730	0.0167110
922.808	0.0166639
922.886	0.0166891
922.965	0.0165677
923.043	0.0167870
923.121	0.0167322
923.199	0.0166212
923.277	0.0165538
923.355	0.0166579
923.433	0.0166608
923.511	0.0167120
923.590	0.0165813
923.668	0.0166323
923.746	0.0166317
923.824	0.0167104
923.902	0.0166121
923.980	0.0165408
924.058	0.0165603
924.136	0.0165189
924.215	0.0166358
924.293	0.0165101
924.371	0.0166500
924.449	0.0166198
924.527	0.0164797
924.605	0.0164567
924.683	0.0165620
924.761	0.0165851
924.840	0.0163677
924.918	0.0164922
924.996	0.0164605
925.074	0.0164610
925.152	0.0164082
925.230	0.0163440
925.308	0.0164265
925.386	0.0163898
925.465	0.0165368
925.543	0.0164460
925.621	0.0165098
925.699	0.0165887
925.777	0.0163286
925.855	0.0164072
925.933	0.0165401
926.011	0.0164234
926.090	0.0166567
926.168	0.0166699
926.246	0.0166106
926.324	0.0165849
926.402	0.0164832
926.480	0.0165714
926.558	0.0166843
926.636	0.0165759
926.715	0.0165681
926.793	0.0164799
926.871	0.0165398
926.949	0.0165295
927.027	0.0165012
927.105	0.0165797
927.183	0.0165800
927.261	0.0164707
927.340	0.0165550
927.418	0.0166766
927.496	0.0165403
927.574	0.0165644
927.652	0.0167141
927.730	0.0166960
927.808	0.0164953
927.886	0.0165730
927.965	0.0165471
928.043	0.0166183
928.121	0.0165854
928.199	0.0166329
928.277	0.0165400
928.355	0.0165466
928.433	0.0166125
928.511	0.0165895
928.590	0.0165836
928.668	0.0165528
928.746	0.0164809
928.824	0.0166301
928.902	0.0166215
928.980	0.0165005
929.058	0.0165755
929.136	0.0167823
929.215	0.0166298
929.293	0.0165797
929.371	0.0166373
929.449	0.0166235
929.527	0.0166653
929.605	0.0166624
929.683	0.0166985
929.761	0.0164063
929.840	0.0165736
929.918	0.0166821
929.996	0.0166531
930.074	0.0166243
930.152	0.0165161
930.230	0.0166966
930.308	0.0166962
930.386	0.0164732
930.465	0.0165928
930.543	0.0165650
930.621	0.0167501
930.699	0.0167513
930.777	0.0166181
930.855	0.0165776
930.933	0.0166756
931.011	0.0165862
931.090	0.0166143
931.168	0.0166645
931.246	0.0165699
931.324	0.0165984
931.402	0.0166173
931.480	0.0167464
931.558	0.0165102
931.636	0.0166582
931.715	0.0166519
931.793	0.0165976
931.871	0.0165586
931.949	0.0166876
932.027	0.0167918
932.105	0.0166649
932.183	0.0166837
932.261	0.0166000
932.340	0.0166262
932.418	0.0165602
932.496	0.0167042
932.574	0.0167781
932.652	0.0166783
932.730	0.0166172
932.808	0.0166106
932.886	0.0166548
932.965	0.0166766
933.043	0.0164978
933.121	0.0165792
933.199	0.0166660
933.277	0.0166814
933.355	0.0167379
933.433	0.0167725
933.511	0.0167195
933.590	0.0167043
933.668	0.0166535
933.746	0.0166046
933.824	0.0165714
933.902	0.0165179
933.980	0.0166496
934.058	0.0167284
934.136	0.0165446
934.215	0.0165966
934.293	0.0166731
934.371	0.0165920
934.449	0.0164744
934.527	0.0165181
934.605	0.0166702
934.683	0.0165820
934.761	0.0165850
934.840	0.0166322
934.918	0.0166817
934.996	0.0166079
935.074	0.0166535
935.152	0.0166131
935.230	0.0167242
935.308	0.0165980
935.386	0.0166248
935.465	0.0166999
935.543	0.0167014
935.621	0.0166282
935.699	0.0166822
935.777	0.0166988
935.855	0.0166848
935.933	0.0166305
936.011	0.0165701
936.090	0.0167467
936.168	0.0165410
936.246	0.0166433
936.324	0.0166785
936.402	0.0166085
936.480	0.0166501
936.558	0.0165223
936.636	0.0165631
936.715	0.0165295
936.793	0.0166645
936.871	0.0166149
936.949	0.0165039
937.027	0.0164771
937.105	0.0165491
937.183	0.0165665
937.261	0.0164225
937.340	0.0164751
937.418	0.0165954
937.496	0.0165983
937.574	0.0165913
937.652	0.0165935
937.730	0.0165093
937.808	0.0166008
937.886	0.0165399
937.965	0.0165750
938.043	0.0167034
938.121	0.0166784
938.199	0.0166949
938.277	0.0165744
938.355	0.0166336
938.433	0.0166745
938.511	0.0167642
938.590	0.0167717
938.668	0.0166984
938.746	0.0165166
938.824	0.0166161
938.902	0.0167175
938.980	0.0167321
939.058	0.0166342
939.136	0.0165900
939.215	0.0165945
939.293	0.0167303
939.371	0.0167406
939.449	0.0166614
939.527	0.0165255
939.605	0.0166875
939.683	0.0165063
939.761	0.0166025
939.840	0.0167520
939.918	0.0167142
939.996	0.0165419
940.074	0.0165197
940.152	0.0165851
940.230	0.0166561
940.308	0.0165236
940.386	0.0166750
940.465	0.0165822
940.543	0.0165612
940.621	0.0166940
940.699	0.0165816
940.777	0.0166302
940.855	0.0164839
940.933	0.0166484
941.011	0.0167099
941.090	0.0166718
941.168	0.0166570
941.246	0.0166702
941.324	0.0166331
941.402	0.0165655
941.480	0.0165223
941.558	0.0165665
941.636	0.0167108
941.715	0.0166836
941.793	0.0167288
941.871	0.0165989
941.949	0.0165689
942.027	0.0165732
942.105	0.0165924
942.183	0.0165254
942.261	0.0165918
942.340	0.0166415
942.418	0.0165569
942.496	0.0165299
942.574	0.0164989
942.652	0.0164181
942.730	0.0167030
942.808	0.0165115
942.886	0.0165123
942.965	0.0165629
943.043	0.0164263
943.121	0.0164626
943.199	0.0166102
943.277	0.0166478
943.355	0.0165704
943.433	0.0165728
943.511	0.0165636
943.590	0.0166044
943.668	0.0165510
943.746	0.0166713
943.824	0.0164814
943.902	0.0165841
943.980	0.0165630
944.058	0.0165372
944.136	0.0166170
944.215	0.0166546
944.293	0.0165533
944.371	0.0165887
944.449	0.0166051
944.527	0.0167303
944.605	0.0165442
944.683	0.0165489
944.761	0.0167270
944.840	0.0166199
944.918	0.0164728
944.996	0.0165959
945.074	0.0166717
945.152	0.0166053
945.230	0.0166551
945.308	0.0166528
945.386	0.0165216
945.465	0.0165340
945.543	0.0166461
945.621	0.0165171
945.699	0.0165646
945.777	0.0166914
945.855	0.0165895
945.933	0.0166381
946.011	0.0166084
946.090	0.0167141
946.168	0.0165540
946.246	0.0166514
946.324	0.0166188
946.402	0.0165218
946.480	0.0167178
946.558	0.0167216
946.636	0.0166811
946.715	0.0166813
946.793	0.0166945
946.871	0.0165892
946.949	0.0167867
947.027	0.0167775
947.105	0.0166003
947.183	0.0166172
947.261	0.0166372
947.340	0.0165907
947.418	0.0166592
947.496	0.0167046
947.574	0.0167321
947.652	0.0167431
947.730	0.0166108
947.808	0.0167513
947.886	0.0164731
947.965	0.0166996
948.043	0.0166404
948.121	0.0165783
948.199	0.0166290
948.277	0.0166226
948.355	0.0164982
948.433	0.0164737
948.511	0.0166194
948.590	0.0166138
948.668	0.0165902
948.746	0.0166924
948.824	0.0166538
948.902	0.0167142
948.980	0.0166879
949.058	0.0166740
949.136	0.0166824
949.215	0.0165736
949.293	0.0167652
949.371	0.0168186
949.449	0.0167130
949.527	0.0165680
949.605	0.0164494
949.683	0.0166273
949.761	0.0166132
949.840	0.0166671
949.918	0.0166785
