06/29/2022	21:26:19	Ver.	4.1	UNKNOWN
Optical Delay	629.995835	Delta X		0.078125	Sweeps	1	Scan Rate	0/0
Coordinates	Axis 1	NaN	Axis 2	NaN	Axis 3	NaN	Axis 4	NaN	Axis 5	NaN	Axis 6	0.000000
TX Power	0.000000	RX Power	0.000000

629.996	0.0168298
630.074	0.0168340
630.152	0.0169803
630.230	0.0168903
630.308	0.0168937
630.386	0.0169460
630.465	0.0167747
630.543	0.0167910
630.621	0.0168050
630.699	0.0168719
630.777	0.0168330
630.855	0.0166771
630.933	0.0167699
631.011	0.0167796
631.090	0.0168446
631.168	0.0167291
631.246	0.0169176
631.324	0.0168453
631.402	0.0169298
631.480	0.0167907
631.558	0.0168578
631.636	0.0167931
631.715	0.0168050
631.793	0.0168117
631.871	0.0166869
631.949	0.0168316
632.027	0.0169209
632.105	0.0168116
632.183	0.0167230
632.261	0.0168624
632.340	0.0167943
632.418	0.0168148
632.496	0.0166556
632.574	0.0168098
632.652	0.0167944
632.730	0.0169318
632.808	0.0168044
632.886	0.0167450
632.965	0.0168553
633.043	0.0166908
633.121	0.0166977
633.199	0.0169028
633.277	0.0169599
633.355	0.0168114
633.433	0.0168774
633.511	0.0169418
633.590	0.0168034
633.668	0.0167776
633.746	0.0169578
633.824	0.0168691
633.902	0.0167352
633.980	0.0167804
634.058	0.0168295
634.136	0.0168503
634.215	0.0167525
634.293	0.0167242
634.371	0.0168558
634.449	0.0167781
634.527	0.0169296
634.605	0.0168261
634.683	0.0168567
634.761	0.0168079
634.840	0.0167807
634.918	0.0167657
634.996	0.0167915
635.074	0.0168045
635.152	0.0167424
635.230	0.0167892
635.308	0.0166206
635.386	0.0168739
635.465	0.0168517
635.543	0.0169398
635.621	0.0168984
635.699	0.0167468
635.777	0.0168375
635.855	0.0167302
635.933	0.0167454
636.011	0.0168485
636.090	0.0168307
636.168	0.0168647
636.246	0.0167548
636.324	0.0168447
636.402	0.0168168
636.480	0.0166941
636.558	0.0169461
636.636	0.0169238
636.715	0.0168507
636.793	0.0168890
636.871	0.0168512
636.949	0.0168240
637.027	0.0167094
637.105	0.0167210
637.183	0.0168671
637.261	0.0168196
637.340	0.0167679
637.418	0.0168356
637.496	0.0168587
637.574	0.0167708
637.652	0.0167772
637.730	0.0167675
637.808	0.0167397
637.886	0.0167658
637.965	0.0167148
638.043	0.0168924
638.121	0.0168423
638.199	0.0168279
638.277	0.0167298
638.355	0.0169096
638.433	0.0168964
638.511	0.0166376
638.590	0.0168211
638.668	0.0166479
638.746	0.0168491
638.824	0.0168507
638.902	0.0168075
638.980	0.0168433
639.058	0.0167024
639.136	0.0167425
639.215	0.0168433
639.293	0.0167825
639.371	0.0168059
639.449	0.0167475
639.527	0.0167153
639.605	0.0166109
639.683	0.0167471
639.761	0.0168631
639.840	0.0167840
639.918	0.0166588
639.996	0.0168710
640.074	0.0167862
640.152	0.0167085
640.230	0.0166509
640.308	0.0168064
640.386	0.0167825
640.465	0.0168694
640.543	0.0167333
640.621	0.0168613
640.699	0.0168085
640.777	0.0168711
640.855	0.0167395
640.933	0.0168036
641.011	0.0168421
641.090	0.0167878
641.168	0.0167886
641.246	0.0166867
641.324	0.0169199
641.402	0.0168746
641.480	0.0168929
641.558	0.0169921
641.636	0.0168555
641.715	0.0166177
641.793	0.0168601
641.871	0.0167049
641.949	0.0167598
642.027	0.0169178
642.105	0.0167905
642.183	0.0168736
642.261	0.0168594
642.340	0.0166901
642.418	0.0169226
642.496	0.0168188
642.574	0.0168790
642.652	0.0167945
642.730	0.0169087
642.808	0.0168015
642.886	0.0167721
642.965	0.0166895
643.043	0.0167577
643.121	0.0168347
643.199	0.0168448
643.277	0.0167507
643.355	0.0167267
643.433	0.0167875
643.511	0.0168638
643.590	0.0169630
643.668	0.0168236
643.746	0.0168683
643.824	0.0167670
643.902	0.0167916
643.980	0.0167712
644.058	0.0168559
644.136	0.0168461
644.215	0.0169346
644.293	0.0168609
644.371	0.0167782
644.449	0.0167974
644.527	0.0168272
644.605	0.0168048
644.683	0.0168613
644.761	0.0167719
644.840	0.0168334
644.918	0.0167966
644.996	0.0169387
645.074	0.0167690
645.152	0.0167513
645.230	0.0168253
645.308	0.0170010
645.386	0.0169118
645.465	0.0167606
645.543	0.0168171
645.621	0.0168880
645.699	0.0169465
645.777	0.0168135
645.855	0.0167280
645.933	0.0168727
646.011	0.0167975
646.090	0.0168107
646.168	0.0167784
646.246	0.0168221
646.324	0.0168249
646.402	0.0168157
646.480	0.0167249
646.558	0.0167741
646.636	0.0167830
646.715	0.0166455
646.793	0.0169595
646.871	0.0167029
646.949	0.0168241
647.027	0.0168867
647.105	0.0167681
647.183	0.0167727
647.261	0.0168205
647.340	0.0167134
647.418	0.0167654
647.496	0.0167654
647.574	0.0167590
647.652	0.0168282
647.730	0.0167162
647.808	0.0169024
647.886	0.0168652
647.965	0.0167529
648.043	0.0167909
648.121	0.0168382
648.199	0.0168496
648.277	0.0168132
648.355	0.0168596
648.433	0.0168831
648.511	0.0168816
648.590	0.0168437
648.668	0.0168761
648.746	0.0168192
648.824	0.0167600
648.902	0.0166706
648.980	0.0168563
649.058	0.0168160
649.136	0.0168446
649.215	0.0168188
649.293	0.0168186
649.371	0.0167467
649.449	0.0167596
649.527	0.0167101
649.605	0.0168070
649.683	0.0168575
649.761	0.0168132
649.840	0.0168055
649.918	0.0167795
649.996	0.0168616
650.074	0.0168851
650.152	0.0168234
650.230	0.0168889
650.308	0.0169147
650.386	0.0168398
650.465	0.0167742
650.543	0.0167274
650.621	0.0168106
650.699	0.0168826
650.777	0.0168298
650.855	0.0167863
650.933	0.0169970
651.011	0.0168152
651.090	0.0167417
651.168	0.0168546
651.246	0.0167747
651.324	0.0168163
651.402	0.0168608
651.480	0.0167481
651.558	0.0167793
651.636	0.0168143
651.715	0.0167938
651.793	0.0167950
651.871	0.0168818
651.949	0.0168202
652.027	0.0168488
652.105	0.0168566
652.183	0.0167610
652.261	0.0168825
652.340	0.0167068
652.418	0.0168565
652.496	0.0168275
652.574	0.0168464
652.652	0.0167875
652.730	0.0167775
652.808	0.0167931
652.886	0.0168746
652.965	0.0166991
653.043	0.0167606
653.121	0.0169112
653.199	0.0169006
653.277	0.0168012
653.355	0.0168036
653.433	0.0167557
653.511	0.0168713
653.590	0.0168718
653.668	0.0169073
653.746	0.0168510
653.824	0.0167657
653.902	0.0166779
653.980	0.0167882
654.058	0.0168307
654.136	0.0168130
654.215	0.0167546
654.293	0.0166431
654.371	0.0168774
654.449	0.0167125
654.527	0.0167698
654.605	0.0167336
654.683	0.0168416
654.761	0.0169256
654.840	0.0167956
654.918	0.0166281
654.996	0.0167203
655.074	0.0169015
655.152	0.0169942
655.230	0.0167670
655.308	0.0168210
655.386	0.0168756
655.465	0.0168369
655.543	0.0169255
655.621	0.0167801
655.699	0.0166738
655.777	0.0169012
655.855	0.0169046
655.933	0.0167731
656.011	0.0167769
656.090	0.0167673
656.168	0.0168927
656.246	0.0167984
656.324	0.0167879
656.402	0.0168705
656.480	0.0167850
656.558	0.0168340
656.636	0.0168415
656.715	0.0168255
656.793	0.0169296
656.871	0.0169494
656.949	0.0167469
657.027	0.0168115
657.105	0.0168505
657.183	0.0168741
657.261	0.0167361
657.340	0.0168607
657.418	0.0167912
657.496	0.0168338
657.574	0.0169188
657.652	0.0167578
657.730	0.0169217
657.808	0.0168246
657.886	0.0169101
657.965	0.0168307
658.043	0.0167287
658.121	0.0168427
658.199	0.0168914
658.277	0.0168603
658.355	0.0168288
658.433	0.0167982
658.511	0.0168782
658.590	0.0168508
658.668	0.0168384
658.746	0.0168879
658.824	0.0167635
658.902	0.0168192
658.980	0.0168567
659.058	0.0168208
659.136	0.0168376
659.215	0.0168832
659.293	0.0168808
659.371	0.0168983
659.449	0.0168656
659.527	0.0168362
659.605	0.0167989
659.683	0.0168007
659.761	0.0167739
659.840	0.0168177
659.918	0.0169115
659.996	0.0167737
660.074	0.0167361
660.152	0.0168486
660.230	0.0169378
660.308	0.0167786
660.386	0.0167556
660.465	0.0166769
660.543	0.0168122
660.621	0.0168262
660.699	0.0167321
660.777	0.0167551
660.855	0.0168507
660.933	0.0169021
661.011	0.0166575
661.090	0.0169292
661.168	0.0169868
661.246	0.0169024
661.324	0.0167294
661.402	0.0168764
661.480	0.0167103
661.558	0.0168968
661.636	0.0168315
661.715	0.0168425
661.793	0.0169357
661.871	0.0169678
661.949	0.0167786
662.027	0.0167767
662.105	0.0168121
662.183	0.0167992
662.261	0.0168646
662.340	0.0168620
662.418	0.0169329
662.496	0.0169191
662.574	0.0168679
662.652	0.0168552
662.730	0.0168557
662.808	0.0168462
662.886	0.0166969
662.965	0.0168348
663.043	0.0168916
663.121	0.0169354
663.199	0.0168807
663.277	0.0169106
663.355	0.0168360
663.433	0.0167670
663.511	0.0167808
663.590	0.0168016
663.668	0.0169470
663.746	0.0167555
663.824	0.0166290
663.902	0.0168196
663.980	0.0168396
664.058	0.0168855
664.136	0.0169218
664.215	0.0168231
664.293	0.0169434
664.371	0.0167925
664.449	0.0168000
664.527	0.0166826
664.605	0.0167968
664.683	0.0168400
664.761	0.0167570
664.840	0.0166438
664.918	0.0168456
664.996	0.0167708
665.074	0.0168439
665.152	0.0167754
665.230	0.0167627
665.308	0.0168851
665.386	0.0168391
665.465	0.0168660
665.543	0.0170358
665.621	0.0167957
665.699	0.0167500
665.777	0.0168079
665.855	0.0167728
665.933	0.0169389
666.011	0.0168980
666.090	0.0168174
666.168	0.0167108
666.246	0.0169673
666.324	0.0169005
666.402	0.0167319
666.480	0.0167050
666.558	0.0167863
666.636	0.0166685
666.715	0.0167690
666.793	0.0168831
666.871	0.0167864
666.949	0.0168153
667.027	0.0167072
667.105	0.0168103
667.183	0.0167698
667.261	0.0167348
667.340	0.0167809
667.418	0.0167207
667.496	0.0167625
667.574	0.0168021
667.652	0.0168079
667.730	0.0168609
667.808	0.0167136
667.886	0.0169137
667.965	0.0168451
668.043	0.0168526
668.121	0.0167915
668.199	0.0168302
668.277	0.0167947
668.355	0.0168192
668.433	0.0167969
668.511	0.0166837
668.590	0.0167728
668.668	0.0166934
668.746	0.0167818
668.824	0.0167760
668.902	0.0167499
668.980	0.0168575
669.058	0.0166975
669.136	0.0166872
669.215	0.0167986
669.293	0.0169089
669.371	0.0167818
669.449	0.0167561
669.527	0.0167889
669.605	0.0169402
669.683	0.0168739
669.761	0.0167738
669.840	0.0167327
669.918	0.0168250
669.996	0.0168568
670.074	0.0168436
670.152	0.0168949
670.230	0.0168890
670.308	0.0168414
670.386	0.0168794
670.465	0.0167894
670.543	0.0167938
670.621	0.0168478
670.699	0.0168883
670.777	0.0167964
670.855	0.0168034
670.933	0.0168078
671.011	0.0167911
671.090	0.0167789
671.168	0.0168765
671.246	0.0167744
671.324	0.0168160
671.402	0.0168061
671.480	0.0167625
671.558	0.0169349
671.636	0.0168859
671.715	0.0168122
671.793	0.0168507
671.871	0.0168719
671.949	0.0168147
672.027	0.0169915
672.105	0.0168327
672.183	0.0168111
672.261	0.0167940
672.340	0.0169617
672.418	0.0169058
672.496	0.0169488
672.574	0.0169217
672.652	0.0168072
672.730	0.0168192
672.808	0.0167753
672.886	0.0168680
672.965	0.0168819
673.043	0.0168335
673.121	0.0168431
673.199	0.0167810
673.277	0.0167648
673.355	0.0167945
673.433	0.0167798
673.511	0.0169167
673.590	0.0169779
673.668	0.0168321
673.746	0.0168240
673.824	0.0169220
673.902	0.0168015
673.980	0.0169009
674.058	0.0168945
674.136	0.0169614
674.215	0.0168410
674.293	0.0167561
674.371	0.0167168
674.449	0.0167344
674.527	0.0168817
674.605	0.0168277
674.683	0.0168098
674.761	0.0167854
674.840	0.0167194
674.918	0.0166807
674.996	0.0166953
675.074	0.0168182
675.152	0.0168884
675.230	0.0165874
675.308	0.0167336
675.386	0.0168224
675.465	0.0169022
675.543	0.0167648
675.621	0.0167583
675.699	0.0167561
675.777	0.0167998
675.855	0.0168750
675.933	0.0166992
676.011	0.0168527
676.090	0.0168921
676.168	0.0167658
676.246	0.0167192
676.324	0.0167536
676.402	0.0167643
676.480	0.0169166
676.558	0.0167802
676.636	0.0169508
676.715	0.0167413
676.793	0.0166714
676.871	0.0167859
676.949	0.0168203
677.027	0.0168186
677.105	0.0167908
677.183	0.0169696
677.261	0.0167857
677.340	0.0168366
677.418	0.0167178
677.496	0.0167875
677.574	0.0169446
677.652	0.0168424
677.730	0.0168929
677.808	0.0168620
677.886	0.0167429
677.965	0.0167680
678.043	0.0167667
678.121	0.0167912
678.199	0.0169332
678.277	0.0167402
678.355	0.0168389
678.433	0.0167570
678.511	0.0167696
678.590	0.0167072
678.668	0.0167722
678.746	0.0167310
678.824	0.0167879
678.902	0.0168927
678.980	0.0168462
679.058	0.0168067
679.136	0.0167771
679.215	0.0168626
679.293	0.0168254
679.371	0.0167255
679.449	0.0169199
679.527	0.0168764
679.605	0.0168796
679.683	0.0167123
679.761	0.0169181
679.840	0.0168740
679.918	0.0168407
679.996	0.0167039
680.074	0.0167039
680.152	0.0168077
680.230	0.0167395
680.308	0.0167780
680.386	0.0168481
680.465	0.0168055
680.543	0.0167899
680.621	0.0168669
680.699	0.0168501
680.777	0.0168135
680.855	0.0168631
680.933	0.0168024
681.011	0.0168706
681.090	0.0168565
681.168	0.0168556
681.246	0.0168451
681.324	0.0168517
681.402	0.0167459
681.480	0.0168462
681.558	0.0168510
681.636	0.0168056
681.715	0.0168598
681.793	0.0168557
681.871	0.0168073
681.949	0.0167104
682.027	0.0169126
682.105	0.0170483
682.183	0.0168706
682.261	0.0168164
682.340	0.0168254
682.418	0.0168948
682.496	0.0169251
682.574	0.0167899
682.652	0.0166623
682.730	0.0168369
682.808	0.0169049
682.886	0.0167426
682.965	0.0167952
683.043	0.0168861
683.121	0.0168008
683.199	0.0169130
683.277	0.0168523
683.355	0.0167956
683.433	0.0168213
683.511	0.0168711
683.590	0.0168923
683.668	0.0169218
683.746	0.0167291
683.824	0.0167701
683.902	0.0168715
683.980	0.0168867
684.058	0.0168663
684.136	0.0168092
684.215	0.0167987
684.293	0.0169250
684.371	0.0168416
684.449	0.0167776
684.527	0.0167246
684.605	0.0167801
684.683	0.0167610
684.761	0.0168294
684.840	0.0167181
684.918	0.0167979
684.996	0.0168277
685.074	0.0167173
685.152	0.0168600
685.230	0.0167939
685.308	0.0167588
685.386	0.0168823
685.465	0.0168620
685.543	0.0169405
685.621	0.0167622
685.699	0.0167719
685.777	0.0168255
685.855	0.0168294
685.933	0.0168549
686.011	0.0169090
686.090	0.0168214
686.168	0.0168709
686.246	0.0170385
686.324	0.0167874
686.402	0.0167812
686.480	0.0168771
686.558	0.0167396
686.636	0.0168715
686.715	0.0168269
686.793	0.0168963
686.871	0.0167357
686.949	0.0168453
687.027	0.0168904
687.105	0.0168293
687.183	0.0168378
687.261	0.0167534
687.340	0.0167683
687.418	0.0168077
687.496	0.0169270
687.574	0.0169140
687.652	0.0168172
687.730	0.0168994
687.808	0.0169652
687.886	0.0170084
687.965	0.0169588
688.043	0.0169027
688.121	0.0169266
688.199	0.0168787
688.277	0.0167146
688.355	0.0168937
688.433	0.0168121
688.511	0.0167863
688.590	0.0169112
688.668	0.0167480
688.746	0.0167599
688.824	0.0168508
688.902	0.0166239
688.980	0.0167319
689.058	0.0168283
689.136	0.0167097
689.215	0.0167687
689.293	0.0168714
689.371	0.0167893
689.449	0.0166489
689.527	0.0168570
689.605	0.0168576
689.683	0.0167888
689.761	0.0168394
689.840	0.0169694
689.918	0.0169642
689.996	0.0168164
690.074	0.0169250
690.152	0.0168140
690.230	0.0168201
690.308	0.0167386
690.386	0.0167117
690.465	0.0168062
690.543	0.0168580
690.621	0.0167315
690.699	0.0168175
690.777	0.0168398
690.855	0.0167774
690.933	0.0168800
691.011	0.0168124
691.090	0.0168581
691.168	0.0169733
691.246	0.0168752
691.324	0.0169377
691.402	0.0167979
691.480	0.0169186
691.558	0.0168201
691.636	0.0168286
691.715	0.0169154
691.793	0.0167002
691.871	0.0169016
691.949	0.0169497
692.027	0.0167989
692.105	0.0168957
692.183	0.0168259
692.261	0.0168598
692.340	0.0168861
692.418	0.0168598
692.496	0.0169038
692.574	0.0167773
692.652	0.0168850
692.730	0.0168534
692.808	0.0167007
692.886	0.0167685
692.965	0.0168160
693.043	0.0167796
693.121	0.0167054
693.199	0.0168440
693.277	0.0168781
693.355	0.0167603
693.433	0.0167618
693.511	0.0167355
693.590	0.0166167
693.668	0.0167575
693.746	0.0166924
693.824	0.0167729
693.902	0.0168379
693.980	0.0168997
694.058	0.0168125
694.136	0.0168826
694.215	0.0167711
694.293	0.0167639
694.371	0.0167942
694.449	0.0168361
694.527	0.0167509
694.605	0.0168694
694.683	0.0167740
694.761	0.0168501
694.840	0.0168329
694.918	0.0167374
694.996	0.0167123
695.074	0.0167664
695.152	0.0166988
695.230	0.0168180
695.308	0.0168288
695.386	0.0167805
695.465	0.0167186
695.543	0.0168961
695.621	0.0169776
695.699	0.0169755
695.777	0.0167834
695.855	0.0168799
695.933	0.0170614
696.011	0.0168963
696.090	0.0168787
696.168	0.0169567
696.246	0.0169112
696.324	0.0167458
696.402	0.0167377
696.480	0.0168259
696.558	0.0169399
696.636	0.0168230
696.715	0.0168013
696.793	0.0166879
696.871	0.0166444
696.949	0.0167213
697.027	0.0168785
697.105	0.0168626
697.183	0.0168398
697.261	0.0168485
697.340	0.0168474
697.418	0.0167764
697.496	0.0167728
697.574	0.0167362
697.652	0.0167828
697.730	0.0167676
697.808	0.0167860
697.886	0.0169206
697.965	0.0167769
698.043	0.0169706
698.121	0.0169206
698.199	0.0166953
698.277	0.0167506
698.355	0.0168598
698.433	0.0168275
698.511	0.0170351
698.590	0.0169762
698.668	0.0169311
698.746	0.0168237
698.824	0.0168636
698.902	0.0167916
698.980	0.0167310
699.058	0.0170139
699.136	0.0169289
699.215	0.0168624
699.293	0.0168845
699.371	0.0169227
699.449	0.0169422
699.527	0.0167353
699.605	0.0167924
699.683	0.0166800
699.761	0.0168916
699.840	0.0170003
699.918	0.0168559
699.996	0.0167820
700.074	0.0167067
700.152	0.0167918
700.230	0.0166014
700.308	0.0168727
700.386	0.0168211
700.465	0.0166918
700.543	0.0168137
700.621	0.0168282
700.699	0.0168064
700.777	0.0167804
700.855	0.0167990
700.933	0.0168779
701.011	0.0167290
701.090	0.0168179
701.168	0.0166636
701.246	0.0168065
701.324	0.0168201
701.402	0.0168184
701.480	0.0168956
701.558	0.0169430
701.636	0.0167433
701.715	0.0169562
701.793	0.0168298
701.871	0.0168990
701.949	0.0169114
702.027	0.0169765
702.105	0.0170539
702.183	0.0169752
702.261	0.0170787
702.340	0.0169459
702.418	0.0168970
702.496	0.0169585
702.574	0.0169319
702.652	0.0169453
702.730	0.0169558
702.808	0.0169774
702.886	0.0168862
702.965	0.0168366
703.043	0.0169411
703.121	0.0168447
703.199	0.0168678
703.277	0.0168444
703.355	0.0167638
703.433	0.0167627
703.511	0.0166539
703.590	0.0166797
703.668	0.0167280
703.746	0.0166434
703.824	0.0167415
703.902	0.0167179
703.980	0.0166834
704.058	0.0167195
704.136	0.0167561
704.215	0.0167702
704.293	0.0166647
704.371	0.0168726
704.449	0.0166996
704.527	0.0166297
704.605	0.0167829
704.683	0.0167631
704.761	0.0166564
704.840	0.0167848
704.918	0.0168993
704.996	0.0166727
705.074	0.0166855
705.152	0.0168319
705.230	0.0168063
705.308	0.0168983
705.386	0.0168800
705.465	0.0168784
705.543	0.0168459
705.621	0.0168373
705.699	0.0168019
705.777	0.0167537
705.855	0.0168775
705.933	0.0169413
706.011	0.0168191
706.090	0.0169775
706.168	0.0168931
706.246	0.0168802
706.324	0.0169185
706.402	0.0169327
706.480	0.0169890
706.558	0.0168507
706.636	0.0168707
706.715	0.0167465
706.793	0.0168987
706.871	0.0168328
706.949	0.0169861
707.027	0.0170473
707.105	0.0168436
707.183	0.0167241
707.261	0.0170071
707.340	0.0168781
707.418	0.0168392
707.496	0.0168673
707.574	0.0167522
707.652	0.0169018
707.730	0.0168717
707.808	0.0169257
707.886	0.0170182
707.965	0.0169569
708.043	0.0167663
708.121	0.0169739
708.199	0.0171815
708.277	0.0171023
708.355	0.0170062
708.433	0.0170883
708.511	0.0171490
708.590	0.0170741
708.668	0.0170759
708.746	0.0169213
708.824	0.0170047
708.902	0.0170672
708.980	0.0168624
709.058	0.0169281
709.136	0.0167980
709.215	0.0167816
709.293	0.0168523
709.371	0.0168541
709.449	0.0165834
709.527	0.0165983
709.605	0.0167218
709.683	0.0164939
709.761	0.0164435
709.840	0.0166553
709.918	0.0164330
709.996	0.0165156
710.074	0.0164983
710.152	0.0164915
710.230	0.0165604
710.308	0.0166021
710.386	0.0165210
710.465	0.0164609
710.543	0.0166625
710.621	0.0167709
710.699	0.0166396
710.777	0.0166315
710.855	0.0167168
710.933	0.0168334
711.011	0.0169790
711.090	0.0169290
711.168	0.0169846
711.246	0.0168034
711.324	0.0169524
711.402	0.0170087
711.480	0.0169346
711.558	0.0169603
711.636	0.0171831
711.715	0.0170644
711.793	0.0168948
711.871	0.0171291
711.949	0.0170789
712.027	0.0169469
712.105	0.0170481
712.183	0.0170425
712.261	0.0170853
712.340	0.0170168
712.418	0.0170767
712.496	0.0170207
712.574	0.0169286
712.652	0.0169488
712.730	0.0168829
712.808	0.0167639
712.886	0.0170191
712.965	0.0169814
713.043	0.0167374
713.121	0.0168020
713.199	0.0168840
713.277	0.0169012
713.355	0.0168697
713.433	0.0168914
713.511	0.0169498
713.590	0.0169592
713.668	0.0169263
713.746	0.0169051
713.824	0.0167532
713.902	0.0168105
713.980	0.0168353
714.058	0.0168174
714.136	0.0167722
714.215	0.0168227
714.293	0.0167497
714.371	0.0166473
714.449	0.0166866
714.527	0.0165298
714.605	0.0166623
714.683	0.0166609
714.761	0.0165053
714.840	0.0166052
714.918	0.0165867
714.996	0.0166209
715.074	0.0166689
715.152	0.0167117
715.230	0.0164944
715.308	0.0166058
715.386	0.0166346
715.465	0.0167896
715.543	0.0168020
715.621	0.0169144
715.699	0.0168681
715.777	0.0168169
715.855	0.0167655
715.933	0.0168745
716.011	0.0169638
716.090	0.0170376
716.168	0.0169989
716.246	0.0169612
716.324	0.0170193
716.402	0.0168826
716.480	0.0170575
716.558	0.0170301
716.636	0.0169336
716.715	0.0169113
716.793	0.0169761
716.871	0.0170789
716.949	0.0169907
717.027	0.0169485
717.105	0.0170434
717.183	0.0169337
717.261	0.0170092
717.340	0.0170213
717.418	0.0171159
717.496	0.0168781
717.574	0.0168494
717.652	0.0169516
717.730	0.0168412
717.808	0.0167222
717.886	0.0168258
717.965	0.0169556
718.043	0.0169097
718.121	0.0168326
718.199	0.0168766
718.277	0.0166531
718.355	0.0167129
718.433	0.0167006
718.511	0.0166971
718.590	0.0168230
718.668	0.0165308
718.746	0.0166091
718.824	0.0167271
718.902	0.0165681
718.980	0.0165607
719.058	0.0165742
719.136	0.0165674
719.215	0.0166616
719.293	0.0166003
719.371	0.0166325
719.449	0.0166411
719.527	0.0165653
719.605	0.0166199
719.683	0.0167484
719.761	0.0167892
719.840	0.0170169
719.918	0.0168346
719.996	0.0169046
720.074	0.0170956
720.152	0.0170634
720.230	0.0168605
720.308	0.0170953
720.386	0.0170245
720.465	0.0167052
720.543	0.0168816
720.621	0.0168827
720.699	0.0168641
720.777	0.0167525
720.855	0.0167659
720.933	0.0166790
721.011	0.0167716
721.090	0.0167472
721.168	0.0166232
721.246	0.0167821
721.324	0.0166922
721.402	0.0167693
721.480	0.0166096
721.558	0.0166723
721.636	0.0168990
721.715	0.0168556
721.793	0.0168885
721.871	0.0169870
721.949	0.0168835
722.027	0.0168663
722.105	0.0168736
722.183	0.0168964
722.261	0.0170195
722.340	0.0169592
722.418	0.0170763
722.496	0.0169953
722.574	0.0169583
722.652	0.0169293
722.730	0.0170049
722.808	0.0170981
722.886	0.0169876
722.965	0.0169770
723.043	0.0168804
723.121	0.0168424
723.199	0.0166978
723.277	0.0168676
723.355	0.0167223
723.433	0.0166871
723.511	0.0168671
723.590	0.0167496
723.668	0.0168275
723.746	0.0167741
723.824	0.0166563
723.902	0.0165958
723.980	0.0166530
724.058	0.0165732
724.136	0.0166660
724.215	0.0168593
724.293	0.0166515
724.371	0.0166331
724.449	0.0166236
724.527	0.0167031
724.605	0.0166629
724.683	0.0166096
724.761	0.0166875
724.840	0.0166261
724.918	0.0167719
724.996	0.0167966
725.074	0.0167467
725.152	0.0168853
725.230	0.0168166
725.308	0.0169041
725.386	0.0170081
725.465	0.0169523
725.543	0.0168462
725.621	0.0168862
725.699	0.0172205
725.777	0.0170147
725.855	0.0169572
725.933	0.0169677
726.011	0.0169942
726.090	0.0169459
726.168	0.0168539
726.246	0.0169630
726.324	0.0167893
726.402	0.0167048
726.480	0.0168360
726.558	0.0165712
726.636	0.0164550
726.715	0.0165723
726.793	0.0164941
726.871	0.0164011
726.949	0.0164962
727.027	0.0164148
727.105	0.0164808
727.183	0.0165958
727.261	0.0164407
727.340	0.0163968
727.418	0.0164263
727.496	0.0164140
727.574	0.0166093
727.652	0.0165865
727.730	0.0166179
727.808	0.0166708
727.886	0.0167687
727.965	0.0168611
728.043	0.0168529
728.121	0.0168258
728.199	0.0168759
728.277	0.0170243
728.355	0.0169524
728.433	0.0170221
728.511	0.0171461
728.590	0.0171617
728.668	0.0171407
728.746	0.0172406
728.824	0.0173244
728.902	0.0172547
728.980	0.0170750
729.058	0.0171659
729.136	0.0170528
729.215	0.0171470
729.293	0.0171030
729.371	0.0168495
729.449	0.0168626
729.527	0.0168752
729.605	0.0169800
729.683	0.0168040
729.761	0.0167197
729.840	0.0166283
729.918	0.0166452
729.996	0.0166921
730.074	0.0165337
730.152	0.0164618
730.230	0.0164948
730.308	0.0166417
730.386	0.0166106
730.465	0.0165040
730.543	0.0166851
730.621	0.0166230
730.699	0.0165595
730.777	0.0166449
730.855	0.0167103
730.933	0.0166805
731.011	0.0168436
731.090	0.0167881
731.168	0.0165915
731.246	0.0168438
731.324	0.0168320
731.402	0.0169576
731.480	0.0170463
731.558	0.0171053
731.636	0.0170591
731.715	0.0170887
731.793	0.0170674
731.871	0.0171264
731.949	0.0170136
732.027	0.0171073
732.105	0.0170950
732.183	0.0169859
732.261	0.0170300
732.340	0.0168180
732.418	0.0168265
732.496	0.0168671
732.574	0.0168355
732.652	0.0166553
732.730	0.0164954
732.808	0.0165901
732.886	0.0165533
732.965	0.0163478
733.043	0.0162983
733.121	0.0162443
733.199	0.0161511
733.277	0.0161570
733.355	0.0160828
733.433	0.0162354
733.511	0.0161425
733.590	0.0161945
733.668	0.0162865
733.746	0.0162947
733.824	0.0164569
733.902	0.0165618
733.980	0.0167212
734.058	0.0167429
734.136	0.0168364
734.215	0.0168832
734.293	0.0169533
734.371	0.0171178
734.449	0.0172037
734.527	0.0171046
734.605	0.0171238
734.683	0.0171829
734.761	0.0172424
734.840	0.0172393
734.918	0.0172322
734.996	0.0171025
735.074	0.0172961
735.152	0.0173312
735.230	0.0171346
735.308	0.0169701
735.386	0.0170956
735.465	0.0170503
735.543	0.0168410
735.621	0.0169169
735.699	0.0168655
735.777	0.0167252
735.855	0.0167043
735.933	0.0166946
736.011	0.0165694
736.090	0.0165848
736.168	0.0165679
736.246	0.0164518
736.324	0.0164252
736.402	0.0165508
736.480	0.0165330
736.558	0.0164065
736.636	0.0165669
736.715	0.0166683
736.793	0.0167533
736.871	0.0166616
736.949	0.0168012
737.027	0.0169174
737.105	0.0169115
737.183	0.0169170
737.261	0.0169298
737.340	0.0171246
737.418	0.0173041
737.496	0.0172607
737.574	0.0172597
737.652	0.0172653
737.730	0.0172042
737.808	0.0172748
737.886	0.0173093
737.965	0.0172134
738.043	0.0170210
738.121	0.0170844
738.199	0.0172147
738.277	0.0170052
738.355	0.0169463
738.433	0.0168518
738.511	0.0166399
738.590	0.0169012
738.668	0.0166314
738.746	0.0166981
738.824	0.0167673
738.902	0.0166220
738.980	0.0165686
739.058	0.0164938
739.136	0.0165971
739.215	0.0164996
739.293	0.0166093
739.371	0.0165900
739.449	0.0164292
739.527	0.0164855
739.605	0.0165084
739.683	0.0166182
739.761	0.0165864
739.840	0.0166351
739.918	0.0166093
739.996	0.0165493
740.074	0.0165492
740.152	0.0166914
740.230	0.0164009
740.308	0.0166062
740.386	0.0165539
740.465	0.0166307
740.543	0.0166772
740.621	0.0165958
740.699	0.0166929
740.777	0.0167642
740.855	0.0167396
740.933	0.0166902
741.011	0.0170575
741.090	0.0169420
741.168	0.0170640
741.246	0.0168984
741.324	0.0170108
741.402	0.0172412
741.480	0.0171779
741.558	0.0171803
741.636	0.0172616
741.715	0.0171507
741.793	0.0171082
741.871	0.0171437
741.949	0.0170889
742.027	0.0170625
742.105	0.0170074
742.183	0.0170714
742.261	0.0169360
742.340	0.0168935
742.418	0.0168623
742.496	0.0166024
742.574	0.0166845
742.652	0.0167561
742.730	0.0166235
742.808	0.0165608
742.886	0.0163065
742.965	0.0164806
743.043	0.0164420
743.121	0.0164046
743.199	0.0163456
743.277	0.0164233
743.355	0.0164343
743.433	0.0163917
743.511	0.0164061
743.590	0.0165633
743.668	0.0165956
743.746	0.0167088
743.824	0.0166523
743.902	0.0167092
743.980	0.0166922
744.058	0.0168027
744.136	0.0170001
744.215	0.0169835
744.293	0.0168960
744.371	0.0170394
744.449	0.0172308
744.527	0.0170223
744.605	0.0170999
744.683	0.0171556
744.761	0.0170764
744.840	0.0169102
744.918	0.0170532
744.996	0.0171622
745.074	0.0170811
745.152	0.0170518
745.230	0.0169930
745.308	0.0168011
745.386	0.0168420
745.465	0.0168976
745.543	0.0167493
745.621	0.0168069
745.699	0.0167177
745.777	0.0168394
745.855	0.0166277
745.933	0.0166556
746.011	0.0168208
746.090	0.0167301
746.168	0.0167432
746.246	0.0166482
746.324	0.0166728
746.402	0.0165992
746.480	0.0168808
746.558	0.0166470
746.636	0.0166644
746.715	0.0166760
746.793	0.0167687
746.871	0.0168171
746.949	0.0168650
747.027	0.0168079
747.105	0.0167047
747.183	0.0167722
747.261	0.0167549
747.340	0.0167445
747.418	0.0168050
747.496	0.0168954
747.574	0.0167767
747.652	0.0168158
747.730	0.0168039
747.808	0.0167588
747.886	0.0167879
747.965	0.0168720
748.043	0.0166133
748.121	0.0167069
748.199	0.0168377
748.277	0.0167483
748.355	0.0166884
748.433	0.0167962
748.511	0.0166665
748.590	0.0165302
748.668	0.0167059
748.746	0.0165732
748.824	0.0167471
748.902	0.0167816
748.980	0.0166843
749.058	0.0168180
749.136	0.0168977
749.215	0.0167239
749.293	0.0167725
749.371	0.0167925
749.449	0.0168597
749.527	0.0167422
749.605	0.0169411
749.683	0.0170177
749.761	0.0168655
749.840	0.0168166
749.918	0.0168378
749.996	0.0168356
750.074	0.0167289
750.152	0.0169324
750.230	0.0168475
750.308	0.0168359
750.386	0.0167001
750.465	0.0167449
750.543	0.0168029
750.621	0.0167278
750.699	0.0167912
750.777	0.0166363
750.855	0.0164542
750.933	0.0165955
751.011	0.0165955
751.090	0.0165870
751.168	0.0166943
751.246	0.0166570
751.324	0.0165525
751.402	0.0166241
751.480	0.0167458
751.558	0.0166574
751.636	0.0167678
751.715	0.0166765
751.793	0.0168254
751.871	0.0168347
751.949	0.0170139
752.027	0.0169286
752.105	0.0170241
752.183	0.0168301
752.261	0.0169746
752.340	0.0170512
752.418	0.0171783
752.496	0.0171056
752.574	0.0170416
752.652	0.0171020
752.730	0.0170621
752.808	0.0170036
752.886	0.0169784
752.965	0.0170363
753.043	0.0168864
753.121	0.0169007
753.199	0.0172046
753.277	0.0169379
753.355	0.0169566
753.433	0.0169065
753.511	0.0168521
753.590	0.0168844
753.668	0.0167121
753.746	0.0167842
753.824	0.0167996
753.902	0.0168443
753.980	0.0166424
754.058	0.0167572
754.136	0.0168529
754.215	0.0165855
754.293	0.0167052
754.371	0.0168426
754.449	0.0168867
754.527	0.0167896
754.605	0.0168266
754.683	0.0169164
754.761	0.0167250
754.840	0.0169701
754.918	0.0169431
754.996	0.0168239
755.074	0.0168024
755.152	0.0169096
755.230	0.0167106
755.308	0.0168678
755.386	0.0167509
755.465	0.0165785
755.543	0.0166766
755.621	0.0166578
755.699	0.0166872
755.777	0.0167771
755.855	0.0167181
755.933	0.0166126
756.011	0.0166565
756.090	0.0167123
756.168	0.0167429
756.246	0.0167203
756.324	0.0166798
756.402	0.0167425
756.480	0.0168494
756.558	0.0168635
756.636	0.0167180
756.715	0.0168115
756.793	0.0168799
756.871	0.0167816
756.949	0.0170519
757.027	0.0169408
757.105	0.0168305
757.183	0.0170092
757.261	0.0170155
757.340	0.0169510
757.418	0.0169321
757.496	0.0168685
757.574	0.0169434
757.652	0.0168978
757.730	0.0169052
757.808	0.0169265
757.886	0.0166412
757.965	0.0167561
758.043	0.0167805
758.121	0.0165147
758.199	0.0167031
758.277	0.0164873
758.355	0.0163659
758.433	0.0165700
758.511	0.0164651
758.590	0.0165034
758.668	0.0164831
758.746	0.0164422
758.824	0.0164051
758.902	0.0164864
758.980	0.0165321
759.058	0.0165681
759.136	0.0167931
759.215	0.0168469
759.293	0.0168239
759.371	0.0168366
759.449	0.0169341
759.527	0.0168904
759.605	0.0168604
759.683	0.0170169
759.761	0.0169440
759.840	0.0170568
759.918	0.0169542
759.996	0.0169059
760.074	0.0169574
760.152	0.0170387
760.230	0.0169003
760.308	0.0168585
760.386	0.0169514
760.465	0.0169759
760.543	0.0168224
760.621	0.0168575
760.699	0.0168626
760.777	0.0169376
760.855	0.0168326
760.933	0.0169730
761.011	0.0168001
761.090	0.0168130
761.168	0.0168848
761.246	0.0169327
761.324	0.0168917
761.402	0.0170389
761.480	0.0170366
761.558	0.0168529
761.636	0.0169161
761.715	0.0168912
761.793	0.0169112
761.871	0.0169573
761.949	0.0169839
762.027	0.0169135
762.105	0.0169511
762.183	0.0170880
762.261	0.0169849
762.340	0.0170839
762.418	0.0171000
762.496	0.0170689
762.574	0.0169167
762.652	0.0170650
762.730	0.0169572
762.808	0.0169357
762.886	0.0169450
762.965	0.0170562
763.043	0.0168428
763.121	0.0167886
763.199	0.0167075
763.277	0.0167245
763.355	0.0168324
763.433	0.0166520
763.511	0.0165958
763.590	0.0166208
763.668	0.0165530
763.746	0.0164754
763.824	0.0166139
763.902	0.0166901
763.980	0.0166005
764.058	0.0164764
764.136	0.0166174
764.215	0.0165957
764.293	0.0168034
764.371	0.0166833
764.449	0.0164880
764.527	0.0167149
764.605	0.0167204
764.683	0.0168343
764.761	0.0166251
764.840	0.0168164
764.918	0.0171127
764.996	0.0168776
765.074	0.0170189
765.152	0.0169988
765.230	0.0170335
765.308	0.0171468
765.386	0.0169835
765.465	0.0170176
765.543	0.0169747
765.621	0.0170181
765.699	0.0169732
765.777	0.0169772
765.855	0.0168003
765.933	0.0168275
766.011	0.0168759
766.090	0.0168143
766.168	0.0168077
766.246	0.0166187
766.324	0.0165981
766.402	0.0165331
766.480	0.0165424
766.558	0.0166015
766.636	0.0166402
766.715	0.0166058
766.793	0.0165048
766.871	0.0166127
766.949	0.0165484
767.027	0.0167132
767.105	0.0165955
767.183	0.0166682
767.261	0.0167438
767.340	0.0168225
767.418	0.0168646
767.496	0.0167968
767.574	0.0168470
767.652	0.0169480
767.730	0.0170087
767.808	0.0169868
767.886	0.0170788
767.965	0.0170105
768.043	0.0169156
768.121	0.0170557
768.199	0.0169455
768.277	0.0168452
768.355	0.0169090
768.433	0.0168863
768.511	0.0169295
768.590	0.0168656
768.668	0.0167862
768.746	0.0168073
768.824	0.0167184
768.902	0.0168134
768.980	0.0167548
769.058	0.0166798
769.136	0.0168669
769.215	0.0169231
769.293	0.0168144
769.371	0.0167892
769.449	0.0168223
769.527	0.0170678
769.605	0.0169873
769.683	0.0168559
769.761	0.0169499
769.840	0.0170329
769.918	0.0169687
769.996	0.0169076
770.074	0.0169356
770.152	0.0170271
770.230	0.0170506
770.308	0.0170469
770.386	0.0169492
770.465	0.0170720
770.543	0.0171152
770.621	0.0170584
770.699	0.0171373
770.777	0.0171339
770.855	0.0169600
770.933	0.0169608
771.011	0.0170518
771.090	0.0170153
771.168	0.0169897
771.246	0.0169163
771.324	0.0169996
771.402	0.0169250
771.480	0.0169427
771.558	0.0166695
771.636	0.0169598
771.715	0.0167512
771.793	0.0166659
771.871	0.0166611
771.949	0.0166496
772.027	0.0165408
772.105	0.0164374
772.183	0.0165270
772.261	0.0164247
772.340	0.0164063
772.418	0.0164360
772.496	0.0164967
772.574	0.0165956
772.652	0.0165317
772.730	0.0164678
772.808	0.0166180
772.886	0.0167675
772.965	0.0167988
773.043	0.0166579
773.121	0.0168430
773.199	0.0167910
773.277	0.0167423
773.355	0.0169660
773.433	0.0170304
773.511	0.0170334
773.590	0.0170444
773.668	0.0169608
773.746	0.0169978
773.824	0.0168882
773.902	0.0169711
773.980	0.0169906
774.058	0.0169458
774.136	0.0168916
774.215	0.0170072
774.293	0.0168944
774.371	0.0167962
774.449	0.0167429
774.527	0.0166859
774.605	0.0167413
774.683	0.0167258
774.761	0.0164451
774.840	0.0164528
774.918	0.0164771
774.996	0.0165081
775.074	0.0165347
775.152	0.0164541
775.230	0.0165779
775.308	0.0167163
775.386	0.0165456
775.465	0.0165508
775.543	0.0167128
775.621	0.0167789
775.699	0.0168839
775.777	0.0168741
775.855	0.0168201
775.933	0.0168425
776.011	0.0170171
776.090	0.0170518
776.168	0.0170174
776.246	0.0171020
776.324	0.0169372
776.402	0.0169569
776.480	0.0168784
776.558	0.0171278
776.636	0.0169273
776.715	0.0169952
776.793	0.0168883
776.871	0.0168735
776.949	0.0169686
777.027	0.0168330
777.105	0.0169170
777.183	0.0168665
777.261	0.0168226
777.340	0.0168729
777.418	0.0167507
777.496	0.0168141
777.574	0.0168505
777.652	0.0168385
777.730	0.0167873
777.808	0.0169743
777.886	0.0168705
777.965	0.0168340
778.043	0.0168289
778.121	0.0169452
778.199	0.0169833
778.277	0.0169604
778.355	0.0170953
778.433	0.0171092
778.511	0.0171264
778.590	0.0169394
778.668	0.0172436
778.746	0.0170941
778.824	0.0170358
778.902	0.0171924
778.980	0.0172315
779.058	0.0170702
779.136	0.0168576
779.215	0.0169814
779.293	0.0169417
779.371	0.0169400
779.449	0.0166627
779.527	0.0166837
779.605	0.0165248
779.683	0.0165524
779.761	0.0165674
779.840	0.0164059
779.918	0.0163828
779.996	0.0162226
780.074	0.0161951
780.152	0.0161640
780.230	0.0162088
780.308	0.0163559
780.386	0.0163285
780.465	0.0162981
780.543	0.0163567
780.621	0.0165060
780.699	0.0164137
780.777	0.0165522
780.855	0.0167090
780.933	0.0169051
781.011	0.0169880
781.090	0.0170134
781.168	0.0170592
781.246	0.0169910
781.324	0.0170262
781.402	0.0170836
781.480	0.0172237
781.558	0.0172350
781.636	0.0172624
781.715	0.0172225
781.793	0.0171872
781.871	0.0170775
781.949	0.0171216
782.027	0.0170154
782.105	0.0170840
782.183	0.0169707
782.261	0.0167223
782.340	0.0166530
782.418	0.0166663
782.496	0.0166159
782.574	0.0165337
782.652	0.0165808
782.730	0.0165764
782.808	0.0164526
782.886	0.0165146
782.965	0.0166035
783.043	0.0165739
783.121	0.0165610
783.199	0.0166574
783.277	0.0166525
783.355	0.0166742
783.433	0.0168666
783.511	0.0168966
783.590	0.0169232
783.668	0.0168267
783.746	0.0169998
783.824	0.0171808
783.902	0.0171056
783.980	0.0171745
784.058	0.0172429
784.136	0.0170763
784.215	0.0170496
784.293	0.0170779
784.371	0.0169479
784.449	0.0170439
784.527	0.0168790
784.605	0.0169610
784.683	0.0166859
784.761	0.0167914
784.840	0.0166074
784.918	0.0166616
784.996	0.0165721
785.074	0.0165919
785.152	0.0165920
785.230	0.0165295
785.308	0.0166229
785.386	0.0166374
785.465	0.0167078
785.543	0.0166688
785.621	0.0166354
785.699	0.0169470
785.777	0.0169005
785.855	0.0169154
785.933	0.0168468
786.011	0.0169705
786.090	0.0171017
786.168	0.0171156
786.246	0.0171690
786.324	0.0172177
786.402	0.0171535
786.480	0.0172017
786.558	0.0173296
786.636	0.0172610
786.715	0.0173392
786.793	0.0172076
786.871	0.0172237
786.949	0.0172236
787.027	0.0170232
787.105	0.0169461
787.183	0.0169318
787.261	0.0168186
787.340	0.0169003
787.418	0.0167558
787.496	0.0166130
787.574	0.0166296
787.652	0.0165470
787.730	0.0165038
787.808	0.0164183
787.886	0.0162540
787.965	0.0163274
788.043	0.0162657
788.121	0.0163793
788.199	0.0163156
788.277	0.0164743
788.355	0.0163139
788.433	0.0163580
788.511	0.0165837
788.590	0.0164387
788.668	0.0164532
788.746	0.0166544
788.824	0.0168031
788.902	0.0169090
788.980	0.0169801
789.058	0.0169183
789.136	0.0170390
789.215	0.0169884
789.293	0.0171449
789.371	0.0170951
789.449	0.0170817
789.527	0.0172127
789.605	0.0171513
789.683	0.0172688
789.761	0.0171958
789.840	0.0172183
789.918	0.0170308
789.996	0.0170261
790.074	0.0170250
790.152	0.0168011
790.230	0.0167490
790.308	0.0168558
790.386	0.0167004
790.465	0.0166810
790.543	0.0165625
790.621	0.0165341
790.699	0.0164887
790.777	0.0165586
790.855	0.0165250
790.933	0.0166643
791.011	0.0167445
791.090	0.0166027
791.168	0.0167336
791.246	0.0165836
791.324	0.0168113
791.402	0.0167867
791.480	0.0166687
791.558	0.0170043
791.636	0.0169106
791.715	0.0169658
791.793	0.0171227
791.871	0.0170786
791.949	0.0171231
792.027	0.0171228
792.105	0.0170640
792.183	0.0170197
792.261	0.0170431
792.340	0.0171008
792.418	0.0169200
792.496	0.0169740
792.574	0.0169675
792.652	0.0167796
792.730	0.0167581
792.808	0.0167805
792.886	0.0165363
792.965	0.0164876
793.043	0.0164299
793.121	0.0163533
793.199	0.0164418
793.277	0.0163725
793.355	0.0163668
793.433	0.0164326
793.511	0.0165255
793.590	0.0164243
793.668	0.0163889
793.746	0.0165843
793.824	0.0166859
793.902	0.0166976
793.980	0.0169195
794.058	0.0169087
794.136	0.0169693
794.215	0.0171478
794.293	0.0170564
794.371	0.0171913
794.449	0.0173631
794.527	0.0173010
794.605	0.0173103
794.683	0.0173135
794.761	0.0171761
794.840	0.0174155
794.918	0.0172667
794.996	0.0170862
795.074	0.0169897
795.152	0.0169113
795.230	0.0168168
795.308	0.0167578
795.386	0.0167043
795.465	0.0166605
795.543	0.0166407
795.621	0.0164211
795.699	0.0163700
795.777	0.0162997
795.855	0.0160941
795.933	0.0162136
796.011	0.0162264
796.090	0.0162788
796.168	0.0160514
796.246	0.0161927
796.324	0.0160770
796.402	0.0162153
796.480	0.0162276
796.558	0.0164304
796.636	0.0164810
796.715	0.0165287
796.793	0.0166809
796.871	0.0168573
796.949	0.0169796
797.027	0.0171238
797.105	0.0172429
797.183	0.0172368
797.261	0.0172413
797.340	0.0174222
797.418	0.0172733
797.496	0.0172404
797.574	0.0174052
797.652	0.0172666
797.730	0.0171658
797.808	0.0171125
797.886	0.0171227
797.965	0.0171306
798.043	0.0171529
798.121	0.0168646
798.199	0.0168983
798.277	0.0167499
798.355	0.0166656
798.433	0.0165366
798.511	0.0165363
798.590	0.0165334
798.668	0.0164838
798.746	0.0166193
798.824	0.0164300
798.902	0.0164018
798.980	0.0166602
799.058	0.0165132
799.136	0.0167532
799.215	0.0167567
799.293	0.0167209
799.371	0.0167866
799.449	0.0168177
799.527	0.0169376
799.605	0.0169900
799.683	0.0169516
799.761	0.0168903
799.840	0.0171902
799.918	0.0171390
799.996	0.0171384
800.074	0.0171372
800.152	0.0171582
800.230	0.0170103
800.308	0.0169055
800.386	0.0170187
800.465	0.0169299
800.543	0.0169447
800.621	0.0168668
800.699	0.0168494
800.777	0.0169556
800.855	0.0168840
800.933	0.0168012
801.011	0.0167513
801.090	0.0167112
801.168	0.0167071
801.246	0.0165366
801.324	0.0165575
801.402	0.0166640
801.480	0.0166412
801.558	0.0166759
801.636	0.0166985
801.715	0.0165820
801.793	0.0167531
801.871	0.0168737
801.949	0.0167067
802.027	0.0166715
802.105	0.0167445
802.183	0.0168787
802.261	0.0169722
802.340	0.0169387
802.418	0.0168680
802.496	0.0167838
802.574	0.0168698
802.652	0.0170504
802.730	0.0169445
802.808	0.0169659
802.886	0.0171110
802.965	0.0169949
803.043	0.0169556
803.121	0.0169373
803.199	0.0167904
803.277	0.0169102
803.355	0.0167965
803.433	0.0168398
803.511	0.0166996
803.590	0.0166894
803.668	0.0166344
803.746	0.0165762
803.824	0.0164706
803.902	0.0164191
803.980	0.0164042
804.058	0.0164109
804.136	0.0163258
804.215	0.0164194
804.293	0.0165788
804.371	0.0164680
804.449	0.0165427
804.527	0.0166213
804.605	0.0166879
804.683	0.0167517
804.761	0.0166727
804.840	0.0169820
804.918	0.0169680
804.996	0.0171189
805.074	0.0171668
805.152	0.0173470
805.230	0.0172773
805.308	0.0172943
805.386	0.0173974
805.465	0.0173183
805.543	0.0173251
805.621	0.0171275
805.699	0.0170789
805.777	0.0173376
805.855	0.0170805
805.933	0.0170557
806.011	0.0170210
806.090	0.0169782
806.168	0.0167790
806.246	0.0166396
806.324	0.0166163
806.402	0.0165597
806.480	0.0164001
806.558	0.0164818
806.636	0.0164317
806.715	0.0163062
806.793	0.0160164
806.871	0.0163090
806.949	0.0163857
807.027	0.0163722
807.105	0.0162218
807.183	0.0164786
807.261	0.0163605
807.340	0.0163984
807.418	0.0166505
807.496	0.0168533
807.574	0.0169405
807.652	0.0169560
807.730	0.0170833
807.808	0.0172301
807.886	0.0172338
807.965	0.0173460
808.043	0.0172889
808.121	0.0173265
808.199	0.0172862
808.277	0.0174471
808.355	0.0173038
808.433	0.0172910
808.511	0.0172471
808.590	0.0171509
808.668	0.0169272
808.746	0.0170270
808.824	0.0170645
808.902	0.0168136
808.980	0.0169202
809.058	0.0168604
809.136	0.0168804
809.215	0.0168025
809.293	0.0167191
809.371	0.0168422
809.449	0.0166519
809.527	0.0166131
809.605	0.0168433
809.683	0.0166248
809.761	0.0166879
809.840	0.0167121
809.918	0.0167890
809.996	0.0169537
810.074	0.0168745
810.152	0.0167934
810.230	0.0167641
810.308	0.0168970
810.386	0.0169134
810.465	0.0168530
810.543	0.0167852
810.621	0.0168345
810.699	0.0168668
810.777	0.0168395
810.855	0.0168404
810.933	0.0168530
811.011	0.0168339
811.090	0.0166686
811.168	0.0167249
811.246	0.0168179
811.324	0.0168214
811.402	0.0167569
811.480	0.0167905
811.558	0.0166349
811.636	0.0166206
811.715	0.0167892
811.793	0.0167068
811.871	0.0167101
811.949	0.0166944
812.027	0.0166756
812.105	0.0166578
812.183	0.0168075
812.261	0.0167422
812.340	0.0168578
812.418	0.0167927
812.496	0.0166098
812.574	0.0168684
812.652	0.0167621
812.730	0.0168119
812.808	0.0168372
812.886	0.0167873
812.965	0.0168925
813.043	0.0168014
813.121	0.0167328
813.199	0.0169396
813.277	0.0168662
813.355	0.0169294
813.433	0.0168420
813.511	0.0168676
813.590	0.0170257
813.668	0.0169978
813.746	0.0169708
813.824	0.0169822
813.902	0.0170029
813.980	0.0169943
814.058	0.0168456
814.136	0.0169544
814.215	0.0168552
814.293	0.0167996
814.371	0.0168751
814.449	0.0168230
814.527	0.0167321
814.605	0.0167181
814.683	0.0167543
814.761	0.0166441
814.840	0.0166566
814.918	0.0164545
814.996	0.0165014
815.074	0.0164494
815.152	0.0165730
815.230	0.0165936
815.308	0.0165902
815.386	0.0166019
815.465	0.0166754
815.543	0.0168229
815.621	0.0168132
815.699	0.0169059
815.777	0.0168851
815.855	0.0168359
815.933	0.0169839
816.011	0.0170962
816.090	0.0170950
816.168	0.0171725
816.246	0.0172621
816.324	0.0172218
816.402	0.0170192
816.480	0.0170335
816.558	0.0170400
816.636	0.0170668
816.715	0.0169450
816.793	0.0168342
816.871	0.0169581
816.949	0.0168578
817.027	0.0167945
817.105	0.0166167
817.183	0.0165820
817.261	0.0167613
817.340	0.0167764
817.418	0.0168894
817.496	0.0166563
817.574	0.0168530
817.652	0.0167674
817.730	0.0168940
817.808	0.0167500
817.886	0.0168668
817.965	0.0169450
818.043	0.0168027
818.121	0.0169948
818.199	0.0169398
818.277	0.0168443
818.355	0.0168264
818.433	0.0169125
818.511	0.0168302
818.590	0.0167254
818.668	0.0165800
818.746	0.0165456
818.824	0.0166811
818.902	0.0166849
818.980	0.0166290
819.058	0.0166886
819.136	0.0165948
819.215	0.0164452
819.293	0.0165167
819.371	0.0165753
819.449	0.0166761
819.527	0.0166522
819.605	0.0168174
819.683	0.0169473
819.761	0.0169360
819.840	0.0170879
819.918	0.0170756
819.996	0.0171015
820.074	0.0172127
820.152	0.0170727
820.230	0.0169517
820.308	0.0170406
820.386	0.0172201
820.465	0.0171171
820.543	0.0168309
820.621	0.0169432
820.699	0.0170372
820.777	0.0169366
820.855	0.0167598
820.933	0.0166985
821.011	0.0167910
821.090	0.0167606
821.168	0.0167338
821.246	0.0166120
821.324	0.0167188
821.402	0.0167867
821.480	0.0168898
821.558	0.0168458
821.636	0.0167676
821.715	0.0168553
821.793	0.0168391
821.871	0.0168981
821.949	0.0168690
822.027	0.0168343
822.105	0.0168723
822.183	0.0167332
822.261	0.0166972
822.340	0.0168102
822.418	0.0168553
822.496	0.0168179
822.574	0.0166839
822.652	0.0166470
822.730	0.0168089
822.808	0.0167026
822.886	0.0166349
822.965	0.0164750
823.043	0.0165241
823.121	0.0167207
823.199	0.0167754
823.277	0.0166437
823.355	0.0165695
823.433	0.0167307
823.511	0.0167859
823.590	0.0167249
823.668	0.0167873
823.746	0.0167415
823.824	0.0166412
823.902	0.0167618
823.980	0.0167744
824.058	0.0167015
824.136	0.0167354
824.215	0.0167608
824.293	0.0167135
824.371	0.0168149
824.449	0.0166943
824.527	0.0167978
824.605	0.0168076
824.683	0.0168195
824.761	0.0169186
824.840	0.0167968
824.918	0.0167989
824.996	0.0169267
825.074	0.0169512
825.152	0.0169822
825.230	0.0171761
825.308	0.0171177
825.386	0.0169975
825.465	0.0172368
825.543	0.0171332
825.621	0.0170078
825.699	0.0171999
825.777	0.0170553
825.855	0.0169456
825.933	0.0170624
826.011	0.0170798
826.090	0.0169013
826.168	0.0166736
826.246	0.0167155
826.324	0.0166798
826.402	0.0166541
826.480	0.0165878
826.558	0.0165406
826.636	0.0164040
826.715	0.0164229
826.793	0.0165362
826.871	0.0164178
826.949	0.0164716
827.027	0.0164777
827.105	0.0165968
827.183	0.0165896
827.261	0.0165575
827.340	0.0166313
827.418	0.0166690
827.496	0.0167167
827.574	0.0167967
827.652	0.0167896
827.730	0.0168614
827.808	0.0170062
827.886	0.0168385
827.965	0.0169794
828.043	0.0170663
828.121	0.0168352
828.199	0.0170232
828.277	0.0171013
828.355	0.0169857
828.433	0.0169362
828.511	0.0171380
828.590	0.0170923
828.668	0.0169604
828.746	0.0170225
828.824	0.0168438
828.902	0.0168275
828.980	0.0168726
829.058	0.0168238
829.136	0.0167791
829.215	0.0168156
829.293	0.0168041
829.371	0.0167448
829.449	0.0166864
829.527	0.0167252
829.605	0.0166991
829.683	0.0167069
829.761	0.0164954
829.840	0.0166558
829.918	0.0165476
829.996	0.0165451
830.074	0.0165193
830.152	0.0166080
830.230	0.0166360
830.308	0.0165237
830.386	0.0166260
830.465	0.0165738
830.543	0.0165510
830.621	0.0165229
830.699	0.0167945
830.777	0.0166403
830.855	0.0165929
830.933	0.0165504
831.011	0.0167312
831.090	0.0167506
831.168	0.0167290
831.246	0.0169166
831.324	0.0169213
831.402	0.0168924
831.480	0.0169937
831.558	0.0169511
831.636	0.0170525
831.715	0.0169389
831.793	0.0168094
831.871	0.0168359
831.949	0.0168653
832.027	0.0168518
832.105	0.0169157
832.183	0.0169419
832.261	0.0167965
832.340	0.0168762
832.418	0.0167731
832.496	0.0168736
832.574	0.0168172
832.652	0.0168114
832.730	0.0167680
832.808	0.0167832
832.886	0.0169080
832.965	0.0169567
833.043	0.0169360
833.121	0.0168900
833.199	0.0168821
833.277	0.0168957
833.355	0.0168862
833.433	0.0170083
833.511	0.0167421
833.590	0.0169106
833.668	0.0170396
833.746	0.0170548
833.824	0.0170047
833.902	0.0170480
833.980	0.0169898
834.058	0.0167121
834.136	0.0169424
834.215	0.0167818
834.293	0.0167062
834.371	0.0167149
834.449	0.0165664
834.527	0.0167428
834.605	0.0166080
834.683	0.0165234
834.761	0.0166990
834.840	0.0167195
834.918	0.0167195
834.996	0.0165426
835.074	0.0166677
835.152	0.0167346
835.230	0.0168089
835.308	0.0166205
835.386	0.0167064
835.465	0.0166542
835.543	0.0168298
835.621	0.0167941
835.699	0.0168836
835.777	0.0169776
835.855	0.0167844
835.933	0.0168687
836.011	0.0169487
836.090	0.0167702
836.168	0.0168787
836.246	0.0168510
836.324	0.0168058
836.402	0.0167788
836.480	0.0167754
836.558	0.0167468
836.636	0.0167210
836.715	0.0166820
836.793	0.0167907
836.871	0.0168214
836.949	0.0168914
837.027	0.0167636
837.105	0.0169524
837.183	0.0169182
837.261	0.0168925
837.340	0.0169358
837.418	0.0168706
837.496	0.0168860
837.574	0.0169076
837.652	0.0170166
837.730	0.0169254
837.808	0.0168285
837.886	0.0167367
837.965	0.0168624
838.043	0.0168846
838.121	0.0167623
838.199	0.0166152
838.277	0.0166481
838.355	0.0167257
838.433	0.0166967
838.511	0.0166566
838.590	0.0166617
838.668	0.0167636
838.746	0.0166938
838.824	0.0167562
838.902	0.0167220
838.980	0.0167585
839.058	0.0166327
839.136	0.0168309
839.215	0.0168324
839.293	0.0168178
839.371	0.0168575
839.449	0.0170586
839.527	0.0168539
839.605	0.0166683
839.683	0.0169569
839.761	0.0169191
839.840	0.0170030
839.918	0.0170715
839.996	0.0169323
840.074	0.0168878
840.152	0.0168462
840.230	0.0166988
840.308	0.0168440
840.386	0.0168417
840.465	0.0168321
840.543	0.0167323
840.621	0.0166650
840.699	0.0168404
840.777	0.0169517
840.855	0.0167266
840.933	0.0167323
841.011	0.0166547
841.090	0.0168204
841.168	0.0168777
841.246	0.0167634
841.324	0.0168804
841.402	0.0168624
841.480	0.0168031
841.558	0.0168289
841.636	0.0169440
841.715	0.0168677
841.793	0.0168002
841.871	0.0169331
841.949	0.0169148
842.027	0.0168243
842.105	0.0168941
842.183	0.0168551
842.261	0.0167814
842.340	0.0168687
842.418	0.0169137
842.496	0.0166286
842.574	0.0166730
842.652	0.0168575
842.730	0.0167033
842.808	0.0166962
842.886	0.0167759
842.965	0.0166577
843.043	0.0165970
843.121	0.0166530
843.199	0.0166051
843.277	0.0168032
843.355	0.0166258
843.433	0.0166802
843.511	0.0169228
843.590	0.0167870
843.668	0.0168356
843.746	0.0168076
843.824	0.0166779
843.902	0.0166956
843.980	0.0167775
844.058	0.0168914
844.136	0.0167432
844.215	0.0167741
844.293	0.0168439
844.371	0.0167027
844.449	0.0166019
844.527	0.0167463
844.605	0.0168481
844.683	0.0168050
844.761	0.0167738
844.840	0.0169031
844.918	0.0166962
844.996	0.0166995
845.074	0.0168728
845.152	0.0168461
845.230	0.0167316
845.308	0.0168487
845.386	0.0167390
845.465	0.0169783
845.543	0.0170071
845.621	0.0168845
845.699	0.0168275
845.777	0.0169717
845.855	0.0169424
845.933	0.0168497
846.011	0.0168253
846.090	0.0169908
846.168	0.0167429
846.246	0.0168008
846.324	0.0168233
846.402	0.0168428
846.480	0.0167744
846.558	0.0165166
846.636	0.0166541
846.715	0.0166800
846.793	0.0166315
846.871	0.0166254
846.949	0.0167362
847.027	0.0165111
847.105	0.0165688
847.183	0.0166872
847.261	0.0166589
847.340	0.0166292
847.418	0.0166353
847.496	0.0166978
847.574	0.0167603
847.652	0.0168256
847.730	0.0168886
847.808	0.0167905
847.886	0.0168775
847.965	0.0168620
848.043	0.0167747
848.121	0.0168990
848.199	0.0168642
848.277	0.0168298
848.355	0.0169364
848.433	0.0168630
848.511	0.0169555
848.590	0.0167934
848.668	0.0167348
848.746	0.0169284
848.824	0.0169253
848.902	0.0169667
848.980	0.0168269
849.058	0.0168403
849.136	0.0169275
849.215	0.0167238
849.293	0.0169186
849.371	0.0169975
849.449	0.0169486
849.527	0.0167996
849.605	0.0168660
849.683	0.0169279
849.761	0.0168124
849.840	0.0170452
849.918	0.0170511
849.996	0.0168398
850.074	0.0169540
850.152	0.0168362
850.230	0.0170682
850.308	0.0170277
850.386	0.0169100
850.465	0.0169631
850.543	0.0169827
850.621	0.0169012
850.699	0.0169820
850.777	0.0169228
850.855	0.0167632
850.933	0.0169370
851.011	0.0167866
851.090	0.0166939
851.168	0.0168076
851.246	0.0167808
851.324	0.0167760
851.402	0.0166925
851.480	0.0167016
851.558	0.0167979
851.636	0.0168604
851.715	0.0165804
851.793	0.0168541
851.871	0.0169527
851.949	0.0168578
852.027	0.0168013
852.105	0.0167833
852.183	0.0167016
852.261	0.0168653
852.340	0.0168623
852.418	0.0168439
852.496	0.0167188
852.574	0.0167760
852.652	0.0168665
852.730	0.0166697
852.808	0.0167670
852.886	0.0167474
852.965	0.0167747
853.043	0.0168904
853.121	0.0168497
853.199	0.0169141
853.277	0.0168580
853.355	0.0168594
853.433	0.0167625
853.511	0.0167579
853.590	0.0167408
853.668	0.0168044
853.746	0.0167474
853.824	0.0168206
853.902	0.0166686
853.980	0.0167530
854.058	0.0168732
854.136	0.0168301
854.215	0.0168388
854.293	0.0166107
854.371	0.0167838
854.449	0.0166741
854.527	0.0165652
854.605	0.0167612
854.683	0.0166189
854.761	0.0166952
854.840	0.0166506
854.918	0.0165961
854.996	0.0166379
855.074	0.0167426
855.152	0.0167903
855.230	0.0167305
855.308	0.0167152
855.386	0.0168734
855.465	0.0167990
855.543	0.0167757
855.621	0.0168473
855.699	0.0166561
855.777	0.0167416
855.855	0.0168716
855.933	0.0167242
856.011	0.0169220
856.090	0.0167670
856.168	0.0167820
856.246	0.0168821
856.324	0.0169585
856.402	0.0168147
856.480	0.0168506
856.558	0.0168832
856.636	0.0169550
856.715	0.0169977
856.793	0.0168674
856.871	0.0168724
856.949	0.0169394
857.027	0.0170022
857.105	0.0170030
857.183	0.0169273
857.261	0.0169419
857.340	0.0168989
857.418	0.0170286
857.496	0.0170731
857.574	0.0170354
857.652	0.0169955
857.730	0.0168652
857.808	0.0168997
857.886	0.0168534
857.965	0.0169749
858.043	0.0168800
858.121	0.0168168
858.199	0.0168292
858.277	0.0169204
858.355	0.0168979
858.433	0.0168150
858.511	0.0168842
858.590	0.0167342
858.668	0.0168101
858.746	0.0168558
858.824	0.0168535
858.902	0.0170589
858.980	0.0169416
859.058	0.0169978
859.136	0.0169149
859.215	0.0168096
859.293	0.0169646
859.371	0.0168223
859.449	0.0167979
859.527	0.0168414
859.605	0.0168253
859.683	0.0168317
859.761	0.0168864
859.840	0.0169099
859.918	0.0167828
859.996	0.0168057
860.074	0.0168681
860.152	0.0168586
860.230	0.0168730
860.308	0.0168744
860.386	0.0168639
860.465	0.0167239
860.543	0.0167002
860.621	0.0167213
860.699	0.0168966
860.777	0.0168362
860.855	0.0168380
860.933	0.0169019
861.011	0.0168622
861.090	0.0167609
861.168	0.0168379
861.246	0.0168806
861.324	0.0168031
861.402	0.0167835
861.480	0.0167461
861.558	0.0167880
861.636	0.0167610
861.715	0.0167219
861.793	0.0166803
861.871	0.0166711
861.949	0.0167680
862.027	0.0166662
862.105	0.0166924
862.183	0.0166313
862.261	0.0167779
862.340	0.0166711
862.418	0.0167032
862.496	0.0166888
862.574	0.0167197
862.652	0.0167124
862.730	0.0166970
862.808	0.0167065
862.886	0.0168654
862.965	0.0168714
863.043	0.0167066
863.121	0.0168114
863.199	0.0168395
863.277	0.0167988
863.355	0.0167088
863.433	0.0167513
863.511	0.0167596
863.590	0.0168594
863.668	0.0168757
863.746	0.0167683
863.824	0.0166773
863.902	0.0167209
863.980	0.0169090
864.058	0.0168557
864.136	0.0166476
864.215	0.0167180
864.293	0.0167387
864.371	0.0168246
864.449	0.0167413
864.527	0.0167784
864.605	0.0168629
864.683	0.0167742
864.761	0.0167617
864.840	0.0166721
864.918	0.0167760
864.996	0.0169412
865.074	0.0167900
865.152	0.0168703
865.230	0.0169373
865.308	0.0170712
865.386	0.0169040
865.465	0.0168967
865.543	0.0169531
865.621	0.0169506
865.699	0.0168931
865.777	0.0169655
865.855	0.0169871
865.933	0.0169420
866.011	0.0169344
866.090	0.0170123
866.168	0.0170077
866.246	0.0168977
866.324	0.0168236
866.402	0.0168267
866.480	0.0168108
866.558	0.0167799
866.636	0.0169159
866.715	0.0168741
866.793	0.0169664
866.871	0.0167994
866.949	0.0168611
867.027	0.0170251
867.105	0.0169856
867.183	0.0169526
867.261	0.0169165
867.340	0.0169564
867.418	0.0169163
867.496	0.0169114
867.574	0.0170248
867.652	0.0170902
867.730	0.0170113
867.808	0.0171099
867.886	0.0168296
867.965	0.0168777
868.043	0.0167484
868.121	0.0167725
868.199	0.0167972
868.277	0.0167323
868.355	0.0167567
868.433	0.0167797
868.511	0.0165899
868.590	0.0166261
868.668	0.0167498
868.746	0.0168066
868.824	0.0167023
868.902	0.0167821
868.980	0.0168853
869.058	0.0168560
869.136	0.0168549
869.215	0.0168983
869.293	0.0168186
869.371	0.0169812
869.449	0.0168089
869.527	0.0167690
869.605	0.0168898
869.683	0.0168848
869.761	0.0168505
869.840	0.0167781
869.918	0.0167554
869.996	0.0167225
870.074	0.0166146
870.152	0.0166596
870.230	0.0168249
870.308	0.0166993
870.386	0.0165438
870.465	0.0166737
870.543	0.0167923
870.621	0.0167623
870.699	0.0166319
870.777	0.0167046
870.855	0.0166454
870.933	0.0167505
871.011	0.0166796
871.090	0.0168214
871.168	0.0168778
871.246	0.0167553
871.324	0.0169263
871.402	0.0167134
871.480	0.0168861
871.558	0.0169054
871.636	0.0167986
871.715	0.0167278
871.793	0.0167093
871.871	0.0168830
871.949	0.0167391
872.027	0.0167936
872.105	0.0167416
872.183	0.0165969
872.261	0.0166115
872.340	0.0168350
872.418	0.0167921
872.496	0.0167995
872.574	0.0168215
872.652	0.0167096
872.730	0.0166969
872.808	0.0168437
872.886	0.0168300
872.965	0.0168355
873.043	0.0168890
873.121	0.0168967
873.199	0.0168481
873.277	0.0169388
873.355	0.0168030
873.433	0.0169203
873.511	0.0168528
873.590	0.0168645
873.668	0.0169505
873.746	0.0169776
873.824	0.0169907
873.902	0.0169591
873.980	0.0168884
874.058	0.0169151
874.136	0.0169067
874.215	0.0166903
874.293	0.0167387
874.371	0.0168311
874.449	0.0168910
874.527	0.0168120
874.605	0.0168531
874.683	0.0168085
874.761	0.0167589
874.840	0.0166621
874.918	0.0168025
874.996	0.0168317
875.074	0.0170017
875.152	0.0169360
875.230	0.0167893
875.308	0.0167930
875.386	0.0167542
875.465	0.0167881
875.543	0.0168819
875.621	0.0171278
875.699	0.0168988
875.777	0.0167953
875.855	0.0167744
875.933	0.0168369
876.011	0.0169691
876.090	0.0168353
876.168	0.0168829
876.246	0.0168645
876.324	0.0168272
876.402	0.0168817
876.480	0.0167292
876.558	0.0166154
876.636	0.0168062
876.715	0.0168424
876.793	0.0167753
876.871	0.0166132
876.949	0.0166914
877.027	0.0167506
877.105	0.0168327
877.183	0.0167127
877.261	0.0168307
877.340	0.0168835
877.418	0.0166815
877.496	0.0169283
877.574	0.0167915
877.652	0.0168146
877.730	0.0169587
877.808	0.0168128
877.886	0.0168208
877.965	0.0168174
878.043	0.0168993
878.121	0.0167956
878.199	0.0168661
878.277	0.0169536
878.355	0.0167640
878.433	0.0167334
878.511	0.0169215
878.590	0.0168239
878.668	0.0166998
878.746	0.0168418
878.824	0.0168595
878.902	0.0167016
878.980	0.0167433
879.058	0.0167722
879.136	0.0167497
879.215	0.0166962
879.293	0.0167496
879.371	0.0166822
879.449	0.0168246
879.527	0.0167273
879.605	0.0168513
879.683	0.0167817
879.761	0.0168736
879.840	0.0169210
879.918	0.0169116
879.996	0.0169118
880.074	0.0167878
880.152	0.0169833
880.230	0.0169312
880.308	0.0169359
880.386	0.0169376
880.465	0.0168898
880.543	0.0169048
880.621	0.0170176
880.699	0.0169886
880.777	0.0169303
880.855	0.0169380
880.933	0.0169459
881.011	0.0169210
881.090	0.0168037
881.168	0.0167413
881.246	0.0167258
881.324	0.0167801
881.402	0.0167535
881.480	0.0167279
881.558	0.0167906
881.636	0.0167876
881.715	0.0166714
881.793	0.0166219
881.871	0.0167281
881.949	0.0167688
882.027	0.0168246
882.105	0.0166939
882.183	0.0167773
882.261	0.0167997
882.340	0.0168114
882.418	0.0168272
882.496	0.0168308
882.574	0.0168870
882.652	0.0168826
882.730	0.0169348
882.808	0.0169916
882.886	0.0169533
882.965	0.0169374
883.043	0.0169521
883.121	0.0169322
883.199	0.0169276
883.277	0.0169097
883.355	0.0170026
883.433	0.0169341
883.511	0.0169899
883.590	0.0169745
883.668	0.0168364
883.746	0.0167989
883.824	0.0167975
883.902	0.0170130
883.980	0.0168133
884.058	0.0168501
884.136	0.0169437
884.215	0.0167906
884.293	0.0167019
884.371	0.0168066
884.449	0.0166802
884.527	0.0167671
884.605	0.0168893
884.683	0.0168134
884.761	0.0168269
884.840	0.0168994
884.918	0.0167987
884.996	0.0168277
885.074	0.0168191
885.152	0.0168291
885.230	0.0166133
885.308	0.0169122
885.386	0.0166935
885.465	0.0169469
885.543	0.0167384
885.621	0.0169754
885.699	0.0167777
885.777	0.0169022
885.855	0.0167387
885.933	0.0169205
886.011	0.0168271
886.090	0.0168832
886.168	0.0167712
886.246	0.0171243
886.324	0.0168619
886.402	0.0168069
886.480	0.0167835
886.558	0.0168593
886.636	0.0169925
886.715	0.0169462
886.793	0.0169831
886.871	0.0168524
886.949	0.0168517
887.027	0.0168656
887.105	0.0168367
887.183	0.0169665
887.261	0.0168153
887.340	0.0168103
887.418	0.0166952
887.496	0.0168323
887.574	0.0166836
887.652	0.0167319
887.730	0.0167205
887.808	0.0166694
887.886	0.0166995
887.965	0.0167621
888.043	0.0167702
888.121	0.0168384
888.199	0.0167438
888.277	0.0168114
888.355	0.0167870
888.433	0.0168958
888.511	0.0168684
888.590	0.0168982
888.668	0.0169238
888.746	0.0169008
888.824	0.0169845
888.902	0.0169163
888.980	0.0169525
889.058	0.0168623
889.136	0.0168367
889.215	0.0168681
889.293	0.0168786
889.371	0.0168216
889.449	0.0168309
889.527	0.0168681
889.605	0.0168310
889.683	0.0167496
889.761	0.0167386
889.840	0.0167242
889.918	0.0166777
889.996	0.0167273
890.074	0.0167662
890.152	0.0167589
890.230	0.0168987
890.308	0.0167900
890.386	0.0166601
890.465	0.0168597
890.543	0.0169067
890.621	0.0167477
890.699	0.0168278
890.777	0.0169064
890.855	0.0168880
890.933	0.0169438
891.011	0.0169727
891.090	0.0168571
891.168	0.0169569
891.246	0.0169344
891.324	0.0169389
891.402	0.0167868
891.480	0.0168195
891.558	0.0169737
891.636	0.0168054
891.715	0.0168104
891.793	0.0167957
891.871	0.0167423
891.949	0.0166047
892.027	0.0167315
892.105	0.0167906
892.183	0.0166478
892.261	0.0166980
892.340	0.0167239
892.418	0.0166238
892.496	0.0167526
892.574	0.0166189
892.652	0.0167905
892.730	0.0168677
892.808	0.0168930
892.886	0.0166863
892.965	0.0167574
893.043	0.0169420
893.121	0.0168804
893.199	0.0169109
893.277	0.0167107
893.355	0.0169049
893.433	0.0169154
893.511	0.0168498
893.590	0.0169608
893.668	0.0170614
893.746	0.0168253
893.824	0.0169260
893.902	0.0168952
893.980	0.0168754
894.058	0.0168227
894.136	0.0168797
894.215	0.0169242
894.293	0.0169164
894.371	0.0169829
894.449	0.0169313
894.527	0.0170195
894.605	0.0168556
894.683	0.0169736
894.761	0.0168787
894.840	0.0169529
894.918	0.0169239
894.996	0.0168575
895.074	0.0168840
895.152	0.0168920
895.230	0.0167875
895.308	0.0168383
895.386	0.0167372
895.465	0.0167455
895.543	0.0168274
895.621	0.0167283
895.699	0.0167568
895.777	0.0166919
895.855	0.0169386
895.933	0.0168053
896.011	0.0168303
896.090	0.0166178
896.168	0.0166645
896.246	0.0168221
896.324	0.0168937
896.402	0.0169302
896.480	0.0168445
896.558	0.0167858
896.636	0.0168377
896.715	0.0168207
896.793	0.0169191
896.871	0.0168235
896.949	0.0169571
897.027	0.0168690
897.105	0.0168446
897.183	0.0168816
897.261	0.0168948
897.340	0.0168432
897.418	0.0167953
897.496	0.0168652
897.574	0.0167889
897.652	0.0168048
897.730	0.0168498
897.808	0.0167879
897.886	0.0167640
897.965	0.0168365
898.043	0.0168716
898.121	0.0167951
898.199	0.0166875
898.277	0.0168719
898.355	0.0167580
898.433	0.0168791
898.511	0.0168447
898.590	0.0167748
898.668	0.0168864
898.746	0.0168095
898.824	0.0167534
898.902	0.0167114
898.980	0.0168293
899.058	0.0167883
899.136	0.0168491
899.215	0.0167165
899.293	0.0167287
899.371	0.0167315
899.449	0.0167748
899.527	0.0167224
899.605	0.0169240
899.683	0.0169292
899.761	0.0167670
899.840	0.0169218
899.918	0.0168236
899.996	0.0167432
900.074	0.0167797
900.152	0.0167982
900.230	0.0167751
900.308	0.0168413
900.386	0.0167615
900.465	0.0166727
900.543	0.0167993
900.621	0.0167826
900.699	0.0166901
900.777	0.0167786
900.855	0.0167097
900.933	0.0167039
901.011	0.0166950
901.090	0.0168877
901.168	0.0166880
901.246	0.0164545
901.324	0.0166532
901.402	0.0168095
901.480	0.0167764
901.558	0.0168097
901.636	0.0169028
901.715	0.0167885
901.793	0.0168299
901.871	0.0168308
901.949	0.0169207
902.027	0.0168155
902.105	0.0168076
902.183	0.0169180
902.261	0.0169807
902.340	0.0169334
902.418	0.0168945
902.496	0.0169606
902.574	0.0169773
902.652	0.0168479
902.730	0.0167826
902.808	0.0169044
902.886	0.0168999
902.965	0.0168187
903.043	0.0169707
903.121	0.0167607
903.199	0.0167843
903.277	0.0167788
903.355	0.0169246
903.433	0.0167957
903.511	0.0167234
903.590	0.0168190
903.668	0.0167776
903.746	0.0167352
903.824	0.0167715
903.902	0.0166774
903.980	0.0168420
904.058	0.0167702
904.136	0.0167547
904.215	0.0167522
904.293	0.0168803
904.371	0.0168416
904.449	0.0167085
904.527	0.0167064
904.605	0.0167916
904.683	0.0167386
904.761	0.0167725
904.840	0.0168103
904.918	0.0168694
904.996	0.0168668
905.074	0.0167544
905.152	0.0167078
905.230	0.0167841
905.308	0.0168474
905.386	0.0168697
905.465	0.0168214
905.543	0.0167814
905.621	0.0167889
905.699	0.0167062
905.777	0.0167210
905.855	0.0167696
905.933	0.0169053
906.011	0.0168146
906.090	0.0168418
906.168	0.0167980
906.246	0.0168366
906.324	0.0167910
906.402	0.0167213
906.480	0.0167122
906.558	0.0166942
906.636	0.0168240
906.715	0.0168247
906.793	0.0167757
906.871	0.0166920
906.949	0.0168293
907.027	0.0168690
907.105	0.0167310
907.183	0.0167394
907.261	0.0168466
907.340	0.0167960
907.418	0.0167284
907.496	0.0167246
907.574	0.0168259
907.652	0.0168777
907.730	0.0167985
907.808	0.0168268
907.886	0.0167838
907.965	0.0168521
908.043	0.0167644
908.121	0.0166978
908.199	0.0167210
908.277	0.0167028
908.355	0.0168008
908.433	0.0167153
908.511	0.0167361
908.590	0.0168082
908.668	0.0168140
908.746	0.0167693
908.824	0.0167782
908.902	0.0166959
908.980	0.0166869
909.058	0.0167493
909.136	0.0168358
909.215	0.0168249
909.293	0.0168581
909.371	0.0167126
909.449	0.0168648
909.527	0.0167037
909.605	0.0166251
909.683	0.0168057
909.761	0.0167708
909.840	0.0168806
909.918	0.0168281
909.996	0.0169305
910.074	0.0167715
910.152	0.0167638
910.230	0.0167171
910.308	0.0167737
910.386	0.0167374
910.465	0.0167347
910.543	0.0167311
910.621	0.0165839
910.699	0.0168224
910.777	0.0168055
910.855	0.0168538
910.933	0.0167709
911.011	0.0166743
911.090	0.0166552
911.168	0.0168417
911.246	0.0168500
911.324	0.0167144
911.402	0.0167404
911.480	0.0168734
911.558	0.0168197
911.636	0.0167997
911.715	0.0168322
911.793	0.0169118
911.871	0.0168577
911.949	0.0167727
912.027	0.0168250
912.105	0.0169082
912.183	0.0168227
912.261	0.0167710
912.340	0.0168053
912.418	0.0168871
912.496	0.0168764
912.574	0.0169032
912.652	0.0168364
912.730	0.0167015
912.808	0.0167184
912.886	0.0168320
912.965	0.0167023
913.043	0.0167320
913.121	0.0167171
913.199	0.0167805
913.277	0.0167687
913.355	0.0168053
913.433	0.0167021
913.511	0.0169147
913.590	0.0168807
913.668	0.0166533
913.746	0.0167439
913.824	0.0168771
913.902	0.0169527
913.980	0.0167842
914.058	0.0168954
914.136	0.0168446
914.215	0.0167257
914.293	0.0168295
914.371	0.0169512
914.449	0.0167568
914.527	0.0168981
914.605	0.0168928
914.683	0.0167969
914.761	0.0169469
914.840	0.0168653
914.918	0.0169552
914.996	0.0168874
915.074	0.0169690
915.152	0.0168735
915.230	0.0168060
915.308	0.0168337
915.386	0.0168410
915.465	0.0168127
915.543	0.0169048
915.621	0.0169547
915.699	0.0169775
915.777	0.0169108
915.855	0.0167496
915.933	0.0168144
916.011	0.0167775
916.090	0.0168340
916.168	0.0168792
916.246	0.0167975
916.324	0.0169238
916.402	0.0169654
916.480	0.0167752
916.558	0.0168722
916.636	0.0165903
916.715	0.0166465
916.793	0.0167785
916.871	0.0167197
916.949	0.0167464
917.027	0.0168755
917.105	0.0166280
917.183	0.0167088
917.261	0.0167635
917.340	0.0166272
917.418	0.0165993
917.496	0.0167542
917.574	0.0166582
917.652	0.0167577
917.730	0.0167551
917.808	0.0167050
917.886	0.0166244
917.965	0.0167070
918.043	0.0168803
918.121	0.0168546
918.199	0.0166684
918.277	0.0166709
918.355	0.0167355
918.433	0.0167166
918.511	0.0167448
918.590	0.0168080
918.668	0.0168349
918.746	0.0168111
918.824	0.0167866
918.902	0.0167400
918.980	0.0168332
919.058	0.0167678
919.136	0.0168105
919.215	0.0169102
919.293	0.0167529
919.371	0.0168554
919.449	0.0168866
919.527	0.0168493
919.605	0.0167643
919.683	0.0169469
919.761	0.0168732
919.840	0.0168179
919.918	0.0168493
919.996	0.0168837
920.074	0.0167514
920.152	0.0167410
920.230	0.0166821
920.308	0.0168581
920.386	0.0167290
920.465	0.0167943
920.543	0.0168825
920.621	0.0168212
920.699	0.0168007
920.777	0.0167415
920.855	0.0168674
920.933	0.0168278
921.011	0.0168188
921.090	0.0168651
921.168	0.0167280
921.246	0.0168396
921.324	0.0168539
921.402	0.0167753
921.480	0.0166647
921.558	0.0167794
921.636	0.0169118
921.715	0.0168990
921.793	0.0168361
921.871	0.0167976
921.949	0.0168803
922.027	0.0167345
922.105	0.0167748
922.183	0.0168510
922.261	0.0168551
922.340	0.0169279
922.418	0.0168124
922.496	0.0167797
922.574	0.0169616
922.652	0.0169865
922.730	0.0170001
922.808	0.0168727
922.886	0.0167989
922.965	0.0169315
923.043	0.0169061
923.121	0.0168542
923.199	0.0167522
923.277	0.0168229
923.355	0.0168964
923.433	0.0168443
923.511	0.0168829
923.590	0.0168877
923.668	0.0169055
923.746	0.0168194
923.824	0.0166804
923.902	0.0168996
923.980	0.0170213
924.058	0.0168153
924.136	0.0168342
924.215	0.0168047
924.293	0.0168291
924.371	0.0168534
924.449	0.0167216
924.527	0.0167760
924.605	0.0167815
924.683	0.0167084
924.761	0.0169054
924.840	0.0169180
924.918	0.0167128
924.996	0.0168208
925.074	0.0168081
925.152	0.0166792
925.230	0.0166779
925.308	0.0167805
925.386	0.0166833
925.465	0.0166346
925.543	0.0167361
925.621	0.0167802
925.699	0.0167499
925.777	0.0167368
925.855	0.0169283
925.933	0.0168553
926.011	0.0168866
926.090	0.0169437
926.168	0.0168916
926.246	0.0168316
926.324	0.0168710
926.402	0.0168152
926.480	0.0169240
926.558	0.0167672
926.636	0.0168102
926.715	0.0168690
926.793	0.0169258
926.871	0.0167445
926.949	0.0167677
927.027	0.0167822
927.105	0.0167246
927.183	0.0167738
927.261	0.0167149
927.340	0.0167882
927.418	0.0168556
927.496	0.0167892
927.574	0.0168820
927.652	0.0167075
927.730	0.0167913
927.808	0.0169881
927.886	0.0168595
927.965	0.0168602
928.043	0.0168615
928.121	0.0168837
928.199	0.0168255
928.277	0.0168486
928.355	0.0168384
928.433	0.0168943
928.511	0.0168832
928.590	0.0168102
928.668	0.0168595
928.746	0.0169894
928.824	0.0169617
928.902	0.0168784
928.980	0.0168826
929.058	0.0167997
929.136	0.0168257
929.215	0.0168945
929.293	0.0169055
929.371	0.0169590
929.449	0.0168406
929.527	0.0168024
929.605	0.0169500
929.683	0.0168286
929.761	0.0169054
929.840	0.0169094
929.918	0.0168256
929.996	0.0168014
930.074	0.0169271
930.152	0.0168719
930.230	0.0168382
930.308	0.0168035
930.386	0.0168464
930.465	0.0168275
930.543	0.0168206
930.621	0.0170091
930.699	0.0168226
930.777	0.0167334
930.855	0.0168678
930.933	0.0168305
931.011	0.0168150
931.090	0.0168657
931.168	0.0169044
931.246	0.0169763
931.324	0.0169818
931.402	0.0168967
931.480	0.0168848
931.558	0.0168547
931.636	0.0168340
931.715	0.0169363
931.793	0.0168373
931.871	0.0168874
931.949	0.0168419
932.027	0.0169514
932.105	0.0168246
932.183	0.0169180
932.261	0.0169232
932.340	0.0168196
932.418	0.0166640
932.496	0.0168321
932.574	0.0168696
932.652	0.0168336
932.730	0.0169180
932.808	0.0167336
932.886	0.0168810
932.965	0.0168370
933.043	0.0167358
933.121	0.0167455
933.199	0.0168134
933.277	0.0169156
933.355	0.0168792
933.433	0.0166466
933.511	0.0166978
933.590	0.0167801
933.668	0.0168793
933.746	0.0169164
933.824	0.0167774
933.902	0.0169199
933.980	0.0168000
934.058	0.0167652
934.136	0.0166522
934.215	0.0167817
934.293	0.0167947
934.371	0.0169009
934.449	0.0167317
934.527	0.0168704
934.605	0.0167421
934.683	0.0167890
934.761	0.0168462
934.840	0.0167581
934.918	0.0167764
934.996	0.0168808
935.074	0.0169151
935.152	0.0167534
935.230	0.0168623
935.308	0.0168639
935.386	0.0168643
935.465	0.0169092
935.543	0.0167975
935.621	0.0168444
935.699	0.0167995
935.777	0.0168826
935.855	0.0168971
935.933	0.0169163
936.011	0.0168736
936.090	0.0169048
936.168	0.0168420
936.246	0.0168320
936.324	0.0168013
936.402	0.0168344
936.480	0.0168594
936.558	0.0167602
936.636	0.0168042
936.715	0.0168840
936.793	0.0167369
936.871	0.0166218
936.949	0.0166861
937.027	0.0167880
937.105	0.0168304
937.183	0.0167728
937.261	0.0167206
937.340	0.0167735
937.418	0.0167199
937.496	0.0168092
937.574	0.0168439
937.652	0.0168127
937.730	0.0168228
937.808	0.0168392
937.886	0.0167919
937.965	0.0167782
938.043	0.0168374
938.121	0.0167110
938.199	0.0168044
938.277	0.0169933
938.355	0.0168856
938.433	0.0168551
938.511	0.0167680
938.590	0.0168787
938.668	0.0169196
938.746	0.0167473
938.824	0.0168485
938.902	0.0168375
938.980	0.0168057
939.058	0.0168909
939.136	0.0169273
939.215	0.0168831
939.293	0.0168669
939.371	0.0168697
939.449	0.0167538
939.527	0.0169092
939.605	0.0167936
939.683	0.0169632
939.761	0.0167789
939.840	0.0167644
939.918	0.0169338
939.996	0.0168481
940.074	0.0169029
940.152	0.0169501
940.230	0.0168033
940.308	0.0168993
940.386	0.0167554
940.465	0.0168543
940.543	0.0169549
940.621	0.0168951
940.699	0.0168434
940.777	0.0168264
940.855	0.0169795
940.933	0.0167767
941.011	0.0169074
941.090	0.0168121
941.168	0.0167841
941.246	0.0168548
941.324	0.0168069
941.402	0.0166447
941.480	0.0167418
941.558	0.0168807
941.636	0.0167784
941.715	0.0167715
941.793	0.0169001
941.871	0.0168288
941.949	0.0168169
942.027	0.0167986
942.105	0.0169373
942.183	0.0168713
942.261	0.0167600
942.340	0.0167844
942.418	0.0168501
942.496	0.0166866
942.574	0.0168627
942.652	0.0169157
942.730	0.0167570
942.808	0.0167879
942.886	0.0167934
942.965	0.0168195
943.043	0.0167360
943.121	0.0167648
943.199	0.0168835
943.277	0.0166083
943.355	0.0167338
943.433	0.0168652
943.511	0.0167537
943.590	0.0167514
943.668	0.0167168
943.746	0.0168256
943.824	0.0167706
943.902	0.0168525
943.980	0.0167175
944.058	0.0167780
944.136	0.0168932
944.215	0.0169028
944.293	0.0168478
944.371	0.0168704
944.449	0.0168440
944.527	0.0168139
944.605	0.0168222
944.683	0.0168484
944.761	0.0167582
944.840	0.0168477
944.918	0.0169994
944.996	0.0167645
945.074	0.0168837
945.152	0.0167796
945.230	0.0167464
945.308	0.0167328
945.386	0.0168201
945.465	0.0169451
945.543	0.0168610
945.621	0.0168646
945.699	0.0168372
945.777	0.0167772
945.855	0.0168222
945.933	0.0169265
946.011	0.0168939
946.090	0.0169449
946.168	0.0169958
946.246	0.0167040
946.324	0.0168830
946.402	0.0169788
946.480	0.0168250
946.558	0.0169067
946.636	0.0170677
946.715	0.0169425
946.793	0.0169205
946.871	0.0168478
946.949	0.0169137
947.027	0.0169526
947.105	0.0168926
947.183	0.0169125
947.261	0.0168404
947.340	0.0167482
947.418	0.0167822
947.496	0.0168264
947.574	0.0169722
947.652	0.0169701
947.730	0.0169279
947.808	0.0167893
947.886	0.0168626
947.965	0.0168137
948.043	0.0168517
948.121	0.0168340
948.199	0.0167894
948.277	0.0167648
948.355	0.0168995
948.433	0.0169317
948.511	0.0167724
948.590	0.0167584
948.668	0.0168283
948.746	0.0167582
948.824	0.0167383
948.902	0.0168666
948.980	0.0168806
949.058	0.0168147
949.136	0.0167235
949.215	0.0168355
949.293	0.0167687
949.371	0.0167825
949.449	0.0166847
949.527	0.0167288
949.605	0.0167185
949.683	0.0167123
949.761	0.0169335
949.840	0.0167897
949.918	0.0168574
