06/29/2022	21:27:09	Ver.	4.1	UNKNOWN
Optical Delay	629.995835	Delta X		0.078125	Sweeps	1	Scan Rate	0/0
Coordinates	Axis 1	NaN	Axis 2	NaN	Axis 3	NaN	Axis 4	NaN	Axis 5	NaN	Axis 6	0.000000
TX Power	0.000000	RX Power	0.000000

629.996	0.0167422
630.074	0.0167683
630.152	0.0166669
630.230	0.0167782
630.308	0.0168137
630.386	0.0167762
630.465	0.0168628
630.543	0.0167583
630.621	0.0166935
630.699	0.0167663
630.777	0.0167643
630.855	0.0168123
630.933	0.0167634
631.011	0.0169248
631.090	0.0168238
631.168	0.0168441
631.246	0.0167016
631.324	0.0168834
631.402	0.0168478
631.480	0.0168745
631.558	0.0168877
631.636	0.0166977
631.715	0.0168063
631.793	0.0168961
631.871	0.0169425
631.949	0.0167775
632.027	0.0167812
632.105	0.0169112
632.183	0.0167775
632.261	0.0168944
632.340	0.0167616
632.418	0.0166251
632.496	0.0168523
632.574	0.0167422
632.652	0.0167730
632.730	0.0168017
632.808	0.0167719
632.886	0.0168523
632.965	0.0167155
633.043	0.0168699
633.121	0.0167327
633.199	0.0167284
633.277	0.0167699
633.355	0.0167594
633.433	0.0168816
633.511	0.0167496
633.590	0.0168740
633.668	0.0166556
633.746	0.0168056
633.824	0.0167699
633.902	0.0169076
633.980	0.0168613
634.058	0.0167219
634.136	0.0167891
634.215	0.0168140
634.293	0.0168018
634.371	0.0168383
634.449	0.0168221
634.527	0.0168017
634.605	0.0168284
634.683	0.0167245
634.761	0.0167521
634.840	0.0169068
634.918	0.0166619
634.996	0.0167545
635.074	0.0167154
635.152	0.0168375
635.230	0.0169108
635.308	0.0168654
635.386	0.0167764
635.465	0.0168690
635.543	0.0167526
635.621	0.0169044
635.699	0.0167597
635.777	0.0168040
635.855	0.0169008
635.933	0.0167838
636.011	0.0168269
636.090	0.0168816
636.168	0.0168697
636.246	0.0169182
636.324	0.0166884
636.402	0.0167170
636.480	0.0168413
636.558	0.0168602
636.636	0.0167968
636.715	0.0167518
636.793	0.0168739
636.871	0.0169560
636.949	0.0167050
637.027	0.0168456
637.105	0.0169429
637.183	0.0168716
637.261	0.0167117
637.340	0.0167661
637.418	0.0168529
637.496	0.0168124
637.574	0.0168931
637.652	0.0167197
637.730	0.0167569
637.808	0.0168504
637.886	0.0167780
637.965	0.0168100
638.043	0.0168353
638.121	0.0166387
638.199	0.0168565
638.277	0.0168633
638.355	0.0166568
638.433	0.0168301
638.511	0.0168739
638.590	0.0168081
638.668	0.0169208
638.746	0.0168906
638.824	0.0167878
638.902	0.0167867
638.980	0.0166268
639.058	0.0167027
639.136	0.0167887
639.215	0.0168430
639.293	0.0168201
639.371	0.0167551
639.449	0.0167210
639.527	0.0167339
639.605	0.0168241
639.683	0.0168338
639.761	0.0168671
639.840	0.0167485
639.918	0.0167795
639.996	0.0168993
640.074	0.0168129
640.152	0.0167914
640.230	0.0168360
640.308	0.0168049
640.386	0.0167921
640.465	0.0167506
640.543	0.0168291
640.621	0.0167409
640.699	0.0167785
640.777	0.0168672
640.855	0.0168511
640.933	0.0167185
641.011	0.0168033
641.090	0.0168415
641.168	0.0167593
641.246	0.0168806
641.324	0.0168092
641.402	0.0168357
641.480	0.0167721
641.558	0.0168290
641.636	0.0168298
641.715	0.0166883
641.793	0.0167545
641.871	0.0167867
641.949	0.0168920
642.027	0.0168529
642.105	0.0168716
642.183	0.0167217
642.261	0.0167556
642.340	0.0167106
642.418	0.0168481
642.496	0.0167561
642.574	0.0168626
642.652	0.0168303
642.730	0.0168683
642.808	0.0167721
642.886	0.0168980
642.965	0.0169518
643.043	0.0169064
643.121	0.0168143
643.199	0.0168164
643.277	0.0167435
643.355	0.0167844
643.433	0.0168770
643.511	0.0168488
643.590	0.0167373
643.668	0.0167484
643.746	0.0167795
643.824	0.0168427
643.902	0.0168151
643.980	0.0168607
644.058	0.0167723
644.136	0.0167641
644.215	0.0168427
644.293	0.0169193
644.371	0.0167455
644.449	0.0167007
644.527	0.0168194
644.605	0.0168579
644.683	0.0168260
644.761	0.0168510
644.840	0.0167542
644.918	0.0168406
644.996	0.0167761
645.074	0.0167399
645.152	0.0168376
645.230	0.0170428
645.308	0.0167104
645.386	0.0167718
645.465	0.0168300
645.543	0.0167899
645.621	0.0167508
645.699	0.0168813
645.777	0.0169267
645.855	0.0167390
645.933	0.0167815
646.011	0.0169473
646.090	0.0167559
646.168	0.0168168
646.246	0.0167773
646.324	0.0167947
646.402	0.0168383
646.480	0.0167252
646.558	0.0167754
646.636	0.0168942
646.715	0.0168678
646.793	0.0166207
646.871	0.0168216
646.949	0.0168002
647.027	0.0166913
647.105	0.0167759
647.183	0.0168007
647.261	0.0167329
647.340	0.0167876
647.418	0.0167630
647.496	0.0168450
647.574	0.0167551
647.652	0.0168069
647.730	0.0167198
647.808	0.0167868
647.886	0.0167184
647.965	0.0167754
648.043	0.0167892
648.121	0.0168694
648.199	0.0167359
648.277	0.0168589
648.355	0.0168226
648.433	0.0167958
648.511	0.0168571
648.590	0.0167692
648.668	0.0166434
648.746	0.0167453
648.824	0.0168854
648.902	0.0168231
648.980	0.0167229
649.058	0.0168861
649.136	0.0167925
649.215	0.0167397
649.293	0.0168122
649.371	0.0167128
649.449	0.0168709
649.527	0.0168092
649.605	0.0168297
649.683	0.0166936
649.761	0.0168434
649.840	0.0168328
649.918	0.0168313
649.996	0.0168688
650.074	0.0167893
650.152	0.0168392
650.230	0.0168572
650.308	0.0169159
650.386	0.0168739
650.465	0.0167361
650.543	0.0168300
650.621	0.0168622
650.699	0.0167632
650.777	0.0168437
650.855	0.0169074
650.933	0.0167467
651.011	0.0168019
651.090	0.0167736
651.168	0.0167374
651.246	0.0167007
651.324	0.0167955
651.402	0.0168775
651.480	0.0167955
651.558	0.0168688
651.636	0.0167572
651.715	0.0167218
651.793	0.0166939
651.871	0.0167768
651.949	0.0168208
652.027	0.0169036
652.105	0.0167596
652.183	0.0167532
652.261	0.0168599
652.340	0.0166908
652.418	0.0168169
652.496	0.0167384
652.574	0.0168776
652.652	0.0168195
652.730	0.0167541
652.808	0.0167377
652.886	0.0168831
652.965	0.0168365
653.043	0.0167322
653.121	0.0168972
653.199	0.0170045
653.277	0.0169044
653.355	0.0167965
653.433	0.0167351
653.511	0.0168050
653.590	0.0169534
653.668	0.0169706
653.746	0.0169576
653.824	0.0169201
653.902	0.0166732
653.980	0.0168849
654.058	0.0167862
654.136	0.0168265
654.215	0.0167831
654.293	0.0169526
654.371	0.0168768
654.449	0.0167467
654.527	0.0167521
654.605	0.0168267
654.683	0.0168895
654.761	0.0168088
654.840	0.0169179
654.918	0.0168004
654.996	0.0166933
655.074	0.0168344
655.152	0.0167822
655.230	0.0167927
655.308	0.0169602
655.386	0.0167550
655.465	0.0168664
655.543	0.0167380
655.621	0.0166901
655.699	0.0168266
655.777	0.0167671
655.855	0.0167673
655.933	0.0167577
656.011	0.0167895
656.090	0.0167279
656.168	0.0167669
656.246	0.0169109
656.324	0.0166917
656.402	0.0168474
656.480	0.0167533
656.558	0.0167040
656.636	0.0168007
656.715	0.0168009
656.793	0.0167647
656.871	0.0167006
656.949	0.0168463
657.027	0.0169621
657.105	0.0167686
657.183	0.0168588
657.261	0.0167436
657.340	0.0167822
657.418	0.0166946
657.496	0.0168349
657.574	0.0167616
657.652	0.0166785
657.730	0.0167010
657.808	0.0168489
657.886	0.0167989
657.965	0.0167663
658.043	0.0169224
658.121	0.0168011
658.199	0.0167182
658.277	0.0167699
658.355	0.0167094
658.433	0.0169377
658.511	0.0168750
658.590	0.0168517
658.668	0.0168852
658.746	0.0168584
658.824	0.0167938
658.902	0.0169381
658.980	0.0168274
659.058	0.0168567
659.136	0.0168071
659.215	0.0169096
659.293	0.0168603
659.371	0.0168259
659.449	0.0168851
659.527	0.0169440
659.605	0.0168976
659.683	0.0166907
659.761	0.0168675
659.840	0.0169696
659.918	0.0167593
659.996	0.0168663
660.074	0.0168682
660.152	0.0168070
660.230	0.0167457
660.308	0.0168827
660.386	0.0168779
660.465	0.0168233
660.543	0.0168958
660.621	0.0166426
660.699	0.0168020
660.777	0.0168573
660.855	0.0168879
660.933	0.0168074
661.011	0.0169170
661.090	0.0167416
661.168	0.0167553
661.246	0.0167500
661.324	0.0168401
661.402	0.0168735
661.480	0.0168080
661.558	0.0167882
661.636	0.0166898
661.715	0.0168795
661.793	0.0167400
661.871	0.0168052
661.949	0.0167882
662.027	0.0170186
662.105	0.0166946
662.183	0.0168480
662.261	0.0169111
662.340	0.0168463
662.418	0.0166486
662.496	0.0168040
662.574	0.0168875
662.652	0.0169250
662.730	0.0167266
662.808	0.0167821
662.886	0.0168121
662.965	0.0167184
663.043	0.0167667
663.121	0.0168924
663.199	0.0168736
663.277	0.0167566
663.355	0.0168688
663.433	0.0168088
663.511	0.0167658
663.590	0.0168052
663.668	0.0168529
663.746	0.0168309
663.824	0.0167264
663.902	0.0168911
663.980	0.0167970
664.058	0.0167458
664.136	0.0168037
664.215	0.0169375
664.293	0.0168046
664.371	0.0169315
664.449	0.0168926
664.527	0.0167889
664.605	0.0169664
664.683	0.0169083
664.761	0.0167951
664.840	0.0168089
664.918	0.0168607
664.996	0.0167793
665.074	0.0167374
665.152	0.0168219
665.230	0.0167335
665.308	0.0165809
665.386	0.0168091
665.465	0.0168349
665.543	0.0169194
665.621	0.0167023
665.699	0.0168340
665.777	0.0168290
665.855	0.0168468
665.933	0.0167425
666.011	0.0168434
666.090	0.0168226
666.168	0.0168322
666.246	0.0167561
666.324	0.0168195
666.402	0.0169547
666.480	0.0169329
666.558	0.0168377
666.636	0.0168199
666.715	0.0168826
666.793	0.0169331
666.871	0.0168520
666.949	0.0167887
667.027	0.0168456
667.105	0.0168584
667.183	0.0169622
667.261	0.0167527
667.340	0.0167187
667.418	0.0168592
667.496	0.0167968
667.574	0.0168139
667.652	0.0168242
667.730	0.0168747
667.808	0.0168951
667.886	0.0168389
667.965	0.0167989
668.043	0.0167490
668.121	0.0169830
668.199	0.0167720
668.277	0.0167992
668.355	0.0168751
668.433	0.0169200
668.511	0.0168704
668.590	0.0168943
668.668	0.0169283
668.746	0.0167822
668.824	0.0167991
668.902	0.0167728
668.980	0.0167950
669.058	0.0169471
669.136	0.0168633
669.215	0.0169006
669.293	0.0171236
669.371	0.0169048
669.449	0.0168008
669.527	0.0169197
669.605	0.0166645
669.683	0.0168183
669.761	0.0168648
669.840	0.0167658
669.918	0.0167521
669.996	0.0168564
670.074	0.0169884
670.152	0.0168607
670.230	0.0168203
670.308	0.0168316
670.386	0.0168657
670.465	0.0168076
670.543	0.0167606
670.621	0.0169056
670.699	0.0168067
670.777	0.0167829
670.855	0.0167694
670.933	0.0167944
671.011	0.0168013
671.090	0.0168209
671.168	0.0167798
671.246	0.0167927
671.324	0.0167682
671.402	0.0167153
671.480	0.0168165
671.558	0.0168945
671.636	0.0167802
671.715	0.0166916
671.793	0.0167247
671.871	0.0166785
671.949	0.0168404
672.027	0.0168292
672.105	0.0166640
672.183	0.0166870
672.261	0.0168589
672.340	0.0168536
672.418	0.0168437
672.496	0.0168185
672.574	0.0168198
672.652	0.0167260
672.730	0.0168702
672.808	0.0169209
672.886	0.0166771
672.965	0.0169458
673.043	0.0168638
673.121	0.0167437
673.199	0.0169106
673.277	0.0168215
673.355	0.0167244
673.433	0.0170005
673.511	0.0168697
673.590	0.0168925
673.668	0.0169337
673.746	0.0167266
673.824	0.0169614
673.902	0.0169197
673.980	0.0169421
674.058	0.0167313
674.136	0.0166808
674.215	0.0168960
674.293	0.0169254
674.371	0.0168134
674.449	0.0167783
674.527	0.0168433
674.605	0.0167741
674.683	0.0167329
674.761	0.0169138
674.840	0.0167358
674.918	0.0168526
674.996	0.0168292
675.074	0.0167345
675.152	0.0168224
675.230	0.0167708
675.308	0.0167248
675.386	0.0167884
675.465	0.0167582
675.543	0.0168046
675.621	0.0167293
675.699	0.0168080
675.777	0.0168407
675.855	0.0167923
675.933	0.0168279
676.011	0.0168655
676.090	0.0167548
676.168	0.0167791
676.246	0.0167722
676.324	0.0169152
676.402	0.0170119
676.480	0.0168746
676.558	0.0168329
676.636	0.0167715
676.715	0.0167885
676.793	0.0167278
676.871	0.0168248
676.949	0.0168523
677.027	0.0167068
677.105	0.0167352
677.183	0.0167774
677.261	0.0168839
677.340	0.0168025
677.418	0.0168517
677.496	0.0167733
677.574	0.0168186
677.652	0.0169048
677.730	0.0169332
677.808	0.0169113
677.886	0.0167422
677.965	0.0169702
678.043	0.0168411
678.121	0.0168903
678.199	0.0167601
678.277	0.0166918
678.355	0.0167184
678.433	0.0167906
678.511	0.0167870
678.590	0.0168719
678.668	0.0168940
678.746	0.0168556
678.824	0.0167104
678.902	0.0168240
678.980	0.0168043
679.058	0.0168488
679.136	0.0169353
679.215	0.0169364
679.293	0.0168420
679.371	0.0166682
679.449	0.0168208
679.527	0.0167789
679.605	0.0168277
679.683	0.0166786
679.761	0.0168374
679.840	0.0167115
679.918	0.0168656
679.996	0.0168168
680.074	0.0168983
680.152	0.0168638
680.230	0.0166219
680.308	0.0168462
680.386	0.0169427
680.465	0.0167924
680.543	0.0167706
680.621	0.0166590
680.699	0.0168089
680.777	0.0168591
680.855	0.0168568
680.933	0.0170052
681.011	0.0167640
681.090	0.0166997
681.168	0.0168475
681.246	0.0166281
681.324	0.0167365
681.402	0.0167638
681.480	0.0168176
681.558	0.0168732
681.636	0.0167979
681.715	0.0168071
681.793	0.0169218
681.871	0.0167674
681.949	0.0168018
682.027	0.0167489
682.105	0.0168020
682.183	0.0169812
682.261	0.0168156
682.340	0.0167969
682.418	0.0167812
682.496	0.0167574
682.574	0.0167843
682.652	0.0168227
682.730	0.0167813
682.808	0.0167986
682.886	0.0167994
682.965	0.0168697
683.043	0.0168050
683.121	0.0168684
683.199	0.0167192
683.277	0.0168997
683.355	0.0167269
683.433	0.0167619
683.511	0.0168722
683.590	0.0169404
683.668	0.0168140
683.746	0.0166322
683.824	0.0167816
683.902	0.0168782
683.980	0.0168184
684.058	0.0166418
684.136	0.0168506
684.215	0.0169986
684.293	0.0168353
684.371	0.0169191
684.449	0.0170038
684.527	0.0168449
684.605	0.0168207
684.683	0.0169428
684.761	0.0169314
684.840	0.0168673
684.918	0.0168734
684.996	0.0168768
685.074	0.0168585
685.152	0.0169273
685.230	0.0167580
685.308	0.0168056
685.386	0.0168836
685.465	0.0168800
685.543	0.0167662
685.621	0.0167992
685.699	0.0167760
685.777	0.0168432
685.855	0.0167197
685.933	0.0167509
686.011	0.0168900
686.090	0.0168563
686.168	0.0168330
686.246	0.0168500
686.324	0.0168567
686.402	0.0169363
686.480	0.0169547
686.558	0.0168791
686.636	0.0167855
686.715	0.0168779
686.793	0.0167683
686.871	0.0167750
686.949	0.0167673
687.027	0.0168421
687.105	0.0167381
687.183	0.0167384
687.261	0.0167986
687.340	0.0166759
687.418	0.0168468
687.496	0.0168009
687.574	0.0168548
687.652	0.0168575
687.730	0.0168003
687.808	0.0169027
687.886	0.0167583
687.965	0.0166695
688.043	0.0170105
688.121	0.0167470
688.199	0.0168735
688.277	0.0167968
688.355	0.0167287
688.433	0.0169009
688.511	0.0167816
688.590	0.0166299
688.668	0.0167957
688.746	0.0167538
688.824	0.0169528
688.902	0.0168737
688.980	0.0167239
689.058	0.0167492
689.136	0.0167291
689.215	0.0167798
689.293	0.0167227
689.371	0.0168858
689.449	0.0169046
689.527	0.0167693
689.605	0.0167255
689.683	0.0167815
689.761	0.0167193
689.840	0.0170119
689.918	0.0167401
689.996	0.0167830
690.074	0.0167828
690.152	0.0169504
690.230	0.0167519
690.308	0.0168027
690.386	0.0168992
690.465	0.0167492
690.543	0.0168372
690.621	0.0168218
690.699	0.0168291
690.777	0.0168793
690.855	0.0168827
690.933	0.0167212
691.011	0.0168543
691.090	0.0168840
691.168	0.0169305
691.246	0.0167592
691.324	0.0168335
691.402	0.0168345
691.480	0.0167667
691.558	0.0168641
691.636	0.0168446
691.715	0.0167627
691.793	0.0169269
691.871	0.0167684
691.949	0.0166799
692.027	0.0167024
692.105	0.0166575
692.183	0.0166669
692.261	0.0168453
692.340	0.0166843
692.418	0.0169458
692.496	0.0169447
692.574	0.0168205
692.652	0.0167979
692.730	0.0167758
692.808	0.0168735
692.886	0.0168927
692.965	0.0167104
693.043	0.0167105
693.121	0.0167871
693.199	0.0168803
693.277	0.0168402
693.355	0.0167020
693.433	0.0167959
693.511	0.0167615
693.590	0.0168726
693.668	0.0168271
693.746	0.0167258
693.824	0.0169006
693.902	0.0168365
693.980	0.0167740
694.058	0.0168787
694.136	0.0169012
694.215	0.0168888
694.293	0.0169688
694.371	0.0169621
694.449	0.0169084
694.527	0.0168616
694.605	0.0168578
694.683	0.0168859
694.761	0.0167902
694.840	0.0167957
694.918	0.0168895
694.996	0.0167394
695.074	0.0167390
695.152	0.0169291
695.230	0.0167243
695.308	0.0167696
695.386	0.0167691
695.465	0.0169151
695.543	0.0167641
695.621	0.0168147
695.699	0.0166680
695.777	0.0167738
695.855	0.0167248
695.933	0.0167199
696.011	0.0168548
696.090	0.0168171
696.168	0.0168349
696.246	0.0167561
696.324	0.0168226
696.402	0.0167461
696.480	0.0166946
696.558	0.0169481
696.636	0.0167117
696.715	0.0167685
696.793	0.0168558
696.871	0.0168848
696.949	0.0168423
697.027	0.0169122
697.105	0.0169195
697.183	0.0168365
697.261	0.0168806
697.340	0.0168867
697.418	0.0168427
697.496	0.0167261
697.574	0.0167142
697.652	0.0169489
697.730	0.0169098
697.808	0.0167909
697.886	0.0167817
697.965	0.0168250
698.043	0.0168991
698.121	0.0168823
698.199	0.0169115
698.277	0.0167874
698.355	0.0167551
698.433	0.0169418
698.511	0.0168833
698.590	0.0166932
698.668	0.0169425
698.746	0.0168714
698.824	0.0168261
698.902	0.0167191
698.980	0.0166788
699.058	0.0168275
699.136	0.0166991
699.215	0.0167907
699.293	0.0168261
699.371	0.0168394
699.449	0.0166873
699.527	0.0168131
699.605	0.0168222
699.683	0.0169189
699.761	0.0167546
699.840	0.0166502
699.918	0.0169044
699.996	0.0168488
700.074	0.0168169
700.152	0.0168485
700.230	0.0169050
700.308	0.0167214
700.386	0.0167744
700.465	0.0169312
700.543	0.0168605
700.621	0.0170126
700.699	0.0169527
700.777	0.0168926
700.855	0.0168243
700.933	0.0168871
701.011	0.0169335
701.090	0.0169228
701.168	0.0169857
701.246	0.0169730
701.324	0.0169980
701.402	0.0169976
701.480	0.0169983
701.558	0.0169532
701.636	0.0168045
701.715	0.0169524
701.793	0.0168615
701.871	0.0167325
701.949	0.0168698
702.027	0.0167587
702.105	0.0168182
702.183	0.0168265
702.261	0.0166203
702.340	0.0167206
702.418	0.0167802
702.496	0.0167432
702.574	0.0166829
702.652	0.0167261
702.730	0.0167558
702.808	0.0168066
702.886	0.0166364
702.965	0.0167061
703.043	0.0167709
703.121	0.0166813
703.199	0.0167297
703.277	0.0167273
703.355	0.0167318
703.433	0.0167812
703.511	0.0167230
703.590	0.0168326
703.668	0.0167207
703.746	0.0168119
703.824	0.0168246
703.902	0.0169094
703.980	0.0167034
704.058	0.0169437
704.136	0.0168326
704.215	0.0167838
704.293	0.0167739
704.371	0.0168425
704.449	0.0169112
704.527	0.0167439
704.605	0.0167760
704.683	0.0169104
704.761	0.0167828
704.840	0.0168227
704.918	0.0168427
704.996	0.0168572
705.074	0.0167711
705.152	0.0168880
705.230	0.0166782
705.308	0.0167109
705.386	0.0168365
705.465	0.0168157
705.543	0.0167414
705.621	0.0167182
705.699	0.0168729
705.777	0.0168488
705.855	0.0166769
705.933	0.0167818
706.011	0.0168650
706.090	0.0165778
706.168	0.0166979
706.246	0.0167107
706.324	0.0169695
706.402	0.0169005
706.480	0.0168826
706.558	0.0167947
706.636	0.0169274
706.715	0.0168783
706.793	0.0168916
706.871	0.0169157
706.949	0.0169333
707.027	0.0170461
707.105	0.0169326
707.183	0.0169566
707.261	0.0169533
707.340	0.0167317
707.418	0.0167469
707.496	0.0168441
707.574	0.0169318
707.652	0.0169877
707.730	0.0169243
707.808	0.0168953
707.886	0.0168739
707.965	0.0169051
708.043	0.0168636
708.121	0.0169132
708.199	0.0168353
708.277	0.0167451
708.355	0.0169920
708.433	0.0168526
708.511	0.0167944
708.590	0.0166814
708.668	0.0166539
708.746	0.0167117
708.824	0.0165357
708.902	0.0165768
708.980	0.0164750
709.058	0.0166455
709.136	0.0165151
709.215	0.0164683
709.293	0.0164450
709.371	0.0165765
709.449	0.0166454
709.527	0.0164983
709.605	0.0163853
709.683	0.0166667
709.761	0.0166644
709.840	0.0166124
709.918	0.0167827
709.996	0.0166926
710.074	0.0166969
710.152	0.0167201
710.230	0.0167015
710.308	0.0168815
710.386	0.0168900
710.465	0.0169322
710.543	0.0169392
710.621	0.0169644
710.699	0.0169647
710.777	0.0169666
710.855	0.0170471
710.933	0.0171107
711.011	0.0169302
711.090	0.0170251
711.168	0.0172430
711.246	0.0169842
711.324	0.0169497
711.402	0.0170679
711.480	0.0169097
711.558	0.0170555
711.636	0.0170486
711.715	0.0171072
711.793	0.0169348
711.871	0.0170844
711.949	0.0169715
712.027	0.0171469
712.105	0.0170213
712.183	0.0170391
712.261	0.0168387
712.340	0.0169171
712.418	0.0169021
712.496	0.0169554
712.574	0.0169513
712.652	0.0169671
712.730	0.0168749
712.808	0.0168544
712.886	0.0169595
712.965	0.0168194
713.043	0.0168815
713.121	0.0167171
713.199	0.0166874
713.277	0.0167952
713.355	0.0167827
713.433	0.0167587
713.511	0.0167250
713.590	0.0165331
713.668	0.0165691
713.746	0.0165828
713.824	0.0165118
713.902	0.0166994
713.980	0.0166671
714.058	0.0166767
714.136	0.0164262
714.215	0.0165141
714.293	0.0166531
714.371	0.0165948
714.449	0.0166074
714.527	0.0165998
714.605	0.0167760
714.683	0.0166501
714.761	0.0167766
714.840	0.0167779
714.918	0.0168240
714.996	0.0169541
715.074	0.0169307
715.152	0.0167841
715.230	0.0169019
715.308	0.0170413
715.386	0.0170808
715.465	0.0168361
715.543	0.0169675
715.621	0.0171787
715.699	0.0169747
715.777	0.0170273
715.855	0.0169971
715.933	0.0170251
716.011	0.0169419
716.090	0.0169614
716.168	0.0169855
716.246	0.0169059
716.324	0.0169228
716.402	0.0171027
716.480	0.0170434
716.558	0.0168090
716.636	0.0169781
716.715	0.0169430
716.793	0.0168990
716.871	0.0170369
716.949	0.0168806
717.027	0.0167734
717.105	0.0169782
717.183	0.0168879
717.261	0.0168140
717.340	0.0169410
717.418	0.0168931
717.496	0.0169241
717.574	0.0169533
717.652	0.0168680
717.730	0.0168760
717.808	0.0169519
717.886	0.0168082
717.965	0.0166876
718.043	0.0169102
718.121	0.0166806
718.199	0.0167346
718.277	0.0167595
718.355	0.0166592
718.433	0.0165591
718.511	0.0167019
718.590	0.0165865
718.668	0.0165108
718.746	0.0164880
718.824	0.0165279
718.902	0.0165334
718.980	0.0165372
719.058	0.0167046
719.136	0.0167345
719.215	0.0167200
719.293	0.0167810
719.371	0.0167800
719.449	0.0168779
719.527	0.0168768
719.605	0.0171195
719.683	0.0170800
719.761	0.0171769
719.840	0.0171140
719.918	0.0171902
719.996	0.0170341
720.074	0.0170425
720.152	0.0169881
720.230	0.0169530
720.308	0.0169998
720.386	0.0169273
720.465	0.0169743
720.543	0.0167350
720.621	0.0169576
720.699	0.0168375
720.777	0.0168020
720.855	0.0168784
720.933	0.0168478
721.011	0.0166662
721.090	0.0166420
721.168	0.0167690
721.246	0.0167610
721.324	0.0168457
721.402	0.0168328
721.480	0.0169259
721.558	0.0168504
721.636	0.0169541
721.715	0.0169169
721.793	0.0168880
721.871	0.0170171
721.949	0.0170039
722.027	0.0169936
722.105	0.0169306
722.183	0.0169929
722.261	0.0169818
722.340	0.0169123
722.418	0.0170007
722.496	0.0169943
722.574	0.0169412
722.652	0.0169694
722.730	0.0168916
722.808	0.0168286
722.886	0.0167225
722.965	0.0168146
723.043	0.0168179
723.121	0.0169052
723.199	0.0167679
723.277	0.0167406
723.355	0.0167771
723.433	0.0167239
723.511	0.0166399
723.590	0.0166871
723.668	0.0166689
723.746	0.0166759
723.824	0.0166596
723.902	0.0165170
723.980	0.0165829
724.058	0.0166887
724.136	0.0166384
724.215	0.0165608
724.293	0.0166936
724.371	0.0167319
724.449	0.0165701
724.527	0.0165029
724.605	0.0165756
724.683	0.0165940
724.761	0.0168111
724.840	0.0167729
724.918	0.0168256
724.996	0.0168188
725.074	0.0170290
725.152	0.0167784
725.230	0.0167438
725.308	0.0168364
725.386	0.0169732
725.465	0.0169158
725.543	0.0170029
725.621	0.0169478
725.699	0.0168571
725.777	0.0171590
725.855	0.0169892
725.933	0.0169247
726.011	0.0170256
726.090	0.0170760
726.168	0.0169409
726.246	0.0170098
726.324	0.0168809
726.402	0.0168958
726.480	0.0168882
726.558	0.0169016
726.636	0.0168700
726.715	0.0167684
726.793	0.0166299
726.871	0.0167621
726.949	0.0166768
727.027	0.0166906
727.105	0.0166001
727.183	0.0165939
727.261	0.0166547
727.340	0.0166744
727.418	0.0165451
727.496	0.0164686
727.574	0.0165601
727.652	0.0165257
727.730	0.0165255
727.808	0.0165544
727.886	0.0164518
727.965	0.0165092
728.043	0.0165956
728.121	0.0166615
728.199	0.0167066
728.277	0.0167813
728.355	0.0166573
728.433	0.0168623
728.511	0.0169540
728.590	0.0170553
728.668	0.0171198
728.746	0.0170683
728.824	0.0170550
728.902	0.0172695
728.980	0.0172918
729.058	0.0173023
729.136	0.0173214
729.215	0.0175108
729.293	0.0175219
729.371	0.0173128
729.449	0.0173689
729.527	0.0175401
729.605	0.0172911
729.683	0.0171566
729.761	0.0171033
729.840	0.0171126
729.918	0.0169692
729.996	0.0167766
730.074	0.0167496
730.152	0.0166729
730.230	0.0165838
730.308	0.0165215
730.386	0.0163121
730.465	0.0162964
730.543	0.0162971
730.621	0.0162687
730.699	0.0162821
730.777	0.0162745
730.855	0.0161465
730.933	0.0162090
731.011	0.0161594
731.090	0.0161947
731.168	0.0162047
731.246	0.0163085
731.324	0.0163535
731.402	0.0163374
731.480	0.0164903
731.558	0.0166067
731.636	0.0165730
731.715	0.0165156
731.793	0.0165812
731.871	0.0167770
731.949	0.0166499
732.027	0.0166777
732.105	0.0168805
732.183	0.0169201
732.261	0.0169184
732.340	0.0170433
732.418	0.0171462
732.496	0.0171059
732.574	0.0171947
732.652	0.0171867
732.730	0.0171787
732.808	0.0172772
732.886	0.0172329
732.965	0.0172434
733.043	0.0172290
733.121	0.0170428
733.199	0.0171455
733.277	0.0170341
733.355	0.0168893
733.433	0.0169469
733.511	0.0167035
733.590	0.0168150
733.668	0.0165075
733.746	0.0167037
733.824	0.0166557
733.902	0.0164834
733.980	0.0165963
734.058	0.0165784
734.136	0.0165400
734.215	0.0163196
734.293	0.0165550
734.371	0.0166937
734.449	0.0165878
734.527	0.0166381
734.605	0.0167265
734.683	0.0167308
734.761	0.0168178
734.840	0.0169285
734.918	0.0168128
734.996	0.0169636
735.074	0.0171137
735.152	0.0171943
735.230	0.0171545
735.308	0.0170864
735.386	0.0170454
735.465	0.0170354
735.543	0.0171083
735.621	0.0170098
735.699	0.0169407
735.777	0.0169111
735.855	0.0168460
735.933	0.0169647
736.011	0.0168575
736.090	0.0167016
736.168	0.0167902
736.246	0.0166368
736.324	0.0167980
736.402	0.0167149
736.480	0.0166105
736.558	0.0165032
736.636	0.0166058
736.715	0.0167323
736.793	0.0165869
736.871	0.0166193
736.949	0.0167567
737.027	0.0166985
737.105	0.0169065
737.183	0.0168967
737.261	0.0170258
737.340	0.0169579
737.418	0.0170344
737.496	0.0169937
737.574	0.0169951
737.652	0.0169276
737.730	0.0170916
737.808	0.0169286
737.886	0.0170132
737.965	0.0171090
738.043	0.0169459
738.121	0.0168674
738.199	0.0168987
738.277	0.0168761
738.355	0.0168891
738.433	0.0167577
738.511	0.0167005
738.590	0.0165985
738.668	0.0166499
738.746	0.0167120
738.824	0.0165865
738.902	0.0165951
738.980	0.0167497
739.058	0.0167435
739.136	0.0166654
739.215	0.0166834
739.293	0.0166512
739.371	0.0167795
739.449	0.0166918
739.527	0.0168137
739.605	0.0167522
739.683	0.0167039
739.761	0.0167465
739.840	0.0166953
739.918	0.0167957
739.996	0.0167929
740.074	0.0167370
740.152	0.0168071
740.230	0.0167924
740.308	0.0166764
740.386	0.0167690
740.465	0.0168144
740.543	0.0166476
740.621	0.0166351
740.699	0.0166730
740.777	0.0166576
740.855	0.0167165
740.933	0.0166436
741.011	0.0168155
741.090	0.0168746
741.168	0.0167113
741.246	0.0168045
741.324	0.0168483
741.402	0.0167492
741.480	0.0169479
741.558	0.0169318
741.636	0.0169814
741.715	0.0168664
741.793	0.0168486
741.871	0.0168494
741.949	0.0169718
742.027	0.0168748
742.105	0.0168797
742.183	0.0168513
742.261	0.0171173
742.340	0.0169814
742.418	0.0169260
742.496	0.0169638
742.574	0.0169853
742.652	0.0169582
742.730	0.0168765
742.808	0.0168854
742.886	0.0168240
742.965	0.0169761
743.043	0.0168642
743.121	0.0169307
743.199	0.0167770
743.277	0.0166681
743.355	0.0169062
743.433	0.0167667
743.511	0.0166005
743.590	0.0166888
743.668	0.0167037
743.746	0.0166505
743.824	0.0166724
743.902	0.0167120
743.980	0.0167917
744.058	0.0166841
744.136	0.0166266
744.215	0.0166738
744.293	0.0168640
744.371	0.0167204
744.449	0.0167999
744.527	0.0167983
744.605	0.0170229
744.683	0.0170103
744.761	0.0168758
744.840	0.0169715
744.918	0.0169241
744.996	0.0170267
745.074	0.0170056
745.152	0.0170930
745.230	0.0169695
745.308	0.0168409
745.386	0.0169853
745.465	0.0170512
745.543	0.0168627
745.621	0.0168183
745.699	0.0169633
745.777	0.0167775
745.855	0.0167342
745.933	0.0166968
746.011	0.0167104
746.090	0.0166003
746.168	0.0166152
746.246	0.0166225
746.324	0.0164246
746.402	0.0166131
746.480	0.0166570
746.558	0.0165951
746.636	0.0165863
746.715	0.0165091
746.793	0.0166121
746.871	0.0165529
746.949	0.0167153
747.027	0.0166723
747.105	0.0167274
747.183	0.0167522
747.261	0.0168714
747.340	0.0168434
747.418	0.0168545
747.496	0.0170143
747.574	0.0168712
747.652	0.0169440
747.730	0.0169254
747.808	0.0168650
747.886	0.0170713
747.965	0.0169666
748.043	0.0167925
748.121	0.0170118
748.199	0.0168977
748.277	0.0168164
748.355	0.0169597
748.433	0.0170000
748.511	0.0169935
748.590	0.0169612
748.668	0.0168696
748.746	0.0169057
748.824	0.0169052
748.902	0.0168432
748.980	0.0168563
749.058	0.0169260
749.136	0.0168800
749.215	0.0167700
749.293	0.0167657
749.371	0.0168739
749.449	0.0168018
749.527	0.0167141
749.605	0.0167506
749.683	0.0168311
749.761	0.0167769
749.840	0.0166129
749.918	0.0166663
749.996	0.0167066
750.074	0.0166331
750.152	0.0166823
750.230	0.0167110
750.308	0.0167381
750.386	0.0167771
750.465	0.0167307
750.543	0.0167858
750.621	0.0169334
750.699	0.0166977
750.777	0.0168118
750.855	0.0168859
750.933	0.0168352
751.011	0.0169241
751.090	0.0169080
751.168	0.0170568
751.246	0.0169672
751.324	0.0169732
751.402	0.0169679
751.480	0.0170082
751.558	0.0169530
751.636	0.0168967
751.715	0.0168961
751.793	0.0169257
751.871	0.0167856
751.949	0.0168513
752.027	0.0169258
752.105	0.0167788
752.183	0.0166926
752.261	0.0167263
752.340	0.0167993
752.418	0.0167350
752.496	0.0167741
752.574	0.0166171
752.652	0.0166545
752.730	0.0168214
752.808	0.0167897
752.886	0.0167422
752.965	0.0168459
753.043	0.0167981
753.121	0.0168980
753.199	0.0168777
753.277	0.0169500
753.355	0.0170231
753.433	0.0170127
753.511	0.0168938
753.590	0.0169807
753.668	0.0168595
753.746	0.0169721
753.824	0.0170726
753.902	0.0168728
753.980	0.0170007
754.058	0.0170280
754.136	0.0169723
754.215	0.0169544
754.293	0.0168095
754.371	0.0167300
754.449	0.0166308
754.527	0.0165821
754.605	0.0166795
754.683	0.0167035
754.761	0.0167274
754.840	0.0164610
754.918	0.0165109
754.996	0.0165892
755.074	0.0165947
755.152	0.0165319
755.230	0.0165227
755.308	0.0165475
755.386	0.0163972
755.465	0.0163548
755.543	0.0165225
755.621	0.0165594
755.699	0.0166776
755.777	0.0166382
755.855	0.0166625
755.933	0.0166534
756.011	0.0167825
756.090	0.0168538
756.168	0.0169550
756.246	0.0169794
756.324	0.0172010
756.402	0.0170943
756.480	0.0171526
756.558	0.0171465
756.636	0.0171923
756.715	0.0171486
756.793	0.0171244
756.871	0.0172289
756.949	0.0172180
757.027	0.0170704
757.105	0.0169194
757.183	0.0170333
757.261	0.0168358
757.340	0.0167850
757.418	0.0167696
757.496	0.0166503
757.574	0.0164362
757.652	0.0167429
757.730	0.0164796
757.808	0.0165237
757.886	0.0164482
757.965	0.0164188
758.043	0.0163876
758.121	0.0166091
758.199	0.0166398
758.277	0.0166096
758.355	0.0166527
758.433	0.0165929
758.511	0.0166391
758.590	0.0166257
758.668	0.0166728
758.746	0.0167954
758.824	0.0169793
758.902	0.0169953
758.980	0.0168755
759.058	0.0169603
759.136	0.0169145
759.215	0.0170089
759.293	0.0169386
759.371	0.0169447
759.449	0.0169288
759.527	0.0168283
759.605	0.0168874
759.683	0.0169659
759.761	0.0169261
759.840	0.0169770
759.918	0.0169931
759.996	0.0168191
760.074	0.0169759
760.152	0.0169669
760.230	0.0168315
760.308	0.0168315
760.386	0.0168381
760.465	0.0170121
760.543	0.0168606
760.621	0.0168025
760.699	0.0168485
760.777	0.0169051
760.855	0.0168703
760.933	0.0169202
761.011	0.0168449
761.090	0.0168977
761.168	0.0169789
761.246	0.0169575
761.324	0.0168707
761.402	0.0170121
761.480	0.0170729
761.558	0.0170357
761.636	0.0169521
761.715	0.0170892
761.793	0.0169383
761.871	0.0168785
761.949	0.0168413
762.027	0.0168149
762.105	0.0168891
762.183	0.0168747
762.261	0.0168549
762.340	0.0167665
762.418	0.0166381
762.496	0.0164789
762.574	0.0165574
762.652	0.0166072
762.730	0.0165945
762.808	0.0164071
762.886	0.0164394
762.965	0.0163840
763.043	0.0163636
763.121	0.0165216
763.199	0.0164243
763.277	0.0165488
763.355	0.0164887
763.433	0.0165392
763.511	0.0166107
763.590	0.0166355
763.668	0.0168103
763.746	0.0168530
763.824	0.0169043
763.902	0.0169653
763.980	0.0170407
764.058	0.0171040
764.136	0.0172638
764.215	0.0172723
764.293	0.0172249
764.371	0.0171846
764.449	0.0170698
764.527	0.0171359
764.605	0.0170909
764.683	0.0169923
764.761	0.0170212
764.840	0.0169316
764.918	0.0170539
764.996	0.0169079
765.074	0.0167126
765.152	0.0166660
765.230	0.0167235
765.308	0.0166653
765.386	0.0165974
765.465	0.0165458
765.543	0.0165052
765.621	0.0165646
765.699	0.0165166
765.777	0.0164952
765.855	0.0165319
765.933	0.0166011
766.011	0.0165753
766.090	0.0167101
766.168	0.0165265
766.246	0.0167319
766.324	0.0166866
766.402	0.0168736
766.480	0.0166644
766.558	0.0168348
766.636	0.0168729
766.715	0.0167574
766.793	0.0168689
766.871	0.0168884
766.949	0.0169186
767.027	0.0168208
767.105	0.0167762
767.183	0.0166609
767.261	0.0167570
767.340	0.0167336
767.418	0.0167552
767.496	0.0167374
767.574	0.0167713
767.652	0.0167655
767.730	0.0168443
767.808	0.0168932
767.886	0.0170371
767.965	0.0168352
768.043	0.0168370
768.121	0.0169274
768.199	0.0170005
768.277	0.0169757
768.355	0.0168182
768.433	0.0169617
768.511	0.0169745
768.590	0.0170129
768.668	0.0170582
768.746	0.0169692
768.824	0.0169937
768.902	0.0170516
768.980	0.0170734
769.058	0.0169306
769.136	0.0168947
769.215	0.0169869
769.293	0.0169525
769.371	0.0169032
769.449	0.0169725
769.527	0.0169834
769.605	0.0168829
769.683	0.0169017
769.761	0.0169168
769.840	0.0168595
769.918	0.0168893
769.996	0.0168594
770.074	0.0168015
770.152	0.0166881
770.230	0.0167107
770.308	0.0166919
770.386	0.0166379
770.465	0.0166428
770.543	0.0166602
770.621	0.0166335
770.699	0.0166714
770.777	0.0166768
770.855	0.0164714
770.933	0.0165482
771.011	0.0165629
771.090	0.0165722
771.168	0.0165269
771.246	0.0165485
771.324	0.0166594
771.402	0.0166618
771.480	0.0167402
771.558	0.0166267
771.636	0.0167817
771.715	0.0167433
771.793	0.0169173
771.871	0.0168524
771.949	0.0168390
772.027	0.0169806
772.105	0.0169469
772.183	0.0170822
772.261	0.0171365
772.340	0.0170313
772.418	0.0170959
772.496	0.0169625
772.574	0.0169608
772.652	0.0170258
772.730	0.0169170
772.808	0.0168234
772.886	0.0169532
772.965	0.0168311
773.043	0.0166485
773.121	0.0167322
773.199	0.0167592
773.277	0.0166716
773.355	0.0166061
773.433	0.0166598
773.511	0.0166096
773.590	0.0165938
773.668	0.0165848
773.746	0.0168015
773.824	0.0166998
773.902	0.0166390
773.980	0.0167265
774.058	0.0167841
774.136	0.0168550
774.215	0.0168355
774.293	0.0167428
774.371	0.0166760
774.449	0.0167566
774.527	0.0166004
774.605	0.0167756
774.683	0.0166700
774.761	0.0167243
774.840	0.0167699
774.918	0.0166845
774.996	0.0167590
775.074	0.0166850
775.152	0.0166326
775.230	0.0167384
775.308	0.0166468
775.386	0.0166216
775.465	0.0167268
775.543	0.0166808
775.621	0.0166537
775.699	0.0167492
775.777	0.0168166
775.855	0.0167046
775.933	0.0166274
776.011	0.0167629
776.090	0.0169099
776.168	0.0169878
776.246	0.0168626
776.324	0.0167612
776.402	0.0169275
776.480	0.0168783
776.558	0.0168817
776.636	0.0169701
776.715	0.0169389
776.793	0.0168842
776.871	0.0170467
776.949	0.0168885
777.027	0.0169521
777.105	0.0169992
777.183	0.0169080
777.261	0.0169951
777.340	0.0169379
777.418	0.0169050
777.496	0.0170665
777.574	0.0170549
777.652	0.0169526
777.730	0.0169359
777.808	0.0168643
777.886	0.0168583
777.965	0.0171967
778.043	0.0168857
778.121	0.0167901
778.199	0.0168699
778.277	0.0168203
778.355	0.0166941
778.433	0.0168191
778.511	0.0168078
778.590	0.0168733
778.668	0.0167303
778.746	0.0165356
778.824	0.0166814
778.902	0.0165620
778.980	0.0164738
779.058	0.0165578
779.136	0.0164884
779.215	0.0164868
779.293	0.0164964
779.371	0.0164083
779.449	0.0164905
779.527	0.0165614
779.605	0.0164206
779.683	0.0166436
779.761	0.0166549
779.840	0.0165755
779.918	0.0165990
779.996	0.0166780
780.074	0.0167251
780.152	0.0167973
780.230	0.0169338
780.308	0.0168270
780.386	0.0168706
780.465	0.0170200
780.543	0.0169576
780.621	0.0170578
780.699	0.0171263
780.777	0.0169624
780.855	0.0172005
780.933	0.0170550
781.011	0.0170450
781.090	0.0170887
781.168	0.0169566
781.246	0.0169740
781.324	0.0169062
781.402	0.0169293
781.480	0.0167282
781.558	0.0168547
781.636	0.0167738
781.715	0.0167098
781.793	0.0166534
781.871	0.0166273
781.949	0.0165994
782.027	0.0165786
782.105	0.0164998
782.183	0.0165999
782.261	0.0164947
782.340	0.0165890
782.418	0.0168442
782.496	0.0166920
782.574	0.0166598
782.652	0.0168995
782.730	0.0168797
782.808	0.0167583
782.886	0.0168951
782.965	0.0168825
783.043	0.0169142
783.121	0.0170101
783.199	0.0168606
783.277	0.0169315
783.355	0.0169880
783.433	0.0169296
783.511	0.0169347
783.590	0.0167683
783.668	0.0168034
783.746	0.0168841
783.824	0.0168086
783.902	0.0166306
783.980	0.0167609
784.058	0.0167035
784.136	0.0167892
784.215	0.0166523
784.293	0.0167078
784.371	0.0166199
784.449	0.0167866
784.527	0.0168277
784.605	0.0167580
784.683	0.0168245
784.761	0.0168800
784.840	0.0168622
784.918	0.0168484
784.996	0.0170737
785.074	0.0169519
785.152	0.0168417
785.230	0.0170627
785.308	0.0172424
785.386	0.0170792
785.465	0.0168762
785.543	0.0169630
785.621	0.0171505
785.699	0.0170824
785.777	0.0170221
785.855	0.0171324
785.933	0.0170762
786.011	0.0171188
786.090	0.0168179
786.168	0.0168872
786.246	0.0168546
786.324	0.0167942
786.402	0.0166985
786.480	0.0167922
786.558	0.0166132
786.636	0.0166848
786.715	0.0168006
786.793	0.0167086
786.871	0.0165913
786.949	0.0164962
787.027	0.0165723
787.105	0.0166078
787.183	0.0163421
787.261	0.0165267
787.340	0.0165276
787.418	0.0164788
787.496	0.0165503
787.574	0.0164963
787.652	0.0166275
787.730	0.0165855
787.808	0.0166132
787.886	0.0167817
787.965	0.0167522
788.043	0.0166627
788.121	0.0168176
788.199	0.0169904
788.277	0.0169624
788.355	0.0169742
788.433	0.0170898
788.511	0.0171204
788.590	0.0171098
788.668	0.0168261
788.746	0.0170318
788.824	0.0172489
788.902	0.0170183
788.980	0.0170152
789.058	0.0170071
789.136	0.0169226
789.215	0.0168846
789.293	0.0168177
789.371	0.0168609
789.449	0.0169428
789.527	0.0168063
789.605	0.0166818
789.683	0.0165952
789.761	0.0167867
789.840	0.0166196
789.918	0.0166396
789.996	0.0166746
790.074	0.0164920
790.152	0.0167146
790.230	0.0165248
790.308	0.0165464
790.386	0.0168134
790.465	0.0168296
790.543	0.0168056
790.621	0.0168743
790.699	0.0167392
790.777	0.0167808
790.855	0.0167662
790.933	0.0168676
791.011	0.0169190
791.090	0.0167587
791.168	0.0168490
791.246	0.0168520
791.324	0.0169704
791.402	0.0170515
791.480	0.0167778
791.558	0.0167855
791.636	0.0169546
791.715	0.0168275
791.793	0.0168776
791.871	0.0169336
791.949	0.0167728
792.027	0.0168208
792.105	0.0168121
792.183	0.0167420
792.261	0.0167309
792.340	0.0166138
792.418	0.0165785
792.496	0.0168147
792.574	0.0166589
792.652	0.0166460
792.730	0.0165743
792.808	0.0166730
792.886	0.0168406
792.965	0.0168181
793.043	0.0167422
793.121	0.0168549
793.199	0.0169104
793.277	0.0168154
793.355	0.0168631
793.433	0.0169149
793.511	0.0169850
793.590	0.0169600
793.668	0.0170073
793.746	0.0169276
793.824	0.0169810
793.902	0.0171307
793.980	0.0171728
794.058	0.0171030
794.136	0.0169302
794.215	0.0168678
794.293	0.0170305
794.371	0.0168150
794.449	0.0166982
794.527	0.0168271
794.605	0.0167464
794.683	0.0167061
794.761	0.0167567
794.840	0.0165633
794.918	0.0166188
794.996	0.0166218
795.074	0.0164119
795.152	0.0164764
795.230	0.0163374
795.308	0.0165579
795.386	0.0165272
795.465	0.0163855
795.543	0.0163937
795.621	0.0164592
795.699	0.0166221
795.777	0.0165948
795.855	0.0167180
795.933	0.0167761
796.011	0.0167296
796.090	0.0169186
796.168	0.0170262
796.246	0.0170901
796.324	0.0170385
796.402	0.0170921
796.480	0.0171739
796.558	0.0172276
796.636	0.0172588
796.715	0.0172247
796.793	0.0171918
796.871	0.0171270
796.949	0.0172159
797.027	0.0171236
797.105	0.0169148
797.183	0.0170113
797.261	0.0170221
797.340	0.0167838
797.418	0.0165776
797.496	0.0167282
797.574	0.0165936
797.652	0.0164760
797.730	0.0164988
797.808	0.0164918
797.886	0.0165639
797.965	0.0166634
798.043	0.0165673
798.121	0.0166374
798.199	0.0168543
798.277	0.0167612
798.355	0.0168960
798.433	0.0169009
798.511	0.0169524
798.590	0.0169806
798.668	0.0170924
798.746	0.0171390
798.824	0.0170341
798.902	0.0171354
798.980	0.0171428
799.058	0.0170260
799.136	0.0172076
799.215	0.0171311
799.293	0.0169160
799.371	0.0169249
799.449	0.0170195
799.527	0.0169428
799.605	0.0168924
799.683	0.0167572
799.761	0.0166193
799.840	0.0165749
799.918	0.0166348
799.996	0.0166758
800.074	0.0164970
800.152	0.0164870
800.230	0.0165231
800.308	0.0164907
800.386	0.0165123
800.465	0.0166530
800.543	0.0165308
800.621	0.0167157
800.699	0.0166546
800.777	0.0166190
800.855	0.0166511
800.933	0.0168114
801.011	0.0167280
801.090	0.0167493
801.168	0.0168190
801.246	0.0167850
801.324	0.0168083
801.402	0.0170936
801.480	0.0169658
801.558	0.0170705
801.636	0.0170169
801.715	0.0170232
801.793	0.0171814
801.871	0.0171491
801.949	0.0168758
802.027	0.0169976
802.105	0.0170135
802.183	0.0168584
802.261	0.0169810
802.340	0.0168644
802.418	0.0169272
802.496	0.0168887
802.574	0.0166981
802.652	0.0167725
802.730	0.0166851
802.808	0.0165240
802.886	0.0165976
802.965	0.0164841
803.043	0.0165139
803.121	0.0164681
803.199	0.0164844
803.277	0.0164042
803.355	0.0165034
803.433	0.0163763
803.511	0.0163593
803.590	0.0163447
803.668	0.0165845
803.746	0.0166267
803.824	0.0166212
803.902	0.0165897
803.980	0.0167745
804.058	0.0167711
804.136	0.0168732
804.215	0.0171032
804.293	0.0171586
804.371	0.0171075
804.449	0.0171431
804.527	0.0171344
804.605	0.0172581
804.683	0.0172346
804.761	0.0172788
804.840	0.0173037
804.918	0.0171486
804.996	0.0169888
805.074	0.0170469
805.152	0.0171053
805.230	0.0169308
805.308	0.0170300
805.386	0.0168539
805.465	0.0166611
805.543	0.0166631
805.621	0.0166077
805.699	0.0164615
805.777	0.0164807
805.855	0.0165049
805.933	0.0164555
806.011	0.0163744
806.090	0.0163475
806.168	0.0163493
806.246	0.0163621
806.324	0.0165037
806.402	0.0166153
806.480	0.0166357
806.558	0.0165471
806.636	0.0166173
806.715	0.0167676
806.793	0.0167588
806.871	0.0169324
806.949	0.0167819
807.027	0.0171271
807.105	0.0171110
807.183	0.0171571
807.261	0.0170564
807.340	0.0171200
807.418	0.0172251
807.496	0.0171492
807.574	0.0171014
807.652	0.0169836
807.730	0.0171625
807.808	0.0171797
807.886	0.0170744
807.965	0.0169614
808.043	0.0168838
808.121	0.0168975
808.199	0.0167478
808.277	0.0167675
808.355	0.0168839
808.433	0.0167733
808.511	0.0167233
808.590	0.0168163
808.668	0.0166064
808.746	0.0168296
808.824	0.0167147
808.902	0.0167450
808.980	0.0167101
809.058	0.0166880
809.136	0.0167439
809.215	0.0168396
809.293	0.0167577
809.371	0.0168361
809.449	0.0169594
809.527	0.0169927
809.605	0.0167413
809.683	0.0169167
809.761	0.0170091
809.840	0.0169823
809.918	0.0168958
809.996	0.0169271
810.074	0.0169235
810.152	0.0170013
810.230	0.0168099
810.308	0.0167981
810.386	0.0167323
810.465	0.0167804
810.543	0.0166393
810.621	0.0166309
810.699	0.0166975
810.777	0.0166413
810.855	0.0165769
810.933	0.0163966
811.011	0.0165662
811.090	0.0166678
811.168	0.0163992
811.246	0.0165347
811.324	0.0166203
811.402	0.0165755
811.480	0.0165580
811.558	0.0166068
811.636	0.0166167
811.715	0.0167868
811.793	0.0167908
811.871	0.0169807
811.949	0.0170205
812.027	0.0169529
812.105	0.0170319
812.183	0.0170438
812.261	0.0171473
812.340	0.0171949
812.418	0.0171749
812.496	0.0170879
812.574	0.0170434
812.652	0.0171602
812.730	0.0170710
812.808	0.0170573
812.886	0.0170881
812.965	0.0168801
813.043	0.0170033
813.121	0.0169154
813.199	0.0169973
813.277	0.0168562
813.355	0.0167599
813.433	0.0167719
813.511	0.0166647
813.590	0.0166598
813.668	0.0167602
813.746	0.0166207
813.824	0.0165186
813.902	0.0164687
813.980	0.0164926
814.058	0.0166348
814.136	0.0166243
814.215	0.0163978
814.293	0.0165338
814.371	0.0165759
814.449	0.0165276
814.527	0.0165084
814.605	0.0166984
814.683	0.0167817
814.761	0.0166268
814.840	0.0168398
814.918	0.0168881
814.996	0.0169645
815.074	0.0168413
815.152	0.0170074
815.230	0.0170681
815.308	0.0170341
815.386	0.0170132
815.465	0.0171108
815.543	0.0171179
815.621	0.0169247
815.699	0.0171218
815.777	0.0170812
815.855	0.0171014
815.933	0.0170679
816.011	0.0169549
816.090	0.0169375
816.168	0.0170394
816.246	0.0170542
816.324	0.0168124
816.402	0.0168399
816.480	0.0167525
816.558	0.0168304
816.636	0.0168620
816.715	0.0167073
816.793	0.0168226
816.871	0.0167545
816.949	0.0165849
817.027	0.0166196
817.105	0.0165462
817.183	0.0164964
817.261	0.0167404
817.340	0.0168110
817.418	0.0166505
817.496	0.0166325
817.574	0.0167619
817.652	0.0168295
817.730	0.0169270
817.808	0.0168224
817.886	0.0167509
817.965	0.0168604
818.043	0.0169485
818.121	0.0168040
818.199	0.0167871
818.277	0.0169260
818.355	0.0167673
818.433	0.0168684
818.511	0.0168298
818.590	0.0166528
818.668	0.0166640
818.746	0.0167516
818.824	0.0167502
818.902	0.0167118
818.980	0.0167995
819.058	0.0167290
819.136	0.0166657
819.215	0.0166124
819.293	0.0167698
819.371	0.0166741
819.449	0.0166946
819.527	0.0167590
819.605	0.0169269
819.683	0.0166789
819.761	0.0170027
819.840	0.0168607
819.918	0.0169090
819.996	0.0168108
820.074	0.0169653
820.152	0.0169342
820.230	0.0169700
820.308	0.0168865
820.386	0.0169596
820.465	0.0168739
820.543	0.0169294
820.621	0.0168237
820.699	0.0168835
820.777	0.0168880
820.855	0.0168148
820.933	0.0168021
821.011	0.0167964
821.090	0.0168994
821.168	0.0169393
821.246	0.0168679
821.324	0.0166894
821.402	0.0168079
821.480	0.0167698
821.558	0.0167239
821.636	0.0167518
821.715	0.0167090
821.793	0.0167748
821.871	0.0167774
821.949	0.0167898
822.027	0.0167573
822.105	0.0167055
822.183	0.0167356
822.261	0.0166383
822.340	0.0167813
822.418	0.0167132
822.496	0.0166911
822.574	0.0166938
822.652	0.0166177
822.730	0.0168370
822.808	0.0167760
822.886	0.0167789
822.965	0.0168765
823.043	0.0168468
823.121	0.0168322
823.199	0.0169373
823.277	0.0168455
823.355	0.0169308
823.433	0.0168156
823.511	0.0169369
823.590	0.0168455
823.668	0.0168458
823.746	0.0168544
823.824	0.0170149
823.902	0.0170994
823.980	0.0168781
824.058	0.0169589
824.136	0.0170564
824.215	0.0170100
824.293	0.0170503
824.371	0.0169534
824.449	0.0169109
824.527	0.0169963
824.605	0.0169437
824.683	0.0170239
824.761	0.0169276
824.840	0.0170460
824.918	0.0170210
824.996	0.0168742
825.074	0.0169192
825.152	0.0168653
825.230	0.0168956
825.308	0.0169352
825.386	0.0167317
825.465	0.0166541
825.543	0.0165568
825.621	0.0167368
825.699	0.0168080
825.777	0.0167387
825.855	0.0166602
825.933	0.0167850
826.011	0.0167593
826.090	0.0169188
826.168	0.0168816
826.246	0.0168518
826.324	0.0169283
826.402	0.0167664
826.480	0.0168726
826.558	0.0169859
826.636	0.0168330
826.715	0.0168222
826.793	0.0169292
826.871	0.0166940
826.949	0.0167706
827.027	0.0168021
827.105	0.0166808
827.183	0.0166625
827.261	0.0167117
827.340	0.0167361
827.418	0.0166712
827.496	0.0166547
827.574	0.0166776
827.652	0.0166817
827.730	0.0166599
827.808	0.0166957
827.886	0.0167422
827.965	0.0167150
828.043	0.0168119
828.121	0.0168674
828.199	0.0168183
828.277	0.0168707
828.355	0.0169076
828.433	0.0168145
828.511	0.0168896
828.590	0.0168317
828.668	0.0168822
828.746	0.0169704
828.824	0.0168118
828.902	0.0168637
828.980	0.0167521
829.058	0.0168221
829.136	0.0167152
829.215	0.0167615
829.293	0.0166962
829.371	0.0166532
829.449	0.0166700
829.527	0.0167709
829.605	0.0166891
829.683	0.0165984
829.761	0.0166698
829.840	0.0168623
829.918	0.0168071
829.996	0.0167771
830.074	0.0167844
830.152	0.0168216
830.230	0.0168817
830.308	0.0168259
830.386	0.0167184
830.465	0.0168159
830.543	0.0168380
830.621	0.0168770
830.699	0.0167349
830.777	0.0167757
830.855	0.0167606
830.933	0.0166901
831.011	0.0167474
831.090	0.0166410
831.168	0.0165428
831.246	0.0166851
831.324	0.0167976
831.402	0.0167318
831.480	0.0165894
831.558	0.0168748
831.636	0.0167222
831.715	0.0168963
831.793	0.0169388
831.871	0.0169136
831.949	0.0168102
832.027	0.0169758
832.105	0.0170634
832.183	0.0169859
832.261	0.0170274
832.340	0.0170283
832.418	0.0169411
832.496	0.0170518
832.574	0.0170484
832.652	0.0170433
832.730	0.0170424
832.808	0.0170062
832.886	0.0169389
832.965	0.0168594
833.043	0.0169145
833.121	0.0169732
833.199	0.0168314
833.277	0.0168460
833.355	0.0167104
833.433	0.0167036
833.511	0.0168185
833.590	0.0166759
833.668	0.0168373
833.746	0.0167092
833.824	0.0167329
833.902	0.0168074
833.980	0.0167442
834.058	0.0167001
834.136	0.0168105
834.215	0.0167814
834.293	0.0167690
834.371	0.0166546
834.449	0.0168341
834.527	0.0167884
834.605	0.0167590
834.683	0.0167575
834.761	0.0167113
834.840	0.0167371
834.918	0.0167737
834.996	0.0167650
835.074	0.0166992
835.152	0.0167019
835.230	0.0167789
835.308	0.0168530
835.386	0.0167627
835.465	0.0169423
835.543	0.0168481
835.621	0.0168904
835.699	0.0169075
835.777	0.0169154
835.855	0.0168549
835.933	0.0169212
836.011	0.0168351
836.090	0.0168343
836.168	0.0168626
836.246	0.0169643
836.324	0.0169802
836.402	0.0168810
836.480	0.0168584
836.558	0.0168327
836.636	0.0167242
836.715	0.0167924
836.793	0.0168478
836.871	0.0168375
836.949	0.0166914
837.027	0.0166992
837.105	0.0166856
837.183	0.0166833
837.261	0.0167548
837.340	0.0167635
837.418	0.0167687
837.496	0.0166489
837.574	0.0168481
837.652	0.0166646
837.730	0.0167566
837.808	0.0168652
837.886	0.0168188
837.965	0.0168347
838.043	0.0166911
838.121	0.0167890
838.199	0.0168511
838.277	0.0167909
838.355	0.0169735
838.433	0.0168522
838.511	0.0169141
838.590	0.0168701
838.668	0.0167366
838.746	0.0168655
838.824	0.0168659
838.902	0.0167915
838.980	0.0169793
839.058	0.0169528
839.136	0.0168338
839.215	0.0168709
839.293	0.0168968
839.371	0.0170427
839.449	0.0168725
839.527	0.0169998
839.605	0.0169151
839.683	0.0170943
839.761	0.0170307
839.840	0.0169249
839.918	0.0168716
839.996	0.0169535
840.074	0.0169247
840.152	0.0168954
840.230	0.0168674
840.308	0.0169147
840.386	0.0168020
840.465	0.0169872
840.543	0.0169186
840.621	0.0169639
840.699	0.0168702
840.777	0.0168282
840.855	0.0167746
840.933	0.0169141
841.011	0.0168871
841.090	0.0169038
841.168	0.0167189
841.246	0.0169415
841.324	0.0168989
841.402	0.0168438
841.480	0.0167760
841.558	0.0168311
841.636	0.0166744
841.715	0.0167204
841.793	0.0166814
841.871	0.0167554
841.949	0.0166325
842.027	0.0166264
842.105	0.0167326
842.183	0.0168813
842.261	0.0167370
842.340	0.0167467
842.418	0.0168272
842.496	0.0167123
842.574	0.0167972
842.652	0.0168618
842.730	0.0167957
842.808	0.0168264
842.886	0.0167055
842.965	0.0167393
843.043	0.0168172
843.121	0.0169308
843.199	0.0168433
843.277	0.0169025
843.355	0.0169320
843.433	0.0168443
843.511	0.0168179
843.590	0.0168894
843.668	0.0168405
843.746	0.0168145
843.824	0.0168420
843.902	0.0169220
843.980	0.0168743
844.058	0.0168465
844.136	0.0167276
844.215	0.0168011
844.293	0.0167116
844.371	0.0166616
844.449	0.0168510
844.527	0.0167190
844.605	0.0167815
844.683	0.0167838
844.761	0.0168710
844.840	0.0168217
844.918	0.0168078
844.996	0.0169392
845.074	0.0168899
845.152	0.0167420
845.230	0.0169093
845.308	0.0170129
845.386	0.0168756
845.465	0.0168964
845.543	0.0168875
845.621	0.0168889
845.699	0.0168160
845.777	0.0168106
845.855	0.0169164
845.933	0.0167982
846.011	0.0167290
846.090	0.0167651
846.168	0.0165698
846.246	0.0166008
846.324	0.0166842
846.402	0.0167419
846.480	0.0166888
846.558	0.0167039
846.636	0.0166213
846.715	0.0167242
846.793	0.0167551
846.871	0.0168199
846.949	0.0169240
847.027	0.0168633
847.105	0.0169387
847.183	0.0168568
847.261	0.0168524
847.340	0.0169209
847.418	0.0169595
847.496	0.0169183
847.574	0.0170006
847.652	0.0169340
847.730	0.0169376
847.808	0.0170892
847.886	0.0170169
847.965	0.0169494
848.043	0.0168859
848.121	0.0168253
848.199	0.0168966
848.277	0.0169030
848.355	0.0167831
848.433	0.0168169
848.511	0.0167506
848.590	0.0168045
848.668	0.0168509
848.746	0.0166750
848.824	0.0169225
848.902	0.0169850
848.980	0.0167621
849.058	0.0169511
849.136	0.0169780
849.215	0.0168446
849.293	0.0167865
849.371	0.0169608
849.449	0.0168996
849.527	0.0167625
849.605	0.0168384
849.683	0.0168069
849.761	0.0168410
849.840	0.0168909
849.918	0.0166267
849.996	0.0169353
850.074	0.0169518
850.152	0.0167189
850.230	0.0168262
850.308	0.0166895
850.386	0.0167863
850.465	0.0167722
850.543	0.0167532
850.621	0.0167638
850.699	0.0168560
850.777	0.0168267
850.855	0.0168046
850.933	0.0167943
851.011	0.0168627
851.090	0.0168449
851.168	0.0167306
851.246	0.0167479
851.324	0.0167387
851.402	0.0168185
851.480	0.0167240
851.558	0.0167854
851.636	0.0168281
851.715	0.0167745
851.793	0.0165913
851.871	0.0167503
851.949	0.0168262
852.027	0.0168343
852.105	0.0167645
852.183	0.0167435
852.261	0.0167747
852.340	0.0168211
852.418	0.0166859
852.496	0.0167594
852.574	0.0168744
852.652	0.0167612
852.730	0.0168275
852.808	0.0167873
852.886	0.0167740
852.965	0.0168552
853.043	0.0170223
853.121	0.0168804
853.199	0.0167438
853.277	0.0168139
853.355	0.0167354
853.433	0.0168378
853.511	0.0168437
853.590	0.0169654
853.668	0.0168193
853.746	0.0168413
853.824	0.0168538
853.902	0.0168905
853.980	0.0168689
854.058	0.0166943
854.136	0.0166937
854.215	0.0167264
854.293	0.0167731
854.371	0.0166133
854.449	0.0166674
854.527	0.0167597
854.605	0.0167716
854.683	0.0167293
854.761	0.0166168
854.840	0.0166987
854.918	0.0167333
854.996	0.0166560
855.074	0.0168176
855.152	0.0167837
855.230	0.0167619
855.308	0.0167997
855.386	0.0168564
855.465	0.0167802
855.543	0.0167853
855.621	0.0168808
855.699	0.0169323
855.777	0.0167646
855.855	0.0167838
855.933	0.0168491
856.011	0.0167696
856.090	0.0168330
856.168	0.0168668
856.246	0.0167643
856.324	0.0166991
856.402	0.0167307
856.480	0.0167086
856.558	0.0168641
856.636	0.0168985
856.715	0.0168378
856.793	0.0167088
856.871	0.0168404
856.949	0.0167157
857.027	0.0168253
857.105	0.0167126
857.183	0.0167966
857.261	0.0167337
857.340	0.0168536
857.418	0.0166768
857.496	0.0168646
857.574	0.0168890
857.652	0.0167667
857.730	0.0170010
857.808	0.0170513
857.886	0.0168581
857.965	0.0168307
858.043	0.0170939
858.121	0.0168873
858.199	0.0168807
858.277	0.0169231
858.355	0.0168481
858.433	0.0169949
858.511	0.0168632
858.590	0.0168158
858.668	0.0169459
858.746	0.0168317
858.824	0.0168877
858.902	0.0167773
858.980	0.0167327
859.058	0.0167345
859.136	0.0168116
859.215	0.0168552
859.293	0.0166995
859.371	0.0166656
859.449	0.0167545
859.527	0.0167057
859.605	0.0167370
859.683	0.0167396
859.761	0.0166906
859.840	0.0168364
859.918	0.0169044
859.996	0.0168118
860.074	0.0169205
860.152	0.0169205
860.230	0.0168587
860.308	0.0169167
860.386	0.0170642
860.465	0.0169987
860.543	0.0169242
860.621	0.0170767
860.699	0.0169446
860.777	0.0168629
860.855	0.0168358
860.933	0.0169787
861.011	0.0168207
861.090	0.0168273
861.168	0.0167297
861.246	0.0167742
861.324	0.0165995
861.402	0.0166901
861.480	0.0166870
861.558	0.0168020
861.636	0.0167919
861.715	0.0168202
861.793	0.0166331
861.871	0.0167956
861.949	0.0167407
862.027	0.0166698
862.105	0.0166005
862.183	0.0167631
862.261	0.0166067
862.340	0.0167724
862.418	0.0167820
862.496	0.0167590
862.574	0.0166769
862.652	0.0167767
862.730	0.0169390
862.808	0.0167727
862.886	0.0167597
862.965	0.0167864
863.043	0.0167603
863.121	0.0167490
863.199	0.0168516
863.277	0.0167758
863.355	0.0167259
863.433	0.0167869
863.511	0.0168869
863.590	0.0166543
863.668	0.0167583
863.746	0.0169288
863.824	0.0169238
863.902	0.0168249
863.980	0.0169048
864.058	0.0168393
864.136	0.0167818
864.215	0.0170000
864.293	0.0168328
864.371	0.0169217
864.449	0.0169704
864.527	0.0168636
864.605	0.0168858
864.683	0.0170097
864.761	0.0168382
864.840	0.0169511
864.918	0.0168292
864.996	0.0168176
865.074	0.0168983
865.152	0.0169384
865.230	0.0168356
865.308	0.0168020
865.386	0.0169984
865.465	0.0168648
865.543	0.0168919
865.621	0.0170319
865.699	0.0168079
865.777	0.0169552
865.855	0.0168671
865.933	0.0169785
866.011	0.0169759
866.090	0.0168111
866.168	0.0169084
866.246	0.0170862
866.324	0.0169238
866.402	0.0168578
866.480	0.0168758
866.558	0.0167968
866.636	0.0168671
866.715	0.0168654
866.793	0.0168446
866.871	0.0168777
866.949	0.0168048
867.027	0.0168690
867.105	0.0167396
867.183	0.0169180
867.261	0.0168295
867.340	0.0168736
867.418	0.0168671
867.496	0.0168294
867.574	0.0169215
867.652	0.0168792
867.730	0.0168639
867.808	0.0168162
867.886	0.0167762
867.965	0.0167415
868.043	0.0167921
868.121	0.0168743
868.199	0.0167995
868.277	0.0167489
868.355	0.0167454
868.433	0.0169144
868.511	0.0169663
868.590	0.0169110
868.668	0.0167393
868.746	0.0168770
868.824	0.0167960
868.902	0.0168258
868.980	0.0167298
869.058	0.0167943
869.136	0.0168830
869.215	0.0168024
869.293	0.0168533
869.371	0.0167966
869.449	0.0167615
869.527	0.0167369
869.605	0.0167509
869.683	0.0166888
869.761	0.0166976
869.840	0.0166183
869.918	0.0166809
869.996	0.0167116
870.074	0.0166904
870.152	0.0166296
870.230	0.0167839
870.308	0.0165883
870.386	0.0166339
870.465	0.0167592
870.543	0.0168594
870.621	0.0168295
870.699	0.0167400
870.777	0.0168018
870.855	0.0169102
870.933	0.0168728
871.011	0.0169064
871.090	0.0168548
871.168	0.0169468
871.246	0.0169515
871.324	0.0169917
871.402	0.0168974
871.480	0.0170074
871.558	0.0169533
871.636	0.0168928
871.715	0.0169145
871.793	0.0168259
871.871	0.0167697
871.949	0.0167067
872.027	0.0168056
872.105	0.0169798
872.183	0.0168050
872.261	0.0166270
872.340	0.0166277
872.418	0.0166777
872.496	0.0168447
872.574	0.0167966
872.652	0.0167509
872.730	0.0167001
872.808	0.0168830
872.886	0.0169012
872.965	0.0168755
873.043	0.0168640
873.121	0.0169118
873.199	0.0169830
873.277	0.0169447
873.355	0.0168777
873.433	0.0169515
873.511	0.0168427
873.590	0.0170782
873.668	0.0170282
873.746	0.0169325
873.824	0.0169376
873.902	0.0170370
873.980	0.0169043
874.058	0.0170187
874.136	0.0170353
874.215	0.0169785
874.293	0.0170328
874.371	0.0171236
874.449	0.0167471
874.527	0.0168736
874.605	0.0169613
874.683	0.0168693
874.761	0.0169734
874.840	0.0167780
874.918	0.0168417
874.996	0.0166593
875.074	0.0167329
875.152	0.0168516
875.230	0.0168093
875.308	0.0168595
875.386	0.0168572
875.465	0.0166370
875.543	0.0167809
875.621	0.0167149
875.699	0.0167772
875.777	0.0169617
875.855	0.0168285
875.933	0.0168530
876.011	0.0167956
876.090	0.0168694
876.168	0.0169329
876.246	0.0168029
876.324	0.0168300
876.402	0.0167945
876.480	0.0168820
876.558	0.0169213
876.636	0.0169875
876.715	0.0168799
876.793	0.0166258
876.871	0.0166902
876.949	0.0169022
877.027	0.0167780
877.105	0.0167454
877.183	0.0169429
877.261	0.0169219
877.340	0.0168949
877.418	0.0168789
877.496	0.0168492
877.574	0.0168415
877.652	0.0169138
877.730	0.0167796
877.808	0.0168489
877.886	0.0167593
877.965	0.0167931
878.043	0.0166862
878.121	0.0167251
878.199	0.0167673
878.277	0.0166608
878.355	0.0167049
878.433	0.0165609
878.511	0.0165852
878.590	0.0167886
878.668	0.0167091
878.746	0.0167018
878.824	0.0167820
878.902	0.0167075
878.980	0.0167021
879.058	0.0167966
879.136	0.0169873
879.215	0.0168017
879.293	0.0168076
879.371	0.0169714
879.449	0.0168843
879.527	0.0170081
879.605	0.0170340
879.683	0.0168853
879.761	0.0169811
879.840	0.0168877
879.918	0.0169783
879.996	0.0168365
880.074	0.0169626
880.152	0.0169079
880.230	0.0168647
880.308	0.0167710
880.386	0.0166933
880.465	0.0167781
880.543	0.0166874
880.621	0.0167422
880.699	0.0168616
880.777	0.0167603
880.855	0.0166740
880.933	0.0167722
881.011	0.0166993
881.090	0.0167554
881.168	0.0167230
881.246	0.0167309
881.324	0.0167254
881.402	0.0167950
881.480	0.0168459
881.558	0.0168541
881.636	0.0167712
881.715	0.0168544
881.793	0.0169550
881.871	0.0167159
881.949	0.0169532
882.027	0.0168651
882.105	0.0167583
882.183	0.0168367
882.261	0.0168147
882.340	0.0168525
882.418	0.0168293
882.496	0.0167836
882.574	0.0167574
882.652	0.0166647
882.730	0.0168317
882.808	0.0167908
882.886	0.0167274
882.965	0.0168063
883.043	0.0168684
883.121	0.0166837
883.199	0.0166863
883.277	0.0167387
883.355	0.0167825
883.433	0.0167440
883.511	0.0167580
883.590	0.0167142
883.668	0.0167652
883.746	0.0167316
883.824	0.0167447
883.902	0.0166417
883.980	0.0168163
884.058	0.0168449
884.136	0.0167933
884.215	0.0168300
884.293	0.0166670
884.371	0.0168310
884.449	0.0167960
884.527	0.0168458
884.605	0.0168059
884.683	0.0168523
884.761	0.0168555
884.840	0.0167973
884.918	0.0167991
884.996	0.0168280
885.074	0.0168569
885.152	0.0170229
885.230	0.0168206
885.308	0.0167910
885.386	0.0168465
885.465	0.0168871
885.543	0.0167695
885.621	0.0166578
885.699	0.0168172
885.777	0.0166248
885.855	0.0167307
885.933	0.0167516
886.011	0.0167435
886.090	0.0167185
886.168	0.0166992
886.246	0.0167080
886.324	0.0167185
886.402	0.0167918
886.480	0.0167477
886.558	0.0167702
886.636	0.0166716
886.715	0.0167425
886.793	0.0167863
886.871	0.0166100
886.949	0.0167180
887.027	0.0168847
887.105	0.0167721
887.183	0.0167097
887.261	0.0168084
887.340	0.0168848
887.418	0.0168182
887.496	0.0168211
887.574	0.0168468
887.652	0.0167445
887.730	0.0168111
887.808	0.0168513
887.886	0.0168906
887.965	0.0168968
888.043	0.0169396
888.121	0.0169971
888.199	0.0166013
888.277	0.0168690
888.355	0.0168401
888.433	0.0167884
888.511	0.0169318
888.590	0.0166865
888.668	0.0168564
888.746	0.0168133
888.824	0.0168182
888.902	0.0168147
888.980	0.0168476
889.058	0.0167331
889.136	0.0168333
889.215	0.0168397
889.293	0.0168281
889.371	0.0167992
889.449	0.0168716
889.527	0.0167578
889.605	0.0169244
889.683	0.0167554
889.761	0.0167764
889.840	0.0168369
889.918	0.0168686
889.996	0.0168881
890.074	0.0168378
890.152	0.0168352
890.230	0.0169036
890.308	0.0167891
890.386	0.0168887
890.465	0.0168075
890.543	0.0169153
890.621	0.0167611
890.699	0.0167691
890.777	0.0166585
890.855	0.0169205
890.933	0.0166669
891.011	0.0168063
891.090	0.0168272
891.168	0.0165746
891.246	0.0167486
891.324	0.0166644
891.402	0.0167426
891.480	0.0166872
891.558	0.0167941
891.636	0.0166912
891.715	0.0168325
891.793	0.0167429
891.871	0.0166993
891.949	0.0168146
892.027	0.0167381
892.105	0.0168008
892.183	0.0168189
892.261	0.0167925
892.340	0.0168024
892.418	0.0167023
892.496	0.0168538
892.574	0.0168575
892.652	0.0167857
892.730	0.0169537
892.808	0.0168571
892.886	0.0169439
892.965	0.0168928
893.043	0.0167849
893.121	0.0168513
893.199	0.0169222
893.277	0.0169832
893.355	0.0169001
893.433	0.0169756
893.511	0.0167007
893.590	0.0168112
893.668	0.0168582
893.746	0.0168557
893.824	0.0167355
893.902	0.0169769
893.980	0.0168763
894.058	0.0168515
894.136	0.0168660
894.215	0.0169628
894.293	0.0167741
894.371	0.0168628
894.449	0.0168592
894.527	0.0168019
894.605	0.0167963
894.683	0.0168874
894.761	0.0167574
894.840	0.0167776
894.918	0.0167512
894.996	0.0166673
895.074	0.0169460
895.152	0.0167589
895.230	0.0169150
895.308	0.0169016
895.386	0.0168534
895.465	0.0167660
895.543	0.0169044
895.621	0.0171105
895.699	0.0169497
895.777	0.0167139
895.855	0.0168874
895.933	0.0168795
896.011	0.0168681
896.090	0.0169289
896.168	0.0168545
896.246	0.0169059
896.324	0.0168862
896.402	0.0168462
896.480	0.0168540
896.558	0.0168377
896.636	0.0167604
896.715	0.0168779
896.793	0.0168298
896.871	0.0166721
896.949	0.0168333
897.027	0.0167190
897.105	0.0167114
897.183	0.0167620
897.261	0.0167645
897.340	0.0168052
897.418	0.0168593
897.496	0.0168443
897.574	0.0168005
897.652	0.0168446
897.730	0.0168635
897.808	0.0167397
897.886	0.0168836
897.965	0.0168838
898.043	0.0168687
898.121	0.0168234
898.199	0.0168639
898.277	0.0168507
898.355	0.0168787
898.433	0.0167205
898.511	0.0167694
898.590	0.0167540
898.668	0.0167116
898.746	0.0166985
898.824	0.0167151
898.902	0.0166587
898.980	0.0167765
899.058	0.0167614
899.136	0.0167294
899.215	0.0168509
899.293	0.0168230
899.371	0.0167092
899.449	0.0167421
899.527	0.0168014
899.605	0.0168424
899.683	0.0166147
899.761	0.0167262
899.840	0.0166912
899.918	0.0166954
899.996	0.0167966
900.074	0.0166340
900.152	0.0166624
900.230	0.0166574
900.308	0.0167177
900.386	0.0168006
900.465	0.0167663
900.543	0.0169058
900.621	0.0167982
900.699	0.0167594
900.777	0.0167515
900.855	0.0168757
900.933	0.0169444
901.011	0.0166844
901.090	0.0167279
901.168	0.0168066
901.246	0.0168715
901.324	0.0168894
901.402	0.0167435
901.480	0.0168355
901.558	0.0168623
901.636	0.0169389
901.715	0.0169245
901.793	0.0168192
901.871	0.0169711
901.949	0.0169191
902.027	0.0169201
902.105	0.0168607
902.183	0.0168079
902.261	0.0169167
902.340	0.0169342
902.418	0.0169418
902.496	0.0168462
902.574	0.0168964
902.652	0.0168696
902.730	0.0168011
902.808	0.0169438
902.886	0.0170206
902.965	0.0169000
903.043	0.0168546
903.121	0.0168937
903.199	0.0168816
903.277	0.0169328
903.355	0.0169195
903.433	0.0168589
903.511	0.0168364
903.590	0.0170599
903.668	0.0169703
903.746	0.0170556
903.824	0.0169799
903.902	0.0168004
903.980	0.0168921
904.058	0.0169117
904.136	0.0168913
904.215	0.0168734
904.293	0.0168413
904.371	0.0168643
904.449	0.0168381
904.527	0.0167641
904.605	0.0168044
904.683	0.0168511
904.761	0.0168944
904.840	0.0167709
904.918	0.0169021
904.996	0.0167934
905.074	0.0167776
905.152	0.0168633
905.230	0.0167843
905.308	0.0169727
905.386	0.0168877
905.465	0.0168929
905.543	0.0168042
905.621	0.0168138
905.699	0.0169391
905.777	0.0169476
905.855	0.0168946
905.933	0.0169583
906.011	0.0168185
906.090	0.0167767
906.168	0.0168066
906.246	0.0167989
906.324	0.0168616
906.402	0.0168335
906.480	0.0169023
906.558	0.0168674
906.636	0.0167426
906.715	0.0167912
906.793	0.0168024
906.871	0.0166222
906.949	0.0167175
907.027	0.0168616
907.105	0.0166766
907.183	0.0166714
907.261	0.0166816
907.340	0.0167331
907.418	0.0166750
907.496	0.0167039
907.574	0.0166875
907.652	0.0167908
907.730	0.0167471
907.808	0.0166615
907.886	0.0166724
907.965	0.0167340
908.043	0.0167219
908.121	0.0166405
908.199	0.0168692
908.277	0.0168472
908.355	0.0165948
908.433	0.0168018
908.511	0.0166872
908.590	0.0167577
908.668	0.0168501
908.746	0.0166920
908.824	0.0167242
908.902	0.0168569
908.980	0.0167014
909.058	0.0166558
909.136	0.0166437
909.215	0.0168304
909.293	0.0168665
909.371	0.0168835
909.449	0.0167881
909.527	0.0168002
909.605	0.0167242
909.683	0.0167066
909.761	0.0167512
909.840	0.0167224
909.918	0.0168625
909.996	0.0169051
910.074	0.0168526
910.152	0.0167344
910.230	0.0168191
910.308	0.0168797
910.386	0.0168637
910.465	0.0169658
910.543	0.0167118
910.621	0.0166906
910.699	0.0167494
910.777	0.0168384
910.855	0.0170016
910.933	0.0168459
911.011	0.0167685
911.090	0.0168444
911.168	0.0168481
911.246	0.0170601
911.324	0.0168867
911.402	0.0168629
911.480	0.0168571
911.558	0.0169245
911.636	0.0167322
911.715	0.0167426
911.793	0.0166829
911.871	0.0169470
911.949	0.0168929
912.027	0.0167952
912.105	0.0168384
912.183	0.0170866
912.261	0.0168871
912.340	0.0169823
912.418	0.0169065
912.496	0.0168126
912.574	0.0168156
912.652	0.0168331
912.730	0.0166676
912.808	0.0167010
912.886	0.0168220
912.965	0.0169426
913.043	0.0168131
913.121	0.0167800
913.199	0.0169282
913.277	0.0168895
913.355	0.0168582
913.433	0.0168665
913.511	0.0168646
913.590	0.0167735
913.668	0.0168299
913.746	0.0168483
913.824	0.0167499
913.902	0.0168506
913.980	0.0170020
914.058	0.0168942
914.136	0.0167777
914.215	0.0168309
914.293	0.0167911
914.371	0.0168749
914.449	0.0169688
914.527	0.0167289
914.605	0.0168246
914.683	0.0168925
914.761	0.0168443
914.840	0.0168107
914.918	0.0168075
914.996	0.0167625
915.074	0.0168969
915.152	0.0166805
915.230	0.0167868
915.308	0.0167538
915.386	0.0165392
915.465	0.0167121
915.543	0.0168424
915.621	0.0167957
915.699	0.0167446
915.777	0.0166701
915.855	0.0168394
915.933	0.0168635
916.011	0.0167178
916.090	0.0168960
916.168	0.0167628
916.246	0.0168652
916.324	0.0169512
916.402	0.0168244
916.480	0.0168548
916.558	0.0168398
916.636	0.0167800
916.715	0.0167545
916.793	0.0167944
916.871	0.0168549
916.949	0.0169106
917.027	0.0169163
917.105	0.0168761
917.183	0.0169010
917.261	0.0166638
917.340	0.0167728
917.418	0.0168024
917.496	0.0167679
917.574	0.0168230
917.652	0.0167406
917.730	0.0166782
917.808	0.0166617
917.886	0.0167745
917.965	0.0168267
918.043	0.0166846
918.121	0.0167544
918.199	0.0167893
918.277	0.0168328
918.355	0.0168292
918.433	0.0167889
918.511	0.0168601
918.590	0.0167990
918.668	0.0168000
918.746	0.0167697
918.824	0.0168185
918.902	0.0168353
918.980	0.0167230
919.058	0.0168480
919.136	0.0168929
919.215	0.0167882
919.293	0.0168723
919.371	0.0169499
919.449	0.0169202
919.527	0.0168768
919.605	0.0168551
919.683	0.0169099
919.761	0.0170393
919.840	0.0169370
919.918	0.0168565
919.996	0.0168974
920.074	0.0168394
920.152	0.0169965
920.230	0.0168646
920.308	0.0169481
920.386	0.0169022
920.465	0.0168179
920.543	0.0169949
920.621	0.0170019
920.699	0.0168410
920.777	0.0168250
920.855	0.0168289
920.933	0.0168872
921.011	0.0168324
921.090	0.0168527
921.168	0.0167271
921.246	0.0167474
921.324	0.0168248
921.402	0.0168453
921.480	0.0167902
921.558	0.0167346
921.636	0.0168242
921.715	0.0168151
921.793	0.0167278
921.871	0.0168041
921.949	0.0169123
922.027	0.0167051
922.105	0.0168810
922.183	0.0167417
922.261	0.0168184
922.340	0.0168137
922.418	0.0167508
922.496	0.0168662
922.574	0.0167445
922.652	0.0167448
922.730	0.0169182
922.808	0.0169781
922.886	0.0168202
922.965	0.0168427
923.043	0.0168070
923.121	0.0168825
923.199	0.0168723
923.277	0.0168312
923.355	0.0166875
923.433	0.0167858
923.511	0.0168076
923.590	0.0167279
923.668	0.0168059
923.746	0.0167152
923.824	0.0166711
923.902	0.0167131
923.980	0.0168565
924.058	0.0167601
924.136	0.0167825
924.215	0.0166771
924.293	0.0166725
924.371	0.0165694
924.449	0.0169299
924.527	0.0168882
924.605	0.0167972
924.683	0.0167498
924.761	0.0168378
924.840	0.0167071
924.918	0.0167976
924.996	0.0166943
925.074	0.0167552
925.152	0.0168806
925.230	0.0167843
925.308	0.0167511
925.386	0.0166592
925.465	0.0167750
925.543	0.0167638
925.621	0.0167795
925.699	0.0168083
925.777	0.0168159
925.855	0.0167637
925.933	0.0167920
926.011	0.0167199
926.090	0.0166572
926.168	0.0168986
926.246	0.0167145
926.324	0.0168787
926.402	0.0168726
926.480	0.0167279
926.558	0.0168076
926.636	0.0169195
926.715	0.0168279
926.793	0.0169180
926.871	0.0167937
926.949	0.0168266
927.027	0.0169157
927.105	0.0167901
927.183	0.0168545
927.261	0.0168411
927.340	0.0168482
927.418	0.0168222
927.496	0.0168303
927.574	0.0169517
927.652	0.0169029
927.730	0.0168990
927.808	0.0168972
927.886	0.0170324
927.965	0.0168831
928.043	0.0168268
928.121	0.0169712
928.199	0.0170450
928.277	0.0168683
928.355	0.0170000
928.433	0.0168746
928.511	0.0169102
928.590	0.0169890
928.668	0.0169585
928.746	0.0168806
928.824	0.0169802
928.902	0.0168892
928.980	0.0170133
929.058	0.0169170
929.136	0.0169418
929.215	0.0170180
929.293	0.0168068
929.371	0.0169244
929.449	0.0168621
929.527	0.0168880
929.605	0.0169310
929.683	0.0168545
929.761	0.0167815
929.840	0.0168365
929.918	0.0168799
929.996	0.0167409
930.074	0.0167970
930.152	0.0168358
930.230	0.0168912
930.308	0.0167635
930.386	0.0168859
930.465	0.0168745
930.543	0.0167176
930.621	0.0169683
930.699	0.0168707
930.777	0.0168455
930.855	0.0167941
930.933	0.0168913
931.011	0.0169024
931.090	0.0168047
931.168	0.0168964
931.246	0.0168896
931.324	0.0168929
931.402	0.0168785
931.480	0.0168439
931.558	0.0168232
931.636	0.0169785
931.715	0.0169093
931.793	0.0168788
931.871	0.0167616
931.949	0.0169012
932.027	0.0168243
932.105	0.0167561
932.183	0.0167908
932.261	0.0167049
932.340	0.0168010
932.418	0.0168777
932.496	0.0166908
932.574	0.0167591
932.652	0.0166706
932.730	0.0167421
932.808	0.0169121
932.886	0.0169019
932.965	0.0168017
933.043	0.0167570
933.121	0.0167858
933.199	0.0169093
933.277	0.0168409
933.355	0.0166832
933.433	0.0167888
933.511	0.0166825
933.590	0.0168389
933.668	0.0167732
933.746	0.0168121
933.824	0.0165441
933.902	0.0167875
933.980	0.0167536
934.058	0.0168137
934.136	0.0167323
934.215	0.0169149
934.293	0.0168266
934.371	0.0167931
934.449	0.0168279
934.527	0.0167567
934.605	0.0168082
934.683	0.0169180
934.761	0.0168260
934.840	0.0168124
934.918	0.0167175
934.996	0.0168913
935.074	0.0168149
935.152	0.0167481
935.230	0.0168515
935.308	0.0166348
935.386	0.0167741
935.465	0.0167630
935.543	0.0169011
935.621	0.0168738
935.699	0.0169174
935.777	0.0169041
935.855	0.0168190
935.933	0.0169460
936.011	0.0169893
936.090	0.0169124
936.168	0.0168731
936.246	0.0168923
936.324	0.0171073
936.402	0.0171364
936.480	0.0169010
936.558	0.0169263
936.636	0.0169089
936.715	0.0168765
936.793	0.0169063
936.871	0.0170039
936.949	0.0170071
937.027	0.0169350
937.105	0.0168675
937.183	0.0169090
937.261	0.0169560
937.340	0.0168352
937.418	0.0167989
937.496	0.0167698
937.574	0.0168312
937.652	0.0168017
937.730	0.0167805
937.808	0.0168439
937.886	0.0167978
937.965	0.0168012
938.043	0.0167804
938.121	0.0167414
938.199	0.0168232
938.277	0.0167204
938.355	0.0169043
938.433	0.0168346
938.511	0.0168115
938.590	0.0168361
938.668	0.0169176
938.746	0.0169809
938.824	0.0168873
938.902	0.0169710
938.980	0.0168130
939.058	0.0169271
939.136	0.0168563
939.215	0.0169441
939.293	0.0168240
939.371	0.0169450
939.449	0.0170111
939.527	0.0168433
939.605	0.0168695
939.683	0.0168570
939.761	0.0167719
939.840	0.0168374
939.918	0.0168391
939.996	0.0169382
940.074	0.0169033
940.152	0.0168051
940.230	0.0168705
940.308	0.0167617
940.386	0.0168140
940.465	0.0166936
940.543	0.0167819
940.621	0.0167297
940.699	0.0168650
940.777	0.0167713
940.855	0.0168488
940.933	0.0168354
941.011	0.0167959
941.090	0.0168311
941.168	0.0167770
941.246	0.0167104
941.324	0.0168487
941.402	0.0168768
941.480	0.0168903
941.558	0.0167660
941.636	0.0167558
941.715	0.0169086
941.793	0.0167912
941.871	0.0168195
941.949	0.0168035
942.027	0.0167272
942.105	0.0167283
942.183	0.0167924
942.261	0.0167708
942.340	0.0168099
942.418	0.0168480
942.496	0.0166944
942.574	0.0167786
942.652	0.0168011
942.730	0.0169339
942.808	0.0168875
942.886	0.0168800
942.965	0.0170100
943.043	0.0169240
943.121	0.0167427
943.199	0.0167747
943.277	0.0170251
943.355	0.0169078
943.433	0.0169442
943.511	0.0167367
943.590	0.0168812
943.668	0.0168333
943.746	0.0168275
943.824	0.0169160
943.902	0.0168729
943.980	0.0169353
944.058	0.0168332
944.136	0.0168330
944.215	0.0168675
944.293	0.0169149
944.371	0.0169158
944.449	0.0168864
944.527	0.0169469
944.605	0.0169867
944.683	0.0169179
944.761	0.0169444
944.840	0.0167735
944.918	0.0168313
944.996	0.0169050
945.074	0.0168012
945.152	0.0169418
945.230	0.0169666
945.308	0.0168043
945.386	0.0168535
945.465	0.0168065
945.543	0.0168164
945.621	0.0169102
945.699	0.0168929
945.777	0.0167768
945.855	0.0169138
945.933	0.0168998
946.011	0.0167729
946.090	0.0168262
946.168	0.0167786
946.246	0.0167168
946.324	0.0167389
946.402	0.0168028
946.480	0.0168364
946.558	0.0166487
946.636	0.0168195
946.715	0.0168938
946.793	0.0167097
946.871	0.0167152
946.949	0.0166498
947.027	0.0166483
947.105	0.0168409
947.183	0.0167838
947.261	0.0165854
947.340	0.0167549
947.418	0.0167796
947.496	0.0167443
947.574	0.0169622
947.652	0.0169233
947.730	0.0166935
947.808	0.0168492
947.886	0.0168633
947.965	0.0168985
948.043	0.0166147
948.121	0.0167192
948.199	0.0167719
948.277	0.0167256
948.355	0.0167825
948.433	0.0166311
948.511	0.0168610
948.590	0.0168477
948.668	0.0167677
948.746	0.0167626
948.824	0.0167035
948.902	0.0167372
948.980	0.0166585
949.058	0.0166374
949.136	0.0167336
949.215	0.0166674
949.293	0.0166743
949.371	0.0167462
949.449	0.0167683
949.527	0.0166830
949.605	0.0166916
949.683	0.0167287
949.761	0.0167376
949.840	0.0166518
949.918	0.0165211
