06/29/2022	21:29:59	Ver.	4.1	UNKNOWN
Optical Delay	629.995835	Delta X		0.078125	Sweeps	1	Scan Rate	0/0
Coordinates	Axis 1	NaN	Axis 2	NaN	Axis 3	NaN	Axis 4	NaN	Axis 5	NaN	Axis 6	0.000000
TX Power	0.000000	RX Power	0.000000

629.996	0.0161907
630.074	0.0161418
630.152	0.0159730
630.230	0.0162286
630.308	0.0162984
630.386	0.0162885
630.465	0.0162729
630.543	0.0161571
630.621	0.0161411
630.699	0.0161694
630.777	0.0161633
630.855	0.0161195
630.933	0.0162660
631.011	0.0161832
631.090	0.0162220
631.168	0.0162403
631.246	0.0161494
631.324	0.0162782
631.402	0.0161828
631.480	0.0162363
631.558	0.0161837
631.636	0.0162394
631.715	0.0161257
631.793	0.0161311
631.871	0.0161298
631.949	0.0160972
632.027	0.0162614
632.105	0.0163200
632.183	0.0160559
632.261	0.0160450
632.340	0.0162328
632.418	0.0161031
632.496	0.0160910
632.574	0.0161237
632.652	0.0160533
632.730	0.0160644
632.808	0.0160564
632.886	0.0160833
632.965	0.0161314
633.043	0.0160828
633.121	0.0162123
633.199	0.0161594
633.277	0.0162254
633.355	0.0161063
633.433	0.0159682
633.511	0.0159991
633.590	0.0161486
633.668	0.0160879
633.746	0.0161407
633.824	0.0161750
633.902	0.0161287
633.980	0.0161974
634.058	0.0162297
634.136	0.0163107
634.215	0.0161429
634.293	0.0162482
634.371	0.0162346
634.449	0.0162852
634.527	0.0162478
634.605	0.0162733
634.683	0.0162852
634.761	0.0162099
634.840	0.0163992
634.918	0.0162141
634.996	0.0162509
635.074	0.0163547
635.152	0.0163210
635.230	0.0162753
635.308	0.0161880
635.386	0.0163498
635.465	0.0164646
635.543	0.0163963
635.621	0.0161649
635.699	0.0162891
635.777	0.0164349
635.855	0.0162829
635.933	0.0163432
636.011	0.0162306
636.090	0.0162379
636.168	0.0162914
636.246	0.0163184
636.324	0.0162660
636.402	0.0161456
636.480	0.0162144
636.558	0.0161451
636.636	0.0162352
636.715	0.0163100
636.793	0.0161123
636.871	0.0161898
636.949	0.0163279
637.027	0.0163109
637.105	0.0161369
637.183	0.0161333
637.261	0.0162234
637.340	0.0161378
637.418	0.0161263
637.496	0.0161773
637.574	0.0161819
637.652	0.0160979
637.730	0.0161806
637.808	0.0161246
637.886	0.0162101
637.965	0.0163879
638.043	0.0161413
638.121	0.0160417
638.199	0.0161861
638.277	0.0161887
638.355	0.0161948
638.433	0.0161475
638.511	0.0161196
638.590	0.0160764
638.668	0.0161901
638.746	0.0162494
638.824	0.0161417
638.902	0.0162925
638.980	0.0161304
639.058	0.0162496
639.136	0.0162218
639.215	0.0160697
639.293	0.0161875
639.371	0.0162011
639.449	0.0161028
639.527	0.0162093
639.605	0.0161119
639.683	0.0162112
639.761	0.0162746
639.840	0.0162410
639.918	0.0161527
639.996	0.0162266
640.074	0.0162638
640.152	0.0161537
640.230	0.0161024
640.308	0.0161317
640.386	0.0161094
640.465	0.0161720
640.543	0.0161446
640.621	0.0161110
640.699	0.0163291
640.777	0.0162092
640.855	0.0161227
640.933	0.0161701
641.011	0.0161404
641.090	0.0161986
641.168	0.0161508
641.246	0.0162472
641.324	0.0162675
641.402	0.0161800
641.480	0.0160261
641.558	0.0162316
641.636	0.0162486
641.715	0.0161337
641.793	0.0161096
641.871	0.0162150
641.949	0.0160802
642.027	0.0160566
642.105	0.0160847
642.183	0.0162095
642.261	0.0162950
642.340	0.0160599
642.418	0.0162475
642.496	0.0161815
642.574	0.0162405
642.652	0.0161462
642.730	0.0162286
642.808	0.0161194
642.886	0.0162733
642.965	0.0162843
643.043	0.0161992
643.121	0.0161742
643.199	0.0161897
643.277	0.0161948
643.355	0.0162455
643.433	0.0163018
643.511	0.0161533
643.590	0.0161946
643.668	0.0162624
643.746	0.0162634
643.824	0.0161497
643.902	0.0161734
643.980	0.0162286
644.058	0.0162236
644.136	0.0162007
644.215	0.0161299
644.293	0.0161783
644.371	0.0162777
644.449	0.0161295
644.527	0.0161220
644.605	0.0162785
644.683	0.0162190
644.761	0.0163062
644.840	0.0161687
644.918	0.0163164
644.996	0.0163010
645.074	0.0161857
645.152	0.0162530
645.230	0.0161657
645.308	0.0162827
645.386	0.0162228
645.465	0.0161501
645.543	0.0162955
645.621	0.0162896
645.699	0.0163362
645.777	0.0163676
645.855	0.0162446
645.933	0.0162788
646.011	0.0163268
646.090	0.0163428
646.168	0.0162639
646.246	0.0162833
646.324	0.0164199
646.402	0.0163322
646.480	0.0162709
646.558	0.0163633
646.636	0.0162896
646.715	0.0162794
646.793	0.0163220
646.871	0.0163712
646.949	0.0163187
647.027	0.0163352
647.105	0.0163779
647.183	0.0163091
647.261	0.0162528
647.340	0.0161752
647.418	0.0163333
647.496	0.0164977
647.574	0.0163080
647.652	0.0162385
647.730	0.0162479
647.808	0.0162785
647.886	0.0162600
647.965	0.0162601
648.043	0.0164751
648.121	0.0161972
648.199	0.0163129
648.277	0.0163638
648.355	0.0163034
648.433	0.0163181
648.511	0.0163981
648.590	0.0163200
648.668	0.0163360
648.746	0.0162336
648.824	0.0163447
648.902	0.0163461
648.980	0.0162894
649.058	0.0162268
649.136	0.0161644
649.215	0.0161351
649.293	0.0163477
649.371	0.0163445
649.449	0.0161169
649.527	0.0163020
649.605	0.0162821
649.683	0.0162902
649.761	0.0162853
649.840	0.0161393
649.918	0.0161534
649.996	0.0162897
650.074	0.0160941
650.152	0.0160601
650.230	0.0162679
650.308	0.0162596
650.386	0.0162172
650.465	0.0162485
650.543	0.0161901
650.621	0.0161413
650.699	0.0159870
650.777	0.0160921
650.855	0.0162458
650.933	0.0161791
651.011	0.0160433
651.090	0.0162871
651.168	0.0162240
651.246	0.0163657
651.324	0.0161098
651.402	0.0161340
651.480	0.0162170
651.558	0.0161900
651.636	0.0163132
651.715	0.0161635
651.793	0.0162032
651.871	0.0161165
651.949	0.0162427
652.027	0.0162212
652.105	0.0160721
652.183	0.0162191
652.261	0.0163213
652.340	0.0160937
652.418	0.0160707
652.496	0.0162072
652.574	0.0161737
652.652	0.0161697
652.730	0.0161661
652.808	0.0162945
652.886	0.0162317
652.965	0.0161639
653.043	0.0161510
653.121	0.0161679
653.199	0.0162952
653.277	0.0161979
653.355	0.0161348
653.433	0.0160681
653.511	0.0162856
653.590	0.0162645
653.668	0.0161657
653.746	0.0163474
653.824	0.0162823
653.902	0.0160773
653.980	0.0161721
654.058	0.0162211
654.136	0.0162679
654.215	0.0163644
654.293	0.0161263
654.371	0.0162088
654.449	0.0161873
654.527	0.0161079
654.605	0.0163398
654.683	0.0160368
654.761	0.0163009
654.840	0.0162085
654.918	0.0162913
654.996	0.0162220
655.074	0.0162835
655.152	0.0162823
655.230	0.0160763
655.308	0.0163085
655.386	0.0162650
655.465	0.0162387
655.543	0.0162005
655.621	0.0161765
655.699	0.0160879
655.777	0.0163599
655.855	0.0162514
655.933	0.0161835
656.011	0.0162537
656.090	0.0161964
656.168	0.0160862
656.246	0.0162155
656.324	0.0161800
656.402	0.0160340
656.480	0.0160938
656.558	0.0162382
656.636	0.0161118
656.715	0.0161017
656.793	0.0162175
656.871	0.0162422
656.949	0.0161629
657.027	0.0161404
657.105	0.0160946
657.183	0.0162021
657.261	0.0163054
657.340	0.0162403
657.418	0.0162021
657.496	0.0161725
657.574	0.0162447
657.652	0.0163664
657.730	0.0162180
657.808	0.0163502
657.886	0.0162228
657.965	0.0161808
658.043	0.0163407
658.121	0.0162719
658.199	0.0161900
658.277	0.0161997
658.355	0.0163007
658.433	0.0162791
658.511	0.0162788
658.590	0.0163530
658.668	0.0161530
658.746	0.0161842
658.824	0.0163230
658.902	0.0162367
658.980	0.0161738
659.058	0.0162262
659.136	0.0162411
659.215	0.0163403
659.293	0.0163599
659.371	0.0162458
659.449	0.0162359
659.527	0.0162543
659.605	0.0163631
659.683	0.0161475
659.761	0.0160478
659.840	0.0162302
659.918	0.0161816
659.996	0.0162506
660.074	0.0162349
660.152	0.0162625
660.230	0.0162510
660.308	0.0160970
660.386	0.0163210
660.465	0.0163828
660.543	0.0162215
660.621	0.0161885
660.699	0.0161937
660.777	0.0162187
660.855	0.0162508
660.933	0.0162482
661.011	0.0162710
661.090	0.0162387
661.168	0.0162043
661.246	0.0163094
661.324	0.0162571
661.402	0.0162948
661.480	0.0162437
661.558	0.0161962
661.636	0.0162099
661.715	0.0162992
661.793	0.0162179
661.871	0.0161555
661.949	0.0161684
662.027	0.0161781
662.105	0.0162717
662.183	0.0162596
662.261	0.0163174
662.340	0.0163087
662.418	0.0163081
662.496	0.0162035
662.574	0.0164017
662.652	0.0162652
662.730	0.0162385
662.808	0.0161401
662.886	0.0162681
662.965	0.0162251
663.043	0.0163065
663.121	0.0162141
663.199	0.0162859
663.277	0.0162713
663.355	0.0162857
663.433	0.0161702
663.511	0.0161684
663.590	0.0163174
663.668	0.0163839
663.746	0.0162971
663.824	0.0162429
663.902	0.0163299
663.980	0.0163519
664.058	0.0160941
664.136	0.0162273
664.215	0.0162349
664.293	0.0162785
664.371	0.0161424
664.449	0.0163271
664.527	0.0163440
664.605	0.0163280
664.683	0.0161600
664.761	0.0162663
664.840	0.0162602
664.918	0.0162726
664.996	0.0161629
665.074	0.0161836
665.152	0.0162638
665.230	0.0161749
665.308	0.0162858
665.386	0.0162891
665.465	0.0161356
665.543	0.0162608
665.621	0.0161413
665.699	0.0163198
665.777	0.0162373
665.855	0.0163108
665.933	0.0163190
666.011	0.0162633
666.090	0.0162460
666.168	0.0162685
666.246	0.0163573
666.324	0.0163155
666.402	0.0163047
666.480	0.0162612
666.558	0.0163665
666.636	0.0163805
666.715	0.0161996
666.793	0.0163213
666.871	0.0162086
666.949	0.0163335
667.027	0.0165509
667.105	0.0163149
667.183	0.0162556
667.261	0.0163911
667.340	0.0163818
667.418	0.0164766
667.496	0.0162965
667.574	0.0162445
667.652	0.0162382
667.730	0.0161980
667.808	0.0163381
667.886	0.0163058
667.965	0.0160853
668.043	0.0163787
668.121	0.0163602
668.199	0.0163049
668.277	0.0162074
668.355	0.0162577
668.433	0.0162936
668.511	0.0162599
668.590	0.0161326
668.668	0.0161640
668.746	0.0162208
668.824	0.0162194
668.902	0.0162968
668.980	0.0162067
669.058	0.0161349
669.136	0.0161694
669.215	0.0162650
669.293	0.0163631
669.371	0.0161795
669.449	0.0160704
669.527	0.0162502
669.605	0.0162376
669.683	0.0163573
669.761	0.0161955
669.840	0.0161539
669.918	0.0163823
669.996	0.0163609
670.074	0.0162924
670.152	0.0163175
670.230	0.0163981
670.308	0.0162864
670.386	0.0163279
670.465	0.0161919
670.543	0.0161550
670.621	0.0162360
670.699	0.0162810
670.777	0.0163110
670.855	0.0163636
670.933	0.0162076
671.011	0.0162856
671.090	0.0162282
671.168	0.0163184
671.246	0.0162536
671.324	0.0161320
671.402	0.0163715
671.480	0.0162019
671.558	0.0161501
671.636	0.0163141
671.715	0.0162723
671.793	0.0161730
671.871	0.0162417
671.949	0.0161647
672.027	0.0163553
672.105	0.0162092
672.183	0.0161172
672.261	0.0163338
672.340	0.0162769
672.418	0.0161394
672.496	0.0163023
672.574	0.0160895
672.652	0.0161813
672.730	0.0162404
672.808	0.0163371
672.886	0.0163129
672.965	0.0161189
673.043	0.0164055
673.121	0.0163263
673.199	0.0162236
673.277	0.0162077
673.355	0.0161456
673.433	0.0161887
673.511	0.0162378
673.590	0.0162500
673.668	0.0161445
673.746	0.0162781
673.824	0.0162122
673.902	0.0161092
673.980	0.0161523
674.058	0.0161793
674.136	0.0162199
674.215	0.0162466
674.293	0.0161275
674.371	0.0160249
674.449	0.0162694
674.527	0.0163711
674.605	0.0162936
674.683	0.0161731
674.761	0.0162634
674.840	0.0163334
674.918	0.0161841
674.996	0.0161718
675.074	0.0162547
675.152	0.0162302
675.230	0.0162033
675.308	0.0163168
675.386	0.0162189
675.465	0.0162264
675.543	0.0162105
675.621	0.0161764
675.699	0.0162875
675.777	0.0162498
675.855	0.0162557
675.933	0.0163198
676.011	0.0162786
676.090	0.0161799
676.168	0.0162806
676.246	0.0163261
676.324	0.0161483
676.402	0.0162639
676.480	0.0162645
676.558	0.0162246
676.636	0.0161969
676.715	0.0161994
676.793	0.0162125
676.871	0.0161052
676.949	0.0162643
677.027	0.0161334
677.105	0.0163902
677.183	0.0161972
677.261	0.0161248
677.340	0.0162630
677.418	0.0161503
677.496	0.0163126
677.574	0.0162402
677.652	0.0162518
677.730	0.0162611
677.808	0.0161649
677.886	0.0161048
677.965	0.0161519
678.043	0.0161694
678.121	0.0161488
678.199	0.0161735
678.277	0.0162164
678.355	0.0162485
678.433	0.0162866
678.511	0.0162605
678.590	0.0160948
678.668	0.0162479
678.746	0.0161333
678.824	0.0161344
678.902	0.0161553
678.980	0.0162283
679.058	0.0162499
679.136	0.0162072
679.215	0.0161579
679.293	0.0160168
679.371	0.0162299
679.449	0.0160583
679.527	0.0160425
679.605	0.0161115
679.683	0.0161663
679.761	0.0161927
679.840	0.0161729
679.918	0.0161540
679.996	0.0162511
680.074	0.0163027
680.152	0.0162293
680.230	0.0162560
680.308	0.0161373
680.386	0.0161337
680.465	0.0159658
680.543	0.0161977
680.621	0.0162464
680.699	0.0161775
680.777	0.0161200
680.855	0.0161981
680.933	0.0160001
681.011	0.0161621
681.090	0.0161428
681.168	0.0161327
681.246	0.0161457
681.324	0.0162450
681.402	0.0162413
681.480	0.0162412
681.558	0.0162399
681.636	0.0161765
681.715	0.0161873
681.793	0.0161396
681.871	0.0162132
681.949	0.0161926
682.027	0.0161510
682.105	0.0161398
682.183	0.0161461
682.261	0.0162490
682.340	0.0160906
682.418	0.0162227
682.496	0.0161911
682.574	0.0160846
682.652	0.0161140
682.730	0.0160791
682.808	0.0161562
682.886	0.0162758
682.965	0.0162653
683.043	0.0161085
683.121	0.0162170
683.199	0.0162795
683.277	0.0161246
683.355	0.0161475
683.433	0.0162794
683.511	0.0162862
683.590	0.0162363
683.668	0.0162694
683.746	0.0161964
683.824	0.0162453
683.902	0.0163019
683.980	0.0161210
684.058	0.0163011
684.136	0.0163171
684.215	0.0162488
684.293	0.0162859
684.371	0.0162667
684.449	0.0162268
684.527	0.0161586
684.605	0.0162991
684.683	0.0163561
684.761	0.0161931
684.840	0.0161657
684.918	0.0163071
684.996	0.0162812
685.074	0.0163275
685.152	0.0162287
685.230	0.0161769
685.308	0.0161908
685.386	0.0163429
685.465	0.0163778
685.543	0.0163495
685.621	0.0163327
685.699	0.0163024
685.777	0.0162729
685.855	0.0164249
685.933	0.0163213
686.011	0.0162155
686.090	0.0162315
686.168	0.0163177
686.246	0.0162770
686.324	0.0162637
686.402	0.0162106
686.480	0.0161827
686.558	0.0162552
686.636	0.0162932
686.715	0.0162255
686.793	0.0163551
686.871	0.0162910
686.949	0.0163427
687.027	0.0162631
687.105	0.0164447
687.183	0.0163326
687.261	0.0163434
687.340	0.0163976
687.418	0.0162265
687.496	0.0162768
687.574	0.0162570
687.652	0.0162321
687.730	0.0163088
687.808	0.0162776
687.886	0.0159399
687.965	0.0162633
688.043	0.0163157
688.121	0.0163055
688.199	0.0162421
688.277	0.0162713
688.355	0.0162669
688.433	0.0163058
688.511	0.0162634
688.590	0.0162806
688.668	0.0162051
688.746	0.0162323
688.824	0.0163227
688.902	0.0163004
688.980	0.0162944
689.058	0.0163543
689.136	0.0162184
689.215	0.0163336
689.293	0.0161181
689.371	0.0163103
689.449	0.0162634
689.527	0.0162008
689.605	0.0161510
689.683	0.0163025
689.761	0.0162054
689.840	0.0162823
689.918	0.0163679
689.996	0.0162381
690.074	0.0161031
690.152	0.0163879
690.230	0.0162599
690.308	0.0160899
690.386	0.0161277
690.465	0.0162627
690.543	0.0162009
690.621	0.0160288
690.699	0.0161824
690.777	0.0161511
690.855	0.0161804
690.933	0.0162171
691.011	0.0162590
691.090	0.0161477
691.168	0.0160964
691.246	0.0162439
691.324	0.0161184
691.402	0.0162296
691.480	0.0162511
691.558	0.0160920
691.636	0.0161678
691.715	0.0162080
691.793	0.0162762
691.871	0.0163869
691.949	0.0161511
692.027	0.0162328
692.105	0.0163017
692.183	0.0162632
692.261	0.0161446
692.340	0.0162451
692.418	0.0163335
692.496	0.0163161
692.574	0.0163327
692.652	0.0161118
692.730	0.0163747
692.808	0.0162048
692.886	0.0163457
692.965	0.0162083
693.043	0.0162359
693.121	0.0161506
693.199	0.0161956
693.277	0.0162522
693.355	0.0162206
693.433	0.0161485
693.511	0.0161178
693.590	0.0162020
693.668	0.0162947
693.746	0.0160857
693.824	0.0160637
693.902	0.0162119
693.980	0.0161894
694.058	0.0159883
694.136	0.0159269
694.215	0.0160528
694.293	0.0160315
694.371	0.0160440
694.449	0.0159390
694.527	0.0160425
694.605	0.0160515
694.683	0.0160147
694.761	0.0159721
694.840	0.0160044
694.918	0.0160828
694.996	0.0160385
695.074	0.0161749
695.152	0.0161676
695.230	0.0160102
695.308	0.0161572
695.386	0.0160526
695.465	0.0160127
695.543	0.0162165
695.621	0.0160460
695.699	0.0160729
695.777	0.0159523
695.855	0.0161730
695.933	0.0161407
696.011	0.0160438
696.090	0.0160382
696.168	0.0160749
696.246	0.0161067
696.324	0.0159883
696.402	0.0160989
696.480	0.0162106
696.558	0.0161155
696.636	0.0159743
696.715	0.0160844
696.793	0.0162217
696.871	0.0162641
696.949	0.0160784
697.027	0.0161081
697.105	0.0161397
697.183	0.0161552
697.261	0.0162875
697.340	0.0162282
697.418	0.0163026
697.496	0.0161596
697.574	0.0161543
697.652	0.0160910
697.730	0.0160370
697.808	0.0162199
697.886	0.0160165
697.965	0.0162527
698.043	0.0160550
698.121	0.0160239
698.199	0.0160622
698.277	0.0160995
698.355	0.0161472
698.433	0.0160513
698.511	0.0160916
698.590	0.0160546
698.668	0.0160233
698.746	0.0159785
698.824	0.0160548
698.902	0.0161644
698.980	0.0161350
699.058	0.0160781
699.136	0.0161340
699.215	0.0162881
699.293	0.0160822
699.371	0.0163303
699.449	0.0163911
699.527	0.0162202
699.605	0.0163183
699.683	0.0162413
699.761	0.0163713
699.840	0.0163458
699.918	0.0164992
699.996	0.0164973
700.074	0.0164385
700.152	0.0164123
700.230	0.0163717
700.308	0.0163573
700.386	0.0163753
700.465	0.0162541
700.543	0.0162793
700.621	0.0163979
700.699	0.0163605
700.777	0.0162460
700.855	0.0162575
700.933	0.0161880
701.011	0.0160911
701.090	0.0161265
701.168	0.0160701
701.246	0.0162119
701.324	0.0161830
701.402	0.0161779
701.480	0.0161562
701.558	0.0160815
701.636	0.0160625
701.715	0.0160123
701.793	0.0161551
701.871	0.0162344
701.949	0.0162020
702.027	0.0162312
702.105	0.0160893
702.183	0.0161507
702.261	0.0160825
702.340	0.0162199
702.418	0.0160579
702.496	0.0161588
702.574	0.0162021
702.652	0.0161364
702.730	0.0161757
702.808	0.0161895
702.886	0.0161801
702.965	0.0161420
703.043	0.0161884
703.121	0.0161701
703.199	0.0163025
703.277	0.0163097
703.355	0.0162701
703.433	0.0160768
703.511	0.0162366
703.590	0.0162985
703.668	0.0163816
703.746	0.0162634
703.824	0.0160486
703.902	0.0161617
703.980	0.0162638
704.058	0.0161089
704.136	0.0160935
704.215	0.0162797
704.293	0.0161922
704.371	0.0161875
704.449	0.0161738
704.527	0.0161756
704.605	0.0160270
704.683	0.0161518
704.761	0.0162779
704.840	0.0162429
704.918	0.0161362
704.996	0.0162193
705.074	0.0162781
705.152	0.0161253
705.230	0.0162890
705.308	0.0163063
705.386	0.0162421
705.465	0.0164167
705.543	0.0163381
705.621	0.0163787
705.699	0.0163978
705.777	0.0163411
705.855	0.0164359
705.933	0.0165399
706.011	0.0163274
706.090	0.0162299
706.168	0.0163096
706.246	0.0163743
706.324	0.0162469
706.402	0.0162824
706.480	0.0163491
706.558	0.0161562
706.636	0.0159942
706.715	0.0161257
706.793	0.0159665
706.871	0.0160484
706.949	0.0161281
707.027	0.0161049
707.105	0.0160469
707.183	0.0160402
707.261	0.0160503
707.340	0.0159574
707.418	0.0159524
707.496	0.0159623
707.574	0.0159604
707.652	0.0160768
707.730	0.0160180
707.808	0.0160790
707.886	0.0160219
707.965	0.0160283
708.043	0.0159127
708.121	0.0161851
708.199	0.0161897
708.277	0.0161479
708.355	0.0162548
708.433	0.0161781
708.511	0.0162428
708.590	0.0161480
708.668	0.0161693
708.746	0.0161847
708.824	0.0161419
708.902	0.0160759
708.980	0.0159177
709.058	0.0160567
709.136	0.0160979
709.215	0.0161353
709.293	0.0161083
709.371	0.0162006
709.449	0.0158978
709.527	0.0158671
709.605	0.0160378
709.683	0.0160133
709.761	0.0159813
709.840	0.0158070
709.918	0.0159169
709.996	0.0160725
710.074	0.0160278
710.152	0.0161197
710.230	0.0161913
710.308	0.0161895
710.386	0.0161292
710.465	0.0161230
710.543	0.0162118
710.621	0.0161597
710.699	0.0163131
710.777	0.0164891
710.855	0.0163847
710.933	0.0164112
711.011	0.0163872
711.090	0.0164302
711.168	0.0165886
711.246	0.0163852
711.324	0.0163731
711.402	0.0163655
711.480	0.0164588
711.558	0.0164937
711.636	0.0165619
711.715	0.0164139
711.793	0.0164867
711.871	0.0165638
711.949	0.0163849
712.027	0.0162512
712.105	0.0163115
712.183	0.0162112
712.261	0.0160847
712.340	0.0160290
712.418	0.0160240
712.496	0.0159287
712.574	0.0160104
712.652	0.0159030
712.730	0.0158546
712.808	0.0157941
712.886	0.0157072
712.965	0.0158190
713.043	0.0158322
713.121	0.0158949
713.199	0.0158272
713.277	0.0157807
713.355	0.0158736
713.433	0.0159100
713.511	0.0159660
713.590	0.0159000
713.668	0.0160533
713.746	0.0158976
713.824	0.0160448
713.902	0.0160815
713.980	0.0160628
714.058	0.0160188
714.136	0.0161763
714.215	0.0162452
714.293	0.0160190
714.371	0.0161315
714.449	0.0162094
714.527	0.0160721
714.605	0.0161352
714.683	0.0161153
714.761	0.0161355
714.840	0.0163544
714.918	0.0162029
714.996	0.0160722
715.074	0.0162244
715.152	0.0162920
715.230	0.0162427
715.308	0.0162363
715.386	0.0165501
715.465	0.0164408
715.543	0.0163692
715.621	0.0166113
715.699	0.0165276
715.777	0.0165497
715.855	0.0165473
715.933	0.0166145
716.011	0.0164709
716.090	0.0165607
716.168	0.0166068
716.246	0.0165126
716.324	0.0165733
716.402	0.0163712
716.480	0.0162702
716.558	0.0162637
716.636	0.0164314
716.715	0.0163943
716.793	0.0162307
716.871	0.0162608
716.949	0.0161161
717.027	0.0160706
717.105	0.0161253
717.183	0.0162411
717.261	0.0162638
717.340	0.0161974
717.418	0.0162625
717.496	0.0162649
717.574	0.0161530
717.652	0.0163086
717.730	0.0163038
717.808	0.0162281
717.886	0.0161225
717.965	0.0160797
718.043	0.0160633
718.121	0.0159867
718.199	0.0160315
718.277	0.0159554
718.355	0.0159100
718.433	0.0158566
718.511	0.0159468
718.590	0.0157858
718.668	0.0158899
718.746	0.0158836
718.824	0.0158762
718.902	0.0158126
718.980	0.0157475
719.058	0.0158109
719.136	0.0158008
719.215	0.0158067
719.293	0.0159546
719.371	0.0158263
719.449	0.0159670
719.527	0.0159197
719.605	0.0159583
719.683	0.0160584
719.761	0.0160437
719.840	0.0160111
719.918	0.0160744
719.996	0.0162957
720.074	0.0162137
720.152	0.0162983
720.230	0.0163948
720.308	0.0164612
720.386	0.0163297
720.465	0.0165211
720.543	0.0164754
720.621	0.0165641
720.699	0.0165873
720.777	0.0166746
720.855	0.0165444
720.933	0.0163763
721.011	0.0166290
721.090	0.0164620
721.168	0.0162695
721.246	0.0163438
721.324	0.0162804
721.402	0.0162034
721.480	0.0160792
721.558	0.0160197
721.636	0.0160067
721.715	0.0160284
721.793	0.0159580
721.871	0.0158205
721.949	0.0158591
722.027	0.0159615
722.105	0.0158143
722.183	0.0158545
722.261	0.0159913
722.340	0.0160681
722.418	0.0160719
722.496	0.0158879
722.574	0.0160992
722.652	0.0160732
722.730	0.0162640
722.808	0.0161095
722.886	0.0161914
722.965	0.0160922
723.043	0.0161996
723.121	0.0160739
723.199	0.0161347
723.277	0.0161660
723.355	0.0162074
723.433	0.0161810
723.511	0.0160291
723.590	0.0160486
723.668	0.0161951
723.746	0.0162868
723.824	0.0160520
723.902	0.0160562
723.980	0.0160497
724.058	0.0161687
724.136	0.0160937
724.215	0.0160538
724.293	0.0161079
724.371	0.0160368
724.449	0.0161571
724.527	0.0163354
724.605	0.0162266
724.683	0.0161835
724.761	0.0161678
724.840	0.0163697
724.918	0.0163689
724.996	0.0163787
725.074	0.0163831
725.152	0.0163286
725.230	0.0162849
725.308	0.0164684
725.386	0.0164452
725.465	0.0164527
725.543	0.0163454
725.621	0.0162934
725.699	0.0162850
725.777	0.0162691
725.855	0.0161645
725.933	0.0162298
726.011	0.0162161
726.090	0.0160852
726.168	0.0160377
726.246	0.0160616
726.324	0.0160699
726.402	0.0160246
726.480	0.0162132
726.558	0.0161068
726.636	0.0161557
726.715	0.0160747
726.793	0.0160371
726.871	0.0161008
726.949	0.0161860
727.027	0.0161627
727.105	0.0160872
727.183	0.0163184
727.261	0.0163680
727.340	0.0163595
727.418	0.0164417
727.496	0.0164767
727.574	0.0163664
727.652	0.0165479
727.730	0.0166119
727.808	0.0166815
727.886	0.0166101
727.965	0.0167347
728.043	0.0165134
728.121	0.0165417
728.199	0.0166730
728.277	0.0163969
728.355	0.0163539
728.433	0.0163605
728.511	0.0161620
728.590	0.0160867
728.668	0.0162249
728.746	0.0161028
728.824	0.0160665
728.902	0.0159425
728.980	0.0158877
729.058	0.0159354
729.136	0.0160558
729.215	0.0158982
729.293	0.0159176
729.371	0.0159868
729.449	0.0160104
729.527	0.0160644
729.605	0.0160791
729.683	0.0161629
729.761	0.0162526
729.840	0.0161635
729.918	0.0162901
729.996	0.0161879
730.074	0.0162734
730.152	0.0162505
730.230	0.0161836
730.308	0.0162981
730.386	0.0162109
730.465	0.0162853
730.543	0.0163224
730.621	0.0164236
730.699	0.0163362
730.777	0.0164748
730.855	0.0162568
730.933	0.0164374
731.011	0.0164365
731.090	0.0165132
731.168	0.0164414
731.246	0.0164500
731.324	0.0164841
731.402	0.0164008
731.480	0.0164764
731.558	0.0165092
731.636	0.0165092
731.715	0.0162740
731.793	0.0162112
731.871	0.0162888
731.949	0.0163409
732.027	0.0161678
732.105	0.0158466
732.183	0.0159975
732.261	0.0159808
732.340	0.0159689
732.418	0.0158144
732.496	0.0157495
732.574	0.0157558
732.652	0.0158418
732.730	0.0157932
732.808	0.0157885
732.886	0.0158685
732.965	0.0157800
733.043	0.0160242
733.121	0.0159267
733.199	0.0159418
733.277	0.0161811
733.355	0.0161446
733.433	0.0160615
733.511	0.0162254
733.590	0.0162669
733.668	0.0163431
733.746	0.0164219
733.824	0.0163985
733.902	0.0162248
733.980	0.0164513
734.058	0.0165150
734.136	0.0164215
734.215	0.0166956
734.293	0.0166309
734.371	0.0164770
734.449	0.0164764
734.527	0.0167016
734.605	0.0167158
734.683	0.0167402
734.761	0.0168269
734.840	0.0169143
734.918	0.0168153
734.996	0.0167946
735.074	0.0166902
735.152	0.0165664
735.230	0.0168023
735.308	0.0167923
735.386	0.0165888
735.465	0.0164919
735.543	0.0165611
735.621	0.0164236
735.699	0.0163608
735.777	0.0163908
735.855	0.0160364
735.933	0.0161060
736.011	0.0160790
736.090	0.0159784
736.168	0.0160008
736.246	0.0161677
736.324	0.0161055
736.402	0.0159153
736.480	0.0159538
736.558	0.0160323
736.636	0.0160510
736.715	0.0160605
736.793	0.0160461
736.871	0.0162500
736.949	0.0162276
737.027	0.0161826
737.105	0.0162184
737.183	0.0163200
737.261	0.0164262
737.340	0.0163669
737.418	0.0163505
737.496	0.0163116
737.574	0.0163070
737.652	0.0162060
737.730	0.0163063
737.808	0.0163515
737.886	0.0162697
737.965	0.0161491
738.043	0.0161675
738.121	0.0160540
738.199	0.0160422
738.277	0.0160484
738.355	0.0160860
738.433	0.0161846
738.511	0.0161563
738.590	0.0159721
738.668	0.0160368
738.746	0.0161363
738.824	0.0161191
738.902	0.0161454
738.980	0.0162002
739.058	0.0163749
739.136	0.0163004
739.215	0.0163659
739.293	0.0163202
739.371	0.0163950
739.449	0.0165073
739.527	0.0165291
739.605	0.0163912
739.683	0.0162870
739.761	0.0164655
739.840	0.0163779
739.918	0.0164394
739.996	0.0163937
740.074	0.0162585
740.152	0.0162695
740.230	0.0163741
740.308	0.0161049
740.386	0.0162167
740.465	0.0160845
740.543	0.0161211
740.621	0.0162779
740.699	0.0161678
740.777	0.0161607
740.855	0.0161134
740.933	0.0161462
741.011	0.0162162
741.090	0.0161788
741.168	0.0161509
741.246	0.0161037
741.324	0.0162769
741.402	0.0163882
741.480	0.0162864
741.558	0.0161389
741.636	0.0162743
741.715	0.0161681
741.793	0.0159955
741.871	0.0161018
741.949	0.0160058
742.027	0.0159601
742.105	0.0159396
742.183	0.0159894
742.261	0.0158461
742.340	0.0157653
742.418	0.0159294
742.496	0.0159042
742.574	0.0159435
742.652	0.0158829
742.730	0.0158745
742.808	0.0160428
742.886	0.0160316
742.965	0.0159682
743.043	0.0160372
743.121	0.0159718
743.199	0.0160608
743.277	0.0161764
743.355	0.0162601
743.433	0.0161664
743.511	0.0163103
743.590	0.0163367
743.668	0.0163770
743.746	0.0162663
743.824	0.0163467
743.902	0.0165707
743.980	0.0164865
744.058	0.0165259
744.136	0.0165132
744.215	0.0164885
744.293	0.0165723
744.371	0.0165723
744.449	0.0165423
744.527	0.0165700
744.605	0.0166220
744.683	0.0165658
744.761	0.0165328
744.840	0.0165041
744.918	0.0164362
744.996	0.0165482
745.074	0.0163665
745.152	0.0163807
745.230	0.0163091
745.308	0.0161909
745.386	0.0159908
745.465	0.0160265
745.543	0.0160789
745.621	0.0160288
745.699	0.0159564
745.777	0.0158737
745.855	0.0158934
745.933	0.0157552
746.011	0.0157134
746.090	0.0159859
746.168	0.0159524
746.246	0.0159232
746.324	0.0158060
746.402	0.0160571
746.480	0.0159134
746.558	0.0158083
746.636	0.0160392
746.715	0.0161143
746.793	0.0161019
746.871	0.0160883
746.949	0.0160789
747.027	0.0161190
747.105	0.0161810
747.183	0.0162096
747.261	0.0163841
747.340	0.0164555
747.418	0.0163867
747.496	0.0164888
747.574	0.0164327
747.652	0.0164304
747.730	0.0164704
747.808	0.0165878
747.886	0.0166296
747.965	0.0165323
748.043	0.0165415
748.121	0.0165112
748.199	0.0164122
748.277	0.0165130
748.355	0.0164092
748.433	0.0165010
748.511	0.0163708
748.590	0.0164843
748.668	0.0163721
748.746	0.0164127
748.824	0.0163310
748.902	0.0163589
748.980	0.0163406
749.058	0.0163321
749.136	0.0162663
749.215	0.0163810
749.293	0.0162482
749.371	0.0162728
749.449	0.0164396
749.527	0.0163557
749.605	0.0162590
749.683	0.0163287
749.761	0.0162733
749.840	0.0163535
749.918	0.0162807
749.996	0.0162937
750.074	0.0163747
750.152	0.0163763
750.230	0.0162349
750.308	0.0164728
750.386	0.0163471
750.465	0.0164621
750.543	0.0163928
750.621	0.0163687
750.699	0.0162637
750.777	0.0164613
750.855	0.0163297
750.933	0.0162560
751.011	0.0162899
751.090	0.0162906
751.168	0.0164516
751.246	0.0162646
751.324	0.0163750
751.402	0.0163013
751.480	0.0163413
751.558	0.0162618
751.636	0.0163018
751.715	0.0163487
751.793	0.0163639
751.871	0.0163437
751.949	0.0162167
752.027	0.0162325
752.105	0.0163954
752.183	0.0164151
752.261	0.0164735
752.340	0.0164383
752.418	0.0164095
752.496	0.0163074
752.574	0.0163567
752.652	0.0163998
752.730	0.0165359
752.808	0.0164722
752.886	0.0164142
752.965	0.0164529
753.043	0.0161932
753.121	0.0162031
753.199	0.0163379
753.277	0.0161093
753.355	0.0162505
753.433	0.0161593
753.511	0.0161037
753.590	0.0160420
753.668	0.0159756
753.746	0.0160806
753.824	0.0159367
753.902	0.0159651
753.980	0.0157973
754.058	0.0159021
754.136	0.0158950
754.215	0.0159386
754.293	0.0161317
754.371	0.0160682
754.449	0.0162366
754.527	0.0161728
754.605	0.0161658
754.683	0.0163022
754.761	0.0162027
754.840	0.0163508
754.918	0.0164465
754.996	0.0165688
755.074	0.0165845
755.152	0.0165482
755.230	0.0165794
755.308	0.0166675
755.386	0.0167099
755.465	0.0167472
755.543	0.0166689
755.621	0.0166217
755.699	0.0165517
755.777	0.0166756
755.855	0.0165607
755.933	0.0166329
756.011	0.0165314
756.090	0.0164047
756.168	0.0165140
756.246	0.0164455
756.324	0.0164078
756.402	0.0163631
756.480	0.0163342
756.558	0.0162807
756.636	0.0161552
756.715	0.0161764
756.793	0.0160947
756.871	0.0162144
756.949	0.0160668
757.027	0.0160580
757.105	0.0161593
757.183	0.0159441
757.261	0.0160616
757.340	0.0159195
757.418	0.0160621
757.496	0.0159763
757.574	0.0161302
757.652	0.0161070
757.730	0.0160693
757.808	0.0161199
757.886	0.0162444
757.965	0.0162449
758.043	0.0163365
758.121	0.0162314
758.199	0.0164995
758.277	0.0164703
758.355	0.0163985
758.433	0.0162286
758.511	0.0164035
758.590	0.0165681
758.668	0.0164017
758.746	0.0165150
758.824	0.0165820
758.902	0.0164893
758.980	0.0165620
759.058	0.0164668
759.136	0.0164276
759.215	0.0164495
759.293	0.0164635
759.371	0.0164046
759.449	0.0163334
759.527	0.0162154
759.605	0.0163775
759.683	0.0164188
759.761	0.0162837
759.840	0.0162341
759.918	0.0163156
759.996	0.0162439
760.074	0.0161885
760.152	0.0160641
760.230	0.0161331
760.308	0.0162519
760.386	0.0161684
760.465	0.0162007
760.543	0.0162276
760.621	0.0161734
760.699	0.0162221
760.777	0.0163109
760.855	0.0161825
760.933	0.0162917
761.011	0.0163003
761.090	0.0164188
761.168	0.0161923
761.246	0.0164005
761.324	0.0163592
761.402	0.0162685
761.480	0.0162597
761.558	0.0161985
761.636	0.0161604
761.715	0.0162389
761.793	0.0161472
761.871	0.0160250
761.949	0.0160978
762.027	0.0159904
762.105	0.0159422
762.183	0.0158933
762.261	0.0158508
762.340	0.0158549
762.418	0.0159350
762.496	0.0158540
762.574	0.0159716
762.652	0.0159388
762.730	0.0159062
762.808	0.0161292
762.886	0.0160262
762.965	0.0161351
763.043	0.0163617
763.121	0.0164507
763.199	0.0163644
763.277	0.0165421
763.355	0.0166086
763.433	0.0164591
763.511	0.0165400
763.590	0.0165030
763.668	0.0164867
763.746	0.0164478
763.824	0.0164525
763.902	0.0164616
763.980	0.0162882
764.058	0.0162051
764.136	0.0162640
764.215	0.0161861
764.293	0.0160538
764.371	0.0159389
764.449	0.0160645
764.527	0.0161250
764.605	0.0161169
764.683	0.0160696
764.761	0.0161565
764.840	0.0161086
764.918	0.0162761
764.996	0.0161555
765.074	0.0162746
765.152	0.0162424
765.230	0.0162572
765.308	0.0161214
765.386	0.0161617
765.465	0.0162313
765.543	0.0161743
765.621	0.0160884
765.699	0.0161329
765.777	0.0159071
765.855	0.0159480
765.933	0.0159401
766.011	0.0159404
766.090	0.0158855
766.168	0.0160380
766.246	0.0158222
766.324	0.0159541
766.402	0.0159283
766.480	0.0160823
766.558	0.0159758
766.636	0.0159958
766.715	0.0160668
766.793	0.0161781
766.871	0.0163541
766.949	0.0162487
767.027	0.0161516
767.105	0.0164109
767.183	0.0164850
767.261	0.0165912
767.340	0.0163113
767.418	0.0164579
767.496	0.0165123
767.574	0.0164949
767.652	0.0164265
767.730	0.0164279
767.808	0.0164899
767.886	0.0163893
767.965	0.0163777
768.043	0.0163517
768.121	0.0164309
768.199	0.0161391
768.277	0.0162653
768.355	0.0162174
768.433	0.0161400
768.511	0.0161707
768.590	0.0160603
768.668	0.0160406
768.746	0.0160329
768.824	0.0161425
768.902	0.0159915
768.980	0.0158180
769.058	0.0161114
769.136	0.0159423
769.215	0.0160032
769.293	0.0159184
769.371	0.0159564
769.449	0.0160374
769.527	0.0159747
769.605	0.0160189
769.683	0.0160570
769.761	0.0160915
769.840	0.0162998
769.918	0.0161856
769.996	0.0159116
770.074	0.0161642
770.152	0.0162318
770.230	0.0162301
770.308	0.0163252
770.386	0.0162189
770.465	0.0163693
770.543	0.0162597
770.621	0.0163741
770.699	0.0163798
770.777	0.0162254
770.855	0.0163437
770.933	0.0163020
771.011	0.0163400
771.090	0.0164706
771.168	0.0163646
771.246	0.0162711
771.324	0.0162396
771.402	0.0161366
771.480	0.0162782
771.558	0.0161649
771.636	0.0162340
771.715	0.0161613
771.793	0.0161703
771.871	0.0160913
771.949	0.0161897
772.027	0.0162109
772.105	0.0160852
772.183	0.0159549
772.261	0.0161796
772.340	0.0161815
772.418	0.0160518
772.496	0.0161320
772.574	0.0161495
772.652	0.0161597
772.730	0.0160905
772.808	0.0161884
772.886	0.0161185
772.965	0.0162358
773.043	0.0163365
773.121	0.0160556
773.199	0.0162830
773.277	0.0162117
773.355	0.0162967
773.433	0.0162541
773.511	0.0163306
773.590	0.0163513
773.668	0.0161899
773.746	0.0161868
773.824	0.0163790
773.902	0.0162508
773.980	0.0161438
774.058	0.0160447
774.136	0.0162490
774.215	0.0161688
774.293	0.0160986
774.371	0.0160914
774.449	0.0160313
774.527	0.0159487
774.605	0.0159791
774.683	0.0160426
774.761	0.0161494
774.840	0.0161340
774.918	0.0161097
774.996	0.0162469
775.074	0.0162850
775.152	0.0164172
775.230	0.0163160
775.308	0.0162650
775.386	0.0162964
775.465	0.0165745
775.543	0.0164745
775.621	0.0165102
775.699	0.0164339
775.777	0.0164658
775.855	0.0165560
775.933	0.0164462
776.011	0.0164202
776.090	0.0164776
776.168	0.0164384
776.246	0.0164306
776.324	0.0164095
776.402	0.0164211
776.480	0.0163277
776.558	0.0161971
776.636	0.0163886
776.715	0.0162440
776.793	0.0161905
776.871	0.0162147
776.949	0.0161909
777.027	0.0162272
777.105	0.0160476
777.183	0.0161929
777.261	0.0161104
777.340	0.0163443
777.418	0.0164038
777.496	0.0163069
777.574	0.0162637
777.652	0.0162810
777.730	0.0163405
777.808	0.0163779
777.886	0.0162756
777.965	0.0163258
778.043	0.0163424
778.121	0.0164328
778.199	0.0163704
778.277	0.0163163
778.355	0.0163264
778.433	0.0163873
778.511	0.0162066
778.590	0.0163274
778.668	0.0162663
778.746	0.0162781
778.824	0.0162486
778.902	0.0162987
778.980	0.0162037
779.058	0.0161472
779.136	0.0162685
779.215	0.0160814
779.293	0.0161439
779.371	0.0161774
779.449	0.0159990
779.527	0.0161108
779.605	0.0160874
779.683	0.0162038
779.761	0.0161427
779.840	0.0161461
779.918	0.0163128
779.996	0.0161739
780.074	0.0163419
780.152	0.0163928
780.230	0.0163575
780.308	0.0162590
780.386	0.0164207
780.465	0.0164426
780.543	0.0164006
780.621	0.0162923
780.699	0.0164004
780.777	0.0165047
780.855	0.0164807
780.933	0.0163335
781.011	0.0163885
781.090	0.0163659
781.168	0.0163188
781.246	0.0162296
781.324	0.0162739
781.402	0.0161878
781.480	0.0162617
781.558	0.0162118
781.636	0.0163004
781.715	0.0161848
781.793	0.0162323
781.871	0.0160883
781.949	0.0160886
782.027	0.0161744
782.105	0.0160600
782.183	0.0161684
782.261	0.0161502
782.340	0.0160221
782.418	0.0159951
782.496	0.0160935
782.574	0.0161630
782.652	0.0161710
782.730	0.0161005
782.808	0.0161256
782.886	0.0162094
782.965	0.0161987
783.043	0.0160862
783.121	0.0162800
783.199	0.0163564
783.277	0.0162890
783.355	0.0162070
783.433	0.0164159
783.511	0.0163836
783.590	0.0163444
783.668	0.0162526
783.746	0.0164543
783.824	0.0164732
783.902	0.0164934
783.980	0.0162572
784.058	0.0163734
784.136	0.0165455
784.215	0.0163293
784.293	0.0163499
784.371	0.0162873
784.449	0.0162868
784.527	0.0161584
784.605	0.0163567
784.683	0.0162023
784.761	0.0162215
784.840	0.0161717
784.918	0.0162334
784.996	0.0162401
785.074	0.0160647
785.152	0.0160799
785.230	0.0161767
785.308	0.0162866
785.386	0.0160204
785.465	0.0161545
785.543	0.0162544
785.621	0.0161633
785.699	0.0161560
785.777	0.0161610
785.855	0.0161041
785.933	0.0161429
786.011	0.0161029
786.090	0.0161977
786.168	0.0160841
786.246	0.0161444
786.324	0.0162717
786.402	0.0161952
786.480	0.0162318
786.558	0.0163358
786.636	0.0161497
786.715	0.0162375
786.793	0.0161679
786.871	0.0160431
786.949	0.0162681
787.027	0.0163525
787.105	0.0163850
787.183	0.0163802
787.261	0.0161384
787.340	0.0161604
787.418	0.0161755
787.496	0.0162156
787.574	0.0162089
787.652	0.0162186
787.730	0.0162225
787.808	0.0162588
787.886	0.0162696
787.965	0.0161407
788.043	0.0162523
788.121	0.0163430
788.199	0.0161787
788.277	0.0160796
788.355	0.0160774
788.433	0.0159326
788.511	0.0162093
788.590	0.0160819
788.668	0.0160598
788.746	0.0160507
788.824	0.0161222
788.902	0.0160831
788.980	0.0161179
789.058	0.0160573
789.136	0.0160930
789.215	0.0161336
789.293	0.0161584
789.371	0.0161151
789.449	0.0162963
789.527	0.0162240
789.605	0.0161491
789.683	0.0162452
789.761	0.0162583
789.840	0.0162356
789.918	0.0161589
789.996	0.0163264
790.074	0.0162585
790.152	0.0161327
790.230	0.0162635
790.308	0.0162817
790.386	0.0161144
790.465	0.0161755
790.543	0.0161986
790.621	0.0161531
790.699	0.0160499
790.777	0.0160154
790.855	0.0161397
790.933	0.0161441
791.011	0.0160879
791.090	0.0160349
791.168	0.0160772
791.246	0.0160272
791.324	0.0160542
791.402	0.0160008
791.480	0.0160363
791.558	0.0161109
791.636	0.0161871
791.715	0.0161488
791.793	0.0161427
791.871	0.0161697
791.949	0.0161599
792.027	0.0162251
792.105	0.0162342
792.183	0.0163483
792.261	0.0163377
792.340	0.0161873
792.418	0.0162564
792.496	0.0162873
792.574	0.0164085
792.652	0.0165247
792.730	0.0164243
792.808	0.0163851
792.886	0.0164003
792.965	0.0163406
793.043	0.0161745
793.121	0.0163122
793.199	0.0163382
793.277	0.0162548
793.355	0.0160570
793.433	0.0160918
793.511	0.0161674
793.590	0.0160677
793.668	0.0159753
793.746	0.0159459
793.824	0.0160333
793.902	0.0158544
793.980	0.0157472
794.058	0.0158153
794.136	0.0159416
794.215	0.0158874
794.293	0.0159016
794.371	0.0159335
794.449	0.0159932
794.527	0.0160082
794.605	0.0160653
794.683	0.0161301
794.761	0.0162137
794.840	0.0162737
794.918	0.0164096
794.996	0.0163441
795.074	0.0163078
795.152	0.0163270
795.230	0.0162215
795.308	0.0162994
795.386	0.0163396
795.465	0.0162237
795.543	0.0162755
795.621	0.0161775
795.699	0.0162948
795.777	0.0162247
795.855	0.0161266
795.933	0.0159791
796.011	0.0160014
796.090	0.0159127
796.168	0.0158900
796.246	0.0157631
796.324	0.0158327
796.402	0.0159283
796.480	0.0158620
796.558	0.0157705
796.636	0.0157780
796.715	0.0158107
796.793	0.0158888
796.871	0.0159217
796.949	0.0158936
797.027	0.0159447
797.105	0.0159792
797.183	0.0161587
797.261	0.0160996
797.340	0.0161917
797.418	0.0162783
797.496	0.0163419
797.574	0.0163455
797.652	0.0163489
797.730	0.0164888
797.808	0.0162902
797.886	0.0162313
797.965	0.0163970
798.043	0.0163925
798.121	0.0164671
798.199	0.0164291
798.277	0.0163696
798.355	0.0162643
798.433	0.0161684
798.511	0.0162537
798.590	0.0161327
798.668	0.0160044
798.746	0.0159438
798.824	0.0159245
798.902	0.0158613
798.980	0.0159569
799.058	0.0157822
799.136	0.0158005
799.215	0.0159766
799.293	0.0158954
799.371	0.0159363
799.449	0.0160370
799.527	0.0161409
799.605	0.0159911
799.683	0.0160733
799.761	0.0162051
799.840	0.0161641
799.918	0.0163057
799.996	0.0163861
800.074	0.0163984
800.152	0.0163863
800.230	0.0165446
800.308	0.0164603
800.386	0.0165356
800.465	0.0166232
800.543	0.0166712
800.621	0.0165228
800.699	0.0164785
800.777	0.0164740
800.855	0.0165422
800.933	0.0165308
801.011	0.0163591
801.090	0.0163696
801.168	0.0161414
801.246	0.0161581
801.324	0.0161609
801.402	0.0161882
801.480	0.0160621
801.558	0.0159943
801.636	0.0160186
801.715	0.0160511
801.793	0.0160594
801.871	0.0159588
801.949	0.0160418
802.027	0.0162268
802.105	0.0161275
802.183	0.0161361
802.261	0.0161130
802.340	0.0162104
802.418	0.0160677
802.496	0.0163008
802.574	0.0163438
802.652	0.0164079
802.730	0.0163473
802.808	0.0164114
802.886	0.0165782
802.965	0.0165493
803.043	0.0163196
803.121	0.0165298
803.199	0.0163859
803.277	0.0165073
803.355	0.0162850
803.433	0.0164662
803.511	0.0163798
803.590	0.0162516
803.668	0.0162422
803.746	0.0161823
803.824	0.0162050
803.902	0.0161340
803.980	0.0161025
804.058	0.0160573
804.136	0.0161452
804.215	0.0160901
804.293	0.0160541
804.371	0.0159940
804.449	0.0159888
804.527	0.0160777
804.605	0.0159401
804.683	0.0160142
804.761	0.0163071
804.840	0.0161690
804.918	0.0161573
804.996	0.0162658
805.074	0.0163758
805.152	0.0165218
805.230	0.0164408
805.308	0.0164630
805.386	0.0164703
805.465	0.0165305
805.543	0.0165318
805.621	0.0165810
805.699	0.0164561
805.777	0.0165331
805.855	0.0165264
805.933	0.0164580
806.011	0.0164169
806.090	0.0162981
806.168	0.0163010
806.246	0.0162518
806.324	0.0162589
806.402	0.0161292
806.480	0.0162165
806.558	0.0161353
806.636	0.0161302
806.715	0.0161691
806.793	0.0161594
806.871	0.0160861
806.949	0.0162134
807.027	0.0161639
807.105	0.0160130
807.183	0.0162262
807.261	0.0162162
807.340	0.0162559
807.418	0.0163818
807.496	0.0165121
807.574	0.0163956
807.652	0.0164385
807.730	0.0163989
807.808	0.0165287
807.886	0.0164207
807.965	0.0164718
808.043	0.0164838
808.121	0.0165996
808.199	0.0165192
808.277	0.0166528
808.355	0.0165327
808.433	0.0164559
808.511	0.0163930
808.590	0.0164482
808.668	0.0164617
808.746	0.0165152
808.824	0.0162773
808.902	0.0163317
808.980	0.0162686
809.058	0.0161411
809.136	0.0162411
809.215	0.0161901
809.293	0.0163225
809.371	0.0163203
809.449	0.0161909
809.527	0.0161728
809.605	0.0162102
809.683	0.0161471
809.761	0.0161743
809.840	0.0162683
809.918	0.0163084
809.996	0.0161983
810.074	0.0163020
810.152	0.0162274
810.230	0.0162866
810.308	0.0163409
810.386	0.0162977
810.465	0.0163395
810.543	0.0163338
810.621	0.0163891
810.699	0.0163392
810.777	0.0164037
810.855	0.0165168
810.933	0.0164387
811.011	0.0164683
811.090	0.0163811
811.168	0.0163667
811.246	0.0163829
811.324	0.0162233
811.402	0.0164199
811.480	0.0163735
811.558	0.0162750
811.636	0.0163593
811.715	0.0161249
811.793	0.0160806
811.871	0.0159976
811.949	0.0161720
812.027	0.0162325
812.105	0.0161063
812.183	0.0160937
812.261	0.0161271
812.340	0.0161511
812.418	0.0162170
812.496	0.0160905
812.574	0.0161299
812.652	0.0162051
812.730	0.0162431
812.808	0.0163960
812.886	0.0162325
812.965	0.0163957
813.043	0.0164283
813.121	0.0165234
813.199	0.0162971
813.277	0.0164915
813.355	0.0164829
813.433	0.0164664
813.511	0.0164809
813.590	0.0164457
813.668	0.0164458
813.746	0.0164229
813.824	0.0164344
813.902	0.0163475
813.980	0.0164141
814.058	0.0163252
814.136	0.0163753
814.215	0.0162791
814.293	0.0161838
814.371	0.0161192
814.449	0.0161887
814.527	0.0159743
814.605	0.0160493
814.683	0.0162034
814.761	0.0162012
814.840	0.0162106
814.918	0.0158939
814.996	0.0159298
815.074	0.0160303
815.152	0.0159621
815.230	0.0159444
815.308	0.0160403
815.386	0.0161764
815.465	0.0161223
815.543	0.0161943
815.621	0.0162363
815.699	0.0161608
815.777	0.0162968
815.855	0.0163657
815.933	0.0162369
816.011	0.0164585
816.090	0.0162691
816.168	0.0164256
816.246	0.0164956
816.324	0.0164485
816.402	0.0163435
816.480	0.0164130
816.558	0.0163847
816.636	0.0163030
816.715	0.0163220
816.793	0.0161683
816.871	0.0161295
816.949	0.0161455
817.027	0.0161848
817.105	0.0161243
817.183	0.0160363
817.261	0.0162121
817.340	0.0161188
817.418	0.0161171
817.496	0.0161005
817.574	0.0159808
817.652	0.0161958
817.730	0.0161652
817.808	0.0161691
817.886	0.0162288
817.965	0.0161684
818.043	0.0162023
818.121	0.0163015
818.199	0.0161545
818.277	0.0162289
818.355	0.0162891
818.433	0.0163687
818.511	0.0163863
818.590	0.0162644
818.668	0.0163174
818.746	0.0163844
818.824	0.0163862
818.902	0.0162843
818.980	0.0164045
819.058	0.0164117
819.136	0.0163577
819.215	0.0163698
819.293	0.0163520
819.371	0.0163248
819.449	0.0161111
819.527	0.0160503
819.605	0.0161024
819.683	0.0162077
819.761	0.0161266
819.840	0.0159155
819.918	0.0160541
819.996	0.0159753
820.074	0.0159326
820.152	0.0160044
820.230	0.0160436
820.308	0.0161452
820.386	0.0160570
820.465	0.0160692
820.543	0.0161064
820.621	0.0160344
820.699	0.0161286
820.777	0.0162624
820.855	0.0161979
820.933	0.0161829
821.011	0.0161840
821.090	0.0162404
821.168	0.0162733
821.246	0.0162099
821.324	0.0163341
821.402	0.0163109
821.480	0.0162532
821.558	0.0162600
821.636	0.0161882
821.715	0.0163260
821.793	0.0162711
821.871	0.0163160
821.949	0.0162300
822.027	0.0161536
822.105	0.0163007
822.183	0.0160265
822.261	0.0161234
822.340	0.0160966
822.418	0.0160432
822.496	0.0161172
822.574	0.0159084
822.652	0.0159127
822.730	0.0160530
822.808	0.0161655
822.886	0.0159377
822.965	0.0160609
823.043	0.0160260
823.121	0.0161341
823.199	0.0162000
823.277	0.0162893
823.355	0.0162529
823.433	0.0161151
823.511	0.0161869
823.590	0.0162942
823.668	0.0164204
823.746	0.0164098
823.824	0.0164935
823.902	0.0165248
823.980	0.0163812
824.058	0.0163647
824.136	0.0163611
824.215	0.0164926
824.293	0.0162392
824.371	0.0162354
824.449	0.0162257
824.527	0.0163274
824.605	0.0161631
824.683	0.0163000
824.761	0.0162338
824.840	0.0162154
824.918	0.0161959
824.996	0.0161259
825.074	0.0161346
825.152	0.0162006
825.230	0.0161752
825.308	0.0160176
825.386	0.0161367
825.465	0.0160062
825.543	0.0160426
825.621	0.0159611
825.699	0.0161604
825.777	0.0160899
825.855	0.0159787
825.933	0.0160403
826.011	0.0161390
826.090	0.0161580
826.168	0.0161210
826.246	0.0160735
826.324	0.0162251
826.402	0.0162020
826.480	0.0161408
826.558	0.0162353
826.636	0.0162096
826.715	0.0163332
826.793	0.0161205
826.871	0.0162508
826.949	0.0161823
827.027	0.0161869
827.105	0.0162448
827.183	0.0162749
827.261	0.0161261
827.340	0.0162322
827.418	0.0162743
827.496	0.0163576
827.574	0.0162441
827.652	0.0162663
827.730	0.0163239
827.808	0.0162461
827.886	0.0163607
827.965	0.0163288
828.043	0.0162667
828.121	0.0162036
828.199	0.0162788
828.277	0.0161965
828.355	0.0162408
828.433	0.0163181
828.511	0.0163536
828.590	0.0162459
828.668	0.0162269
828.746	0.0163274
828.824	0.0162977
828.902	0.0161288
828.980	0.0162104
829.058	0.0162125
829.136	0.0162887
829.215	0.0162334
829.293	0.0163288
829.371	0.0163200
829.449	0.0161893
829.527	0.0162075
829.605	0.0161990
829.683	0.0161641
829.761	0.0162342
829.840	0.0162399
829.918	0.0161607
829.996	0.0162761
830.074	0.0163473
830.152	0.0162839
830.230	0.0163472
830.308	0.0163589
830.386	0.0162350
830.465	0.0162862
830.543	0.0164006
830.621	0.0162690
830.699	0.0163568
830.777	0.0162558
830.855	0.0161810
830.933	0.0163132
831.011	0.0163344
831.090	0.0164317
831.168	0.0163716
831.246	0.0163162
831.324	0.0164342
831.402	0.0165343
831.480	0.0166921
831.558	0.0164909
831.636	0.0163833
831.715	0.0166010
831.793	0.0166245
831.871	0.0164580
831.949	0.0164697
832.027	0.0163860
832.105	0.0163789
832.183	0.0164333
832.261	0.0163220
832.340	0.0163668
832.418	0.0163651
832.496	0.0163644
832.574	0.0163821
832.652	0.0162658
832.730	0.0162962
832.808	0.0161221
832.886	0.0161761
832.965	0.0162876
833.043	0.0163239
833.121	0.0163087
833.199	0.0162798
833.277	0.0161562
833.355	0.0161167
833.433	0.0160497
833.511	0.0161618
833.590	0.0162785
833.668	0.0162363
833.746	0.0161765
833.824	0.0162397
833.902	0.0161289
833.980	0.0160925
834.058	0.0162343
834.136	0.0163215
834.215	0.0162841
834.293	0.0163918
834.371	0.0163205
834.449	0.0164415
834.527	0.0162858
834.605	0.0163846
834.683	0.0163224
834.761	0.0162734
834.840	0.0164282
834.918	0.0164157
834.996	0.0164754
835.074	0.0164365
835.152	0.0163336
835.230	0.0162552
835.308	0.0164156
835.386	0.0164244
835.465	0.0164172
835.543	0.0164510
835.621	0.0165208
835.699	0.0163261
835.777	0.0164194
835.855	0.0164460
835.933	0.0164009
836.011	0.0164406
836.090	0.0164449
836.168	0.0164560
836.246	0.0162652
836.324	0.0162469
836.402	0.0163060
836.480	0.0163308
836.558	0.0162528
836.636	0.0163544
836.715	0.0163355
836.793	0.0162688
836.871	0.0163426
836.949	0.0164333
837.027	0.0164114
837.105	0.0163637
837.183	0.0165672
837.261	0.0164449
837.340	0.0163752
837.418	0.0163522
837.496	0.0164618
837.574	0.0164094
837.652	0.0162623
837.730	0.0162592
837.808	0.0163278
837.886	0.0165039
837.965	0.0163262
838.043	0.0162622
838.121	0.0162920
838.199	0.0163344
838.277	0.0163090
838.355	0.0162020
838.433	0.0161509
838.511	0.0162044
838.590	0.0163031
838.668	0.0161133
838.746	0.0162182
838.824	0.0161409
838.902	0.0161819
838.980	0.0160225
839.058	0.0161099
839.136	0.0161502
839.215	0.0162123
839.293	0.0160686
839.371	0.0162178
839.449	0.0161708
839.527	0.0162525
839.605	0.0163171
839.683	0.0162129
839.761	0.0163217
839.840	0.0162240
839.918	0.0163818
839.996	0.0163634
840.074	0.0164406
840.152	0.0165269
840.230	0.0164196
840.308	0.0165253
840.386	0.0164191
840.465	0.0163335
840.543	0.0164475
840.621	0.0163493
840.699	0.0162967
840.777	0.0162826
840.855	0.0162913
840.933	0.0163269
841.011	0.0163291
841.090	0.0162202
841.168	0.0161410
841.246	0.0161578
841.324	0.0161839
841.402	0.0161382
841.480	0.0161636
841.558	0.0162756
841.636	0.0161398
841.715	0.0160210
841.793	0.0161383
841.871	0.0160452
841.949	0.0161845
842.027	0.0161813
842.105	0.0161094
842.183	0.0161087
842.261	0.0162787
842.340	0.0162309
842.418	0.0161149
842.496	0.0161973
842.574	0.0161555
842.652	0.0161208
842.730	0.0161908
842.808	0.0161357
842.886	0.0162480
842.965	0.0162351
843.043	0.0161996
843.121	0.0161942
843.199	0.0159784
843.277	0.0161485
843.355	0.0161279
843.433	0.0161905
843.511	0.0160313
843.590	0.0160060
843.668	0.0160623
843.746	0.0162622
843.824	0.0162064
843.902	0.0160474
843.980	0.0161160
844.058	0.0160539
844.136	0.0162598
844.215	0.0162347
844.293	0.0160806
844.371	0.0161485
844.449	0.0160445
844.527	0.0161793
844.605	0.0160932
844.683	0.0162283
844.761	0.0161777
844.840	0.0161246
844.918	0.0161501
844.996	0.0161777
845.074	0.0161098
845.152	0.0162492
845.230	0.0161031
845.308	0.0162794
845.386	0.0162136
845.465	0.0162025
845.543	0.0163071
845.621	0.0163078
845.699	0.0162307
845.777	0.0161534
845.855	0.0160498
845.933	0.0161934
846.011	0.0162001
846.090	0.0160298
846.168	0.0162334
846.246	0.0160938
846.324	0.0160240
846.402	0.0160535
846.480	0.0160267
846.558	0.0160880
846.636	0.0160799
846.715	0.0159808
846.793	0.0160069
846.871	0.0161643
846.949	0.0160530
847.027	0.0160185
847.105	0.0161021
847.183	0.0161967
847.261	0.0161552
847.340	0.0161362
847.418	0.0163325
847.496	0.0161996
847.574	0.0161796
847.652	0.0162012
847.730	0.0162621
847.808	0.0164602
847.886	0.0163464
847.965	0.0164938
848.043	0.0164017
848.121	0.0162905
848.199	0.0165724
848.277	0.0164259
848.355	0.0164945
848.433	0.0163874
848.511	0.0165597
848.590	0.0162766
848.668	0.0164968
848.746	0.0164194
848.824	0.0163714
848.902	0.0162910
848.980	0.0163174
849.058	0.0162920
849.136	0.0164009
849.215	0.0161689
849.293	0.0160114
849.371	0.0161266
849.449	0.0161283
849.527	0.0162024
849.605	0.0160916
849.683	0.0161057
849.761	0.0162147
849.840	0.0159768
849.918	0.0160225
849.996	0.0161075
850.074	0.0160743
850.152	0.0160130
850.230	0.0161416
850.308	0.0162294
850.386	0.0162574
850.465	0.0161540
850.543	0.0161326
850.621	0.0162701
850.699	0.0164693
850.777	0.0162568
850.855	0.0162094
850.933	0.0162031
851.011	0.0163183
851.090	0.0162073
851.168	0.0161902
851.246	0.0160857
851.324	0.0162092
851.402	0.0160617
851.480	0.0162041
851.558	0.0162420
851.636	0.0160385
851.715	0.0161101
851.793	0.0161425
851.871	0.0160450
851.949	0.0162261
852.027	0.0160950
852.105	0.0160972
852.183	0.0161006
852.261	0.0161991
852.340	0.0160957
852.418	0.0161442
852.496	0.0161719
852.574	0.0161653
852.652	0.0162683
852.730	0.0161707
852.808	0.0162093
852.886	0.0162482
852.965	0.0162151
853.043	0.0161331
853.121	0.0162952
853.199	0.0162663
853.277	0.0162868
853.355	0.0163203
853.433	0.0163764
853.511	0.0162859
853.590	0.0163192
853.668	0.0163811
853.746	0.0163974
853.824	0.0162843
853.902	0.0162907
853.980	0.0164110
854.058	0.0161602
854.136	0.0162445
854.215	0.0161587
854.293	0.0162042
854.371	0.0162357
854.449	0.0161806
854.527	0.0161360
854.605	0.0161680
854.683	0.0162301
854.761	0.0161331
854.840	0.0161037
854.918	0.0161619
854.996	0.0161282
855.074	0.0160487
855.152	0.0161281
855.230	0.0162154
855.308	0.0161721
855.386	0.0162009
855.465	0.0161729
855.543	0.0160935
855.621	0.0162083
855.699	0.0162558
855.777	0.0160728
855.855	0.0162794
855.933	0.0163015
856.011	0.0162298
856.090	0.0161310
856.168	0.0162822
856.246	0.0163412
856.324	0.0162230
856.402	0.0163114
856.480	0.0163232
856.558	0.0162914
856.636	0.0163940
856.715	0.0162463
856.793	0.0164662
856.871	0.0163766
856.949	0.0164038
857.027	0.0165094
857.105	0.0163503
857.183	0.0164359
857.261	0.0162819
857.340	0.0163293
857.418	0.0164131
857.496	0.0163776
857.574	0.0162285
857.652	0.0161725
857.730	0.0161326
857.808	0.0162224
857.886	0.0161219
857.965	0.0161674
858.043	0.0162372
858.121	0.0162510
858.199	0.0161892
858.277	0.0161453
858.355	0.0162856
858.433	0.0161140
858.511	0.0161202
858.590	0.0161658
858.668	0.0161709
858.746	0.0161581
858.824	0.0162113
858.902	0.0162601
858.980	0.0161328
859.058	0.0163085
859.136	0.0161618
859.215	0.0163570
859.293	0.0163057
859.371	0.0164241
859.449	0.0163044
859.527	0.0163467
859.605	0.0161850
859.683	0.0162561
859.761	0.0163187
859.840	0.0162853
859.918	0.0162563
859.996	0.0162181
860.074	0.0162507
860.152	0.0161139
860.230	0.0161931
860.308	0.0162363
860.386	0.0161780
860.465	0.0162287
860.543	0.0161848
860.621	0.0160533
860.699	0.0160686
860.777	0.0162122
860.855	0.0161912
860.933	0.0161406
861.011	0.0161550
861.090	0.0162848
861.168	0.0163515
861.246	0.0163554
861.324	0.0162034
861.402	0.0162486
861.480	0.0164523
861.558	0.0163640
861.636	0.0163170
861.715	0.0162421
861.793	0.0162223
861.871	0.0163178
861.949	0.0163291
862.027	0.0162281
862.105	0.0162242
862.183	0.0161818
862.261	0.0160917
862.340	0.0161093
862.418	0.0161448
862.496	0.0160942
862.574	0.0161906
862.652	0.0162340
862.730	0.0161353
862.808	0.0161773
862.886	0.0162249
862.965	0.0161823
863.043	0.0161325
863.121	0.0160688
863.199	0.0162659
863.277	0.0161632
863.355	0.0162593
863.433	0.0162964
863.511	0.0163189
863.590	0.0162260
863.668	0.0163531
863.746	0.0163673
863.824	0.0161904
863.902	0.0162251
863.980	0.0162396
864.058	0.0162146
864.136	0.0162735
864.215	0.0161860
864.293	0.0162225
864.371	0.0162772
864.449	0.0162013
864.527	0.0162659
864.605	0.0162488
864.683	0.0161210
864.761	0.0161566
864.840	0.0161967
864.918	0.0163213
864.996	0.0161809
865.074	0.0161598
865.152	0.0162041
865.230	0.0160477
865.308	0.0161036
865.386	0.0161335
865.465	0.0161951
865.543	0.0161977
865.621	0.0162424
865.699	0.0161664
865.777	0.0159956
865.855	0.0162437
865.933	0.0161002
866.011	0.0161156
866.090	0.0161591
866.168	0.0161290
866.246	0.0160323
866.324	0.0161066
866.402	0.0160858
866.480	0.0162172
866.558	0.0160446
866.636	0.0161413
866.715	0.0160352
866.793	0.0160920
866.871	0.0162585
866.949	0.0160826
867.027	0.0162080
867.105	0.0161775
867.183	0.0161735
867.261	0.0163103
867.340	0.0162563
867.418	0.0161431
867.496	0.0161963
867.574	0.0162449
867.652	0.0162552
867.730	0.0162116
867.808	0.0162721
867.886	0.0162056
867.965	0.0161961
868.043	0.0162289
868.121	0.0162490
868.199	0.0162672
868.277	0.0162275
868.355	0.0161568
868.433	0.0162594
868.511	0.0160284
868.590	0.0161609
868.668	0.0162376
868.746	0.0162782
868.824	0.0162097
868.902	0.0161789
868.980	0.0162823
869.058	0.0163335
869.136	0.0161864
869.215	0.0162594
869.293	0.0163403
869.371	0.0164167
869.449	0.0162490
869.527	0.0162331
869.605	0.0162987
869.683	0.0163440
869.761	0.0163209
869.840	0.0163769
869.918	0.0162646
869.996	0.0163330
870.074	0.0161646
870.152	0.0163012
870.230	0.0162073
870.308	0.0163696
870.386	0.0162533
870.465	0.0160616
870.543	0.0161482
870.621	0.0160571
870.699	0.0162050
870.777	0.0160497
870.855	0.0158717
870.933	0.0160967
871.011	0.0160177
871.090	0.0160560
871.168	0.0161089
871.246	0.0160595
871.324	0.0160113
871.402	0.0160862
871.480	0.0163896
871.558	0.0163706
871.636	0.0163017
871.715	0.0163094
871.793	0.0163583
871.871	0.0161951
871.949	0.0163844
872.027	0.0164121
872.105	0.0165538
872.183	0.0163871
872.261	0.0164403
872.340	0.0163873
872.418	0.0163493
872.496	0.0163217
872.574	0.0164263
872.652	0.0165366
872.730	0.0164317
872.808	0.0164565
872.886	0.0163942
872.965	0.0162402
873.043	0.0162811
873.121	0.0162525
873.199	0.0163393
873.277	0.0162287
873.355	0.0161833
873.433	0.0162586
873.511	0.0162873
873.590	0.0163923
873.668	0.0163456
873.746	0.0163784
873.824	0.0161475
873.902	0.0161469
873.980	0.0162924
874.058	0.0163045
874.136	0.0162959
874.215	0.0163553
874.293	0.0163064
874.371	0.0162954
874.449	0.0162469
874.527	0.0161892
874.605	0.0162973
874.683	0.0162799
874.761	0.0161585
874.840	0.0162866
874.918	0.0161810
874.996	0.0162466
875.074	0.0161536
875.152	0.0161292
875.230	0.0160839
875.308	0.0162759
875.386	0.0163421
875.465	0.0161416
875.543	0.0160297
875.621	0.0161501
875.699	0.0162280
875.777	0.0161413
875.855	0.0162248
875.933	0.0161451
876.011	0.0162096
876.090	0.0162146
876.168	0.0161519
876.246	0.0162557
876.324	0.0162402
876.402	0.0162265
876.480	0.0161820
876.558	0.0161469
876.636	0.0163664
876.715	0.0162102
876.793	0.0162536
876.871	0.0161504
876.949	0.0162614
877.027	0.0162112
877.105	0.0160622
877.183	0.0161774
877.261	0.0160696
877.340	0.0161221
877.418	0.0162649
877.496	0.0159915
877.574	0.0160971
877.652	0.0161444
877.730	0.0160799
877.808	0.0161366
877.886	0.0161419
877.965	0.0161703
878.043	0.0161707
878.121	0.0162136
878.199	0.0161018
878.277	0.0161162
878.355	0.0162731
878.433	0.0161317
878.511	0.0161597
878.590	0.0161252
878.668	0.0161533
878.746	0.0161518
878.824	0.0160468
878.902	0.0161732
878.980	0.0160143
879.058	0.0160728
879.136	0.0159949
879.215	0.0160419
879.293	0.0159571
879.371	0.0161462
879.449	0.0161208
879.527	0.0161337
879.605	0.0160930
879.683	0.0161104
879.761	0.0161403
879.840	0.0162030
879.918	0.0162062
879.996	0.0160984
880.074	0.0162511
880.152	0.0162795
880.230	0.0161853
880.308	0.0161723
880.386	0.0162155
880.465	0.0162471
880.543	0.0162344
880.621	0.0163921
880.699	0.0161328
880.777	0.0161369
880.855	0.0163452
880.933	0.0161311
881.011	0.0161735
881.090	0.0161417
881.168	0.0161174
881.246	0.0161757
881.324	0.0161482
881.402	0.0161771
881.480	0.0160573
881.558	0.0161784
881.636	0.0160131
881.715	0.0160405
881.793	0.0161359
881.871	0.0160332
881.949	0.0161044
882.027	0.0161989
882.105	0.0161597
882.183	0.0161993
882.261	0.0161284
882.340	0.0161478
882.418	0.0161809
882.496	0.0161758
882.574	0.0162624
882.652	0.0162527
882.730	0.0162483
882.808	0.0161650
882.886	0.0161315
882.965	0.0162356
883.043	0.0162143
883.121	0.0162041
883.199	0.0160362
883.277	0.0160639
883.355	0.0161216
883.433	0.0162376
883.511	0.0161480
883.590	0.0160584
883.668	0.0160736
883.746	0.0159957
883.824	0.0159153
883.902	0.0160587
883.980	0.0161412
884.058	0.0160521
884.136	0.0159488
884.215	0.0158910
884.293	0.0161865
884.371	0.0161425
884.449	0.0159767
884.527	0.0161108
884.605	0.0161658
884.683	0.0160976
884.761	0.0162057
884.840	0.0161408
884.918	0.0161854
884.996	0.0160915
885.074	0.0162737
885.152	0.0160991
885.230	0.0161263
885.308	0.0161672
885.386	0.0161150
885.465	0.0161949
885.543	0.0161382
885.621	0.0161652
885.699	0.0162728
885.777	0.0161473
885.855	0.0159930
885.933	0.0162362
886.011	0.0161343
886.090	0.0160968
886.168	0.0161862
886.246	0.0161828
886.324	0.0162321
886.402	0.0161391
886.480	0.0162801
886.558	0.0161810
886.636	0.0161158
886.715	0.0163097
886.793	0.0162773
886.871	0.0161910
886.949	0.0162141
887.027	0.0164220
887.105	0.0162150
887.183	0.0162537
887.261	0.0163272
887.340	0.0162635
887.418	0.0164804
887.496	0.0163170
887.574	0.0163213
887.652	0.0165392
887.730	0.0164061
887.808	0.0163861
887.886	0.0165358
887.965	0.0164231
888.043	0.0164188
888.121	0.0163615
888.199	0.0163954
888.277	0.0165196
888.355	0.0165618
888.433	0.0163615
888.511	0.0163954
888.590	0.0163181
888.668	0.0164489
888.746	0.0163195
888.824	0.0162749
888.902	0.0164910
888.980	0.0164973
889.058	0.0164825
889.136	0.0165367
889.215	0.0163177
889.293	0.0162691
889.371	0.0163280
889.449	0.0164319
889.527	0.0163928
889.605	0.0161507
889.683	0.0162125
889.761	0.0163392
889.840	0.0162202
889.918	0.0162826
889.996	0.0162524
890.074	0.0162255
890.152	0.0162752
890.230	0.0162444
890.308	0.0162035
890.386	0.0164109
890.465	0.0163036
890.543	0.0163354
890.621	0.0161680
890.699	0.0161954
890.777	0.0163066
890.855	0.0162693
890.933	0.0161736
891.011	0.0162167
891.090	0.0161889
891.168	0.0163401
891.246	0.0162658
891.324	0.0161611
891.402	0.0162101
891.480	0.0161864
891.558	0.0162165
891.636	0.0159448
891.715	0.0160668
891.793	0.0161137
891.871	0.0162408
891.949	0.0160716
892.027	0.0160101
892.105	0.0161830
892.183	0.0161709
892.261	0.0161121
892.340	0.0160211
892.418	0.0161928
892.496	0.0161861
892.574	0.0160869
892.652	0.0160801
892.730	0.0160458
892.808	0.0162437
892.886	0.0162352
892.965	0.0161427
893.043	0.0161958
893.121	0.0161166
893.199	0.0161948
893.277	0.0161813
893.355	0.0162931
893.433	0.0162813
893.511	0.0163372
893.590	0.0161816
893.668	0.0161900
893.746	0.0162027
893.824	0.0162637
893.902	0.0160930
893.980	0.0161208
894.058	0.0160158
894.136	0.0161745
894.215	0.0161678
894.293	0.0160603
894.371	0.0160747
894.449	0.0160290
894.527	0.0160523
894.605	0.0160609
894.683	0.0160246
894.761	0.0160158
894.840	0.0161665
894.918	0.0160699
894.996	0.0161700
895.074	0.0161565
895.152	0.0160812
895.230	0.0162132
895.308	0.0162016
895.386	0.0163585
895.465	0.0162646
895.543	0.0163327
895.621	0.0162179
895.699	0.0162920
895.777	0.0163915
895.855	0.0164439
895.933	0.0163026
896.011	0.0162885
896.090	0.0163020
896.168	0.0163303
896.246	0.0163194
896.324	0.0163822
896.402	0.0163332
896.480	0.0162444
896.558	0.0163030
896.636	0.0161661
896.715	0.0162598
896.793	0.0162506
896.871	0.0162886
896.949	0.0163464
897.027	0.0161772
897.105	0.0162257
897.183	0.0162014
897.261	0.0162447
897.340	0.0162420
897.418	0.0161032
897.496	0.0163166
897.574	0.0162313
897.652	0.0163039
897.730	0.0163181
897.808	0.0162743
897.886	0.0163165
897.965	0.0160781
898.043	0.0162633
898.121	0.0162337
898.199	0.0161096
898.277	0.0160842
898.355	0.0161272
898.433	0.0160437
898.511	0.0161722
898.590	0.0162444
898.668	0.0160381
898.746	0.0161287
898.824	0.0161063
898.902	0.0161958
898.980	0.0161311
899.058	0.0159822
899.136	0.0161163
899.215	0.0161366
899.293	0.0161061
899.371	0.0160596
899.449	0.0160413
899.527	0.0160129
899.605	0.0161448
899.683	0.0160812
899.761	0.0159899
899.840	0.0160737
899.918	0.0161934
899.996	0.0160543
900.074	0.0161439
900.152	0.0160286
900.230	0.0161535
900.308	0.0161703
900.386	0.0160529
900.465	0.0161650
900.543	0.0162289
900.621	0.0161900
900.699	0.0161520
900.777	0.0161610
900.855	0.0162751
900.933	0.0162889
901.011	0.0161173
901.090	0.0163063
901.168	0.0162202
901.246	0.0162123
901.324	0.0162715
901.402	0.0162694
901.480	0.0161703
901.558	0.0163210
901.636	0.0163933
901.715	0.0163526
901.793	0.0163218
901.871	0.0162440
901.949	0.0162097
902.027	0.0162904
902.105	0.0162908
902.183	0.0163266
902.261	0.0162195
902.340	0.0162854
902.418	0.0163553
902.496	0.0161192
902.574	0.0162984
902.652	0.0162345
902.730	0.0161353
902.808	0.0162031
902.886	0.0161713
902.965	0.0161825
903.043	0.0163094
903.121	0.0163182
903.199	0.0162811
903.277	0.0163509
903.355	0.0163291
903.433	0.0162354
903.511	0.0163183
903.590	0.0162733
903.668	0.0163139
903.746	0.0161944
903.824	0.0163612
903.902	0.0164345
903.980	0.0162418
904.058	0.0162915
904.136	0.0162861
904.215	0.0161436
904.293	0.0162981
904.371	0.0162291
904.449	0.0163879
904.527	0.0164584
904.605	0.0163996
904.683	0.0163026
904.761	0.0164643
904.840	0.0163219
904.918	0.0164133
904.996	0.0163738
905.074	0.0162827
905.152	0.0162618
905.230	0.0162840
905.308	0.0163035
905.386	0.0162751
905.465	0.0163285
905.543	0.0164658
905.621	0.0164223
905.699	0.0163386
905.777	0.0163599
905.855	0.0163975
905.933	0.0163359
906.011	0.0164280
906.090	0.0163448
906.168	0.0162885
906.246	0.0162701
906.324	0.0163366
906.402	0.0164006
906.480	0.0162159
906.558	0.0162891
906.636	0.0160691
906.715	0.0161359
906.793	0.0160896
906.871	0.0162080
906.949	0.0160502
907.027	0.0162457
907.105	0.0162769
907.183	0.0160240
907.261	0.0161492
907.340	0.0163057
907.418	0.0162903
907.496	0.0161723
907.574	0.0161446
907.652	0.0161556
907.730	0.0161432
907.808	0.0161644
907.886	0.0162140
907.965	0.0162073
908.043	0.0162254
908.121	0.0162222
908.199	0.0163934
908.277	0.0162696
908.355	0.0163519
908.433	0.0163443
908.511	0.0162795
908.590	0.0163161
908.668	0.0162114
908.746	0.0161138
908.824	0.0162105
908.902	0.0162352
908.980	0.0161570
909.058	0.0161118
909.136	0.0162133
909.215	0.0160896
909.293	0.0161086
909.371	0.0160727
909.449	0.0161353
909.527	0.0160710
909.605	0.0160071
909.683	0.0162368
909.761	0.0162043
909.840	0.0162048
909.918	0.0161718
909.996	0.0161716
910.074	0.0160065
910.152	0.0161425
910.230	0.0161975
910.308	0.0162556
910.386	0.0162337
910.465	0.0162234
910.543	0.0162926
910.621	0.0163013
910.699	0.0161660
910.777	0.0162517
910.855	0.0161409
910.933	0.0161808
911.011	0.0162882
911.090	0.0161916
911.168	0.0161462
911.246	0.0161962
911.324	0.0162734
911.402	0.0161732
911.480	0.0162200
911.558	0.0162005
911.636	0.0162059
911.715	0.0163377
911.793	0.0162178
911.871	0.0162602
911.949	0.0164340
912.027	0.0163086
912.105	0.0162758
912.183	0.0163821
912.261	0.0164349
912.340	0.0163621
912.418	0.0164449
912.496	0.0163284
912.574	0.0163911
912.652	0.0164535
912.730	0.0165101
912.808	0.0162841
912.886	0.0162955
912.965	0.0162682
913.043	0.0162994
913.121	0.0163642
913.199	0.0162702
913.277	0.0162459
913.355	0.0163425
913.433	0.0162957
913.511	0.0163264
913.590	0.0163248
913.668	0.0163419
913.746	0.0162406
913.824	0.0164098
913.902	0.0162494
913.980	0.0164295
914.058	0.0164061
914.136	0.0163585
914.215	0.0164673
914.293	0.0163638
914.371	0.0162700
914.449	0.0163369
914.527	0.0162972
914.605	0.0164646
914.683	0.0162901
914.761	0.0162801
914.840	0.0162213
914.918	0.0162386
914.996	0.0162586
915.074	0.0162254
915.152	0.0163309
915.230	0.0162167
915.308	0.0162315
915.386	0.0160872
915.465	0.0161229
915.543	0.0162018
915.621	0.0162222
915.699	0.0162363
915.777	0.0161607
915.855	0.0161763
915.933	0.0162709
916.011	0.0164081
916.090	0.0163139
916.168	0.0163756
916.246	0.0162695
916.324	0.0162629
916.402	0.0163990
916.480	0.0162762
916.558	0.0162051
916.636	0.0163599
916.715	0.0163588
916.793	0.0163183
916.871	0.0161648
916.949	0.0162910
917.027	0.0161027
917.105	0.0160588
917.183	0.0160587
917.261	0.0162113
917.340	0.0162595
917.418	0.0162618
917.496	0.0161472
917.574	0.0161938
917.652	0.0160725
917.730	0.0159710
917.808	0.0160778
917.886	0.0161149
917.965	0.0161584
918.043	0.0162411
918.121	0.0161281
918.199	0.0161455
918.277	0.0160519
918.355	0.0160074
918.433	0.0160551
918.511	0.0161098
918.590	0.0160770
918.668	0.0160638
918.746	0.0160684
918.824	0.0161557
918.902	0.0159417
918.980	0.0160682
919.058	0.0160902
919.136	0.0161286
919.215	0.0161515
919.293	0.0159744
919.371	0.0161208
919.449	0.0159535
919.527	0.0161628
919.605	0.0160246
919.683	0.0158750
919.761	0.0159628
919.840	0.0161451
919.918	0.0161973
919.996	0.0160493
920.074	0.0160106
920.152	0.0161218
920.230	0.0160526
920.308	0.0160585
920.386	0.0161671
920.465	0.0159755
920.543	0.0161852
920.621	0.0162072
920.699	0.0161251
920.777	0.0162112
920.855	0.0161210
920.933	0.0161326
921.011	0.0161865
921.090	0.0161243
921.168	0.0162344
921.246	0.0162226
921.324	0.0162762
921.402	0.0162733
921.480	0.0162621
921.558	0.0162787
921.636	0.0162102
921.715	0.0162965
921.793	0.0162524
921.871	0.0162849
921.949	0.0161294
922.027	0.0162556
922.105	0.0161112
922.183	0.0161396
922.261	0.0161615
922.340	0.0160510
922.418	0.0162268
922.496	0.0162072
922.574	0.0161713
922.652	0.0160596
922.730	0.0161198
922.808	0.0160292
922.886	0.0160950
922.965	0.0161249
923.043	0.0162103
923.121	0.0160860
923.199	0.0161375
923.277	0.0162235
923.355	0.0162370
923.433	0.0162328
923.511	0.0162784
923.590	0.0161048
923.668	0.0162663
923.746	0.0161651
923.824	0.0162017
923.902	0.0163657
923.980	0.0160852
924.058	0.0160770
924.136	0.0161402
924.215	0.0160916
924.293	0.0159523
924.371	0.0161966
924.449	0.0160775
924.527	0.0162395
924.605	0.0161894
924.683	0.0161864
924.761	0.0162009
924.840	0.0162356
924.918	0.0162081
924.996	0.0162584
925.074	0.0162450
925.152	0.0162177
925.230	0.0161306
925.308	0.0162361
925.386	0.0163288
925.465	0.0162158
925.543	0.0162805
925.621	0.0162421
925.699	0.0162335
925.777	0.0163086
925.855	0.0163814
925.933	0.0161768
926.011	0.0162972
926.090	0.0162646
926.168	0.0162386
926.246	0.0162375
926.324	0.0160824
926.402	0.0161393
926.480	0.0163435
926.558	0.0162816
926.636	0.0162561
926.715	0.0161706
926.793	0.0161766
926.871	0.0161947
926.949	0.0162951
927.027	0.0161378
927.105	0.0162617
927.183	0.0161685
927.261	0.0161575
927.340	0.0161800
927.418	0.0162415
927.496	0.0163725
927.574	0.0162844
927.652	0.0161265
927.730	0.0160704
927.808	0.0162266
927.886	0.0161653
927.965	0.0162334
928.043	0.0162147
928.121	0.0162675
928.199	0.0162543
928.277	0.0162119
928.355	0.0163329
928.433	0.0163249
928.511	0.0162892
928.590	0.0162118
928.668	0.0162473
928.746	0.0163264
928.824	0.0161645
928.902	0.0161708
928.980	0.0162951
929.058	0.0163215
929.136	0.0162144
929.215	0.0162173
929.293	0.0163099
929.371	0.0161214
929.449	0.0162660
929.527	0.0162852
929.605	0.0163144
929.683	0.0163549
929.761	0.0162533
929.840	0.0161815
929.918	0.0160870
929.996	0.0162342
930.074	0.0163046
930.152	0.0162338
930.230	0.0162579
930.308	0.0163165
930.386	0.0162252
930.465	0.0162604
930.543	0.0161556
930.621	0.0162762
930.699	0.0162220
930.777	0.0163197
930.855	0.0162728
930.933	0.0164224
931.011	0.0163924
931.090	0.0164554
931.168	0.0164107
931.246	0.0164059
931.324	0.0163895
931.402	0.0164426
931.480	0.0164454
931.558	0.0165292
931.636	0.0162778
931.715	0.0163754
931.793	0.0165434
931.871	0.0164677
931.949	0.0164090
932.027	0.0164073
932.105	0.0163438
932.183	0.0163603
932.261	0.0163356
932.340	0.0162663
932.418	0.0163176
932.496	0.0162210
932.574	0.0163474
932.652	0.0163301
932.730	0.0163118
932.808	0.0163232
932.886	0.0164471
932.965	0.0161858
933.043	0.0162634
933.121	0.0163662
933.199	0.0162640
933.277	0.0161868
933.355	0.0161494
933.433	0.0162957
933.511	0.0163658
933.590	0.0163288
933.668	0.0163220
933.746	0.0162635
933.824	0.0162257
933.902	0.0162620
933.980	0.0163319
934.058	0.0162061
934.136	0.0161705
934.215	0.0163561
934.293	0.0163327
934.371	0.0162680
934.449	0.0161646
934.527	0.0162243
934.605	0.0161739
934.683	0.0162773
934.761	0.0163085
934.840	0.0162095
934.918	0.0161516
934.996	0.0161636
935.074	0.0163175
935.152	0.0162333
935.230	0.0162276
935.308	0.0161518
935.386	0.0161041
935.465	0.0162459
935.543	0.0162090
935.621	0.0162695
935.699	0.0161882
935.777	0.0162640
935.855	0.0163110
935.933	0.0162386
936.011	0.0162370
936.090	0.0164673
936.168	0.0162055
936.246	0.0163077
936.324	0.0161845
936.402	0.0162431
936.480	0.0161868
936.558	0.0162214
936.636	0.0162526
936.715	0.0162104
936.793	0.0162351
936.871	0.0163311
936.949	0.0162116
937.027	0.0161636
937.105	0.0162315
937.183	0.0162038
937.261	0.0162851
937.340	0.0161462
937.418	0.0161898
937.496	0.0161164
937.574	0.0161604
937.652	0.0161555
937.730	0.0162106
937.808	0.0162655
937.886	0.0160754
937.965	0.0161493
938.043	0.0162051
938.121	0.0162336
938.199	0.0162942
938.277	0.0161530
938.355	0.0161098
938.433	0.0161579
938.511	0.0161539
938.590	0.0160618
938.668	0.0162720
938.746	0.0162777
938.824	0.0162628
938.902	0.0161876
938.980	0.0161680
939.058	0.0161778
939.136	0.0163318
939.215	0.0163097
939.293	0.0163041
939.371	0.0162813
939.449	0.0163100
939.527	0.0162138
939.605	0.0161744
939.683	0.0161376
939.761	0.0161524
939.840	0.0162876
939.918	0.0164120
939.996	0.0162595
940.074	0.0161631
940.152	0.0161197
940.230	0.0162351
940.308	0.0161530
940.386	0.0161779
940.465	0.0161725
940.543	0.0161014
940.621	0.0162035
940.699	0.0161176
940.777	0.0161453
940.855	0.0161246
940.933	0.0161511
941.011	0.0162507
941.090	0.0161496
941.168	0.0160390
941.246	0.0160192
941.324	0.0160976
941.402	0.0162631
941.480	0.0161772
941.558	0.0161538
941.636	0.0161391
941.715	0.0161163
941.793	0.0161068
941.871	0.0162395
941.949	0.0161978
942.027	0.0161960
942.105	0.0162300
942.183	0.0161163
942.261	0.0162313
942.340	0.0162835
942.418	0.0162122
942.496	0.0161986
942.574	0.0162960
942.652	0.0161996
942.730	0.0161350
942.808	0.0162421
942.886	0.0161295
942.965	0.0162514
943.043	0.0163404
943.121	0.0161777
943.199	0.0162885
943.277	0.0162330
943.355	0.0161946
943.433	0.0163561
943.511	0.0161356
943.590	0.0161584
943.668	0.0163274
943.746	0.0162782
943.824	0.0163466
943.902	0.0162514
943.980	0.0162411
944.058	0.0162725
944.136	0.0161990
944.215	0.0162363
944.293	0.0162260
944.371	0.0162848
944.449	0.0161251
944.527	0.0162721
944.605	0.0162799
944.683	0.0163227
944.761	0.0163387
944.840	0.0162782
944.918	0.0161863
944.996	0.0162624
945.074	0.0162002
945.152	0.0164188
945.230	0.0163146
945.308	0.0162962
945.386	0.0161630
945.465	0.0163319
945.543	0.0162796
945.621	0.0162644
945.699	0.0161789
945.777	0.0162972
945.855	0.0162589
945.933	0.0161665
946.011	0.0161806
946.090	0.0161800
946.168	0.0162585
946.246	0.0161057
946.324	0.0161225
946.402	0.0162757
946.480	0.0160461
946.558	0.0160046
946.636	0.0161612
946.715	0.0161419
946.793	0.0161189
946.871	0.0161460
946.949	0.0161877
947.027	0.0160278
947.105	0.0160701
947.183	0.0162687
947.261	0.0161945
947.340	0.0161700
947.418	0.0161940
947.496	0.0162765
947.574	0.0161593
947.652	0.0161512
947.730	0.0161686
947.808	0.0161819
947.886	0.0163223
947.965	0.0161497
948.043	0.0160587
948.121	0.0161639
948.199	0.0162029
948.277	0.0162395
948.355	0.0162617
948.433	0.0162511
948.511	0.0161628
948.590	0.0161991
948.668	0.0162067
948.746	0.0161224
948.824	0.0160760
948.902	0.0162097
948.980	0.0161220
949.058	0.0160878
949.136	0.0163119
949.215	0.0163548
949.293	0.0162670
949.371	0.0162972
949.449	0.0162419
949.527	0.0161967
949.605	0.0162722
949.683	0.0162093
949.761	0.0162157
949.840	0.0162167
949.918	0.0162205
