06/03/2022	13:48:34	Ver.	4.1	UNKNOWN
Optical Delay	599.988409	Delta X		0.078125	Sweeps	1	Scan Rate	0/0
Coordinates	Axis 1	NaN	Axis 2	NaN	Axis 3	NaN	Axis 4	NaN	Axis 5	NaN	Axis 6	0.000000
TX Power	0.000000	RX Power	0.000000

599.988	0.0166448
600.067	0.0166714
600.145	0.0165999
600.223	0.0167253
600.301	0.0167095
600.379	0.0166803
600.457	0.0166409
600.535	0.0167149
600.613	0.0166019
600.692	0.0166878
600.770	0.0167329
600.848	0.0166133
600.926	0.0167130
601.004	0.0167858
601.082	0.0166228
601.160	0.0166823
601.238	0.0165785
601.317	0.0165411
601.395	0.0167480
601.473	0.0166305
601.551	0.0166316
601.629	0.0166910
601.707	0.0167217
601.785	0.0165917
601.863	0.0166977
601.942	0.0166541
602.020	0.0166675
602.098	0.0167948
602.176	0.0166082
602.254	0.0166191
602.332	0.0166700
602.410	0.0166228
602.488	0.0166368
602.567	0.0167670
602.645	0.0166608
602.723	0.0165939
602.801	0.0165282
602.879	0.0167606
602.957	0.0166723
603.035	0.0167319
603.113	0.0164697
603.192	0.0166136
603.270	0.0166206
603.348	0.0166434
603.426	0.0167421
603.504	0.0165923
603.582	0.0165068
603.660	0.0167227
603.738	0.0167643
603.817	0.0167480
603.895	0.0167442
603.973	0.0166551
604.051	0.0166956
604.129	0.0166850
604.207	0.0167490
604.285	0.0165871
604.363	0.0165604
604.442	0.0166025
604.520	0.0166744
604.598	0.0166392
604.676	0.0167378
604.754	0.0167437
604.832	0.0166341
604.910	0.0164940
604.988	0.0166469
605.067	0.0167860
605.145	0.0165701
605.223	0.0167766
605.301	0.0165867
605.379	0.0165752
605.457	0.0166666
605.535	0.0167107
605.613	0.0166151
605.692	0.0166726
605.770	0.0166126
605.848	0.0167761
605.926	0.0165640
606.004	0.0165736
606.082	0.0166330
606.160	0.0166245
606.238	0.0165910
606.317	0.0166796
606.395	0.0167108
606.473	0.0167809
606.551	0.0166096
606.629	0.0165553
606.707	0.0166257
606.785	0.0165797
606.863	0.0166792
606.942	0.0166933
607.020	0.0167242
607.098	0.0166031
607.176	0.0166280
607.254	0.0166308
607.332	0.0166495
607.410	0.0167052
607.488	0.0166376
607.567	0.0166888
607.645	0.0166438
607.723	0.0166493
607.801	0.0167133
607.879	0.0166973
607.957	0.0166382
608.035	0.0165812
608.113	0.0166422
608.192	0.0166087
608.270	0.0166942
608.348	0.0167119
608.426	0.0166328
608.504	0.0166320
608.582	0.0166125
608.660	0.0166852
608.738	0.0166302
608.817	0.0167009
608.895	0.0167577
608.973	0.0166957
609.051	0.0166401
609.129	0.0166505
609.207	0.0166853
609.285	0.0166154
609.363	0.0166235
609.442	0.0167667
609.520	0.0166534
609.598	0.0166507
609.676	0.0166978
609.754	0.0166639
609.832	0.0166010
609.910	0.0166202
609.988	0.0165864
610.067	0.0165486
610.145	0.0166382
610.223	0.0166845
610.301	0.0166905
610.379	0.0166019
610.457	0.0166492
610.535	0.0165902
610.613	0.0166179
610.692	0.0166904
610.770	0.0166353
610.848	0.0167417
610.926	0.0166997
611.004	0.0167552
611.082	0.0165841
611.160	0.0166197
611.238	0.0166652
611.317	0.0168265
611.395	0.0165758
611.473	0.0165818
611.551	0.0166155
611.629	0.0165693
611.707	0.0166609
611.785	0.0166517
611.863	0.0167233
611.942	0.0165897
612.020	0.0165022
612.098	0.0166544
612.176	0.0166922
612.254	0.0165772
612.332	0.0166344
612.410	0.0165593
612.488	0.0166406
612.567	0.0165177
612.645	0.0165215
612.723	0.0166634
612.801	0.0166103
612.879	0.0166904
612.957	0.0167616
613.035	0.0166604
613.113	0.0166534
613.192	0.0165890
613.270	0.0166576
613.348	0.0164782
613.426	0.0166436
613.504	0.0167425
613.582	0.0165568
613.660	0.0165257
613.738	0.0166411
613.817	0.0166558
613.895	0.0165949
613.973	0.0166977
614.051	0.0167533
614.129	0.0165596
614.207	0.0166400
614.285	0.0165033
614.363	0.0166093
614.442	0.0166533
614.520	0.0167228
614.598	0.0166879
614.676	0.0165562
614.754	0.0165065
614.832	0.0165995
614.910	0.0165900
614.988	0.0167617
615.067	0.0164816
615.145	0.0164932
615.223	0.0167261
615.301	0.0164759
615.379	0.0166041
615.457	0.0166289
615.535	0.0167699
615.613	0.0167828
615.692	0.0166093
615.770	0.0166727
615.848	0.0166234
615.926	0.0165785
616.004	0.0166265
616.082	0.0166335
616.160	0.0165461
616.238	0.0167052
616.317	0.0167186
616.395	0.0166778
616.473	0.0167357
616.551	0.0165493
616.629	0.0166213
616.707	0.0165949
616.785	0.0167400
616.863	0.0167286
616.942	0.0166750
617.020	0.0165683
617.098	0.0166325
617.176	0.0166752
617.254	0.0166373
617.332	0.0166780
617.410	0.0166716
617.488	0.0166233
617.567	0.0166690
617.645	0.0165297
617.723	0.0165621
617.801	0.0165803
617.879	0.0165409
617.957	0.0166685
618.035	0.0166082
618.113	0.0166471
618.192	0.0167382
618.270	0.0166444
618.348	0.0166364
618.426	0.0167831
618.504	0.0166547
618.582	0.0166017
618.660	0.0166506
618.738	0.0166203
618.817	0.0166283
618.895	0.0166284
618.973	0.0166655
619.051	0.0167007
619.129	0.0166930
619.207	0.0166103
619.285	0.0167146
619.363	0.0166776
619.442	0.0167355
619.520	0.0167172
619.598	0.0166882
619.676	0.0165679
619.754	0.0166511
619.832	0.0167758
619.910	0.0165434
619.988	0.0166332
620.067	0.0166525
620.145	0.0165136
620.223	0.0166701
620.301	0.0166567
620.379	0.0166412
620.457	0.0167109
620.535	0.0166398
620.613	0.0166051
620.692	0.0166591
620.770	0.0166987
620.848	0.0165948
620.926	0.0165800
621.004	0.0166793
621.082	0.0166844
621.160	0.0166036
621.238	0.0166796
621.317	0.0166546
621.395	0.0166462
621.473	0.0166920
621.551	0.0166486
621.629	0.0164852
621.707	0.0165203
621.785	0.0165747
621.863	0.0167246
621.942	0.0166267
622.020	0.0167848
622.098	0.0166077
622.176	0.0165839
622.254	0.0165948
622.332	0.0167249
622.410	0.0165922
622.488	0.0166709
622.567	0.0166483
622.645	0.0167326
622.723	0.0166234
622.801	0.0166059
622.879	0.0166700
622.957	0.0165810
623.035	0.0166245
623.113	0.0166631
623.192	0.0166589
623.270	0.0166369
623.348	0.0166354
623.426	0.0165617
623.504	0.0166080
623.582	0.0165744
623.660	0.0165922
623.738	0.0166017
623.817	0.0168169
623.895	0.0165858
623.973	0.0165892
624.051	0.0167087
624.129	0.0167214
624.207	0.0167641
624.285	0.0167473
624.363	0.0166433
624.442	0.0167088
624.520	0.0166248
624.598	0.0166316
624.676	0.0166543
624.754	0.0167825
624.832	0.0166074
624.910	0.0165411
624.988	0.0167775
625.067	0.0166984
625.145	0.0166085
625.223	0.0167027
625.301	0.0166290
625.379	0.0166890
625.457	0.0165668
625.535	0.0166241
625.613	0.0168245
625.692	0.0167603
625.770	0.0167522
625.848	0.0165534
625.926	0.0164529
626.004	0.0166196
626.082	0.0166379
626.160	0.0166575
626.238	0.0166956
626.317	0.0166858
626.395	0.0165696
626.473	0.0166935
626.551	0.0167036
626.629	0.0166524
626.707	0.0167373
626.785	0.0166376
626.863	0.0166845
626.942	0.0165257
627.020	0.0167243
627.098	0.0166545
627.176	0.0167978
627.254	0.0167493
627.332	0.0166376
627.410	0.0165917
627.488	0.0166135
627.567	0.0166699
627.645	0.0166215
627.723	0.0167788
627.801	0.0166405
627.879	0.0165633
627.957	0.0166122
628.035	0.0166602
628.113	0.0165428
628.192	0.0167889
628.270	0.0166253
628.348	0.0166003
628.426	0.0166080
628.504	0.0166317
628.582	0.0168018
628.660	0.0166856
628.738	0.0166183
628.817	0.0165998
628.895	0.0165638
628.973	0.0166438
629.051	0.0166339
629.129	0.0165965
629.207	0.0166841
629.285	0.0165941
629.363	0.0166260
629.442	0.0165874
629.520	0.0166670
629.598	0.0166144
629.676	0.0166673
629.754	0.0166227
629.832	0.0166702
629.910	0.0166093
629.988	0.0166809
630.067	0.0166763
630.145	0.0166798
630.223	0.0166522
630.301	0.0167230
630.379	0.0167645
630.457	0.0167034
630.535	0.0167088
630.613	0.0166012
630.692	0.0167124
630.770	0.0166865
630.848	0.0166335
630.926	0.0167566
631.004	0.0166546
631.082	0.0166315
631.160	0.0167731
631.238	0.0167210
631.317	0.0166061
631.395	0.0166637
631.473	0.0166998
631.551	0.0165613
631.629	0.0165028
631.707	0.0166364
631.785	0.0166695
631.863	0.0166514
631.942	0.0166253
632.020	0.0166566
632.098	0.0167004
632.176	0.0166137
632.254	0.0166312
632.332	0.0166579
632.410	0.0166179
632.488	0.0167358
632.567	0.0166470
632.645	0.0167336
632.723	0.0167288
632.801	0.0166612
632.879	0.0166550
632.957	0.0167241
633.035	0.0166657
633.113	0.0165659
633.192	0.0167257
633.270	0.0167477
633.348	0.0167142
633.426	0.0167844
633.504	0.0165752
633.582	0.0167079
633.660	0.0166058
633.738	0.0166408
633.817	0.0166692
633.895	0.0167773
633.973	0.0166284
634.051	0.0167133
634.129	0.0166798
634.207	0.0165977
634.285	0.0165668
634.363	0.0166718
634.442	0.0166472
634.520	0.0167144
634.598	0.0167860
634.676	0.0166766
634.754	0.0166955
634.832	0.0166384
634.910	0.0166885
634.988	0.0167731
635.067	0.0168684
635.145	0.0166528
635.223	0.0165334
635.301	0.0167680
635.379	0.0167264
635.457	0.0167399
635.535	0.0166539
635.613	0.0166370
635.692	0.0166557
635.770	0.0167826
635.848	0.0165764
635.926	0.0165900
636.004	0.0166994
636.082	0.0166029
636.160	0.0165570
636.238	0.0167196
636.317	0.0166323
636.395	0.0167163
636.473	0.0167899
636.551	0.0165809
636.629	0.0165798
636.707	0.0165771
636.785	0.0166515
636.863	0.0166675
636.942	0.0166386
637.020	0.0165256
637.098	0.0165559
637.176	0.0166388
637.254	0.0166512
637.332	0.0167315
637.410	0.0167047
637.488	0.0165224
637.567	0.0165093
637.645	0.0166119
637.723	0.0165281
637.801	0.0167369
637.879	0.0166975
637.957	0.0168352
638.035	0.0167249
638.113	0.0165816
638.192	0.0165685
638.270	0.0166193
638.348	0.0167426
638.426	0.0167621
638.504	0.0166960
638.582	0.0167158
638.660	0.0166486
638.738	0.0166377
638.817	0.0167680
638.895	0.0167476
638.973	0.0166225
639.051	0.0166026
639.129	0.0167432
639.207	0.0165953
639.285	0.0166095
639.363	0.0167612
639.442	0.0166716
639.520	0.0166702
639.598	0.0166426
639.676	0.0166334
639.754	0.0166003
639.832	0.0166242
639.910	0.0166866
639.988	0.0166679
640.067	0.0165586
640.145	0.0164874
640.223	0.0166393
640.301	0.0167426
640.379	0.0166619
640.457	0.0165408
640.535	0.0166355
640.613	0.0165630
640.692	0.0167224
640.770	0.0164894
640.848	0.0166291
640.926	0.0166180
641.004	0.0166261
641.082	0.0166120
641.160	0.0165347
641.238	0.0166553
641.317	0.0165596
641.395	0.0165458
641.473	0.0166310
641.551	0.0166666
641.629	0.0166877
641.707	0.0166291
641.785	0.0165975
641.863	0.0166377
641.942	0.0167188
642.020	0.0166814
642.098	0.0165607
642.176	0.0166049
642.254	0.0167378
642.332	0.0167388
642.410	0.0166281
642.488	0.0165961
642.567	0.0164931
642.645	0.0166653
642.723	0.0166173
642.801	0.0166650
642.879	0.0167606
642.957	0.0165654
643.035	0.0166154
643.113	0.0166226
643.192	0.0165533
643.270	0.0165846
643.348	0.0165401
643.426	0.0167429
643.504	0.0165839
643.582	0.0165904
643.660	0.0167015
643.738	0.0165844
643.817	0.0166496
643.895	0.0165970
643.973	0.0166939
644.051	0.0166676
644.129	0.0167089
644.207	0.0166748
644.285	0.0165720
644.363	0.0165765
644.442	0.0166710
644.520	0.0164805
644.598	0.0166199
644.676	0.0168093
644.754	0.0166579
644.832	0.0165573
644.910	0.0166445
644.988	0.0166502
645.067	0.0166475
645.145	0.0166352
645.223	0.0167335
645.301	0.0165385
645.379	0.0166845
645.457	0.0165100
645.535	0.0167133
645.613	0.0167287
645.692	0.0167223
645.770	0.0167896
645.848	0.0166293
645.926	0.0164767
646.004	0.0167260
646.082	0.0166057
646.160	0.0165166
646.238	0.0165997
646.317	0.0167130
646.395	0.0165956
646.473	0.0165489
646.551	0.0166808
646.629	0.0167273
646.707	0.0165040
646.785	0.0167630
646.863	0.0166297
646.942	0.0166191
647.020	0.0166856
647.098	0.0167535
647.176	0.0167583
647.254	0.0165639
647.332	0.0165640
647.410	0.0166249
647.488	0.0167439
647.567	0.0166850
647.645	0.0166357
647.723	0.0166634
647.801	0.0167115
647.879	0.0166087
647.957	0.0166412
648.035	0.0165790
648.113	0.0166769
648.192	0.0166811
648.270	0.0166496
648.348	0.0168478
648.426	0.0166793
648.504	0.0165630
648.582	0.0165895
648.660	0.0166447
648.738	0.0165427
648.817	0.0166433
648.895	0.0166990
648.973	0.0167044
649.051	0.0166869
649.129	0.0165865
649.207	0.0167262
649.285	0.0166856
649.363	0.0165845
649.442	0.0165382
649.520	0.0166734
649.598	0.0166682
649.676	0.0166274
649.754	0.0168457
649.832	0.0166306
649.910	0.0167435
649.988	0.0167345
650.067	0.0165187
650.145	0.0166500
650.223	0.0165565
650.301	0.0166300
650.379	0.0166959
650.457	0.0167512
650.535	0.0168097
650.613	0.0166543
650.692	0.0167480
650.770	0.0166530
650.848	0.0165800
650.926	0.0167532
651.004	0.0166823
651.082	0.0167094
651.160	0.0165765
651.238	0.0167065
651.317	0.0167402
651.395	0.0167276
651.473	0.0167671
651.551	0.0164970
651.629	0.0166087
651.707	0.0167131
651.785	0.0167148
651.863	0.0165864
651.942	0.0165896
652.020	0.0166843
652.098	0.0166012
652.176	0.0166692
652.254	0.0166656
652.332	0.0165604
652.410	0.0167079
652.488	0.0167590
652.567	0.0166287
652.645	0.0165042
652.723	0.0166192
652.801	0.0165464
652.879	0.0166171
652.957	0.0165910
653.035	0.0165924
653.113	0.0166573
653.192	0.0166003
653.270	0.0165372
653.348	0.0166270
653.426	0.0166344
653.504	0.0166351
653.582	0.0166154
653.660	0.0165407
653.738	0.0166309
653.817	0.0166725
653.895	0.0165537
653.973	0.0167575
654.051	0.0165747
654.129	0.0165115
654.207	0.0167735
654.285	0.0165514
654.363	0.0165564
654.442	0.0167199
654.520	0.0164967
654.598	0.0165869
654.676	0.0165877
654.754	0.0165874
654.832	0.0165430
654.910	0.0165801
654.988	0.0166335
655.067	0.0165897
655.145	0.0166589
655.223	0.0164955
655.301	0.0166866
655.379	0.0166075
655.457	0.0165366
655.535	0.0166251
655.613	0.0167061
655.692	0.0167551
655.770	0.0165699
655.848	0.0165942
655.926	0.0166212
656.004	0.0167200
656.082	0.0165818
656.160	0.0165692
656.238	0.0166788
656.317	0.0165812
656.395	0.0167404
656.473	0.0167107
656.551	0.0165231
656.629	0.0166702
656.707	0.0165902
656.785	0.0167232
656.863	0.0166582
656.942	0.0166430
657.020	0.0166942
657.098	0.0167060
657.176	0.0166821
657.254	0.0166550
657.332	0.0165598
657.410	0.0166330
657.488	0.0165720
657.567	0.0166360
657.645	0.0167360
657.723	0.0165286
657.801	0.0167045
657.879	0.0166313
657.957	0.0165931
658.035	0.0166785
658.113	0.0166923
658.192	0.0166631
658.270	0.0166753
658.348	0.0166784
658.426	0.0167276
658.504	0.0166080
658.582	0.0166571
658.660	0.0166884
658.738	0.0166748
658.817	0.0166097
658.895	0.0166985
658.973	0.0164990
659.051	0.0166438
659.129	0.0165215
659.207	0.0165162
659.285	0.0165119
659.363	0.0167010
659.442	0.0166831
659.520	0.0166096
659.598	0.0167125
659.676	0.0166129
659.754	0.0165977
659.832	0.0167278
659.910	0.0166019
659.988	0.0166888
660.067	0.0167529
660.145	0.0166151
660.223	0.0165540
660.301	0.0166489
660.379	0.0167143
660.457	0.0166998
660.535	0.0166114
660.613	0.0166228
660.692	0.0167539
660.770	0.0164993
660.848	0.0166312
660.926	0.0166760
661.004	0.0164479
661.082	0.0165708
661.160	0.0166911
661.238	0.0167316
661.317	0.0165578
661.395	0.0166115
661.473	0.0165065
661.551	0.0166289
661.629	0.0166958
661.707	0.0165945
661.785	0.0165512
661.863	0.0166542
661.942	0.0166924
662.020	0.0165923
662.098	0.0167859
662.176	0.0164728
662.254	0.0165786
662.332	0.0166703
662.410	0.0165968
662.488	0.0167290
662.567	0.0166388
662.645	0.0165887
662.723	0.0165858
662.801	0.0165489
662.879	0.0165335
662.957	0.0166621
663.035	0.0167200
663.113	0.0166159
663.192	0.0165856
663.270	0.0167393
663.348	0.0165640
663.426	0.0167191
663.504	0.0166280
663.582	0.0165511
663.660	0.0167313
663.738	0.0166918
663.817	0.0165970
663.895	0.0166357
663.973	0.0165636
664.051	0.0166397
664.129	0.0166088
664.207	0.0165138
664.285	0.0165072
664.363	0.0166921
664.442	0.0165586
664.520	0.0165287
664.598	0.0166393
664.676	0.0166366
664.754	0.0166341
664.832	0.0165239
664.910	0.0166605
664.988	0.0166571
665.067	0.0165960
665.145	0.0165782
665.223	0.0167041
665.301	0.0166212
665.379	0.0166104
665.457	0.0166261
665.535	0.0166425
665.613	0.0165262
665.692	0.0167038
665.770	0.0166415
665.848	0.0165908
665.926	0.0166543
666.004	0.0164992
666.082	0.0166907
666.160	0.0167003
666.238	0.0166357
666.317	0.0165659
666.395	0.0164569
666.473	0.0166006
666.551	0.0165253
666.629	0.0166287
666.707	0.0165697
666.785	0.0165508
666.863	0.0165399
666.942	0.0165223
667.020	0.0165144
667.098	0.0167111
667.176	0.0166633
667.254	0.0167094
667.332	0.0166480
667.410	0.0166855
667.488	0.0166598
667.567	0.0165682
667.645	0.0167764
667.723	0.0166357
667.801	0.0165673
667.879	0.0166500
667.957	0.0166034
668.035	0.0166399
668.113	0.0165768
668.192	0.0166511
668.270	0.0166574
668.348	0.0165731
668.426	0.0166881
668.504	0.0164363
668.582	0.0166236
668.660	0.0166865
668.738	0.0165971
668.817	0.0167157
668.895	0.0165500
668.973	0.0165942
669.051	0.0167147
669.129	0.0165688
669.207	0.0166890
669.285	0.0167492
669.363	0.0167467
669.442	0.0165280
669.520	0.0166737
669.598	0.0166917
669.676	0.0165610
669.754	0.0164797
669.832	0.0166788
669.910	0.0165824
669.988	0.0165755
670.067	0.0166106
670.145	0.0167014
670.223	0.0166814
670.301	0.0167499
670.379	0.0167461
670.457	0.0167032
670.535	0.0166674
670.613	0.0165983
670.692	0.0165885
670.770	0.0166407
670.848	0.0166920
670.926	0.0165763
671.004	0.0167059
671.082	0.0166972
671.160	0.0165239
671.238	0.0167024
671.317	0.0166335
671.395	0.0166132
671.473	0.0166381
671.551	0.0165651
671.629	0.0166280
671.707	0.0165656
671.785	0.0164996
671.863	0.0165652
671.942	0.0166734
672.020	0.0166307
672.098	0.0165646
672.176	0.0166597
672.254	0.0166627
672.332	0.0165956
672.410	0.0165894
672.488	0.0166712
672.567	0.0166910
672.645	0.0164876
672.723	0.0167146
672.801	0.0166889
672.879	0.0165103
672.957	0.0165875
673.035	0.0166121
673.113	0.0166280
673.192	0.0166785
673.270	0.0166425
673.348	0.0167031
673.426	0.0166542
673.504	0.0167139
673.582	0.0165791
673.660	0.0165096
673.738	0.0167365
673.817	0.0167496
673.895	0.0166709
673.973	0.0165294
674.051	0.0165136
674.129	0.0165837
674.207	0.0166501
674.285	0.0165808
674.363	0.0165511
674.442	0.0165411
674.520	0.0167611
674.598	0.0166364
674.676	0.0166260
674.754	0.0166374
674.832	0.0166674
674.910	0.0167471
674.988	0.0165222
675.067	0.0165461
675.145	0.0165787
675.223	0.0166048
675.301	0.0165999
675.379	0.0165878
675.457	0.0164777
675.535	0.0165352
675.613	0.0165717
675.692	0.0166968
675.770	0.0166915
675.848	0.0166045
675.926	0.0165277
676.004	0.0165874
676.082	0.0164651
676.160	0.0165666
676.238	0.0166354
676.317	0.0166212
676.395	0.0165566
676.473	0.0166214
676.551	0.0166698
676.629	0.0166014
676.707	0.0166350
676.785	0.0166518
676.863	0.0166789
676.942	0.0167546
677.020	0.0166856
677.098	0.0166301
677.176	0.0165981
677.254	0.0165092
677.332	0.0166346
677.410	0.0165884
677.488	0.0164975
677.567	0.0163927
677.645	0.0166505
677.723	0.0165726
677.801	0.0166215
677.879	0.0166073
677.957	0.0166403
678.035	0.0166706
678.113	0.0166109
678.192	0.0166930
678.270	0.0167423
678.348	0.0166737
678.426	0.0165970
678.504	0.0166042
678.582	0.0165601
678.660	0.0166882
678.738	0.0167204
678.817	0.0166638
678.895	0.0166275
678.973	0.0166846
679.051	0.0165508
679.129	0.0166482
679.207	0.0166270
679.285	0.0166797
679.363	0.0167429
679.442	0.0166739
679.520	0.0166549
679.598	0.0165573
679.676	0.0166914
679.754	0.0166087
679.832	0.0165968
679.910	0.0166705
679.988	0.0165547
680.067	0.0166464
680.145	0.0165439
680.223	0.0164871
680.301	0.0167649
680.379	0.0165527
680.457	0.0165943
680.535	0.0166137
680.613	0.0166476
680.692	0.0165881
680.770	0.0165879
680.848	0.0165359
680.926	0.0166600
681.004	0.0166393
681.082	0.0167445
681.160	0.0165261
681.238	0.0165372
681.317	0.0165881
681.395	0.0166403
681.473	0.0165911
681.551	0.0167425
681.629	0.0167340
681.707	0.0166352
681.785	0.0165247
681.863	0.0167182
681.942	0.0167680
682.020	0.0166489
682.098	0.0167360
682.176	0.0167119
682.254	0.0165820
682.332	0.0166415
682.410	0.0166097
682.488	0.0165966
682.567	0.0165180
682.645	0.0165617
682.723	0.0165279
682.801	0.0167442
682.879	0.0165370
682.957	0.0166287
683.035	0.0166893
683.113	0.0167004
683.192	0.0166209
683.270	0.0166131
683.348	0.0165767
683.426	0.0166279
683.504	0.0165728
683.582	0.0166306
683.660	0.0164883
683.738	0.0166034
683.817	0.0166035
683.895	0.0165353
683.973	0.0167294
684.051	0.0167121
684.129	0.0166364
684.207	0.0166935
684.285	0.0167261
684.363	0.0165816
684.442	0.0166069
684.520	0.0166895
684.598	0.0166344
684.676	0.0166776
684.754	0.0166600
684.832	0.0165796
684.910	0.0164737
684.988	0.0165807
685.067	0.0166611
685.145	0.0165372
685.223	0.0166951
685.301	0.0164840
685.379	0.0166646
685.457	0.0166191
685.535	0.0167723
685.613	0.0166538
685.692	0.0166190
685.770	0.0166196
685.848	0.0166502
685.926	0.0167573
686.004	0.0165115
686.082	0.0166486
686.160	0.0167448
686.238	0.0166359
686.317	0.0165759
686.395	0.0166096
686.473	0.0166067
686.551	0.0167182
686.629	0.0166151
686.707	0.0166901
686.785	0.0165975
686.863	0.0165834
686.942	0.0165815
687.020	0.0165465
687.098	0.0165731
687.176	0.0166319
687.254	0.0167704
687.332	0.0166364
687.410	0.0165724
687.488	0.0165072
687.567	0.0166554
687.645	0.0166526
687.723	0.0165853
687.801	0.0166026
687.879	0.0166756
687.957	0.0165536
688.035	0.0165333
688.113	0.0166091
688.192	0.0166031
688.270	0.0165871
688.348	0.0166240
688.426	0.0165268
688.504	0.0166518
688.582	0.0166039
688.660	0.0165521
688.738	0.0165797
688.817	0.0166740
688.895	0.0166089
688.973	0.0166367
689.051	0.0165735
689.129	0.0165276
689.207	0.0165995
689.285	0.0166013
689.363	0.0165390
689.442	0.0165697
689.520	0.0166156
689.598	0.0166393
689.676	0.0166451
689.754	0.0165210
689.832	0.0165447
689.910	0.0165782
689.988	0.0165764
690.067	0.0166539
690.145	0.0167187
690.223	0.0166702
690.301	0.0167736
690.379	0.0165706
690.457	0.0166453
690.535	0.0167107
690.613	0.0166482
690.692	0.0167369
690.770	0.0165807
690.848	0.0166930
690.926	0.0166612
691.004	0.0166914
691.082	0.0167313
691.160	0.0166589
691.238	0.0166983
691.317	0.0165661
691.395	0.0167072
691.473	0.0165250
691.551	0.0166591
691.629	0.0164962
691.707	0.0166415
691.785	0.0166731
691.863	0.0165643
691.942	0.0167454
692.020	0.0166247
692.098	0.0166354
692.176	0.0166465
692.254	0.0166947
692.332	0.0166790
692.410	0.0165573
692.488	0.0165990
692.567	0.0166051
692.645	0.0167190
692.723	0.0166869
692.801	0.0166751
692.879	0.0167154
692.957	0.0166248
693.035	0.0165269
693.113	0.0165479
693.192	0.0166579
693.270	0.0164701
693.348	0.0166551
693.426	0.0166268
693.504	0.0165536
693.582	0.0166328
693.660	0.0166578
693.738	0.0167325
693.817	0.0166511
693.895	0.0165314
693.973	0.0166451
694.051	0.0164920
694.129	0.0165574
694.207	0.0166779
694.285	0.0169027
694.363	0.0164597
694.442	0.0166714
694.520	0.0166484
694.598	0.0166962
694.676	0.0165549
694.754	0.0166223
694.832	0.0167076
694.910	0.0165992
694.988	0.0167199
695.067	0.0166219
695.145	0.0166605
695.223	0.0165652
695.301	0.0164696
695.379	0.0165443
695.457	0.0166981
695.535	0.0165962
695.613	0.0164462
695.692	0.0167085
695.770	0.0165215
695.848	0.0166586
695.926	0.0166347
696.004	0.0167255
696.082	0.0165406
696.160	0.0166582
696.238	0.0167577
696.317	0.0166508
696.395	0.0167262
696.473	0.0166860
696.551	0.0167290
696.629	0.0165920
696.707	0.0167674
696.785	0.0166640
696.863	0.0166847
696.942	0.0166786
697.020	0.0165726
697.098	0.0166234
697.176	0.0166548
697.254	0.0165952
697.332	0.0167210
697.410	0.0167577
697.488	0.0166219
697.567	0.0165992
697.645	0.0167381
697.723	0.0167151
697.801	0.0166286
697.879	0.0165793
697.957	0.0165191
698.035	0.0165552
698.113	0.0165451
698.192	0.0167330
698.270	0.0166618
698.348	0.0167509
698.426	0.0167088
698.504	0.0165516
698.582	0.0166838
698.660	0.0167190
698.738	0.0167905
698.817	0.0167876
698.895	0.0165998
698.973	0.0167220
699.051	0.0167680
699.129	0.0166521
699.207	0.0166129
699.285	0.0167590
699.363	0.0167217
699.442	0.0167351
699.520	0.0166376
699.598	0.0166376
699.676	0.0168187
699.754	0.0167245
699.832	0.0167397
699.910	0.0165092
699.988	0.0167630
700.067	0.0166486
700.145	0.0165286
700.223	0.0166129
700.301	0.0165917
700.379	0.0165718
700.457	0.0166186
700.535	0.0166489
700.613	0.0165307
700.692	0.0165256
700.770	0.0166588
700.848	0.0167455
700.926	0.0166772
701.004	0.0165781
701.082	0.0166232
701.160	0.0165678
701.238	0.0166621
701.317	0.0167696
701.395	0.0165831
701.473	0.0167424
701.551	0.0166812
701.629	0.0165276
701.707	0.0165917
701.785	0.0166993
701.863	0.0166898
701.942	0.0167513
702.020	0.0167548
702.098	0.0166632
702.176	0.0167540
702.254	0.0167665
702.332	0.0167065
702.410	0.0168004
702.488	0.0166325
702.567	0.0166533
702.645	0.0166817
702.723	0.0165783
702.801	0.0165774
702.879	0.0167971
702.957	0.0167070
703.035	0.0166480
703.113	0.0167382
703.192	0.0166240
703.270	0.0165921
703.348	0.0166673
703.426	0.0165940
703.504	0.0164838
703.582	0.0165884
703.660	0.0167300
703.738	0.0166390
703.817	0.0165506
703.895	0.0166005
703.973	0.0166856
704.051	0.0165554
704.129	0.0166685
704.207	0.0165163
704.285	0.0166197
704.363	0.0165539
704.442	0.0168200
704.520	0.0167215
704.598	0.0167488
704.676	0.0167638
704.754	0.0167604
704.832	0.0166515
704.910	0.0166926
704.988	0.0166318
705.067	0.0166051
705.145	0.0165631
705.223	0.0166785
705.301	0.0167174
705.379	0.0166248
705.457	0.0165698
705.535	0.0166858
705.613	0.0166494
705.692	0.0167021
705.770	0.0167731
705.848	0.0166334
705.926	0.0166891
706.004	0.0165430
706.082	0.0165251
706.160	0.0166380
706.238	0.0165082
706.317	0.0165740
706.395	0.0166217
706.473	0.0165733
706.551	0.0166795
706.629	0.0166103
706.707	0.0166556
706.785	0.0166147
706.863	0.0166806
706.942	0.0166332
707.020	0.0165749
707.098	0.0164999
707.176	0.0165579
707.254	0.0165816
707.332	0.0165977
707.410	0.0166096
707.488	0.0165150
707.567	0.0164961
707.645	0.0165964
707.723	0.0164407
707.801	0.0166561
707.879	0.0166029
707.957	0.0166631
708.035	0.0166809
708.113	0.0166527
708.192	0.0166334
708.270	0.0166147
708.348	0.0165566
708.426	0.0165600
708.504	0.0164519
708.582	0.0165392
708.660	0.0166979
708.738	0.0167587
708.817	0.0165903
708.895	0.0166724
708.973	0.0167110
709.051	0.0165820
709.129	0.0166151
709.207	0.0167295
709.285	0.0165792
709.363	0.0166545
709.442	0.0166518
709.520	0.0166585
709.598	0.0167728
709.676	0.0166999
709.754	0.0165858
709.832	0.0166492
709.910	0.0166859
709.988	0.0166386
710.067	0.0166640
710.145	0.0166789
710.223	0.0165251
710.301	0.0167023
710.379	0.0167220
710.457	0.0166528
710.535	0.0166089
710.613	0.0164859
710.692	0.0166394
710.770	0.0166698
710.848	0.0166178
710.926	0.0165977
711.004	0.0165417
711.082	0.0164947
711.160	0.0166524
711.238	0.0165875
711.317	0.0166181
711.395	0.0165359
711.473	0.0165946
711.551	0.0165369
711.629	0.0166377
711.707	0.0165122
711.785	0.0164890
711.863	0.0165972
711.942	0.0166125
712.020	0.0166327
712.098	0.0166660
712.176	0.0166515
712.254	0.0166328
712.332	0.0165924
712.410	0.0166127
712.488	0.0166039
712.567	0.0166897
712.645	0.0166893
712.723	0.0165405
712.801	0.0166209
712.879	0.0168091
712.957	0.0167016
713.035	0.0165931
713.113	0.0166096
713.192	0.0166817
713.270	0.0166174
713.348	0.0167516
713.426	0.0165850
713.504	0.0166331
713.582	0.0165300
713.660	0.0166012
713.738	0.0166008
713.817	0.0165769
713.895	0.0165979
713.973	0.0166769
714.051	0.0168482
714.129	0.0166140
714.207	0.0166461
714.285	0.0165292
714.363	0.0167989
714.442	0.0166980
714.520	0.0166843
714.598	0.0168351
714.676	0.0166854
714.754	0.0166125
714.832	0.0167359
714.910	0.0167291
714.988	0.0167110
715.067	0.0167778
715.145	0.0165229
715.223	0.0164874
715.301	0.0167143
715.379	0.0166169
715.457	0.0166974
715.535	0.0165984
715.613	0.0166391
715.692	0.0165927
715.770	0.0167309
715.848	0.0166557
715.926	0.0166743
716.004	0.0167596
716.082	0.0167368
716.160	0.0167216
716.238	0.0165862
716.317	0.0167772
716.395	0.0166600
716.473	0.0166187
716.551	0.0166330
716.629	0.0166362
716.707	0.0168068
716.785	0.0165794
716.863	0.0164773
716.942	0.0167165
717.020	0.0166515
717.098	0.0166949
717.176	0.0166644
717.254	0.0166647
717.332	0.0168223
717.410	0.0166949
717.488	0.0166643
717.567	0.0166823
717.645	0.0166422
717.723	0.0166361
717.801	0.0165658
717.879	0.0166280
717.957	0.0167162
718.035	0.0167113
718.113	0.0167178
718.192	0.0166784
718.270	0.0165685
718.348	0.0164945
718.426	0.0167004
718.504	0.0166055
718.582	0.0167467
718.660	0.0167459
718.738	0.0166087
718.817	0.0165646
718.895	0.0166472
718.973	0.0166016
719.051	0.0166516
719.129	0.0166011
719.207	0.0166779
719.285	0.0167129
719.363	0.0166417
719.442	0.0166832
719.520	0.0166753
719.598	0.0165775
719.676	0.0164712
719.754	0.0165990
719.832	0.0166169
719.910	0.0166196
719.988	0.0165965
720.067	0.0166831
720.145	0.0166495
720.223	0.0168094
720.301	0.0166279
720.379	0.0167661
720.457	0.0167308
720.535	0.0166531
720.613	0.0167159
720.692	0.0167406
720.770	0.0167018
720.848	0.0166083
720.926	0.0165968
721.004	0.0165908
721.082	0.0166903
721.160	0.0165218
721.238	0.0166138
721.317	0.0167052
721.395	0.0167787
721.473	0.0165719
721.551	0.0164828
721.629	0.0165414
721.707	0.0166608
721.785	0.0166156
721.863	0.0165620
721.942	0.0168080
722.020	0.0167337
722.098	0.0166508
722.176	0.0166611
722.254	0.0167324
722.332	0.0166304
722.410	0.0167010
722.488	0.0167410
722.567	0.0167245
722.645	0.0167361
722.723	0.0166737
722.801	0.0166070
722.879	0.0166327
722.957	0.0166477
723.035	0.0167637
723.113	0.0166795
723.192	0.0165775
723.270	0.0165803
723.348	0.0165022
723.426	0.0167116
723.504	0.0166685
723.582	0.0166515
723.660	0.0166021
723.738	0.0165639
723.817	0.0167592
723.895	0.0166279
723.973	0.0164119
724.051	0.0167405
724.129	0.0166718
724.207	0.0164883
724.285	0.0165430
724.363	0.0166785
724.442	0.0166702
724.520	0.0166263
724.598	0.0166048
724.676	0.0166577
724.754	0.0167255
724.832	0.0166027
724.910	0.0165657
724.988	0.0165165
725.067	0.0166010
725.145	0.0166073
725.223	0.0166148
725.301	0.0166220
725.379	0.0165697
725.457	0.0165385
725.535	0.0167790
725.613	0.0166486
725.692	0.0167514
725.770	0.0166224
725.848	0.0167089
725.926	0.0166280
726.004	0.0166225
726.082	0.0166865
726.160	0.0166651
726.238	0.0165991
726.317	0.0165524
726.395	0.0166390
726.473	0.0166537
726.551	0.0165848
726.629	0.0165974
726.707	0.0165504
726.785	0.0166146
726.863	0.0167121
726.942	0.0166093
727.020	0.0167185
727.098	0.0167088
727.176	0.0166627
727.254	0.0165938
727.332	0.0166512
727.410	0.0166644
727.488	0.0166158
727.567	0.0166778
727.645	0.0166525
727.723	0.0166109
727.801	0.0165896
727.879	0.0166079
727.957	0.0166153
728.035	0.0165877
728.113	0.0166538
728.192	0.0166241
728.270	0.0166562
728.348	0.0167216
728.426	0.0167313
728.504	0.0165948
728.582	0.0166611
728.660	0.0167178
728.738	0.0166677
728.817	0.0165538
728.895	0.0166721
728.973	0.0166219
729.051	0.0165943
729.129	0.0166017
729.207	0.0166537
729.285	0.0165853
729.363	0.0166142
729.442	0.0166261
729.520	0.0166341
729.598	0.0167238
729.676	0.0166905
729.754	0.0166483
729.832	0.0166146
729.910	0.0166991
729.988	0.0167547
730.067	0.0166910
730.145	0.0166930
730.223	0.0165987
730.301	0.0165837
730.379	0.0165051
730.457	0.0165958
730.535	0.0165224
730.613	0.0166238
730.692	0.0166417
730.770	0.0165745
730.848	0.0166327
730.926	0.0166282
731.004	0.0166151
731.082	0.0165923
731.160	0.0166270
731.238	0.0165884
731.317	0.0167148
731.395	0.0165954
731.473	0.0166071
731.551	0.0165756
731.629	0.0165487
731.707	0.0166013
731.785	0.0165437
731.863	0.0166250
731.942	0.0165495
732.020	0.0166105
732.098	0.0166521
732.176	0.0165787
732.254	0.0166455
732.332	0.0166954
732.410	0.0164950
732.488	0.0166477
732.567	0.0166048
732.645	0.0167455
732.723	0.0166949
732.801	0.0166045
732.879	0.0166012
732.957	0.0165543
733.035	0.0166589
733.113	0.0167414
733.192	0.0167233
733.270	0.0165912
733.348	0.0166369
733.426	0.0167677
733.504	0.0166216
733.582	0.0166187
733.660	0.0167149
733.738	0.0166161
733.817	0.0166184
733.895	0.0166035
733.973	0.0165680
734.051	0.0165121
734.129	0.0166621
734.207	0.0167210
734.285	0.0166418
734.363	0.0167738
734.442	0.0166957
734.520	0.0165897
734.598	0.0165894
734.676	0.0167636
734.754	0.0166341
734.832	0.0167714
734.910	0.0166354
734.988	0.0165762
735.067	0.0166129
735.145	0.0166579
735.223	0.0166415
735.301	0.0167757
735.379	0.0166470
735.457	0.0167209
735.535	0.0166594
735.613	0.0165801
735.692	0.0166821
735.770	0.0166493
735.848	0.0166081
735.926	0.0166165
736.004	0.0165318
736.082	0.0167161
736.160	0.0167523
736.238	0.0167072
736.317	0.0165963
736.395	0.0165836
736.473	0.0166845
736.551	0.0166406
736.629	0.0166953
736.707	0.0167118
736.785	0.0166782
736.863	0.0166729
736.942	0.0166550
737.020	0.0167223
737.098	0.0166521
737.176	0.0166461
737.254	0.0166985
737.332	0.0166302
737.410	0.0166273
737.488	0.0167853
737.567	0.0166724
737.645	0.0165542
737.723	0.0166108
737.801	0.0166441
737.879	0.0166502
737.957	0.0167044
738.035	0.0167139
738.113	0.0165591
738.192	0.0167141
738.270	0.0166453
738.348	0.0167733
738.426	0.0166283
738.504	0.0166659
738.582	0.0165940
738.660	0.0166527
738.738	0.0166183
738.817	0.0167493
738.895	0.0167464
738.973	0.0167226
739.051	0.0166122
739.129	0.0165965
739.207	0.0167217
739.285	0.0166729
739.363	0.0167572
739.442	0.0166653
739.520	0.0165770
739.598	0.0166214
739.676	0.0166970
739.754	0.0165864
739.832	0.0167284
739.910	0.0166638
739.988	0.0166791
740.067	0.0166245
740.145	0.0167136
740.223	0.0167786
740.301	0.0167773
740.379	0.0166462
740.457	0.0166306
740.535	0.0167361
740.613	0.0166606
740.692	0.0166704
740.770	0.0167803
740.848	0.0166174
740.926	0.0166008
741.004	0.0166304
741.082	0.0167529
741.160	0.0164849
741.238	0.0166537
741.317	0.0167896
741.395	0.0166354
741.473	0.0165883
741.551	0.0166344
741.629	0.0165638
741.707	0.0164990
741.785	0.0166032
741.863	0.0166747
741.942	0.0167040
742.020	0.0166757
742.098	0.0165726
742.176	0.0166726
742.254	0.0165491
742.332	0.0167015
742.410	0.0166470
742.488	0.0166323
742.567	0.0167065
742.645	0.0165269
742.723	0.0166393
742.801	0.0167213
742.879	0.0165580
742.957	0.0165730
743.035	0.0167124
743.113	0.0166842
743.192	0.0164848
743.270	0.0165881
743.348	0.0166350
743.426	0.0167149
743.504	0.0165752
743.582	0.0165471
743.660	0.0166503
743.738	0.0166763
743.817	0.0167303
743.895	0.0166932
743.973	0.0166270
744.051	0.0165177
744.129	0.0164987
744.207	0.0167583
744.285	0.0167033
744.363	0.0167842
744.442	0.0167261
744.520	0.0166144
744.598	0.0166927
744.676	0.0165977
744.754	0.0165995
744.832	0.0164332
744.910	0.0165488
744.988	0.0167282
745.067	0.0164859
745.145	0.0166315
745.223	0.0165941
745.301	0.0165383
745.379	0.0167028
745.457	0.0166248
745.535	0.0166488
745.613	0.0165435
745.692	0.0165979
745.770	0.0167049
745.848	0.0166778
745.926	0.0166461
746.004	0.0166671
746.082	0.0166096
746.160	0.0165012
746.238	0.0166061
746.317	0.0166618
746.395	0.0166287
746.473	0.0166927
746.551	0.0166601
746.629	0.0166962
746.707	0.0166985
746.785	0.0166049
746.863	0.0165366
746.942	0.0167019
747.020	0.0167947
747.098	0.0166482
747.176	0.0166322
747.254	0.0166616
747.332	0.0165618
747.410	0.0166093
747.488	0.0166167
747.567	0.0166547
747.645	0.0166606
747.723	0.0166789
747.801	0.0167280
747.879	0.0166653
747.957	0.0166743
748.035	0.0166351
748.113	0.0166592
748.192	0.0166782
748.270	0.0167620
748.348	0.0167313
748.426	0.0166725
748.504	0.0165098
748.582	0.0166836
748.660	0.0166094
748.738	0.0165537
748.817	0.0166669
748.895	0.0167388
748.973	0.0168318
749.051	0.0165070
749.129	0.0166174
749.207	0.0167243
749.285	0.0165363
749.363	0.0165680
749.442	0.0166250
749.520	0.0166022
749.598	0.0165792
749.676	0.0166659
749.754	0.0166188
749.832	0.0165632
749.910	0.0165160
749.988	0.0166775
750.067	0.0165791
750.145	0.0166839
750.223	0.0166954
750.301	0.0167030
750.379	0.0166228
750.457	0.0167416
750.535	0.0166922
750.613	0.0165446
750.692	0.0167270
750.770	0.0166308
750.848	0.0165338
750.926	0.0165481
751.004	0.0166644
751.082	0.0165163
751.160	0.0166525
751.238	0.0167318
751.317	0.0165750
751.395	0.0165180
751.473	0.0165787
751.551	0.0167584
751.629	0.0166434
751.707	0.0165891
751.785	0.0167657
751.863	0.0166344
751.942	0.0166651
752.020	0.0166328
752.098	0.0166729
752.176	0.0166380
752.254	0.0166543
752.332	0.0165598
752.410	0.0167181
752.488	0.0165926
752.567	0.0166673
752.645	0.0166157
752.723	0.0166490
752.801	0.0165781
752.879	0.0166666
752.957	0.0165899
753.035	0.0165795
753.113	0.0164895
753.192	0.0166062
753.270	0.0166422
753.348	0.0165156
753.426	0.0166270
753.504	0.0166230
753.582	0.0166592
753.660	0.0164849
753.738	0.0166034
753.817	0.0165626
753.895	0.0165705
753.973	0.0166085
754.051	0.0167451
754.129	0.0165916
754.207	0.0165098
754.285	0.0166032
754.363	0.0165783
754.442	0.0165502
754.520	0.0166941
754.598	0.0166687
754.676	0.0165668
754.754	0.0165673
754.832	0.0165039
754.910	0.0165775
754.988	0.0166467
755.067	0.0166515
755.145	0.0165166
755.223	0.0165527
755.301	0.0168025
755.379	0.0164865
755.457	0.0164688
755.535	0.0166160
755.613	0.0165505
755.692	0.0166753
755.770	0.0165835
755.848	0.0166835
755.926	0.0166041
756.004	0.0165429
756.082	0.0167258
756.160	0.0164701
756.238	0.0165297
756.317	0.0166007
756.395	0.0165398
756.473	0.0165763
756.551	0.0166159
756.629	0.0166307
756.707	0.0166429
756.785	0.0166142
756.863	0.0167229
756.942	0.0166298
757.020	0.0165784
757.098	0.0165354
757.176	0.0164928
757.254	0.0165974
757.332	0.0165574
757.410	0.0166600
757.488	0.0166063
757.567	0.0166753
757.645	0.0166808
757.723	0.0165817
757.801	0.0166474
757.879	0.0165327
757.957	0.0165511
758.035	0.0166518
758.113	0.0166566
758.192	0.0165659
758.270	0.0166585
758.348	0.0165965
758.426	0.0166021
758.504	0.0165925
758.582	0.0165980
758.660	0.0166980
758.738	0.0165376
758.817	0.0166473
758.895	0.0166956
758.973	0.0166052
759.051	0.0165788
759.129	0.0168504
759.207	0.0166616
759.285	0.0166740
759.363	0.0166138
759.442	0.0165244
759.520	0.0167109
759.598	0.0166712
759.676	0.0166663
759.754	0.0166218
759.832	0.0166947
759.910	0.0167012
759.988	0.0166071
760.067	0.0166854
760.145	0.0166792
760.223	0.0165630
760.301	0.0166843
760.379	0.0166613
760.457	0.0166172
760.535	0.0166039
760.613	0.0164272
760.692	0.0166460
760.770	0.0167218
760.848	0.0166500
760.926	0.0166718
761.004	0.0167214
761.082	0.0164456
761.160	0.0166214
761.238	0.0166952
761.317	0.0167194
761.395	0.0166579
761.473	0.0166205
761.551	0.0165615
761.629	0.0166980
761.707	0.0168027
761.785	0.0166531
761.863	0.0166338
761.942	0.0166515
762.020	0.0166343
762.098	0.0165942
762.176	0.0167492
762.254	0.0165805
762.332	0.0166823
762.410	0.0166088
762.488	0.0166547
762.567	0.0166711
762.645	0.0167770
762.723	0.0167274
762.801	0.0166237
762.879	0.0166106
762.957	0.0166176
763.035	0.0165620
763.113	0.0166602
763.192	0.0166911
763.270	0.0166187
763.348	0.0168611
763.426	0.0166997
763.504	0.0166666
763.582	0.0166349
763.660	0.0166226
763.738	0.0166553
763.817	0.0168174
763.895	0.0166975
763.973	0.0166190
764.051	0.0167263
764.129	0.0167131
764.207	0.0166075
764.285	0.0164967
764.363	0.0166570
764.442	0.0167631
764.520	0.0166211
764.598	0.0166136
764.676	0.0165899
764.754	0.0167232
764.832	0.0167682
764.910	0.0166135
764.988	0.0166049
765.067	0.0166463
765.145	0.0167271
765.223	0.0167963
765.301	0.0165353
765.379	0.0167020
765.457	0.0166888
765.535	0.0166134
765.613	0.0167141
765.692	0.0167930
765.770	0.0168283
765.848	0.0168196
765.926	0.0166955
766.004	0.0165894
766.082	0.0167973
766.160	0.0166680
766.238	0.0166882
766.317	0.0166823
766.395	0.0166357
766.473	0.0166830
766.551	0.0166892
766.629	0.0166393
766.707	0.0165912
766.785	0.0164121
766.863	0.0164940
766.942	0.0166551
767.020	0.0166332
767.098	0.0166036
767.176	0.0166715
767.254	0.0167509
767.332	0.0166557
767.410	0.0166302
767.488	0.0166822
767.567	0.0165821
767.645	0.0167085
767.723	0.0166270
767.801	0.0166750
767.879	0.0165801
767.957	0.0166479
768.035	0.0166753
768.113	0.0166637
768.192	0.0166479
768.270	0.0165675
768.348	0.0167201
768.426	0.0166078
768.504	0.0165730
768.582	0.0167619
768.660	0.0166083
768.738	0.0166350
768.817	0.0166729
768.895	0.0166908
768.973	0.0166553
769.051	0.0165617
769.129	0.0167097
769.207	0.0165504
769.285	0.0165164
769.363	0.0165662
769.442	0.0167255
769.520	0.0166413
769.598	0.0165739
769.676	0.0166811
769.754	0.0166166
769.832	0.0166507
769.910	0.0166444
769.988	0.0165646
770.067	0.0166709
770.145	0.0167263
770.223	0.0166819
770.301	0.0165720
770.379	0.0167328
770.457	0.0168130
770.535	0.0166847
770.613	0.0166987
770.692	0.0165621
770.770	0.0165723
770.848	0.0166658
770.926	0.0166119
771.004	0.0167142
771.082	0.0166728
771.160	0.0167014
771.238	0.0167355
771.317	0.0166121
771.395	0.0167065
771.473	0.0165613
771.551	0.0167414
771.629	0.0166139
771.707	0.0166699
771.785	0.0165508
771.863	0.0166743
771.942	0.0167850
772.020	0.0167555
772.098	0.0167067
772.176	0.0166656
772.254	0.0167180
772.332	0.0166077
772.410	0.0166544
772.488	0.0165845
772.567	0.0167332
772.645	0.0166203
772.723	0.0166437
772.801	0.0166233
772.879	0.0166928
772.957	0.0166966
773.035	0.0167136
773.113	0.0167520
773.192	0.0165821
773.270	0.0166090
773.348	0.0166801
773.426	0.0165801
773.504	0.0166455
773.582	0.0166671
773.660	0.0166175
773.738	0.0167049
773.817	0.0166047
773.895	0.0166250
773.973	0.0165943
774.051	0.0165525
774.129	0.0165739
774.207	0.0165577
774.285	0.0166254
774.363	0.0166502
774.442	0.0164243
774.520	0.0165186
774.598	0.0166283
774.676	0.0166079
774.754	0.0166624
774.832	0.0166747
774.910	0.0165807
774.988	0.0165794
775.067	0.0165498
775.145	0.0167116
775.223	0.0165730
775.301	0.0166047
775.379	0.0165771
775.457	0.0165604
775.535	0.0166322
775.613	0.0166989
775.692	0.0165083
775.770	0.0165762
775.848	0.0165833
775.926	0.0165585
776.004	0.0166347
776.082	0.0166701
776.160	0.0165939
776.238	0.0166885
776.317	0.0166336
776.395	0.0166724
776.473	0.0166505
776.551	0.0166885
776.629	0.0167131
776.707	0.0166295
776.785	0.0166288
776.863	0.0167210
776.942	0.0166181
777.020	0.0166199
777.098	0.0165163
777.176	0.0167499
777.254	0.0166725
777.332	0.0165751
777.410	0.0165668
777.488	0.0165665
777.567	0.0166618
777.645	0.0166422
777.723	0.0165010
777.801	0.0166294
777.879	0.0167146
777.957	0.0167299
778.035	0.0166600
778.113	0.0165261
778.192	0.0165964
778.270	0.0166390
778.348	0.0166998
778.426	0.0167477
778.504	0.0166647
778.582	0.0165134
778.660	0.0165543
778.738	0.0167181
778.817	0.0166909
778.895	0.0166734
778.973	0.0165942
779.051	0.0166115
779.129	0.0167264
779.207	0.0166383
779.285	0.0165673
779.363	0.0166111
779.442	0.0165885
779.520	0.0166475
779.598	0.0167113
779.676	0.0165852
779.754	0.0166284
779.832	0.0167209
779.910	0.0165908
779.988	0.0167102
780.067	0.0167671
780.145	0.0166917
780.223	0.0165118
780.301	0.0165631
780.379	0.0167206
780.457	0.0166956
780.535	0.0166673
780.613	0.0166457
780.692	0.0167009
780.770	0.0165655
780.848	0.0165408
780.926	0.0166467
781.004	0.0165250
781.082	0.0165675
781.160	0.0167363
781.238	0.0165359
781.317	0.0165115
781.395	0.0166840
781.473	0.0166342
781.551	0.0165810
781.629	0.0167388
781.707	0.0166751
781.785	0.0167025
781.863	0.0167407
781.942	0.0166713
782.020	0.0165355
782.098	0.0165887
782.176	0.0167374
782.254	0.0165520
782.332	0.0167209
782.410	0.0166215
782.488	0.0166853
782.567	0.0166590
782.645	0.0165792
782.723	0.0166869
782.801	0.0166090
782.879	0.0165782
782.957	0.0166409
783.035	0.0165908
783.113	0.0165884
783.192	0.0166707
783.270	0.0165232
783.348	0.0164899
783.426	0.0166233
783.504	0.0166771
783.582	0.0167458
783.660	0.0166252
783.738	0.0164178
783.817	0.0165127
783.895	0.0166193
783.973	0.0167067
784.051	0.0166872
784.129	0.0166422
784.207	0.0166131
784.285	0.0166141
784.363	0.0165529
784.442	0.0166897
784.520	0.0167511
784.598	0.0166579
784.676	0.0165279
784.754	0.0165945
784.832	0.0165662
784.910	0.0167025
784.988	0.0165991
785.067	0.0165791
785.145	0.0166776
785.223	0.0166545
785.301	0.0165952
785.379	0.0165843
785.457	0.0166905
785.535	0.0165888
785.613	0.0166341
785.692	0.0167007
785.770	0.0167330
785.848	0.0165675
785.926	0.0165896
786.004	0.0166502
786.082	0.0167463
786.160	0.0167787
786.238	0.0166566
786.317	0.0165559
786.395	0.0166629
786.473	0.0167497
786.551	0.0165710
786.629	0.0165982
786.707	0.0166242
786.785	0.0166955
786.863	0.0165981
786.942	0.0167474
787.020	0.0167214
787.098	0.0166781
787.176	0.0166513
787.254	0.0166408
787.332	0.0166253
787.410	0.0166475
787.488	0.0166167
787.567	0.0166473
787.645	0.0167572
787.723	0.0167700
787.801	0.0167489
787.879	0.0166750
787.957	0.0165800
788.035	0.0166328
788.113	0.0165894
788.192	0.0165556
788.270	0.0167480
788.348	0.0167847
788.426	0.0165947
788.504	0.0166763
788.582	0.0165501
788.660	0.0166148
788.738	0.0167124
788.817	0.0165835
788.895	0.0166434
788.973	0.0167255
789.051	0.0166719
789.129	0.0165944
789.207	0.0165738
789.285	0.0167786
789.363	0.0166477
789.442	0.0166238
789.520	0.0166035
789.598	0.0167532
789.676	0.0165765
789.754	0.0165733
789.832	0.0165645
789.910	0.0165713
789.988	0.0167493
790.067	0.0166472
790.145	0.0166975
790.223	0.0166230
790.301	0.0165559
790.379	0.0166869
790.457	0.0166627
790.535	0.0165142
790.613	0.0166476
790.692	0.0166955
790.770	0.0166373
790.848	0.0168324
790.926	0.0166039
791.004	0.0165733
791.082	0.0165448
791.160	0.0166782
791.238	0.0165811
791.317	0.0165768
791.395	0.0166423
791.473	0.0166615
791.551	0.0164652
791.629	0.0165026
791.707	0.0165794
791.785	0.0166773
791.863	0.0166893
791.942	0.0166480
792.020	0.0166787
792.098	0.0165746
792.176	0.0166891
792.254	0.0166412
792.332	0.0167403
792.410	0.0166874
792.488	0.0165231
792.567	0.0166132
792.645	0.0166815
792.723	0.0166557
792.801	0.0167336
792.879	0.0166484
792.957	0.0166714
793.035	0.0166684
793.113	0.0167189
793.192	0.0166681
793.270	0.0166615
793.348	0.0166998
793.426	0.0164642
793.504	0.0166530
793.582	0.0167016
793.660	0.0167063
793.738	0.0166068
793.817	0.0166434
793.895	0.0166322
793.973	0.0167464
794.051	0.0166375
794.129	0.0168063
794.207	0.0165312
794.285	0.0164923
794.363	0.0164979
794.442	0.0167741
794.520	0.0167002
794.598	0.0165955
794.676	0.0165498
794.754	0.0166978
794.832	0.0166648
794.910	0.0166339
794.988	0.0166791
795.067	0.0166037
795.145	0.0166192
795.223	0.0166311
795.301	0.0166753
795.379	0.0167975
795.457	0.0166846
795.535	0.0166026
795.613	0.0167662
795.692	0.0165977
795.770	0.0166879
795.848	0.0167471
795.926	0.0166948
796.004	0.0166277
796.082	0.0166442
796.160	0.0165985
796.238	0.0166280
796.317	0.0165826
796.395	0.0166763
796.473	0.0164881
796.551	0.0166395
796.629	0.0166083
796.707	0.0165434
796.785	0.0165963
796.863	0.0166991
796.942	0.0166906
797.020	0.0165405
797.098	0.0167270
797.176	0.0166618
797.254	0.0166217
797.332	0.0166878
797.410	0.0166702
797.488	0.0167363
797.567	0.0167970
797.645	0.0167532
797.723	0.0166949
797.801	0.0165930
797.879	0.0166137
797.957	0.0164954
798.035	0.0165083
798.113	0.0165746
798.192	0.0165855
798.270	0.0166692
798.348	0.0165827
798.426	0.0165637
798.504	0.0165919
798.582	0.0165724
798.660	0.0165766
798.738	0.0165993
798.817	0.0165749
798.895	0.0167008
798.973	0.0165900
799.051	0.0165353
799.129	0.0167509
799.207	0.0165487
799.285	0.0166071
799.363	0.0166763
799.442	0.0166850
799.520	0.0165285
799.598	0.0166366
799.676	0.0165960
799.754	0.0166715
799.832	0.0165723
799.910	0.0167354
799.988	0.0166527
800.067	0.0165634
800.145	0.0164813
800.223	0.0166047
800.301	0.0166409
800.379	0.0166547
800.457	0.0166637
800.535	0.0165107
800.613	0.0166902
800.692	0.0167858
800.770	0.0166484
800.848	0.0166180
800.926	0.0164800
801.004	0.0166987
801.082	0.0167036
801.160	0.0166605
801.238	0.0166460
801.317	0.0165092
801.395	0.0166357
801.473	0.0167393
801.551	0.0165997
801.629	0.0166812
801.707	0.0165192
801.785	0.0165723
801.863	0.0167004
801.942	0.0164998
802.020	0.0166736
802.098	0.0166716
802.176	0.0165617
802.254	0.0165153
802.332	0.0164455
802.410	0.0166307
802.488	0.0166173
802.567	0.0166600
802.645	0.0165903
802.723	0.0168055
802.801	0.0165779
802.879	0.0166216
802.957	0.0166084
803.035	0.0165475
803.113	0.0165754
803.192	0.0167329
803.270	0.0166852
803.348	0.0164420
803.426	0.0166624
803.504	0.0166159
803.582	0.0166451
803.660	0.0165793
803.738	0.0166953
803.817	0.0166646
803.895	0.0166766
803.973	0.0166028
804.051	0.0166555
804.129	0.0166807
804.207	0.0165831
804.285	0.0166518
804.363	0.0166504
804.442	0.0167140
804.520	0.0165698
804.598	0.0165900
804.676	0.0165929
804.754	0.0166663
804.832	0.0165185
804.910	0.0167273
804.988	0.0165772
805.067	0.0166994
805.145	0.0167465
805.223	0.0166579
805.301	0.0166716
805.379	0.0167652
805.457	0.0166879
805.535	0.0166528
805.613	0.0166940
805.692	0.0167873
805.770	0.0165968
805.848	0.0166148
805.926	0.0164930
806.004	0.0165574
806.082	0.0166929
806.160	0.0166965
806.238	0.0167210
806.317	0.0166261
806.395	0.0167837
806.473	0.0165849
806.551	0.0166044
806.629	0.0165636
806.707	0.0166565
806.785	0.0164424
806.863	0.0166894
806.942	0.0165741
807.020	0.0165821
807.098	0.0166294
807.176	0.0165135
807.254	0.0166592
807.332	0.0166792
807.410	0.0165824
807.488	0.0165837
807.567	0.0166814
807.645	0.0166267
807.723	0.0165874
807.801	0.0166130
807.879	0.0167539
807.957	0.0165411
808.035	0.0167392
808.113	0.0165171
808.192	0.0166349
808.270	0.0167262
808.348	0.0165685
808.426	0.0167460
808.504	0.0167852
808.582	0.0167206
808.660	0.0165997
808.738	0.0165561
808.817	0.0167284
808.895	0.0166762
808.973	0.0165491
809.051	0.0166015
809.129	0.0166472
809.207	0.0165605
809.285	0.0166734
809.363	0.0165354
809.442	0.0165652
809.520	0.0166731
809.598	0.0165528
809.676	0.0166232
809.754	0.0165717
809.832	0.0166715
809.910	0.0166843
809.988	0.0166457
810.067	0.0166196
810.145	0.0165298
810.223	0.0164613
810.301	0.0166930
810.379	0.0165415
810.457	0.0164912
810.535	0.0164948
810.613	0.0168470
810.692	0.0166473
810.770	0.0165947
810.848	0.0165186
810.926	0.0165653
811.004	0.0166074
811.082	0.0165646
811.160	0.0166148
811.238	0.0166474
811.317	0.0165510
811.395	0.0166416
811.473	0.0167258
811.551	0.0166231
811.629	0.0165329
811.707	0.0165395
811.785	0.0165118
811.863	0.0165618
811.942	0.0166101
812.020	0.0165435
812.098	0.0166695
812.176	0.0165591
812.254	0.0165373
812.332	0.0165822
812.410	0.0166631
812.488	0.0165611
812.567	0.0166636
812.645	0.0165791
812.723	0.0165565
812.801	0.0167660
812.879	0.0166038
812.957	0.0165645
813.035	0.0166727
813.113	0.0165923
813.192	0.0165610
813.270	0.0165137
813.348	0.0166550
813.426	0.0166316
813.504	0.0165248
813.582	0.0165728
813.660	0.0166144
813.738	0.0166462
813.817	0.0166438
813.895	0.0167196
813.973	0.0167304
814.051	0.0167035
814.129	0.0166055
814.207	0.0167233
814.285	0.0166204
814.363	0.0166377
814.442	0.0166455
814.520	0.0165727
814.598	0.0164404
814.676	0.0164915
814.754	0.0165848
814.832	0.0165664
814.910	0.0166406
814.988	0.0164772
815.067	0.0164982
815.145	0.0166232
815.223	0.0166571
815.301	0.0165096
815.379	0.0166281
815.457	0.0165421
815.535	0.0165305
815.613	0.0166928
815.692	0.0167048
815.770	0.0165920
815.848	0.0164763
815.926	0.0165067
816.004	0.0166022
816.082	0.0166408
816.160	0.0166481
816.238	0.0165375
816.317	0.0166491
816.395	0.0166486
816.473	0.0165392
816.551	0.0165747
816.629	0.0166644
816.707	0.0165293
816.785	0.0166069
816.863	0.0166437
816.942	0.0165607
817.020	0.0166161
817.098	0.0166892
817.176	0.0165648
817.254	0.0166774
817.332	0.0166062
817.410	0.0166839
817.488	0.0165584
817.567	0.0165919
817.645	0.0165936
817.723	0.0165966
817.801	0.0165596
817.879	0.0165395
817.957	0.0165461
818.035	0.0165814
818.113	0.0167636
818.192	0.0167811
818.270	0.0166453
818.348	0.0165015
818.426	0.0166841
818.504	0.0166691
818.582	0.0165704
818.660	0.0165977
818.738	0.0165805
818.817	0.0165533
818.895	0.0165844
818.973	0.0166328
819.051	0.0167056
819.129	0.0165768
819.207	0.0165380
819.285	0.0165957
819.363	0.0165743
819.442	0.0165395
819.520	0.0166811
819.598	0.0165714
819.676	0.0166596
819.754	0.0165724
819.832	0.0167036
819.910	0.0166248
819.988	0.0166850
820.067	0.0166611
820.145	0.0164868
820.223	0.0165643
820.301	0.0166111
820.379	0.0164958
820.457	0.0166911
820.535	0.0166909
820.613	0.0166369
820.692	0.0167444
820.770	0.0166027
820.848	0.0165967
820.926	0.0166448
821.004	0.0165234
821.082	0.0165910
821.160	0.0166770
821.238	0.0167607
821.317	0.0165936
821.395	0.0165452
821.473	0.0166365
821.551	0.0166479
821.629	0.0166245
821.707	0.0166113
821.785	0.0166493
821.863	0.0166051
821.942	0.0165829
822.020	0.0166816
822.098	0.0167346
822.176	0.0165609
822.254	0.0166604
822.332	0.0167471
822.410	0.0165169
822.488	0.0164767
822.567	0.0166828
822.645	0.0165774
822.723	0.0165562
822.801	0.0166341
822.879	0.0165755
822.957	0.0166996
823.035	0.0166484
823.113	0.0165855
823.192	0.0166460
823.270	0.0165751
823.348	0.0166016
823.426	0.0166079
823.504	0.0167081
823.582	0.0166211
823.660	0.0165455
823.738	0.0165323
823.817	0.0165983
823.895	0.0166301
823.973	0.0165997
824.051	0.0165758
824.129	0.0165646
824.207	0.0164864
824.285	0.0166985
824.363	0.0167199
824.442	0.0167266
824.520	0.0166022
824.598	0.0165626
824.676	0.0165343
824.754	0.0166764
824.832	0.0165783
824.910	0.0167930
824.988	0.0167082
825.067	0.0167148
825.145	0.0165962
825.223	0.0167014
825.301	0.0167146
825.379	0.0167300
825.457	0.0166230
825.535	0.0166566
825.613	0.0165736
825.692	0.0165285
825.770	0.0166486
825.848	0.0165783
825.926	0.0166016
826.004	0.0165723
826.082	0.0166273
826.160	0.0165900
826.238	0.0167043
826.317	0.0166825
826.395	0.0165671
826.473	0.0164671
826.551	0.0166123
826.629	0.0167955
826.707	0.0166436
826.785	0.0165889
826.863	0.0166534
826.942	0.0166167
827.020	0.0166856
827.098	0.0165119
827.176	0.0166691
827.254	0.0167368
827.332	0.0166143
827.410	0.0167041
827.488	0.0166095
827.567	0.0167123
827.645	0.0167501
827.723	0.0165697
827.801	0.0166822
827.879	0.0165391
827.957	0.0166919
828.035	0.0166164
828.113	0.0167226
828.192	0.0166166
828.270	0.0167367
828.348	0.0165807
828.426	0.0166606
828.504	0.0167467
828.582	0.0167126
828.660	0.0166983
828.738	0.0167062
828.817	0.0167782
828.895	0.0166833
828.973	0.0166766
829.051	0.0165242
829.129	0.0166380
829.207	0.0168038
829.285	0.0167015
829.363	0.0166677
829.442	0.0166135
829.520	0.0166354
829.598	0.0165923
829.676	0.0168127
829.754	0.0167633
829.832	0.0166322
829.910	0.0166657
829.988	0.0166418
830.067	0.0166514
830.145	0.0166056
830.223	0.0166719
830.301	0.0166042
830.379	0.0166189
830.457	0.0166657
830.535	0.0166217
830.613	0.0166298
830.692	0.0165672
830.770	0.0166276
830.848	0.0167438
830.926	0.0167272
831.004	0.0166547
831.082	0.0166930
831.160	0.0166103
831.238	0.0166496
831.317	0.0166473
831.395	0.0166032
831.473	0.0166038
831.551	0.0167928
831.629	0.0166493
831.707	0.0166646
831.785	0.0165561
831.863	0.0165976
831.942	0.0166525
832.020	0.0165340
832.098	0.0165962
832.176	0.0166253
832.254	0.0165314
832.332	0.0165662
832.410	0.0166077
832.488	0.0165175
832.567	0.0167342
832.645	0.0167413
832.723	0.0165512
832.801	0.0165962
832.879	0.0165834
832.957	0.0166193
833.035	0.0166515
833.113	0.0167416
833.192	0.0166055
833.270	0.0166008
833.348	0.0166904
833.426	0.0165748
833.504	0.0166702
833.582	0.0165246
833.660	0.0166406
833.738	0.0165267
833.817	0.0165105
833.895	0.0165443
833.973	0.0167596
834.051	0.0166552
834.129	0.0166525
834.207	0.0166171
834.285	0.0166106
834.363	0.0166718
834.442	0.0166050
834.520	0.0166129
834.598	0.0165957
834.676	0.0165764
834.754	0.0166728
834.832	0.0166233
834.910	0.0165476
834.988	0.0165609
835.067	0.0165847
835.145	0.0166601
835.223	0.0165882
835.301	0.0166753
835.379	0.0165816
835.457	0.0165303
835.535	0.0167126
835.613	0.0166005
835.692	0.0166618
835.770	0.0166118
835.848	0.0166247
835.926	0.0166647
836.004	0.0167236
836.082	0.0167175
836.160	0.0166064
836.238	0.0166311
836.317	0.0168043
836.395	0.0166814
836.473	0.0166577
836.551	0.0165765
836.629	0.0166798
836.707	0.0165971
836.785	0.0167033
836.863	0.0166461
836.942	0.0165714
837.020	0.0166925
837.098	0.0167110
837.176	0.0165578
837.254	0.0165770
837.332	0.0166263
837.410	0.0166601
837.488	0.0166276
837.567	0.0166185
837.645	0.0166128
837.723	0.0165499
837.801	0.0166173
837.879	0.0166274
837.957	0.0166531
838.035	0.0165561
838.113	0.0164956
838.192	0.0165247
838.270	0.0164990
838.348	0.0165907
838.426	0.0165116
838.504	0.0164935
838.582	0.0165664
838.660	0.0166988
838.738	0.0166017
838.817	0.0164944
838.895	0.0166204
838.973	0.0166421
839.051	0.0165642
839.129	0.0166440
839.207	0.0166541
839.285	0.0166704
839.363	0.0166132
839.442	0.0165749
839.520	0.0164931
839.598	0.0165731
839.676	0.0165838
839.754	0.0165121
839.832	0.0165823
839.910	0.0166681
839.988	0.0167206
840.067	0.0165974
840.145	0.0168031
840.223	0.0165334
840.301	0.0165907
840.379	0.0167355
840.457	0.0167575
840.535	0.0165703
840.613	0.0166265
840.692	0.0166064
840.770	0.0166209
840.848	0.0165252
840.926	0.0165625
841.004	0.0165255
841.082	0.0165789
841.160	0.0167015
841.238	0.0165737
841.317	0.0165259
841.395	0.0166757
841.473	0.0165456
841.551	0.0168176
841.629	0.0167082
841.707	0.0166120
841.785	0.0166649
841.863	0.0165653
841.942	0.0166045
842.020	0.0166407
842.098	0.0165485
842.176	0.0165745
842.254	0.0165742
842.332	0.0166611
842.410	0.0166576
842.488	0.0165964
842.567	0.0165580
842.645	0.0165848
842.723	0.0166823
842.801	0.0166039
842.879	0.0166283
842.957	0.0166228
843.035	0.0165508
843.113	0.0165605
843.192	0.0166084
843.270	0.0166027
843.348	0.0166225
843.426	0.0166306
843.504	0.0166544
843.582	0.0166419
843.660	0.0165855
843.738	0.0166684
843.817	0.0166696
843.895	0.0165295
843.973	0.0166306
844.051	0.0165708
844.129	0.0167313
844.207	0.0166805
844.285	0.0165968
844.363	0.0165999
844.442	0.0165627
844.520	0.0165922
844.598	0.0166332
844.676	0.0167157
844.754	0.0166396
844.832	0.0166763
844.910	0.0166605
844.988	0.0166647
845.067	0.0167109
845.145	0.0166856
845.223	0.0167014
845.301	0.0167004
845.379	0.0166592
845.457	0.0167095
845.535	0.0165514
845.613	0.0166535
845.692	0.0166203
845.770	0.0165265
845.848	0.0166853
845.926	0.0164182
846.004	0.0165598
846.082	0.0165246
846.160	0.0166184
846.238	0.0165353
846.317	0.0165619
846.395	0.0165858
846.473	0.0164983
846.551	0.0165224
846.629	0.0164287
846.707	0.0165505
846.785	0.0165328
846.863	0.0166469
846.942	0.0166509
847.020	0.0166140
847.098	0.0164645
847.176	0.0166348
847.254	0.0166138
847.332	0.0165681
847.410	0.0165674
847.488	0.0165752
847.567	0.0167110
847.645	0.0165829
847.723	0.0166396
847.801	0.0165581
847.879	0.0166367
847.957	0.0166257
848.035	0.0166006
848.113	0.0165318
848.192	0.0166062
848.270	0.0165836
848.348	0.0165588
848.426	0.0165852
848.504	0.0165118
848.582	0.0167155
848.660	0.0165131
848.738	0.0164870
848.817	0.0165343
848.895	0.0166500
848.973	0.0164727
849.051	0.0165739
849.129	0.0165644
849.207	0.0164914
849.285	0.0165632
849.363	0.0166118
849.442	0.0165357
849.520	0.0165432
849.598	0.0165983
849.676	0.0164890
849.754	0.0166322
849.832	0.0164693
849.910	0.0164859
849.988	0.0165661
850.067	0.0166650
850.145	0.0166818
850.223	0.0165495
850.301	0.0165327
850.379	0.0166648
850.457	0.0166915
850.535	0.0164819
850.613	0.0166859
850.692	0.0166461
850.770	0.0166790
850.848	0.0166634
850.926	0.0164370
851.004	0.0166386
851.082	0.0166861
851.160	0.0165156
851.238	0.0166660
851.317	0.0166533
851.395	0.0165804
851.473	0.0165139
851.551	0.0166438
851.629	0.0165754
851.707	0.0166585
851.785	0.0166970
851.863	0.0166854
851.942	0.0165965
852.020	0.0165819
852.098	0.0165031
852.176	0.0166553
852.254	0.0167161
852.332	0.0166719
852.410	0.0166145
852.488	0.0166316
852.567	0.0165924
852.645	0.0166525
852.723	0.0166397
852.801	0.0167236
852.879	0.0167346
852.957	0.0167645
853.035	0.0167502
853.113	0.0167062
853.192	0.0166340
853.270	0.0166896
853.348	0.0167953
853.426	0.0166042
853.504	0.0166850
853.582	0.0166976
853.660	0.0166549
853.738	0.0164376
853.817	0.0165820
853.895	0.0165831
853.973	0.0166819
854.051	0.0165779
854.129	0.0165943
854.207	0.0165253
854.285	0.0166187
854.363	0.0166190
854.442	0.0165559
854.520	0.0166425
854.598	0.0166591
854.676	0.0167780
854.754	0.0166559
854.832	0.0166615
854.910	0.0165902
854.988	0.0166728
855.067	0.0165765
855.145	0.0166815
855.223	0.0167140
855.301	0.0166534
855.379	0.0165770
855.457	0.0166177
855.535	0.0165509
855.613	0.0165444
855.692	0.0167287
855.770	0.0167115
855.848	0.0166350
855.926	0.0167334
856.004	0.0168109
856.082	0.0167754
856.160	0.0165905
856.238	0.0165963
856.317	0.0166093
856.395	0.0166147
856.473	0.0165833
856.551	0.0166444
856.629	0.0167139
856.707	0.0166363
856.785	0.0165902
856.863	0.0166784
856.942	0.0166455
857.020	0.0167393
857.098	0.0165927
857.176	0.0164857
857.254	0.0165974
857.332	0.0167587
857.410	0.0166569
857.488	0.0166683
857.567	0.0166263
857.645	0.0167359
857.723	0.0166293
857.801	0.0166594
857.879	0.0166906
857.957	0.0166663
858.035	0.0166300
858.113	0.0166806
858.192	0.0167470
858.270	0.0166652
858.348	0.0166599
858.426	0.0166821
858.504	0.0166869
858.582	0.0166791
858.660	0.0166331
858.738	0.0166052
858.817	0.0165024
858.895	0.0166102
858.973	0.0165491
859.051	0.0166864
859.129	0.0167706
859.207	0.0166029
859.285	0.0166933
859.363	0.0166270
859.442	0.0166290
859.520	0.0166695
859.598	0.0165320
859.676	0.0166666
859.754	0.0166515
859.832	0.0166381
859.910	0.0165263
859.988	0.0165398
860.067	0.0165509
860.145	0.0165229
860.223	0.0166085
860.301	0.0165579
860.379	0.0165884
860.457	0.0166300
860.535	0.0166354
860.613	0.0166869
860.692	0.0165220
860.770	0.0165271
860.848	0.0165112
860.926	0.0167561
861.004	0.0164763
861.082	0.0165641
861.160	0.0166397
861.238	0.0166502
861.317	0.0165749
861.395	0.0167216
861.473	0.0165533
861.551	0.0165656
861.629	0.0166891
861.707	0.0167647
861.785	0.0165956
861.863	0.0166692
861.942	0.0165889
862.020	0.0166180
862.098	0.0165614
862.176	0.0166571
862.254	0.0165072
862.332	0.0165182
862.410	0.0166888
862.488	0.0166813
862.567	0.0164777
862.645	0.0165759
862.723	0.0166251
862.801	0.0166803
862.879	0.0167137
862.957	0.0166741
863.035	0.0164548
863.113	0.0165682
863.192	0.0166193
863.270	0.0165408
863.348	0.0166272
863.426	0.0165862
863.504	0.0166043
863.582	0.0164545
863.660	0.0164810
863.738	0.0165465
863.817	0.0166069
863.895	0.0165863
863.973	0.0165881
864.051	0.0165611
864.129	0.0165623
864.207	0.0165717
864.285	0.0166682
864.363	0.0167463
864.442	0.0165566
864.520	0.0166383
864.598	0.0165466
864.676	0.0165572
864.754	0.0165209
864.832	0.0166565
864.910	0.0167494
864.988	0.0166206
865.067	0.0165614
865.145	0.0165974
865.223	0.0165141
865.301	0.0166457
865.379	0.0167130
865.457	0.0164936
865.535	0.0165903
865.613	0.0166756
865.692	0.0166865
865.770	0.0166057
865.848	0.0166878
865.926	0.0166723
866.004	0.0164676
866.082	0.0166610
866.160	0.0166924
866.238	0.0166699
866.317	0.0167008
866.395	0.0165820
866.473	0.0164870
866.551	0.0165971
866.629	0.0165239
866.707	0.0166489
866.785	0.0166420
866.863	0.0166936
866.942	0.0166358
867.020	0.0166440
867.098	0.0166060
867.176	0.0165975
867.254	0.0166497
867.332	0.0167056
867.410	0.0166750
867.488	0.0167305
867.567	0.0166022
867.645	0.0165745
867.723	0.0166111
867.801	0.0165495
867.879	0.0166538
867.957	0.0165793
868.035	0.0166235
868.113	0.0166402
868.192	0.0165687
868.270	0.0165596
868.348	0.0166844
868.426	0.0166810
868.504	0.0166956
868.582	0.0165594
868.660	0.0165916
868.738	0.0166940
868.817	0.0165829
868.895	0.0165774
868.973	0.0166895
869.051	0.0166470
869.129	0.0166842
869.207	0.0165820
869.285	0.0165610
869.363	0.0166431
869.442	0.0164934
869.520	0.0165437
869.598	0.0166338
869.676	0.0166582
869.754	0.0167273
869.832	0.0166480
869.910	0.0165276
869.988	0.0166633
870.067	0.0165738
870.145	0.0165963
870.223	0.0165976
870.301	0.0167421
870.379	0.0165437
870.457	0.0166665
870.535	0.0166064
870.613	0.0167444
870.692	0.0164648
870.770	0.0166672
870.848	0.0167247
870.926	0.0165972
871.004	0.0166740
871.082	0.0167595
871.160	0.0166422
871.238	0.0166230
871.317	0.0166443
871.395	0.0167110
871.473	0.0166101
871.551	0.0166292
871.629	0.0165167
871.707	0.0166004
871.785	0.0166351
871.863	0.0166625
871.942	0.0165870
872.020	0.0165453
872.098	0.0167214
872.176	0.0167017
872.254	0.0166267
872.332	0.0166785
872.410	0.0166364
872.488	0.0165140
872.567	0.0164191
872.645	0.0166395
872.723	0.0166233
872.801	0.0165755
872.879	0.0166673
872.957	0.0167146
873.035	0.0165305
873.113	0.0165791
873.192	0.0165211
873.270	0.0165733
873.348	0.0166868
873.426	0.0165022
873.504	0.0167130
873.582	0.0166785
873.660	0.0166853
873.738	0.0166209
873.817	0.0166943
873.895	0.0166960
873.973	0.0167346
874.051	0.0166592
874.129	0.0167088
874.207	0.0165588
874.285	0.0166024
874.363	0.0166949
874.442	0.0164943
874.520	0.0166487
874.598	0.0166479
874.676	0.0166875
874.754	0.0165490
874.832	0.0166831
874.910	0.0167228
874.988	0.0165497
875.067	0.0166081
875.145	0.0166895
875.223	0.0166942
875.301	0.0165835
875.379	0.0166531
875.457	0.0166277
875.535	0.0166663
875.613	0.0165558
875.692	0.0166878
875.770	0.0166411
875.848	0.0167341
875.926	0.0166352
876.004	0.0166080
876.082	0.0166172
876.160	0.0166415
876.238	0.0166287
876.317	0.0166290
876.395	0.0165699
876.473	0.0165569
876.551	0.0166911
876.629	0.0166071
876.707	0.0165630
876.785	0.0166900
876.863	0.0166613
876.942	0.0164769
877.020	0.0164935
877.098	0.0167417
877.176	0.0165888
877.254	0.0165347
877.332	0.0165659
877.410	0.0167907
877.488	0.0166794
877.567	0.0166888
877.645	0.0165282
877.723	0.0166984
877.801	0.0166245
877.879	0.0165965
877.957	0.0164262
878.035	0.0165832
878.113	0.0166500
878.192	0.0166601
878.270	0.0166444
878.348	0.0166117
878.426	0.0165501
878.504	0.0166609
878.582	0.0166872
878.660	0.0168326
878.738	0.0166618
878.817	0.0165347
878.895	0.0165559
878.973	0.0166699
879.051	0.0166789
879.129	0.0166044
879.207	0.0165936
879.285	0.0166104
879.363	0.0166008
879.442	0.0166562
879.520	0.0166129
879.598	0.0166845
879.676	0.0166335
879.754	0.0166399
879.832	0.0167194
879.910	0.0165899
879.988	0.0167460
880.067	0.0166037
880.145	0.0167408
880.223	0.0166809
880.301	0.0167104
880.379	0.0165735
880.457	0.0166848
880.535	0.0165641
880.613	0.0166721
880.692	0.0166147
880.770	0.0165482
880.848	0.0165759
880.926	0.0166485
881.004	0.0166378
881.082	0.0167278
881.160	0.0166579
881.238	0.0166840
881.317	0.0166016
881.395	0.0164484
881.473	0.0165114
881.551	0.0166614
881.629	0.0166270
881.707	0.0166460
881.785	0.0166108
881.863	0.0167393
881.942	0.0166099
882.020	0.0165968
882.098	0.0166956
882.176	0.0166577
882.254	0.0166129
882.332	0.0165527
882.410	0.0164005
882.488	0.0166472
882.567	0.0166236
882.645	0.0166896
882.723	0.0165969
882.801	0.0166736
882.879	0.0165319
882.957	0.0165281
883.035	0.0165438
883.113	0.0166013
883.192	0.0165884
883.270	0.0165755
883.348	0.0165002
883.426	0.0166389
883.504	0.0167004
883.582	0.0166045
883.660	0.0166287
883.738	0.0165950
883.817	0.0165723
883.895	0.0165614
883.973	0.0167313
884.051	0.0165833
884.129	0.0165965
884.207	0.0165624
884.285	0.0165469
884.363	0.0166219
884.442	0.0167041
884.520	0.0165932
884.598	0.0168542
884.676	0.0167181
884.754	0.0165455
884.832	0.0165655
884.910	0.0166738
884.988	0.0167364
885.067	0.0166546
885.145	0.0166182
885.223	0.0166048
885.301	0.0166066
885.379	0.0165870
885.457	0.0164952
885.535	0.0166476
885.613	0.0165238
885.692	0.0166215
885.770	0.0164869
885.848	0.0166500
885.926	0.0166204
886.004	0.0166953
886.082	0.0164359
886.160	0.0165698
886.238	0.0166850
886.317	0.0165354
886.395	0.0166630
886.473	0.0166802
886.551	0.0166652
886.629	0.0167885
886.707	0.0165914
886.785	0.0166473
886.863	0.0165865
886.942	0.0165609
887.020	0.0167520
887.098	0.0167854
887.176	0.0165951
887.254	0.0166503
887.332	0.0165739
887.410	0.0164773
887.488	0.0166716
887.567	0.0166145
887.645	0.0166532
887.723	0.0167682
887.801	0.0166982
887.879	0.0165445
887.957	0.0165073
888.035	0.0166185
888.113	0.0166507
888.192	0.0166277
888.270	0.0166398
888.348	0.0167069
888.426	0.0167186
888.504	0.0166000
888.582	0.0167654
888.660	0.0166476
888.738	0.0165858
888.817	0.0165511
888.895	0.0166662
888.973	0.0166283
889.051	0.0167185
889.129	0.0166908
889.207	0.0166909
889.285	0.0167625
889.363	0.0166457
889.442	0.0166554
889.520	0.0166641
889.598	0.0165676
889.676	0.0167767
889.754	0.0167612
889.832	0.0165305
889.910	0.0166819
889.988	0.0165816
890.067	0.0165954
890.145	0.0166909
890.223	0.0166328
890.301	0.0166396
890.379	0.0166982
890.457	0.0165650
890.535	0.0165725
890.613	0.0165617
890.692	0.0167129
890.770	0.0165585
890.848	0.0166683
890.926	0.0166235
891.004	0.0166241
891.082	0.0166100
891.160	0.0166050
891.238	0.0166872
891.317	0.0166115
891.395	0.0166981
891.473	0.0167113
891.551	0.0166234
891.629	0.0167878
891.707	0.0166890
891.785	0.0165897
891.863	0.0166615
891.942	0.0166026
892.020	0.0166570
892.098	0.0167498
892.176	0.0166815
892.254	0.0167133
892.332	0.0167325
892.410	0.0167231
892.488	0.0166575
892.567	0.0167195
892.645	0.0165312
892.723	0.0167095
892.801	0.0166785
892.879	0.0167244
892.957	0.0166503
893.035	0.0166040
893.113	0.0165434
893.192	0.0166040
893.270	0.0166010
893.348	0.0166908
893.426	0.0167124
893.504	0.0167229
893.582	0.0166106
893.660	0.0167036
893.738	0.0165833
893.817	0.0166074
893.895	0.0164749
893.973	0.0166440
894.051	0.0166424
894.129	0.0166491
894.207	0.0166563
894.285	0.0166820
894.363	0.0166131
894.442	0.0164971
894.520	0.0166573
894.598	0.0165565
894.676	0.0165932
894.754	0.0166145
894.832	0.0166148
894.910	0.0166953
894.988	0.0167070
895.067	0.0166193
895.145	0.0165994
895.223	0.0167094
895.301	0.0167705
895.379	0.0165806
895.457	0.0167452
895.535	0.0166889
895.613	0.0165077
895.692	0.0166412
895.770	0.0167313
895.848	0.0166776
895.926	0.0166840
896.004	0.0167337
896.082	0.0165945
896.160	0.0167272
896.238	0.0167021
896.317	0.0166022
896.395	0.0164355
896.473	0.0166808
896.551	0.0166263
896.629	0.0167459
896.707	0.0166020
896.785	0.0166134
896.863	0.0167796
896.942	0.0166830
897.020	0.0166489
897.098	0.0166135
897.176	0.0166474
897.254	0.0165731
897.332	0.0166000
897.410	0.0165730
897.488	0.0166447
897.567	0.0165987
897.645	0.0166224
897.723	0.0168008
897.801	0.0167150
897.879	0.0167517
897.957	0.0167142
898.035	0.0165922
898.113	0.0166476
898.192	0.0167289
898.270	0.0165654
898.348	0.0166819
898.426	0.0165314
898.504	0.0166447
898.582	0.0166299
898.660	0.0166060
898.738	0.0165504
898.817	0.0166852
898.895	0.0166048
898.973	0.0165858
899.051	0.0167091
899.129	0.0165289
899.207	0.0165148
899.285	0.0165815
899.363	0.0165488
899.442	0.0166367
899.520	0.0166096
899.598	0.0166991
899.676	0.0165164
899.754	0.0165450
899.832	0.0167300
899.910	0.0166866
899.988	0.0167499
900.067	0.0165395
900.145	0.0166045
900.223	0.0166882
900.301	0.0167502
900.379	0.0165325
900.457	0.0165820
900.535	0.0166048
900.613	0.0164742
900.692	0.0166909
900.770	0.0166153
900.848	0.0165575
900.926	0.0165178
901.004	0.0165058
901.082	0.0166894
901.160	0.0166688
901.238	0.0165490
901.317	0.0165037
901.395	0.0166168
901.473	0.0166466
901.551	0.0165170
901.629	0.0166584
901.707	0.0165766
901.785	0.0165555
901.863	0.0165665
901.942	0.0166183
902.020	0.0165031
902.098	0.0166486
902.176	0.0165953
902.254	0.0166315
902.332	0.0164940
902.410	0.0166316
902.488	0.0166617
902.567	0.0168451
902.645	0.0167304
902.723	0.0166029
902.801	0.0167354
902.879	0.0165730
902.957	0.0166776
903.035	0.0166251
903.113	0.0166854
903.192	0.0167343
903.270	0.0166078
903.348	0.0167397
903.426	0.0166423
903.504	0.0166490
903.582	0.0165246
903.660	0.0166708
903.738	0.0165971
903.817	0.0167586
903.895	0.0165516
903.973	0.0166747
904.051	0.0165791
904.129	0.0165231
904.207	0.0165897
904.285	0.0166924
904.363	0.0165141
904.442	0.0166238
904.520	0.0166168
904.598	0.0167448
904.676	0.0166046
904.754	0.0166620
904.832	0.0165089
904.910	0.0165076
904.988	0.0166260
905.067	0.0165858
905.145	0.0166862
905.223	0.0166923
905.301	0.0165498
905.379	0.0165126
905.457	0.0166637
905.535	0.0165089
905.613	0.0165612
905.692	0.0166788
905.770	0.0166545
905.848	0.0166553
905.926	0.0166047
906.004	0.0164816
906.082	0.0165701
906.160	0.0166690
906.238	0.0166647
906.317	0.0165958
906.395	0.0166088
906.473	0.0165643
906.551	0.0166650
906.629	0.0165137
906.707	0.0165766
906.785	0.0166507
906.863	0.0167195
906.942	0.0166001
907.020	0.0166683
907.098	0.0166074
907.176	0.0164235
907.254	0.0165004
907.332	0.0164434
907.410	0.0165096
907.488	0.0166518
907.567	0.0166376
907.645	0.0166113
907.723	0.0165068
907.801	0.0166306
907.879	0.0165782
907.957	0.0166763
908.035	0.0164543
908.113	0.0166354
908.192	0.0166936
908.270	0.0166504
908.348	0.0166634
908.426	0.0167240
908.504	0.0167332
908.582	0.0166621
908.660	0.0166768
908.738	0.0165830
908.817	0.0166175
908.895	0.0165413
908.973	0.0166466
909.051	0.0166252
909.129	0.0166344
909.207	0.0166460
909.285	0.0165569
909.363	0.0166265
909.442	0.0166422
909.520	0.0165055
909.598	0.0167129
909.676	0.0166921
909.754	0.0166017
909.832	0.0164983
909.910	0.0165331
909.988	0.0166529
910.067	0.0166405
910.145	0.0165485
910.223	0.0166744
910.301	0.0166305
910.379	0.0166550
910.457	0.0166998
910.535	0.0167102
910.613	0.0165962
910.692	0.0166287
910.770	0.0166374
910.848	0.0164872
910.926	0.0166019
911.004	0.0165708
911.082	0.0166463
911.160	0.0166219
911.238	0.0166832
911.317	0.0165707
911.395	0.0166599
911.473	0.0165788
911.551	0.0164923
911.629	0.0166132
911.707	0.0166365
911.785	0.0165455
911.863	0.0166107
911.942	0.0166366
912.020	0.0166212
912.098	0.0165521
912.176	0.0164762
912.254	0.0164845
912.332	0.0166549
912.410	0.0166823
912.488	0.0168177
912.567	0.0166013
912.645	0.0166248
912.723	0.0164870
912.801	0.0165820
912.879	0.0166371
912.957	0.0166422
913.035	0.0165944
913.113	0.0165722
913.192	0.0166617
913.270	0.0165275
913.348	0.0164939
913.426	0.0165816
913.504	0.0165842
913.582	0.0165154
913.660	0.0166740
913.738	0.0166926
913.817	0.0165875
913.895	0.0166383
913.973	0.0165376
914.051	0.0166454
914.129	0.0165854
914.207	0.0166433
914.285	0.0167724
914.363	0.0166599
914.442	0.0166742
914.520	0.0165613
914.598	0.0166295
914.676	0.0164864
914.754	0.0165820
914.832	0.0166599
914.910	0.0165514
914.988	0.0167195
915.067	0.0166500
915.145	0.0166638
915.223	0.0166962
915.301	0.0166628
915.379	0.0166759
915.457	0.0166029
915.535	0.0166183
915.613	0.0165558
915.692	0.0167189
915.770	0.0167543
915.848	0.0166299
915.926	0.0166976
916.004	0.0166005
916.082	0.0165913
916.160	0.0166198
916.238	0.0165440
916.317	0.0165167
916.395	0.0166340
916.473	0.0164012
916.551	0.0166022
916.629	0.0166269
916.707	0.0165997
916.785	0.0166043
916.863	0.0165816
916.942	0.0166121
917.020	0.0165372
917.098	0.0167232
917.176	0.0166918
917.254	0.0165822
917.332	0.0165165
917.410	0.0165925
917.488	0.0167363
917.567	0.0166060
917.645	0.0166212
917.723	0.0166338
917.801	0.0166380
917.879	0.0165912
917.957	0.0165346
918.035	0.0165138
918.113	0.0166341
918.192	0.0166068
918.270	0.0167375
918.348	0.0165256
918.426	0.0165561
918.504	0.0166736
918.582	0.0165788
918.660	0.0166741
918.738	0.0165830
918.817	0.0166086
918.895	0.0166547
918.973	0.0166113
919.051	0.0164522
919.129	0.0166193
919.207	0.0166366
919.285	0.0166668
919.363	0.0166441
919.442	0.0167929
919.520	0.0166351
919.598	0.0164419
919.676	0.0166995
919.754	0.0166224
919.832	0.0164513
919.910	0.0167538
