06/03/2022	14:21:46	Ver.	4.1	UNKNOWN
Optical Delay	599.981738	Delta X		0.078125	Sweeps	1	Scan Rate	0/0
Coordinates	Axis 1	NaN	Axis 2	NaN	Axis 3	NaN	Axis 4	NaN	Axis 5	NaN	Axis 6	0.000000
TX Power	0.000000	RX Power	0.000000

599.982	0.0167728
600.060	0.0169554
600.138	0.0169146
600.216	0.0169173
600.294	0.0168289
600.372	0.0168118
600.450	0.0166186
600.529	0.0167200
600.607	0.0167611
600.685	0.0167159
600.763	0.0167621
600.841	0.0166998
600.919	0.0166173
600.997	0.0166681
601.075	0.0166649
601.154	0.0167653
601.232	0.0166499
601.310	0.0167349
601.388	0.0167892
601.466	0.0168278
601.544	0.0169421
601.622	0.0167841
601.700	0.0167995
601.779	0.0167664
601.857	0.0167099
601.935	0.0167351
602.013	0.0166445
602.091	0.0168140
602.169	0.0166786
602.247	0.0167516
602.325	0.0166942
602.404	0.0164741
602.482	0.0165743
602.560	0.0165697
602.638	0.0165163
602.716	0.0165340
602.794	0.0167146
602.872	0.0165495
602.950	0.0166456
603.029	0.0166965
603.107	0.0167226
603.185	0.0166051
603.263	0.0163259
603.341	0.0165237
603.419	0.0166497
603.497	0.0165633
603.575	0.0164313
603.654	0.0165718
603.732	0.0166189
603.810	0.0165546
603.888	0.0165894
603.966	0.0165577
604.044	0.0165828
604.122	0.0166194
604.200	0.0167091
604.279	0.0166256
604.357	0.0165403
604.435	0.0165640
604.513	0.0166241
604.591	0.0164944
604.669	0.0165134
604.747	0.0165670
604.825	0.0164949
604.904	0.0165822
604.982	0.0165189
605.060	0.0165221
605.138	0.0165585
605.216	0.0165762
605.294	0.0164703
605.372	0.0166255
605.450	0.0165474
605.529	0.0165485
605.607	0.0165843
605.685	0.0165827
605.763	0.0168664
605.841	0.0166516
605.919	0.0166277
605.997	0.0166505
606.075	0.0165846
606.154	0.0166862
606.232	0.0166786
606.310	0.0166678
606.388	0.0167194
606.466	0.0168533
606.544	0.0165697
606.622	0.0166563
606.700	0.0165986
606.779	0.0166750
606.857	0.0166920
606.935	0.0166732
607.013	0.0167242
607.091	0.0166908
607.169	0.0167265
607.247	0.0168973
607.325	0.0166793
607.404	0.0165836
607.482	0.0167055
607.560	0.0166599
607.638	0.0166574
607.716	0.0166299
607.794	0.0166991
607.872	0.0167035
607.950	0.0166608
608.029	0.0166294
608.107	0.0166559
608.185	0.0166760
608.263	0.0167093
608.341	0.0167515
608.419	0.0167208
608.497	0.0166958
608.575	0.0167159
608.654	0.0166424
608.732	0.0168559
608.810	0.0166951
608.888	0.0166904
608.966	0.0167436
609.044	0.0168002
609.122	0.0167768
609.200	0.0168195
609.279	0.0168957
609.357	0.0167406
609.435	0.0166868
609.513	0.0167067
609.591	0.0166210
609.669	0.0167945
609.747	0.0167477
609.825	0.0168262
609.904	0.0167213
609.982	0.0167896
610.060	0.0166837
610.138	0.0166553
610.216	0.0167579
610.294	0.0167368
610.372	0.0168977
610.450	0.0166693
610.529	0.0167522
610.607	0.0167719
610.685	0.0167361
610.763	0.0168890
610.841	0.0168068
610.919	0.0167458
610.997	0.0166710
611.075	0.0165435
611.154	0.0167054
611.232	0.0166959
611.310	0.0166267
611.388	0.0166891
611.466	0.0166663
611.544	0.0168210
611.622	0.0166803
611.700	0.0167500
611.779	0.0167629
611.857	0.0166890
611.935	0.0167989
612.013	0.0167783
612.091	0.0168098
612.169	0.0167236
612.247	0.0167677
612.325	0.0168107
612.404	0.0166908
612.482	0.0166201
612.560	0.0166368
612.638	0.0166704
612.716	0.0167719
612.794	0.0166671
612.872	0.0167831
612.950	0.0166741
613.029	0.0167609
613.107	0.0167426
613.185	0.0167210
613.263	0.0168050
613.341	0.0167010
613.419	0.0166928
613.497	0.0165572
613.575	0.0166572
613.654	0.0167753
613.732	0.0167091
613.810	0.0166581
613.888	0.0167976
613.966	0.0167670
614.044	0.0167306
614.122	0.0166725
614.200	0.0166075
614.279	0.0166540
614.357	0.0167198
614.435	0.0167678
614.513	0.0167213
614.591	0.0166829
614.669	0.0167484
614.747	0.0167469
614.825	0.0167094
614.904	0.0166222
614.982	0.0166978
615.060	0.0165658
615.138	0.0166495
615.216	0.0167711
615.294	0.0166678
615.372	0.0165645
615.450	0.0166348
615.529	0.0165756
615.607	0.0166475
615.685	0.0168057
615.763	0.0166633
615.841	0.0166708
615.919	0.0166022
615.997	0.0169845
616.075	0.0167400
616.154	0.0167770
616.232	0.0166198
616.310	0.0166672
616.388	0.0167133
616.466	0.0167711
616.544	0.0167648
616.622	0.0167680
616.700	0.0167439
616.779	0.0167234
616.857	0.0167578
616.935	0.0168132
617.013	0.0167088
617.091	0.0167829
617.169	0.0168539
617.247	0.0167300
617.325	0.0168913
617.404	0.0168020
617.482	0.0167252
617.560	0.0167365
617.638	0.0168317
617.716	0.0167780
617.794	0.0166542
617.872	0.0168169
617.950	0.0166972
618.029	0.0167528
618.107	0.0167023
618.185	0.0167442
618.263	0.0167344
618.341	0.0167300
618.419	0.0167433
618.497	0.0166900
618.575	0.0168107
618.654	0.0167851
618.732	0.0167329
618.810	0.0166794
618.888	0.0167982
618.966	0.0168736
619.044	0.0167858
619.122	0.0167319
619.200	0.0168258
619.279	0.0168291
619.357	0.0167025
619.435	0.0166669
619.513	0.0168258
619.591	0.0168310
619.669	0.0167645
619.747	0.0167564
619.825	0.0168476
619.904	0.0166906
619.982	0.0167704
620.060	0.0167568
620.138	0.0167358
620.216	0.0168213
620.294	0.0169138
620.372	0.0169000
620.450	0.0169586
620.529	0.0169193
620.607	0.0168594
620.685	0.0167786
620.763	0.0168566
620.841	0.0168774
620.919	0.0168369
620.997	0.0169493
621.075	0.0167566
621.154	0.0168018
621.232	0.0168496
621.310	0.0168951
621.388	0.0167776
621.466	0.0169618
621.544	0.0167950
621.622	0.0167852
621.700	0.0167841
621.779	0.0168721
621.857	0.0167953
621.935	0.0167057
622.013	0.0169028
622.091	0.0168066
622.169	0.0167773
622.247	0.0166158
622.325	0.0168870
622.404	0.0167977
622.482	0.0167719
622.560	0.0166788
622.638	0.0166463
622.716	0.0168157
622.794	0.0168068
622.872	0.0167361
622.950	0.0168082
623.029	0.0167223
623.107	0.0167996
623.185	0.0166625
623.263	0.0167519
623.341	0.0167339
623.419	0.0168101
623.497	0.0166259
623.575	0.0167330
623.654	0.0167373
623.732	0.0166894
623.810	0.0167821
623.888	0.0167725
623.966	0.0168661
624.044	0.0168230
624.122	0.0167191
624.200	0.0167424
624.279	0.0168172
624.357	0.0167729
624.435	0.0168237
624.513	0.0168497
624.591	0.0167220
624.669	0.0167194
624.747	0.0166707
624.825	0.0166909
624.904	0.0166125
624.982	0.0165546
625.060	0.0166879
625.138	0.0167159
625.216	0.0166751
625.294	0.0167169
625.372	0.0166984
625.450	0.0166493
625.529	0.0167312
625.607	0.0165631
625.685	0.0167153
625.763	0.0167659
625.841	0.0166157
625.919	0.0166924
625.997	0.0165952
626.075	0.0167249
626.154	0.0166078
626.232	0.0164816
626.310	0.0165956
626.388	0.0167417
626.466	0.0166940
626.544	0.0165876
626.622	0.0166069
626.700	0.0167604
626.779	0.0166582
626.857	0.0165672
626.935	0.0166657
627.013	0.0166301
627.091	0.0166293
627.169	0.0166269
627.247	0.0165810
627.325	0.0167138
627.404	0.0165962
627.482	0.0166148
627.560	0.0165854
627.638	0.0166773
627.716	0.0166670
627.794	0.0165247
627.872	0.0166086
627.950	0.0167621
628.029	0.0166840
628.107	0.0166019
628.185	0.0167466
628.263	0.0166043
628.341	0.0166136
628.419	0.0166879
628.497	0.0166655
628.575	0.0167036
628.654	0.0165898
628.732	0.0166409
628.810	0.0165268
628.888	0.0166397
628.966	0.0166713
629.044	0.0166389
629.122	0.0167609
629.200	0.0167238
629.279	0.0166116
629.357	0.0166360
629.435	0.0167042
629.513	0.0167030
629.591	0.0167296
629.669	0.0166419
629.747	0.0166570
629.825	0.0165762
629.904	0.0165879
629.982	0.0165590
630.060	0.0165923
630.138	0.0166834
630.216	0.0165768
630.294	0.0164912
630.372	0.0165176
630.450	0.0166254
630.529	0.0166387
630.607	0.0164723
630.685	0.0166537
630.763	0.0166013
630.841	0.0164908
630.919	0.0164539
630.997	0.0164415
631.075	0.0166670
631.154	0.0165366
631.232	0.0165703
631.310	0.0165536
631.388	0.0166076
631.466	0.0165851
631.544	0.0166566
631.622	0.0165952
631.700	0.0165128
631.779	0.0166052
631.857	0.0165157
631.935	0.0165421
632.013	0.0166758
632.091	0.0166724
632.169	0.0165977
632.247	0.0166084
632.325	0.0166628
632.404	0.0166109
632.482	0.0166107
632.560	0.0165480
632.638	0.0165147
632.716	0.0165823
632.794	0.0166197
632.872	0.0164883
632.950	0.0166170
633.029	0.0165277
633.107	0.0165324
633.185	0.0166665
633.263	0.0165756
633.341	0.0164883
633.419	0.0164137
633.497	0.0165906
633.575	0.0166525
633.654	0.0166063
633.732	0.0166015
633.810	0.0166295
633.888	0.0166253
633.966	0.0165745
634.044	0.0164382
634.122	0.0165996
634.200	0.0165815
634.279	0.0165718
634.357	0.0166727
634.435	0.0166071
634.513	0.0165302
634.591	0.0165328
634.669	0.0165473
634.747	0.0165871
634.825	0.0165303
634.904	0.0165710
634.982	0.0166901
635.060	0.0165897
635.138	0.0165710
635.216	0.0167115
635.294	0.0165827
635.372	0.0166146
635.450	0.0166145
635.529	0.0165229
635.607	0.0167223
635.685	0.0165789
635.763	0.0165892
635.841	0.0166651
635.919	0.0165864
635.997	0.0165865
636.075	0.0166103
636.154	0.0165278
636.232	0.0166521
636.310	0.0165752
636.388	0.0165878
636.466	0.0164868
636.544	0.0165618
636.622	0.0164787
636.700	0.0165604
636.779	0.0165603
636.857	0.0166488
636.935	0.0166479
637.013	0.0165685
637.091	0.0165925
637.169	0.0165848
637.247	0.0166805
637.325	0.0166584
637.404	0.0166106
637.482	0.0166027
637.560	0.0166746
637.638	0.0167210
637.716	0.0165841
637.794	0.0166204
637.872	0.0166061
637.950	0.0165781
638.029	0.0165804
638.107	0.0166637
638.185	0.0166699
638.263	0.0165363
638.341	0.0165817
638.419	0.0165392
638.497	0.0165081
638.575	0.0165208
638.654	0.0165713
638.732	0.0165906
638.810	0.0166151
638.888	0.0165151
638.966	0.0165472
639.044	0.0164522
639.122	0.0167212
639.200	0.0165565
639.279	0.0166765
639.357	0.0165390
639.435	0.0166502
639.513	0.0166045
639.591	0.0166003
639.669	0.0165521
639.747	0.0167061
639.825	0.0166270
639.904	0.0167165
639.982	0.0166665
640.060	0.0167410
640.138	0.0168293
640.216	0.0167484
640.294	0.0167579
640.372	0.0166357
640.450	0.0167274
640.529	0.0168784
640.607	0.0167422
640.685	0.0167451
640.763	0.0167683
640.841	0.0167520
640.919	0.0168116
640.997	0.0168420
641.075	0.0169509
641.154	0.0166146
641.232	0.0167062
641.310	0.0168533
641.388	0.0167919
641.466	0.0167609
641.544	0.0167818
641.622	0.0167993
641.700	0.0168557
641.779	0.0167592
641.857	0.0167513
641.935	0.0167949
642.013	0.0168146
642.091	0.0167403
642.169	0.0167446
642.247	0.0168401
642.325	0.0167867
642.404	0.0168178
642.482	0.0168150
642.560	0.0168291
642.638	0.0167662
642.716	0.0166845
642.794	0.0168715
642.872	0.0167099
642.950	0.0167483
643.029	0.0167213
643.107	0.0167787
643.185	0.0168230
643.263	0.0168051
643.341	0.0167579
643.419	0.0167992
643.497	0.0166356
643.575	0.0167347
643.654	0.0166174
643.732	0.0167493
643.810	0.0167802
643.888	0.0167225
643.966	0.0168371
644.044	0.0167625
644.122	0.0166628
644.200	0.0168512
644.279	0.0167008
644.357	0.0168424
644.435	0.0166900
644.513	0.0169128
644.591	0.0169109
644.669	0.0167269
644.747	0.0168057
644.825	0.0168707
644.904	0.0168800
644.982	0.0168363
645.060	0.0168679
645.138	0.0169151
645.216	0.0168906
645.294	0.0168401
645.372	0.0168421
645.450	0.0167782
645.529	0.0167806
645.607	0.0167183
645.685	0.0167416
645.763	0.0166832
645.841	0.0167337
645.919	0.0167107
645.997	0.0166751
646.075	0.0167704
646.154	0.0165133
646.232	0.0165303
646.310	0.0165640
646.388	0.0166180
646.466	0.0167767
646.544	0.0166788
646.622	0.0167130
646.700	0.0165691
646.779	0.0167075
646.857	0.0167957
646.935	0.0166328
647.013	0.0167908
647.091	0.0167908
647.169	0.0167478
647.247	0.0168887
647.325	0.0168452
647.404	0.0168075
647.482	0.0166504
647.560	0.0167429
647.638	0.0168030
647.716	0.0167742
647.794	0.0167783
647.872	0.0166526
647.950	0.0166579
648.029	0.0167023
648.107	0.0167018
648.185	0.0165860
648.263	0.0167070
648.341	0.0167535
648.419	0.0166114
648.497	0.0166305
648.575	0.0165435
648.654	0.0166435
648.732	0.0168970
648.810	0.0166011
648.888	0.0166836
648.966	0.0166808
649.044	0.0166557
649.122	0.0166061
649.200	0.0166586
649.279	0.0167977
649.357	0.0166647
649.435	0.0166775
649.513	0.0166719
649.591	0.0166888
649.669	0.0166457
649.747	0.0167622
649.825	0.0167815
649.904	0.0168619
649.982	0.0166929
650.060	0.0167098
650.138	0.0168983
650.216	0.0169113
650.294	0.0169201
650.372	0.0169558
650.450	0.0170050
650.529	0.0169388
650.607	0.0168457
650.685	0.0169437
650.763	0.0169185
650.841	0.0168063
650.919	0.0168861
650.997	0.0167327
651.075	0.0167649
651.154	0.0169082
651.232	0.0168790
651.310	0.0167576
651.388	0.0167534
651.466	0.0168165
651.544	0.0166294
651.622	0.0168230
651.700	0.0166825
651.779	0.0167625
651.857	0.0167218
651.935	0.0166804
652.013	0.0167265
652.091	0.0166281
652.169	0.0165201
652.247	0.0165324
652.325	0.0164764
652.404	0.0164767
652.482	0.0164871
652.560	0.0165804
652.638	0.0165223
652.716	0.0165729
652.794	0.0166046
652.872	0.0166177
652.950	0.0166339
653.029	0.0166503
653.107	0.0167296
653.185	0.0166845
653.263	0.0166748
653.341	0.0167790
653.419	0.0169157
653.497	0.0166685
653.575	0.0166817
653.654	0.0167584
653.732	0.0168539
653.810	0.0168052
653.888	0.0166461
653.966	0.0168363
654.044	0.0168470
654.122	0.0167818
654.200	0.0168089
654.279	0.0167578
654.357	0.0166977
654.435	0.0166552
654.513	0.0167744
654.591	0.0167739
654.669	0.0167271
654.747	0.0167485
654.825	0.0168555
654.904	0.0169160
654.982	0.0168641
655.060	0.0167928
655.138	0.0167564
655.216	0.0168586
655.294	0.0167569
655.372	0.0167361
655.450	0.0167738
655.529	0.0168198
655.607	0.0167696
655.685	0.0166257
655.763	0.0168181
655.841	0.0168104
655.919	0.0167751
655.997	0.0166281
656.075	0.0167596
656.154	0.0166017
656.232	0.0166253
656.310	0.0167209
656.388	0.0166137
656.466	0.0166148
656.544	0.0166181
656.622	0.0165525
656.700	0.0166216
656.779	0.0166222
656.857	0.0164590
656.935	0.0164742
657.013	0.0165755
657.091	0.0164969
657.169	0.0165974
657.247	0.0165235
657.325	0.0166212
657.404	0.0165664
657.482	0.0165101
657.560	0.0165058
657.638	0.0165503
657.716	0.0166517
657.794	0.0167638
657.872	0.0167460
657.950	0.0169521
658.029	0.0167802
658.107	0.0168682
658.185	0.0168637
658.263	0.0168385
658.341	0.0167752
658.419	0.0167573
658.497	0.0167276
658.575	0.0167194
658.654	0.0168382
658.732	0.0167391
658.810	0.0166555
658.888	0.0166035
658.966	0.0165820
659.044	0.0165879
659.122	0.0165598
659.200	0.0166737
659.279	0.0164957
659.357	0.0164950
659.435	0.0166408
659.513	0.0165675
659.591	0.0166159
659.669	0.0164558
659.747	0.0165546
659.825	0.0165932
659.904	0.0166608
659.982	0.0164281
660.060	0.0164384
660.138	0.0166283
660.216	0.0167528
660.294	0.0167412
660.372	0.0166573
660.450	0.0164600
660.529	0.0164798
660.607	0.0166483
660.685	0.0164706
660.763	0.0164196
660.841	0.0165636
660.919	0.0164854
660.997	0.0165348
661.075	0.0164675
661.154	0.0163786
661.232	0.0165070
661.310	0.0164900
661.388	0.0165067
661.466	0.0165364
661.544	0.0165839
661.622	0.0166016
661.700	0.0166012
661.779	0.0166941
661.857	0.0168095
661.935	0.0167721
662.013	0.0167698
662.091	0.0166685
662.169	0.0167584
662.247	0.0167968
662.325	0.0167175
662.404	0.0167602
662.482	0.0168479
662.560	0.0167913
662.638	0.0168941
662.716	0.0168595
662.794	0.0169602
662.872	0.0166606
662.950	0.0166712
663.029	0.0166491
663.107	0.0166338
663.185	0.0166469
663.263	0.0166675
663.341	0.0165030
663.419	0.0164138
663.497	0.0166628
663.575	0.0165722
663.654	0.0165968
663.732	0.0166276
663.810	0.0166212
663.888	0.0165819
663.966	0.0167686
664.044	0.0166073
664.122	0.0166508
664.200	0.0167822
664.279	0.0168427
664.357	0.0167638
664.435	0.0168411
664.513	0.0168494
664.591	0.0170052
664.669	0.0169151
664.747	0.0169428
664.825	0.0171298
664.904	0.0169064
664.982	0.0170407
665.060	0.0170139
665.138	0.0168954
665.216	0.0167912
665.294	0.0169332
665.372	0.0170779
665.450	0.0169164
665.529	0.0169450
665.607	0.0169318
665.685	0.0168788
665.763	0.0168027
665.841	0.0169035
665.919	0.0168772
665.997	0.0168825
666.075	0.0168403
666.154	0.0169032
666.232	0.0169741
666.310	0.0168665
666.388	0.0170013
666.466	0.0169109
666.544	0.0167915
666.622	0.0168373
666.700	0.0167645
666.779	0.0168877
666.857	0.0168353
666.935	0.0167058
667.013	0.0168314
667.091	0.0167278
667.169	0.0166514
667.247	0.0166661
667.325	0.0166302
667.404	0.0165872
667.482	0.0167158
667.560	0.0166079
667.638	0.0165414
667.716	0.0165996
667.794	0.0165862
667.872	0.0165636
667.950	0.0165049
668.029	0.0166380
668.107	0.0167368
668.185	0.0167525
668.263	0.0166556
668.341	0.0168650
668.419	0.0167468
668.497	0.0168111
668.575	0.0169316
668.654	0.0168950
668.732	0.0169677
668.810	0.0169296
668.888	0.0169739
668.966	0.0169611
669.044	0.0170349
669.122	0.0170228
669.200	0.0169689
669.279	0.0169648
669.357	0.0170071
669.435	0.0170158
669.513	0.0171860
669.591	0.0170343
669.669	0.0170058
669.747	0.0170592
669.825	0.0170190
669.904	0.0170238
669.982	0.0169175
670.060	0.0169621
670.138	0.0170015
670.216	0.0168137
670.294	0.0168249
670.372	0.0169516
670.450	0.0168602
670.529	0.0167855
670.607	0.0168317
670.685	0.0168229
670.763	0.0168467
670.841	0.0167752
670.919	0.0167948
670.997	0.0167233
671.075	0.0168932
671.154	0.0169324
671.232	0.0168867
671.310	0.0168550
671.388	0.0169386
671.466	0.0169579
671.544	0.0170010
671.622	0.0168639
671.700	0.0168962
671.779	0.0168651
671.857	0.0168309
671.935	0.0170363
672.013	0.0169464
672.091	0.0170320
672.169	0.0168293
672.247	0.0169366
672.325	0.0169971
672.404	0.0170601
672.482	0.0169633
672.560	0.0169157
672.638	0.0169768
672.716	0.0169223
672.794	0.0168539
672.872	0.0168151
672.950	0.0168094
673.029	0.0168812
673.107	0.0167097
673.185	0.0168077
673.263	0.0167339
673.341	0.0165924
673.419	0.0165522
673.497	0.0164953
673.575	0.0164156
673.654	0.0163831
673.732	0.0165266
673.810	0.0164153
673.888	0.0164260
673.966	0.0164748
674.044	0.0164408
674.122	0.0164069
674.200	0.0164916
674.279	0.0165328
674.357	0.0166199
674.435	0.0165298
674.513	0.0166380
674.591	0.0167944
674.669	0.0167359
674.747	0.0167798
674.825	0.0167233
674.904	0.0167799
674.982	0.0168185
675.060	0.0169479
675.138	0.0168549
675.216	0.0167474
675.294	0.0168135
675.372	0.0168156
675.450	0.0168120
675.529	0.0168738
675.607	0.0168246
675.685	0.0167802
675.763	0.0167760
675.841	0.0167538
675.919	0.0168267
675.997	0.0167571
676.075	0.0167205
676.154	0.0167713
676.232	0.0168282
676.310	0.0167127
676.388	0.0166554
676.466	0.0167725
676.544	0.0166853
676.622	0.0165832
676.700	0.0166463
676.779	0.0166479
676.857	0.0165916
676.935	0.0163912
677.013	0.0163196
677.091	0.0165615
677.169	0.0166515
677.247	0.0166344
677.325	0.0167574
677.404	0.0166666
677.482	0.0167492
677.560	0.0168016
677.638	0.0167082
677.716	0.0167978
677.794	0.0167570
677.872	0.0169431
677.950	0.0170147
678.029	0.0170404
678.107	0.0170072
678.185	0.0169960
678.263	0.0170734
678.341	0.0170639
678.419	0.0170679
678.497	0.0170704
678.575	0.0169361
678.654	0.0169439
678.732	0.0169745
678.810	0.0169619
678.888	0.0167240
678.966	0.0168113
679.044	0.0167676
679.122	0.0166917
679.200	0.0167545
679.279	0.0166578
679.357	0.0166216
679.435	0.0165578
679.513	0.0164659
679.591	0.0166555
679.669	0.0166461
679.747	0.0165394
679.825	0.0166452
679.904	0.0165959
679.982	0.0165880
680.060	0.0167219
680.138	0.0166538
680.216	0.0165961
680.294	0.0166530
680.372	0.0167271
680.450	0.0166005
680.529	0.0166611
680.607	0.0166364
680.685	0.0167070
680.763	0.0167054
680.841	0.0166236
680.919	0.0165738
680.997	0.0165778
681.075	0.0165849
681.154	0.0166032
681.232	0.0164509
681.310	0.0165307
681.388	0.0165786
681.466	0.0165106
681.544	0.0166265
681.622	0.0164749
681.700	0.0164429
681.779	0.0164190
681.857	0.0165044
681.935	0.0165512
682.013	0.0165314
682.091	0.0166875
682.169	0.0165746
682.247	0.0166952
682.325	0.0167933
682.404	0.0167346
682.482	0.0167697
682.560	0.0167327
682.638	0.0167046
682.716	0.0167319
682.794	0.0168915
682.872	0.0169550
682.950	0.0168233
683.029	0.0167212
683.107	0.0168292
683.185	0.0167954
683.263	0.0169369
683.341	0.0169234
683.419	0.0169134
683.497	0.0167777
683.575	0.0167799
683.654	0.0167930
683.732	0.0168368
683.810	0.0167873
683.888	0.0168923
683.966	0.0168121
684.044	0.0168623
684.122	0.0169119
684.200	0.0169113
684.279	0.0170277
684.357	0.0169601
684.435	0.0171301
684.513	0.0170418
684.591	0.0169009
684.669	0.0170263
684.747	0.0170783
684.825	0.0171201
684.904	0.0170751
684.982	0.0169360
685.060	0.0170992
685.138	0.0169186
685.216	0.0170679
685.294	0.0169524
685.372	0.0169432
685.450	0.0169256
685.529	0.0168085
685.607	0.0168804
685.685	0.0168858
685.763	0.0168182
685.841	0.0168749
685.919	0.0166464
685.997	0.0166351
686.075	0.0168753
686.154	0.0168874
686.232	0.0166804
686.310	0.0165752
686.388	0.0166456
686.466	0.0166400
686.544	0.0167229
686.622	0.0167006
686.700	0.0166773
686.779	0.0166423
686.857	0.0166515
686.935	0.0167176
687.013	0.0166747
687.091	0.0166416
687.169	0.0166177
687.247	0.0168740
687.325	0.0167675
687.404	0.0166691
687.482	0.0167416
687.560	0.0167272
687.638	0.0166532
687.716	0.0166708
687.794	0.0167420
687.872	0.0166578
687.950	0.0167929
688.029	0.0167557
688.107	0.0167793
688.185	0.0167753
688.263	0.0167856
688.341	0.0166919
688.419	0.0166696
688.497	0.0167571
688.575	0.0169372
688.654	0.0167686
688.732	0.0167918
688.810	0.0167877
688.888	0.0167137
688.966	0.0167072
689.044	0.0166603
689.122	0.0168554
689.200	0.0167596
689.279	0.0166323
689.357	0.0167822
689.435	0.0167484
689.513	0.0167291
689.591	0.0169212
689.669	0.0167767
689.747	0.0166657
689.825	0.0167517
689.904	0.0167351
689.982	0.0168732
690.060	0.0168007
690.138	0.0167571
690.216	0.0167361
690.294	0.0167165
690.372	0.0167133
690.450	0.0166458
690.529	0.0167056
690.607	0.0166945
690.685	0.0166998
690.763	0.0166782
690.841	0.0167136
690.919	0.0168298
690.997	0.0166914
691.075	0.0167368
691.154	0.0168171
691.232	0.0166759
691.310	0.0168422
691.388	0.0169855
691.466	0.0170061
691.544	0.0167984
691.622	0.0169086
691.700	0.0170149
691.779	0.0169751
691.857	0.0169283
691.935	0.0170079
692.013	0.0169935
692.091	0.0170159
692.169	0.0170300
692.247	0.0169290
692.325	0.0168112
692.404	0.0170859
692.482	0.0169308
692.560	0.0169077
692.638	0.0169936
692.716	0.0168382
692.794	0.0168517
692.872	0.0169429
692.950	0.0168512
693.029	0.0168505
693.107	0.0168467
693.185	0.0167039
693.263	0.0168704
693.341	0.0166217
693.419	0.0167915
693.497	0.0168135
693.575	0.0168436
693.654	0.0167237
693.732	0.0167549
693.810	0.0167795
693.888	0.0167564
693.966	0.0169148
694.044	0.0168797
694.122	0.0168868
694.200	0.0168153
694.279	0.0169560
694.357	0.0169006
694.435	0.0168264
694.513	0.0168887
694.591	0.0170197
694.669	0.0169807
694.747	0.0170000
694.825	0.0169145
694.904	0.0169267
694.982	0.0168286
695.060	0.0168755
695.138	0.0168859
695.216	0.0167960
695.294	0.0168793
695.372	0.0167078
695.450	0.0167604
695.529	0.0167289
695.607	0.0166780
695.685	0.0165611
695.763	0.0166511
695.841	0.0166144
695.919	0.0166026
695.997	0.0164570
696.075	0.0163531
696.154	0.0164913
696.232	0.0164800
696.310	0.0164652
696.388	0.0164832
696.466	0.0165038
696.544	0.0165742
696.622	0.0166946
696.700	0.0166267
696.779	0.0166427
696.857	0.0167255
696.935	0.0168115
697.013	0.0166741
697.091	0.0168764
697.169	0.0167393
697.247	0.0168636
697.325	0.0167069
697.404	0.0167278
697.482	0.0167139
697.560	0.0167937
697.638	0.0168763
697.716	0.0167944
697.794	0.0166245
697.872	0.0168537
697.950	0.0167472
698.029	0.0167958
698.107	0.0168596
698.185	0.0166689
698.263	0.0168910
698.341	0.0168986
698.419	0.0168378
698.497	0.0167274
698.575	0.0168607
698.654	0.0169039
698.732	0.0170156
698.810	0.0169526
698.888	0.0167574
698.966	0.0168649
699.044	0.0168697
699.122	0.0167691
699.200	0.0168162
699.279	0.0168784
699.357	0.0168713
699.435	0.0169087
699.513	0.0168507
699.591	0.0167535
699.669	0.0168977
699.747	0.0167747
699.825	0.0167123
699.904	0.0169004
699.982	0.0168340
700.060	0.0168034
700.138	0.0168813
700.216	0.0166449
700.294	0.0167131
700.372	0.0167319
700.450	0.0166756
700.529	0.0166901
700.607	0.0167440
700.685	0.0166751
700.763	0.0166460
700.841	0.0166114
700.919	0.0166487
700.997	0.0167107
701.075	0.0167559
701.154	0.0165656
701.232	0.0164768
701.310	0.0162781
701.388	0.0165841
701.466	0.0165671
701.544	0.0164117
701.622	0.0163947
701.700	0.0165107
701.779	0.0164223
701.857	0.0163248
701.935	0.0163258
702.013	0.0164816
702.091	0.0164616
702.169	0.0165201
702.247	0.0164831
702.325	0.0166393
702.404	0.0167216
702.482	0.0167747
702.560	0.0167908
702.638	0.0168388
702.716	0.0169449
702.794	0.0168405
702.872	0.0168662
702.950	0.0170038
703.029	0.0169978
703.107	0.0168024
703.185	0.0167083
703.263	0.0166875
703.341	0.0168674
703.419	0.0169843
703.497	0.0168163
703.575	0.0167416
703.654	0.0166747
703.732	0.0166092
703.810	0.0165967
703.888	0.0166670
703.966	0.0165440
704.044	0.0166011
704.122	0.0165390
704.200	0.0165581
704.279	0.0166115
704.357	0.0164880
704.435	0.0163950
704.513	0.0163071
704.591	0.0163244
704.669	0.0164249
704.747	0.0164737
704.825	0.0166299
704.904	0.0166037
704.982	0.0165021
705.060	0.0165459
705.138	0.0166100
705.216	0.0165614
705.294	0.0166429
705.372	0.0167299
705.450	0.0167866
705.529	0.0167860
705.607	0.0166797
705.685	0.0166650
705.763	0.0168264
705.841	0.0168042
705.919	0.0167500
705.997	0.0167989
706.075	0.0169277
706.154	0.0169418
706.232	0.0167812
706.310	0.0167176
706.388	0.0167706
706.466	0.0167601
706.544	0.0167374
706.622	0.0167159
706.700	0.0166413
706.779	0.0165665
706.857	0.0165309
706.935	0.0166009
707.013	0.0165979
707.091	0.0165265
707.169	0.0165612
707.247	0.0166550
707.325	0.0165597
707.404	0.0165719
707.482	0.0165242
707.560	0.0166985
707.638	0.0166251
707.716	0.0164763
707.794	0.0166117
707.872	0.0166800
707.950	0.0167453
708.029	0.0166737
708.107	0.0167268
708.185	0.0167101
708.263	0.0167125
708.341	0.0167846
708.419	0.0168375
708.497	0.0167331
708.575	0.0167358
708.654	0.0167618
708.732	0.0168510
708.810	0.0168052
708.888	0.0167922
708.966	0.0168586
709.044	0.0168228
709.122	0.0167035
709.200	0.0166731
709.279	0.0166914
709.357	0.0165387
709.435	0.0166768
709.513	0.0165999
709.591	0.0166875
709.669	0.0167710
709.747	0.0166672
709.825	0.0165356
709.904	0.0166914
709.982	0.0167690
710.060	0.0164821
710.138	0.0166790
710.216	0.0165091
710.294	0.0165512
710.372	0.0165828
710.450	0.0166116
710.529	0.0166973
710.607	0.0166179
710.685	0.0165387
710.763	0.0165015
710.841	0.0165707
710.919	0.0165144
710.997	0.0165453
711.075	0.0167124
711.154	0.0166292
711.232	0.0164745
711.310	0.0166113
711.388	0.0166354
711.466	0.0166482
711.544	0.0166944
711.622	0.0165813
711.700	0.0167600
711.779	0.0167062
711.857	0.0166107
711.935	0.0167702
712.013	0.0167562
712.091	0.0167074
712.169	0.0166766
712.247	0.0169216
712.325	0.0168513
712.404	0.0168526
712.482	0.0168899
712.560	0.0169395
712.638	0.0168076
712.716	0.0166378
712.794	0.0167897
712.872	0.0167833
712.950	0.0168575
713.029	0.0167731
713.107	0.0167123
713.185	0.0166589
713.263	0.0167947
713.341	0.0167197
713.419	0.0167857
713.497	0.0168205
713.575	0.0168736
713.654	0.0168575
713.732	0.0168246
713.810	0.0169952
713.888	0.0168837
713.966	0.0168867
714.044	0.0169797
714.122	0.0169027
714.200	0.0170730
714.279	0.0169288
714.357	0.0169388
714.435	0.0169295
714.513	0.0168822
714.591	0.0168354
714.669	0.0167649
714.747	0.0168083
714.825	0.0167736
714.904	0.0168600
714.982	0.0168224
715.060	0.0166943
715.138	0.0166049
715.216	0.0166845
715.294	0.0167290
715.372	0.0167118
715.450	0.0165955
715.529	0.0166005
715.607	0.0165648
715.685	0.0166088
715.763	0.0166577
715.841	0.0165900
715.919	0.0166612
715.997	0.0165170
716.075	0.0165276
716.154	0.0164866
716.232	0.0164614
716.310	0.0164892
716.388	0.0166657
716.466	0.0166135
716.544	0.0166284
716.622	0.0168069
716.700	0.0166866
716.779	0.0167558
716.857	0.0169424
716.935	0.0168125
717.013	0.0168575
717.091	0.0169222
717.169	0.0168268
717.247	0.0168595
717.325	0.0167576
717.404	0.0168587
717.482	0.0169234
717.560	0.0168178
717.638	0.0169207
717.716	0.0167610
717.794	0.0167088
717.872	0.0168153
717.950	0.0168108
718.029	0.0169215
718.107	0.0168202
718.185	0.0167820
718.263	0.0167754
718.341	0.0168160
718.419	0.0167287
718.497	0.0165684
718.575	0.0166852
718.654	0.0166875
718.732	0.0167252
718.810	0.0166174
718.888	0.0165626
718.966	0.0165116
719.044	0.0166979
719.122	0.0167498
719.200	0.0165800
719.279	0.0166766
719.357	0.0165786
719.435	0.0166454
719.513	0.0166608
719.591	0.0167255
719.669	0.0165323
719.747	0.0166257
719.825	0.0166135
719.904	0.0166972
719.982	0.0167870
720.060	0.0166153
720.138	0.0165798
720.216	0.0167245
720.294	0.0165550
720.372	0.0166467
720.450	0.0165973
720.529	0.0166952
720.607	0.0167730
720.685	0.0166705
720.763	0.0166127
720.841	0.0168471
720.919	0.0166806
720.997	0.0166884
721.075	0.0167345
721.154	0.0168388
721.232	0.0167759
721.310	0.0167070
721.388	0.0168600
721.466	0.0168281
721.544	0.0167682
721.622	0.0167503
721.700	0.0166727
721.779	0.0166533
721.857	0.0166861
721.935	0.0166233
722.013	0.0165836
722.091	0.0166377
722.169	0.0167147
722.247	0.0166339
722.325	0.0165088
722.404	0.0166425
722.482	0.0165273
722.560	0.0165548
722.638	0.0165871
722.716	0.0165378
722.794	0.0162779
722.872	0.0164843
722.950	0.0165295
723.029	0.0165634
723.107	0.0164402
723.185	0.0164962
723.263	0.0167403
723.341	0.0166238
723.419	0.0167214
723.497	0.0166071
723.575	0.0165457
723.654	0.0165468
723.732	0.0166735
723.810	0.0166228
723.888	0.0165948
723.966	0.0165746
724.044	0.0167664
724.122	0.0165636
724.200	0.0167585
724.279	0.0167821
724.357	0.0167001
724.435	0.0167033
724.513	0.0166404
724.591	0.0167898
724.669	0.0168548
724.747	0.0168144
724.825	0.0167293
724.904	0.0169071
724.982	0.0169999
725.060	0.0168610
725.138	0.0168736
725.216	0.0168469
725.294	0.0168509
725.372	0.0169010
725.450	0.0166635
725.529	0.0168797
725.607	0.0169024
725.685	0.0169366
725.763	0.0167978
725.841	0.0168918
725.919	0.0167842
725.997	0.0166904
726.075	0.0167936
726.154	0.0167376
726.232	0.0165483
726.310	0.0165652
726.388	0.0165490
726.466	0.0164927
726.544	0.0164492
726.622	0.0163947
726.700	0.0164629
726.779	0.0164645
726.857	0.0163967
726.935	0.0163452
727.013	0.0161826
727.091	0.0162158
727.169	0.0162774
727.247	0.0163516
727.325	0.0163840
727.404	0.0164865
727.482	0.0163327
727.560	0.0163188
727.638	0.0164691
727.716	0.0165128
727.794	0.0165081
727.872	0.0165549
727.950	0.0166512
728.029	0.0164465
728.107	0.0165757
728.185	0.0166519
728.263	0.0166328
728.341	0.0166987
728.419	0.0166903
728.497	0.0167834
728.575	0.0167020
728.654	0.0167460
728.732	0.0166789
728.810	0.0167448
728.888	0.0167711
728.966	0.0165565
729.044	0.0165797
729.122	0.0165508
729.200	0.0167299
729.279	0.0167480
729.357	0.0167329
729.435	0.0166864
729.513	0.0167868
729.591	0.0166383
729.669	0.0166729
729.747	0.0167224
729.825	0.0168144
729.904	0.0167233
729.982	0.0167686
730.060	0.0166393
730.138	0.0167300
730.216	0.0167523
730.294	0.0167732
730.372	0.0166924
730.450	0.0167165
730.529	0.0168193
730.607	0.0168874
730.685	0.0166765
730.763	0.0168391
730.841	0.0168987
730.919	0.0169001
730.997	0.0169923
731.075	0.0169646
731.154	0.0168752
731.232	0.0168360
731.310	0.0168980
731.388	0.0168871
731.466	0.0168092
731.544	0.0166986
731.622	0.0167952
731.700	0.0167692
731.779	0.0167382
731.857	0.0167958
731.935	0.0167387
732.013	0.0167406
732.091	0.0167151
732.169	0.0166791
732.247	0.0168208
732.325	0.0168243
732.404	0.0167664
732.482	0.0167878
732.560	0.0166671
732.638	0.0166872
732.716	0.0166858
732.794	0.0168137
732.872	0.0166446
732.950	0.0166711
733.029	0.0167409
733.107	0.0166840
733.185	0.0166055
733.263	0.0166484
733.341	0.0167330
733.419	0.0167239
733.497	0.0167418
733.575	0.0166061
733.654	0.0166658
733.732	0.0166286
733.810	0.0166056
733.888	0.0166907
733.966	0.0167493
734.044	0.0168224
734.122	0.0167727
734.200	0.0167970
734.279	0.0166647
734.357	0.0167561
734.435	0.0167084
734.513	0.0167936
734.591	0.0167548
734.669	0.0167052
734.747	0.0166749
734.825	0.0167561
734.904	0.0167429
734.982	0.0167345
735.060	0.0166076
735.138	0.0167680
735.216	0.0166608
735.294	0.0166653
735.372	0.0166319
735.450	0.0167355
735.529	0.0166345
735.607	0.0165011
735.685	0.0165399
735.763	0.0166769
735.841	0.0167954
735.919	0.0165784
735.997	0.0166663
736.075	0.0167033
736.154	0.0166813
736.232	0.0167371
736.310	0.0168676
736.388	0.0168665
736.466	0.0167072
736.544	0.0168494
736.622	0.0167982
736.700	0.0167545
736.779	0.0168645
736.857	0.0167947
736.935	0.0167676
737.013	0.0168363
737.091	0.0169251
737.169	0.0167276
737.247	0.0166420
737.325	0.0167300
737.404	0.0167650
737.482	0.0167949
737.560	0.0168092
737.638	0.0168638
737.716	0.0166180
737.794	0.0167853
737.872	0.0167834
737.950	0.0166763
738.029	0.0165794
738.107	0.0167337
738.185	0.0167272
738.263	0.0167016
738.341	0.0169134
738.419	0.0168459
738.497	0.0168494
738.575	0.0170066
738.654	0.0169001
738.732	0.0167583
738.810	0.0168316
738.888	0.0168429
738.966	0.0168099
739.044	0.0168217
739.122	0.0166512
739.200	0.0167857
739.279	0.0168044
739.357	0.0166805
739.435	0.0165811
739.513	0.0167737
739.591	0.0167639
739.669	0.0166875
739.747	0.0168005
739.825	0.0168377
739.904	0.0168909
739.982	0.0168083
740.060	0.0167198
740.138	0.0169122
740.216	0.0168937
740.294	0.0168668
740.372	0.0169202
740.450	0.0169469
740.529	0.0169402
740.607	0.0168540
740.685	0.0168198
740.763	0.0169937
740.841	0.0168668
740.919	0.0169735
740.997	0.0167446
741.075	0.0168980
741.154	0.0167867
741.232	0.0169086
741.310	0.0168852
741.388	0.0167056
741.466	0.0166663
741.544	0.0167579
741.622	0.0167578
741.700	0.0166796
741.779	0.0166084
741.857	0.0165665
741.935	0.0165302
742.013	0.0164729
742.091	0.0163396
742.169	0.0165325
742.247	0.0164764
742.325	0.0163863
742.404	0.0165646
742.482	0.0164764
742.560	0.0163676
742.638	0.0164727
742.716	0.0165791
742.794	0.0165644
742.872	0.0164930
742.950	0.0164604
743.029	0.0164967
743.107	0.0165756
743.185	0.0164613
743.263	0.0166981
743.341	0.0165725
743.419	0.0165910
743.497	0.0165147
743.575	0.0166988
743.654	0.0166454
743.732	0.0166932
743.810	0.0165637
743.888	0.0165544
743.966	0.0165489
744.044	0.0165376
744.122	0.0165417
744.200	0.0164986
744.279	0.0165618
744.357	0.0166990
744.435	0.0166040
744.513	0.0167323
744.591	0.0166329
744.669	0.0166763
744.747	0.0167717
744.825	0.0166468
744.904	0.0167486
744.982	0.0168815
745.060	0.0168141
745.138	0.0165980
745.216	0.0167711
745.294	0.0167722
745.372	0.0167416
745.450	0.0166943
745.529	0.0166624
745.607	0.0166981
745.685	0.0166577
745.763	0.0167787
745.841	0.0166739
745.919	0.0167928
745.997	0.0166829
746.075	0.0167500
746.154	0.0168798
746.232	0.0168027
746.310	0.0168310
746.388	0.0168735
746.466	0.0168657
746.544	0.0167207
746.622	0.0169000
746.700	0.0169011
746.779	0.0168852
746.857	0.0168265
746.935	0.0167935
747.013	0.0168333
747.091	0.0168577
747.169	0.0167857
747.247	0.0167183
747.325	0.0166441
747.404	0.0167223
747.482	0.0167207
747.560	0.0167043
747.638	0.0165709
747.716	0.0166675
747.794	0.0167130
747.872	0.0168445
747.950	0.0166931
748.029	0.0166489
748.107	0.0167912
748.185	0.0168518
748.263	0.0166927
748.341	0.0167546
748.419	0.0166888
748.497	0.0167860
748.575	0.0167795
748.654	0.0170362
748.732	0.0168347
748.810	0.0168849
748.888	0.0168217
748.966	0.0169277
749.044	0.0166939
749.122	0.0166784
749.200	0.0166550
749.279	0.0166715
749.357	0.0166891
749.435	0.0165240
749.513	0.0164663
749.591	0.0162847
749.669	0.0162929
749.747	0.0164573
749.825	0.0163117
749.904	0.0163052
749.982	0.0162314
750.060	0.0164570
750.138	0.0164819
750.216	0.0165401
750.294	0.0165089
750.372	0.0163110
750.450	0.0163361
750.529	0.0165219
750.607	0.0164507
750.685	0.0166513
750.763	0.0166746
750.841	0.0166505
750.919	0.0165639
750.997	0.0165203
751.075	0.0166302
751.154	0.0165578
751.232	0.0165336
751.310	0.0166743
751.388	0.0165971
751.466	0.0164864
751.544	0.0167193
751.622	0.0165174
751.700	0.0165330
751.779	0.0166168
751.857	0.0164214
751.935	0.0164471
752.013	0.0165793
752.091	0.0166843
752.169	0.0166243
752.247	0.0166649
752.325	0.0166410
752.404	0.0166328
752.482	0.0167696
752.560	0.0167506
752.638	0.0167638
752.716	0.0167831
752.794	0.0167727
752.872	0.0168532
752.950	0.0169397
753.029	0.0168243
753.107	0.0168370
753.185	0.0167423
753.263	0.0168703
753.341	0.0170186
753.419	0.0169704
753.497	0.0169634
753.575	0.0169530
753.654	0.0169235
753.732	0.0170499
753.810	0.0169426
753.888	0.0169917
753.966	0.0170064
754.044	0.0169739
754.122	0.0169254
754.200	0.0169678
754.279	0.0169564
754.357	0.0168095
754.435	0.0168211
754.513	0.0166763
754.591	0.0167093
754.669	0.0166388
754.747	0.0166219
754.825	0.0165272
754.904	0.0165252
754.982	0.0166342
755.060	0.0166016
755.138	0.0164893
755.216	0.0165014
755.294	0.0165508
755.372	0.0165646
755.450	0.0165147
755.529	0.0165829
755.607	0.0166249
755.685	0.0165826
755.763	0.0165638
755.841	0.0165871
755.919	0.0167386
755.997	0.0165991
756.075	0.0166533
756.154	0.0168375
756.232	0.0167554
756.310	0.0167573
756.388	0.0167446
756.466	0.0168388
756.544	0.0167870
756.622	0.0167871
756.700	0.0168035
756.779	0.0168181
756.857	0.0169688
756.935	0.0167138
757.013	0.0166630
757.091	0.0166585
757.169	0.0166033
757.247	0.0164165
757.325	0.0165645
757.404	0.0165536
757.482	0.0164989
757.560	0.0164433
757.638	0.0163954
757.716	0.0163622
757.794	0.0163490
757.872	0.0163807
757.950	0.0164839
758.029	0.0164206
758.107	0.0163913
758.185	0.0164050
758.263	0.0165708
758.341	0.0166113
758.419	0.0165431
758.497	0.0165694
758.575	0.0166535
758.654	0.0165161
758.732	0.0165856
758.810	0.0166176
758.888	0.0166730
758.966	0.0165316
759.044	0.0166386
759.122	0.0164989
759.200	0.0165159
759.279	0.0166683
759.357	0.0167053
759.435	0.0164858
759.513	0.0165298
759.591	0.0164173
759.669	0.0166142
759.747	0.0165667
759.825	0.0165022
759.904	0.0166956
759.982	0.0165388
760.060	0.0168073
760.138	0.0168521
760.216	0.0167758
760.294	0.0167822
760.372	0.0168941
760.450	0.0168143
760.529	0.0168293
760.607	0.0168266
760.685	0.0168068
760.763	0.0168861
760.841	0.0168095
760.919	0.0169463
760.997	0.0169136
761.075	0.0168272
761.154	0.0168774
761.232	0.0170564
761.310	0.0169594
761.388	0.0168598
761.466	0.0168950
761.544	0.0167203
761.622	0.0169518
761.700	0.0169042
761.779	0.0169344
761.857	0.0168961
761.935	0.0167522
762.013	0.0169225
762.091	0.0169463
762.169	0.0168608
762.247	0.0170083
762.325	0.0168684
762.404	0.0169997
762.482	0.0170432
762.560	0.0168275
762.638	0.0169154
762.716	0.0169246
762.794	0.0169594
762.872	0.0169516
762.950	0.0167913
763.029	0.0168179
763.107	0.0169930
763.185	0.0168597
763.263	0.0168055
763.341	0.0168862
763.419	0.0167238
763.497	0.0168082
763.575	0.0169525
763.654	0.0168023
763.732	0.0168618
763.810	0.0168410
763.888	0.0167709
763.966	0.0168903
764.044	0.0167928
764.122	0.0167493
764.200	0.0167049
764.279	0.0167561
764.357	0.0168311
764.435	0.0166741
764.513	0.0166995
764.591	0.0167905
764.669	0.0166875
764.747	0.0167860
764.825	0.0166071
764.904	0.0165364
764.982	0.0166409
765.060	0.0165953
765.138	0.0164956
765.216	0.0163602
765.294	0.0164072
765.372	0.0163860
765.450	0.0164464
765.529	0.0163792
765.607	0.0163444
765.685	0.0164822
765.763	0.0165254
765.841	0.0165397
765.919	0.0166142
765.997	0.0164542
766.075	0.0165234
766.154	0.0167110
766.232	0.0167136
766.310	0.0167511
766.388	0.0166024
766.466	0.0166647
766.544	0.0167081
766.622	0.0167118
766.700	0.0166880
766.779	0.0165191
766.857	0.0164948
766.935	0.0165225
767.013	0.0166208
767.091	0.0164782
767.169	0.0164349
767.247	0.0164689
767.325	0.0166180
767.404	0.0165167
767.482	0.0164966
767.560	0.0165498
767.638	0.0164968
767.716	0.0166248
767.794	0.0166553
767.872	0.0166523
767.950	0.0168568
768.029	0.0166908
768.107	0.0166823
768.185	0.0166980
768.263	0.0168105
768.341	0.0168398
768.419	0.0167548
768.497	0.0166348
768.575	0.0167220
768.654	0.0168758
768.732	0.0168427
768.810	0.0167687
768.888	0.0168963
768.966	0.0167538
769.044	0.0168602
769.122	0.0167094
769.200	0.0168064
769.279	0.0167672
769.357	0.0167301
769.435	0.0166746
769.513	0.0167896
769.591	0.0167495
769.669	0.0168993
769.747	0.0168247
769.825	0.0169400
769.904	0.0166904
769.982	0.0167664
770.060	0.0166966
770.138	0.0167850
770.216	0.0167867
770.294	0.0166679
770.372	0.0166742
770.450	0.0167294
770.529	0.0168987
770.607	0.0166990
770.685	0.0168031
770.763	0.0167545
770.841	0.0168137
770.919	0.0168583
770.997	0.0168443
771.075	0.0169025
771.154	0.0168369
771.232	0.0167998
771.310	0.0167545
771.388	0.0168285
771.466	0.0167759
771.544	0.0168363
771.622	0.0169637
771.700	0.0168002
771.779	0.0167175
771.857	0.0168224
771.935	0.0167223
772.013	0.0167693
772.091	0.0167992
772.169	0.0166708
772.247	0.0166905
772.325	0.0167255
772.404	0.0166458
772.482	0.0166041
772.560	0.0166602
772.638	0.0167337
772.716	0.0166543
772.794	0.0165357
772.872	0.0166373
772.950	0.0166595
773.029	0.0165267
773.107	0.0164727
773.185	0.0164700
773.263	0.0165578
773.341	0.0165607
773.419	0.0166590
773.497	0.0166084
773.575	0.0165235
773.654	0.0166319
773.732	0.0165578
773.810	0.0164202
773.888	0.0167142
773.966	0.0165556
774.044	0.0165102
774.122	0.0165388
774.200	0.0165241
774.279	0.0164912
774.357	0.0166307
774.435	0.0165963
774.513	0.0165884
774.591	0.0165417
774.669	0.0166360
774.747	0.0165438
774.825	0.0165546
774.904	0.0166029
774.982	0.0165785
775.060	0.0166264
775.138	0.0166341
775.216	0.0166816
775.294	0.0165733
775.372	0.0167426
775.450	0.0167411
775.529	0.0167469
775.607	0.0167764
775.685	0.0168885
775.763	0.0167725
775.841	0.0168124
775.919	0.0170489
775.997	0.0168462
776.075	0.0168964
776.154	0.0169218
776.232	0.0169859
776.310	0.0170387
776.388	0.0168010
776.466	0.0171006
776.544	0.0170026
776.622	0.0169093
776.700	0.0168774
776.779	0.0169006
776.857	0.0168989
776.935	0.0168315
777.013	0.0170646
777.091	0.0169687
777.169	0.0168148
777.247	0.0169464
777.325	0.0168714
777.404	0.0168524
777.482	0.0168815
777.560	0.0169717
777.638	0.0169227
777.716	0.0169205
777.794	0.0169271
777.872	0.0168929
777.950	0.0168954
778.029	0.0169533
778.107	0.0169656
778.185	0.0169712
778.263	0.0168842
778.341	0.0168488
778.419	0.0167595
778.497	0.0168217
778.575	0.0170313
778.654	0.0168792
778.732	0.0168052
778.810	0.0170190
778.888	0.0168362
778.966	0.0167948
779.044	0.0169655
779.122	0.0167899
779.200	0.0167502
779.279	0.0167859
779.357	0.0168935
779.435	0.0168611
779.513	0.0168089
779.591	0.0167599
779.669	0.0167132
779.747	0.0168096
779.825	0.0168199
779.904	0.0168761
779.982	0.0167543
780.060	0.0167090
780.138	0.0169627
780.216	0.0168687
780.294	0.0168410
780.372	0.0168460
780.450	0.0167732
780.529	0.0168016
780.607	0.0166609
780.685	0.0167462
780.763	0.0166282
780.841	0.0168058
780.919	0.0168546
780.997	0.0167783
781.075	0.0167296
781.154	0.0165314
781.232	0.0165768
781.310	0.0166324
781.388	0.0165137
781.466	0.0164703
781.544	0.0165690
781.622	0.0164695
781.700	0.0164384
781.779	0.0165635
781.857	0.0165984
781.935	0.0164726
782.013	0.0167062
782.091	0.0168437
782.169	0.0165707
782.247	0.0166106
782.325	0.0167521
782.404	0.0166953
782.482	0.0167116
782.560	0.0166407
782.638	0.0166200
782.716	0.0168185
782.794	0.0167059
782.872	0.0167109
782.950	0.0167567
783.029	0.0167979
783.107	0.0167716
783.185	0.0167097
783.263	0.0167718
783.341	0.0165696
783.419	0.0169255
783.497	0.0168431
783.575	0.0165885
783.654	0.0167230
783.732	0.0167973
783.810	0.0166965
783.888	0.0167675
783.966	0.0166876
784.044	0.0167608
784.122	0.0168626
784.200	0.0168045
784.279	0.0167444
784.357	0.0167695
784.435	0.0166898
784.513	0.0168844
784.591	0.0167252
784.669	0.0166605
784.747	0.0167324
784.825	0.0167391
784.904	0.0166492
784.982	0.0166930
785.060	0.0167494
785.138	0.0167891
785.216	0.0165720
785.294	0.0166680
785.372	0.0166267
785.450	0.0166644
785.529	0.0166735
785.607	0.0167419
785.685	0.0165424
785.763	0.0166651
785.841	0.0165679
785.919	0.0165645
785.997	0.0166848
786.075	0.0165726
786.154	0.0167329
786.232	0.0165756
786.310	0.0165602
786.388	0.0166728
786.466	0.0165284
786.544	0.0165704
786.622	0.0165185
786.700	0.0165398
786.779	0.0165780
786.857	0.0165380
786.935	0.0165946
787.013	0.0166245
787.091	0.0166940
787.169	0.0166562
787.247	0.0166520
787.325	0.0166467
787.404	0.0166799
787.482	0.0167116
787.560	0.0166702
787.638	0.0166550
787.716	0.0166772
787.794	0.0166338
787.872	0.0165575
787.950	0.0166644
788.029	0.0166078
788.107	0.0164321
788.185	0.0166051
788.263	0.0164480
788.341	0.0165141
788.419	0.0166060
788.497	0.0164936
788.575	0.0165658
788.654	0.0165798
788.732	0.0165251
788.810	0.0164754
788.888	0.0164307
788.966	0.0164578
789.044	0.0163354
789.122	0.0164484
789.200	0.0165953
789.279	0.0165356
789.357	0.0163747
789.435	0.0165899
789.513	0.0166497
789.591	0.0166064
789.669	0.0164620
789.747	0.0164991
789.825	0.0166076
789.904	0.0166881
789.982	0.0165142
790.060	0.0166007
790.138	0.0165842
790.216	0.0166730
790.294	0.0165395
790.372	0.0166938
790.450	0.0167252
790.529	0.0167073
790.607	0.0167297
790.685	0.0166148
790.763	0.0166402
790.841	0.0167836
790.919	0.0167785
790.997	0.0167581
791.075	0.0167918
791.154	0.0168214
791.232	0.0167751
791.310	0.0169238
791.388	0.0168890
791.466	0.0169143
791.544	0.0168716
791.622	0.0169354
791.700	0.0170312
791.779	0.0168951
791.857	0.0169364
791.935	0.0169421
792.013	0.0169627
792.091	0.0169226
792.169	0.0170268
792.247	0.0168863
792.325	0.0169453
792.404	0.0169347
792.482	0.0168323
792.560	0.0167023
792.638	0.0168808
792.716	0.0168481
792.794	0.0168561
792.872	0.0168335
792.950	0.0167476
793.029	0.0168445
793.107	0.0169077
793.185	0.0168890
793.263	0.0167570
793.341	0.0167147
793.419	0.0167217
793.497	0.0166088
793.575	0.0167011
793.654	0.0167482
793.732	0.0165971
793.810	0.0167934
793.888	0.0168339
793.966	0.0169486
794.044	0.0167204
794.122	0.0168206
794.200	0.0167610
794.279	0.0168949
794.357	0.0168568
794.435	0.0167752
794.513	0.0168686
794.591	0.0167112
794.669	0.0168532
794.747	0.0168517
794.825	0.0167198
794.904	0.0167918
794.982	0.0168587
795.060	0.0167628
795.138	0.0167308
795.216	0.0167860
795.294	0.0167358
795.372	0.0167019
795.450	0.0166393
795.529	0.0167567
795.607	0.0166066
795.685	0.0167016
795.763	0.0167381
795.841	0.0165691
795.919	0.0167640
795.997	0.0166489
796.075	0.0166286
796.154	0.0166578
796.232	0.0165685
796.310	0.0166655
796.388	0.0165981
796.466	0.0166818
796.544	0.0166040
796.622	0.0166489
796.700	0.0166287
796.779	0.0169022
796.857	0.0167324
796.935	0.0166763
797.013	0.0167270
797.091	0.0167143
797.169	0.0166039
797.247	0.0166022
797.325	0.0167226
797.404	0.0167577
797.482	0.0166760
797.560	0.0167778
797.638	0.0167216
797.716	0.0167982
797.794	0.0168128
797.872	0.0166738
797.950	0.0167797
798.029	0.0167332
798.107	0.0168597
798.185	0.0169877
798.263	0.0169077
798.341	0.0168246
798.419	0.0168275
798.497	0.0169845
798.575	0.0168840
798.654	0.0170554
798.732	0.0169939
798.810	0.0169896
798.888	0.0168492
798.966	0.0170168
799.044	0.0167454
799.122	0.0169372
799.200	0.0169698
799.279	0.0169144
799.357	0.0170679
799.435	0.0170671
799.513	0.0169773
799.591	0.0168504
799.669	0.0168773
799.747	0.0169923
799.825	0.0169509
799.904	0.0169041
799.982	0.0169057
800.060	0.0168933
800.138	0.0169273
800.216	0.0169056
800.294	0.0168999
800.372	0.0168467
800.450	0.0169331
800.529	0.0168955
800.607	0.0168064
800.685	0.0167622
800.763	0.0168587
800.841	0.0166995
800.919	0.0168809
800.997	0.0167508
801.075	0.0167638
801.154	0.0167445
801.232	0.0165963
801.310	0.0167912
801.388	0.0168783
801.466	0.0166682
801.544	0.0167092
801.622	0.0166731
801.700	0.0166188
801.779	0.0165866
801.857	0.0167563
801.935	0.0167122
802.013	0.0167367
802.091	0.0167224
802.169	0.0166043
802.247	0.0165756
802.325	0.0166543
802.404	0.0167027
802.482	0.0167211
802.560	0.0166943
802.638	0.0168095
802.716	0.0167106
802.794	0.0167757
802.872	0.0167377
802.950	0.0167536
803.029	0.0167926
803.107	0.0166776
803.185	0.0167253
803.263	0.0167197
803.341	0.0167664
803.419	0.0167899
803.497	0.0167097
803.575	0.0166962
803.654	0.0167255
803.732	0.0166005
803.810	0.0167220
803.888	0.0168465
803.966	0.0167346
804.044	0.0166823
804.122	0.0168172
804.200	0.0167727
804.279	0.0167035
804.357	0.0167637
804.435	0.0167109
804.513	0.0167004
804.591	0.0166710
804.669	0.0167384
804.747	0.0167214
804.825	0.0167917
804.904	0.0168719
804.982	0.0167269
805.060	0.0167928
805.138	0.0167093
805.216	0.0167094
805.294	0.0167844
805.372	0.0167136
805.450	0.0167030
805.529	0.0166956
805.607	0.0166811
805.685	0.0167940
805.763	0.0166571
805.841	0.0166820
805.919	0.0166597
805.997	0.0168394
806.075	0.0167126
806.154	0.0167800
806.232	0.0167090
806.310	0.0167556
806.388	0.0167533
806.466	0.0167365
806.544	0.0167153
806.622	0.0167510
806.700	0.0166933
806.779	0.0168339
806.857	0.0168018
806.935	0.0167087
807.013	0.0168488
807.091	0.0167784
807.169	0.0167224
807.247	0.0167944
807.325	0.0166241
807.404	0.0167635
807.482	0.0168056
807.560	0.0166891
807.638	0.0166979
807.716	0.0169045
807.794	0.0166969
807.872	0.0166395
807.950	0.0166216
808.029	0.0166623
808.107	0.0167451
808.185	0.0167249
808.263	0.0166916
808.341	0.0167429
808.419	0.0167158
808.497	0.0167155
808.575	0.0167698
808.654	0.0167723
808.732	0.0167708
808.810	0.0166850
808.888	0.0167301
808.966	0.0167239
809.044	0.0165059
809.122	0.0166579
809.200	0.0166894
809.279	0.0165955
809.357	0.0165865
809.435	0.0167323
809.513	0.0167074
809.591	0.0167111
809.669	0.0166851
809.747	0.0166077
809.825	0.0166658
809.904	0.0166515
809.982	0.0167246
810.060	0.0166293
810.138	0.0166022
810.216	0.0166955
810.294	0.0167607
810.372	0.0165922
810.450	0.0167366
810.529	0.0166863
810.607	0.0167403
810.685	0.0167240
810.763	0.0166191
810.841	0.0168755
810.919	0.0167691
810.997	0.0166671
811.075	0.0165325
811.154	0.0166594
811.232	0.0166039
811.310	0.0167832
811.388	0.0166907
811.466	0.0166225
811.544	0.0166743
811.622	0.0166508
811.700	0.0166525
811.779	0.0168088
811.857	0.0167442
811.935	0.0166447
812.013	0.0167939
812.091	0.0167257
812.169	0.0167902
812.247	0.0168514
812.325	0.0168893
812.404	0.0167841
812.482	0.0168737
812.560	0.0168569
812.638	0.0169995
812.716	0.0168388
812.794	0.0168947
812.872	0.0169262
812.950	0.0169919
813.029	0.0169176
813.107	0.0171011
813.185	0.0169536
813.263	0.0170093
813.341	0.0168755
813.419	0.0169585
813.497	0.0170011
813.575	0.0169485
813.654	0.0168073
813.732	0.0170280
813.810	0.0170396
813.888	0.0169039
813.966	0.0169868
814.044	0.0169770
814.122	0.0171714
814.200	0.0170875
814.279	0.0168646
814.357	0.0169494
814.435	0.0169830
814.513	0.0168707
814.591	0.0168420
814.669	0.0169359
814.747	0.0169362
814.825	0.0170609
814.904	0.0168410
814.982	0.0168690
815.060	0.0169861
815.138	0.0168922
815.216	0.0168587
815.294	0.0168120
815.372	0.0169009
815.450	0.0167404
815.529	0.0168990
815.607	0.0168652
815.685	0.0168021
815.763	0.0166716
815.841	0.0169075
815.919	0.0167664
815.997	0.0166655
816.075	0.0166674
816.154	0.0166895
816.232	0.0167841
816.310	0.0166633
816.388	0.0166855
816.466	0.0166150
816.544	0.0166143
816.622	0.0165669
816.700	0.0164254
816.779	0.0165981
816.857	0.0166678
816.935	0.0166168
817.013	0.0164784
817.091	0.0167037
817.169	0.0165549
817.247	0.0164404
817.325	0.0165361
817.404	0.0164806
817.482	0.0165524
817.560	0.0165879
817.638	0.0165577
817.716	0.0165442
817.794	0.0164743
817.872	0.0165149
817.950	0.0166512
818.029	0.0165709
818.107	0.0165423
818.185	0.0164903
818.263	0.0164816
818.341	0.0165909
818.419	0.0164757
818.497	0.0164967
818.575	0.0166351
818.654	0.0164864
818.732	0.0165122
818.810	0.0164842
818.888	0.0165025
818.966	0.0164935
819.044	0.0165268
819.122	0.0164166
819.200	0.0166029
819.279	0.0164302
819.357	0.0164333
819.435	0.0163765
819.513	0.0165038
819.591	0.0164062
819.669	0.0165081
819.747	0.0165548
819.825	0.0164375
819.904	0.0164119
819.982	0.0165212
820.060	0.0163442
820.138	0.0164397
820.216	0.0165696
820.294	0.0164397
820.372	0.0165144
820.450	0.0164777
820.529	0.0165697
820.607	0.0167147
820.685	0.0164798
820.763	0.0165913
820.841	0.0166989
820.919	0.0167030
820.997	0.0165905
821.075	0.0167149
821.154	0.0166817
821.232	0.0167361
821.310	0.0166887
821.388	0.0166295
821.466	0.0166432
821.544	0.0166599
821.622	0.0166545
821.700	0.0167560
821.779	0.0166911
821.857	0.0167968
821.935	0.0168066
822.013	0.0167770
822.091	0.0166303
822.169	0.0165887
822.247	0.0166946
822.325	0.0167578
822.404	0.0167827
822.482	0.0168744
822.560	0.0168935
822.638	0.0167182
822.716	0.0167426
822.794	0.0167839
822.872	0.0167480
822.950	0.0167004
823.029	0.0167518
823.107	0.0167007
823.185	0.0168146
823.263	0.0167966
823.341	0.0167576
823.419	0.0166730
823.497	0.0167797
823.575	0.0167944
823.654	0.0167261
823.732	0.0166584
823.810	0.0168209
823.888	0.0166594
823.966	0.0167845
824.044	0.0166352
824.122	0.0168415
824.200	0.0168818
824.279	0.0167840
824.357	0.0167459
824.435	0.0167446
824.513	0.0167094
824.591	0.0167828
824.669	0.0168268
824.747	0.0168493
824.825	0.0168518
824.904	0.0168112
824.982	0.0166788
825.060	0.0165717
825.138	0.0167315
825.216	0.0166603
825.294	0.0167265
825.372	0.0167756
825.450	0.0167085
825.529	0.0165952
825.607	0.0165948
825.685	0.0166892
825.763	0.0166377
825.841	0.0166492
825.919	0.0165653
825.997	0.0167315
826.075	0.0166352
826.154	0.0167085
826.232	0.0166626
826.310	0.0165716
826.388	0.0165855
826.466	0.0167288
826.544	0.0167382
826.622	0.0166316
826.700	0.0166046
826.779	0.0167168
826.857	0.0167735
826.935	0.0167757
827.013	0.0167532
827.091	0.0167877
827.169	0.0167148
827.247	0.0167871
827.325	0.0166988
827.404	0.0167131
827.482	0.0166756
827.560	0.0166537
827.638	0.0165934
827.716	0.0164883
827.794	0.0167494
827.872	0.0166280
827.950	0.0165417
828.029	0.0166605
828.107	0.0166888
828.185	0.0166127
828.263	0.0165379
828.341	0.0166114
828.419	0.0167193
828.497	0.0166277
828.575	0.0167505
828.654	0.0166287
828.732	0.0167238
828.810	0.0167271
828.888	0.0167332
828.966	0.0166478
829.044	0.0165874
829.122	0.0165717
829.200	0.0166216
829.279	0.0167664
829.357	0.0167064
829.435	0.0167657
829.513	0.0165436
829.591	0.0166321
829.669	0.0167132
829.747	0.0166969
829.825	0.0166692
829.904	0.0166817
829.982	0.0167761
830.060	0.0167197
830.138	0.0169212
830.216	0.0168002
830.294	0.0166825
830.372	0.0168433
830.450	0.0168788
830.529	0.0168234
830.607	0.0167683
830.685	0.0167372
830.763	0.0168650
830.841	0.0167686
830.919	0.0169574
830.997	0.0167987
831.075	0.0167635
831.154	0.0166856
831.232	0.0167281
831.310	0.0167045
831.388	0.0169441
831.466	0.0168775
831.544	0.0168108
831.622	0.0168881
831.700	0.0166752
831.779	0.0168181
831.857	0.0167936
831.935	0.0168190
832.013	0.0167646
832.091	0.0167174
832.169	0.0168028
832.247	0.0168242
832.325	0.0166898
832.404	0.0166721
832.482	0.0167009
832.560	0.0167408
832.638	0.0166980
832.716	0.0166545
832.794	0.0167265
832.872	0.0167227
832.950	0.0167930
833.029	0.0167341
833.107	0.0168612
833.185	0.0168038
833.263	0.0167006
833.341	0.0166731
833.419	0.0166155
833.497	0.0166737
833.575	0.0165641
833.654	0.0165195
833.732	0.0168250
833.810	0.0165137
833.888	0.0165665
833.966	0.0165176
834.044	0.0167194
834.122	0.0165462
834.200	0.0165200
834.279	0.0164918
834.357	0.0166209
834.435	0.0166317
834.513	0.0166209
834.591	0.0166720
834.669	0.0167524
834.747	0.0166677
834.825	0.0167715
834.904	0.0166557
834.982	0.0167926
835.060	0.0168459
835.138	0.0166596
835.216	0.0166920
835.294	0.0167502
835.372	0.0167982
835.450	0.0166816
835.529	0.0169035
835.607	0.0168253
835.685	0.0167928
835.763	0.0167918
835.841	0.0166846
835.919	0.0168414
835.997	0.0168722
836.075	0.0169111
836.154	0.0167281
836.232	0.0168263
836.310	0.0166555
836.388	0.0167311
836.466	0.0168086
836.544	0.0167887
836.622	0.0167827
836.700	0.0166365
836.779	0.0166518
836.857	0.0167102
836.935	0.0166599
837.013	0.0167647
837.091	0.0167878
837.169	0.0166106
837.247	0.0166298
837.325	0.0168716
837.404	0.0168018
837.482	0.0167344
837.560	0.0167596
837.638	0.0166661
837.716	0.0165562
837.794	0.0167867
837.872	0.0167614
837.950	0.0166485
838.029	0.0167477
838.107	0.0166772
838.185	0.0166693
838.263	0.0165970
838.341	0.0166332
838.419	0.0167954
838.497	0.0168041
838.575	0.0167508
838.654	0.0166634
838.732	0.0166779
838.810	0.0166123
838.888	0.0168212
838.966	0.0167869
839.044	0.0167474
839.122	0.0166439
839.200	0.0168427
839.279	0.0168104
839.357	0.0167807
839.435	0.0166800
839.513	0.0168661
839.591	0.0168394
839.669	0.0167979
839.747	0.0167086
839.825	0.0168084
839.904	0.0166591
839.982	0.0167451
840.060	0.0166151
840.138	0.0167905
840.216	0.0167802
840.294	0.0167830
840.372	0.0167086
840.450	0.0166943
840.529	0.0167289
840.607	0.0167823
840.685	0.0165855
840.763	0.0166739
840.841	0.0166849
840.919	0.0166894
840.997	0.0167972
841.075	0.0165704
841.154	0.0166617
841.232	0.0168108
841.310	0.0166261
841.388	0.0166193
841.466	0.0166000
841.544	0.0166366
841.622	0.0165495
841.700	0.0165829
841.779	0.0167036
841.857	0.0167544
841.935	0.0165694
842.013	0.0164841
842.091	0.0166192
842.169	0.0166272
842.247	0.0165755
842.325	0.0165355
842.404	0.0165576
842.482	0.0166176
842.560	0.0166051
842.638	0.0164806
842.716	0.0166055
842.794	0.0164978
842.872	0.0165495
842.950	0.0165288
843.029	0.0165138
843.107	0.0165995
843.185	0.0165910
843.263	0.0166167
843.341	0.0165987
843.419	0.0166278
843.497	0.0164676
843.575	0.0166299
843.654	0.0165617
843.732	0.0165866
843.810	0.0164974
843.888	0.0166765
843.966	0.0166276
844.044	0.0165736
844.122	0.0165774
844.200	0.0166189
844.279	0.0165888
844.357	0.0164983
844.435	0.0166178
844.513	0.0164788
844.591	0.0165372
844.669	0.0165738
844.747	0.0166943
844.825	0.0165321
844.904	0.0166135
844.982	0.0164954
845.060	0.0165443
845.138	0.0166270
845.216	0.0164555
845.294	0.0165587
845.372	0.0164662
845.450	0.0164776
845.529	0.0165180
845.607	0.0165740
845.685	0.0165275
845.763	0.0164948
845.841	0.0165250
845.919	0.0167260
845.997	0.0165771
846.075	0.0164729
846.154	0.0164755
846.232	0.0165093
846.310	0.0165776
846.388	0.0164970
846.466	0.0165374
846.544	0.0165163
846.622	0.0165625
846.700	0.0165958
846.779	0.0165365
846.857	0.0165968
846.935	0.0166259
847.013	0.0167139
847.091	0.0165807
847.169	0.0165779
847.247	0.0166247
847.325	0.0165928
847.404	0.0167256
847.482	0.0165940
847.560	0.0166856
847.638	0.0166663
847.716	0.0164902
847.794	0.0166046
847.872	0.0166266
847.950	0.0165929
848.029	0.0165882
848.107	0.0166191
848.185	0.0167133
848.263	0.0166641
848.341	0.0166637
848.419	0.0167442
848.497	0.0167582
848.575	0.0166955
848.654	0.0165897
848.732	0.0167932
848.810	0.0166841
848.888	0.0165438
848.966	0.0165559
849.044	0.0165908
849.122	0.0166036
849.200	0.0166411
849.279	0.0166576
849.357	0.0166955
849.435	0.0164970
849.513	0.0165543
849.591	0.0166270
849.669	0.0166048
849.747	0.0166158
849.825	0.0164680
849.904	0.0167545
849.982	0.0165454
850.060	0.0165939
850.138	0.0166098
850.216	0.0166708
850.294	0.0167006
850.372	0.0166805
850.450	0.0167483
850.529	0.0166621
850.607	0.0168533
850.685	0.0167960
850.763	0.0167313
850.841	0.0166688
850.919	0.0167313
850.997	0.0167552
851.075	0.0169004
851.154	0.0167563
851.232	0.0168763
851.310	0.0168613
851.388	0.0166917
851.466	0.0167987
851.544	0.0168149
851.622	0.0167590
851.700	0.0166127
851.779	0.0166730
851.857	0.0166553
851.935	0.0168040
852.013	0.0167994
852.091	0.0167728
852.169	0.0168552
852.247	0.0167018
852.325	0.0168195
852.404	0.0167717
852.482	0.0167281
852.560	0.0168337
852.638	0.0166676
852.716	0.0166691
852.794	0.0166243
852.872	0.0167102
852.950	0.0169056
853.029	0.0169045
853.107	0.0167245
853.185	0.0167360
853.263	0.0167146
853.341	0.0166603
853.419	0.0167171
853.497	0.0168713
853.575	0.0167129
853.654	0.0168273
853.732	0.0168442
853.810	0.0167542
853.888	0.0167796
853.966	0.0167137
854.044	0.0166756
854.122	0.0167781
854.200	0.0167973
854.279	0.0167546
854.357	0.0167616
854.435	0.0167767
854.513	0.0166761
854.591	0.0168650
854.669	0.0167403
854.747	0.0166245
854.825	0.0167517
854.904	0.0167994
854.982	0.0166985
855.060	0.0165846
855.138	0.0165957
855.216	0.0166882
855.294	0.0167313
855.372	0.0166616
855.450	0.0166725
855.529	0.0166882
855.607	0.0167577
855.685	0.0168543
855.763	0.0166471
855.841	0.0166659
855.919	0.0166369
855.997	0.0167573
856.075	0.0168121
856.154	0.0167242
856.232	0.0166531
856.310	0.0166194
856.388	0.0167863
856.466	0.0166617
856.544	0.0166293
856.622	0.0167750
856.700	0.0167309
856.779	0.0166999
856.857	0.0167292
856.935	0.0166928
857.013	0.0166986
857.091	0.0166186
857.169	0.0166042
857.247	0.0168678
857.325	0.0167277
857.404	0.0166763
857.482	0.0167976
857.560	0.0168132
857.638	0.0167774
857.716	0.0168024
857.794	0.0168848
857.872	0.0167989
857.950	0.0167783
858.029	0.0169481
858.107	0.0167702
858.185	0.0167740
858.263	0.0168963
858.341	0.0168071
858.419	0.0168320
858.497	0.0167552
858.575	0.0167786
858.654	0.0167896
858.732	0.0169048
858.810	0.0168721
858.888	0.0167529
858.966	0.0166968
859.044	0.0167587
859.122	0.0167720
859.200	0.0168609
859.279	0.0170328
859.357	0.0168556
859.435	0.0166678
859.513	0.0168876
859.591	0.0169230
859.669	0.0170391
859.747	0.0169295
859.825	0.0168797
859.904	0.0169684
859.982	0.0169354
860.060	0.0168538
860.138	0.0168772
860.216	0.0168993
860.294	0.0169155
860.372	0.0169138
860.450	0.0168944
860.529	0.0169617
860.607	0.0168327
860.685	0.0169966
860.763	0.0169125
860.841	0.0169324
860.919	0.0168237
860.997	0.0168951
861.075	0.0168024
861.154	0.0168443
861.232	0.0169321
861.310	0.0168652
861.388	0.0168412
861.466	0.0166921
861.544	0.0167841
861.622	0.0168399
861.700	0.0167994
861.779	0.0168014
861.857	0.0168183
861.935	0.0168999
862.013	0.0168109
862.091	0.0167847
862.169	0.0168021
862.247	0.0167030
862.325	0.0167635
862.404	0.0167945
862.482	0.0167342
862.560	0.0167686
862.638	0.0168870
862.716	0.0167652
862.794	0.0168470
862.872	0.0168126
862.950	0.0166625
863.029	0.0167057
863.107	0.0167497
863.185	0.0166588
863.263	0.0167119
863.341	0.0167319
863.419	0.0167021
863.497	0.0167986
863.575	0.0166871
863.654	0.0168051
863.732	0.0166941
863.810	0.0165938
863.888	0.0166566
863.966	0.0168281
864.044	0.0165522
864.122	0.0166919
864.200	0.0166990
864.279	0.0165080
864.357	0.0166144
864.435	0.0167074
864.513	0.0166950
864.591	0.0165880
864.669	0.0165966
864.747	0.0167013
864.825	0.0166020
864.904	0.0165466
864.982	0.0166358
865.060	0.0165370
865.138	0.0166736
865.216	0.0164380
865.294	0.0166483
865.372	0.0166409
865.450	0.0167171
865.529	0.0166267
865.607	0.0166101
865.685	0.0167648
865.763	0.0167355
865.841	0.0167358
865.919	0.0167071
865.997	0.0165221
866.075	0.0167567
866.154	0.0168977
866.232	0.0167683
866.310	0.0167245
866.388	0.0167539
866.466	0.0167406
866.544	0.0167859
866.622	0.0166291
866.700	0.0167861
866.779	0.0167674
866.857	0.0168244
866.935	0.0166739
867.013	0.0167191
867.091	0.0167319
867.169	0.0166205
867.247	0.0167817
867.325	0.0168388
867.404	0.0167899
867.482	0.0167960
867.560	0.0167136
867.638	0.0166725
867.716	0.0166850
867.794	0.0166023
867.872	0.0167709
867.950	0.0167319
868.029	0.0167866
868.107	0.0167122
868.185	0.0167056
868.263	0.0167200
868.341	0.0166734
868.419	0.0166399
868.497	0.0166996
868.575	0.0164938
868.654	0.0167150
868.732	0.0166730
868.810	0.0167053
868.888	0.0167452
868.966	0.0166348
869.044	0.0166738
869.122	0.0166969
869.200	0.0166483
869.279	0.0168184
869.357	0.0166761
869.435	0.0166248
869.513	0.0166792
869.591	0.0166233
869.669	0.0166668
869.747	0.0166521
869.825	0.0167098
869.904	0.0167707
869.982	0.0167553
870.060	0.0167709
870.138	0.0165214
870.216	0.0166723
870.294	0.0166660
870.372	0.0167652
870.450	0.0165625
870.529	0.0166830
870.607	0.0167076
870.685	0.0166710
870.763	0.0167097
870.841	0.0166246
870.919	0.0166979
870.997	0.0167116
871.075	0.0166972
871.154	0.0167131
871.232	0.0167902
871.310	0.0166388
871.388	0.0167796
871.466	0.0168052
871.544	0.0167993
871.622	0.0167208
871.700	0.0168380
871.779	0.0168384
871.857	0.0166951
871.935	0.0166664
872.013	0.0168828
872.091	0.0169321
872.169	0.0167754
872.247	0.0167853
872.325	0.0168224
872.404	0.0168661
872.482	0.0168660
872.560	0.0168095
872.638	0.0170098
872.716	0.0169084
872.794	0.0168820
872.872	0.0168922
872.950	0.0168622
873.029	0.0167963
873.107	0.0168484
873.185	0.0168407
873.263	0.0168911
873.341	0.0169268
873.419	0.0169012
873.497	0.0167502
873.575	0.0168055
873.654	0.0169468
873.732	0.0168777
873.810	0.0168554
873.888	0.0167690
873.966	0.0169935
874.044	0.0167742
874.122	0.0167387
874.200	0.0168166
874.279	0.0169386
874.357	0.0168165
874.435	0.0168407
874.513	0.0168645
874.591	0.0168808
874.669	0.0169209
874.747	0.0168836
874.825	0.0168170
874.904	0.0166948
874.982	0.0167725
875.060	0.0168694
875.138	0.0166611
875.216	0.0168347
875.294	0.0167208
875.372	0.0168949
875.450	0.0167245
875.529	0.0167449
875.607	0.0167788
875.685	0.0168081
875.763	0.0167561
875.841	0.0168052
875.919	0.0168564
875.997	0.0167140
876.075	0.0167039
876.154	0.0168267
876.232	0.0167582
876.310	0.0167049
876.388	0.0168037
876.466	0.0167024
876.544	0.0166957
876.622	0.0167561
876.700	0.0167574
876.779	0.0167841
876.857	0.0168102
876.935	0.0166062
877.013	0.0166769
877.091	0.0167851
877.169	0.0168482
877.247	0.0168137
877.325	0.0168436
877.404	0.0167188
877.482	0.0167496
877.560	0.0169270
877.638	0.0167466
877.716	0.0167532
877.794	0.0167813
877.872	0.0168831
877.950	0.0167323
878.029	0.0167217
878.107	0.0167364
878.185	0.0168038
878.263	0.0166793
878.341	0.0167567
878.419	0.0167084
878.497	0.0166971
878.575	0.0167586
878.654	0.0166622
878.732	0.0167477
878.810	0.0166376
878.888	0.0167551
878.966	0.0165416
879.044	0.0166290
879.122	0.0165526
879.200	0.0167112
879.279	0.0167799
879.357	0.0166628
879.435	0.0166335
879.513	0.0167767
879.591	0.0167119
879.669	0.0167119
879.747	0.0167754
879.825	0.0167278
879.904	0.0167470
879.982	0.0167089
880.060	0.0167855
880.138	0.0166699
880.216	0.0168106
880.294	0.0168084
880.372	0.0168166
880.450	0.0167061
880.529	0.0167374
880.607	0.0168394
880.685	0.0167606
880.763	0.0167288
880.841	0.0167598
880.919	0.0168139
880.997	0.0168179
881.075	0.0168660
881.154	0.0168056
881.232	0.0168495
881.310	0.0167680
881.388	0.0168057
881.466	0.0167277
881.544	0.0167749
881.622	0.0169155
881.700	0.0169569
881.779	0.0169139
881.857	0.0168692
881.935	0.0168362
882.013	0.0169009
882.091	0.0169196
882.169	0.0167748
882.247	0.0169433
882.325	0.0170228
882.404	0.0166585
882.482	0.0168153
882.560	0.0168057
882.638	0.0170047
882.716	0.0167106
882.794	0.0168993
882.872	0.0169996
882.950	0.0168719
883.029	0.0166977
883.107	0.0168430
883.185	0.0168478
883.263	0.0168769
883.341	0.0170164
883.419	0.0169105
883.497	0.0168983
883.575	0.0169109
883.654	0.0167608
883.732	0.0167284
883.810	0.0168349
883.888	0.0168269
883.966	0.0168606
884.044	0.0167316
884.122	0.0168383
884.200	0.0168425
884.279	0.0167567
884.357	0.0168002
884.435	0.0167308
884.513	0.0168277
884.591	0.0168813
884.669	0.0167322
884.747	0.0168401
884.825	0.0167253
884.904	0.0166706
884.982	0.0167310
885.060	0.0167336
885.138	0.0166377
885.216	0.0165251
885.294	0.0167121
885.372	0.0166766
885.450	0.0166399
885.529	0.0166917
885.607	0.0166810
885.685	0.0165620
885.763	0.0165116
885.841	0.0166998
885.919	0.0168348
885.997	0.0166340
886.075	0.0165993
886.154	0.0166959
886.232	0.0166431
886.310	0.0166537
886.388	0.0166734
886.466	0.0166829
886.544	0.0166178
886.622	0.0165641
886.700	0.0165298
886.779	0.0167712
886.857	0.0166265
886.935	0.0163989
887.013	0.0167429
887.091	0.0166142
887.169	0.0166637
887.247	0.0166735
887.325	0.0166661
887.404	0.0165626
887.482	0.0166662
887.560	0.0165022
887.638	0.0164899
887.716	0.0166198
887.794	0.0165752
887.872	0.0165692
887.950	0.0164948
888.029	0.0165434
888.107	0.0165188
888.185	0.0165460
888.263	0.0165626
888.341	0.0166097
888.419	0.0164547
888.497	0.0166330
888.575	0.0165520
888.654	0.0164444
888.732	0.0165874
888.810	0.0164402
888.888	0.0164145
888.966	0.0165082
889.044	0.0165635
889.122	0.0165849
889.200	0.0163818
889.279	0.0165166
889.357	0.0165911
889.435	0.0166250
889.513	0.0165279
889.591	0.0164180
889.669	0.0164907
889.747	0.0166344
889.825	0.0165746
889.904	0.0166746
889.982	0.0166978
890.060	0.0164104
890.138	0.0164816
890.216	0.0167482
890.294	0.0166515
890.372	0.0166086
890.450	0.0164957
890.529	0.0165221
890.607	0.0166615
890.685	0.0165545
890.763	0.0166615
890.841	0.0166731
890.919	0.0166376
890.997	0.0166950
891.075	0.0166767
891.154	0.0166662
891.232	0.0167031
891.310	0.0167555
891.388	0.0167571
891.466	0.0168191
891.544	0.0167017
891.622	0.0166426
891.700	0.0167059
891.779	0.0167854
891.857	0.0166991
891.935	0.0166249
892.013	0.0166830
892.091	0.0167467
892.169	0.0168687
892.247	0.0166748
892.325	0.0166444
892.404	0.0165985
892.482	0.0166932
892.560	0.0167470
892.638	0.0167770
892.716	0.0167984
892.794	0.0166543
892.872	0.0165709
892.950	0.0167076
893.029	0.0167570
893.107	0.0165032
893.185	0.0165195
893.263	0.0167755
893.341	0.0167312
893.419	0.0165997
893.497	0.0166539
893.575	0.0167191
893.654	0.0166907
893.732	0.0166885
893.810	0.0167600
893.888	0.0167704
893.966	0.0167499
894.044	0.0168595
894.122	0.0168283
894.200	0.0168560
894.279	0.0168041
894.357	0.0168389
894.435	0.0167797
894.513	0.0168578
894.591	0.0168236
894.669	0.0166926
894.747	0.0168675
894.825	0.0168268
894.904	0.0167410
894.982	0.0167693
895.060	0.0167824
895.138	0.0166731
895.216	0.0168063
895.294	0.0167551
895.372	0.0166685
895.450	0.0167104
895.529	0.0166534
895.607	0.0165907
895.685	0.0166425
895.763	0.0166970
895.841	0.0166870
895.919	0.0165521
895.997	0.0165118
896.075	0.0166917
896.154	0.0166254
896.232	0.0167407
896.310	0.0167027
896.388	0.0164851
896.466	0.0164313
896.544	0.0166242
896.622	0.0166322
896.700	0.0165896
896.779	0.0166212
896.857	0.0166281
896.935	0.0166722
897.013	0.0167130
897.091	0.0167925
897.169	0.0166930
897.247	0.0166927
897.325	0.0166395
897.404	0.0167537
897.482	0.0168539
897.560	0.0165868
897.638	0.0166058
897.716	0.0167562
897.794	0.0168233
897.872	0.0166920
897.950	0.0167432
898.029	0.0168477
898.107	0.0167544
898.185	0.0168137
898.263	0.0168823
898.341	0.0167389
898.419	0.0167705
898.497	0.0168051
898.575	0.0167709
898.654	0.0168871
898.732	0.0168781
898.810	0.0168267
898.888	0.0168263
898.966	0.0167366
899.044	0.0167202
899.122	0.0169866
899.200	0.0168277
899.279	0.0169255
899.357	0.0168095
899.435	0.0167055
899.513	0.0168604
899.591	0.0168543
899.669	0.0168819
899.747	0.0167863
899.825	0.0169156
899.904	0.0169266
899.982	0.0168580
900.060	0.0167936
900.138	0.0169611
900.216	0.0167966
900.294	0.0168308
900.372	0.0167147
900.450	0.0168110
900.529	0.0167599
900.607	0.0168035
900.685	0.0169347
900.763	0.0167978
900.841	0.0167951
900.919	0.0168415
900.997	0.0167668
901.075	0.0168051
901.154	0.0166109
901.232	0.0167116
901.310	0.0167548
901.388	0.0167687
901.466	0.0167758
901.544	0.0167947
901.622	0.0167686
901.700	0.0168441
901.779	0.0168496
901.857	0.0167271
901.935	0.0166748
902.013	0.0167255
902.091	0.0169030
902.169	0.0166791
902.247	0.0167934
902.325	0.0167786
902.404	0.0166901
902.482	0.0167426
902.560	0.0167725
902.638	0.0167376
902.716	0.0168194
902.794	0.0166106
902.872	0.0167886
902.950	0.0166011
903.029	0.0166631
903.107	0.0167200
903.185	0.0164489
903.263	0.0165891
903.341	0.0167078
903.419	0.0166733
903.497	0.0166839
903.575	0.0167106
903.654	0.0165254
903.732	0.0164091
903.810	0.0165426
903.888	0.0166702
903.966	0.0166908
904.044	0.0166800
904.122	0.0166029
904.200	0.0166380
904.279	0.0166103
904.357	0.0167548
904.435	0.0167313
904.513	0.0166266
904.591	0.0165104
904.669	0.0166922
904.747	0.0165444
904.825	0.0166868
904.904	0.0166750
904.982	0.0166060
905.060	0.0167597
905.138	0.0166075
905.216	0.0166570
905.294	0.0166168
905.372	0.0165891
905.450	0.0165677
905.529	0.0164573
905.607	0.0165984
905.685	0.0166511
905.763	0.0166373
905.841	0.0165570
905.919	0.0165464
905.997	0.0165528
906.075	0.0166002
906.154	0.0166973
906.232	0.0166489
906.310	0.0166990
906.388	0.0167334
906.466	0.0165348
906.544	0.0165678
906.622	0.0165914
906.700	0.0166229
906.779	0.0164644
906.857	0.0165469
906.935	0.0165278
907.013	0.0164483
907.091	0.0166034
907.169	0.0164807
907.247	0.0165339
907.325	0.0164961
907.404	0.0164465
907.482	0.0165736
907.560	0.0165863
907.638	0.0165257
907.716	0.0164415
907.794	0.0165733
907.872	0.0165724
907.950	0.0166718
908.029	0.0165543
908.107	0.0166231
908.185	0.0166317
908.263	0.0166256
908.341	0.0166485
908.419	0.0167533
908.497	0.0166888
908.575	0.0166224
908.654	0.0167282
908.732	0.0167329
908.810	0.0165803
908.888	0.0168221
908.966	0.0166248
909.044	0.0165970
909.122	0.0167294
909.200	0.0167785
909.279	0.0167457
909.357	0.0166372
909.435	0.0168059
909.513	0.0167091
909.591	0.0167091
909.669	0.0167120
909.747	0.0167701
909.825	0.0165398
909.904	0.0165758
909.982	0.0166480
910.060	0.0166105
910.138	0.0166843
910.216	0.0167827
910.294	0.0168243
910.372	0.0166658
910.450	0.0165313
910.529	0.0165959
910.607	0.0167766
910.685	0.0165988
910.763	0.0165823
910.841	0.0166283
910.919	0.0167003
910.997	0.0167858
911.075	0.0167101
911.154	0.0165885
911.232	0.0166001
911.310	0.0167323
911.388	0.0168239
911.466	0.0166225
911.544	0.0166232
911.622	0.0165952
911.700	0.0166411
911.779	0.0168072
911.857	0.0168004
911.935	0.0167328
912.013	0.0165773
912.091	0.0166933
912.169	0.0167893
912.247	0.0166570
912.325	0.0167165
912.404	0.0167438
912.482	0.0167419
912.560	0.0167708
912.638	0.0168359
912.716	0.0167401
912.794	0.0167746
912.872	0.0167483
912.950	0.0168105
913.029	0.0166718
913.107	0.0166575
913.185	0.0166989
913.263	0.0167404
913.341	0.0167522
913.419	0.0167633
913.497	0.0166916
913.575	0.0167478
913.654	0.0168037
913.732	0.0167058
913.810	0.0168201
913.888	0.0168490
913.966	0.0165558
914.044	0.0168353
914.122	0.0167818
914.200	0.0167179
914.279	0.0166862
914.357	0.0166714
914.435	0.0168379
914.513	0.0168481
914.591	0.0168440
914.669	0.0167363
914.747	0.0168510
914.825	0.0168208
914.904	0.0166856
914.982	0.0166652
915.060	0.0167580
915.138	0.0167495
915.216	0.0168018
915.294	0.0166825
915.372	0.0166210
915.450	0.0165449
915.529	0.0167735
915.607	0.0166718
915.685	0.0166670
915.763	0.0167896
915.841	0.0166454
915.919	0.0166055
915.997	0.0167252
916.075	0.0167415
916.154	0.0166357
916.232	0.0166420
916.310	0.0168127
916.388	0.0167714
916.466	0.0167557
916.544	0.0168967
916.622	0.0167863
916.700	0.0167323
916.779	0.0168238
916.857	0.0167416
916.935	0.0167807
917.013	0.0167691
917.091	0.0168490
917.169	0.0167957
917.247	0.0168573
917.325	0.0169678
917.404	0.0168648
917.482	0.0167679
917.560	0.0167031
917.638	0.0169138
917.716	0.0167974
917.794	0.0167876
917.872	0.0168032
917.950	0.0166837
918.029	0.0166093
918.107	0.0165310
918.185	0.0166063
918.263	0.0167552
918.341	0.0166777
918.419	0.0166167
918.497	0.0167152
918.575	0.0165565
918.654	0.0165701
918.732	0.0164911
918.810	0.0165567
918.888	0.0165466
918.966	0.0165190
919.044	0.0165550
919.122	0.0165792
919.200	0.0164130
919.279	0.0164117
919.357	0.0164963
919.435	0.0164205
919.513	0.0165231
919.591	0.0165091
919.669	0.0165137
919.747	0.0165160
919.825	0.0165102
919.904	0.0165200
