06/03/2022	14:23:46	Ver.	4.1	UNKNOWN
Optical Delay	599.975067	Delta X		0.078125	Sweeps	1	Scan Rate	0/0
Coordinates	Axis 1	NaN	Axis 2	NaN	Axis 3	NaN	Axis 4	NaN	Axis 5	NaN	Axis 6	0.000000
TX Power	0.000000	RX Power	0.000000

599.975	0.0168761
600.053	0.0169510
600.131	0.0170115
600.209	0.0168526
600.288	0.0167661
600.366	0.0169442
600.444	0.0168972
600.522	0.0169977
600.600	0.0169117
600.678	0.0168938
600.756	0.0169770
600.834	0.0169592
600.913	0.0169823
600.991	0.0170543
601.069	0.0170496
601.147	0.0168935
601.225	0.0168571
601.303	0.0168729
601.381	0.0168946
601.459	0.0168723
601.538	0.0169482
601.616	0.0167844
601.694	0.0170299
601.772	0.0169486
601.850	0.0167818
601.928	0.0169183
602.006	0.0169238
602.084	0.0170603
602.163	0.0170052
602.241	0.0169367
602.319	0.0169834
602.397	0.0169594
602.475	0.0170205
602.553	0.0170875
602.631	0.0170457
602.709	0.0168515
602.788	0.0170451
602.866	0.0170841
602.944	0.0168974
603.022	0.0169656
603.100	0.0169727
603.178	0.0169308
603.256	0.0168615
603.334	0.0168602
603.413	0.0169301
603.491	0.0169682
603.569	0.0170464
603.647	0.0168626
603.725	0.0169321
603.803	0.0169672
603.881	0.0168293
603.959	0.0169627
604.038	0.0170428
604.116	0.0168885
604.194	0.0170158
604.272	0.0169453
604.350	0.0169511
604.428	0.0170349
604.506	0.0169530
604.584	0.0169854
604.663	0.0169342
604.741	0.0171453
604.819	0.0168333
604.897	0.0169427
604.975	0.0170371
605.053	0.0167760
605.131	0.0170712
605.209	0.0169727
605.288	0.0168481
605.366	0.0169087
605.444	0.0168958
605.522	0.0169128
605.600	0.0168904
605.678	0.0168373
605.756	0.0168687
605.834	0.0168469
605.913	0.0168734
605.991	0.0169556
606.069	0.0169293
606.147	0.0168084
606.225	0.0168517
606.303	0.0169048
606.381	0.0167531
606.459	0.0167997
606.538	0.0168248
606.616	0.0169621
606.694	0.0167366
606.772	0.0167599
606.850	0.0167919
606.928	0.0169025
607.006	0.0167708
607.084	0.0168972
607.163	0.0168275
607.241	0.0168684
607.319	0.0168932
607.397	0.0168043
607.475	0.0166857
607.553	0.0167415
607.631	0.0167965
607.709	0.0167012
607.788	0.0167236
607.866	0.0167992
607.944	0.0166524
608.022	0.0167370
608.100	0.0167759
608.178	0.0167689
608.256	0.0167582
608.334	0.0166159
608.413	0.0166013
608.491	0.0166576
608.569	0.0167487
608.647	0.0167603
608.725	0.0166513
608.803	0.0167440
608.881	0.0167137
608.959	0.0167135
609.038	0.0167245
609.116	0.0166714
609.194	0.0164849
609.272	0.0166367
609.350	0.0166035
609.428	0.0166934
609.506	0.0166924
609.584	0.0166464
609.663	0.0164908
609.741	0.0165742
609.819	0.0167522
609.897	0.0167310
609.975	0.0166407
610.053	0.0166521
610.131	0.0167390
610.209	0.0167442
610.288	0.0165266
610.366	0.0166144
610.444	0.0167700
610.522	0.0165521
610.600	0.0166071
610.678	0.0166940
610.756	0.0166361
610.834	0.0167303
610.913	0.0166290
610.991	0.0166067
611.069	0.0166180
611.147	0.0167191
611.225	0.0167017
611.303	0.0167170
611.381	0.0165811
611.459	0.0166345
611.538	0.0165768
611.616	0.0166451
611.694	0.0167273
611.772	0.0167602
611.850	0.0167359
611.928	0.0167531
612.006	0.0167848
612.084	0.0166608
612.163	0.0166383
612.241	0.0166133
612.319	0.0167171
612.397	0.0166882
612.475	0.0166041
612.553	0.0166460
612.631	0.0166412
612.709	0.0168225
612.788	0.0167317
612.866	0.0167117
612.944	0.0167004
613.022	0.0166383
613.100	0.0167746
613.178	0.0167584
613.256	0.0167921
613.334	0.0167245
613.413	0.0167067
613.491	0.0166435
613.569	0.0167860
613.647	0.0168226
613.725	0.0168549
613.803	0.0167033
613.881	0.0166882
613.959	0.0167407
614.038	0.0167706
614.116	0.0167639
614.194	0.0168359
614.272	0.0168727
614.350	0.0167186
614.428	0.0167391
614.506	0.0166545
614.584	0.0168414
614.663	0.0167540
614.741	0.0168219
614.819	0.0168874
614.897	0.0167731
614.975	0.0167870
615.053	0.0166171
615.131	0.0167439
615.209	0.0166565
615.288	0.0167300
615.366	0.0167603
615.444	0.0167695
615.522	0.0167561
615.600	0.0167262
615.678	0.0167191
615.756	0.0167151
615.834	0.0166284
615.913	0.0165725
615.991	0.0167832
616.069	0.0166149
616.147	0.0166697
616.225	0.0167078
616.303	0.0167449
616.381	0.0167242
616.459	0.0167191
616.538	0.0166638
616.616	0.0167127
616.694	0.0168535
616.772	0.0168314
616.850	0.0166667
616.928	0.0166090
617.006	0.0168054
617.084	0.0166222
617.163	0.0167406
617.241	0.0167859
617.319	0.0167309
617.397	0.0166806
617.475	0.0168441
617.553	0.0167326
617.631	0.0167144
617.709	0.0168122
617.788	0.0167321
617.866	0.0167171
617.944	0.0166846
618.022	0.0166238
618.100	0.0166848
618.178	0.0167874
618.256	0.0167680
618.334	0.0166396
618.413	0.0167422
618.491	0.0167917
618.569	0.0167185
618.647	0.0168301
618.725	0.0167421
618.803	0.0167012
618.881	0.0166101
618.959	0.0166816
619.038	0.0167786
619.116	0.0167859
619.194	0.0166875
619.272	0.0166296
619.350	0.0165662
619.428	0.0165956
619.506	0.0167097
619.584	0.0167625
619.663	0.0167754
619.741	0.0166041
619.819	0.0166299
619.897	0.0167481
619.975	0.0166009
620.053	0.0167381
620.131	0.0167967
620.209	0.0167370
620.288	0.0165870
620.366	0.0166527
620.444	0.0165854
620.522	0.0167099
620.600	0.0168171
620.678	0.0166542
620.756	0.0166430
620.834	0.0167677
620.913	0.0167752
620.991	0.0167130
621.069	0.0167326
621.147	0.0168422
621.225	0.0167120
621.303	0.0168151
621.381	0.0167105
621.459	0.0167179
621.538	0.0167100
621.616	0.0168042
621.694	0.0168357
621.772	0.0166730
621.850	0.0168422
621.928	0.0167701
622.006	0.0166938
622.084	0.0168531
622.163	0.0168265
622.241	0.0167822
622.319	0.0167914
622.397	0.0167303
622.475	0.0169048
622.553	0.0168348
622.631	0.0166947
622.709	0.0167493
622.788	0.0167637
622.866	0.0168941
622.944	0.0168638
623.022	0.0168644
623.100	0.0167749
623.178	0.0167966
623.256	0.0167475
623.334	0.0167370
623.413	0.0167898
623.491	0.0167605
623.569	0.0167713
623.647	0.0168462
623.725	0.0169395
623.803	0.0168226
623.881	0.0169073
623.959	0.0168008
624.038	0.0168839
624.116	0.0168814
624.194	0.0167945
624.272	0.0168707
624.350	0.0169296
624.428	0.0169230
624.506	0.0169633
624.584	0.0169793
624.663	0.0169580
624.741	0.0169625
624.819	0.0168522
624.897	0.0169209
624.975	0.0170451
625.053	0.0169370
625.131	0.0169199
625.209	0.0169709
625.288	0.0169466
625.366	0.0169803
625.444	0.0169717
625.522	0.0169898
625.600	0.0169044
625.678	0.0169398
625.756	0.0168641
625.834	0.0170160
625.913	0.0167935
625.991	0.0167697
626.069	0.0170118
626.147	0.0170068
626.225	0.0170745
626.303	0.0170083
626.381	0.0169285
626.459	0.0168760
626.538	0.0167833
626.616	0.0169572
626.694	0.0169267
626.772	0.0168768
626.850	0.0167803
626.928	0.0167677
627.006	0.0168717
627.084	0.0168538
627.163	0.0168565
627.241	0.0167242
627.319	0.0167963
627.397	0.0168817
627.475	0.0168469
627.553	0.0167680
627.631	0.0168621
627.709	0.0167802
627.788	0.0167029
627.866	0.0168130
627.944	0.0167269
628.022	0.0168483
628.100	0.0167727
628.178	0.0168745
628.256	0.0168895
628.334	0.0169239
628.413	0.0168069
628.491	0.0167774
628.569	0.0168505
628.647	0.0167824
628.725	0.0167163
628.803	0.0168179
628.881	0.0167019
628.959	0.0167353
629.038	0.0168076
629.116	0.0167013
629.194	0.0166719
629.272	0.0169071
629.350	0.0169112
629.428	0.0168124
629.506	0.0166332
629.584	0.0169729
629.663	0.0167977
629.741	0.0167202
629.819	0.0166773
629.897	0.0167953
629.975	0.0167375
630.053	0.0167574
630.131	0.0167693
630.209	0.0167733
630.288	0.0168054
630.366	0.0168095
630.444	0.0168010
630.522	0.0167200
630.600	0.0167376
630.678	0.0167177
630.756	0.0166199
630.834	0.0165176
630.913	0.0167573
630.991	0.0166890
631.069	0.0166389
631.147	0.0167755
631.225	0.0166372
631.303	0.0166394
631.381	0.0166859
631.459	0.0166879
631.538	0.0166557
631.616	0.0166521
631.694	0.0167229
631.772	0.0166682
631.850	0.0167374
631.928	0.0167951
632.006	0.0167151
632.084	0.0167155
632.163	0.0168227
632.241	0.0167304
632.319	0.0168061
632.397	0.0168168
632.475	0.0167084
632.553	0.0167079
632.631	0.0166998
632.709	0.0168501
632.788	0.0166253
632.866	0.0167327
632.944	0.0168392
633.022	0.0167750
633.100	0.0166973
633.178	0.0167358
633.256	0.0167155
633.334	0.0167520
633.413	0.0168020
633.491	0.0167215
633.569	0.0167670
633.647	0.0167838
633.725	0.0168681
633.803	0.0167958
633.881	0.0168338
633.959	0.0167793
634.038	0.0167285
634.116	0.0169841
634.194	0.0167783
634.272	0.0168136
634.350	0.0167797
634.428	0.0169772
634.506	0.0168343
634.584	0.0168858
634.663	0.0169305
634.741	0.0168530
634.819	0.0167338
634.897	0.0169270
634.975	0.0168069
635.053	0.0168216
635.131	0.0168193
635.209	0.0169054
635.288	0.0167936
635.366	0.0169595
635.444	0.0167865
635.522	0.0168183
635.600	0.0168586
635.678	0.0167892
635.756	0.0168195
635.834	0.0166864
635.913	0.0168327
635.991	0.0168111
636.069	0.0168507
636.147	0.0168051
636.225	0.0168740
636.303	0.0169028
636.381	0.0170104
636.459	0.0169778
636.538	0.0169496
636.616	0.0168965
636.694	0.0168142
636.772	0.0169482
636.850	0.0171265
636.928	0.0171392
637.006	0.0167976
637.084	0.0169644
637.163	0.0169618
637.241	0.0169352
637.319	0.0170837
637.397	0.0170947
637.475	0.0168864
637.553	0.0167789
637.631	0.0168993
637.709	0.0169004
637.788	0.0168898
637.866	0.0168855
637.944	0.0169253
638.022	0.0169261
638.100	0.0168955
638.178	0.0169988
638.256	0.0168053
638.334	0.0168787
638.413	0.0168099
638.491	0.0168314
638.569	0.0168174
638.647	0.0168809
638.725	0.0168079
638.803	0.0168372
638.881	0.0169214
638.959	0.0169202
639.038	0.0169583
639.116	0.0169666
639.194	0.0169846
639.272	0.0169044
639.350	0.0168974
639.428	0.0167543
639.506	0.0168658
639.584	0.0166830
639.663	0.0170016
639.741	0.0168775
639.819	0.0168420
639.897	0.0169468
639.975	0.0167738
640.053	0.0168592
640.131	0.0166402
640.209	0.0167464
640.288	0.0168292
640.366	0.0167428
640.444	0.0167687
640.522	0.0167708
640.600	0.0167947
640.678	0.0167186
640.756	0.0166577
640.834	0.0166869
640.913	0.0168577
640.991	0.0168370
641.069	0.0167047
641.147	0.0166467
641.225	0.0168613
641.303	0.0167932
641.381	0.0168688
641.459	0.0168555
641.538	0.0167858
641.616	0.0167610
641.694	0.0169025
641.772	0.0168633
641.850	0.0170166
641.928	0.0169156
642.006	0.0169300
642.084	0.0168896
642.163	0.0169211
642.241	0.0170222
642.319	0.0169585
642.397	0.0169546
642.475	0.0168630
642.553	0.0169814
642.631	0.0170850
642.709	0.0168470
642.788	0.0168933
642.866	0.0167784
642.944	0.0169477
643.022	0.0168015
643.100	0.0169148
643.178	0.0168288
643.256	0.0167323
643.334	0.0169009
643.413	0.0167805
643.491	0.0168517
643.569	0.0168697
643.647	0.0167635
643.725	0.0168025
643.803	0.0169387
643.881	0.0168230
643.959	0.0167657
644.038	0.0166731
644.116	0.0167213
644.194	0.0167681
644.272	0.0168716
644.350	0.0168729
644.428	0.0167353
644.506	0.0167835
644.584	0.0169414
644.663	0.0170308
644.741	0.0169592
644.819	0.0169972
644.897	0.0168321
644.975	0.0168886
645.053	0.0169398
645.131	0.0169131
645.209	0.0169892
645.288	0.0170542
645.366	0.0168927
645.444	0.0168217
645.522	0.0170245
645.600	0.0169648
645.678	0.0169633
645.756	0.0167177
645.834	0.0167859
645.913	0.0169057
645.991	0.0167276
646.069	0.0168096
646.147	0.0167814
646.225	0.0168521
646.303	0.0168952
646.381	0.0168936
646.459	0.0170190
646.538	0.0169178
646.616	0.0170454
646.694	0.0168324
646.772	0.0169972
646.850	0.0169334
646.928	0.0170028
647.006	0.0169845
647.084	0.0169299
647.163	0.0170572
647.241	0.0170708
647.319	0.0169928
647.397	0.0169163
647.475	0.0170235
647.553	0.0169801
647.631	0.0169346
647.709	0.0169691
647.788	0.0171049
647.866	0.0170256
647.944	0.0170779
648.022	0.0169701
648.100	0.0169646
648.178	0.0170314
648.256	0.0168672
648.334	0.0169556
648.413	0.0170177
648.491	0.0169211
648.569	0.0168648
648.647	0.0169255
648.725	0.0168040
648.803	0.0169572
648.881	0.0170022
648.959	0.0169702
649.038	0.0170546
649.116	0.0169617
649.194	0.0168846
649.272	0.0169742
649.350	0.0169977
649.428	0.0168771
649.506	0.0168460
649.584	0.0168576
649.663	0.0169110
649.741	0.0168847
649.819	0.0166742
649.897	0.0168003
649.975	0.0169004
650.053	0.0168448
650.131	0.0167765
650.209	0.0168767
650.288	0.0169348
650.366	0.0168176
650.444	0.0168706
650.522	0.0168777
650.600	0.0168003
650.678	0.0169472
650.756	0.0168892
650.834	0.0169189
650.913	0.0169481
650.991	0.0169759
651.069	0.0169334
651.147	0.0168468
651.225	0.0168163
651.303	0.0169333
651.381	0.0168530
651.459	0.0168484
651.538	0.0167884
651.616	0.0169727
651.694	0.0169462
651.772	0.0169543
651.850	0.0167730
651.928	0.0168822
652.006	0.0168048
652.084	0.0167951
652.163	0.0166869
652.241	0.0166992
652.319	0.0167875
652.397	0.0166882
652.475	0.0168031
652.553	0.0167828
652.631	0.0167049
652.709	0.0167827
652.788	0.0168428
652.866	0.0167476
652.944	0.0168445
653.022	0.0169630
653.100	0.0169219
653.178	0.0168058
653.256	0.0169199
653.334	0.0169653
653.413	0.0168681
653.491	0.0170665
653.569	0.0169293
653.647	0.0169934
653.725	0.0168182
653.803	0.0168248
653.881	0.0170251
653.959	0.0168819
654.038	0.0168913
654.116	0.0168769
654.194	0.0167498
654.272	0.0167268
654.350	0.0168693
654.428	0.0167863
654.506	0.0166658
654.584	0.0167567
654.663	0.0167966
654.741	0.0167065
654.819	0.0167007
654.897	0.0167987
654.975	0.0168376
655.053	0.0167924
655.131	0.0166669
655.209	0.0166442
655.288	0.0167171
655.366	0.0168233
655.444	0.0168134
655.522	0.0169292
655.600	0.0169135
655.678	0.0168956
655.756	0.0169658
655.834	0.0169825
655.913	0.0170586
655.991	0.0169936
656.069	0.0170388
656.147	0.0168945
656.225	0.0170770
656.303	0.0170961
656.381	0.0171616
656.459	0.0168826
656.538	0.0169624
656.616	0.0171196
656.694	0.0170017
656.772	0.0169203
656.850	0.0168268
656.928	0.0169315
657.006	0.0169830
657.084	0.0169710
657.163	0.0168137
657.241	0.0169891
657.319	0.0169230
657.397	0.0169622
657.475	0.0169275
657.553	0.0167488
657.631	0.0168259
657.709	0.0168577
657.788	0.0169886
657.866	0.0168954
657.944	0.0168415
658.022	0.0167596
658.100	0.0167441
658.178	0.0168244
658.256	0.0168800
658.334	0.0168860
658.413	0.0166949
658.491	0.0168389
658.569	0.0169591
658.647	0.0168454
658.725	0.0167799
658.803	0.0169784
658.881	0.0168729
658.959	0.0168851
659.038	0.0170871
659.116	0.0170244
659.194	0.0167947
659.272	0.0169514
659.350	0.0169377
659.428	0.0170622
659.506	0.0170204
659.584	0.0170451
659.663	0.0170184
659.741	0.0170339
659.819	0.0170589
659.897	0.0169398
659.975	0.0170171
660.053	0.0171151
660.131	0.0170945
660.209	0.0170905
660.288	0.0170293
660.366	0.0168668
660.444	0.0169268
660.522	0.0169270
660.600	0.0170616
660.678	0.0170398
660.756	0.0167600
660.834	0.0168815
660.913	0.0168980
660.991	0.0169121
661.069	0.0168639
661.147	0.0168773
661.225	0.0168277
661.303	0.0168959
661.381	0.0167962
661.459	0.0168404
661.538	0.0168758
661.616	0.0168523
661.694	0.0167792
661.772	0.0168745
661.850	0.0169261
661.928	0.0167602
662.006	0.0167077
662.084	0.0168624
662.163	0.0169040
662.241	0.0169038
662.319	0.0168909
662.397	0.0169371
662.475	0.0169176
662.553	0.0168365
662.631	0.0171176
662.709	0.0170819
662.788	0.0170015
662.866	0.0169276
662.944	0.0168642
663.022	0.0170113
663.100	0.0170601
663.178	0.0169997
663.256	0.0169848
663.334	0.0168642
663.413	0.0168764
663.491	0.0169432
663.569	0.0169296
663.647	0.0170460
663.725	0.0168528
663.803	0.0169481
663.881	0.0169138
663.959	0.0168700
664.038	0.0169537
664.116	0.0167727
664.194	0.0168099
664.272	0.0169144
664.350	0.0167657
664.428	0.0167455
664.506	0.0168186
664.584	0.0167181
664.663	0.0167785
664.741	0.0167814
664.819	0.0167625
664.897	0.0166138
664.975	0.0166821
665.053	0.0168061
665.131	0.0169385
665.209	0.0169601
665.288	0.0167670
665.366	0.0168218
665.444	0.0168873
665.522	0.0169028
665.600	0.0170324
665.678	0.0168833
665.756	0.0168641
665.834	0.0168819
665.913	0.0170489
665.991	0.0168889
666.069	0.0170493
666.147	0.0170100
666.225	0.0169717
666.303	0.0170123
666.381	0.0169264
666.459	0.0169994
666.538	0.0167783
666.616	0.0169724
666.694	0.0169910
666.772	0.0169048
666.850	0.0169932
666.928	0.0168515
667.006	0.0168998
667.084	0.0168938
667.163	0.0168446
667.241	0.0169041
667.319	0.0168571
667.397	0.0168228
667.475	0.0168867
667.553	0.0167992
667.631	0.0167999
667.709	0.0168330
667.788	0.0168815
667.866	0.0169622
667.944	0.0167664
668.022	0.0170415
668.100	0.0169480
668.178	0.0169084
668.256	0.0169981
668.334	0.0169751
668.413	0.0169903
668.491	0.0170021
668.569	0.0170688
668.647	0.0170093
668.725	0.0170061
668.803	0.0169321
668.881	0.0169482
668.959	0.0169865
669.038	0.0170163
669.116	0.0170403
669.194	0.0170258
669.272	0.0169583
669.350	0.0170369
669.428	0.0171318
669.506	0.0168871
669.584	0.0168093
669.663	0.0169366
669.741	0.0169817
669.819	0.0169600
669.897	0.0167174
669.975	0.0168101
670.053	0.0167390
670.131	0.0166538
670.209	0.0168270
670.288	0.0167310
670.366	0.0166024
670.444	0.0166780
670.522	0.0167875
670.600	0.0166648
670.678	0.0168723
670.756	0.0165774
670.834	0.0166891
670.913	0.0167537
670.991	0.0167506
671.069	0.0167252
671.147	0.0166682
671.225	0.0167606
671.303	0.0167604
671.381	0.0167167
671.459	0.0167199
671.538	0.0168473
671.616	0.0165981
671.694	0.0165693
671.772	0.0166346
671.850	0.0167323
671.928	0.0168021
672.006	0.0167444
672.084	0.0168279
672.163	0.0166044
672.241	0.0166331
672.319	0.0166850
672.397	0.0166635
672.475	0.0168060
672.553	0.0167037
672.631	0.0165633
672.709	0.0166988
672.788	0.0166928
672.866	0.0167429
672.944	0.0167624
673.022	0.0168884
673.100	0.0167169
673.178	0.0168163
673.256	0.0169381
673.334	0.0170644
673.413	0.0169739
673.491	0.0170835
673.569	0.0169846
673.647	0.0169965
673.725	0.0170934
673.803	0.0171754
673.881	0.0171946
673.959	0.0171474
674.038	0.0171101
674.116	0.0169540
674.194	0.0170584
674.272	0.0171245
674.350	0.0168664
674.428	0.0170293
674.506	0.0169941
674.584	0.0169665
674.663	0.0168970
674.741	0.0168564
674.819	0.0169498
674.897	0.0169148
674.975	0.0168420
675.053	0.0168421
675.131	0.0169572
675.209	0.0167207
675.288	0.0169064
675.366	0.0169170
675.444	0.0169650
675.522	0.0169972
675.600	0.0169363
675.678	0.0169385
675.756	0.0168423
675.834	0.0168563
675.913	0.0170283
675.991	0.0169118
676.069	0.0170498
676.147	0.0169912
676.225	0.0170113
676.303	0.0170329
676.381	0.0170542
676.459	0.0169479
676.538	0.0169596
676.616	0.0168970
676.694	0.0168544
676.772	0.0170875
676.850	0.0169037
676.928	0.0168132
677.006	0.0168272
677.084	0.0168327
677.163	0.0168656
677.241	0.0166183
677.319	0.0167822
677.397	0.0167614
677.475	0.0166064
677.553	0.0166387
677.631	0.0164908
677.709	0.0166624
677.788	0.0167463
677.866	0.0167243
677.944	0.0165207
678.022	0.0164841
678.100	0.0165813
678.178	0.0166611
678.256	0.0167466
678.334	0.0166090
678.413	0.0168285
678.491	0.0168108
678.569	0.0167907
678.647	0.0166799
678.725	0.0169012
678.803	0.0168500
678.881	0.0169717
678.959	0.0169802
679.038	0.0169214
679.116	0.0168087
679.194	0.0168152
679.272	0.0169353
679.350	0.0170817
679.428	0.0168781
679.506	0.0167345
679.584	0.0168742
679.663	0.0168652
679.741	0.0167818
679.819	0.0168159
679.897	0.0169720
679.975	0.0169650
680.053	0.0167776
680.131	0.0166645
680.209	0.0167840
680.288	0.0167455
680.366	0.0166930
680.444	0.0167072
680.522	0.0168285
680.600	0.0167830
680.678	0.0168272
680.756	0.0167813
680.834	0.0168951
680.913	0.0169211
680.991	0.0167503
681.069	0.0167971
681.147	0.0170309
681.225	0.0169750
681.303	0.0169788
681.381	0.0169662
681.459	0.0170419
681.538	0.0169585
681.616	0.0168187
681.694	0.0168396
681.772	0.0168483
681.850	0.0168513
681.928	0.0169573
682.006	0.0169976
682.084	0.0169460
682.163	0.0169805
682.241	0.0170425
682.319	0.0169495
682.397	0.0169131
682.475	0.0169730
682.553	0.0170668
682.631	0.0169968
682.709	0.0170007
682.788	0.0169517
682.866	0.0170056
682.944	0.0170331
683.022	0.0170561
683.100	0.0171352
683.178	0.0170873
683.256	0.0168114
683.334	0.0169171
683.413	0.0170181
683.491	0.0171151
683.569	0.0170417
683.647	0.0170147
683.725	0.0168952
683.803	0.0168159
683.881	0.0169820
683.959	0.0167995
684.038	0.0167899
684.116	0.0168795
684.194	0.0167574
684.272	0.0167740
684.350	0.0167515
684.428	0.0166710
684.506	0.0167674
684.584	0.0168466
684.663	0.0168836
684.741	0.0168117
684.819	0.0166821
684.897	0.0168093
684.975	0.0167703
685.053	0.0166798
685.131	0.0168564
685.209	0.0168683
685.288	0.0166868
685.366	0.0168044
685.444	0.0167332
685.522	0.0167345
685.600	0.0169006
685.678	0.0165806
685.756	0.0167350
685.834	0.0167468
685.913	0.0166134
685.991	0.0166064
686.069	0.0166048
686.147	0.0165583
686.225	0.0165141
686.303	0.0164767
686.381	0.0165585
686.459	0.0165338
686.538	0.0163747
686.616	0.0165820
686.694	0.0164980
686.772	0.0165640
686.850	0.0164587
686.928	0.0165776
687.006	0.0166605
687.084	0.0165774
687.163	0.0166444
687.241	0.0166029
687.319	0.0166461
687.397	0.0167101
687.475	0.0167410
687.553	0.0167578
687.631	0.0167269
687.709	0.0166715
687.788	0.0167442
687.866	0.0167354
687.944	0.0166278
688.022	0.0165576
688.100	0.0165892
688.178	0.0167987
688.256	0.0165491
688.334	0.0166869
688.413	0.0166820
688.491	0.0166151
688.569	0.0165418
688.647	0.0165369
688.725	0.0167386
688.803	0.0166205
688.881	0.0165878
688.959	0.0165260
689.038	0.0166411
689.116	0.0167564
689.194	0.0166235
689.272	0.0166993
689.350	0.0167190
689.428	0.0167965
689.506	0.0168410
689.584	0.0167474
689.663	0.0168651
689.741	0.0168389
689.819	0.0167755
689.897	0.0168379
689.975	0.0168890
690.053	0.0168480
690.131	0.0169938
690.209	0.0169540
690.288	0.0168091
690.366	0.0168412
690.444	0.0168127
690.522	0.0168681
690.600	0.0168840
690.678	0.0168445
690.756	0.0168208
690.834	0.0168880
690.913	0.0167010
690.991	0.0167598
691.069	0.0167250
691.147	0.0166770
691.225	0.0165971
691.303	0.0166595
691.381	0.0166082
691.459	0.0164705
691.538	0.0165382
691.616	0.0165139
691.694	0.0166138
691.772	0.0164906
691.850	0.0164799
691.928	0.0163675
692.006	0.0164269
692.084	0.0164400
692.163	0.0166273
692.241	0.0165242
692.319	0.0165374
692.397	0.0166492
692.475	0.0165530
692.553	0.0166566
692.631	0.0166792
692.709	0.0166382
692.788	0.0167269
692.866	0.0167271
692.944	0.0167858
693.022	0.0168301
693.100	0.0169180
693.178	0.0168562
693.256	0.0169095
693.334	0.0168514
693.413	0.0168453
693.491	0.0169639
693.569	0.0167854
693.647	0.0166982
693.725	0.0168976
693.803	0.0169251
693.881	0.0168759
693.959	0.0168716
694.038	0.0168816
694.116	0.0168475
694.194	0.0167868
694.272	0.0168361
694.350	0.0169369
694.428	0.0169537
694.506	0.0169239
694.584	0.0168186
694.663	0.0166605
694.741	0.0168710
694.819	0.0170820
694.897	0.0169152
694.975	0.0167728
695.053	0.0170194
695.131	0.0168942
695.209	0.0168902
695.288	0.0167997
695.366	0.0169031
695.444	0.0168734
695.522	0.0168668
695.600	0.0168781
695.678	0.0167570
695.756	0.0167658
695.834	0.0168298
695.913	0.0168708
695.991	0.0168031
696.069	0.0168267
696.147	0.0168906
696.225	0.0169743
696.303	0.0169366
696.381	0.0169134
696.459	0.0170210
696.538	0.0169523
696.616	0.0168338
696.694	0.0169337
696.772	0.0169354
696.850	0.0170181
696.928	0.0168739
697.006	0.0169241
697.084	0.0168630
697.163	0.0169628
697.241	0.0168454
697.319	0.0170384
697.397	0.0169955
697.475	0.0168945
697.553	0.0168787
697.631	0.0171510
697.709	0.0169492
697.788	0.0169220
697.866	0.0170135
697.944	0.0169000
698.022	0.0169437
698.100	0.0170055
698.178	0.0169200
698.256	0.0169070
698.334	0.0169055
698.413	0.0168729
698.491	0.0168144
698.569	0.0169730
698.647	0.0169469
698.725	0.0168381
698.803	0.0168881
698.881	0.0169764
698.959	0.0168342
699.038	0.0169210
699.116	0.0168248
699.194	0.0167903
699.272	0.0169354
699.350	0.0167606
699.428	0.0166551
699.506	0.0167974
699.584	0.0167499
699.663	0.0168864
699.741	0.0169006
699.819	0.0168523
699.897	0.0168726
699.975	0.0167602
700.053	0.0169640
700.131	0.0168825
700.209	0.0169632
700.288	0.0168720
700.366	0.0167564
700.444	0.0168861
700.522	0.0169264
700.600	0.0168480
700.678	0.0168977
700.756	0.0168260
700.834	0.0168192
700.913	0.0168358
700.991	0.0168253
701.069	0.0166888
701.147	0.0168083
701.225	0.0168812
701.303	0.0167509
701.381	0.0166261
701.459	0.0167448
701.538	0.0166000
701.616	0.0167642
701.694	0.0168976
701.772	0.0167586
701.850	0.0167575
701.928	0.0167838
702.006	0.0166201
702.084	0.0167792
702.163	0.0167777
702.241	0.0166191
702.319	0.0166164
702.397	0.0166136
702.475	0.0166067
702.553	0.0166341
702.631	0.0168390
702.709	0.0167209
702.788	0.0167135
702.866	0.0166032
702.944	0.0165189
703.022	0.0167108
703.100	0.0167107
703.178	0.0167704
703.256	0.0168170
703.334	0.0167406
703.413	0.0169840
703.491	0.0168278
703.569	0.0168462
703.647	0.0168832
703.725	0.0170127
703.803	0.0171486
703.881	0.0169294
703.959	0.0169769
704.038	0.0170518
704.116	0.0171532
704.194	0.0172144
704.272	0.0169680
704.350	0.0169731
704.428	0.0171851
704.506	0.0169882
704.584	0.0171112
704.663	0.0171040
704.741	0.0169747
704.819	0.0170888
704.897	0.0170313
704.975	0.0169373
705.053	0.0169850
705.131	0.0169402
705.209	0.0168331
705.288	0.0169199
705.366	0.0168378
705.444	0.0168483
705.522	0.0168702
705.600	0.0169484
705.678	0.0166690
705.756	0.0166950
705.834	0.0167644
705.913	0.0166989
705.991	0.0165959
706.069	0.0165495
706.147	0.0165450
706.225	0.0166231
706.303	0.0165710
706.381	0.0165697
706.459	0.0164052
706.538	0.0164708
706.616	0.0164140
706.694	0.0164860
706.772	0.0164715
706.850	0.0163534
706.928	0.0164867
707.006	0.0163810
707.084	0.0164425
707.163	0.0165205
707.241	0.0164777
707.319	0.0165521
707.397	0.0164638
707.475	0.0165878
707.553	0.0166776
707.631	0.0165584
707.709	0.0166279
707.788	0.0165028
707.866	0.0165695
707.944	0.0166454
708.022	0.0166555
708.100	0.0167298
708.178	0.0166871
708.256	0.0165285
708.334	0.0165609
708.413	0.0166485
708.491	0.0166357
708.569	0.0164424
708.647	0.0165362
708.725	0.0165375
708.803	0.0166840
708.881	0.0166515
708.959	0.0167496
709.038	0.0165738
709.116	0.0165633
709.194	0.0166129
709.272	0.0167234
709.350	0.0167637
709.428	0.0166785
709.506	0.0167655
709.584	0.0168418
709.663	0.0168082
709.741	0.0168267
709.819	0.0169052
709.897	0.0167953
709.975	0.0168929
710.053	0.0168828
710.131	0.0170137
710.209	0.0167551
710.288	0.0167821
710.366	0.0166836
710.444	0.0167751
710.522	0.0169115
710.600	0.0167354
710.678	0.0166235
710.756	0.0166099
710.834	0.0165638
710.913	0.0165999
710.991	0.0165742
711.069	0.0164942
711.147	0.0166154
711.225	0.0165530
711.303	0.0164786
711.381	0.0165408
711.459	0.0165580
711.538	0.0166259
711.616	0.0164774
711.694	0.0166796
711.772	0.0166421
711.850	0.0165576
711.928	0.0166005
712.006	0.0165797
712.084	0.0166241
712.163	0.0165637
712.241	0.0165907
712.319	0.0165627
712.397	0.0165095
712.475	0.0167553
712.553	0.0165934
712.631	0.0165483
712.709	0.0166898
712.788	0.0166945
712.866	0.0165319
712.944	0.0165765
713.022	0.0166589
713.100	0.0166525
713.178	0.0166705
713.256	0.0167389
713.334	0.0166809
713.413	0.0166267
713.491	0.0167130
713.569	0.0167725
713.647	0.0168145
713.725	0.0168008
713.803	0.0167225
713.881	0.0167633
713.959	0.0166942
714.038	0.0165572
714.116	0.0166201
714.194	0.0166255
714.272	0.0166947
714.350	0.0166943
714.428	0.0167298
714.506	0.0166982
714.584	0.0166783
714.663	0.0168037
714.741	0.0166781
714.819	0.0167646
714.897	0.0168283
714.975	0.0168391
715.053	0.0168640
715.131	0.0169775
715.209	0.0168982
715.288	0.0170175
715.366	0.0170002
715.444	0.0169729
715.522	0.0170611
715.600	0.0169657
715.678	0.0172111
715.756	0.0171946
715.834	0.0170547
715.913	0.0170992
715.991	0.0171740
716.069	0.0170055
716.147	0.0170251
716.225	0.0170679
716.303	0.0170052
716.381	0.0170119
716.459	0.0168845
716.538	0.0170827
716.616	0.0170193
716.694	0.0169440
716.772	0.0170338
716.850	0.0168896
716.928	0.0168810
717.006	0.0168194
717.084	0.0167641
717.163	0.0167988
717.241	0.0167494
717.319	0.0168274
717.397	0.0168533
717.475	0.0169058
717.553	0.0168565
717.631	0.0168820
717.709	0.0169482
717.788	0.0169090
717.866	0.0170599
717.944	0.0168974
718.022	0.0169247
718.100	0.0169691
718.178	0.0171036
718.256	0.0168116
718.334	0.0169735
718.413	0.0170084
718.491	0.0170476
718.569	0.0169757
718.647	0.0168974
718.725	0.0171828
718.803	0.0171391
718.881	0.0169833
718.959	0.0170953
719.038	0.0172028
719.116	0.0170654
719.194	0.0171513
719.272	0.0170850
719.350	0.0172649
719.428	0.0170152
719.506	0.0170918
719.584	0.0173036
719.663	0.0171820
719.741	0.0171098
719.819	0.0170867
719.897	0.0169305
719.975	0.0170932
720.053	0.0169285
720.131	0.0169375
720.209	0.0170942
720.288	0.0169800
720.366	0.0169122
720.444	0.0169770
720.522	0.0169123
720.600	0.0169250
720.678	0.0168939
720.756	0.0169060
720.834	0.0167617
720.913	0.0169936
720.991	0.0170361
721.069	0.0168874
721.147	0.0169698
721.225	0.0169933
721.303	0.0167995
721.381	0.0168118
721.459	0.0169181
721.538	0.0169685
721.616	0.0169012
721.694	0.0170245
721.772	0.0169791
721.850	0.0169588
721.928	0.0169329
722.006	0.0169612
722.084	0.0168230
722.163	0.0169332
722.241	0.0169337
722.319	0.0169419
722.397	0.0168633
722.475	0.0167701
722.553	0.0168276
722.631	0.0167627
722.709	0.0168408
722.788	0.0167307
722.866	0.0166011
722.944	0.0166843
723.022	0.0166850
723.100	0.0166261
723.178	0.0165770
723.256	0.0166560
723.334	0.0165631
723.413	0.0166606
723.491	0.0165937
723.569	0.0166097
723.647	0.0167142
723.725	0.0167467
723.803	0.0166125
723.881	0.0167149
723.959	0.0167422
724.038	0.0168893
724.116	0.0168532
724.194	0.0168068
724.272	0.0167838
724.350	0.0166513
724.428	0.0168604
724.506	0.0168465
724.584	0.0168966
724.663	0.0169643
724.741	0.0168728
724.819	0.0167857
724.897	0.0168965
724.975	0.0169373
725.053	0.0170348
725.131	0.0169743
725.209	0.0169944
725.288	0.0169190
725.366	0.0169472
725.444	0.0168833
725.522	0.0169772
725.600	0.0169301
725.678	0.0169867
725.756	0.0170348
725.834	0.0167912
725.913	0.0169109
725.991	0.0171088
726.069	0.0170329
726.147	0.0169932
726.225	0.0168585
726.303	0.0169664
726.381	0.0170025
726.459	0.0169576
726.538	0.0169592
726.616	0.0168338
726.694	0.0169716
726.772	0.0170708
726.850	0.0170618
726.928	0.0170097
727.006	0.0170330
727.084	0.0169963
727.163	0.0169881
727.241	0.0170007
727.319	0.0169336
727.397	0.0171108
727.475	0.0170493
727.553	0.0169673
727.631	0.0169746
727.709	0.0169769
727.788	0.0169788
727.866	0.0169868
727.944	0.0168723
728.022	0.0171012
728.100	0.0169398
728.178	0.0169150
728.256	0.0169385
728.334	0.0169077
728.413	0.0169461
728.491	0.0169363
728.569	0.0168092
728.647	0.0168511
728.725	0.0170213
728.803	0.0167149
728.881	0.0166144
728.959	0.0166600
729.038	0.0168319
729.116	0.0168158
729.194	0.0166641
729.272	0.0167617
729.350	0.0167471
729.428	0.0165925
729.506	0.0166837
729.584	0.0167105
729.663	0.0167075
729.741	0.0167226
729.819	0.0168980
729.897	0.0165952
729.975	0.0167198
730.053	0.0167313
730.131	0.0166897
730.209	0.0167129
730.288	0.0168909
730.366	0.0166838
730.444	0.0166931
730.522	0.0167905
730.600	0.0165873
730.678	0.0167961
730.756	0.0169228
730.834	0.0167606
730.913	0.0167172
730.991	0.0167792
731.069	0.0167606
731.147	0.0168360
731.225	0.0168639
731.303	0.0168516
731.381	0.0168442
731.459	0.0169896
731.538	0.0168779
731.616	0.0167100
731.694	0.0167507
731.772	0.0166769
731.850	0.0167901
731.928	0.0165913
732.006	0.0166525
732.084	0.0166292
732.163	0.0165988
732.241	0.0167168
732.319	0.0166135
732.397	0.0165088
732.475	0.0165760
732.553	0.0165942
732.631	0.0165777
732.709	0.0165752
732.788	0.0165950
732.866	0.0166864
732.944	0.0167270
733.022	0.0167847
733.100	0.0166798
733.178	0.0166129
733.256	0.0166373
733.334	0.0167189
733.413	0.0165921
733.491	0.0166162
733.569	0.0167412
733.647	0.0166032
733.725	0.0167336
733.803	0.0167016
733.881	0.0165597
733.959	0.0166101
734.038	0.0165922
734.116	0.0166728
734.194	0.0167067
734.272	0.0167626
734.350	0.0167322
734.428	0.0168255
734.506	0.0168003
734.584	0.0167614
734.663	0.0166936
734.741	0.0168474
734.819	0.0168477
734.897	0.0167635
734.975	0.0166964
735.053	0.0165840
735.131	0.0169190
735.209	0.0168650
735.288	0.0168528
735.366	0.0168143
735.444	0.0168527
735.522	0.0170258
735.600	0.0168962
735.678	0.0169362
735.756	0.0168575
735.834	0.0168698
735.913	0.0168563
735.991	0.0168628
736.069	0.0170449
736.147	0.0168027
736.225	0.0167652
736.303	0.0169188
736.381	0.0167959
736.459	0.0169296
736.538	0.0168724
736.616	0.0167960
736.694	0.0169894
736.772	0.0169980
736.850	0.0169416
736.928	0.0169133
737.006	0.0169341
737.084	0.0169677
737.163	0.0172211
737.241	0.0169942
737.319	0.0171046
737.397	0.0171509
737.475	0.0169946
737.553	0.0171332
737.631	0.0171901
737.709	0.0170767
737.788	0.0171058
737.866	0.0171939
737.944	0.0171127
738.022	0.0170558
738.100	0.0171742
738.178	0.0170996
738.256	0.0168858
738.334	0.0169816
738.413	0.0169907
738.491	0.0169612
738.569	0.0169992
738.647	0.0170389
738.725	0.0168761
738.803	0.0167891
738.881	0.0169283
738.959	0.0169791
739.038	0.0169869
739.116	0.0168462
739.194	0.0169786
739.272	0.0168772
739.350	0.0169161
739.428	0.0168903
739.506	0.0170155
739.584	0.0170397
739.663	0.0168718
739.741	0.0170104
739.819	0.0169189
739.897	0.0168618
739.975	0.0169549
740.053	0.0170536
740.131	0.0169964
740.209	0.0169511
740.288	0.0169549
740.366	0.0169509
740.444	0.0169725
740.522	0.0169840
740.600	0.0168993
740.678	0.0170065
740.756	0.0169313
740.834	0.0170471
740.913	0.0168900
740.991	0.0169453
741.069	0.0170122
741.147	0.0169765
741.225	0.0170638
741.303	0.0169882
741.381	0.0170262
741.459	0.0170094
741.538	0.0170098
741.616	0.0169598
741.694	0.0170287
741.772	0.0171810
741.850	0.0169674
741.928	0.0169219
742.006	0.0169160
742.084	0.0171701
742.163	0.0169833
742.241	0.0171664
742.319	0.0170097
742.397	0.0170107
742.475	0.0169822
742.553	0.0170361
742.631	0.0171493
742.709	0.0171155
742.788	0.0169680
742.866	0.0168277
742.944	0.0169153
743.022	0.0169997
743.100	0.0169865
743.178	0.0170308
743.256	0.0170040
743.334	0.0170389
743.413	0.0169953
743.491	0.0169383
743.569	0.0170502
743.647	0.0170358
743.725	0.0171062
743.803	0.0170984
743.881	0.0170486
743.959	0.0171602
744.038	0.0170809
744.116	0.0170558
744.194	0.0170329
744.272	0.0171719
744.350	0.0169642
744.428	0.0169215
744.506	0.0171706
744.584	0.0170747
744.663	0.0169907
744.741	0.0169617
744.819	0.0169805
744.897	0.0170211
744.975	0.0169022
745.053	0.0169466
745.131	0.0171543
745.209	0.0170107
745.288	0.0169087
745.366	0.0168716
745.444	0.0169734
745.522	0.0170411
745.600	0.0170930
745.678	0.0169541
745.756	0.0169471
745.834	0.0170142
745.913	0.0169382
745.991	0.0169137
746.069	0.0169726
746.147	0.0169524
746.225	0.0168523
746.303	0.0168996
746.381	0.0168346
746.459	0.0169513
746.538	0.0170548
746.616	0.0169266
746.694	0.0168163
746.772	0.0169363
746.850	0.0169122
746.928	0.0168461
747.006	0.0169133
747.084	0.0168539
747.163	0.0167731
747.241	0.0167738
747.319	0.0168996
747.397	0.0168329
747.475	0.0168814
747.553	0.0169005
747.631	0.0166812
747.709	0.0169032
747.788	0.0169910
747.866	0.0168319
747.944	0.0167384
748.022	0.0168391
748.100	0.0168433
748.178	0.0167860
748.256	0.0168219
748.334	0.0168066
748.413	0.0168110
748.491	0.0166328
748.569	0.0169211
748.647	0.0169534
748.725	0.0167898
748.803	0.0168733
748.881	0.0169327
748.959	0.0166855
749.038	0.0167118
749.116	0.0168974
749.194	0.0168561
749.272	0.0168205
749.350	0.0168546
749.428	0.0169413
749.506	0.0169382
749.584	0.0168469
749.663	0.0167532
749.741	0.0167937
749.819	0.0167912
749.897	0.0168433
749.975	0.0167903
750.053	0.0168954
750.131	0.0169290
750.209	0.0168434
750.288	0.0166583
750.366	0.0169005
750.444	0.0168116
750.522	0.0167281
750.600	0.0166945
750.678	0.0166779
750.756	0.0166636
750.834	0.0167379
750.913	0.0167801
750.991	0.0167437
751.069	0.0167709
751.147	0.0167509
751.225	0.0167092
751.303	0.0167043
751.381	0.0166916
751.459	0.0167744
751.538	0.0167090
751.616	0.0166605
751.694	0.0165616
751.772	0.0166949
751.850	0.0167234
751.928	0.0167585
752.006	0.0167743
752.084	0.0166888
752.163	0.0167029
752.241	0.0166145
752.319	0.0167411
752.397	0.0168317
752.475	0.0167301
752.553	0.0167544
752.631	0.0168021
752.709	0.0167340
752.788	0.0166837
752.866	0.0166955
752.944	0.0167805
753.022	0.0167041
753.100	0.0167524
753.178	0.0167563
753.256	0.0167046
753.334	0.0168282
753.413	0.0167915
753.491	0.0167169
753.569	0.0168382
753.647	0.0166985
753.725	0.0166753
753.803	0.0167977
753.881	0.0168511
753.959	0.0166823
754.038	0.0167491
754.116	0.0167617
754.194	0.0167936
754.272	0.0167400
754.350	0.0168354
754.428	0.0169266
754.506	0.0169238
754.584	0.0168451
754.663	0.0167638
754.741	0.0167944
754.819	0.0169031
754.897	0.0168519
754.975	0.0168909
755.053	0.0169241
755.131	0.0168214
755.209	0.0167799
755.288	0.0167961
755.366	0.0167847
755.444	0.0168113
755.522	0.0168024
755.600	0.0167432
755.678	0.0168063
755.756	0.0167107
755.834	0.0168536
755.913	0.0168016
755.991	0.0168356
756.069	0.0167988
756.147	0.0168176
756.225	0.0168752
756.303	0.0168102
756.381	0.0168556
756.459	0.0169261
756.538	0.0168278
756.616	0.0168082
756.694	0.0168121
756.772	0.0169960
756.850	0.0169555
756.928	0.0168288
757.006	0.0168214
757.084	0.0169901
757.163	0.0167541
757.241	0.0168272
757.319	0.0168239
757.397	0.0168658
757.475	0.0167930
757.553	0.0167950
757.631	0.0168840
757.709	0.0168353
757.788	0.0168871
757.866	0.0168417
757.944	0.0169180
758.022	0.0170403
758.100	0.0168564
758.178	0.0168750
758.256	0.0168953
758.334	0.0169542
758.413	0.0169053
758.491	0.0168748
758.569	0.0169853
758.647	0.0168069
758.725	0.0169363
758.803	0.0170239
758.881	0.0170418
758.959	0.0171247
759.038	0.0172060
759.116	0.0169209
759.194	0.0170117
759.272	0.0171698
759.350	0.0171346
759.428	0.0170138
759.506	0.0171527
759.584	0.0169928
759.663	0.0170258
759.741	0.0170967
759.819	0.0171172
759.897	0.0171838
759.975	0.0171690
760.053	0.0171171
760.131	0.0170204
760.209	0.0168954
760.288	0.0169753
760.366	0.0170470
760.444	0.0169199
760.522	0.0169818
760.600	0.0169473
760.678	0.0170513
760.756	0.0169426
760.834	0.0168770
760.913	0.0169961
760.991	0.0168867
761.069	0.0169457
761.147	0.0169209
761.225	0.0169138
761.303	0.0169373
761.381	0.0167864
761.459	0.0168842
761.538	0.0169704
761.616	0.0169563
761.694	0.0168490
761.772	0.0167967
761.850	0.0168875
761.928	0.0169056
762.006	0.0168919
762.084	0.0168642
762.163	0.0167418
762.241	0.0168513
762.319	0.0169633
762.397	0.0169040
762.475	0.0167956
762.553	0.0168488
762.631	0.0170192
762.709	0.0168909
762.788	0.0166588
762.866	0.0168382
762.944	0.0168114
763.022	0.0167194
763.100	0.0169395
763.178	0.0168447
763.256	0.0167443
763.334	0.0167844
763.413	0.0167321
763.491	0.0167894
763.569	0.0169536
763.647	0.0167879
763.725	0.0167876
763.803	0.0169270
763.881	0.0168302
763.959	0.0168682
764.038	0.0168642
764.116	0.0169346
764.194	0.0168050
764.272	0.0168660
764.350	0.0168493
764.428	0.0168681
764.506	0.0167328
764.584	0.0167471
764.663	0.0168472
764.741	0.0167880
764.819	0.0167539
764.897	0.0167796
764.975	0.0167832
765.053	0.0168272
765.131	0.0168464
765.209	0.0168770
765.288	0.0169804
765.366	0.0168238
765.444	0.0168000
765.522	0.0168568
765.600	0.0168488
765.678	0.0169010
765.756	0.0169338
765.834	0.0168926
765.913	0.0168819
765.991	0.0169652
766.069	0.0169559
766.147	0.0168604
766.225	0.0168848
766.303	0.0169316
766.381	0.0170045
766.459	0.0169937
766.538	0.0170080
766.616	0.0169739
766.694	0.0169387
766.772	0.0169500
766.850	0.0170514
766.928	0.0169592
767.006	0.0170171
767.084	0.0169678
767.163	0.0170603
767.241	0.0168929
767.319	0.0167712
767.397	0.0169756
767.475	0.0169985
767.553	0.0169734
767.631	0.0169440
767.709	0.0169094
767.788	0.0168844
767.866	0.0168566
767.944	0.0168143
768.022	0.0167795
768.100	0.0168590
768.178	0.0167827
768.256	0.0168227
768.334	0.0167511
768.413	0.0167266
768.491	0.0168079
768.569	0.0170126
768.647	0.0169314
768.725	0.0167669
768.803	0.0169050
768.881	0.0169138
768.959	0.0171390
769.038	0.0168972
769.116	0.0168038
769.194	0.0169716
769.272	0.0170562
769.350	0.0170465
769.428	0.0170097
769.506	0.0170125
769.584	0.0170376
769.663	0.0170646
769.741	0.0172042
769.819	0.0170637
769.897	0.0168594
769.975	0.0168976
770.053	0.0169978
770.131	0.0168958
770.209	0.0169282
770.288	0.0168571
770.366	0.0167249
770.444	0.0166370
770.522	0.0167502
770.600	0.0166793
770.678	0.0166594
770.756	0.0167645
770.834	0.0168180
770.913	0.0167050
770.991	0.0168223
771.069	0.0167493
771.147	0.0166678
771.225	0.0167093
771.303	0.0167319
771.381	0.0167282
771.459	0.0166869
771.538	0.0168578
771.616	0.0167854
771.694	0.0167537
771.772	0.0166657
771.850	0.0168002
771.928	0.0169086
772.006	0.0167593
772.084	0.0168201
772.163	0.0167445
772.241	0.0168254
772.319	0.0167117
772.397	0.0166973
772.475	0.0169694
772.553	0.0168375
772.631	0.0165322
772.709	0.0168175
772.788	0.0169753
772.866	0.0166962
772.944	0.0166833
773.022	0.0167740
773.100	0.0168515
773.178	0.0167175
773.256	0.0166750
773.334	0.0167161
773.413	0.0166907
773.491	0.0167072
773.569	0.0168402
773.647	0.0167731
773.725	0.0167064
773.803	0.0167230
773.881	0.0168338
773.959	0.0169227
774.038	0.0167495
774.116	0.0167419
774.194	0.0167877
774.272	0.0168040
774.350	0.0167299
774.428	0.0168954
774.506	0.0168816
774.584	0.0167603
774.663	0.0166962
774.741	0.0167223
774.819	0.0169342
774.897	0.0166763
774.975	0.0167440
775.053	0.0167027
775.131	0.0166751
775.209	0.0167143
775.288	0.0168410
775.366	0.0167345
775.444	0.0168924
775.522	0.0166590
775.600	0.0166533
775.678	0.0167397
775.756	0.0167513
775.834	0.0167625
775.913	0.0167356
775.991	0.0166676
776.069	0.0166658
776.147	0.0166442
776.225	0.0168310
776.303	0.0166992
776.381	0.0167445
776.459	0.0165749
776.538	0.0168468
776.616	0.0167619
776.694	0.0166971
776.772	0.0167641
776.850	0.0168671
776.928	0.0167718
777.006	0.0169133
777.084	0.0168169
777.163	0.0167805
777.241	0.0168590
777.319	0.0167110
777.397	0.0168040
777.475	0.0168355
777.553	0.0167910
777.631	0.0166853
777.709	0.0168553
777.788	0.0168573
777.866	0.0166503
777.944	0.0166927
778.022	0.0167783
778.100	0.0166879
778.178	0.0165848
778.256	0.0167780
778.334	0.0167513
778.413	0.0167648
778.491	0.0168156
778.569	0.0166862
778.647	0.0166618
778.725	0.0168441
778.803	0.0166846
778.881	0.0166705
778.959	0.0168280
779.038	0.0168231
779.116	0.0167753
779.194	0.0167503
779.272	0.0167629
779.350	0.0166886
779.428	0.0167860
779.506	0.0169477
779.584	0.0168620
779.663	0.0168169
779.741	0.0169195
779.819	0.0169182
779.897	0.0169216
779.975	0.0168636
780.053	0.0167531
780.131	0.0169423
780.209	0.0169483
780.288	0.0168861
780.366	0.0168170
780.444	0.0169326
780.522	0.0168581
780.600	0.0168289
780.678	0.0168411
780.756	0.0169070
780.834	0.0169308
780.913	0.0169292
780.991	0.0167696
781.069	0.0168594
781.147	0.0168732
781.225	0.0169096
781.303	0.0168957
781.381	0.0169725
781.459	0.0168918
781.538	0.0168815
781.616	0.0169478
781.694	0.0170219
781.772	0.0169634
781.850	0.0168864
781.928	0.0168119
782.006	0.0168527
782.084	0.0170077
782.163	0.0168429
782.241	0.0169896
782.319	0.0168499
782.397	0.0169656
782.475	0.0167999
782.553	0.0167857
782.631	0.0167854
782.709	0.0166604
782.788	0.0168027
782.866	0.0165931
782.944	0.0165618
783.022	0.0167649
783.100	0.0168388
783.178	0.0166658
783.256	0.0167709
783.334	0.0166590
783.413	0.0167344
783.491	0.0168124
783.569	0.0167914
783.647	0.0167018
783.725	0.0168427
783.803	0.0167473
783.881	0.0168189
783.959	0.0166527
784.038	0.0168202
784.116	0.0168491
784.194	0.0167716
784.272	0.0168925
784.350	0.0167826
784.428	0.0167918
784.506	0.0169133
784.584	0.0169543
784.663	0.0167948
784.741	0.0168774
784.819	0.0167991
784.897	0.0168073
784.975	0.0169603
785.053	0.0168970
785.131	0.0168387
785.209	0.0168246
785.288	0.0168834
785.366	0.0167302
785.444	0.0169415
785.522	0.0167292
785.600	0.0167928
785.678	0.0168766
785.756	0.0166825
785.834	0.0167322
785.913	0.0166438
785.991	0.0167739
786.069	0.0166474
786.147	0.0167178
786.225	0.0168717
786.303	0.0167666
786.381	0.0165754
786.459	0.0167055
786.538	0.0166851
786.616	0.0166001
786.694	0.0166890
786.772	0.0167761
786.850	0.0167162
786.928	0.0166766
787.006	0.0166432
787.084	0.0166908
787.163	0.0167503
787.241	0.0168709
787.319	0.0167410
787.397	0.0167746
787.475	0.0168178
787.553	0.0166462
787.631	0.0167539
787.709	0.0167406
787.788	0.0167207
787.866	0.0166804
787.944	0.0167038
788.022	0.0166747
788.100	0.0167650
788.178	0.0166969
788.256	0.0166848
788.334	0.0167128
788.413	0.0168107
788.491	0.0169106
788.569	0.0168172
788.647	0.0168587
788.725	0.0167168
788.803	0.0169099
788.881	0.0167049
788.959	0.0167204
789.038	0.0168410
789.116	0.0167581
789.194	0.0168743
789.272	0.0166959
789.350	0.0167630
789.428	0.0168409
789.506	0.0167748
789.584	0.0168239
789.663	0.0168219
789.741	0.0167921
789.819	0.0168285
789.897	0.0168670
789.975	0.0169232
790.053	0.0167587
790.131	0.0168014
790.209	0.0167629
790.288	0.0167916
790.366	0.0167884
790.444	0.0166847
790.522	0.0166933
790.600	0.0167703
790.678	0.0167937
790.756	0.0168429
790.834	0.0168204
790.913	0.0169307
790.991	0.0167912
791.069	0.0169289
791.147	0.0169357
791.225	0.0169016
791.303	0.0167899
791.381	0.0168795
791.459	0.0167986
791.538	0.0169280
791.616	0.0169792
791.694	0.0168640
791.772	0.0169452
791.850	0.0168828
791.928	0.0167907
792.006	0.0168491
792.084	0.0169613
792.163	0.0169068
792.241	0.0168161
792.319	0.0169481
792.397	0.0170039
792.475	0.0169474
792.553	0.0168714
792.631	0.0170306
792.709	0.0169693
792.788	0.0168906
792.866	0.0169860
792.944	0.0168346
793.022	0.0169587
793.100	0.0169209
793.178	0.0169339
793.256	0.0169571
793.334	0.0169452
793.413	0.0169511
793.491	0.0168849
793.569	0.0168433
793.647	0.0168974
793.725	0.0169596
793.803	0.0169180
793.881	0.0168634
793.959	0.0168243
794.038	0.0168338
794.116	0.0167329
794.194	0.0169998
794.272	0.0167846
794.350	0.0166379
794.428	0.0168217
794.506	0.0169199
794.584	0.0167513
794.663	0.0169569
794.741	0.0168289
794.819	0.0168750
794.897	0.0168504
794.975	0.0168753
795.053	0.0167670
795.131	0.0169534
795.209	0.0169409
795.288	0.0168730
795.366	0.0168275
795.444	0.0168939
795.522	0.0167889
795.600	0.0169202
795.678	0.0170473
795.756	0.0167544
795.834	0.0168680
795.913	0.0168810
795.991	0.0169618
796.069	0.0169057
796.147	0.0168697
796.225	0.0168863
796.303	0.0169626
796.381	0.0168651
796.459	0.0168873
796.538	0.0168462
796.616	0.0169548
796.694	0.0168512
796.772	0.0168935
796.850	0.0168053
796.928	0.0167801
797.006	0.0168427
797.084	0.0168595
797.163	0.0166718
797.241	0.0168561
797.319	0.0168713
797.397	0.0168405
797.475	0.0167412
797.553	0.0168047
797.631	0.0166827
797.709	0.0168456
797.788	0.0168533
797.866	0.0168036
797.944	0.0166917
798.022	0.0168678
798.100	0.0167352
798.178	0.0166631
798.256	0.0167622
798.334	0.0167971
798.413	0.0169405
798.491	0.0169730
798.569	0.0167211
798.647	0.0167568
798.725	0.0168270
798.803	0.0168340
798.881	0.0170350
798.959	0.0167819
799.038	0.0168306
799.116	0.0167331
799.194	0.0169217
799.272	0.0168357
799.350	0.0169141
799.428	0.0168713
799.506	0.0169524
799.584	0.0168439
799.663	0.0167211
799.741	0.0169077
799.819	0.0168842
799.897	0.0168216
799.975	0.0168723
800.053	0.0168591
800.131	0.0168208
800.209	0.0168487
800.288	0.0167532
800.366	0.0166404
800.444	0.0169381
800.522	0.0168247
800.600	0.0169102
800.678	0.0168812
800.756	0.0166867
800.834	0.0169761
800.913	0.0168209
800.991	0.0167126
801.069	0.0167954
801.147	0.0167497
801.225	0.0167520
801.303	0.0168844
801.381	0.0166941
801.459	0.0166544
801.538	0.0166840
801.616	0.0167155
801.694	0.0167014
801.772	0.0165437
801.850	0.0165401
801.928	0.0165296
802.006	0.0165071
802.084	0.0165328
802.163	0.0166624
802.241	0.0165493
802.319	0.0165611
802.397	0.0165269
802.475	0.0166129
802.553	0.0165591
802.631	0.0166478
802.709	0.0166859
802.788	0.0167225
802.866	0.0166593
802.944	0.0166652
803.022	0.0167022
803.100	0.0167185
803.178	0.0166712
803.256	0.0166766
803.334	0.0165088
803.413	0.0164998
803.491	0.0166512
803.569	0.0165894
803.647	0.0167213
803.725	0.0165624
803.803	0.0166804
803.881	0.0166424
803.959	0.0167288
804.038	0.0167746
804.116	0.0167319
804.194	0.0167121
804.272	0.0168640
804.350	0.0167322
804.428	0.0167850
804.506	0.0167455
804.584	0.0167216
804.663	0.0169062
804.741	0.0168886
804.819	0.0166938
804.897	0.0167870
804.975	0.0167959
805.053	0.0166453
805.131	0.0168420
805.209	0.0168319
805.288	0.0168143
805.366	0.0167650
805.444	0.0167274
805.522	0.0167762
805.600	0.0167928
805.678	0.0167305
805.756	0.0167825
805.834	0.0167347
805.913	0.0167784
805.991	0.0167326
806.069	0.0168282
806.147	0.0167847
806.225	0.0166788
806.303	0.0167635
806.381	0.0168035
806.459	0.0167815
806.538	0.0167763
806.616	0.0168452
806.694	0.0168586
806.772	0.0168612
806.850	0.0167666
806.928	0.0167094
807.006	0.0167632
807.084	0.0167709
807.163	0.0168446
807.241	0.0168504
807.319	0.0167670
807.397	0.0169287
807.475	0.0167928
807.553	0.0167868
807.631	0.0167612
807.709	0.0168301
807.788	0.0167943
807.866	0.0167530
807.944	0.0169676
808.022	0.0168517
808.100	0.0167142
808.178	0.0168602
808.256	0.0168359
808.334	0.0168206
808.413	0.0168658
808.491	0.0167645
808.569	0.0167740
808.647	0.0167029
808.725	0.0166602
808.803	0.0168083
808.881	0.0167567
808.959	0.0167045
809.038	0.0166159
809.116	0.0166310
809.194	0.0168262
809.272	0.0169230
809.350	0.0168027
809.428	0.0167899
809.506	0.0168582
809.584	0.0169556
809.663	0.0167662
809.741	0.0168924
809.819	0.0167642
809.897	0.0167500
809.975	0.0166612
810.053	0.0167150
810.131	0.0168039
810.209	0.0167888
810.288	0.0167615
810.366	0.0167030
810.444	0.0167607
810.522	0.0168241
810.600	0.0167610
810.678	0.0167827
810.756	0.0167620
810.834	0.0167646
810.913	0.0167709
810.991	0.0168053
811.069	0.0167771
811.147	0.0167611
811.225	0.0168661
811.303	0.0167721
811.381	0.0168829
811.459	0.0168563
811.538	0.0168259
811.616	0.0169025
811.694	0.0168315
811.772	0.0169384
811.850	0.0167759
811.928	0.0168389
812.006	0.0169833
812.084	0.0170119
812.163	0.0169958
812.241	0.0168301
812.319	0.0170119
812.397	0.0169484
812.475	0.0169329
812.553	0.0170113
812.631	0.0170271
812.709	0.0169335
812.788	0.0169942
812.866	0.0168980
812.944	0.0169091
813.022	0.0169931
813.100	0.0169185
813.178	0.0169592
813.256	0.0167668
813.334	0.0167645
813.413	0.0170615
813.491	0.0170759
813.569	0.0168820
813.647	0.0168584
813.725	0.0168311
813.803	0.0169807
813.881	0.0170480
813.959	0.0170309
814.038	0.0170429
814.116	0.0170202
814.194	0.0170304
814.272	0.0170710
814.350	0.0169801
814.428	0.0170696
814.506	0.0171506
814.584	0.0169149
814.663	0.0170742
814.741	0.0171215
814.819	0.0169723
814.897	0.0170947
814.975	0.0169806
815.053	0.0170655
815.131	0.0169605
815.209	0.0169952
815.288	0.0169005
815.366	0.0170708
815.444	0.0169513
815.522	0.0170693
815.600	0.0169067
815.678	0.0169629
815.756	0.0169885
815.834	0.0169320
815.913	0.0168451
815.991	0.0170888
816.069	0.0169662
816.147	0.0169849
816.225	0.0169910
816.303	0.0169120
816.381	0.0170177
816.459	0.0170618
816.538	0.0169327
816.616	0.0169373
816.694	0.0171120
816.772	0.0169851
816.850	0.0168838
816.928	0.0170284
817.006	0.0170357
817.084	0.0168897
817.163	0.0169785
817.241	0.0170139
817.319	0.0169741
817.397	0.0168035
817.475	0.0169930
817.553	0.0168697
817.631	0.0169613
817.709	0.0168832
817.788	0.0168890
817.866	0.0169680
817.944	0.0170985
818.022	0.0168084
818.100	0.0167995
818.178	0.0170254
818.256	0.0169688
818.334	0.0169406
818.413	0.0170117
818.491	0.0168462
818.569	0.0168591
818.647	0.0169942
818.725	0.0169818
818.803	0.0169552
818.881	0.0169147
818.959	0.0169445
819.038	0.0169138
819.116	0.0170223
819.194	0.0168776
819.272	0.0169997
819.350	0.0170854
819.428	0.0168813
819.506	0.0169827
819.584	0.0169783
819.663	0.0169248
819.741	0.0168959
819.819	0.0169965
819.897	0.0169159
819.975	0.0169763
820.053	0.0169456
820.131	0.0168657
820.209	0.0168816
820.288	0.0168767
820.366	0.0167653
820.444	0.0167465
820.522	0.0169698
820.600	0.0167976
820.678	0.0167035
820.756	0.0168616
820.834	0.0168575
820.913	0.0166256
820.991	0.0168238
821.069	0.0169805
821.147	0.0167858
821.225	0.0166623
821.303	0.0167924
821.381	0.0167915
821.459	0.0168826
821.538	0.0167595
821.616	0.0168198
821.694	0.0168977
821.772	0.0168840
821.850	0.0168665
821.928	0.0167345
822.006	0.0167895
822.084	0.0168251
822.163	0.0168632
822.241	0.0166563
822.319	0.0166786
822.397	0.0166874
822.475	0.0166158
822.553	0.0167535
822.631	0.0168258
822.709	0.0166351
822.788	0.0166852
822.866	0.0168231
822.944	0.0167068
823.022	0.0166156
823.100	0.0168095
823.178	0.0166243
823.256	0.0166916
823.334	0.0167794
823.413	0.0168551
823.491	0.0166277
823.569	0.0166728
823.647	0.0166662
823.725	0.0166179
823.803	0.0165497
823.881	0.0166979
823.959	0.0167558
824.038	0.0167039
824.116	0.0167155
824.194	0.0166986
824.272	0.0166906
824.350	0.0166998
824.428	0.0168766
824.506	0.0167004
824.584	0.0166734
824.663	0.0167905
824.741	0.0165771
824.819	0.0166877
824.897	0.0167669
824.975	0.0167339
825.053	0.0167691
825.131	0.0168983
825.209	0.0168659
825.288	0.0166926
825.366	0.0167823
825.444	0.0168420
825.522	0.0168562
825.600	0.0168888
825.678	0.0169399
825.756	0.0168600
825.834	0.0167071
825.913	0.0167564
825.991	0.0169501
826.069	0.0168777
826.147	0.0168331
826.225	0.0167809
826.303	0.0168651
826.381	0.0169550
826.459	0.0168385
826.538	0.0168961
826.616	0.0169753
826.694	0.0168203
826.772	0.0168097
826.850	0.0167800
826.928	0.0168235
827.006	0.0168411
827.084	0.0168575
827.163	0.0168604
827.241	0.0169661
827.319	0.0168510
827.397	0.0168904
827.475	0.0167708
827.553	0.0171275
827.631	0.0169131
827.709	0.0167777
827.788	0.0168354
827.866	0.0167940
827.944	0.0167357
828.022	0.0168353
828.100	0.0169418
828.178	0.0168707
828.256	0.0169643
828.334	0.0167370
828.413	0.0168085
828.491	0.0167136
828.569	0.0168553
828.647	0.0169393
828.725	0.0168132
828.803	0.0166932
828.881	0.0166008
828.959	0.0167574
829.038	0.0167944
829.116	0.0166763
829.194	0.0167445
829.272	0.0166378
829.350	0.0167178
829.428	0.0167119
829.506	0.0169048
829.584	0.0167966
829.663	0.0167458
829.741	0.0166809
829.819	0.0167709
829.897	0.0166836
829.975	0.0167594
830.053	0.0167818
830.131	0.0166293
830.209	0.0167976
830.288	0.0167271
830.366	0.0167094
830.444	0.0168600
830.522	0.0168108
830.600	0.0167997
830.678	0.0167300
830.756	0.0168101
830.834	0.0169228
830.913	0.0168826
830.991	0.0169474
831.069	0.0168710
831.147	0.0168427
831.225	0.0168774
831.303	0.0169897
831.381	0.0169088
831.459	0.0168977
831.538	0.0169836
831.616	0.0170451
831.694	0.0168501
831.772	0.0169044
831.850	0.0168603
831.928	0.0169170
832.006	0.0168383
832.084	0.0169360
832.163	0.0169611
832.241	0.0169083
832.319	0.0168754
832.397	0.0168423
832.475	0.0169218
832.553	0.0168783
832.631	0.0169294
832.709	0.0169027
832.788	0.0169655
832.866	0.0170123
832.944	0.0169492
833.022	0.0169774
833.100	0.0169343
833.178	0.0169987
833.256	0.0169941
833.334	0.0169160
833.413	0.0171051
833.491	0.0169589
833.569	0.0168977
833.647	0.0170133
833.725	0.0171480
833.803	0.0170772
833.881	0.0170247
833.959	0.0171922
834.038	0.0171107
834.116	0.0169744
834.194	0.0169898
834.272	0.0171111
834.350	0.0171428
834.428	0.0170894
834.506	0.0170367
834.584	0.0170987
834.663	0.0171507
834.741	0.0170209
834.819	0.0171887
834.897	0.0169752
834.975	0.0169194
835.053	0.0171096
835.131	0.0169236
835.209	0.0169757
835.288	0.0170630
835.366	0.0170976
835.444	0.0171593
835.522	0.0169949
835.600	0.0169878
835.678	0.0170395
835.756	0.0170625
835.834	0.0170049
835.913	0.0169126
835.991	0.0170677
836.069	0.0169370
836.147	0.0169585
836.225	0.0168753
836.303	0.0169801
836.381	0.0169411
836.459	0.0169611
836.538	0.0170990
836.616	0.0169447
836.694	0.0170580
836.772	0.0170781
836.850	0.0168908
836.928	0.0170480
837.006	0.0170913
837.084	0.0169821
837.163	0.0169917
837.241	0.0169931
837.319	0.0168762
837.397	0.0170469
837.475	0.0169085
837.553	0.0168290
837.631	0.0169326
837.709	0.0170694
837.788	0.0169736
837.866	0.0170698
837.944	0.0170601
838.022	0.0169592
838.100	0.0170552
838.178	0.0171085
838.256	0.0170264
838.334	0.0170109
838.413	0.0171419
838.491	0.0170796
838.569	0.0170610
838.647	0.0170152
838.725	0.0169385
838.803	0.0169939
838.881	0.0170083
838.959	0.0170823
839.038	0.0170176
839.116	0.0171497
839.194	0.0171363
839.272	0.0170132
839.350	0.0169853
839.428	0.0170670
839.506	0.0170788
839.584	0.0170806
839.663	0.0169917
839.741	0.0170711
839.819	0.0170388
839.897	0.0170715
839.975	0.0170678
840.053	0.0169124
840.131	0.0170232
840.209	0.0169018
840.288	0.0169067
840.366	0.0169629
840.444	0.0169622
840.522	0.0167834
840.600	0.0170557
840.678	0.0169241
840.756	0.0168197
840.834	0.0169009
840.913	0.0168926
840.991	0.0168920
841.069	0.0169788
841.147	0.0168032
841.225	0.0169679
841.303	0.0168358
841.381	0.0168623
841.459	0.0168029
841.538	0.0169876
841.616	0.0168165
841.694	0.0167661
841.772	0.0167931
841.850	0.0169200
841.928	0.0168579
842.006	0.0167558
842.084	0.0169283
842.163	0.0169142
842.241	0.0169289
842.319	0.0168546
842.397	0.0167812
842.475	0.0169014
842.553	0.0169215
842.631	0.0169905
842.709	0.0168403
842.788	0.0168374
842.866	0.0168653
842.944	0.0168493
843.022	0.0167719
843.100	0.0169245
843.178	0.0168559
843.256	0.0168781
843.334	0.0168503
843.413	0.0168916
843.491	0.0169483
843.569	0.0168737
843.647	0.0167322
843.725	0.0168712
843.803	0.0168751
843.881	0.0167784
843.959	0.0168376
844.038	0.0168573
844.116	0.0169196
844.194	0.0166980
844.272	0.0167155
844.350	0.0167065
844.428	0.0167651
844.506	0.0166814
844.584	0.0167350
844.663	0.0167061
844.741	0.0167664
844.819	0.0166275
844.897	0.0167082
844.975	0.0167307
845.053	0.0167287
845.131	0.0167332
845.209	0.0165968
845.288	0.0167331
845.366	0.0167625
845.444	0.0168246
845.522	0.0167075
845.600	0.0168489
845.678	0.0167016
845.756	0.0167825
845.834	0.0167489
845.913	0.0166921
845.991	0.0168956
846.069	0.0168498
846.147	0.0168315
846.225	0.0169005
846.303	0.0168166
846.381	0.0169085
846.459	0.0168739
846.538	0.0167295
846.616	0.0169585
846.694	0.0169725
846.772	0.0167399
846.850	0.0169083
846.928	0.0169340
847.006	0.0169444
847.084	0.0168209
847.163	0.0167950
847.241	0.0168365
847.319	0.0166869
847.397	0.0168871
847.475	0.0169030
847.553	0.0168889
847.631	0.0167937
847.709	0.0169015
847.788	0.0167964
847.866	0.0167995
847.944	0.0166807
848.022	0.0167369
848.100	0.0168241
848.178	0.0167719
848.256	0.0166541
848.334	0.0167078
848.413	0.0166649
848.491	0.0166058
848.569	0.0168079
848.647	0.0167344
848.725	0.0166336
848.803	0.0167239
848.881	0.0167375
848.959	0.0167260
849.038	0.0166620
849.116	0.0167465
849.194	0.0166933
849.272	0.0167910
849.350	0.0167670
849.428	0.0167522
849.506	0.0168304
849.584	0.0167989
849.663	0.0167722
849.741	0.0168294
849.819	0.0167154
849.897	0.0166517
849.975	0.0167134
850.053	0.0167803
850.131	0.0167641
850.209	0.0167610
850.288	0.0166798
850.366	0.0167597
850.444	0.0167921
850.522	0.0168195
850.600	0.0169159
850.678	0.0168674
850.756	0.0169073
850.834	0.0169521
850.913	0.0169247
850.991	0.0167570
851.069	0.0168270
851.147	0.0170078
851.225	0.0170144
851.303	0.0170013
851.381	0.0168651
851.459	0.0169347
851.538	0.0168734
851.616	0.0167660
851.694	0.0170105
851.772	0.0168634
851.850	0.0169178
851.928	0.0170234
852.006	0.0170547
852.084	0.0169533
852.163	0.0169295
852.241	0.0168566
852.319	0.0169103
852.397	0.0169126
852.475	0.0171201
852.553	0.0169547
852.631	0.0170342
852.709	0.0169215
852.788	0.0168917
852.866	0.0169473
852.944	0.0169414
853.022	0.0169806
853.100	0.0168565
853.178	0.0169374
853.256	0.0168838
853.334	0.0169961
853.413	0.0169389
853.491	0.0169382
853.569	0.0169564
853.647	0.0169318
853.725	0.0168919
853.803	0.0169814
853.881	0.0168757
853.959	0.0168125
854.038	0.0168710
854.116	0.0169685
854.194	0.0169724
854.272	0.0169749
854.350	0.0170913
854.428	0.0170020
854.506	0.0168620
854.584	0.0169941
854.663	0.0169421
854.741	0.0169836
854.819	0.0169166
854.897	0.0170110
854.975	0.0170065
855.053	0.0169962
855.131	0.0170567
855.209	0.0169897
855.288	0.0169988
855.366	0.0170757
855.444	0.0170365
855.522	0.0170442
855.600	0.0169655
855.678	0.0168924
855.756	0.0169044
855.834	0.0168993
855.913	0.0168864
855.991	0.0168024
856.069	0.0171042
856.147	0.0170139
856.225	0.0170710
856.303	0.0169226
856.381	0.0169257
856.459	0.0169485
856.538	0.0170348
856.616	0.0169701
856.694	0.0169510
856.772	0.0169547
856.850	0.0168539
856.928	0.0169128
857.006	0.0170042
857.084	0.0169427
857.163	0.0168693
857.241	0.0170125
857.319	0.0167908
857.397	0.0167852
857.475	0.0168396
857.553	0.0169974
857.631	0.0170151
857.709	0.0167925
857.788	0.0168281
857.866	0.0168407
857.944	0.0167302
858.022	0.0168214
858.100	0.0169057
858.178	0.0168317
858.256	0.0167705
858.334	0.0167947
858.413	0.0168497
858.491	0.0166852
858.569	0.0167848
858.647	0.0168736
858.725	0.0167842
858.803	0.0168707
858.881	0.0168071
858.959	0.0167313
859.038	0.0167004
859.116	0.0167535
859.194	0.0168422
859.272	0.0167862
859.350	0.0167599
859.428	0.0167460
859.506	0.0166730
859.584	0.0166874
859.663	0.0167081
859.741	0.0168535
859.819	0.0166852
859.897	0.0166261
859.975	0.0168533
860.053	0.0167513
860.131	0.0167139
860.209	0.0167350
860.288	0.0166833
860.366	0.0167543
860.444	0.0168651
860.522	0.0167755
860.600	0.0167885
860.678	0.0167421
860.756	0.0168263
860.834	0.0167315
860.913	0.0167459
860.991	0.0168615
861.069	0.0168371
861.147	0.0168024
861.225	0.0167818
861.303	0.0167758
861.381	0.0168780
861.459	0.0169128
861.538	0.0168994
861.616	0.0168729
861.694	0.0168269
861.772	0.0168911
861.850	0.0167020
861.928	0.0167742
862.006	0.0167984
862.084	0.0167913
862.163	0.0167326
862.241	0.0167149
862.319	0.0167308
862.397	0.0168734
862.475	0.0168103
862.553	0.0167292
862.631	0.0168465
862.709	0.0166204
862.788	0.0169215
862.866	0.0168814
862.944	0.0168230
863.022	0.0166985
863.100	0.0167583
863.178	0.0168321
863.256	0.0168296
863.334	0.0168240
863.413	0.0167581
863.491	0.0168484
863.569	0.0168725
863.647	0.0167667
863.725	0.0166586
863.803	0.0168428
863.881	0.0168035
863.959	0.0168871
864.038	0.0169357
864.116	0.0170065
864.194	0.0168124
864.272	0.0168439
864.350	0.0168513
864.428	0.0169270
864.506	0.0168108
864.584	0.0168474
864.663	0.0168201
864.741	0.0169655
864.819	0.0168781
864.897	0.0167786
864.975	0.0168303
865.053	0.0167760
865.131	0.0167279
865.209	0.0166808
865.288	0.0167072
865.366	0.0168226
865.444	0.0168347
865.522	0.0167606
865.600	0.0168286
865.678	0.0168176
865.756	0.0168276
865.834	0.0168433
865.913	0.0168282
865.991	0.0169656
866.069	0.0169752
866.147	0.0167833
866.225	0.0168499
866.303	0.0168341
866.381	0.0168443
866.459	0.0168565
866.538	0.0167047
866.616	0.0169118
866.694	0.0167224
866.772	0.0168501
866.850	0.0168143
866.928	0.0166861
867.006	0.0167336
867.084	0.0167886
867.163	0.0168273
867.241	0.0168096
867.319	0.0168176
867.397	0.0166927
867.475	0.0168550
867.553	0.0167089
867.631	0.0167622
867.709	0.0166513
867.788	0.0167547
867.866	0.0167535
867.944	0.0166191
868.022	0.0165949
868.100	0.0167196
868.178	0.0166373
868.256	0.0166963
868.334	0.0166209
868.413	0.0165363
868.491	0.0167042
868.569	0.0167778
868.647	0.0166930
868.725	0.0165939
868.803	0.0168115
868.881	0.0167096
868.959	0.0167429
869.038	0.0165645
869.116	0.0166389
869.194	0.0166463
869.272	0.0166891
869.350	0.0166755
869.428	0.0166814
869.506	0.0166644
869.584	0.0167415
869.663	0.0167661
869.741	0.0166003
869.819	0.0166175
869.897	0.0167786
869.975	0.0168372
870.053	0.0167793
870.131	0.0167480
870.209	0.0167976
870.288	0.0167417
870.366	0.0166449
870.444	0.0167612
870.522	0.0166776
870.600	0.0166788
870.678	0.0167134
870.756	0.0166394
870.834	0.0166457
870.913	0.0167851
870.991	0.0166693
871.069	0.0166245
871.147	0.0167738
871.225	0.0166338
871.303	0.0167082
871.381	0.0167455
871.459	0.0166129
871.538	0.0165596
871.616	0.0167231
871.694	0.0167001
871.772	0.0167233
871.850	0.0166364
871.928	0.0167720
872.006	0.0167323
872.084	0.0168121
872.163	0.0168235
872.241	0.0167202
872.319	0.0168902
872.397	0.0168083
872.475	0.0166463
872.553	0.0166108
872.631	0.0167618
872.709	0.0167207
872.788	0.0166499
872.866	0.0168488
872.944	0.0168262
873.022	0.0167424
873.100	0.0166347
873.178	0.0166235
873.256	0.0168304
873.334	0.0166947
873.413	0.0168913
873.491	0.0167089
873.569	0.0166077
873.647	0.0168274
873.725	0.0167342
873.803	0.0169254
873.881	0.0168224
873.959	0.0168054
874.038	0.0167048
874.116	0.0167685
874.194	0.0166866
874.272	0.0168298
874.350	0.0167919
874.428	0.0168158
874.506	0.0170072
874.584	0.0167213
874.663	0.0166924
874.741	0.0168243
874.819	0.0167146
874.897	0.0167696
874.975	0.0167031
875.053	0.0168461
875.131	0.0168414
875.209	0.0167345
875.288	0.0166714
875.366	0.0166060
875.444	0.0167308
875.522	0.0167117
875.600	0.0168703
875.678	0.0168726
875.756	0.0167744
875.834	0.0167318
875.913	0.0169135
875.991	0.0168329
876.069	0.0167928
876.147	0.0168065
876.225	0.0168562
876.303	0.0169876
876.381	0.0170634
876.459	0.0168230
876.538	0.0168433
876.616	0.0169099
876.694	0.0167861
876.772	0.0168915
876.850	0.0167791
876.928	0.0169934
877.006	0.0168048
877.084	0.0167718
877.163	0.0169225
877.241	0.0168817
877.319	0.0167465
877.397	0.0167547
877.475	0.0167439
877.553	0.0167864
877.631	0.0168272
877.709	0.0169061
877.788	0.0168964
877.866	0.0167296
877.944	0.0167464
878.022	0.0168401
878.100	0.0168333
878.178	0.0168932
878.256	0.0169197
878.334	0.0170885
878.413	0.0167615
878.491	0.0167970
878.569	0.0169852
878.647	0.0167870
878.725	0.0168944
878.803	0.0169742
878.881	0.0170130
878.959	0.0170512
879.038	0.0167977
879.116	0.0168973
879.194	0.0169962
879.272	0.0171484
879.350	0.0168859
879.428	0.0168716
879.506	0.0169673
879.584	0.0169138
879.663	0.0169411
879.741	0.0169103
879.819	0.0170234
879.897	0.0170239
879.975	0.0169910
880.053	0.0169706
880.131	0.0168338
880.209	0.0168980
880.288	0.0168780
880.366	0.0168530
880.444	0.0169006
880.522	0.0168232
880.600	0.0169222
880.678	0.0169172
880.756	0.0168024
880.834	0.0167527
880.913	0.0168764
880.991	0.0169752
881.069	0.0168922
881.147	0.0168816
881.225	0.0169058
881.303	0.0169054
881.381	0.0170313
881.459	0.0168924
881.538	0.0168106
881.616	0.0168313
881.694	0.0167104
881.772	0.0168694
881.850	0.0168279
881.928	0.0168461
882.006	0.0168903
882.084	0.0168581
882.163	0.0167641
882.241	0.0167713
882.319	0.0166470
882.397	0.0167038
882.475	0.0168065
882.553	0.0168398
882.631	0.0168448
882.709	0.0168497
882.788	0.0166119
882.866	0.0167812
882.944	0.0167897
883.022	0.0168964
883.100	0.0167867
883.178	0.0167312
883.256	0.0167642
883.334	0.0168042
883.413	0.0167478
883.491	0.0168561
883.569	0.0170495
883.647	0.0168690
883.725	0.0169070
883.803	0.0168688
883.881	0.0168394
883.959	0.0169164
884.038	0.0169089
884.116	0.0168553
884.194	0.0168400
884.272	0.0169213
884.350	0.0169285
884.428	0.0169540
884.506	0.0169671
884.584	0.0170079
884.663	0.0168681
884.741	0.0170749
884.819	0.0167969
884.897	0.0169678
884.975	0.0168511
885.053	0.0168960
885.131	0.0168816
885.209	0.0169960
885.288	0.0169038
885.366	0.0169086
885.444	0.0169536
885.522	0.0168533
885.600	0.0168996
885.678	0.0168005
885.756	0.0168028
885.834	0.0168696
885.913	0.0169765
885.991	0.0168832
886.069	0.0167826
886.147	0.0168756
886.225	0.0169717
886.303	0.0167536
886.381	0.0169077
886.459	0.0169607
886.538	0.0168630
886.616	0.0169723
886.694	0.0168379
886.772	0.0168292
886.850	0.0170356
886.928	0.0167711
887.006	0.0167976
887.084	0.0169871
887.163	0.0168593
887.241	0.0168309
887.319	0.0169535
887.397	0.0168826
887.475	0.0167855
887.553	0.0167121
887.631	0.0167237
887.709	0.0168756
887.788	0.0169229
887.866	0.0167947
887.944	0.0168609
888.022	0.0167440
888.100	0.0167930
888.178	0.0166665
888.256	0.0167905
888.334	0.0168212
888.413	0.0168205
888.491	0.0168054
888.569	0.0167246
888.647	0.0167725
888.725	0.0167773
888.803	0.0167590
888.881	0.0166653
888.959	0.0167838
889.038	0.0167439
889.116	0.0168121
889.194	0.0168503
889.272	0.0167945
889.350	0.0167900
889.428	0.0168706
889.506	0.0167679
889.584	0.0167381
889.663	0.0168375
889.741	0.0168875
889.819	0.0169837
889.897	0.0168841
889.975	0.0169212
890.053	0.0167731
890.131	0.0168207
890.209	0.0168065
890.288	0.0167180
890.366	0.0167314
890.444	0.0168234
890.522	0.0167307
890.600	0.0168790
890.678	0.0168595
890.756	0.0168024
890.834	0.0167583
890.913	0.0167259
890.991	0.0167188
891.069	0.0167156
891.147	0.0165889
891.225	0.0166724
891.303	0.0167670
891.381	0.0166843
891.459	0.0166959
891.538	0.0168459
891.616	0.0167575
891.694	0.0166546
891.772	0.0166991
891.850	0.0166983
891.928	0.0166893
892.006	0.0165292
892.084	0.0166331
892.163	0.0166536
892.241	0.0166405
892.319	0.0165878
892.397	0.0166635
892.475	0.0166771
892.553	0.0166682
892.631	0.0166019
892.709	0.0166050
892.788	0.0165607
892.866	0.0167035
892.944	0.0167390
893.022	0.0166588
893.100	0.0167014
893.178	0.0167187
893.256	0.0168266
893.334	0.0167297
893.413	0.0166428
893.491	0.0168133
893.569	0.0168059
893.647	0.0166121
893.725	0.0166707
893.803	0.0166677
893.881	0.0168346
893.959	0.0167194
894.038	0.0166902
894.116	0.0166608
894.194	0.0166695
894.272	0.0166756
894.350	0.0167426
894.428	0.0168873
894.506	0.0168108
894.584	0.0168119
894.663	0.0168992
894.741	0.0166709
894.819	0.0167735
894.897	0.0166306
894.975	0.0168147
895.053	0.0168570
895.131	0.0167960
895.209	0.0167222
895.288	0.0167198
895.366	0.0168641
895.444	0.0167899
895.522	0.0167519
895.600	0.0167653
895.678	0.0168346
895.756	0.0166656
895.834	0.0167735
895.913	0.0168247
895.991	0.0168371
896.069	0.0168227
896.147	0.0168484
896.225	0.0168023
896.303	0.0168806
896.381	0.0167098
896.459	0.0167941
896.538	0.0167323
896.616	0.0167423
896.694	0.0168073
896.772	0.0167463
896.850	0.0167874
896.928	0.0167796
897.006	0.0167586
897.084	0.0167504
897.163	0.0167538
897.241	0.0167568
897.319	0.0166691
897.397	0.0167258
897.475	0.0166853
897.553	0.0166846
897.631	0.0166736
897.709	0.0168308
897.788	0.0167699
897.866	0.0166701
897.944	0.0168596
898.022	0.0168512
898.100	0.0168002
898.178	0.0167779
898.256	0.0167710
898.334	0.0168369
898.413	0.0167810
898.491	0.0168861
898.569	0.0168771
898.647	0.0167864
898.725	0.0167692
898.803	0.0169067
898.881	0.0167709
898.959	0.0168593
899.038	0.0168497
899.116	0.0167772
899.194	0.0169129
899.272	0.0169153
899.350	0.0168369
899.428	0.0168406
899.506	0.0168462
899.584	0.0167999
899.663	0.0168092
899.741	0.0168205
899.819	0.0168870
899.897	0.0168255
899.975	0.0167551
900.053	0.0168633
900.131	0.0168722
900.209	0.0168566
900.288	0.0169245
900.366	0.0168561
900.444	0.0168118
900.522	0.0168956
900.600	0.0169359
900.678	0.0169144
900.756	0.0169572
900.834	0.0169641
900.913	0.0169072
900.991	0.0170387
901.069	0.0169887
901.147	0.0168777
901.225	0.0171020
901.303	0.0170005
901.381	0.0170279
901.459	0.0170944
901.538	0.0169819
901.616	0.0170195
901.694	0.0170205
901.772	0.0170621
901.850	0.0168473
901.928	0.0170132
902.006	0.0169145
902.084	0.0172314
902.163	0.0170515
902.241	0.0168915
902.319	0.0170084
902.397	0.0169241
902.475	0.0170486
902.553	0.0170460
902.631	0.0170795
902.709	0.0170733
902.788	0.0170536
902.866	0.0170032
902.944	0.0170392
903.022	0.0169647
903.100	0.0170905
903.178	0.0171254
903.256	0.0171186
903.334	0.0171966
903.413	0.0171483
903.491	0.0170367
903.569	0.0170824
903.647	0.0169593
903.725	0.0172169
903.803	0.0173305
903.881	0.0170792
903.959	0.0169764
904.038	0.0170002
904.116	0.0169833
904.194	0.0170058
904.272	0.0169305
904.350	0.0170693
904.428	0.0170119
904.506	0.0169180
904.584	0.0170202
904.663	0.0168050
904.741	0.0169382
904.819	0.0169949
904.897	0.0170409
904.975	0.0169008
905.053	0.0167954
905.131	0.0168430
905.209	0.0168308
905.288	0.0168526
905.366	0.0167346
905.444	0.0168706
905.522	0.0169098
905.600	0.0169106
905.678	0.0169143
905.756	0.0168092
905.834	0.0169927
905.913	0.0168214
905.991	0.0168232
906.069	0.0168979
906.147	0.0170058
906.225	0.0168515
906.303	0.0168916
906.381	0.0169719
906.459	0.0168969
906.538	0.0168719
906.616	0.0169047
906.694	0.0170111
906.772	0.0169305
906.850	0.0169996
906.928	0.0170467
907.006	0.0169550
907.084	0.0169144
907.163	0.0168600
907.241	0.0170134
907.319	0.0168182
907.397	0.0169183
907.475	0.0169530
907.553	0.0169963
907.631	0.0169061
907.709	0.0167820
907.788	0.0169689
907.866	0.0169250
907.944	0.0167007
908.022	0.0167953
908.100	0.0167827
908.178	0.0168478
908.256	0.0167941
908.334	0.0166816
908.413	0.0167657
908.491	0.0167534
908.569	0.0168791
908.647	0.0167213
908.725	0.0168840
908.803	0.0167304
908.881	0.0167830
908.959	0.0166821
909.038	0.0166451
909.116	0.0167899
909.194	0.0167978
909.272	0.0168362
909.350	0.0169000
909.428	0.0167774
909.506	0.0167002
909.584	0.0168480
909.663	0.0168607
909.741	0.0169465
909.819	0.0169044
909.897	0.0167976
909.975	0.0170332
910.053	0.0168247
910.131	0.0168774
910.209	0.0169603
910.288	0.0168056
910.366	0.0167558
910.444	0.0167404
910.522	0.0169162
910.600	0.0169563
910.678	0.0170358
910.756	0.0169129
910.834	0.0170081
910.913	0.0170359
910.991	0.0168996
911.069	0.0170118
911.147	0.0170082
911.225	0.0169019
911.303	0.0168903
911.381	0.0169822
911.459	0.0171548
911.538	0.0171138
911.616	0.0168563
911.694	0.0170017
911.772	0.0169068
911.850	0.0168568
911.928	0.0169862
912.006	0.0169482
912.084	0.0170541
912.163	0.0170171
912.241	0.0169495
912.319	0.0168439
912.397	0.0169382
912.475	0.0170097
912.553	0.0170879
912.631	0.0170512
912.709	0.0169137
912.788	0.0170437
912.866	0.0171078
912.944	0.0170081
913.022	0.0169641
913.100	0.0169865
913.178	0.0171047
913.256	0.0170394
913.334	0.0170820
913.413	0.0169202
913.491	0.0169917
913.569	0.0169981
913.647	0.0170103
913.725	0.0170215
913.803	0.0170608
913.881	0.0171017
913.959	0.0171196
914.038	0.0170367
914.116	0.0170522
914.194	0.0171970
914.272	0.0170835
914.350	0.0169566
914.428	0.0171033
914.506	0.0170452
914.584	0.0170881
914.663	0.0169936
914.741	0.0170048
914.819	0.0171730
914.897	0.0169762
914.975	0.0169408
915.053	0.0170530
915.131	0.0169794
915.209	0.0171957
915.288	0.0169687
915.366	0.0169650
915.444	0.0171279
915.522	0.0170860
915.600	0.0170953
915.678	0.0169617
915.756	0.0171791
915.834	0.0169722
915.913	0.0169318
915.991	0.0169221
916.069	0.0170750
916.147	0.0170392
916.225	0.0170114
916.303	0.0170448
916.381	0.0170512
916.459	0.0169296
916.538	0.0169883
916.616	0.0168893
916.694	0.0168462
916.772	0.0169360
916.850	0.0169756
916.928	0.0170086
917.006	0.0168926
917.084	0.0169176
917.163	0.0169833
917.241	0.0169020
917.319	0.0167969
917.397	0.0168254
917.475	0.0168793
917.553	0.0169631
917.631	0.0168771
917.709	0.0167826
917.788	0.0168554
917.866	0.0169040
917.944	0.0167683
918.022	0.0167463
918.100	0.0167590
918.178	0.0167688
918.256	0.0166579
918.334	0.0167171
918.413	0.0167661
918.491	0.0166377
918.569	0.0168383
918.647	0.0167259
918.725	0.0165936
918.803	0.0166874
918.881	0.0166764
918.959	0.0166343
919.038	0.0167727
919.116	0.0167175
919.194	0.0167374
919.272	0.0167316
919.350	0.0167027
919.428	0.0167967
919.506	0.0167800
919.584	0.0166217
919.663	0.0167401
919.741	0.0167231
919.819	0.0167912
919.897	0.0168176
