06/03/2022	14:45:44	Ver.	4.1	UNKNOWN
Optical Delay	550.020508	Delta X		0.078125	Sweeps	1	Scan Rate	0/0
Coordinates	Axis 1	NaN	Axis 2	NaN	Axis 3	NaN	Axis 4	NaN	Axis 5	NaN	Axis 6	0.000000
TX Power	0.000000	RX Power	0.000000

550.021	0.0165977
550.099	0.0166074
550.177	0.0166977
550.255	0.0166081
550.333	0.0165475
550.411	0.0164774
550.489	0.0166528
550.567	0.0165820
550.646	0.0165667
550.724	0.0165140
550.802	0.0165876
550.880	0.0165531
550.958	0.0165800
551.036	0.0165895
551.114	0.0164940
551.192	0.0165734
551.271	0.0164253
551.349	0.0163975
551.427	0.0167208
551.505	0.0164824
551.583	0.0165500
551.661	0.0164573
551.739	0.0165310
551.817	0.0165454
551.896	0.0164317
551.974	0.0163845
552.052	0.0164766
552.130	0.0165031
552.208	0.0164967
552.286	0.0163581
552.364	0.0164851
552.442	0.0163121
552.521	0.0163111
552.599	0.0164957
552.677	0.0164858
552.755	0.0164999
552.833	0.0165156
552.911	0.0163998
552.989	0.0165087
553.067	0.0164300
553.146	0.0165180
553.224	0.0164997
553.302	0.0165987
553.380	0.0164600
553.458	0.0165041
553.536	0.0165389
553.614	0.0165867
553.692	0.0165253
553.771	0.0164969
553.849	0.0164216
553.927	0.0164713
554.005	0.0165963
554.083	0.0165172
554.161	0.0165182
554.239	0.0165113
554.317	0.0164515
554.396	0.0165457
554.474	0.0164611
554.552	0.0166426
554.630	0.0165801
554.708	0.0164922
554.786	0.0166134
554.864	0.0165823
554.942	0.0165627
555.021	0.0165678
555.099	0.0165002
555.177	0.0165529
555.255	0.0165541
555.333	0.0164442
555.411	0.0165998
555.489	0.0166056
555.567	0.0164719
555.646	0.0166443
555.724	0.0165118
555.802	0.0164673
555.880	0.0166821
555.958	0.0163833
556.036	0.0164518
556.114	0.0164648
556.192	0.0165447
556.271	0.0164925
556.349	0.0164680
556.427	0.0164983
556.505	0.0163914
556.583	0.0164175
556.661	0.0165305
556.739	0.0165003
556.817	0.0164160
556.896	0.0164053
556.974	0.0164175
557.052	0.0163835
557.130	0.0164652
557.208	0.0165489
557.286	0.0163380
557.364	0.0162414
557.442	0.0164096
557.521	0.0164151
557.599	0.0163755
557.677	0.0164844
557.755	0.0165482
557.833	0.0163731
557.911	0.0164329
557.989	0.0164351
558.067	0.0164624
558.146	0.0165770
558.224	0.0163640
558.302	0.0164175
558.380	0.0163592
558.458	0.0163558
558.536	0.0164573
558.614	0.0163809
558.692	0.0163744
558.771	0.0164845
558.849	0.0165898
558.927	0.0164462
559.005	0.0164266
559.083	0.0165570
559.161	0.0166550
559.239	0.0163417
559.317	0.0166080
559.396	0.0165370
559.474	0.0164738
559.552	0.0165679
559.630	0.0167894
559.708	0.0165734
559.786	0.0166452
559.864	0.0166454
559.942	0.0166058
560.021	0.0165854
560.099	0.0165826
560.177	0.0165466
560.255	0.0166540
560.333	0.0166544
560.411	0.0166676
560.489	0.0166615
560.567	0.0166544
560.646	0.0167118
560.724	0.0165862
560.802	0.0167224
560.880	0.0165926
560.958	0.0166224
561.036	0.0168060
561.114	0.0165051
561.192	0.0166505
561.271	0.0166949
561.349	0.0166156
561.427	0.0165812
561.505	0.0166595
561.583	0.0167138
561.661	0.0166670
561.739	0.0165672
561.817	0.0165761
561.896	0.0166634
561.974	0.0166911
562.052	0.0167767
562.130	0.0167806
562.208	0.0167155
562.286	0.0167375
562.364	0.0167747
562.442	0.0167194
562.521	0.0168356
562.599	0.0167068
562.677	0.0167403
562.755	0.0168481
562.833	0.0168277
562.911	0.0166315
562.989	0.0167987
563.067	0.0166558
563.146	0.0166384
563.224	0.0169849
563.302	0.0167419
563.380	0.0168005
563.458	0.0167207
563.536	0.0167983
563.614	0.0168940
563.692	0.0169097
563.771	0.0168645
563.849	0.0167587
563.927	0.0167785
564.005	0.0166168
564.083	0.0166510
564.161	0.0168176
564.239	0.0167112
564.317	0.0166902
564.396	0.0165844
564.474	0.0167073
564.552	0.0167654
564.630	0.0168145
564.708	0.0166205
564.786	0.0165827
564.864	0.0167191
564.942	0.0167279
565.021	0.0166453
565.099	0.0166937
565.177	0.0166547
565.255	0.0167030
565.333	0.0166052
565.411	0.0165334
565.489	0.0164973
565.567	0.0167847
565.646	0.0166768
565.724	0.0167784
565.802	0.0165955
565.880	0.0166807
565.958	0.0167168
566.036	0.0165900
566.114	0.0165929
566.192	0.0165722
566.271	0.0167060
566.349	0.0167185
566.427	0.0166814
566.505	0.0166905
566.583	0.0165765
566.661	0.0167161
566.739	0.0167216
566.817	0.0165487
566.896	0.0166829
566.974	0.0167287
567.052	0.0165630
567.130	0.0165950
567.208	0.0165557
567.286	0.0167336
567.364	0.0166433
567.442	0.0165780
567.521	0.0167026
567.599	0.0167086
567.677	0.0166602
567.755	0.0166698
567.833	0.0166566
567.911	0.0166998
567.989	0.0166520
568.067	0.0166013
568.146	0.0165962
568.224	0.0164998
568.302	0.0165067
568.380	0.0166306
568.458	0.0166232
568.536	0.0166853
568.614	0.0166764
568.692	0.0165629
568.771	0.0166153
568.849	0.0165879
568.927	0.0166162
569.005	0.0166867
569.083	0.0166160
569.161	0.0166006
569.239	0.0165937
569.317	0.0166052
569.396	0.0165891
569.474	0.0166816
569.552	0.0167288
569.630	0.0165858
569.708	0.0165465
569.786	0.0167486
569.864	0.0166869
569.942	0.0165354
570.021	0.0165437
570.099	0.0166341
570.177	0.0166561
570.255	0.0166399
570.333	0.0166463
570.411	0.0165943
570.489	0.0166450
570.567	0.0166421
570.646	0.0165819
570.724	0.0165614
570.802	0.0166093
570.880	0.0166022
570.958	0.0167532
571.036	0.0167527
571.114	0.0166026
571.192	0.0165753
571.271	0.0166898
571.349	0.0166364
571.427	0.0166508
571.505	0.0165668
571.583	0.0166479
571.661	0.0165527
571.739	0.0165578
571.817	0.0166663
571.896	0.0165623
571.974	0.0166521
572.052	0.0166451
572.130	0.0165106
572.208	0.0166316
572.286	0.0167317
572.364	0.0164925
572.442	0.0166041
572.521	0.0165899
572.599	0.0166065
572.677	0.0167023
572.755	0.0165298
572.833	0.0165344
572.911	0.0165853
572.989	0.0165182
573.067	0.0165636
573.146	0.0166670
573.224	0.0164993
573.302	0.0164722
573.380	0.0165066
573.458	0.0165780
573.536	0.0165601
573.614	0.0165470
573.692	0.0165515
573.771	0.0166370
573.849	0.0166343
573.927	0.0164949
574.005	0.0166268
574.083	0.0166596
574.161	0.0164704
574.239	0.0166663
574.317	0.0166737
574.396	0.0166844
574.474	0.0166809
574.552	0.0165845
574.630	0.0167320
574.708	0.0166579
574.786	0.0166588
574.864	0.0167155
574.942	0.0166695
575.021	0.0165937
575.099	0.0165387
575.177	0.0165190
575.255	0.0165946
575.333	0.0165671
575.411	0.0164836
575.489	0.0166000
575.567	0.0167410
575.646	0.0165986
575.724	0.0165844
575.802	0.0165386
575.880	0.0164891
575.958	0.0166176
576.036	0.0166844
576.114	0.0167831
576.192	0.0166632
576.271	0.0166113
576.349	0.0166097
576.427	0.0167104
576.505	0.0165678
576.583	0.0165923
576.661	0.0167572
576.739	0.0166843
576.817	0.0165700
576.896	0.0165672
576.974	0.0166748
577.052	0.0166505
577.130	0.0166479
577.208	0.0166666
577.286	0.0166575
577.364	0.0167334
577.442	0.0164915
577.521	0.0165840
577.599	0.0167363
577.677	0.0165858
577.755	0.0166586
577.833	0.0167724
577.911	0.0166634
577.989	0.0165853
578.067	0.0165808
578.146	0.0166578
578.224	0.0166065
578.302	0.0166322
578.380	0.0166401
578.458	0.0166029
578.536	0.0165994
578.614	0.0165327
578.692	0.0165408
578.771	0.0165423
578.849	0.0165638
578.927	0.0166695
579.005	0.0166875
579.083	0.0167191
579.161	0.0165476
579.239	0.0166365
579.317	0.0164927
579.396	0.0165620
579.474	0.0165173
579.552	0.0166803
579.630	0.0166750
579.708	0.0166161
579.786	0.0165298
579.864	0.0164715
579.942	0.0165089
580.021	0.0164315
580.099	0.0164168
580.177	0.0166739
580.255	0.0165442
580.333	0.0164824
580.411	0.0163654
580.489	0.0165349
580.567	0.0164389
580.646	0.0164767
580.724	0.0164139
580.802	0.0165021
580.880	0.0164924
580.958	0.0163885
581.036	0.0164712
581.114	0.0164429
581.192	0.0165821
581.271	0.0164732
581.349	0.0164512
581.427	0.0164622
581.505	0.0166187
581.583	0.0164368
581.661	0.0164680
581.739	0.0164883
581.817	0.0165131
581.896	0.0164223
581.974	0.0164029
582.052	0.0164761
582.130	0.0165408
582.208	0.0164198
582.286	0.0164393
582.364	0.0164185
582.442	0.0164496
582.521	0.0162847
582.599	0.0163827
582.677	0.0165143
582.755	0.0163644
582.833	0.0164390
582.911	0.0164523
582.989	0.0164122
583.067	0.0166035
583.146	0.0165344
583.224	0.0164552
583.302	0.0165392
583.380	0.0165549
583.458	0.0165475
583.536	0.0165112
583.614	0.0164981
583.692	0.0166319
583.771	0.0164387
583.849	0.0165218
583.927	0.0165986
584.005	0.0164359
584.083	0.0166421
584.161	0.0166460
584.239	0.0165596
584.317	0.0164540
584.396	0.0165025
584.474	0.0167365
584.552	0.0165700
584.630	0.0164249
584.708	0.0165302
584.786	0.0166415
584.864	0.0166136
584.942	0.0165974
585.021	0.0165924
585.099	0.0166356
585.177	0.0166668
585.255	0.0165793
585.333	0.0164526
585.411	0.0164769
585.489	0.0166471
585.567	0.0165475
585.646	0.0165111
585.724	0.0166015
585.802	0.0165503
585.880	0.0166331
585.958	0.0165372
586.036	0.0164827
586.114	0.0165404
586.192	0.0166016
586.271	0.0165516
586.349	0.0166552
586.427	0.0164780
586.505	0.0164627
586.583	0.0165049
586.661	0.0165440
586.739	0.0166243
586.817	0.0164410
586.896	0.0164736
586.974	0.0165974
587.052	0.0164764
587.130	0.0165044
587.208	0.0165182
587.286	0.0165018
587.364	0.0164830
587.442	0.0166547
587.521	0.0164290
587.599	0.0165553
587.677	0.0165456
587.755	0.0165943
587.833	0.0166287
587.911	0.0164590
587.989	0.0165043
588.067	0.0165321
588.146	0.0164753
588.224	0.0162589
588.302	0.0164477
588.380	0.0165495
588.458	0.0164935
588.536	0.0164674
588.614	0.0164796
588.692	0.0165044
588.771	0.0166547
588.849	0.0165961
588.927	0.0165532
589.005	0.0163856
589.083	0.0164921
589.161	0.0165033
589.239	0.0165371
589.317	0.0165544
589.396	0.0165867
589.474	0.0164817
589.552	0.0165450
589.630	0.0166743
589.708	0.0166529
589.786	0.0165113
589.864	0.0164656
589.942	0.0165105
590.021	0.0166010
590.099	0.0165225
590.177	0.0164852
590.255	0.0164318
590.333	0.0164411
590.411	0.0165627
590.489	0.0164746
590.567	0.0165437
590.646	0.0165943
590.724	0.0165534
590.802	0.0165031
590.880	0.0164861
590.958	0.0166216
591.036	0.0165182
591.114	0.0163955
591.192	0.0165072
591.271	0.0164092
591.349	0.0165466
591.427	0.0166169
591.505	0.0164735
591.583	0.0163802
591.661	0.0165376
591.739	0.0164584
591.817	0.0164435
591.896	0.0166159
591.974	0.0166039
592.052	0.0166064
592.130	0.0165614
592.208	0.0165068
592.286	0.0166821
592.364	0.0166911
592.442	0.0165926
592.521	0.0165926
592.599	0.0165292
592.677	0.0166093
592.755	0.0166982
592.833	0.0165553
592.911	0.0166420
592.989	0.0166405
593.067	0.0165714
593.146	0.0167828
593.224	0.0166772
593.302	0.0166048
593.380	0.0166975
593.458	0.0165930
593.536	0.0166602
593.614	0.0167379
593.692	0.0167815
593.771	0.0167043
593.849	0.0166072
593.927	0.0167823
594.005	0.0166177
594.083	0.0165311
594.161	0.0165566
594.239	0.0165124
594.317	0.0165137
594.396	0.0164909
594.474	0.0165703
594.552	0.0165172
594.630	0.0166126
594.708	0.0165925
594.786	0.0165654
594.864	0.0165354
594.942	0.0165123
595.021	0.0166425
595.099	0.0166467
595.177	0.0165254
595.255	0.0165334
595.333	0.0165854
595.411	0.0165699
595.489	0.0165797
595.567	0.0166608
595.646	0.0165971
595.724	0.0164943
595.802	0.0165467
595.880	0.0166257
595.958	0.0166712
596.036	0.0165643
596.114	0.0164851
596.192	0.0165091
596.271	0.0166295
596.349	0.0167607
596.427	0.0166678
596.505	0.0167259
596.583	0.0166238
596.661	0.0166602
596.739	0.0166271
596.817	0.0166235
596.896	0.0167039
596.974	0.0167782
597.052	0.0165291
597.130	0.0164265
597.208	0.0165814
597.286	0.0166240
597.364	0.0166155
597.442	0.0166486
597.521	0.0165685
597.599	0.0164878
597.677	0.0165498
597.755	0.0166390
597.833	0.0166219
597.911	0.0166916
597.989	0.0164839
598.067	0.0165321
598.146	0.0165212
598.224	0.0167162
598.302	0.0165087
598.380	0.0165896
598.458	0.0166402
598.536	0.0166222
598.614	0.0167101
598.692	0.0164509
598.771	0.0165679
598.849	0.0166348
598.927	0.0165827
599.005	0.0166451
599.083	0.0165101
599.161	0.0165129
599.239	0.0165404
599.317	0.0166306
599.396	0.0165773
599.474	0.0166549
599.552	0.0166753
599.630	0.0165648
599.708	0.0165081
599.786	0.0166122
599.864	0.0164793
599.942	0.0165081
600.021	0.0165914
600.099	0.0165694
600.177	0.0165881
600.255	0.0165911
600.333	0.0165520
600.411	0.0165634
600.489	0.0164827
600.567	0.0165200
600.646	0.0166993
600.724	0.0165068
600.802	0.0165545
600.880	0.0165218
600.958	0.0165470
601.036	0.0164597
601.114	0.0163692
601.192	0.0164516
601.271	0.0165469
601.349	0.0165018
601.427	0.0165430
601.505	0.0164297
601.583	0.0165742
601.661	0.0164924
601.739	0.0165717
601.817	0.0164085
601.896	0.0164651
601.974	0.0164700
602.052	0.0163748
602.130	0.0165115
602.208	0.0165504
602.286	0.0162663
602.364	0.0165516
602.442	0.0163613
602.521	0.0165930
602.599	0.0164005
602.677	0.0165814
602.755	0.0164661
602.833	0.0164494
602.911	0.0164282
602.989	0.0163963
603.067	0.0164761
603.146	0.0164876
603.224	0.0164457
603.302	0.0164499
603.380	0.0165492
603.458	0.0165046
603.536	0.0165092
603.614	0.0166228
603.692	0.0165024
603.771	0.0163475
603.849	0.0165388
603.927	0.0163943
604.005	0.0164494
604.083	0.0163660
604.161	0.0164749
604.239	0.0164120
604.317	0.0164034
604.396	0.0164561
604.474	0.0164333
604.552	0.0163656
604.630	0.0165283
604.708	0.0164771
604.786	0.0164022
604.864	0.0164967
604.942	0.0163269
605.021	0.0164760
605.099	0.0164299
605.177	0.0164530
605.255	0.0164733
605.333	0.0164570
605.411	0.0164845
605.489	0.0163570
605.567	0.0163658
605.646	0.0163519
605.724	0.0163670
605.802	0.0163259
605.880	0.0163750
605.958	0.0163494
606.036	0.0164272
606.114	0.0163426
606.192	0.0163726
606.271	0.0162972
606.349	0.0162872
606.427	0.0162999
606.505	0.0163142
606.583	0.0164156
606.661	0.0164582
606.739	0.0162167
606.817	0.0163406
606.896	0.0164963
606.974	0.0164449
607.052	0.0162844
607.130	0.0164872
607.208	0.0164362
607.286	0.0163760
607.364	0.0165331
607.442	0.0163461
607.521	0.0164919
607.599	0.0164006
607.677	0.0163600
607.755	0.0164408
607.833	0.0164394
607.911	0.0164657
607.989	0.0163475
608.067	0.0164043
608.146	0.0164222
608.224	0.0165141
608.302	0.0164737
608.380	0.0164325
608.458	0.0165240
608.536	0.0165804
608.614	0.0164869
608.692	0.0164985
608.771	0.0164171
608.849	0.0164822
608.927	0.0165606
609.005	0.0163978
609.083	0.0165218
609.161	0.0164932
609.239	0.0165222
609.317	0.0165477
609.396	0.0164759
609.474	0.0165162
609.552	0.0164360
609.630	0.0165336
609.708	0.0165032
609.786	0.0164621
609.864	0.0164938
609.942	0.0164722
610.021	0.0163821
610.099	0.0165728
610.177	0.0164893
610.255	0.0164445
610.333	0.0164658
610.411	0.0164567
610.489	0.0164082
610.567	0.0164790
610.646	0.0165739
610.724	0.0164094
610.802	0.0164526
610.880	0.0164708
610.958	0.0164611
611.036	0.0164140
611.114	0.0163673
611.192	0.0163542
611.271	0.0164548
611.349	0.0166137
611.427	0.0165365
611.505	0.0163329
611.583	0.0164187
611.661	0.0165628
611.739	0.0165397
611.817	0.0164452
611.896	0.0162859
611.974	0.0165566
612.052	0.0165298
612.130	0.0164495
612.208	0.0163922
612.286	0.0163634
612.364	0.0163630
612.442	0.0165048
612.521	0.0164216
612.599	0.0164673
612.677	0.0164722
612.755	0.0164426
612.833	0.0164561
612.911	0.0164589
612.989	0.0163641
613.067	0.0165440
613.146	0.0164883
613.224	0.0164044
613.302	0.0163273
613.380	0.0164703
613.458	0.0164026
613.536	0.0164040
613.614	0.0163744
613.692	0.0164396
613.771	0.0162699
613.849	0.0162840
613.927	0.0164130
614.005	0.0164275
614.083	0.0163738
614.161	0.0162820
614.239	0.0163292
614.317	0.0163315
614.396	0.0164157
614.474	0.0165470
614.552	0.0163605
614.630	0.0163812
614.708	0.0164475
614.786	0.0164441
614.864	0.0164342
614.942	0.0163685
615.021	0.0163542
615.099	0.0165014
615.177	0.0163461
615.255	0.0164780
615.333	0.0163949
615.411	0.0164716
615.489	0.0164776
615.567	0.0165429
615.646	0.0166537
615.724	0.0163681
615.802	0.0163874
615.880	0.0165129
615.958	0.0166069
616.036	0.0164352
616.114	0.0164423
616.192	0.0165024
616.271	0.0164711
616.349	0.0166058
616.427	0.0165599
616.505	0.0164827
616.583	0.0165214
616.661	0.0165665
616.739	0.0164032
616.817	0.0165424
616.896	0.0165396
616.974	0.0165800
617.052	0.0163251
617.130	0.0163472
617.208	0.0165658
617.286	0.0165514
617.364	0.0164352
617.442	0.0166220
617.521	0.0163980
617.599	0.0163952
617.677	0.0164953
617.755	0.0165104
617.833	0.0164859
617.911	0.0165568
617.989	0.0163980
618.067	0.0163203
618.146	0.0165224
618.224	0.0163374
618.302	0.0164638
618.380	0.0165963
618.458	0.0164622
618.536	0.0165478
618.614	0.0164993
618.692	0.0163651
618.771	0.0164863
618.849	0.0165939
618.927	0.0165327
619.005	0.0164946
619.083	0.0165138
619.161	0.0164443
619.239	0.0166182
619.317	0.0165959
619.396	0.0164557
619.474	0.0164567
619.552	0.0165382
619.630	0.0164504
619.708	0.0164368
619.786	0.0167032
619.864	0.0165581
619.942	0.0166353
620.021	0.0165922
620.099	0.0166885
620.177	0.0165872
620.255	0.0165752
620.333	0.0165757
620.411	0.0166475
620.489	0.0167560
620.567	0.0166144
620.646	0.0166473
620.724	0.0165337
620.802	0.0166125
620.880	0.0167002
620.958	0.0166441
621.036	0.0165823
621.114	0.0168138
621.192	0.0166784
621.271	0.0164492
621.349	0.0167300
621.427	0.0167844
621.505	0.0166681
621.583	0.0165781
621.661	0.0166853
621.739	0.0166394
621.817	0.0166288
621.896	0.0166631
621.974	0.0166058
622.052	0.0165993
622.130	0.0166539
622.208	0.0165697
622.286	0.0167461
622.364	0.0166830
622.442	0.0166046
622.521	0.0164915
622.599	0.0165440
622.677	0.0165936
622.755	0.0165109
622.833	0.0166532
622.911	0.0165766
622.989	0.0165548
623.067	0.0166394
623.146	0.0165850
623.224	0.0166264
623.302	0.0165869
623.380	0.0165006
623.458	0.0166129
623.536	0.0165585
623.614	0.0166660
623.692	0.0166003
623.771	0.0164674
623.849	0.0165768
623.927	0.0165144
624.005	0.0165907
624.083	0.0164816
624.161	0.0166336
624.239	0.0165379
624.317	0.0164798
624.396	0.0165342
624.474	0.0165046
624.552	0.0166698
624.630	0.0165694
624.708	0.0165961
624.786	0.0166374
624.864	0.0166283
624.942	0.0164887
625.021	0.0164015
625.099	0.0164861
625.177	0.0165157
625.255	0.0165409
625.333	0.0165211
625.411	0.0164954
625.489	0.0165731
625.567	0.0166187
625.646	0.0165690
625.724	0.0166210
625.802	0.0165614
625.880	0.0165514
625.958	0.0165078
626.036	0.0166091
626.114	0.0165618
626.192	0.0166573
626.271	0.0166290
626.349	0.0166563
626.427	0.0164473
626.505	0.0165201
626.583	0.0166801
626.661	0.0165912
626.739	0.0165390
626.817	0.0165551
626.896	0.0164993
626.974	0.0166774
627.052	0.0164453
627.130	0.0165815
627.208	0.0165240
627.286	0.0165310
627.364	0.0165235
627.442	0.0166152
627.521	0.0164618
627.599	0.0164879
627.677	0.0165794
627.755	0.0165749
627.833	0.0165651
627.911	0.0166090
627.989	0.0166068
628.067	0.0164733
628.146	0.0165813
628.224	0.0165477
628.302	0.0166371
628.380	0.0166505
628.458	0.0167880
628.536	0.0167475
628.614	0.0166875
628.692	0.0166788
628.771	0.0166996
628.849	0.0167480
628.927	0.0165538
629.005	0.0166468
629.083	0.0166319
629.161	0.0166978
629.239	0.0166351
629.317	0.0165865
629.396	0.0168114
629.474	0.0166768
629.552	0.0166378
629.630	0.0166670
629.708	0.0165867
629.786	0.0168135
629.864	0.0166885
629.942	0.0166834
630.021	0.0166613
630.099	0.0166530
630.177	0.0165791
630.255	0.0166792
630.333	0.0165720
630.411	0.0166174
630.489	0.0166171
630.567	0.0166768
630.646	0.0165312
630.724	0.0165833
630.802	0.0165159
630.880	0.0167188
630.958	0.0165985
631.036	0.0163555
631.114	0.0165723
631.192	0.0166190
631.271	0.0165266
631.349	0.0166572
631.427	0.0165561
631.505	0.0164642
631.583	0.0166464
631.661	0.0166164
631.739	0.0165916
631.817	0.0164190
631.896	0.0165639
631.974	0.0165539
632.052	0.0165863
632.130	0.0165140
632.208	0.0164048
632.286	0.0165491
632.364	0.0165015
632.442	0.0164300
632.521	0.0165372
632.599	0.0165818
632.677	0.0165170
632.755	0.0164106
632.833	0.0164682
632.911	0.0164088
632.989	0.0164818
633.067	0.0165353
633.146	0.0165048
633.224	0.0164902
633.302	0.0163197
633.380	0.0165416
633.458	0.0164739
633.536	0.0165557
633.614	0.0165260
633.692	0.0164951
633.771	0.0164446
633.849	0.0165936
633.927	0.0164831
634.005	0.0164024
634.083	0.0165640
634.161	0.0164172
634.239	0.0163681
634.317	0.0164429
634.396	0.0165374
634.474	0.0164318
634.552	0.0163422
634.630	0.0163838
634.708	0.0163499
634.786	0.0163778
634.864	0.0165122
634.942	0.0164438
635.021	0.0164436
635.099	0.0164249
635.177	0.0163287
635.255	0.0163840
635.333	0.0164508
635.411	0.0165546
635.489	0.0164889
635.567	0.0162984
635.646	0.0163486
635.724	0.0164479
635.802	0.0164980
635.880	0.0164284
635.958	0.0163638
636.036	0.0163976
636.114	0.0165069
636.192	0.0165618
636.271	0.0164385
636.349	0.0164275
636.427	0.0164552
636.505	0.0165725
636.583	0.0166150
636.661	0.0164450
636.739	0.0165633
636.817	0.0165401
636.896	0.0164894
636.974	0.0165897
637.052	0.0165101
637.130	0.0166616
637.208	0.0166267
637.286	0.0165244
637.364	0.0165234
637.442	0.0165914
637.521	0.0165403
637.599	0.0166098
637.677	0.0166145
637.755	0.0166547
637.833	0.0165228
637.911	0.0166467
637.989	0.0165627
638.067	0.0165474
638.146	0.0165487
638.224	0.0164687
638.302	0.0165956
638.380	0.0165700
638.458	0.0166538
638.536	0.0166953
638.614	0.0166725
638.692	0.0166706
638.771	0.0166533
638.849	0.0165823
638.927	0.0165812
639.005	0.0165819
639.083	0.0167047
639.161	0.0166229
639.239	0.0165786
639.317	0.0165890
639.396	0.0166534
639.474	0.0166503
639.552	0.0164618
639.630	0.0165316
639.708	0.0165225
639.786	0.0165833
639.864	0.0166513
639.942	0.0165805
640.021	0.0165676
640.099	0.0164665
640.177	0.0164732
640.255	0.0166364
640.333	0.0165643
640.411	0.0165023
640.489	0.0165806
640.567	0.0166239
640.646	0.0165912
640.724	0.0167001
640.802	0.0165764
640.880	0.0167261
640.958	0.0166499
641.036	0.0166495
641.114	0.0166159
641.192	0.0166222
641.271	0.0167512
641.349	0.0167339
641.427	0.0166507
641.505	0.0166926
641.583	0.0166732
641.661	0.0166366
641.739	0.0166286
641.817	0.0165552
641.896	0.0164940
641.974	0.0165762
642.052	0.0165485
642.130	0.0167099
642.208	0.0166599
642.286	0.0166099
642.364	0.0165895
642.442	0.0165983
642.521	0.0165428
642.599	0.0166518
642.677	0.0166120
642.755	0.0166396
642.833	0.0165507
642.911	0.0165755
642.989	0.0166531
643.067	0.0167326
643.146	0.0166513
643.224	0.0167077
643.302	0.0168064
643.380	0.0166483
643.458	0.0166384
643.536	0.0165022
643.614	0.0167506
643.692	0.0166540
643.771	0.0166894
643.849	0.0165781
643.927	0.0167508
644.005	0.0168299
644.083	0.0168163
644.161	0.0167255
644.239	0.0167503
644.317	0.0166621
644.396	0.0166193
644.474	0.0168505
644.552	0.0166222
644.630	0.0166684
644.708	0.0165707
644.786	0.0166870
644.864	0.0166908
644.942	0.0166129
645.021	0.0167474
645.099	0.0166624
645.177	0.0166192
645.255	0.0166462
645.333	0.0166115
645.411	0.0166174
645.489	0.0165916
645.567	0.0165765
645.646	0.0166885
645.724	0.0168042
645.802	0.0166850
645.880	0.0166244
645.958	0.0166577
646.036	0.0167127
646.114	0.0167506
646.192	0.0168340
646.271	0.0166673
646.349	0.0167623
646.427	0.0167063
646.505	0.0168201
646.583	0.0167874
646.661	0.0167046
646.739	0.0167941
646.817	0.0167278
646.896	0.0167032
646.974	0.0167664
647.052	0.0167445
647.130	0.0167174
647.208	0.0168840
647.286	0.0167796
647.364	0.0168644
647.442	0.0167168
647.521	0.0166692
647.599	0.0166740
647.677	0.0168001
647.755	0.0167821
647.833	0.0166660
647.911	0.0168082
647.989	0.0166503
648.067	0.0168005
648.146	0.0167302
648.224	0.0168281
648.302	0.0165948
648.380	0.0166874
648.458	0.0166771
648.536	0.0165998
648.614	0.0166646
648.692	0.0164993
648.771	0.0166055
648.849	0.0166242
648.927	0.0165715
649.005	0.0166942
649.083	0.0166200
649.161	0.0166123
649.239	0.0164957
649.317	0.0165421
649.396	0.0165219
649.474	0.0164223
649.552	0.0165635
649.630	0.0165800
649.708	0.0165825
649.786	0.0166270
649.864	0.0166570
649.942	0.0164923
650.021	0.0165287
650.099	0.0166064
650.177	0.0166515
650.255	0.0165791
650.333	0.0167038
650.411	0.0167075
650.489	0.0165995
650.567	0.0166957
650.646	0.0165791
650.724	0.0167168
650.802	0.0166519
650.880	0.0166602
650.958	0.0166712
651.036	0.0167215
651.114	0.0166859
651.192	0.0167274
651.271	0.0167532
651.349	0.0166865
651.427	0.0166862
651.505	0.0167827
651.583	0.0167448
651.661	0.0166607
651.739	0.0166858
651.817	0.0165590
651.896	0.0166145
651.974	0.0166113
652.052	0.0166454
652.130	0.0167939
652.208	0.0165231
652.286	0.0165518
652.364	0.0165961
652.442	0.0164954
652.521	0.0165514
652.599	0.0165945
652.677	0.0165916
652.755	0.0165543
652.833	0.0165469
652.911	0.0165544
652.989	0.0167104
653.067	0.0166380
653.146	0.0166573
653.224	0.0165179
653.302	0.0166547
653.380	0.0165313
653.458	0.0166125
653.536	0.0165259
653.614	0.0164552
653.692	0.0163663
653.771	0.0165837
653.849	0.0165399
653.927	0.0166067
654.005	0.0164387
654.083	0.0166149
654.161	0.0164848
654.239	0.0164728
654.317	0.0165585
654.396	0.0164227
654.474	0.0164066
654.552	0.0164575
654.630	0.0164240
654.708	0.0163934
654.786	0.0166005
654.864	0.0164728
654.942	0.0164853
655.021	0.0163573
655.099	0.0164181
655.177	0.0164738
655.255	0.0166157
655.333	0.0166049
655.411	0.0167326
655.489	0.0166687
655.567	0.0165788
655.646	0.0167056
655.724	0.0167058
655.802	0.0166949
655.880	0.0167400
655.958	0.0167152
656.036	0.0167103
656.114	0.0167061
656.192	0.0167476
656.271	0.0166475
656.349	0.0167170
656.427	0.0167191
656.505	0.0166812
656.583	0.0166694
656.661	0.0166528
656.739	0.0166305
656.817	0.0166054
656.896	0.0166896
656.974	0.0164797
657.052	0.0165246
657.130	0.0166541
657.208	0.0165938
657.286	0.0165028
657.364	0.0164977
657.442	0.0165548
657.521	0.0164596
657.599	0.0165607
657.677	0.0166253
657.755	0.0164776
657.833	0.0164175
657.911	0.0166126
657.989	0.0166847
658.067	0.0166267
658.146	0.0164953
658.224	0.0164755
658.302	0.0165766
658.380	0.0166869
658.458	0.0166959
658.536	0.0165481
658.614	0.0165365
658.692	0.0165956
658.771	0.0166422
658.849	0.0165696
658.927	0.0165745
659.005	0.0166275
659.083	0.0166715
659.161	0.0166629
659.239	0.0166719
659.317	0.0166515
659.396	0.0165188
659.474	0.0164268
659.552	0.0165273
659.630	0.0166668
659.708	0.0167968
659.786	0.0165639
659.864	0.0165707
659.942	0.0166322
660.021	0.0166824
660.099	0.0165970
660.177	0.0165357
660.255	0.0164498
660.333	0.0165017
660.411	0.0165581
660.489	0.0164536
660.567	0.0164844
660.646	0.0164855
660.724	0.0165132
660.802	0.0165059
660.880	0.0164391
660.958	0.0165192
661.036	0.0165494
661.114	0.0164503
661.192	0.0164341
661.271	0.0165501
661.349	0.0165512
661.427	0.0165240
661.505	0.0166169
661.583	0.0166593
661.661	0.0165112
661.739	0.0166226
661.817	0.0166512
661.896	0.0166837
661.974	0.0167615
662.052	0.0165668
662.130	0.0166336
662.208	0.0165977
662.286	0.0166211
662.364	0.0165964
662.442	0.0167163
662.521	0.0166942
662.599	0.0165740
662.677	0.0166045
662.755	0.0165079
662.833	0.0166238
662.911	0.0166383
662.989	0.0165282
663.067	0.0165980
663.146	0.0165450
663.224	0.0164318
663.302	0.0163994
663.380	0.0165661
663.458	0.0165440
663.536	0.0162086
663.614	0.0163728
663.692	0.0164371
663.771	0.0164761
663.849	0.0163515
663.927	0.0164008
664.005	0.0163642
664.083	0.0163926
664.161	0.0164542
664.239	0.0163662
664.317	0.0163425
664.396	0.0163219
664.474	0.0164030
664.552	0.0162923
664.630	0.0164470
664.708	0.0164082
664.786	0.0164156
664.864	0.0163094
664.942	0.0163268
665.021	0.0164970
665.099	0.0164301
665.177	0.0163255
665.255	0.0164440
665.333	0.0165549
665.411	0.0165417
665.489	0.0165073
665.567	0.0166286
665.646	0.0164864
665.724	0.0166683
665.802	0.0165868
665.880	0.0165598
665.958	0.0165842
666.036	0.0166243
666.114	0.0165465
666.192	0.0165836
666.271	0.0164719
666.349	0.0164606
666.427	0.0164715
666.505	0.0165726
666.583	0.0165191
666.661	0.0165183
666.739	0.0164945
666.817	0.0163856
666.896	0.0164486
666.974	0.0163348
667.052	0.0165569
667.130	0.0164062
667.208	0.0165235
667.286	0.0164510
667.364	0.0164307
667.442	0.0166396
667.521	0.0165668
667.599	0.0166376
667.677	0.0166232
667.755	0.0165803
667.833	0.0166024
667.911	0.0166261
667.989	0.0165530
668.067	0.0167300
668.146	0.0166601
668.224	0.0167602
668.302	0.0168097
668.380	0.0167947
668.458	0.0167400
668.536	0.0168388
668.614	0.0167223
668.692	0.0167863
668.771	0.0167854
668.849	0.0168301
668.927	0.0169801
669.005	0.0168890
669.083	0.0166866
669.161	0.0168124
669.239	0.0167651
669.317	0.0167285
669.396	0.0167474
669.474	0.0166949
669.552	0.0166971
669.630	0.0166894
669.708	0.0167982
669.786	0.0167210
669.864	0.0166211
669.942	0.0167354
670.021	0.0168980
670.099	0.0167403
670.177	0.0165419
670.255	0.0166361
670.333	0.0165691
670.411	0.0166456
670.489	0.0165518
670.567	0.0165420
670.646	0.0165864
670.724	0.0165203
670.802	0.0165999
670.880	0.0165960
670.958	0.0165867
671.036	0.0167300
671.114	0.0165431
671.192	0.0166608
671.271	0.0165621
671.349	0.0165608
671.427	0.0165500
671.505	0.0166747
671.583	0.0165762
671.661	0.0165759
671.739	0.0166522
671.817	0.0164854
671.896	0.0167232
671.974	0.0166976
672.052	0.0167074
672.130	0.0165989
672.208	0.0166640
672.286	0.0167667
672.364	0.0166597
672.442	0.0165112
672.521	0.0167813
672.599	0.0166633
672.677	0.0163569
672.755	0.0164880
672.833	0.0165816
672.911	0.0165545
672.989	0.0164274
673.067	0.0165839
673.146	0.0165533
673.224	0.0163303
673.302	0.0163998
673.380	0.0164745
673.458	0.0166262
673.536	0.0164695
673.614	0.0165983
673.692	0.0165731
673.771	0.0165562
673.849	0.0165591
673.927	0.0166225
674.005	0.0165778
674.083	0.0166196
674.161	0.0166496
674.239	0.0164611
674.317	0.0165575
674.396	0.0164900
674.474	0.0165723
674.552	0.0163961
674.630	0.0165140
674.708	0.0164252
674.786	0.0163881
674.864	0.0164573
674.942	0.0162475
675.021	0.0164648
675.099	0.0164613
675.177	0.0163356
675.255	0.0163859
675.333	0.0161858
675.411	0.0164349
675.489	0.0162390
675.567	0.0164835
675.646	0.0164218
675.724	0.0162917
675.802	0.0162223
675.880	0.0163311
675.958	0.0163705
676.036	0.0163326
676.114	0.0163096
676.192	0.0163678
676.271	0.0164841
676.349	0.0164629
676.427	0.0163121
676.505	0.0162894
676.583	0.0162760
676.661	0.0164786
676.739	0.0164552
676.817	0.0163810
676.896	0.0163513
676.974	0.0163972
677.052	0.0163438
677.130	0.0162292
677.208	0.0161575
677.286	0.0162969
677.364	0.0162384
677.442	0.0161914
677.521	0.0160845
677.599	0.0160790
677.677	0.0160488
677.755	0.0160857
677.833	0.0161253
677.911	0.0160586
677.989	0.0160544
678.067	0.0160936
678.146	0.0162928
678.224	0.0162390
678.302	0.0160707
678.380	0.0162086
678.458	0.0163504
678.536	0.0161278
678.614	0.0161984
678.692	0.0163110
678.771	0.0163351
678.849	0.0163812
678.927	0.0162619
679.005	0.0162852
679.083	0.0163085
679.161	0.0164960
679.239	0.0166000
679.317	0.0166134
679.396	0.0166492
679.474	0.0165635
679.552	0.0165929
679.630	0.0165549
679.708	0.0164560
679.786	0.0164874
679.864	0.0166058
679.942	0.0163935
680.021	0.0164161
680.099	0.0164025
680.177	0.0164100
680.255	0.0163320
680.333	0.0162827
680.411	0.0162236
680.489	0.0161978
680.567	0.0162629
680.646	0.0161556
680.724	0.0161523
680.802	0.0162505
680.880	0.0161581
680.958	0.0162348
681.036	0.0163064
681.114	0.0163668
681.192	0.0161724
681.271	0.0162077
681.349	0.0162666
681.427	0.0162494
681.505	0.0163295
681.583	0.0162874
681.661	0.0163498
681.739	0.0164255
681.817	0.0163673
681.896	0.0163549
681.974	0.0165075
682.052	0.0165007
682.130	0.0164903
682.208	0.0165278
682.286	0.0164539
682.364	0.0165048
682.442	0.0166885
682.521	0.0166035
682.599	0.0164612
682.677	0.0164684
682.755	0.0166186
682.833	0.0165180
682.911	0.0164336
682.989	0.0165054
683.067	0.0166161
683.146	0.0165292
683.224	0.0166034
683.302	0.0167352
683.380	0.0164893
683.458	0.0166608
683.536	0.0165052
683.614	0.0166156
683.692	0.0166420
683.771	0.0165304
683.849	0.0164210
683.927	0.0165030
684.005	0.0165037
684.083	0.0165108
684.161	0.0164639
684.239	0.0163519
684.317	0.0164040
684.396	0.0164032
684.474	0.0163937
684.552	0.0162563
684.630	0.0163485
684.708	0.0162398
684.786	0.0162907
684.864	0.0163518
684.942	0.0163175
685.021	0.0164220
685.099	0.0164703
685.177	0.0165077
685.255	0.0164291
685.333	0.0165120
685.411	0.0165619
685.489	0.0164530
685.567	0.0166367
685.646	0.0167387
685.724	0.0165771
685.802	0.0165771
685.880	0.0165330
685.958	0.0166210
686.036	0.0165356
686.114	0.0165125
686.192	0.0165314
686.271	0.0165787
686.349	0.0166305
686.427	0.0166366
686.505	0.0165780
686.583	0.0165406
686.661	0.0165070
686.739	0.0165714
686.817	0.0164530
686.896	0.0163647
686.974	0.0164318
687.052	0.0164426
687.130	0.0164964
687.208	0.0165367
687.286	0.0164300
687.364	0.0164782
687.442	0.0165343
687.521	0.0166855
687.599	0.0165246
687.677	0.0165730
687.755	0.0165351
687.833	0.0166493
687.911	0.0167663
687.989	0.0167160
688.067	0.0167625
688.146	0.0166274
688.224	0.0166804
688.302	0.0167236
688.380	0.0167213
688.458	0.0167618
688.536	0.0165212
688.614	0.0166209
688.692	0.0166125
688.771	0.0165427
688.849	0.0165209
688.927	0.0166512
689.005	0.0165098
689.083	0.0164914
689.161	0.0164771
689.239	0.0165720
689.317	0.0165702
689.396	0.0166006
689.474	0.0165845
689.552	0.0165896
689.630	0.0166806
689.708	0.0167503
689.786	0.0167043
689.864	0.0166614
689.942	0.0165760
690.021	0.0166608
690.099	0.0167645
690.177	0.0167420
690.255	0.0167348
690.333	0.0166570
690.411	0.0165741
690.489	0.0167077
690.567	0.0165805
690.646	0.0166412
690.724	0.0166747
690.802	0.0163844
690.880	0.0164886
690.958	0.0165668
691.036	0.0164035
691.114	0.0163367
691.192	0.0162760
691.271	0.0163129
691.349	0.0164331
691.427	0.0163810
691.505	0.0163588
691.583	0.0162822
691.661	0.0162731
691.739	0.0163760
691.817	0.0161885
691.896	0.0160563
691.974	0.0162833
692.052	0.0164622
692.130	0.0162571
692.208	0.0162151
692.286	0.0162054
692.364	0.0164758
692.442	0.0164193
692.521	0.0165202
692.599	0.0163572
692.677	0.0163794
692.755	0.0163447
692.833	0.0165862
692.911	0.0165608
692.989	0.0165192
693.067	0.0165517
693.146	0.0164848
693.224	0.0164925
693.302	0.0165778
693.380	0.0166314
693.458	0.0166183
693.536	0.0166013
693.614	0.0166386
693.692	0.0166190
693.771	0.0166253
693.849	0.0166843
693.927	0.0166389
694.005	0.0166380
694.083	0.0165937
694.161	0.0167617
694.239	0.0168036
694.317	0.0166164
694.396	0.0166338
694.474	0.0165982
694.552	0.0166166
694.630	0.0165786
694.708	0.0164629
694.786	0.0165621
694.864	0.0165489
694.942	0.0165438
695.021	0.0165717
695.099	0.0164317
695.177	0.0164800
695.255	0.0164793
695.333	0.0162916
695.411	0.0163902
695.489	0.0163217
695.567	0.0164997
695.646	0.0164229
695.724	0.0165119
695.802	0.0164105
695.880	0.0163148
695.958	0.0164174
696.036	0.0162991
696.114	0.0163940
696.192	0.0163780
696.271	0.0162058
696.349	0.0163298
696.427	0.0163767
696.505	0.0165249
696.583	0.0162906
696.661	0.0163949
696.739	0.0163527
696.817	0.0162860
696.896	0.0164251
696.974	0.0163700
697.052	0.0163673
697.130	0.0163326
697.208	0.0162224
697.286	0.0162712
697.364	0.0162951
697.442	0.0161792
697.521	0.0162882
697.599	0.0162037
697.677	0.0162524
697.755	0.0162650
697.833	0.0164598
697.911	0.0163158
697.989	0.0162659
698.067	0.0163361
698.146	0.0163495
698.224	0.0162753
698.302	0.0164669
698.380	0.0162671
698.458	0.0162691
698.536	0.0162553
698.614	0.0163441
698.692	0.0163908
698.771	0.0163960
698.849	0.0165069
698.927	0.0162939
699.005	0.0164687
699.083	0.0163967
699.161	0.0163385
699.239	0.0160957
699.317	0.0162450
699.396	0.0163890
699.474	0.0163905
699.552	0.0163084
699.630	0.0163114
699.708	0.0163782
699.786	0.0164197
699.864	0.0164287
699.942	0.0164529
700.021	0.0162051
700.099	0.0162928
700.177	0.0163032
700.255	0.0163158
700.333	0.0162631
700.411	0.0163732
700.489	0.0163483
700.567	0.0162604
700.646	0.0162767
700.724	0.0163771
700.802	0.0163364
700.880	0.0164068
700.958	0.0163312
701.036	0.0163016
701.114	0.0163049
701.192	0.0164789
701.271	0.0163855
701.349	0.0163249
701.427	0.0161488
701.505	0.0162746
701.583	0.0162741
701.661	0.0163663
701.739	0.0162119
701.817	0.0163181
701.896	0.0163246
701.974	0.0164465
702.052	0.0163313
702.130	0.0163992
702.208	0.0163090
702.286	0.0162567
702.364	0.0163235
702.442	0.0163876
702.521	0.0163381
702.599	0.0162656
702.677	0.0162141
702.755	0.0162025
702.833	0.0162123
702.911	0.0162132
702.989	0.0162992
703.067	0.0162025
703.146	0.0162794
703.224	0.0162141
703.302	0.0161880
703.380	0.0163431
703.458	0.0162017
703.536	0.0161248
703.614	0.0163672
703.692	0.0163467
703.771	0.0163748
703.849	0.0164421
703.927	0.0165044
704.005	0.0164391
704.083	0.0164861
704.161	0.0164870
704.239	0.0164050
704.317	0.0164373
704.396	0.0165500
704.474	0.0165308
704.552	0.0165902
704.630	0.0165520
704.708	0.0165546
704.786	0.0165665
704.864	0.0165492
704.942	0.0166370
705.021	0.0166826
705.099	0.0167615
705.177	0.0165646
705.255	0.0166996
705.333	0.0167914
705.411	0.0166769
705.489	0.0167948
705.567	0.0166727
705.646	0.0165394
705.724	0.0166975
705.802	0.0167020
705.880	0.0166608
705.958	0.0165780
706.036	0.0166589
706.114	0.0166270
706.192	0.0166215
706.271	0.0166257
706.349	0.0165913
706.427	0.0166028
706.505	0.0165546
706.583	0.0165726
706.661	0.0164938
706.739	0.0165887
706.817	0.0165426
706.896	0.0166754
706.974	0.0166585
707.052	0.0165704
707.130	0.0167032
707.208	0.0165786
707.286	0.0165936
707.364	0.0166469
707.442	0.0164953
707.521	0.0165070
707.599	0.0165363
707.677	0.0166477
707.755	0.0165494
707.833	0.0164613
707.911	0.0166019
707.989	0.0164638
708.067	0.0165109
708.146	0.0166152
708.224	0.0166010
708.302	0.0165501
708.380	0.0166441
708.458	0.0166134
708.536	0.0166808
708.614	0.0166518
708.692	0.0164688
708.771	0.0165775
708.849	0.0166827
708.927	0.0166941
709.005	0.0166463
709.083	0.0165601
709.161	0.0166798
709.239	0.0167337
709.317	0.0167165
709.396	0.0167288
709.474	0.0167452
709.552	0.0166641
709.630	0.0167043
709.708	0.0166936
709.786	0.0166953
709.864	0.0167400
709.942	0.0168388
710.021	0.0169445
710.099	0.0169363
710.177	0.0167101
710.255	0.0167793
710.333	0.0167193
710.411	0.0167614
710.489	0.0166949
710.567	0.0167715
710.646	0.0166586
710.724	0.0166658
710.802	0.0167386
710.880	0.0166771
710.958	0.0164514
711.036	0.0165522
711.114	0.0165509
711.192	0.0165229
711.271	0.0166101
711.349	0.0165331
711.427	0.0165707
711.505	0.0165181
711.583	0.0166113
711.661	0.0163625
711.739	0.0166212
711.817	0.0165212
711.896	0.0166609
711.974	0.0165015
712.052	0.0164761
712.130	0.0164978
712.208	0.0165722
712.286	0.0164135
712.364	0.0164450
712.442	0.0166634
712.521	0.0165661
712.599	0.0163913
712.677	0.0167677
712.755	0.0166140
712.833	0.0167130
712.911	0.0167954
712.989	0.0167825
713.067	0.0167023
713.146	0.0168176
713.224	0.0167815
713.302	0.0167609
713.380	0.0167002
713.458	0.0167000
713.536	0.0167248
713.614	0.0167136
713.692	0.0166750
713.771	0.0167258
713.849	0.0167788
713.927	0.0165366
714.005	0.0165210
714.083	0.0165466
714.161	0.0163943
714.239	0.0163845
714.317	0.0165652
714.396	0.0165343
714.474	0.0164439
714.552	0.0163931
714.630	0.0165249
714.708	0.0163299
714.786	0.0162910
714.864	0.0164033
714.942	0.0166083
715.021	0.0164535
715.099	0.0166309
715.177	0.0166959
715.255	0.0165926
715.333	0.0164686
715.411	0.0165374
715.489	0.0166315
715.567	0.0164483
715.646	0.0165189
715.724	0.0166822
715.802	0.0167850
715.880	0.0166081
715.958	0.0166146
716.036	0.0165955
716.114	0.0165100
716.192	0.0165722
716.271	0.0166006
716.349	0.0165963
716.427	0.0167076
716.505	0.0166143
716.583	0.0165621
716.661	0.0166404
716.739	0.0165918
716.817	0.0164620
716.896	0.0164194
716.974	0.0166782
717.052	0.0165034
717.130	0.0164425
717.208	0.0165990
717.286	0.0164899
717.364	0.0165855
717.442	0.0165987
717.521	0.0167286
717.599	0.0165889
717.677	0.0165823
717.755	0.0166550
717.833	0.0167036
717.911	0.0166521
717.989	0.0164877
718.067	0.0165847
718.146	0.0165617
718.224	0.0165074
718.302	0.0164611
718.380	0.0164137
718.458	0.0164429
718.536	0.0165020
718.614	0.0163846
718.692	0.0163228
718.771	0.0163135
718.849	0.0163898
718.927	0.0164033
719.005	0.0164213
719.083	0.0163055
719.161	0.0164233
719.239	0.0163244
719.317	0.0162695
719.396	0.0163313
719.474	0.0163503
719.552	0.0163665
719.630	0.0163744
719.708	0.0163226
719.786	0.0163975
719.864	0.0164859
719.942	0.0164157
720.021	0.0164600
720.099	0.0163464
720.177	0.0164615
720.255	0.0165446
720.333	0.0165739
720.411	0.0164298
720.489	0.0165067
720.567	0.0165613
720.646	0.0166411
720.724	0.0166321
720.802	0.0167060
720.880	0.0166286
720.958	0.0167020
721.036	0.0166400
721.114	0.0165607
721.192	0.0165401
721.271	0.0166389
721.349	0.0166141
721.427	0.0166753
721.505	0.0166865
721.583	0.0166133
721.661	0.0166939
721.739	0.0165567
721.817	0.0166273
721.896	0.0165768
721.974	0.0166305
722.052	0.0167668
722.130	0.0167393
722.208	0.0166707
722.286	0.0166092
722.364	0.0166186
722.442	0.0166444
722.521	0.0165666
722.599	0.0164961
722.677	0.0165639
722.755	0.0165599
722.833	0.0165247
722.911	0.0166611
722.989	0.0165209
723.067	0.0164842
723.146	0.0165294
723.224	0.0164191
723.302	0.0165137
723.380	0.0164615
723.458	0.0163692
723.536	0.0164301
723.614	0.0164153
723.692	0.0163452
723.771	0.0164723
723.849	0.0164328
723.927	0.0164657
724.005	0.0164725
724.083	0.0164374
724.161	0.0164179
724.239	0.0164970
724.317	0.0166177
724.396	0.0166200
724.474	0.0164852
724.552	0.0165979
724.630	0.0164746
724.708	0.0164565
724.786	0.0164180
724.864	0.0166457
724.942	0.0165937
725.021	0.0166997
725.099	0.0166973
725.177	0.0165453
725.255	0.0166427
725.333	0.0166733
725.411	0.0165639
725.489	0.0166159
725.567	0.0166647
725.646	0.0166680
725.724	0.0165807
725.802	0.0165421
725.880	0.0166814
725.958	0.0166676
726.036	0.0166718
726.114	0.0166572
726.192	0.0165053
726.271	0.0166956
726.349	0.0166416
726.427	0.0166855
726.505	0.0165955
726.583	0.0165868
726.661	0.0166765
726.739	0.0168483
726.817	0.0167431
726.896	0.0166517
726.974	0.0165884
727.052	0.0166298
727.130	0.0166446
727.208	0.0165732
727.286	0.0167083
727.364	0.0165963
727.442	0.0166451
727.521	0.0166576
727.599	0.0165026
727.677	0.0167187
727.755	0.0166283
727.833	0.0167574
727.911	0.0167957
727.989	0.0166461
728.067	0.0167094
728.146	0.0167668
728.224	0.0168182
728.302	0.0168045
728.380	0.0167436
728.458	0.0167200
728.536	0.0167490
728.614	0.0167496
728.692	0.0166386
728.771	0.0167802
728.849	0.0167365
728.927	0.0167068
729.005	0.0165602
729.083	0.0167486
729.161	0.0166022
729.239	0.0164889
729.317	0.0165869
729.396	0.0165352
729.474	0.0165865
729.552	0.0163816
729.630	0.0165150
729.708	0.0164928
729.786	0.0163912
729.864	0.0165282
729.942	0.0164103
730.021	0.0164341
730.099	0.0166030
730.177	0.0164341
730.255	0.0165293
730.333	0.0165350
730.411	0.0165591
730.489	0.0164082
730.567	0.0165216
730.646	0.0165104
730.724	0.0164878
730.802	0.0166852
730.880	0.0164887
730.958	0.0166153
731.036	0.0165636
731.114	0.0167290
731.192	0.0167020
731.271	0.0165937
731.349	0.0165713
731.427	0.0166602
731.505	0.0167387
731.583	0.0166345
731.661	0.0166691
731.739	0.0166635
731.817	0.0166152
731.896	0.0167023
731.974	0.0167419
732.052	0.0167258
732.130	0.0167643
732.208	0.0166470
732.286	0.0168077
732.364	0.0167352
732.442	0.0167455
732.521	0.0168671
732.599	0.0168874
732.677	0.0168185
732.755	0.0168783
732.833	0.0169004
732.911	0.0166638
732.989	0.0168194
733.067	0.0166826
733.146	0.0166272
733.224	0.0169002
733.302	0.0168871
733.380	0.0167142
733.458	0.0166125
733.536	0.0167393
733.614	0.0166545
733.692	0.0166796
733.771	0.0165678
733.849	0.0166441
733.927	0.0167587
734.005	0.0167544
734.083	0.0165858
734.161	0.0165821
734.239	0.0168111
734.317	0.0166895
734.396	0.0166103
734.474	0.0166192
734.552	0.0166698
734.630	0.0168925
734.708	0.0167002
734.786	0.0166145
734.864	0.0166707
734.942	0.0166827
735.021	0.0166096
735.099	0.0166837
735.177	0.0166555
735.255	0.0167062
735.333	0.0167613
735.411	0.0167024
735.489	0.0167172
735.567	0.0166950
735.646	0.0166893
735.724	0.0166618
735.802	0.0166232
735.880	0.0166264
735.958	0.0166884
736.036	0.0167017
736.114	0.0167606
736.192	0.0166588
736.271	0.0166219
736.349	0.0165783
736.427	0.0166405
736.505	0.0166393
736.583	0.0166193
736.661	0.0166333
736.739	0.0165575
736.817	0.0165797
736.896	0.0166171
736.974	0.0166703
737.052	0.0167257
737.130	0.0167688
737.208	0.0167493
737.286	0.0167166
737.364	0.0167138
737.442	0.0167458
737.521	0.0167328
737.599	0.0166264
737.677	0.0166078
737.755	0.0167200
737.833	0.0166443
737.911	0.0165967
737.989	0.0166283
738.067	0.0165912
738.146	0.0165976
738.224	0.0165420
738.302	0.0165852
738.380	0.0166328
738.458	0.0165455
738.536	0.0165930
738.614	0.0166885
738.692	0.0166486
738.771	0.0165206
738.849	0.0165858
738.927	0.0167167
739.005	0.0165768
739.083	0.0166389
739.161	0.0165776
739.239	0.0164194
739.317	0.0165841
739.396	0.0165794
739.474	0.0164933
739.552	0.0165105
739.630	0.0163820
739.708	0.0164572
739.786	0.0165065
739.864	0.0165471
739.942	0.0163953
740.021	0.0165784
740.099	0.0164895
740.177	0.0164011
740.255	0.0163876
740.333	0.0163544
740.411	0.0164774
740.489	0.0164214
740.567	0.0166360
740.646	0.0165137
740.724	0.0164669
740.802	0.0165686
740.880	0.0164762
740.958	0.0165575
741.036	0.0165034
741.114	0.0166446
741.192	0.0167587
741.271	0.0166132
741.349	0.0166315
741.427	0.0166286
741.505	0.0166215
741.583	0.0165723
741.661	0.0166423
741.739	0.0166856
741.817	0.0165513
741.896	0.0166720
741.974	0.0166707
742.052	0.0164865
742.130	0.0165492
742.208	0.0165836
742.286	0.0165282
742.364	0.0164879
742.442	0.0164550
742.521	0.0166114
742.599	0.0164658
742.677	0.0165137
742.755	0.0164825
742.833	0.0164806
742.911	0.0165006
742.989	0.0165572
743.067	0.0165004
743.146	0.0164214
743.224	0.0164302
743.302	0.0165420
743.380	0.0165321
743.458	0.0165604
743.536	0.0165524
743.614	0.0165085
743.692	0.0164587
743.771	0.0164895
743.849	0.0166984
743.927	0.0166974
744.005	0.0164289
744.083	0.0165462
744.161	0.0165556
744.239	0.0165309
744.317	0.0166206
744.396	0.0166261
744.474	0.0164775
744.552	0.0164296
744.630	0.0165604
744.708	0.0165427
744.786	0.0165342
744.864	0.0165709
744.942	0.0166037
745.021	0.0165623
745.099	0.0166208
745.177	0.0165812
745.255	0.0166940
745.333	0.0165306
745.411	0.0165657
745.489	0.0166004
745.567	0.0166750
745.646	0.0167223
745.724	0.0166458
745.802	0.0165410
745.880	0.0164969
745.958	0.0166502
746.036	0.0165077
746.114	0.0166045
746.192	0.0167117
746.271	0.0166554
746.349	0.0166128
746.427	0.0164812
746.505	0.0163959
746.583	0.0163988
746.661	0.0164794
746.739	0.0165290
746.817	0.0165472
746.896	0.0164868
746.974	0.0164724
747.052	0.0164619
747.130	0.0166063
747.208	0.0164820
747.286	0.0166943
747.364	0.0164148
747.442	0.0164367
747.521	0.0165042
747.599	0.0165505
747.677	0.0165047
747.755	0.0164749
747.833	0.0166040
747.911	0.0165496
747.989	0.0166324
748.067	0.0166640
748.146	0.0166251
748.224	0.0166372
748.302	0.0166666
748.380	0.0166936
748.458	0.0165070
748.536	0.0166323
748.614	0.0166208
748.692	0.0166076
748.771	0.0165859
748.849	0.0166519
748.927	0.0165501
749.005	0.0164984
749.083	0.0165243
749.161	0.0166539
749.239	0.0165665
749.317	0.0166605
749.396	0.0164716
749.474	0.0166322
749.552	0.0165369
749.630	0.0165486
749.708	0.0166591
749.786	0.0165954
749.864	0.0165690
749.942	0.0166702
750.021	0.0166151
750.099	0.0164214
750.177	0.0166680
750.255	0.0166109
750.333	0.0166049
750.411	0.0164980
750.489	0.0166172
750.567	0.0165622
750.646	0.0164726
750.724	0.0164508
750.802	0.0164767
750.880	0.0165032
750.958	0.0165496
751.036	0.0165494
751.114	0.0165024
751.192	0.0165295
751.271	0.0165001
751.349	0.0166472
751.427	0.0165859
751.505	0.0164631
751.583	0.0164613
751.661	0.0166074
751.739	0.0165450
751.817	0.0166832
751.896	0.0167297
751.974	0.0166386
752.052	0.0164566
752.130	0.0164305
752.208	0.0164902
752.286	0.0166608
752.364	0.0166890
752.442	0.0164099
752.521	0.0165702
752.599	0.0166423
752.677	0.0166529
752.755	0.0164591
752.833	0.0166798
752.911	0.0165992
752.989	0.0166250
753.067	0.0164697
753.146	0.0165748
753.224	0.0166476
753.302	0.0165062
753.380	0.0166080
753.458	0.0165198
753.536	0.0165382
753.614	0.0166060
753.692	0.0166911
753.771	0.0165759
753.849	0.0165551
753.927	0.0166235
754.005	0.0166133
754.083	0.0165188
754.161	0.0165231
754.239	0.0166689
754.317	0.0166830
754.396	0.0165436
754.474	0.0166361
754.552	0.0166501
754.630	0.0165420
754.708	0.0165562
754.786	0.0164677
754.864	0.0164751
754.942	0.0165235
755.021	0.0166159
755.099	0.0164133
755.177	0.0165987
755.255	0.0164983
755.333	0.0163717
755.411	0.0163961
755.489	0.0165599
755.567	0.0164473
755.646	0.0163950
755.724	0.0164510
755.802	0.0163795
755.880	0.0165458
755.958	0.0165071
756.036	0.0163810
756.114	0.0163898
756.192	0.0164870
756.271	0.0163587
756.349	0.0165157
756.427	0.0164427
756.505	0.0164635
756.583	0.0163591
756.661	0.0164381
756.739	0.0163525
756.817	0.0164468
756.896	0.0164856
756.974	0.0164613
757.052	0.0165153
757.130	0.0164750
757.208	0.0165015
757.286	0.0165763
757.364	0.0165368
757.442	0.0165199
757.521	0.0166053
757.599	0.0164468
757.677	0.0162904
757.755	0.0165823
757.833	0.0165865
757.911	0.0165137
757.989	0.0165408
758.067	0.0165868
758.146	0.0164638
758.224	0.0166055
758.302	0.0166988
758.380	0.0166022
758.458	0.0166085
758.536	0.0165658
758.614	0.0166391
758.692	0.0164938
758.771	0.0164400
758.849	0.0165919
758.927	0.0165852
759.005	0.0164588
759.083	0.0166304
759.161	0.0165525
759.239	0.0165154
759.317	0.0164735
759.396	0.0164924
759.474	0.0165617
759.552	0.0165254
759.630	0.0164861
759.708	0.0165682
759.786	0.0164842
759.864	0.0164022
759.942	0.0164790
760.021	0.0164082
760.099	0.0165184
760.177	0.0165619
760.255	0.0164336
760.333	0.0164145
760.411	0.0164724
760.489	0.0165383
760.567	0.0165727
760.646	0.0165479
760.724	0.0164667
760.802	0.0165823
760.880	0.0165504
760.958	0.0166006
761.036	0.0165543
761.114	0.0164783
761.192	0.0164995
761.271	0.0164986
761.349	0.0165797
761.427	0.0165128
761.505	0.0164788
761.583	0.0165913
761.661	0.0165442
761.739	0.0165923
761.817	0.0165958
761.896	0.0164944
761.974	0.0165128
762.052	0.0164964
762.130	0.0166316
762.208	0.0165218
762.286	0.0164401
762.364	0.0165041
762.442	0.0165658
762.521	0.0164616
762.599	0.0165392
762.677	0.0164947
762.755	0.0165320
762.833	0.0166169
762.911	0.0164996
762.989	0.0164108
763.067	0.0164374
763.146	0.0165315
763.224	0.0165788
763.302	0.0165208
763.380	0.0165359
763.458	0.0165613
763.536	0.0166215
763.614	0.0165151
763.692	0.0165987
763.771	0.0165276
763.849	0.0164528
763.927	0.0164811
764.005	0.0164973
764.083	0.0165759
764.161	0.0166783
764.239	0.0163779
764.317	0.0165646
764.396	0.0164796
764.474	0.0166051
764.552	0.0165133
764.630	0.0163663
764.708	0.0164233
764.786	0.0165538
764.864	0.0165623
764.942	0.0166527
765.021	0.0165167
765.099	0.0165519
765.177	0.0166604
765.255	0.0165064
765.333	0.0164965
765.411	0.0164954
765.489	0.0165983
765.567	0.0166154
765.646	0.0166277
765.724	0.0166040
765.802	0.0164026
765.880	0.0165963
765.958	0.0167429
766.036	0.0166743
766.114	0.0165302
766.192	0.0166102
766.271	0.0166657
766.349	0.0165825
766.427	0.0166425
766.505	0.0166082
766.583	0.0166512
766.661	0.0167410
766.739	0.0167831
766.817	0.0166818
766.896	0.0167599
766.974	0.0167120
767.052	0.0168304
767.130	0.0166842
767.208	0.0167087
767.286	0.0167921
767.364	0.0167117
767.442	0.0166644
767.521	0.0166549
767.599	0.0166801
767.677	0.0166756
767.755	0.0166795
767.833	0.0166929
767.911	0.0166473
767.989	0.0167397
768.067	0.0166983
768.146	0.0167599
768.224	0.0166904
768.302	0.0165666
768.380	0.0165864
768.458	0.0165867
768.536	0.0167550
768.614	0.0166584
768.692	0.0166751
768.771	0.0167160
768.849	0.0166423
768.927	0.0166701
769.005	0.0166162
769.083	0.0165725
769.161	0.0165843
769.239	0.0167615
769.317	0.0166649
769.396	0.0164064
769.474	0.0166254
769.552	0.0166155
769.630	0.0165067
769.708	0.0164674
769.786	0.0164753
769.864	0.0164980
769.942	0.0165386
770.021	0.0163641
770.099	0.0165528
770.177	0.0165056
770.255	0.0164163
770.333	0.0164678
770.411	0.0165674
770.489	0.0163439
770.567	0.0165423
770.646	0.0164890
770.724	0.0164140
770.802	0.0164033
770.880	0.0164930
770.958	0.0163018
771.036	0.0164439
771.114	0.0165685
771.192	0.0164393
771.271	0.0163651
771.349	0.0163716
771.427	0.0163609
771.505	0.0164023
771.583	0.0163828
771.661	0.0166141
771.739	0.0166450
771.817	0.0164822
771.896	0.0164326
771.974	0.0165738
772.052	0.0166240
772.130	0.0165491
772.208	0.0163679
772.286	0.0164021
772.364	0.0163832
772.442	0.0164583
772.521	0.0164760
772.599	0.0163547
772.677	0.0165602
772.755	0.0165579
772.833	0.0165852
772.911	0.0165420
772.989	0.0163682
773.067	0.0163512
773.146	0.0164846
773.224	0.0165276
773.302	0.0164021
773.380	0.0165137
773.458	0.0164494
773.536	0.0164877
773.614	0.0163821
773.692	0.0166069
773.771	0.0164340
773.849	0.0163875
773.927	0.0164729
774.005	0.0165115
774.083	0.0165133
774.161	0.0164282
774.239	0.0164724
774.317	0.0165153
774.396	0.0163975
774.474	0.0163456
774.552	0.0165341
774.630	0.0163854
774.708	0.0163840
774.786	0.0164893
774.864	0.0163287
774.942	0.0163989
775.021	0.0164352
775.099	0.0163503
775.177	0.0163470
775.255	0.0164442
775.333	0.0165318
775.411	0.0165245
775.489	0.0165434
775.567	0.0164175
775.646	0.0165392
775.724	0.0164496
775.802	0.0165111
775.880	0.0165737
775.958	0.0165662
776.036	0.0164093
776.114	0.0165932
776.192	0.0165025
776.271	0.0164347
776.349	0.0165774
776.427	0.0165160
776.505	0.0166003
776.583	0.0165575
776.661	0.0164416
776.739	0.0163073
776.817	0.0164748
776.896	0.0164366
776.974	0.0164811
777.052	0.0164185
777.130	0.0164273
777.208	0.0162422
777.286	0.0163869
777.364	0.0163631
777.442	0.0163055
777.521	0.0163808
777.599	0.0162894
777.677	0.0163065
777.755	0.0161692
777.833	0.0162663
777.911	0.0163093
777.989	0.0164455
778.067	0.0163248
778.146	0.0162880
778.224	0.0162664
778.302	0.0162827
778.380	0.0163433
778.458	0.0163411
778.536	0.0164777
778.614	0.0164151
778.692	0.0163747
778.771	0.0164278
778.849	0.0164027
778.927	0.0165035
779.005	0.0164284
779.083	0.0163905
779.161	0.0163994
779.239	0.0165651
779.317	0.0163628
779.396	0.0164162
779.474	0.0163419
779.552	0.0164500
779.630	0.0163554
779.708	0.0163390
779.786	0.0163472
779.864	0.0163361
779.942	0.0163389
780.021	0.0163408
780.099	0.0162951
780.177	0.0163882
780.255	0.0162826
780.333	0.0163212
780.411	0.0164932
780.489	0.0164872
780.567	0.0164746
780.646	0.0164108
780.724	0.0165971
780.802	0.0165713
780.880	0.0165604
780.958	0.0165173
781.036	0.0165251
781.114	0.0165902
781.192	0.0164654
781.271	0.0166232
781.349	0.0164778
781.427	0.0165092
781.505	0.0166325
781.583	0.0165615
781.661	0.0165966
781.739	0.0165545
781.817	0.0164246
781.896	0.0165224
781.974	0.0165211
782.052	0.0165210
782.130	0.0163840
782.208	0.0164466
782.286	0.0164161
782.364	0.0163884
782.442	0.0164663
782.521	0.0164739
782.599	0.0163824
782.677	0.0164052
782.755	0.0163982
782.833	0.0164030
782.911	0.0165285
782.989	0.0166238
783.067	0.0165947
783.146	0.0166943
783.224	0.0165778
783.302	0.0166338
783.380	0.0167278
783.458	0.0167352
783.536	0.0167199
783.614	0.0166172
783.692	0.0167001
783.771	0.0167740
783.849	0.0166653
783.927	0.0167034
784.005	0.0167519
784.083	0.0167944
784.161	0.0167204
784.239	0.0165160
784.317	0.0166027
784.396	0.0167168
784.474	0.0165466
784.552	0.0165730
784.630	0.0166190
784.708	0.0165461
784.786	0.0166489
784.864	0.0166032
784.942	0.0165282
785.021	0.0165198
785.099	0.0164700
785.177	0.0164808
785.255	0.0165009
785.333	0.0165222
785.411	0.0165247
785.489	0.0165104
785.567	0.0164048
785.646	0.0164931
785.724	0.0165421
785.802	0.0163904
785.880	0.0165222
785.958	0.0163681
786.036	0.0165158
786.114	0.0166095
786.192	0.0166439
786.271	0.0164738
786.349	0.0165960
786.427	0.0164873
786.505	0.0165356
786.583	0.0165457
786.661	0.0166962
786.739	0.0166010
786.817	0.0166401
786.896	0.0167455
786.974	0.0166456
787.052	0.0167454
787.130	0.0167426
787.208	0.0165541
787.286	0.0166076
787.364	0.0167184
787.442	0.0167272
787.521	0.0166631
787.599	0.0166402
787.677	0.0166969
787.755	0.0165723
787.833	0.0165514
787.911	0.0165597
787.989	0.0167947
788.067	0.0166084
788.146	0.0165224
788.224	0.0166420
788.302	0.0167054
788.380	0.0166725
788.458	0.0167371
788.536	0.0165648
788.614	0.0166245
788.692	0.0166358
788.771	0.0165851
788.849	0.0166333
788.927	0.0167197
789.005	0.0166172
789.083	0.0166312
789.161	0.0167044
789.239	0.0166705
789.317	0.0166826
789.396	0.0167448
789.474	0.0166989
789.552	0.0165337
789.630	0.0167346
789.708	0.0165979
789.786	0.0167285
789.864	0.0165694
789.942	0.0165602
790.021	0.0165908
790.099	0.0166140
790.177	0.0165372
790.255	0.0165685
790.333	0.0165573
790.411	0.0165166
790.489	0.0165244
790.567	0.0166243
790.646	0.0165857
790.724	0.0166914
790.802	0.0167305
790.880	0.0167391
790.958	0.0166103
791.036	0.0166780
791.114	0.0166385
791.192	0.0166353
791.271	0.0165659
791.349	0.0165485
791.427	0.0166323
791.505	0.0165945
791.583	0.0165398
791.661	0.0165582
791.739	0.0165985
791.817	0.0166460
791.896	0.0165176
791.974	0.0164426
792.052	0.0164675
792.130	0.0165546
792.208	0.0165539
792.286	0.0165679
792.364	0.0162463
792.442	0.0163692
792.521	0.0165036
792.599	0.0163500
792.677	0.0163466
792.755	0.0163747
792.833	0.0165318
792.911	0.0164189
792.989	0.0163609
793.067	0.0163564
793.146	0.0163104
793.224	0.0163188
793.302	0.0163987
793.380	0.0164157
793.458	0.0163760
793.536	0.0163866
793.614	0.0163049
793.692	0.0164076
793.771	0.0163954
793.849	0.0163892
793.927	0.0163347
794.005	0.0163828
794.083	0.0164137
794.161	0.0163925
794.239	0.0164155
794.317	0.0163258
794.396	0.0163358
794.474	0.0162390
794.552	0.0161897
794.630	0.0164857
794.708	0.0163727
794.786	0.0164138
794.864	0.0163325
794.942	0.0163895
795.021	0.0162821
795.099	0.0163425
795.177	0.0163383
795.255	0.0164329
795.333	0.0164038
795.411	0.0163773
795.489	0.0164810
795.567	0.0165989
795.646	0.0163062
795.724	0.0164397
795.802	0.0164204
795.880	0.0164405
795.958	0.0163011
796.036	0.0164526
796.114	0.0163754
796.192	0.0162524
796.271	0.0165479
796.349	0.0163813
796.427	0.0162366
796.505	0.0163530
796.583	0.0164187
796.661	0.0163288
796.739	0.0164381
796.817	0.0164506
796.896	0.0164191
796.974	0.0163792
797.052	0.0164613
797.130	0.0163121
797.208	0.0165080
797.286	0.0164221
797.364	0.0165081
797.442	0.0163826
797.521	0.0164716
797.599	0.0163301
797.677	0.0164282
797.755	0.0164424
797.833	0.0163958
797.911	0.0163236
797.989	0.0165170
798.067	0.0164051
798.146	0.0162130
798.224	0.0163759
798.302	0.0163712
798.380	0.0163660
798.458	0.0163431
798.536	0.0164017
798.614	0.0164749
798.692	0.0162746
798.771	0.0163564
798.849	0.0164336
798.927	0.0163368
799.005	0.0163806
799.083	0.0163905
799.161	0.0164008
799.239	0.0163365
799.317	0.0162962
799.396	0.0163377
799.474	0.0163134
799.552	0.0163034
799.630	0.0162136
799.708	0.0162848
799.786	0.0163303
799.864	0.0163625
799.942	0.0163329
800.021	0.0162178
800.099	0.0162495
800.177	0.0163642
800.255	0.0164464
800.333	0.0164783
800.411	0.0163744
800.489	0.0164571
800.567	0.0163995
800.646	0.0164467
800.724	0.0164154
800.802	0.0164294
800.880	0.0164204
800.958	0.0163233
801.036	0.0164611
801.114	0.0164552
801.192	0.0164559
801.271	0.0164075
801.349	0.0164583
801.427	0.0164254
801.505	0.0163782
801.583	0.0163373
801.661	0.0163919
801.739	0.0163847
801.817	0.0163754
801.896	0.0164063
801.974	0.0163371
802.052	0.0164120
802.130	0.0164079
802.208	0.0165259
802.286	0.0163758
802.364	0.0164890
802.442	0.0164534
802.521	0.0164056
802.599	0.0164967
802.677	0.0164211
802.755	0.0165371
802.833	0.0165556
802.911	0.0163760
802.989	0.0164178
803.067	0.0165884
803.146	0.0165384
803.224	0.0164202
803.302	0.0166920
803.380	0.0166796
803.458	0.0166076
803.536	0.0165279
803.614	0.0165272
803.692	0.0166890
803.771	0.0167587
803.849	0.0166111
803.927	0.0166671
804.005	0.0164622
804.083	0.0164377
804.161	0.0166299
804.239	0.0166274
804.317	0.0165954
804.396	0.0166838
804.474	0.0166827
804.552	0.0166125
804.630	0.0167320
804.708	0.0166711
804.786	0.0166351
804.864	0.0166589
804.942	0.0167297
805.021	0.0166611
805.099	0.0165469
805.177	0.0166863
805.255	0.0168083
805.333	0.0167015
805.411	0.0166057
805.489	0.0166772
805.567	0.0168031
805.646	0.0165096
805.724	0.0166177
805.802	0.0165686
805.880	0.0167249
805.958	0.0165725
806.036	0.0166951
806.114	0.0167262
806.192	0.0165559
806.271	0.0165338
806.349	0.0166653
806.427	0.0167336
806.505	0.0165051
806.583	0.0165826
806.661	0.0166611
806.739	0.0166989
806.817	0.0166952
806.896	0.0166629
806.974	0.0165217
807.052	0.0167254
807.130	0.0166942
807.208	0.0167485
807.286	0.0166940
807.364	0.0165960
807.442	0.0166751
807.521	0.0166080
807.599	0.0166418
807.677	0.0166217
807.755	0.0165809
807.833	0.0165774
807.911	0.0166759
807.989	0.0167039
808.067	0.0166205
808.146	0.0166055
808.224	0.0165918
808.302	0.0166547
808.380	0.0166573
808.458	0.0164776
808.536	0.0164810
808.614	0.0166203
808.692	0.0167731
808.771	0.0166229
808.849	0.0166762
808.927	0.0166392
809.005	0.0166173
809.083	0.0166209
809.161	0.0166315
809.239	0.0165639
809.317	0.0167740
809.396	0.0166041
809.474	0.0167442
809.552	0.0166779
809.630	0.0166567
809.708	0.0166907
809.786	0.0167266
809.864	0.0166285
809.942	0.0166292
810.021	0.0167706
810.099	0.0166517
810.177	0.0167060
810.255	0.0167169
810.333	0.0166671
810.411	0.0168246
810.489	0.0166865
810.567	0.0166719
810.646	0.0167317
810.724	0.0166179
810.802	0.0167177
810.880	0.0168993
810.958	0.0166584
811.036	0.0166717
811.114	0.0165237
811.192	0.0164927
811.271	0.0166257
811.349	0.0166989
811.427	0.0167511
811.505	0.0166266
811.583	0.0165202
811.661	0.0167303
811.739	0.0166792
811.817	0.0166476
811.896	0.0166928
811.974	0.0167919
812.052	0.0167104
812.130	0.0166634
812.208	0.0167046
812.286	0.0166706
812.364	0.0166898
812.442	0.0165572
812.521	0.0166660
812.599	0.0166956
812.677	0.0165965
812.755	0.0166847
812.833	0.0166047
812.911	0.0166862
812.989	0.0166602
813.067	0.0166277
813.146	0.0166358
813.224	0.0167069
813.302	0.0168187
813.380	0.0166730
813.458	0.0166726
813.536	0.0166876
813.614	0.0166412
813.692	0.0167158
813.771	0.0167684
813.849	0.0166829
813.927	0.0166541
814.005	0.0166033
814.083	0.0166763
814.161	0.0166427
814.239	0.0165202
814.317	0.0165591
814.396	0.0166448
814.474	0.0167516
814.552	0.0165839
814.630	0.0166856
814.708	0.0165665
814.786	0.0164594
814.864	0.0165491
814.942	0.0163763
815.021	0.0164824
815.099	0.0165501
815.177	0.0165228
815.255	0.0165298
815.333	0.0164810
815.411	0.0164108
815.489	0.0164937
815.567	0.0164352
815.646	0.0162872
815.724	0.0163232
815.802	0.0163590
815.880	0.0163602
815.958	0.0164873
816.036	0.0162759
816.114	0.0164948
816.192	0.0164093
816.271	0.0164841
816.349	0.0164868
816.427	0.0164748
816.505	0.0163222
816.583	0.0164360
816.661	0.0164200
816.739	0.0164991
816.817	0.0164254
816.896	0.0163763
816.974	0.0165026
817.052	0.0163720
817.130	0.0163432
817.208	0.0163081
817.286	0.0164495
817.364	0.0164167
817.442	0.0164648
817.521	0.0163410
817.599	0.0164937
817.677	0.0165049
817.755	0.0163938
817.833	0.0165000
817.911	0.0164536
817.989	0.0164760
818.067	0.0164357
818.146	0.0164429
818.224	0.0164211
818.302	0.0165104
818.380	0.0164255
818.458	0.0164429
818.536	0.0163985
818.614	0.0163889
818.692	0.0164735
818.771	0.0164406
818.849	0.0164244
818.927	0.0165479
819.005	0.0164537
819.083	0.0163573
819.161	0.0164056
819.239	0.0163705
819.317	0.0164227
819.396	0.0165705
819.474	0.0163648
819.552	0.0164005
819.630	0.0164725
819.708	0.0164520
819.786	0.0164656
819.864	0.0165862
819.942	0.0164421
820.021	0.0164788
820.099	0.0164305
820.177	0.0165144
820.255	0.0166113
820.333	0.0165865
820.411	0.0164489
820.489	0.0164600
820.567	0.0164758
820.646	0.0165549
820.724	0.0165093
820.802	0.0165238
820.880	0.0164529
820.958	0.0165069
821.036	0.0164000
821.114	0.0164577
821.192	0.0165255
821.271	0.0165422
821.349	0.0164084
821.427	0.0164951
821.505	0.0164261
821.583	0.0165253
821.661	0.0164572
821.739	0.0165011
821.817	0.0166583
821.896	0.0165662
821.974	0.0164656
822.052	0.0166471
822.130	0.0164774
822.208	0.0165320
822.286	0.0164185
822.364	0.0164200
822.442	0.0164005
822.521	0.0164048
822.599	0.0164260
822.677	0.0166428
822.755	0.0163911
822.833	0.0163339
822.911	0.0164285
822.989	0.0164039
823.067	0.0163525
823.146	0.0164038
823.224	0.0164918
823.302	0.0164046
823.380	0.0165186
823.458	0.0163511
823.536	0.0163590
823.614	0.0164743
823.692	0.0163418
823.771	0.0164328
823.849	0.0165072
823.927	0.0164201
824.005	0.0165669
824.083	0.0164017
824.161	0.0164864
824.239	0.0165733
824.317	0.0165840
824.396	0.0165106
824.474	0.0164961
824.552	0.0163555
824.630	0.0166532
824.708	0.0165299
824.786	0.0165800
824.864	0.0167757
824.942	0.0166034
825.021	0.0165955
825.099	0.0165654
825.177	0.0165498
825.255	0.0166254
825.333	0.0167106
825.411	0.0166799
825.489	0.0166037
825.567	0.0167107
825.646	0.0166501
825.724	0.0166761
825.802	0.0166637
825.880	0.0166383
825.958	0.0166239
826.036	0.0166580
826.114	0.0166913
826.192	0.0167357
826.271	0.0167601
826.349	0.0167554
826.427	0.0168189
826.505	0.0166657
826.583	0.0166318
826.661	0.0167353
826.739	0.0168172
826.817	0.0168700
826.896	0.0168441
826.974	0.0167555
827.052	0.0167625
827.130	0.0167514
827.208	0.0169001
827.286	0.0167204
827.364	0.0167452
827.442	0.0168205
827.521	0.0167236
827.599	0.0168269
827.677	0.0167129
827.755	0.0167126
827.833	0.0166666
827.911	0.0168638
827.989	0.0168003
828.067	0.0168451
828.146	0.0168528
828.224	0.0168287
828.302	0.0167777
828.380	0.0168240
828.458	0.0168015
828.536	0.0167807
828.614	0.0167943
828.692	0.0167630
828.771	0.0168461
828.849	0.0168375
828.927	0.0169064
829.005	0.0168716
829.083	0.0168114
829.161	0.0168386
829.239	0.0168118
829.317	0.0168809
829.396	0.0167534
829.474	0.0167548
829.552	0.0168826
829.630	0.0167893
829.708	0.0168015
829.786	0.0167095
829.864	0.0166866
829.942	0.0166963
830.021	0.0167731
830.099	0.0166667
830.177	0.0169126
830.255	0.0167688
830.333	0.0168171
830.411	0.0167011
830.489	0.0165388
830.567	0.0165799
830.646	0.0165508
830.724	0.0166399
830.802	0.0167179
830.880	0.0165037
830.958	0.0165022
831.036	0.0166755
831.114	0.0165940
831.192	0.0165081
831.271	0.0165810
831.349	0.0166505
831.427	0.0164751
831.505	0.0165818
831.583	0.0165373
831.661	0.0165431
831.739	0.0164258
831.817	0.0165054
831.896	0.0165664
831.974	0.0163634
832.052	0.0165220
832.130	0.0164031
832.208	0.0164518
832.286	0.0166599
832.364	0.0164835
832.442	0.0163815
832.521	0.0165911
832.599	0.0165756
832.677	0.0164832
832.755	0.0163692
832.833	0.0165785
832.911	0.0166255
832.989	0.0165272
833.067	0.0163980
833.146	0.0165757
833.224	0.0165337
833.302	0.0165180
833.380	0.0163887
833.458	0.0162917
833.536	0.0166171
833.614	0.0166058
833.692	0.0163320
833.771	0.0164617
833.849	0.0164088
833.927	0.0164507
834.005	0.0165108
834.083	0.0164342
834.161	0.0164132
834.239	0.0164268
834.317	0.0163654
834.396	0.0164960
834.474	0.0164851
834.552	0.0164320
834.630	0.0165858
834.708	0.0165101
834.786	0.0163434
834.864	0.0163792
834.942	0.0164277
835.021	0.0165227
835.099	0.0165370
835.177	0.0164405
835.255	0.0165177
835.333	0.0164868
835.411	0.0165694
835.489	0.0165452
835.567	0.0165563
835.646	0.0165385
835.724	0.0164831
835.802	0.0166428
835.880	0.0164995
835.958	0.0165645
836.036	0.0164706
836.114	0.0164877
836.192	0.0165825
836.271	0.0165836
836.349	0.0164690
836.427	0.0165646
836.505	0.0165202
836.583	0.0164670
836.661	0.0165411
836.739	0.0165184
836.817	0.0166254
836.896	0.0165609
836.974	0.0164479
837.052	0.0165608
837.130	0.0165639
837.208	0.0165387
837.286	0.0166892
837.364	0.0166109
837.442	0.0166336
837.521	0.0165395
837.599	0.0166652
837.677	0.0165479
837.755	0.0163921
837.833	0.0164987
837.911	0.0165423
837.989	0.0166395
838.067	0.0166000
838.146	0.0165300
838.224	0.0164821
838.302	0.0165102
838.380	0.0165632
838.458	0.0165364
838.536	0.0165340
838.614	0.0164663
838.692	0.0165768
838.771	0.0165402
838.849	0.0165513
838.927	0.0166158
839.005	0.0164897
839.083	0.0165048
839.161	0.0165418
839.239	0.0166525
839.317	0.0166268
839.396	0.0165219
839.474	0.0165569
839.552	0.0164883
839.630	0.0165802
839.708	0.0164193
839.786	0.0165398
839.864	0.0165070
839.942	0.0165828
840.021	0.0165084
840.099	0.0165170
840.177	0.0166301
840.255	0.0165242
840.333	0.0165891
840.411	0.0165285
840.489	0.0166354
840.567	0.0165929
840.646	0.0165376
840.724	0.0165456
840.802	0.0165454
840.880	0.0166720
840.958	0.0165012
841.036	0.0167162
841.114	0.0167040
841.192	0.0165760
841.271	0.0165652
841.349	0.0165665
841.427	0.0166218
841.505	0.0164334
841.583	0.0164964
841.661	0.0166717
841.739	0.0165599
841.817	0.0165477
841.896	0.0164545
841.974	0.0165378
842.052	0.0165264
842.130	0.0165017
842.208	0.0166066
842.286	0.0165687
842.364	0.0166724
842.442	0.0166012
842.521	0.0166190
842.599	0.0166235
842.677	0.0165791
842.755	0.0165923
842.833	0.0166114
842.911	0.0165036
842.989	0.0165083
843.067	0.0164678
843.146	0.0165002
843.224	0.0164935
843.302	0.0165324
843.380	0.0164417
843.458	0.0165965
843.536	0.0164405
843.614	0.0165508
843.692	0.0164684
843.771	0.0165707
843.849	0.0165395
843.927	0.0165784
844.005	0.0165462
844.083	0.0166151
844.161	0.0165758
844.239	0.0165457
844.317	0.0166489
844.396	0.0166492
844.474	0.0166518
844.552	0.0165063
844.630	0.0165111
844.708	0.0166272
844.786	0.0166417
844.864	0.0166414
844.942	0.0167078
845.021	0.0166647
845.099	0.0167416
845.177	0.0165536
845.255	0.0166484
845.333	0.0165753
845.411	0.0166589
845.489	0.0165924
845.567	0.0165701
845.646	0.0166087
845.724	0.0165482
845.802	0.0166379
845.880	0.0167039
845.958	0.0166248
846.036	0.0166308
846.114	0.0166840
846.192	0.0166010
846.271	0.0166577
846.349	0.0165607
846.427	0.0166119
846.505	0.0166055
846.583	0.0164955
846.661	0.0166754
846.739	0.0168778
846.817	0.0166451
846.896	0.0166599
846.974	0.0166612
847.052	0.0166216
847.130	0.0166766
847.208	0.0166794
847.286	0.0167029
847.364	0.0166969
847.442	0.0165667
847.521	0.0166968
847.599	0.0166046
847.677	0.0167197
847.755	0.0166399
847.833	0.0166582
847.911	0.0166081
847.989	0.0166940
848.067	0.0165039
848.146	0.0166753
848.224	0.0167268
848.302	0.0166135
848.380	0.0165186
848.458	0.0165610
848.536	0.0165550
848.614	0.0165378
848.692	0.0165522
848.771	0.0167119
848.849	0.0165350
848.927	0.0163775
849.005	0.0164925
849.083	0.0165557
849.161	0.0165059
849.239	0.0164492
849.317	0.0164874
849.396	0.0166019
849.474	0.0165719
849.552	0.0164065
849.630	0.0164311
849.708	0.0165235
849.786	0.0164379
849.864	0.0164977
849.942	0.0165021
850.021	0.0164938
850.099	0.0164740
850.177	0.0165549
850.255	0.0163549
850.333	0.0164294
850.411	0.0163970
850.489	0.0165187
850.567	0.0165935
850.646	0.0164173
850.724	0.0164586
850.802	0.0166068
850.880	0.0163590
850.958	0.0165571
851.036	0.0165861
851.114	0.0164008
851.192	0.0165146
851.271	0.0164915
851.349	0.0165916
851.427	0.0165572
851.505	0.0164688
851.583	0.0165287
851.661	0.0166752
851.739	0.0165589
851.817	0.0165601
851.896	0.0164722
851.974	0.0165361
852.052	0.0164753
852.130	0.0165350
852.208	0.0165440
852.286	0.0165961
852.364	0.0166645
852.442	0.0166048
852.521	0.0165195
852.599	0.0165803
852.677	0.0166315
852.755	0.0164733
852.833	0.0165192
852.911	0.0164716
852.989	0.0164935
853.067	0.0164343
853.146	0.0165023
853.224	0.0166062
853.302	0.0167325
853.380	0.0163656
853.458	0.0164999
853.536	0.0165230
853.614	0.0164725
853.692	0.0165697
853.771	0.0164830
853.849	0.0164881
853.927	0.0165332
854.005	0.0164189
854.083	0.0164726
854.161	0.0165002
854.239	0.0164980
854.317	0.0164352
854.396	0.0165380
854.474	0.0164848
854.552	0.0163942
854.630	0.0165572
854.708	0.0164739
854.786	0.0164838
854.864	0.0165120
854.942	0.0165507
855.021	0.0165693
855.099	0.0163605
855.177	0.0163697
855.255	0.0165437
855.333	0.0166307
855.411	0.0165661
855.489	0.0165520
855.567	0.0164463
855.646	0.0165493
855.724	0.0164867
855.802	0.0165521
855.880	0.0165642
855.958	0.0165576
856.036	0.0164644
856.114	0.0164350
856.192	0.0165961
856.271	0.0165340
856.349	0.0164758
856.427	0.0164522
856.505	0.0165263
856.583	0.0165929
856.661	0.0164777
856.739	0.0164679
856.817	0.0165619
856.896	0.0164417
856.974	0.0164748
857.052	0.0164256
857.130	0.0166033
857.208	0.0165401
857.286	0.0164577
857.364	0.0165182
857.442	0.0166835
857.521	0.0164521
857.599	0.0164572
857.677	0.0166022
857.755	0.0165475
857.833	0.0165347
857.911	0.0163981
857.989	0.0166720
858.067	0.0165567
858.146	0.0165824
858.224	0.0166151
858.302	0.0165413
858.380	0.0165415
858.458	0.0164660
858.536	0.0165063
858.614	0.0166800
858.692	0.0167186
858.771	0.0165281
858.849	0.0166193
858.927	0.0166429
859.005	0.0166956
859.083	0.0166280
859.161	0.0167641
859.239	0.0167614
859.317	0.0167511
859.396	0.0167199
859.474	0.0166886
859.552	0.0166046
859.630	0.0167534
859.708	0.0167751
859.786	0.0166579
859.864	0.0167262
859.942	0.0166486
860.021	0.0167034
860.099	0.0167453
860.177	0.0167883
860.255	0.0167351
860.333	0.0166255
860.411	0.0166834
860.489	0.0166959
860.567	0.0165733
860.646	0.0166010
860.724	0.0165646
860.802	0.0166107
860.880	0.0166547
860.958	0.0165338
861.036	0.0165799
861.114	0.0165902
861.192	0.0165120
861.271	0.0166738
861.349	0.0164430
861.427	0.0167398
861.505	0.0165031
861.583	0.0166199
861.661	0.0165979
861.739	0.0165956
861.817	0.0165192
861.896	0.0164992
861.974	0.0164070
862.052	0.0165292
862.130	0.0164582
862.208	0.0165826
862.286	0.0166008
862.364	0.0164541
862.442	0.0165255
862.521	0.0166688
862.599	0.0164392
862.677	0.0165326
862.755	0.0165517
862.833	0.0164948
862.911	0.0164161
862.989	0.0164580
863.067	0.0164548
863.146	0.0164975
863.224	0.0163996
863.302	0.0164793
863.380	0.0164765
863.458	0.0163713
863.536	0.0166100
863.614	0.0164281
863.692	0.0163952
863.771	0.0163241
863.849	0.0163849
863.927	0.0164503
864.005	0.0164005
864.083	0.0162907
864.161	0.0164619
864.239	0.0163712
864.317	0.0162698
864.396	0.0163282
864.474	0.0164397
864.552	0.0163940
864.630	0.0163315
864.708	0.0163538
864.786	0.0163162
864.864	0.0163657
864.942	0.0163636
865.021	0.0163439
865.099	0.0163215
865.177	0.0163490
865.255	0.0165096
865.333	0.0164047
865.411	0.0162408
865.489	0.0162909
865.567	0.0163783
865.646	0.0163164
865.724	0.0163100
865.802	0.0162580
865.880	0.0163592
865.958	0.0164600
866.036	0.0162392
866.114	0.0163509
866.192	0.0163969
866.271	0.0163992
866.349	0.0164400
866.427	0.0164690
866.505	0.0163724
866.583	0.0163380
866.661	0.0163469
866.739	0.0165265
866.817	0.0164172
866.896	0.0164083
866.974	0.0165004
867.052	0.0163644
867.130	0.0164145
867.208	0.0163113
867.286	0.0164021
867.364	0.0165041
867.442	0.0165449
867.521	0.0164484
867.599	0.0164561
867.677	0.0162822
867.755	0.0164383
867.833	0.0163422
867.911	0.0165142
867.989	0.0163728
868.067	0.0164475
868.146	0.0165056
868.224	0.0165221
868.302	0.0165221
868.380	0.0162958
868.458	0.0164518
868.536	0.0165800
868.614	0.0164921
868.692	0.0163776
868.771	0.0165293
868.849	0.0166351
868.927	0.0165805
869.005	0.0164340
869.083	0.0164923
869.161	0.0165212
869.239	0.0165242
869.317	0.0165922
869.396	0.0164835
869.474	0.0164668
869.552	0.0165257
869.630	0.0165321
869.708	0.0164094
869.786	0.0163865
869.864	0.0164606
869.942	0.0164636
