06/03/2022	14:46:29	Ver.	4.1	UNKNOWN
Optical Delay	550.020508	Delta X		0.078125	Sweeps	1	Scan Rate	0/0
Coordinates	Axis 1	NaN	Axis 2	NaN	Axis 3	NaN	Axis 4	NaN	Axis 5	NaN	Axis 6	0.000000
TX Power	0.000000	RX Power	0.000000

550.021	0.0164501
550.099	0.0164703
550.177	0.0166518
550.255	0.0165299
550.333	0.0164730
550.411	0.0164974
550.489	0.0166208
550.567	0.0165947
550.646	0.0166003
550.724	0.0165810
550.802	0.0164149
550.880	0.0165700
550.958	0.0165025
551.036	0.0165500
551.114	0.0165551
551.192	0.0164455
551.271	0.0165756
551.349	0.0166463
551.427	0.0165567
551.505	0.0164853
551.583	0.0164149
551.661	0.0165699
551.739	0.0164261
551.817	0.0164876
551.896	0.0165678
551.974	0.0165594
552.052	0.0165932
552.130	0.0165103
552.208	0.0165444
552.286	0.0165900
552.364	0.0165503
552.442	0.0164391
552.521	0.0165820
552.599	0.0165592
552.677	0.0165781
552.755	0.0166832
552.833	0.0165583
552.911	0.0165813
552.989	0.0166821
553.067	0.0166054
553.146	0.0167127
553.224	0.0166099
553.302	0.0165256
553.380	0.0165448
553.458	0.0165345
553.536	0.0166302
553.614	0.0166859
553.692	0.0166484
553.771	0.0166666
553.849	0.0166399
553.927	0.0165364
554.005	0.0164456
554.083	0.0165007
554.161	0.0167338
554.239	0.0167661
554.317	0.0165472
554.396	0.0165680
554.474	0.0166163
554.552	0.0167078
554.630	0.0167007
554.708	0.0166000
554.786	0.0166557
554.864	0.0167307
554.942	0.0167028
555.021	0.0165540
555.099	0.0167246
555.177	0.0168026
555.255	0.0166774
555.333	0.0166417
555.411	0.0167898
555.489	0.0166788
555.567	0.0166701
555.646	0.0167484
555.724	0.0167231
555.802	0.0165298
555.880	0.0167143
555.958	0.0164931
556.036	0.0167088
556.114	0.0167194
556.192	0.0165662
556.271	0.0166356
556.349	0.0166505
556.427	0.0166982
556.505	0.0165965
556.583	0.0168204
556.661	0.0168521
556.739	0.0166258
556.817	0.0167744
556.896	0.0167149
556.974	0.0166259
557.052	0.0165971
557.130	0.0167972
557.208	0.0167382
557.286	0.0167910
557.364	0.0167960
557.442	0.0167682
557.521	0.0167303
557.599	0.0167508
557.677	0.0168005
557.755	0.0167757
557.833	0.0168013
557.911	0.0166632
557.989	0.0167905
558.067	0.0168179
558.146	0.0167786
558.224	0.0167836
558.302	0.0166907
558.380	0.0167987
558.458	0.0168053
558.536	0.0168198
558.614	0.0167957
558.692	0.0168053
558.771	0.0167588
558.849	0.0167516
558.927	0.0168408
559.005	0.0168117
559.083	0.0167435
559.161	0.0168462
559.239	0.0168439
559.317	0.0168481
559.396	0.0168250
559.474	0.0167053
559.552	0.0167147
559.630	0.0168507
559.708	0.0167873
559.786	0.0167242
559.864	0.0167316
559.942	0.0167933
560.021	0.0167390
560.099	0.0166558
560.177	0.0166853
560.255	0.0167558
560.333	0.0165987
560.411	0.0166656
560.489	0.0167742
560.567	0.0167284
560.646	0.0167042
560.724	0.0167813
560.802	0.0166187
560.880	0.0167410
560.958	0.0167715
561.036	0.0168408
561.114	0.0166806
561.192	0.0167229
561.271	0.0167688
561.349	0.0167653
561.427	0.0165969
561.505	0.0165163
561.583	0.0166683
561.661	0.0167744
561.739	0.0167693
561.817	0.0167033
561.896	0.0167084
561.974	0.0164716
562.052	0.0166866
562.130	0.0166819
562.208	0.0166817
562.286	0.0166776
562.364	0.0166313
562.442	0.0167879
562.521	0.0167248
562.599	0.0165620
562.677	0.0166129
562.755	0.0167391
562.833	0.0167491
562.911	0.0166965
562.989	0.0166661
563.067	0.0166798
563.146	0.0167273
563.224	0.0166832
563.302	0.0167242
563.380	0.0168312
563.458	0.0166762
563.536	0.0167265
563.614	0.0165584
563.692	0.0165646
563.771	0.0166988
563.849	0.0166097
563.927	0.0166154
564.005	0.0166605
564.083	0.0164831
564.161	0.0165065
564.239	0.0165721
564.317	0.0165833
564.396	0.0165851
564.474	0.0165148
564.552	0.0164859
564.630	0.0164597
564.708	0.0165437
564.786	0.0165258
564.864	0.0165059
564.942	0.0164750
565.021	0.0163871
565.099	0.0166548
565.177	0.0165577
565.255	0.0164074
565.333	0.0165411
565.411	0.0164889
565.489	0.0165002
565.567	0.0164898
565.646	0.0165359
565.724	0.0164346
565.802	0.0163322
565.880	0.0164458
565.958	0.0164748
566.036	0.0164256
566.114	0.0164642
566.192	0.0164135
566.271	0.0165771
566.349	0.0164999
566.427	0.0164638
566.505	0.0163902
566.583	0.0166151
566.661	0.0164924
566.739	0.0164632
566.817	0.0164702
566.896	0.0164840
566.974	0.0165944
567.052	0.0165753
567.130	0.0164411
567.208	0.0165138
567.286	0.0165589
567.364	0.0166164
567.442	0.0166902
567.521	0.0165350
567.599	0.0165910
567.677	0.0166763
567.755	0.0165355
567.833	0.0165915
567.911	0.0166046
567.989	0.0166016
568.067	0.0167773
568.146	0.0165793
568.224	0.0165621
568.302	0.0165167
568.380	0.0165550
568.458	0.0165809
568.536	0.0165454
568.614	0.0165311
568.692	0.0167065
568.771	0.0165166
568.849	0.0165501
568.927	0.0164605
569.005	0.0166267
569.083	0.0167250
569.161	0.0165539
569.239	0.0166425
569.317	0.0166772
569.396	0.0165059
569.474	0.0165646
569.552	0.0167663
569.630	0.0167390
569.708	0.0166843
569.786	0.0165359
569.864	0.0166447
569.942	0.0166779
570.021	0.0167487
570.099	0.0166534
570.177	0.0166601
570.255	0.0167619
570.333	0.0166598
570.411	0.0166219
570.489	0.0167213
570.567	0.0166956
570.646	0.0167935
570.724	0.0167216
570.802	0.0166776
570.880	0.0165921
570.958	0.0165659
571.036	0.0168014
571.114	0.0167323
571.192	0.0165914
571.271	0.0166771
571.349	0.0166893
571.427	0.0167546
571.505	0.0167440
571.583	0.0167165
571.661	0.0166868
571.739	0.0166164
571.817	0.0167796
571.896	0.0166969
571.974	0.0168494
572.052	0.0167851
572.130	0.0167006
572.208	0.0166463
572.286	0.0165380
572.364	0.0166380
572.442	0.0166436
572.521	0.0167301
572.599	0.0167094
572.677	0.0166176
572.755	0.0165521
572.833	0.0165697
572.911	0.0166759
572.989	0.0166881
573.067	0.0166254
573.146	0.0167106
573.224	0.0168008
573.302	0.0166420
573.380	0.0164993
573.458	0.0167048
573.536	0.0167514
573.614	0.0167852
573.692	0.0165707
573.771	0.0166795
573.849	0.0165191
573.927	0.0166367
574.005	0.0166991
574.083	0.0164974
574.161	0.0166675
574.239	0.0165817
574.317	0.0165558
574.396	0.0166258
574.474	0.0165324
574.552	0.0165939
574.630	0.0166048
574.708	0.0164294
574.786	0.0164388
574.864	0.0165263
574.942	0.0165743
575.021	0.0164747
575.099	0.0164739
575.177	0.0165343
575.255	0.0165011
575.333	0.0165163
575.411	0.0165728
575.489	0.0165621
575.567	0.0163883
575.646	0.0165840
575.724	0.0165089
575.802	0.0164773
575.880	0.0165023
575.958	0.0166055
576.036	0.0165872
576.114	0.0165491
576.192	0.0164713
576.271	0.0166275
576.349	0.0165086
576.427	0.0164120
576.505	0.0165933
576.583	0.0164915
576.661	0.0164336
576.739	0.0164816
576.817	0.0164397
576.896	0.0165126
576.974	0.0165807
577.052	0.0164301
577.130	0.0165631
577.208	0.0165619
577.286	0.0164240
577.364	0.0165443
577.442	0.0166441
577.521	0.0164406
577.599	0.0164758
577.677	0.0166153
577.755	0.0165096
577.833	0.0165434
577.911	0.0164862
577.989	0.0165185
578.067	0.0165347
578.146	0.0164505
578.224	0.0167308
578.302	0.0166546
578.380	0.0165065
578.458	0.0164771
578.536	0.0165835
578.614	0.0165232
578.692	0.0165096
578.771	0.0165404
578.849	0.0165251
578.927	0.0165260
579.005	0.0166230
579.083	0.0165000
579.161	0.0165643
579.239	0.0164886
579.317	0.0164005
579.396	0.0165401
579.474	0.0166116
579.552	0.0165792
579.630	0.0162388
579.708	0.0165695
579.786	0.0166061
579.864	0.0164935
579.942	0.0163336
580.021	0.0165743
580.099	0.0165782
580.177	0.0165508
580.255	0.0165706
580.333	0.0164188
580.411	0.0165747
580.489	0.0166103
580.567	0.0165068
580.646	0.0164891
580.724	0.0164454
580.802	0.0165417
580.880	0.0164565
580.958	0.0165119
581.036	0.0165926
581.114	0.0164513
581.192	0.0165990
581.271	0.0164456
581.349	0.0165176
581.427	0.0164823
581.505	0.0164825
581.583	0.0163736
581.661	0.0165199
581.739	0.0164716
581.817	0.0165306
581.896	0.0164890
581.974	0.0163343
582.052	0.0164077
582.130	0.0165250
582.208	0.0164123
582.286	0.0163450
582.364	0.0165569
582.442	0.0164832
582.521	0.0163849
582.599	0.0164208
582.677	0.0164684
582.755	0.0164807
582.833	0.0165282
582.911	0.0164549
582.989	0.0165245
583.067	0.0165581
583.146	0.0164798
583.224	0.0165421
583.302	0.0164452
583.380	0.0164271
583.458	0.0165415
583.536	0.0163832
583.614	0.0163919
583.692	0.0164075
583.771	0.0166203
583.849	0.0164587
583.927	0.0165562
584.005	0.0164711
584.083	0.0164725
584.161	0.0165781
584.239	0.0165295
584.317	0.0164626
584.396	0.0165730
584.474	0.0166727
584.552	0.0165730
584.630	0.0163640
584.708	0.0165136
584.786	0.0164344
584.864	0.0166347
584.942	0.0165369
585.021	0.0165356
585.099	0.0164683
585.177	0.0166338
585.255	0.0166004
585.333	0.0165343
585.411	0.0165258
585.489	0.0164962
585.567	0.0165063
585.646	0.0166212
585.724	0.0165626
585.802	0.0166337
585.880	0.0166212
585.958	0.0167362
586.036	0.0166010
586.114	0.0167071
586.192	0.0166628
586.271	0.0166331
586.349	0.0166538
586.427	0.0167249
586.505	0.0167975
586.583	0.0166425
586.661	0.0167589
586.739	0.0165479
586.817	0.0165612
586.896	0.0167982
586.974	0.0167846
587.052	0.0164754
587.130	0.0166211
587.208	0.0167570
587.286	0.0166161
587.364	0.0166091
587.442	0.0166565
587.521	0.0166740
587.599	0.0165619
587.677	0.0164879
587.755	0.0166565
587.833	0.0165825
587.911	0.0165781
587.989	0.0167036
588.067	0.0167077
588.146	0.0165004
588.224	0.0166718
588.302	0.0167329
588.380	0.0167034
588.458	0.0164670
588.536	0.0165052
588.614	0.0165830
588.692	0.0166269
588.771	0.0165135
588.849	0.0165028
588.927	0.0166212
589.005	0.0165179
589.083	0.0166313
589.161	0.0165313
589.239	0.0165244
589.317	0.0166029
589.396	0.0165543
589.474	0.0166154
589.552	0.0165800
589.630	0.0165015
589.708	0.0165450
589.786	0.0165888
589.864	0.0165749
589.942	0.0165808
590.021	0.0165759
590.099	0.0165211
590.177	0.0167588
590.255	0.0165086
590.333	0.0164980
590.411	0.0166374
590.489	0.0168257
590.567	0.0165582
590.646	0.0164554
590.724	0.0167705
590.802	0.0166834
590.880	0.0165515
590.958	0.0167027
591.036	0.0167935
591.114	0.0167391
591.192	0.0166654
591.271	0.0165887
591.349	0.0166711
591.427	0.0166547
591.505	0.0167509
591.583	0.0166494
591.661	0.0166527
591.739	0.0165770
591.817	0.0165623
591.896	0.0166188
591.974	0.0166500
592.052	0.0166899
592.130	0.0165948
592.208	0.0166330
592.286	0.0167331
592.364	0.0165210
592.442	0.0165907
592.521	0.0168021
592.599	0.0167850
592.677	0.0166708
592.755	0.0167175
592.833	0.0166041
592.911	0.0167057
592.989	0.0165265
593.067	0.0165337
593.146	0.0166378
593.224	0.0165813
593.302	0.0164357
593.380	0.0166308
593.458	0.0166666
593.536	0.0166206
593.614	0.0165913
593.692	0.0165907
593.771	0.0164098
593.849	0.0164970
593.927	0.0165445
594.005	0.0165597
594.083	0.0165498
594.161	0.0164793
594.239	0.0164715
594.317	0.0165106
594.396	0.0165633
594.474	0.0167566
594.552	0.0166064
594.630	0.0164608
594.708	0.0166953
594.786	0.0166426
594.864	0.0165674
594.942	0.0164763
595.021	0.0166201
595.099	0.0166459
595.177	0.0167113
595.255	0.0166176
595.333	0.0166201
595.411	0.0165895
595.489	0.0165347
595.567	0.0166062
595.646	0.0166146
595.724	0.0166220
595.802	0.0165421
595.880	0.0164862
595.958	0.0166119
596.036	0.0166232
596.114	0.0165923
596.192	0.0165901
596.271	0.0164543
596.349	0.0165981
596.427	0.0165564
596.505	0.0166897
596.583	0.0165342
596.661	0.0165704
596.739	0.0165834
596.817	0.0166002
596.896	0.0165384
596.974	0.0164540
597.052	0.0165173
597.130	0.0163883
597.208	0.0164916
597.286	0.0164780
597.364	0.0165145
597.442	0.0164901
597.521	0.0164375
597.599	0.0164251
597.677	0.0164539
597.755	0.0167081
597.833	0.0166905
597.911	0.0164503
597.989	0.0164523
598.067	0.0164211
598.146	0.0163930
598.224	0.0165101
598.302	0.0163750
598.380	0.0166156
598.458	0.0164050
598.536	0.0163754
598.614	0.0165297
598.692	0.0163897
598.771	0.0164370
598.849	0.0164494
598.927	0.0163337
599.005	0.0164153
599.083	0.0164275
599.161	0.0165311
599.239	0.0164412
599.317	0.0162503
599.396	0.0163419
599.474	0.0164027
599.552	0.0164980
599.630	0.0163885
599.708	0.0163738
599.786	0.0162858
599.864	0.0163575
599.942	0.0162990
600.021	0.0164020
600.099	0.0163843
600.177	0.0164109
600.255	0.0162845
600.333	0.0162878
600.411	0.0163507
600.489	0.0163660
600.567	0.0164162
600.646	0.0162627
600.724	0.0162684
600.802	0.0161927
600.880	0.0163324
600.958	0.0163078
601.036	0.0164734
601.114	0.0163998
601.192	0.0166087
601.271	0.0164220
601.349	0.0164953
601.427	0.0163716
601.505	0.0164011
601.583	0.0164886
601.661	0.0163609
601.739	0.0163733
601.817	0.0164063
601.896	0.0164565
601.974	0.0164080
602.052	0.0163210
602.130	0.0165263
602.208	0.0165010
602.286	0.0162583
602.364	0.0164295
602.442	0.0163757
602.521	0.0164030
602.599	0.0165283
602.677	0.0163988
602.755	0.0164485
602.833	0.0164643
602.911	0.0164208
602.989	0.0164280
603.067	0.0163849
603.146	0.0163966
603.224	0.0163813
603.302	0.0163302
603.380	0.0164419
603.458	0.0164778
603.536	0.0165226
603.614	0.0164437
603.692	0.0162676
603.771	0.0164014
603.849	0.0164643
603.927	0.0163877
604.005	0.0165621
604.083	0.0165967
604.161	0.0165495
604.239	0.0164410
604.317	0.0164032
604.396	0.0165633
604.474	0.0166031
604.552	0.0165099
604.630	0.0164318
604.708	0.0165823
604.786	0.0164085
604.864	0.0165115
604.942	0.0164737
605.021	0.0163806
605.099	0.0165493
605.177	0.0164433
605.255	0.0164110
605.333	0.0164375
605.411	0.0163490
605.489	0.0164803
605.567	0.0164069
605.646	0.0164215
605.724	0.0164151
605.802	0.0163536
605.880	0.0163938
605.958	0.0165009
606.036	0.0163891
606.114	0.0164249
606.192	0.0165697
606.271	0.0164612
606.349	0.0165607
606.427	0.0165833
606.505	0.0164495
606.583	0.0165428
606.661	0.0163101
606.739	0.0163744
606.817	0.0163976
606.896	0.0164558
606.974	0.0163612
607.052	0.0163393
607.130	0.0164129
607.208	0.0164974
607.286	0.0163855
607.364	0.0164664
607.442	0.0164995
607.521	0.0164655
607.599	0.0163155
607.677	0.0164377
607.755	0.0164429
607.833	0.0165119
607.911	0.0164048
607.989	0.0164230
608.067	0.0163856
608.146	0.0164719
608.224	0.0164484
608.302	0.0164635
608.380	0.0163549
608.458	0.0163892
608.536	0.0164659
608.614	0.0164412
608.692	0.0166070
608.771	0.0164367
608.849	0.0164236
608.927	0.0165128
609.005	0.0163590
609.083	0.0163531
609.161	0.0163958
609.239	0.0163852
609.317	0.0164913
609.396	0.0162981
609.474	0.0164887
609.552	0.0165961
609.630	0.0165360
609.708	0.0165051
609.786	0.0165276
609.864	0.0163091
609.942	0.0165620
610.021	0.0165907
610.099	0.0165083
610.177	0.0165176
610.255	0.0166091
610.333	0.0164912
610.411	0.0164793
610.489	0.0167159
610.567	0.0165687
610.646	0.0164999
610.724	0.0164849
610.802	0.0164703
610.880	0.0163978
610.958	0.0165701
611.036	0.0164914
611.114	0.0164294
611.192	0.0165366
611.271	0.0165620
611.349	0.0166061
611.427	0.0165874
611.505	0.0167098
611.583	0.0166160
611.661	0.0166515
611.739	0.0164541
611.817	0.0165479
611.896	0.0164781
611.974	0.0164825
612.052	0.0166290
612.130	0.0165386
612.208	0.0165424
612.286	0.0165527
612.364	0.0165128
612.442	0.0164622
612.521	0.0164948
612.599	0.0165804
612.677	0.0164633
612.755	0.0165038
612.833	0.0165725
612.911	0.0165184
612.989	0.0164520
613.067	0.0164526
613.146	0.0166115
613.224	0.0165093
613.302	0.0165760
613.380	0.0165400
613.458	0.0164919
613.536	0.0164362
613.614	0.0165088
613.692	0.0165143
613.771	0.0165614
613.849	0.0163857
613.927	0.0165114
614.005	0.0165621
614.083	0.0166553
614.161	0.0164732
614.239	0.0165810
614.317	0.0165395
614.396	0.0165107
614.474	0.0166644
614.552	0.0167063
614.630	0.0167238
614.708	0.0167670
614.786	0.0167805
614.864	0.0167303
614.942	0.0167353
615.021	0.0167064
615.099	0.0168359
615.177	0.0169014
615.255	0.0167629
615.333	0.0166170
615.411	0.0166735
615.489	0.0167867
615.567	0.0167471
615.646	0.0167374
615.724	0.0168446
615.802	0.0167575
615.880	0.0168179
615.958	0.0167780
616.036	0.0169115
616.114	0.0167796
616.192	0.0168388
616.271	0.0169700
616.349	0.0169131
616.427	0.0167442
616.505	0.0168475
616.583	0.0168552
616.661	0.0169585
616.739	0.0168514
616.817	0.0168635
616.896	0.0167692
616.974	0.0167387
617.052	0.0168156
617.130	0.0167700
617.208	0.0167542
617.286	0.0167427
617.364	0.0169643
617.442	0.0168024
617.521	0.0167451
617.599	0.0167443
617.677	0.0167160
617.755	0.0167239
617.833	0.0169238
617.911	0.0167720
617.989	0.0168538
618.067	0.0169304
618.146	0.0167707
618.224	0.0168363
618.302	0.0168191
618.380	0.0166134
618.458	0.0168678
618.536	0.0168343
618.614	0.0168015
618.692	0.0167458
618.771	0.0168299
618.849	0.0167367
618.927	0.0166676
619.005	0.0167022
619.083	0.0166129
619.161	0.0167861
619.239	0.0168702
619.317	0.0166626
619.396	0.0166013
619.474	0.0166682
619.552	0.0167579
619.630	0.0166882
619.708	0.0167128
619.786	0.0167340
619.864	0.0167298
619.942	0.0166698
620.021	0.0165814
620.099	0.0166319
620.177	0.0165256
620.255	0.0165975
620.333	0.0165769
620.411	0.0166394
620.489	0.0165508
620.567	0.0164857
620.646	0.0165814
620.724	0.0166137
620.802	0.0164306
620.880	0.0164890
620.958	0.0166010
621.036	0.0166090
621.114	0.0165372
621.192	0.0164449
621.271	0.0165979
621.349	0.0165176
621.427	0.0164590
621.505	0.0165526
621.583	0.0164051
621.661	0.0165666
621.739	0.0163918
621.817	0.0164548
621.896	0.0166128
621.974	0.0164330
622.052	0.0163902
622.130	0.0165150
622.208	0.0165035
622.286	0.0164302
622.364	0.0165279
622.442	0.0164498
622.521	0.0165295
622.599	0.0164618
622.677	0.0163809
622.755	0.0164298
622.833	0.0164278
622.911	0.0165421
622.989	0.0164638
623.067	0.0164806
623.146	0.0165737
623.224	0.0164581
623.302	0.0163960
623.380	0.0164661
623.458	0.0165198
623.536	0.0163962
623.614	0.0164083
623.692	0.0165397
623.771	0.0165819
623.849	0.0165035
623.927	0.0164727
624.005	0.0164263
624.083	0.0165758
624.161	0.0165478
624.239	0.0163982
624.317	0.0164888
624.396	0.0164767
624.474	0.0166428
624.552	0.0165630
624.630	0.0164764
624.708	0.0164503
624.786	0.0164587
624.864	0.0164166
624.942	0.0164629
625.021	0.0164771
625.099	0.0166529
625.177	0.0165026
625.255	0.0165041
625.333	0.0165994
625.411	0.0164679
625.489	0.0165031
625.567	0.0166472
625.646	0.0165300
625.724	0.0165641
625.802	0.0165282
625.880	0.0166905
625.958	0.0166033
626.036	0.0166444
626.114	0.0165677
626.192	0.0165323
626.271	0.0167159
626.349	0.0166434
626.427	0.0165858
626.505	0.0167203
626.583	0.0166151
626.661	0.0166246
626.739	0.0165556
626.817	0.0167497
626.896	0.0167523
626.974	0.0165070
627.052	0.0165883
627.130	0.0167220
627.208	0.0166799
627.286	0.0167693
627.364	0.0165863
627.442	0.0166582
627.521	0.0165963
627.599	0.0166057
627.677	0.0166411
627.755	0.0165716
627.833	0.0166415
627.911	0.0166233
627.989	0.0165518
628.067	0.0166408
628.146	0.0167388
628.224	0.0167001
628.302	0.0166590
628.380	0.0167202
628.458	0.0166587
628.536	0.0165687
628.614	0.0167004
628.692	0.0167056
628.771	0.0166142
628.849	0.0166467
628.927	0.0167696
629.005	0.0167870
629.083	0.0166869
629.161	0.0166718
629.239	0.0165607
629.317	0.0165891
629.396	0.0166815
629.474	0.0167310
629.552	0.0166299
629.630	0.0165078
629.708	0.0166516
629.786	0.0165211
629.864	0.0165578
629.942	0.0166763
630.021	0.0165234
630.099	0.0165785
630.177	0.0165923
630.255	0.0166087
630.333	0.0165147
630.411	0.0164921
630.489	0.0165592
630.567	0.0164059
630.646	0.0165972
630.724	0.0166798
630.802	0.0167410
630.880	0.0166472
630.958	0.0164470
631.036	0.0167216
631.114	0.0166338
631.192	0.0165313
631.271	0.0165984
631.349	0.0165567
631.427	0.0165604
631.505	0.0165911
631.583	0.0166245
631.661	0.0166677
631.739	0.0165424
631.817	0.0166187
631.896	0.0166126
631.974	0.0165665
632.052	0.0167397
632.130	0.0166333
632.208	0.0166816
632.286	0.0166114
632.364	0.0165858
632.442	0.0167197
632.521	0.0165636
632.599	0.0164584
632.677	0.0166316
632.755	0.0166866
632.833	0.0166656
632.911	0.0166561
632.989	0.0166540
633.067	0.0167327
633.146	0.0165912
633.224	0.0166007
633.302	0.0167747
633.380	0.0167900
633.458	0.0167995
633.536	0.0167373
633.614	0.0167147
633.692	0.0166783
633.771	0.0166603
633.849	0.0166590
633.927	0.0165604
634.005	0.0166669
634.083	0.0166169
634.161	0.0167015
634.239	0.0167149
634.317	0.0167518
634.396	0.0167451
634.474	0.0167046
634.552	0.0165042
634.630	0.0165988
634.708	0.0166828
634.786	0.0167007
634.864	0.0164702
634.942	0.0165324
635.021	0.0166023
635.099	0.0167683
635.177	0.0166423
635.255	0.0164780
635.333	0.0167012
635.411	0.0167138
635.489	0.0165775
635.567	0.0164784
635.646	0.0165963
635.724	0.0167223
635.802	0.0165845
635.880	0.0167041
635.958	0.0166706
636.036	0.0167184
636.114	0.0166602
636.192	0.0166726
636.271	0.0166641
636.349	0.0169199
636.427	0.0167403
636.505	0.0166918
636.583	0.0166855
636.661	0.0168228
636.739	0.0168344
636.817	0.0167358
636.896	0.0166795
636.974	0.0165937
637.052	0.0165714
637.130	0.0168029
637.208	0.0168530
637.286	0.0169260
637.364	0.0166193
637.442	0.0165589
637.521	0.0167589
637.599	0.0167615
637.677	0.0167058
637.755	0.0168118
637.833	0.0167913
637.911	0.0168509
637.989	0.0167397
638.067	0.0167297
638.146	0.0167983
638.224	0.0168558
638.302	0.0167551
638.380	0.0168937
638.458	0.0168259
638.536	0.0167306
638.614	0.0166785
638.692	0.0167913
638.771	0.0169559
638.849	0.0167634
638.927	0.0167392
639.005	0.0168453
639.083	0.0166800
639.161	0.0168062
639.239	0.0168041
639.317	0.0168940
639.396	0.0167978
639.474	0.0167440
639.552	0.0167888
639.630	0.0167911
639.708	0.0167329
639.786	0.0166905
639.864	0.0166917
639.942	0.0167881
640.021	0.0168353
640.099	0.0167760
640.177	0.0166040
640.255	0.0167003
640.333	0.0169152
640.411	0.0168264
640.489	0.0167889
640.567	0.0168327
640.646	0.0168755
640.724	0.0168243
640.802	0.0168174
640.880	0.0168584
640.958	0.0166708
641.036	0.0168790
641.114	0.0168604
641.192	0.0166797
641.271	0.0167252
641.349	0.0168530
641.427	0.0169363
641.505	0.0166762
641.583	0.0168042
641.661	0.0167403
641.739	0.0166388
641.817	0.0167708
641.896	0.0166574
641.974	0.0165655
642.052	0.0168513
642.130	0.0167274
642.208	0.0166781
642.286	0.0167667
642.364	0.0166501
642.442	0.0165668
642.521	0.0167371
642.599	0.0168060
642.677	0.0166354
642.755	0.0166601
642.833	0.0166742
642.911	0.0166373
642.989	0.0165194
643.067	0.0165778
643.146	0.0164828
643.224	0.0166936
643.302	0.0167530
643.380	0.0167385
643.458	0.0166003
643.536	0.0166106
643.614	0.0166337
643.692	0.0165201
643.771	0.0165658
643.849	0.0166273
643.927	0.0166115
644.005	0.0166392
644.083	0.0165744
644.161	0.0165334
644.239	0.0167649
644.317	0.0166148
644.396	0.0165617
644.474	0.0165938
644.552	0.0166399
644.630	0.0164835
644.708	0.0164872
644.786	0.0166111
644.864	0.0166549
644.942	0.0165456
645.021	0.0164651
645.099	0.0164304
645.177	0.0166188
645.255	0.0165319
645.333	0.0164771
645.411	0.0164292
645.489	0.0165592
645.567	0.0166573
645.646	0.0165403
645.724	0.0164850
645.802	0.0165894
645.880	0.0165112
645.958	0.0164324
646.036	0.0166156
646.114	0.0166964
646.192	0.0165381
646.271	0.0164407
646.349	0.0166243
646.427	0.0165324
646.505	0.0165202
646.583	0.0165784
646.661	0.0166694
646.739	0.0165454
646.817	0.0165356
646.896	0.0164799
646.974	0.0164240
647.052	0.0165999
647.130	0.0166859
647.208	0.0166425
647.286	0.0164720
647.364	0.0166069
647.442	0.0166058
647.521	0.0165109
647.599	0.0166433
647.677	0.0166765
647.755	0.0165697
647.833	0.0166383
647.911	0.0166135
647.989	0.0165586
648.067	0.0165015
648.146	0.0166142
648.224	0.0166399
648.302	0.0165219
648.380	0.0165024
648.458	0.0165555
648.536	0.0167046
648.614	0.0166032
648.692	0.0165084
648.771	0.0165631
648.849	0.0166105
648.927	0.0163350
649.005	0.0165937
649.083	0.0165630
649.161	0.0164587
649.239	0.0166056
649.317	0.0166103
649.396	0.0165246
649.474	0.0166843
649.552	0.0166148
649.630	0.0166290
649.708	0.0166791
649.786	0.0166167
649.864	0.0166055
649.942	0.0166270
650.021	0.0167033
650.099	0.0167472
650.177	0.0165958
650.255	0.0167075
650.333	0.0166862
650.411	0.0168635
650.489	0.0166711
650.567	0.0167151
650.646	0.0166544
650.724	0.0168011
650.802	0.0168217
650.880	0.0168620
650.958	0.0167277
651.036	0.0166269
651.114	0.0166348
651.192	0.0166051
651.271	0.0166707
651.349	0.0166079
651.427	0.0166058
651.505	0.0166068
651.583	0.0167637
651.661	0.0166678
651.739	0.0166313
651.817	0.0166972
651.896	0.0165627
651.974	0.0167080
652.052	0.0166270
652.130	0.0165856
652.208	0.0166405
652.286	0.0166738
652.364	0.0167747
652.442	0.0167836
652.521	0.0166135
652.599	0.0165080
652.677	0.0167695
652.755	0.0167614
652.833	0.0165966
652.911	0.0167626
652.989	0.0167355
653.067	0.0165556
653.146	0.0166165
653.224	0.0167148
653.302	0.0166982
653.380	0.0166824
653.458	0.0167400
653.536	0.0167215
653.614	0.0166867
653.692	0.0167201
653.771	0.0165641
653.849	0.0166216
653.927	0.0166321
654.005	0.0166500
654.083	0.0165375
654.161	0.0166686
654.239	0.0165228
654.317	0.0164266
654.396	0.0164738
654.474	0.0165023
654.552	0.0164806
654.630	0.0164178
654.708	0.0164580
654.786	0.0165080
654.864	0.0164076
654.942	0.0166290
655.021	0.0166084
655.099	0.0165788
655.177	0.0164879
655.255	0.0165210
655.333	0.0165431
655.411	0.0165246
655.489	0.0165968
655.567	0.0167614
655.646	0.0166189
655.724	0.0168009
655.802	0.0166982
655.880	0.0167583
655.958	0.0166553
656.036	0.0166022
656.114	0.0168145
656.192	0.0167529
656.271	0.0168310
656.349	0.0165614
656.427	0.0167499
656.505	0.0167058
656.583	0.0168572
656.661	0.0166658
656.739	0.0167362
656.817	0.0165980
656.896	0.0168021
656.974	0.0166816
657.052	0.0165716
657.130	0.0165496
657.208	0.0165790
657.286	0.0165643
657.364	0.0164655
657.442	0.0165617
657.521	0.0166300
657.599	0.0164840
657.677	0.0165809
657.755	0.0166324
657.833	0.0165021
657.911	0.0164742
657.989	0.0165050
658.067	0.0164697
658.146	0.0164771
658.224	0.0165877
658.302	0.0165746
658.380	0.0165256
658.458	0.0165717
658.536	0.0166441
658.614	0.0164272
658.692	0.0165101
658.771	0.0164622
658.849	0.0165790
658.927	0.0168073
659.005	0.0165946
659.083	0.0165215
659.161	0.0166450
659.239	0.0165737
659.317	0.0165954
659.396	0.0165938
659.474	0.0166292
659.552	0.0166387
659.630	0.0166422
659.708	0.0165949
659.786	0.0166947
659.864	0.0166245
659.942	0.0167386
660.021	0.0166405
660.099	0.0166001
660.177	0.0164742
660.255	0.0166470
660.333	0.0166972
660.411	0.0166195
660.489	0.0166167
660.567	0.0166403
660.646	0.0165993
660.724	0.0167436
660.802	0.0166383
660.880	0.0164776
660.958	0.0165058
661.036	0.0166282
661.114	0.0165668
661.192	0.0165667
661.271	0.0166174
661.349	0.0166017
661.427	0.0166084
661.505	0.0164377
661.583	0.0165732
661.661	0.0164961
661.739	0.0164547
661.817	0.0165744
661.896	0.0167639
661.974	0.0167317
662.052	0.0166150
662.130	0.0167072
662.208	0.0167047
662.286	0.0165723
662.364	0.0167406
662.442	0.0168244
662.521	0.0166833
662.599	0.0167682
662.677	0.0168307
662.755	0.0168294
662.833	0.0168369
662.911	0.0167628
662.989	0.0167947
663.067	0.0167575
663.146	0.0166749
663.224	0.0167367
663.302	0.0167728
663.380	0.0167944
663.458	0.0166493
663.536	0.0166019
663.614	0.0164797
663.692	0.0167359
663.771	0.0167441
663.849	0.0166878
663.927	0.0167372
664.005	0.0166917
664.083	0.0166648
664.161	0.0166068
664.239	0.0165915
664.317	0.0165607
664.396	0.0164924
664.474	0.0165961
664.552	0.0166653
664.630	0.0166624
664.708	0.0166958
664.786	0.0165463
664.864	0.0165582
664.942	0.0165859
665.021	0.0166493
665.099	0.0165130
665.177	0.0165224
665.255	0.0164716
665.333	0.0167239
665.411	0.0166770
665.489	0.0164852
665.567	0.0165422
665.646	0.0165005
665.724	0.0164716
665.802	0.0165717
665.880	0.0164296
665.958	0.0164152
666.036	0.0165545
666.114	0.0165617
666.192	0.0163366
666.271	0.0164220
666.349	0.0163551
666.427	0.0165007
666.505	0.0165257
666.583	0.0163838
666.661	0.0163294
666.739	0.0164722
666.817	0.0163761
666.896	0.0164124
666.974	0.0164352
667.052	0.0163046
667.130	0.0164038
667.208	0.0162549
667.286	0.0161958
667.364	0.0162625
667.442	0.0163638
667.521	0.0162975
667.599	0.0163638
667.677	0.0163727
667.755	0.0162936
667.833	0.0162329
667.911	0.0163787
667.989	0.0162980
668.067	0.0164016
668.146	0.0164164
668.224	0.0162585
668.302	0.0163197
668.380	0.0163117
668.458	0.0163512
668.536	0.0164550
668.614	0.0163294
668.692	0.0166709
668.771	0.0165383
668.849	0.0163935
668.927	0.0163843
669.005	0.0165855
669.083	0.0165331
669.161	0.0165844
669.239	0.0166525
669.317	0.0165932
669.396	0.0165813
669.474	0.0165411
669.552	0.0164578
669.630	0.0164252
669.708	0.0164082
669.786	0.0163643
669.864	0.0164095
669.942	0.0164284
670.021	0.0162925
670.099	0.0163436
670.177	0.0161924
670.255	0.0162632
670.333	0.0163122
670.411	0.0162334
670.489	0.0162483
670.567	0.0161344
670.646	0.0163264
670.724	0.0163501
670.802	0.0163126
670.880	0.0162312
670.958	0.0163359
671.036	0.0162957
671.114	0.0162291
671.192	0.0162724
671.271	0.0163809
671.349	0.0162863
671.427	0.0164798
671.505	0.0163676
671.583	0.0162975
671.661	0.0163522
671.739	0.0163368
671.817	0.0163515
671.896	0.0163648
671.974	0.0164698
672.052	0.0163056
672.130	0.0165137
672.208	0.0166075
672.286	0.0163674
672.364	0.0165414
672.442	0.0167295
672.521	0.0166659
672.599	0.0166001
672.677	0.0165961
672.755	0.0166000
672.833	0.0167741
672.911	0.0166586
672.989	0.0167640
673.067	0.0167612
673.146	0.0165445
673.224	0.0165755
673.302	0.0165858
673.380	0.0165009
673.458	0.0167621
673.536	0.0166149
673.614	0.0165920
673.692	0.0165987
673.771	0.0164973
673.849	0.0166398
673.927	0.0166897
674.005	0.0164909
674.083	0.0163522
674.161	0.0165992
674.239	0.0167505
674.317	0.0166529
674.396	0.0166979
674.474	0.0167107
674.552	0.0167131
674.630	0.0166531
674.708	0.0166357
674.786	0.0166796
674.864	0.0167715
674.942	0.0166694
675.021	0.0167400
675.099	0.0166598
675.177	0.0166873
675.255	0.0166139
675.333	0.0166816
675.411	0.0166743
675.489	0.0167291
675.567	0.0166647
675.646	0.0166759
675.724	0.0166737
675.802	0.0165377
675.880	0.0164252
675.958	0.0164777
676.036	0.0165051
676.114	0.0164247
676.192	0.0164751
676.271	0.0163805
676.349	0.0164221
676.427	0.0163552
676.505	0.0163096
676.583	0.0163412
676.661	0.0162527
676.739	0.0164423
676.817	0.0164280
676.896	0.0164659
676.974	0.0163715
677.052	0.0164794
677.130	0.0164418
677.208	0.0165285
677.286	0.0164820
677.364	0.0165582
677.442	0.0165260
677.521	0.0166566
677.599	0.0166247
677.677	0.0165120
677.755	0.0164422
677.833	0.0164702
677.911	0.0165963
677.989	0.0165263
678.067	0.0164866
678.146	0.0165283
678.224	0.0166431
678.302	0.0164354
678.380	0.0164382
678.458	0.0163903
678.536	0.0164593
678.614	0.0165208
678.692	0.0164227
678.771	0.0165070
678.849	0.0164479
678.927	0.0164946
679.005	0.0165982
679.083	0.0165626
679.161	0.0165775
679.239	0.0164662
679.317	0.0164803
679.396	0.0164368
679.474	0.0166055
679.552	0.0164771
679.630	0.0167017
679.708	0.0166056
679.786	0.0165312
679.864	0.0165979
679.942	0.0165698
680.021	0.0166342
680.099	0.0164787
680.177	0.0166207
680.255	0.0167400
680.333	0.0168090
680.411	0.0166824
680.489	0.0167556
680.567	0.0167223
680.646	0.0165534
680.724	0.0166917
680.802	0.0167033
680.880	0.0165993
680.958	0.0165397
681.036	0.0166377
681.114	0.0165778
681.192	0.0165511
681.271	0.0164713
681.349	0.0165206
681.427	0.0165087
681.505	0.0165031
681.583	0.0163673
681.661	0.0163895
681.739	0.0164524
681.817	0.0162606
681.896	0.0164366
681.974	0.0164297
682.052	0.0162414
682.130	0.0163779
682.208	0.0163065
682.286	0.0162543
682.364	0.0161999
682.442	0.0161936
682.521	0.0163845
682.599	0.0161971
682.677	0.0162872
682.755	0.0164011
682.833	0.0164116
682.911	0.0164287
682.989	0.0164433
683.067	0.0164706
683.146	0.0164629
683.224	0.0165269
683.302	0.0165398
683.380	0.0165724
683.458	0.0164830
683.536	0.0166236
683.614	0.0165310
683.692	0.0165266
683.771	0.0165242
683.849	0.0164787
683.927	0.0165070
684.005	0.0163728
684.083	0.0164660
684.161	0.0166048
684.239	0.0164943
684.317	0.0165172
684.396	0.0163539
684.474	0.0163128
684.552	0.0163936
684.630	0.0163759
684.708	0.0162937
684.786	0.0164320
684.864	0.0163530
684.942	0.0162041
685.021	0.0163281
685.099	0.0164156
685.177	0.0162938
685.255	0.0163449
685.333	0.0163535
685.411	0.0164372
685.489	0.0163825
685.567	0.0163381
685.646	0.0163274
685.724	0.0163306
685.802	0.0164487
685.880	0.0164117
685.958	0.0164272
686.036	0.0162198
686.114	0.0162605
686.192	0.0164611
686.271	0.0163440
686.349	0.0165373
686.427	0.0164780
686.505	0.0163873
686.583	0.0164798
686.661	0.0164651
686.739	0.0164787
686.817	0.0164372
686.896	0.0164268
686.974	0.0164861
687.052	0.0165215
687.130	0.0166047
687.208	0.0163720
687.286	0.0163994
687.364	0.0164471
687.442	0.0166203
687.521	0.0163656
687.599	0.0164732
687.677	0.0165218
687.755	0.0164962
687.833	0.0165149
687.911	0.0164546
687.989	0.0164300
688.067	0.0164438
688.146	0.0164384
688.224	0.0163670
688.302	0.0164211
688.380	0.0163740
688.458	0.0165456
688.536	0.0164982
688.614	0.0164203
688.692	0.0165588
688.771	0.0166578
688.849	0.0165189
688.927	0.0165742
689.005	0.0165748
689.083	0.0166403
689.161	0.0165796
689.239	0.0166994
689.317	0.0166456
689.396	0.0166647
689.474	0.0166159
689.552	0.0164365
689.630	0.0165930
689.708	0.0164243
689.786	0.0165546
689.864	0.0166139
689.942	0.0165072
690.021	0.0165267
690.099	0.0163805
690.177	0.0164723
690.255	0.0162538
690.333	0.0162785
690.411	0.0162035
690.489	0.0161116
690.567	0.0162533
690.646	0.0162746
690.724	0.0162051
690.802	0.0162533
690.880	0.0162313
690.958	0.0163054
691.036	0.0164095
691.114	0.0164585
691.192	0.0163728
691.271	0.0164076
691.349	0.0163600
691.427	0.0164439
691.505	0.0163865
691.583	0.0162868
691.661	0.0165488
691.739	0.0166115
691.817	0.0164970
691.896	0.0165459
691.974	0.0165534
692.052	0.0167146
692.130	0.0166479
692.208	0.0166544
692.286	0.0166417
692.364	0.0166289
692.442	0.0166339
692.521	0.0166421
692.599	0.0165051
692.677	0.0166273
692.755	0.0164834
692.833	0.0164576
692.911	0.0164816
692.989	0.0164307
693.067	0.0165343
693.146	0.0165522
693.224	0.0163476
693.302	0.0164679
693.380	0.0165304
693.458	0.0164840
693.536	0.0166292
693.614	0.0165187
693.692	0.0165796
693.771	0.0166824
693.849	0.0165570
693.927	0.0167101
694.005	0.0166163
694.083	0.0166537
694.161	0.0167518
694.239	0.0166724
694.317	0.0167176
694.396	0.0166174
694.474	0.0166360
694.552	0.0167139
694.630	0.0167805
694.708	0.0167481
694.786	0.0166612
694.864	0.0166998
694.942	0.0167458
695.021	0.0166330
695.099	0.0167900
695.177	0.0166915
695.255	0.0168311
695.333	0.0169135
695.411	0.0167873
695.489	0.0167948
695.567	0.0168729
695.646	0.0168378
695.724	0.0167816
695.802	0.0167764
695.880	0.0167502
695.958	0.0169478
696.036	0.0168865
696.114	0.0168150
696.192	0.0169807
696.271	0.0168117
696.349	0.0167573
696.427	0.0167529
696.505	0.0168178
696.583	0.0167165
696.661	0.0168613
696.739	0.0167558
696.817	0.0167928
696.896	0.0167140
696.974	0.0166001
697.052	0.0165852
697.130	0.0167796
697.208	0.0167197
697.286	0.0165991
697.364	0.0165655
697.442	0.0165054
697.521	0.0164905
697.599	0.0164828
697.677	0.0165526
697.755	0.0164758
697.833	0.0163674
697.911	0.0164486
697.989	0.0163122
698.067	0.0162939
698.146	0.0164092
698.224	0.0162877
698.302	0.0163076
698.380	0.0163884
698.458	0.0163590
698.536	0.0162853
698.614	0.0163320
698.692	0.0164417
698.771	0.0163964
698.849	0.0165882
698.927	0.0165247
699.005	0.0164363
699.083	0.0165757
699.161	0.0166035
699.239	0.0166147
699.317	0.0166417
699.396	0.0166129
699.474	0.0166562
699.552	0.0165984
699.630	0.0166888
699.708	0.0166615
699.786	0.0166306
699.864	0.0166232
699.942	0.0166090
700.021	0.0168121
700.099	0.0166516
700.177	0.0166718
700.255	0.0166190
700.333	0.0167267
700.411	0.0166478
700.489	0.0167834
700.567	0.0165565
700.646	0.0165335
700.724	0.0166160
700.802	0.0166273
700.880	0.0165609
700.958	0.0166021
701.036	0.0165649
701.114	0.0165463
701.192	0.0166936
701.271	0.0165944
701.349	0.0165052
701.427	0.0165189
701.505	0.0164470
701.583	0.0164661
701.661	0.0164147
701.739	0.0164632
701.817	0.0165873
701.896	0.0164500
701.974	0.0165076
702.052	0.0165150
702.130	0.0164828
702.208	0.0166687
702.286	0.0166557
702.364	0.0164916
702.442	0.0165511
702.521	0.0166538
702.599	0.0166610
702.677	0.0165993
702.755	0.0166824
702.833	0.0166787
702.911	0.0166277
702.989	0.0167970
703.067	0.0166091
703.146	0.0165730
703.224	0.0166232
703.302	0.0167094
703.380	0.0166348
703.458	0.0165822
703.536	0.0166389
703.614	0.0167658
703.692	0.0165554
703.771	0.0166635
703.849	0.0166294
703.927	0.0165868
704.005	0.0164796
704.083	0.0166876
704.161	0.0166703
704.239	0.0164702
704.317	0.0166612
704.396	0.0165495
704.474	0.0166430
704.552	0.0166404
704.630	0.0165753
704.708	0.0166622
704.786	0.0167698
704.864	0.0167479
704.942	0.0166808
705.021	0.0167323
705.099	0.0167905
705.177	0.0167953
705.255	0.0167162
705.333	0.0168382
705.411	0.0168378
705.489	0.0168050
705.567	0.0168050
705.646	0.0168513
705.724	0.0168510
705.802	0.0168311
705.880	0.0166256
705.958	0.0167613
706.036	0.0166694
706.114	0.0165787
706.192	0.0167315
706.271	0.0166789
706.349	0.0166973
706.427	0.0165723
706.505	0.0164523
706.583	0.0166444
706.661	0.0166349
706.739	0.0165684
706.817	0.0167050
706.896	0.0167000
706.974	0.0167673
707.052	0.0168441
707.130	0.0164967
707.208	0.0164851
707.286	0.0167265
707.364	0.0167591
707.442	0.0165680
707.521	0.0165689
707.599	0.0167317
707.677	0.0165866
707.755	0.0165983
707.833	0.0166064
707.911	0.0164716
707.989	0.0164301
708.067	0.0164193
708.146	0.0163746
708.224	0.0164074
708.302	0.0164259
708.380	0.0163074
708.458	0.0163304
708.536	0.0163188
708.614	0.0163360
708.692	0.0163476
708.771	0.0162695
708.849	0.0163322
708.927	0.0163977
709.005	0.0162457
709.083	0.0164259
709.161	0.0163148
709.239	0.0162926
709.317	0.0164720
709.396	0.0163228
709.474	0.0163940
709.552	0.0164702
709.630	0.0163611
709.708	0.0165376
709.786	0.0163943
709.864	0.0164213
709.942	0.0164930
710.021	0.0163887
710.099	0.0164394
710.177	0.0165209
710.255	0.0165312
710.333	0.0164733
710.411	0.0164537
710.489	0.0164999
710.567	0.0165333
710.646	0.0165562
710.724	0.0166544
710.802	0.0165827
710.880	0.0166054
710.958	0.0166273
711.036	0.0166747
711.114	0.0166279
711.192	0.0167964
711.271	0.0166685
711.349	0.0166610
711.427	0.0166814
711.505	0.0166743
711.583	0.0167169
711.661	0.0168018
711.739	0.0168230
711.817	0.0168630
711.896	0.0167576
711.974	0.0167093
712.052	0.0168092
712.130	0.0168400
712.208	0.0167071
712.286	0.0167219
712.364	0.0164674
712.442	0.0168217
712.521	0.0167264
712.599	0.0164888
712.677	0.0164845
712.755	0.0165465
712.833	0.0164973
712.911	0.0165831
712.989	0.0166080
713.067	0.0165676
713.146	0.0165174
713.224	0.0165653
713.302	0.0165809
713.380	0.0166584
713.458	0.0166087
713.536	0.0163808
713.614	0.0165389
713.692	0.0164992
713.771	0.0164146
713.849	0.0164479
713.927	0.0165002
714.005	0.0164955
714.083	0.0163737
714.161	0.0165179
714.239	0.0165533
714.317	0.0163899
714.396	0.0165286
714.474	0.0165599
714.552	0.0166339
714.630	0.0165141
714.708	0.0165459
714.786	0.0167709
714.864	0.0166886
714.942	0.0166528
715.021	0.0166434
715.099	0.0168040
715.177	0.0167313
715.255	0.0168050
715.333	0.0167613
715.411	0.0167795
715.489	0.0167726
715.567	0.0167941
715.646	0.0167602
715.724	0.0168955
715.802	0.0168860
715.880	0.0169191
715.958	0.0168521
716.036	0.0167600
716.114	0.0168842
716.192	0.0168966
716.271	0.0168546
716.349	0.0167850
716.427	0.0167694
716.505	0.0168276
716.583	0.0168279
716.661	0.0168164
716.739	0.0168090
716.817	0.0167754
716.896	0.0166708
716.974	0.0167546
717.052	0.0167338
717.130	0.0166965
717.208	0.0167944
717.286	0.0167321
717.364	0.0167526
717.442	0.0166973
717.521	0.0168713
717.599	0.0167216
717.677	0.0167616
717.755	0.0168707
717.833	0.0167931
717.911	0.0168134
717.989	0.0168079
718.067	0.0166976
718.146	0.0167812
718.224	0.0167281
718.302	0.0167395
718.380	0.0167498
718.458	0.0169052
718.536	0.0167770
718.614	0.0168307
718.692	0.0168363
718.771	0.0168738
718.849	0.0167532
718.927	0.0168221
719.005	0.0168085
719.083	0.0167540
719.161	0.0169688
719.239	0.0168271
719.317	0.0167706
719.396	0.0168937
719.474	0.0169423
719.552	0.0167592
719.630	0.0168591
719.708	0.0167884
719.786	0.0167648
719.864	0.0167110
719.942	0.0167356
720.021	0.0167778
720.099	0.0166057
720.177	0.0167618
720.255	0.0167001
720.333	0.0169371
720.411	0.0168140
720.489	0.0166709
720.567	0.0167579
720.646	0.0168637
720.724	0.0165569
720.802	0.0165384
720.880	0.0165708
720.958	0.0167424
721.036	0.0167136
721.114	0.0165828
721.192	0.0166490
721.271	0.0165873
721.349	0.0165932
721.427	0.0165810
721.505	0.0166326
721.583	0.0165414
721.661	0.0165542
721.739	0.0164951
721.817	0.0164053
721.896	0.0167786
721.974	0.0165804
722.052	0.0166463
722.130	0.0165348
722.208	0.0165640
722.286	0.0165748
722.364	0.0166529
722.442	0.0167246
722.521	0.0167133
722.599	0.0166351
722.677	0.0166753
722.755	0.0167170
722.833	0.0166212
722.911	0.0166434
722.989	0.0166518
723.067	0.0166301
723.146	0.0166088
723.224	0.0167210
723.302	0.0165685
723.380	0.0164700
723.458	0.0164205
723.536	0.0165051
723.614	0.0164615
723.692	0.0166063
723.771	0.0165990
723.849	0.0164790
723.927	0.0165013
724.005	0.0166039
724.083	0.0166872
724.161	0.0165944
724.239	0.0165781
724.317	0.0166631
724.396	0.0166182
724.474	0.0166294
724.552	0.0163470
724.630	0.0164659
724.708	0.0166676
724.786	0.0166663
724.864	0.0166070
724.942	0.0166567
725.021	0.0165811
725.099	0.0166234
725.177	0.0165980
725.255	0.0166673
725.333	0.0165639
725.411	0.0165849
725.489	0.0168353
725.567	0.0166904
725.646	0.0166722
725.724	0.0165839
725.802	0.0166397
725.880	0.0165801
725.958	0.0165971
726.036	0.0164861
726.114	0.0167905
726.192	0.0165809
726.271	0.0165153
726.349	0.0165578
726.427	0.0166340
726.505	0.0167000
726.583	0.0166351
726.661	0.0167432
726.739	0.0165875
726.817	0.0166343
726.896	0.0166751
726.974	0.0167044
727.052	0.0167121
727.130	0.0168414
727.208	0.0167939
727.286	0.0167827
727.364	0.0168304
727.442	0.0168620
727.521	0.0168621
727.599	0.0166565
727.677	0.0168159
727.755	0.0168359
727.833	0.0167276
727.911	0.0168496
727.989	0.0168887
728.067	0.0166196
728.146	0.0167458
728.224	0.0168795
728.302	0.0167715
728.380	0.0168671
728.458	0.0167275
728.536	0.0168568
728.614	0.0167802
728.692	0.0167683
728.771	0.0167737
728.849	0.0168221
728.927	0.0165350
729.005	0.0166881
729.083	0.0166673
729.161	0.0165437
729.239	0.0166467
729.317	0.0166219
729.396	0.0166080
729.474	0.0166333
729.552	0.0166456
729.630	0.0166779
729.708	0.0164892
729.786	0.0164580
729.864	0.0165661
729.942	0.0167400
730.021	0.0166116
730.099	0.0165698
730.177	0.0166366
730.255	0.0166878
730.333	0.0166690
730.411	0.0165688
730.489	0.0167022
730.567	0.0166547
730.646	0.0166814
730.724	0.0167788
730.802	0.0166652
730.880	0.0167718
730.958	0.0166886
731.036	0.0166729
731.114	0.0166800
731.192	0.0166075
731.271	0.0165861
731.349	0.0165697
731.427	0.0166489
731.505	0.0166688
731.583	0.0166217
731.661	0.0165379
731.739	0.0165421
731.817	0.0165698
731.896	0.0166038
731.974	0.0165200
732.052	0.0166299
732.130	0.0165686
732.208	0.0164766
732.286	0.0165591
732.364	0.0166936
732.442	0.0166457
732.521	0.0167221
732.599	0.0166141
732.677	0.0166232
732.755	0.0166064
732.833	0.0167313
732.911	0.0167150
732.989	0.0167046
733.067	0.0167286
733.146	0.0167390
733.224	0.0167470
733.302	0.0167196
733.380	0.0167312
733.458	0.0168544
733.536	0.0167804
733.614	0.0168198
733.692	0.0167736
733.771	0.0166097
733.849	0.0166595
733.927	0.0167145
734.005	0.0166888
734.083	0.0165849
734.161	0.0165652
734.239	0.0167804
734.317	0.0167645
734.396	0.0167397
734.474	0.0166915
734.552	0.0165507
734.630	0.0166215
734.708	0.0167775
734.786	0.0165720
734.864	0.0167480
734.942	0.0167487
735.021	0.0167825
735.099	0.0167183
735.177	0.0166523
735.255	0.0166799
735.333	0.0167356
735.411	0.0166917
735.489	0.0166886
735.567	0.0166230
735.646	0.0166547
735.724	0.0165316
735.802	0.0165337
735.880	0.0166552
735.958	0.0166267
736.036	0.0164902
736.114	0.0165289
736.192	0.0166185
736.271	0.0166570
736.349	0.0164448
736.427	0.0163798
736.505	0.0165083
736.583	0.0164652
736.661	0.0165929
736.739	0.0165540
736.817	0.0164209
736.896	0.0165698
736.974	0.0165691
737.052	0.0164863
737.130	0.0164754
737.208	0.0165286
737.286	0.0167104
737.364	0.0166491
737.442	0.0165679
737.521	0.0166629
737.599	0.0165750
737.677	0.0164153
737.755	0.0166346
737.833	0.0165891
737.911	0.0165786
737.989	0.0166449
738.067	0.0165848
738.146	0.0165659
738.224	0.0166744
738.302	0.0165948
738.380	0.0165851
738.458	0.0166295
738.536	0.0166862
738.614	0.0165475
738.692	0.0165448
738.771	0.0167037
738.849	0.0166225
738.927	0.0166050
739.005	0.0165607
739.083	0.0164861
739.161	0.0165310
739.239	0.0165408
739.317	0.0164193
739.396	0.0164691
739.474	0.0165405
739.552	0.0164587
739.630	0.0164709
739.708	0.0165414
739.786	0.0164424
739.864	0.0166743
739.942	0.0165038
740.021	0.0164785
740.099	0.0166207
740.177	0.0166125
740.255	0.0165562
740.333	0.0164724
740.411	0.0163888
740.489	0.0164559
740.567	0.0164137
740.646	0.0163713
740.724	0.0164190
740.802	0.0163618
740.880	0.0164012
740.958	0.0164666
741.036	0.0165797
741.114	0.0164582
741.192	0.0164867
741.271	0.0165191
741.349	0.0164668
741.427	0.0164806
741.505	0.0165379
741.583	0.0164909
741.661	0.0165103
741.739	0.0166202
741.817	0.0164525
741.896	0.0165681
741.974	0.0166492
742.052	0.0166495
742.130	0.0165263
742.208	0.0165788
742.286	0.0166078
742.364	0.0164889
742.442	0.0164909
742.521	0.0165504
742.599	0.0166048
742.677	0.0167278
742.755	0.0166659
742.833	0.0165879
742.911	0.0166031
742.989	0.0166981
743.067	0.0164808
743.146	0.0166101
743.224	0.0166844
743.302	0.0166108
743.380	0.0167426
743.458	0.0166207
743.536	0.0165247
743.614	0.0166516
743.692	0.0165945
743.771	0.0164737
743.849	0.0165603
743.927	0.0165919
744.005	0.0165836
744.083	0.0166170
744.161	0.0165939
744.239	0.0165557
744.317	0.0166354
744.396	0.0165249
744.474	0.0166801
744.552	0.0166691
744.630	0.0167547
744.708	0.0165491
744.786	0.0166362
744.864	0.0166945
744.942	0.0167489
745.021	0.0166415
745.099	0.0166494
745.177	0.0167290
745.255	0.0165411
745.333	0.0165651
745.411	0.0165862
745.489	0.0165526
745.567	0.0164033
745.646	0.0164951
745.724	0.0166579
745.802	0.0165558
745.880	0.0164928
745.958	0.0166063
746.036	0.0165475
746.114	0.0165940
746.192	0.0164978
746.271	0.0167088
746.349	0.0166490
746.427	0.0165168
746.505	0.0166970
746.583	0.0167036
746.661	0.0164922
746.739	0.0166882
746.817	0.0167088
746.896	0.0167379
746.974	0.0167551
747.052	0.0167107
747.130	0.0166084
747.208	0.0165056
747.286	0.0165466
747.364	0.0165205
747.442	0.0166454
747.521	0.0165541
747.599	0.0164376
747.677	0.0166943
747.755	0.0166100
747.833	0.0164964
747.911	0.0164771
747.989	0.0164969
748.067	0.0166134
748.146	0.0165329
748.224	0.0165892
748.302	0.0166508
748.380	0.0166886
748.458	0.0166009
748.536	0.0166752
748.614	0.0167226
748.692	0.0167104
748.771	0.0166549
748.849	0.0165912
748.927	0.0166999
749.005	0.0167006
749.083	0.0166206
749.161	0.0166413
749.239	0.0166796
749.317	0.0166808
749.396	0.0167514
749.474	0.0166305
749.552	0.0165910
749.630	0.0166953
749.708	0.0167028
749.786	0.0165989
749.864	0.0167353
749.942	0.0165214
750.021	0.0166476
750.099	0.0165324
750.177	0.0164536
750.255	0.0166151
750.333	0.0165865
750.411	0.0165658
750.489	0.0165408
750.567	0.0165352
750.646	0.0166246
750.724	0.0164529
750.802	0.0165429
750.880	0.0165534
750.958	0.0165816
751.036	0.0165566
751.114	0.0165489
751.192	0.0165598
751.271	0.0166319
751.349	0.0165904
751.427	0.0164925
751.505	0.0164997
751.583	0.0166099
751.661	0.0166681
751.739	0.0164540
751.817	0.0165093
751.896	0.0167033
751.974	0.0166237
752.052	0.0166460
752.130	0.0164387
752.208	0.0166046
752.286	0.0166343
752.364	0.0166193
752.442	0.0167909
752.521	0.0168037
752.599	0.0165376
752.677	0.0166779
752.755	0.0166461
752.833	0.0166385
752.911	0.0167419
752.989	0.0166350
753.067	0.0165745
753.146	0.0167117
753.224	0.0167370
753.302	0.0165853
753.380	0.0166718
753.458	0.0165646
753.536	0.0165092
753.614	0.0165457
753.692	0.0166588
753.771	0.0165806
753.849	0.0165694
753.927	0.0164174
754.005	0.0164639
754.083	0.0165904
754.161	0.0166780
754.239	0.0166417
754.317	0.0164488
754.396	0.0166154
754.474	0.0164948
754.552	0.0164800
754.630	0.0166088
754.708	0.0164838
754.786	0.0164243
754.864	0.0165347
754.942	0.0164938
755.021	0.0164259
755.099	0.0165285
755.177	0.0167015
755.255	0.0165591
755.333	0.0166475
755.411	0.0165188
755.489	0.0165267
755.567	0.0167316
755.646	0.0165646
755.724	0.0164869
755.802	0.0166306
755.880	0.0164941
755.958	0.0167073
756.036	0.0167160
756.114	0.0165781
756.192	0.0166180
756.271	0.0166734
756.349	0.0167470
756.427	0.0167781
756.505	0.0166154
756.583	0.0166753
756.661	0.0168130
756.739	0.0166267
756.817	0.0167760
756.896	0.0167391
756.974	0.0166198
757.052	0.0167970
757.130	0.0167619
757.208	0.0166431
757.286	0.0166560
757.364	0.0167019
757.442	0.0166957
757.521	0.0165011
757.599	0.0164590
757.677	0.0166895
757.755	0.0165664
757.833	0.0165715
757.911	0.0166080
757.989	0.0165441
758.067	0.0165113
758.146	0.0166852
758.224	0.0167229
758.302	0.0165746
758.380	0.0165720
758.458	0.0164381
758.536	0.0164616
758.614	0.0165587
758.692	0.0166324
758.771	0.0165966
758.849	0.0165630
758.927	0.0165887
759.005	0.0165609
759.083	0.0166148
759.161	0.0165159
759.239	0.0166330
759.317	0.0165862
759.396	0.0164444
759.474	0.0165061
759.552	0.0164580
759.630	0.0162922
759.708	0.0164275
759.786	0.0165996
759.864	0.0165446
759.942	0.0164713
760.021	0.0163607
760.099	0.0164973
760.177	0.0166563
760.255	0.0165365
760.333	0.0164308
760.411	0.0165211
760.489	0.0163521
760.567	0.0164425
760.646	0.0162505
760.724	0.0164523
760.802	0.0165376
760.880	0.0165761
760.958	0.0163854
761.036	0.0164835
761.114	0.0164252
761.192	0.0164862
761.271	0.0165578
761.349	0.0165627
761.427	0.0163898
761.505	0.0162636
761.583	0.0163901
761.661	0.0162201
761.739	0.0164145
761.817	0.0164004
761.896	0.0163531
761.974	0.0163044
762.052	0.0163100
762.130	0.0163135
762.208	0.0164397
762.286	0.0163705
762.364	0.0164191
762.442	0.0163416
762.521	0.0163564
762.599	0.0164059
762.677	0.0164211
762.755	0.0165164
762.833	0.0164945
762.911	0.0165107
762.989	0.0163051
763.067	0.0163865
763.146	0.0165374
763.224	0.0165307
763.302	0.0165416
763.380	0.0164410
763.458	0.0165018
763.536	0.0165897
763.614	0.0165244
763.692	0.0165733
763.771	0.0165095
763.849	0.0166031
763.927	0.0165208
764.005	0.0165974
764.083	0.0167047
764.161	0.0165334
764.239	0.0165405
764.317	0.0165719
764.396	0.0165710
764.474	0.0165577
764.552	0.0164220
764.630	0.0165556
764.708	0.0165649
764.786	0.0165945
764.864	0.0164827
764.942	0.0164178
765.021	0.0163511
765.099	0.0163743
765.177	0.0163737
765.255	0.0164430
765.333	0.0165289
765.411	0.0163770
765.489	0.0163982
765.567	0.0163012
765.646	0.0164069
765.724	0.0164868
765.802	0.0164633
765.880	0.0164621
765.958	0.0163501
766.036	0.0164521
766.114	0.0165453
766.192	0.0163549
766.271	0.0164210
766.349	0.0165296
766.427	0.0164345
766.505	0.0163799
766.583	0.0165293
766.661	0.0165536
766.739	0.0164841
766.817	0.0163935
766.896	0.0164606
766.974	0.0163977
767.052	0.0164545
767.130	0.0165480
767.208	0.0165482
767.286	0.0164265
767.364	0.0166261
767.442	0.0164906
767.521	0.0165340
767.599	0.0165534
767.677	0.0164998
767.755	0.0165371
767.833	0.0164693
767.911	0.0164821
767.989	0.0165173
768.067	0.0165824
768.146	0.0165163
768.224	0.0165762
768.302	0.0165688
768.380	0.0164957
768.458	0.0163732
768.536	0.0164954
768.614	0.0165656
768.692	0.0165707
768.771	0.0165559
768.849	0.0165834
768.927	0.0164804
769.005	0.0164603
769.083	0.0165794
769.161	0.0165655
769.239	0.0165273
769.317	0.0164569
769.396	0.0165255
769.474	0.0165524
769.552	0.0165556
769.630	0.0164664
769.708	0.0165394
769.786	0.0164919
769.864	0.0164650
769.942	0.0166084
770.021	0.0165390
770.099	0.0165957
770.177	0.0165987
770.255	0.0164809
770.333	0.0164928
770.411	0.0165798
770.489	0.0166116
770.567	0.0165258
770.646	0.0165673
770.724	0.0166355
770.802	0.0165117
770.880	0.0165574
770.958	0.0166018
771.036	0.0166478
771.114	0.0166092
771.192	0.0165089
771.271	0.0165956
771.349	0.0165025
771.427	0.0164874
771.505	0.0165903
771.583	0.0164765
771.661	0.0165163
771.739	0.0165820
771.817	0.0165379
771.896	0.0166518
771.974	0.0166042
772.052	0.0167274
772.130	0.0164941
772.208	0.0166997
772.286	0.0165430
772.364	0.0165199
772.442	0.0163624
772.521	0.0165359
772.599	0.0165930
772.677	0.0165407
772.755	0.0165563
772.833	0.0166426
772.911	0.0165326
772.989	0.0166113
773.067	0.0166341
773.146	0.0166415
773.224	0.0165578
773.302	0.0166468
773.380	0.0166140
773.458	0.0165701
773.536	0.0165485
773.614	0.0165172
773.692	0.0165585
773.771	0.0165692
773.849	0.0166668
773.927	0.0165730
774.005	0.0165276
774.083	0.0163461
774.161	0.0166162
774.239	0.0167282
774.317	0.0165155
774.396	0.0164420
774.474	0.0163585
774.552	0.0164561
774.630	0.0165582
774.708	0.0165347
774.786	0.0166553
774.864	0.0167007
774.942	0.0166066
775.021	0.0164626
775.099	0.0165377
775.177	0.0165908
775.255	0.0166439
775.333	0.0166824
775.411	0.0165493
775.489	0.0165721
775.567	0.0165176
775.646	0.0165520
775.724	0.0165816
775.802	0.0166121
775.880	0.0164776
775.958	0.0164626
776.036	0.0165395
776.114	0.0166400
776.192	0.0165726
776.271	0.0165461
776.349	0.0165746
776.427	0.0165586
776.505	0.0165324
776.583	0.0165005
776.661	0.0164133
776.739	0.0166519
776.817	0.0165752
776.896	0.0164780
776.974	0.0165148
777.052	0.0166640
777.130	0.0165388
777.208	0.0165369
777.286	0.0164538
777.364	0.0164137
777.442	0.0165144
777.521	0.0165672
777.599	0.0165985
777.677	0.0166873
777.755	0.0165637
777.833	0.0165677
777.911	0.0165623
777.989	0.0165771
778.067	0.0166035
778.146	0.0167026
778.224	0.0166965
778.302	0.0166309
778.380	0.0166090
778.458	0.0164777
778.536	0.0165619
778.614	0.0165611
778.692	0.0165879
778.771	0.0165774
778.849	0.0165177
778.927	0.0165546
779.005	0.0165693
779.083	0.0165579
779.161	0.0168423
779.239	0.0165871
779.317	0.0165915
779.396	0.0165321
779.474	0.0165696
779.552	0.0166990
779.630	0.0167324
779.708	0.0166984
779.786	0.0165116
779.864	0.0165571
779.942	0.0166310
780.021	0.0166880
780.099	0.0166241
780.177	0.0165103
780.255	0.0166108
780.333	0.0165531
780.411	0.0166748
780.489	0.0163900
780.567	0.0165797
780.646	0.0166895
780.724	0.0166106
780.802	0.0166370
780.880	0.0166840
780.958	0.0167283
781.036	0.0166753
781.114	0.0164842
781.192	0.0164882
781.271	0.0165450
781.349	0.0166512
781.427	0.0166398
781.505	0.0166789
781.583	0.0166714
781.661	0.0167538
781.739	0.0166758
781.817	0.0166283
781.896	0.0166364
781.974	0.0166615
782.052	0.0167319
782.130	0.0167364
782.208	0.0165882
782.286	0.0167703
782.364	0.0166959
782.442	0.0166566
782.521	0.0166557
782.599	0.0168334
782.677	0.0167510
782.755	0.0166655
782.833	0.0165807
782.911	0.0165892
782.989	0.0167106
783.067	0.0166305
783.146	0.0165767
783.224	0.0165829
783.302	0.0165689
783.380	0.0166974
783.458	0.0165838
783.536	0.0165697
783.614	0.0166408
783.692	0.0168115
783.771	0.0167098
783.849	0.0165725
783.927	0.0166733
784.005	0.0165967
784.083	0.0167874
784.161	0.0167302
784.239	0.0166666
784.317	0.0165589
784.396	0.0167248
784.474	0.0166936
784.552	0.0167326
784.630	0.0166594
784.708	0.0165951
784.786	0.0165705
784.864	0.0165165
784.942	0.0166210
785.021	0.0166334
785.099	0.0165736
785.177	0.0165243
785.255	0.0165461
785.333	0.0165319
785.411	0.0164718
785.489	0.0165479
785.567	0.0163831
785.646	0.0165767
785.724	0.0165406
785.802	0.0165971
785.880	0.0166193
785.958	0.0165199
786.036	0.0165292
786.114	0.0164530
786.192	0.0164433
786.271	0.0165152
786.349	0.0166272
786.427	0.0164942
786.505	0.0165327
786.583	0.0165256
786.661	0.0165713
786.739	0.0165308
786.817	0.0166765
786.896	0.0166336
786.974	0.0165074
787.052	0.0165824
787.130	0.0165754
787.208	0.0165704
787.286	0.0165969
787.364	0.0165796
787.442	0.0163925
787.521	0.0164464
787.599	0.0165939
787.677	0.0165218
787.755	0.0164620
787.833	0.0164146
787.911	0.0163984
787.989	0.0165083
788.067	0.0164052
788.146	0.0164075
788.224	0.0163277
788.302	0.0163804
788.380	0.0165524
788.458	0.0164281
788.536	0.0164375
788.614	0.0165334
788.692	0.0164962
788.771	0.0166026
788.849	0.0163775
788.927	0.0164656
789.005	0.0166985
789.083	0.0166258
789.161	0.0164686
789.239	0.0165364
789.317	0.0165511
789.396	0.0165073
789.474	0.0165953
789.552	0.0165794
789.630	0.0165378
789.708	0.0166171
789.786	0.0164988
789.864	0.0164196
789.942	0.0164739
790.021	0.0165665
790.099	0.0165414
790.177	0.0165996
790.255	0.0164533
790.333	0.0165496
790.411	0.0165653
790.489	0.0166035
790.567	0.0163753
790.646	0.0164057
790.724	0.0164507
790.802	0.0166203
790.880	0.0165717
790.958	0.0164326
791.036	0.0164584
791.114	0.0164194
791.192	0.0164007
791.271	0.0166277
791.349	0.0165641
791.427	0.0164487
791.505	0.0164292
791.583	0.0165097
791.661	0.0165081
791.739	0.0164427
791.817	0.0164303
791.896	0.0165877
791.974	0.0165064
792.052	0.0165031
792.130	0.0164700
792.208	0.0165444
792.286	0.0167351
792.364	0.0165473
792.442	0.0163523
792.521	0.0165386
792.599	0.0165671
792.677	0.0163885
792.755	0.0165288
792.833	0.0164542
792.911	0.0166512
792.989	0.0165276
793.067	0.0165875
793.146	0.0165146
793.224	0.0165628
793.302	0.0165357
793.380	0.0164741
793.458	0.0165417
793.536	0.0166028
793.614	0.0165071
793.692	0.0165559
793.771	0.0165221
793.849	0.0164768
793.927	0.0165809
794.005	0.0164718
794.083	0.0163655
794.161	0.0165047
794.239	0.0165337
794.317	0.0164410
794.396	0.0166050
794.474	0.0165507
794.552	0.0165560
794.630	0.0164792
794.708	0.0165121
794.786	0.0165382
794.864	0.0165055
794.942	0.0164870
795.021	0.0165160
795.099	0.0165525
795.177	0.0164680
795.255	0.0164091
795.333	0.0165570
795.411	0.0165038
795.489	0.0165445
795.567	0.0165569
795.646	0.0164876
795.724	0.0165491
795.802	0.0165729
795.880	0.0166589
795.958	0.0166728
796.036	0.0165794
796.114	0.0165355
796.192	0.0166891
796.271	0.0166444
796.349	0.0167661
796.427	0.0166637
796.505	0.0167041
796.583	0.0166897
796.661	0.0167432
796.739	0.0166300
796.817	0.0165951
796.896	0.0166688
796.974	0.0167607
797.052	0.0166600
797.130	0.0165818
797.208	0.0166740
797.286	0.0166383
797.364	0.0167757
797.442	0.0166181
797.521	0.0167089
797.599	0.0164790
797.677	0.0167448
797.755	0.0167707
797.833	0.0166982
797.911	0.0165400
797.989	0.0166096
798.067	0.0166945
798.146	0.0166068
798.224	0.0165390
798.302	0.0167657
798.380	0.0166666
798.458	0.0168050
798.536	0.0167285
798.614	0.0166936
798.692	0.0167110
798.771	0.0166644
798.849	0.0166778
798.927	0.0167285
799.005	0.0165729
799.083	0.0165775
799.161	0.0165271
799.239	0.0165988
799.317	0.0166311
799.396	0.0166572
799.474	0.0166940
799.552	0.0166794
799.630	0.0166313
799.708	0.0168404
799.786	0.0168017
799.864	0.0167725
799.942	0.0166457
800.021	0.0166357
800.099	0.0167299
800.177	0.0165553
800.255	0.0167310
800.333	0.0167774
800.411	0.0167785
800.489	0.0165670
800.567	0.0166734
800.646	0.0166945
800.724	0.0166671
800.802	0.0166214
800.880	0.0166752
800.958	0.0166664
801.036	0.0168048
801.114	0.0166572
801.192	0.0166101
801.271	0.0166483
801.349	0.0166875
801.427	0.0166496
801.505	0.0166696
801.583	0.0165952
801.661	0.0165349
801.739	0.0165627
801.817	0.0166701
801.896	0.0167223
801.974	0.0166760
802.052	0.0167985
802.130	0.0166276
802.208	0.0165139
802.286	0.0167246
802.364	0.0167558
802.442	0.0167344
802.521	0.0166862
802.599	0.0166708
802.677	0.0167051
802.755	0.0167464
802.833	0.0168343
802.911	0.0167586
802.989	0.0166514
803.067	0.0167233
803.146	0.0168013
803.224	0.0169136
803.302	0.0167612
803.380	0.0167632
803.458	0.0167621
803.536	0.0166727
803.614	0.0166776
803.692	0.0167345
803.771	0.0168340
803.849	0.0168104
803.927	0.0168100
804.005	0.0167049
804.083	0.0169003
804.161	0.0169406
804.239	0.0166082
804.317	0.0167579
804.396	0.0166198
804.474	0.0168600
804.552	0.0168702
804.630	0.0167451
804.708	0.0167202
804.786	0.0167850
804.864	0.0168287
804.942	0.0167531
805.021	0.0167403
805.099	0.0167725
805.177	0.0168941
805.255	0.0168373
805.333	0.0169209
805.411	0.0167477
805.489	0.0167815
805.567	0.0167519
805.646	0.0168871
805.724	0.0168748
805.802	0.0167760
805.880	0.0167424
805.958	0.0167668
806.036	0.0167537
806.114	0.0168592
806.192	0.0168803
806.271	0.0167065
806.349	0.0167560
806.427	0.0167612
806.505	0.0167410
806.583	0.0167965
806.661	0.0167382
806.739	0.0168147
806.817	0.0167702
806.896	0.0167318
806.974	0.0165299
807.052	0.0165592
807.130	0.0165868
807.208	0.0167733
807.286	0.0165948
807.364	0.0165452
807.442	0.0166340
807.521	0.0167805
807.599	0.0164794
807.677	0.0165955
807.755	0.0168174
807.833	0.0165775
807.911	0.0166494
807.989	0.0166129
808.067	0.0165408
808.146	0.0165468
808.224	0.0165570
808.302	0.0166674
808.380	0.0166511
808.458	0.0166145
808.536	0.0165573
808.614	0.0165176
808.692	0.0164297
808.771	0.0165079
808.849	0.0165877
808.927	0.0164568
809.005	0.0166560
809.083	0.0165670
809.161	0.0165835
809.239	0.0165630
809.317	0.0166368
809.396	0.0164785
809.474	0.0164303
809.552	0.0165763
809.630	0.0163065
809.708	0.0163687
809.786	0.0164190
809.864	0.0164984
809.942	0.0164130
810.021	0.0164806
810.099	0.0164981
810.177	0.0165033
810.255	0.0166480
810.333	0.0164908
810.411	0.0164697
810.489	0.0164159
810.567	0.0163385
810.646	0.0164799
810.724	0.0164312
810.802	0.0167783
810.880	0.0165987
810.958	0.0163680
811.036	0.0164693
811.114	0.0165359
811.192	0.0165340
811.271	0.0164306
811.349	0.0164749
811.427	0.0165292
811.505	0.0164438
811.583	0.0165274
811.661	0.0166310
811.739	0.0165933
811.817	0.0164729
811.896	0.0164021
811.974	0.0165723
812.052	0.0165508
812.130	0.0164689
812.208	0.0166030
812.286	0.0166287
812.364	0.0165384
812.442	0.0165226
812.521	0.0166945
812.599	0.0165317
812.677	0.0164503
812.755	0.0164396
812.833	0.0165151
812.911	0.0164902
812.989	0.0165276
813.067	0.0164999
813.146	0.0166448
813.224	0.0165499
813.302	0.0166686
813.380	0.0165936
813.458	0.0165598
813.536	0.0166090
813.614	0.0166455
813.692	0.0166146
813.771	0.0165932
813.849	0.0165022
813.927	0.0166346
814.005	0.0166797
814.083	0.0167215
814.161	0.0164758
814.239	0.0166190
814.317	0.0166220
814.396	0.0165461
814.474	0.0165972
814.552	0.0166114
814.630	0.0165762
814.708	0.0165884
814.786	0.0167236
814.864	0.0166795
814.942	0.0165377
815.021	0.0166941
815.099	0.0167503
815.177	0.0167559
815.255	0.0165849
815.333	0.0165497
815.411	0.0166291
815.489	0.0167078
815.567	0.0166887
815.646	0.0166698
815.724	0.0166560
815.802	0.0167386
815.880	0.0168765
815.958	0.0167977
816.036	0.0168387
816.114	0.0166498
816.192	0.0166558
816.271	0.0166699
816.349	0.0168024
816.427	0.0167485
816.505	0.0167684
816.583	0.0166502
816.661	0.0165908
816.739	0.0167021
816.817	0.0167257
816.896	0.0168287
816.974	0.0168687
817.052	0.0166151
817.130	0.0165712
817.208	0.0168187
817.286	0.0167802
817.364	0.0168221
817.442	0.0166608
817.521	0.0166482
817.599	0.0166022
817.677	0.0167567
817.755	0.0166058
817.833	0.0167921
817.911	0.0167217
817.989	0.0165190
818.067	0.0166589
818.146	0.0167374
818.224	0.0168865
818.302	0.0166759
818.380	0.0166735
818.458	0.0166392
818.536	0.0166357
818.614	0.0165631
818.692	0.0167492
818.771	0.0167700
818.849	0.0167229
818.927	0.0166842
819.005	0.0166238
819.083	0.0166401
819.161	0.0166268
819.239	0.0166322
819.317	0.0167268
819.396	0.0166503
819.474	0.0166286
819.552	0.0166664
819.630	0.0167134
819.708	0.0165855
819.786	0.0165716
819.864	0.0166242
819.942	0.0166574
820.021	0.0166168
820.099	0.0166469
820.177	0.0165036
820.255	0.0166284
820.333	0.0166070
820.411	0.0167209
820.489	0.0167437
820.567	0.0167713
820.646	0.0166916
820.724	0.0167510
820.802	0.0166100
820.880	0.0167984
820.958	0.0166898
821.036	0.0167787
821.114	0.0167580
821.192	0.0167226
821.271	0.0166293
821.349	0.0165510
821.427	0.0166451
821.505	0.0168127
821.583	0.0166916
821.661	0.0166505
821.739	0.0167076
821.817	0.0165970
821.896	0.0165311
821.974	0.0165811
822.052	0.0166444
822.130	0.0167258
822.208	0.0167465
822.286	0.0165946
822.364	0.0165939
822.442	0.0165969
822.521	0.0165756
822.599	0.0166252
822.677	0.0167005
822.755	0.0165612
822.833	0.0165901
822.911	0.0166511
822.989	0.0165450
823.067	0.0166180
823.146	0.0164991
823.224	0.0164719
823.302	0.0166276
823.380	0.0164970
823.458	0.0167284
823.536	0.0165917
823.614	0.0166280
823.692	0.0165366
823.771	0.0166489
823.849	0.0165741
823.927	0.0166637
824.005	0.0164774
824.083	0.0165702
824.161	0.0166508
824.239	0.0166415
824.317	0.0166068
824.396	0.0165930
824.474	0.0166431
824.552	0.0166392
824.630	0.0166366
824.708	0.0165876
824.786	0.0166424
824.864	0.0165874
824.942	0.0167941
825.021	0.0165452
825.099	0.0165636
825.177	0.0165727
825.255	0.0167295
825.333	0.0167791
825.411	0.0166398
825.489	0.0167390
825.567	0.0167727
825.646	0.0167553
825.724	0.0167066
825.802	0.0166801
825.880	0.0166389
825.958	0.0167992
826.036	0.0168629
826.114	0.0167495
826.192	0.0166744
826.271	0.0166209
826.349	0.0167538
826.427	0.0166113
826.505	0.0167740
826.583	0.0165874
826.661	0.0166068
826.739	0.0167488
826.817	0.0166349
826.896	0.0167128
826.974	0.0168665
827.052	0.0166382
827.130	0.0167513
827.208	0.0166876
827.286	0.0167157
827.364	0.0165972
827.442	0.0166264
827.521	0.0167693
827.599	0.0167632
827.677	0.0166329
827.755	0.0167175
827.833	0.0166273
827.911	0.0165598
827.989	0.0166689
828.067	0.0167449
828.146	0.0166995
828.224	0.0165353
828.302	0.0166870
828.380	0.0166698
828.458	0.0165588
828.536	0.0166618
828.614	0.0166877
828.692	0.0167326
828.771	0.0166432
828.849	0.0166496
828.927	0.0165771
829.005	0.0167162
829.083	0.0167237
829.161	0.0168444
829.239	0.0166752
829.317	0.0166900
829.396	0.0166217
829.474	0.0166722
829.552	0.0166922
829.630	0.0165900
829.708	0.0165317
829.786	0.0166776
829.864	0.0166810
829.942	0.0165584
830.021	0.0166153
830.099	0.0166092
830.177	0.0165514
830.255	0.0167242
830.333	0.0166395
830.411	0.0165248
830.489	0.0166393
830.567	0.0166462
830.646	0.0165587
830.724	0.0165250
830.802	0.0164753
830.880	0.0165365
830.958	0.0164560
831.036	0.0166370
831.114	0.0164680
831.192	0.0165263
831.271	0.0164890
831.349	0.0165196
831.427	0.0163911
831.505	0.0163955
831.583	0.0164879
831.661	0.0164539
831.739	0.0165054
831.817	0.0165484
831.896	0.0165680
831.974	0.0164716
832.052	0.0165984
832.130	0.0166752
832.208	0.0166283
832.286	0.0164312
832.364	0.0166867
832.442	0.0166802
832.521	0.0166451
832.599	0.0165739
832.677	0.0166638
832.755	0.0166496
832.833	0.0164762
832.911	0.0165807
832.989	0.0165760
833.067	0.0164279
833.146	0.0165628
833.224	0.0165928
833.302	0.0164788
833.380	0.0165599
833.458	0.0166776
833.536	0.0166096
833.614	0.0164391
833.692	0.0164213
833.771	0.0164346
833.849	0.0164658
833.927	0.0163937
834.005	0.0163551
834.083	0.0164957
834.161	0.0164362
834.239	0.0163759
834.317	0.0165344
834.396	0.0163729
834.474	0.0164787
834.552	0.0164538
834.630	0.0163784
834.708	0.0163396
834.786	0.0163883
834.864	0.0166171
834.942	0.0163235
835.021	0.0163280
835.099	0.0163933
835.177	0.0164851
835.255	0.0162706
835.333	0.0164278
835.411	0.0164082
835.489	0.0165318
835.567	0.0164539
835.646	0.0164489
835.724	0.0164683
835.802	0.0163447
835.880	0.0164278
835.958	0.0165423
836.036	0.0164230
836.114	0.0164480
836.192	0.0164333
836.271	0.0165548
836.349	0.0164640
836.427	0.0164692
836.505	0.0164396
836.583	0.0164613
836.661	0.0164861
836.739	0.0165477
836.817	0.0164587
836.896	0.0164130
836.974	0.0164256
837.052	0.0164282
837.130	0.0164818
837.208	0.0165098
837.286	0.0164989
837.364	0.0164684
837.442	0.0165314
837.521	0.0164944
837.599	0.0165296
837.677	0.0164648
837.755	0.0164673
837.833	0.0164054
837.911	0.0164940
837.989	0.0166479
838.067	0.0165598
838.146	0.0164917
838.224	0.0165044
838.302	0.0166724
838.380	0.0165080
838.458	0.0164404
838.536	0.0165437
838.614	0.0165151
838.692	0.0165589
838.771	0.0165814
838.849	0.0166243
838.927	0.0166413
839.005	0.0165375
839.083	0.0165869
839.161	0.0165929
839.239	0.0166882
839.317	0.0166597
839.396	0.0165804
839.474	0.0165030
839.552	0.0165298
839.630	0.0166472
839.708	0.0167593
839.786	0.0165417
839.864	0.0166087
839.942	0.0166483
840.021	0.0167216
840.099	0.0166444
840.177	0.0166653
840.255	0.0166364
840.333	0.0167024
840.411	0.0164981
840.489	0.0166792
840.567	0.0166146
840.646	0.0168031
840.724	0.0166042
840.802	0.0166787
840.880	0.0166884
840.958	0.0166593
841.036	0.0167680
841.114	0.0167497
841.192	0.0166611
841.271	0.0167384
841.349	0.0166797
841.427	0.0166288
841.505	0.0167797
841.583	0.0167271
841.661	0.0166670
841.739	0.0165476
841.817	0.0167295
841.896	0.0167568
841.974	0.0167733
842.052	0.0167410
842.130	0.0166681
842.208	0.0165993
842.286	0.0166953
842.364	0.0167297
842.442	0.0166269
842.521	0.0165584
842.599	0.0166657
842.677	0.0167050
842.755	0.0165666
842.833	0.0166625
842.911	0.0165871
842.989	0.0166601
843.067	0.0166317
843.146	0.0166669
843.224	0.0166177
843.302	0.0166048
843.380	0.0166911
843.458	0.0166473
843.536	0.0166698
843.614	0.0165931
843.692	0.0167393
843.771	0.0166626
843.849	0.0165831
843.927	0.0165875
844.005	0.0167004
844.083	0.0166534
844.161	0.0166690
844.239	0.0165715
844.317	0.0166348
844.396	0.0166566
844.474	0.0165441
844.552	0.0165432
844.630	0.0165350
844.708	0.0165386
844.786	0.0164542
844.864	0.0166143
844.942	0.0164317
845.021	0.0164931
845.099	0.0165357
845.177	0.0164880
845.255	0.0165382
845.333	0.0164658
845.411	0.0165175
845.489	0.0165776
845.567	0.0165269
845.646	0.0164542
845.724	0.0165674
845.802	0.0165938
845.880	0.0165831
845.958	0.0164607
846.036	0.0165568
846.114	0.0166331
846.192	0.0165607
846.271	0.0165327
846.349	0.0164968
846.427	0.0167244
846.505	0.0166542
846.583	0.0164210
846.661	0.0165534
846.739	0.0164951
846.817	0.0167485
846.896	0.0166142
846.974	0.0165156
847.052	0.0165028
847.130	0.0164870
847.208	0.0164388
847.286	0.0165603
847.364	0.0165662
847.442	0.0164506
847.521	0.0165521
847.599	0.0166254
847.677	0.0165321
847.755	0.0165655
847.833	0.0165942
847.911	0.0165414
847.989	0.0165805
848.067	0.0165610
848.146	0.0166661
848.224	0.0166174
848.302	0.0167323
848.380	0.0164397
848.458	0.0165527
848.536	0.0165078
848.614	0.0167012
848.692	0.0166100
848.771	0.0166772
848.849	0.0164886
848.927	0.0165298
849.005	0.0164504
849.083	0.0164481
849.161	0.0165179
849.239	0.0164988
849.317	0.0165174
849.396	0.0165744
849.474	0.0166176
849.552	0.0165581
849.630	0.0166639
849.708	0.0165704
849.786	0.0166164
849.864	0.0165235
849.942	0.0165621
850.021	0.0166964
850.099	0.0166124
850.177	0.0165405
850.255	0.0166735
850.333	0.0166103
850.411	0.0165619
850.489	0.0165776
850.567	0.0164535
850.646	0.0165273
850.724	0.0164463
850.802	0.0166238
850.880	0.0166476
850.958	0.0165428
851.036	0.0164576
851.114	0.0165397
851.192	0.0165125
851.271	0.0165181
851.349	0.0165261
851.427	0.0164805
851.505	0.0165375
851.583	0.0165876
851.661	0.0164024
851.739	0.0165040
851.817	0.0164956
851.896	0.0164603
851.974	0.0164734
852.052	0.0164909
852.130	0.0166326
852.208	0.0165836
852.286	0.0164257
852.364	0.0165368
852.442	0.0165810
852.521	0.0165863
852.599	0.0165825
852.677	0.0164433
852.755	0.0164539
852.833	0.0165392
852.911	0.0166447
852.989	0.0165849
853.067	0.0166017
853.146	0.0166590
853.224	0.0165359
853.302	0.0165555
853.380	0.0166848
853.458	0.0166809
853.536	0.0166281
853.614	0.0167097
853.692	0.0166465
853.771	0.0166420
853.849	0.0166650
853.927	0.0166476
854.005	0.0166605
854.083	0.0166615
854.161	0.0166197
854.239	0.0166246
854.317	0.0165623
854.396	0.0167649
854.474	0.0166174
854.552	0.0164488
854.630	0.0165678
854.708	0.0166577
854.786	0.0166233
854.864	0.0166205
854.942	0.0166454
855.021	0.0165585
855.099	0.0165938
855.177	0.0166232
855.255	0.0165252
855.333	0.0165231
855.411	0.0165462
855.489	0.0165930
855.567	0.0164990
855.646	0.0164341
855.724	0.0165344
855.802	0.0164285
855.880	0.0164608
855.958	0.0164618
856.036	0.0165279
856.114	0.0165470
856.192	0.0163907
856.271	0.0164750
856.349	0.0164462
856.427	0.0164451
856.505	0.0164092
856.583	0.0162988
856.661	0.0163926
856.739	0.0163472
856.817	0.0164464
856.896	0.0163760
856.974	0.0165215
857.052	0.0165267
857.130	0.0165046
857.208	0.0163873
857.286	0.0165221
857.364	0.0166370
857.442	0.0165048
857.521	0.0164037
857.599	0.0163306
857.677	0.0165796
857.755	0.0165125
857.833	0.0164613
857.911	0.0163634
857.989	0.0163762
858.067	0.0164195
858.146	0.0164541
858.224	0.0163233
858.302	0.0164392
858.380	0.0165791
858.458	0.0164223
858.536	0.0165847
858.614	0.0166670
858.692	0.0164523
858.771	0.0165416
858.849	0.0164845
858.927	0.0164429
859.005	0.0166260
859.083	0.0164405
859.161	0.0163019
859.239	0.0165392
859.317	0.0165153
859.396	0.0164429
859.474	0.0164338
859.552	0.0163705
859.630	0.0164105
859.708	0.0165408
859.786	0.0163181
859.864	0.0163496
859.942	0.0163218
860.021	0.0163332
860.099	0.0163421
860.177	0.0164178
860.255	0.0163203
860.333	0.0165053
860.411	0.0164444
860.489	0.0163841
860.567	0.0162494
860.646	0.0164439
860.724	0.0163960
860.802	0.0163857
860.880	0.0162786
860.958	0.0163132
861.036	0.0163081
861.114	0.0164093
861.192	0.0163461
861.271	0.0162563
861.349	0.0163986
861.427	0.0163925
861.505	0.0166277
861.583	0.0164809
861.661	0.0165275
861.739	0.0165075
861.817	0.0164661
861.896	0.0163918
861.974	0.0164376
862.052	0.0163652
862.130	0.0165421
862.208	0.0164396
862.286	0.0164255
862.364	0.0165053
862.442	0.0164190
862.521	0.0165987
862.599	0.0164159
862.677	0.0164513
862.755	0.0166391
862.833	0.0163959
862.911	0.0164839
862.989	0.0164340
863.067	0.0164207
863.146	0.0164268
863.224	0.0164376
863.302	0.0164405
863.380	0.0164742
863.458	0.0163522
863.536	0.0163528
863.614	0.0164181
863.692	0.0163372
863.771	0.0164680
863.849	0.0164221
863.927	0.0162735
864.005	0.0163538
864.083	0.0164171
864.161	0.0165128
864.239	0.0164850
864.317	0.0163004
864.396	0.0164860
864.474	0.0165060
864.552	0.0165130
864.630	0.0163053
864.708	0.0164140
864.786	0.0165060
864.864	0.0165184
864.942	0.0163798
865.021	0.0164546
865.099	0.0165076
865.177	0.0164587
865.255	0.0165264
865.333	0.0164678
865.411	0.0165753
865.489	0.0165295
865.567	0.0164764
865.646	0.0166479
865.724	0.0164785
865.802	0.0165141
865.880	0.0165643
865.958	0.0164664
866.036	0.0164546
866.114	0.0165268
866.192	0.0165517
866.271	0.0165459
866.349	0.0165067
866.427	0.0163655
866.505	0.0164312
866.583	0.0164836
866.661	0.0165853
866.739	0.0164580
866.817	0.0164645
866.896	0.0165557
866.974	0.0165866
867.052	0.0165911
867.130	0.0165322
867.208	0.0166085
867.286	0.0165171
867.364	0.0168219
867.442	0.0165762
867.521	0.0164847
867.599	0.0165908
867.677	0.0165987
867.755	0.0165671
867.833	0.0166779
867.911	0.0165385
867.989	0.0165045
868.067	0.0166144
868.146	0.0165936
868.224	0.0164693
868.302	0.0165508
868.380	0.0166866
868.458	0.0164785
868.536	0.0164529
868.614	0.0165091
868.692	0.0165250
868.771	0.0165401
868.849	0.0165437
868.927	0.0165173
869.005	0.0165905
869.083	0.0165282
869.161	0.0166639
869.239	0.0164740
869.317	0.0164716
869.396	0.0165228
869.474	0.0165403
869.552	0.0165437
869.630	0.0165839
869.708	0.0166422
869.786	0.0165648
869.864	0.0166343
869.942	0.0167249
