06/03/2022	14:51:45	Ver.	4.1	UNKNOWN
Optical Delay	550.020508	Delta X		0.078125	Sweeps	1	Scan Rate	0/0
Coordinates	Axis 1	NaN	Axis 2	NaN	Axis 3	NaN	Axis 4	NaN	Axis 5	NaN	Axis 6	0.000000
TX Power	0.000000	RX Power	0.000000

550.021	0.0166774
550.099	0.0162291
550.177	0.0162959
550.255	0.0163161
550.333	0.0162624
550.411	0.0163389
550.489	0.0160597
550.567	0.0161775
550.646	0.0162299
550.724	0.0163108
550.802	0.0162142
550.880	0.0159706
550.958	0.0162474
551.036	0.0160567
551.114	0.0158562
551.192	0.0160640
551.271	0.0159166
551.349	0.0157416
551.427	0.0156456
551.505	0.0158853
551.583	0.0157871
551.661	0.0155992
551.739	0.0156725
551.817	0.0155677
551.896	0.0155943
551.974	0.0155386
552.052	0.0156133
552.130	0.0155925
552.208	0.0155456
552.286	0.0156071
552.364	0.0154745
552.442	0.0155109
552.521	0.0156432
552.599	0.0155289
552.677	0.0155081
552.755	0.0155134
552.833	0.0155080
552.911	0.0154733
552.989	0.0155104
553.067	0.0154530
553.146	0.0155865
553.224	0.0155440
553.302	0.0154758
553.380	0.0154626
553.458	0.0155330
553.536	0.0154910
553.614	0.0153899
553.692	0.0152809
553.771	0.0155021
553.849	0.0154935
553.927	0.0153616
554.005	0.0153342
554.083	0.0153603
554.161	0.0153836
554.239	0.0156320
554.317	0.0154488
554.396	0.0154556
554.474	0.0155502
554.552	0.0155347
554.630	0.0156354
554.708	0.0155391
554.786	0.0155003
554.864	0.0156032
554.942	0.0156792
555.021	0.0157491
555.099	0.0157033
555.177	0.0156311
555.255	0.0156877
555.333	0.0157769
555.411	0.0158190
555.489	0.0157248
555.567	0.0159383
555.646	0.0158480
555.724	0.0160550
555.802	0.0160579
555.880	0.0160868
555.958	0.0161451
556.036	0.0161466
556.114	0.0162279
556.192	0.0163647
556.271	0.0162334
556.349	0.0162902
556.427	0.0163611
556.505	0.0165841
556.583	0.0165733
556.661	0.0166754
556.739	0.0167065
556.817	0.0166750
556.896	0.0167661
556.974	0.0167896
557.052	0.0168211
557.130	0.0169238
557.208	0.0169550
557.286	0.0170081
557.364	0.0171661
557.442	0.0172470
557.521	0.0171558
557.599	0.0172906
557.677	0.0172324
557.755	0.0174077
557.833	0.0175713
557.911	0.0176277
557.989	0.0175264
558.067	0.0175558
558.146	0.0176558
558.224	0.0176794
558.302	0.0176383
558.380	0.0178039
558.458	0.0177056
558.536	0.0177036
558.614	0.0176640
558.692	0.0175889
558.771	0.0174216
558.849	0.0174410
558.927	0.0175227
559.005	0.0174736
559.083	0.0175380
559.161	0.0173200
559.239	0.0170988
559.317	0.0172482
559.396	0.0171860
559.474	0.0171754
559.552	0.0170842
559.630	0.0168887
559.708	0.0170881
559.786	0.0169595
559.864	0.0168356
559.942	0.0167170
560.021	0.0167629
560.099	0.0167956
560.177	0.0167770
560.255	0.0165454
560.333	0.0166412
560.411	0.0166824
560.489	0.0164597
560.567	0.0164248
560.646	0.0164091
560.724	0.0163262
560.802	0.0161935
560.880	0.0162311
560.958	0.0161098
561.036	0.0161862
561.114	0.0161629
561.192	0.0160648
561.271	0.0159864
561.349	0.0159788
561.427	0.0160631
561.505	0.0160308
561.583	0.0159594
561.661	0.0159935
561.739	0.0159989
561.817	0.0159985
561.896	0.0159254
561.974	0.0157813
562.052	0.0157474
562.130	0.0158192
562.208	0.0158083
562.286	0.0157980
562.364	0.0158115
562.442	0.0158929
562.521	0.0157462
562.599	0.0157069
562.677	0.0158230
562.755	0.0158866
562.833	0.0157613
562.911	0.0157416
562.989	0.0158737
563.067	0.0159237
563.146	0.0159126
563.224	0.0159412
563.302	0.0159718
563.380	0.0160242
563.458	0.0161873
563.536	0.0160358
563.614	0.0160230
563.692	0.0161456
563.771	0.0161378
563.849	0.0160709
563.927	0.0162017
564.005	0.0163203
564.083	0.0161133
564.161	0.0161719
564.239	0.0163173
564.317	0.0164564
564.396	0.0162970
564.474	0.0161539
564.552	0.0162457
564.630	0.0163233
564.708	0.0164147
564.786	0.0162942
564.864	0.0163749
564.942	0.0163521
565.021	0.0165161
565.099	0.0163480
565.177	0.0163333
565.255	0.0165478
565.333	0.0166769
565.411	0.0164527
565.489	0.0165013
565.567	0.0166257
565.646	0.0166129
565.724	0.0165901
565.802	0.0166075
565.880	0.0165883
565.958	0.0166189
566.036	0.0166370
566.114	0.0167152
566.192	0.0166286
566.271	0.0167907
566.349	0.0167355
566.427	0.0166055
566.505	0.0168604
566.583	0.0167502
566.661	0.0164268
566.739	0.0166822
566.817	0.0167045
566.896	0.0166811
566.974	0.0167111
567.052	0.0167265
567.130	0.0167441
567.208	0.0167326
567.286	0.0166550
567.364	0.0167004
567.442	0.0167431
567.521	0.0168398
567.599	0.0165685
567.677	0.0164307
567.755	0.0165223
567.833	0.0165034
567.911	0.0166479
567.989	0.0165649
568.067	0.0163979
568.146	0.0164809
568.224	0.0164007
568.302	0.0163915
568.380	0.0163342
568.458	0.0162849
568.536	0.0163168
568.614	0.0162347
568.692	0.0161368
568.771	0.0162566
568.849	0.0160567
568.927	0.0160349
569.005	0.0160904
569.083	0.0161109
569.161	0.0160370
569.239	0.0159831
569.317	0.0160799
569.396	0.0159939
569.474	0.0158325
569.552	0.0158113
569.630	0.0158687
569.708	0.0158021
569.786	0.0156930
569.864	0.0158257
569.942	0.0157587
570.021	0.0156697
570.099	0.0156618
570.177	0.0156682
570.255	0.0156879
570.333	0.0157904
570.411	0.0158116
570.489	0.0156873
570.567	0.0158140
570.646	0.0156451
570.724	0.0155537
570.802	0.0156731
570.880	0.0155337
570.958	0.0154747
571.036	0.0155437
571.114	0.0155390
571.192	0.0156010
571.271	0.0154053
571.349	0.0155845
571.427	0.0157043
571.505	0.0154401
571.583	0.0153590
571.661	0.0154904
571.739	0.0155183
571.817	0.0154787
571.896	0.0155782
571.974	0.0155973
572.052	0.0155604
572.130	0.0155865
572.208	0.0156395
572.286	0.0157719
572.364	0.0157671
572.442	0.0157238
572.521	0.0156395
572.599	0.0156530
572.677	0.0156338
572.755	0.0157911
572.833	0.0157501
572.911	0.0156955
572.989	0.0156662
573.067	0.0157266
573.146	0.0157642
573.224	0.0157581
573.302	0.0158559
573.380	0.0156311
573.458	0.0156704
573.536	0.0157146
573.614	0.0157695
573.692	0.0157044
573.771	0.0158084
573.849	0.0157243
573.927	0.0156219
574.005	0.0157193
574.083	0.0157380
574.161	0.0158759
574.239	0.0159217
574.317	0.0157951
574.396	0.0158412
574.474	0.0158939
574.552	0.0158495
574.630	0.0158906
574.708	0.0159011
574.786	0.0159326
574.864	0.0158963
574.942	0.0160154
575.021	0.0160465
575.099	0.0160136
575.177	0.0160686
575.255	0.0160271
575.333	0.0159372
575.411	0.0161648
575.489	0.0160028
575.567	0.0161490
575.646	0.0162358
575.724	0.0163020
575.802	0.0163702
575.880	0.0162579
575.958	0.0165004
576.036	0.0164800
576.114	0.0165746
576.192	0.0166782
576.271	0.0166147
576.349	0.0165617
576.427	0.0166259
576.505	0.0167921
576.583	0.0167034
576.661	0.0167017
576.739	0.0168478
576.817	0.0168762
576.896	0.0168842
576.974	0.0168502
577.052	0.0169198
577.130	0.0168430
577.208	0.0168774
577.286	0.0168646
577.364	0.0168061
577.442	0.0169126
577.521	0.0170249
577.599	0.0169207
577.677	0.0170286
577.755	0.0169488
577.833	0.0170406
577.911	0.0170182
577.989	0.0169904
578.067	0.0170576
578.146	0.0170851
578.224	0.0170362
578.302	0.0169585
578.380	0.0170203
578.458	0.0170237
578.536	0.0170216
578.614	0.0169717
578.692	0.0170608
578.771	0.0168579
578.849	0.0169910
578.927	0.0169146
579.005	0.0169127
579.083	0.0166223
579.161	0.0167886
579.239	0.0168678
579.317	0.0167923
579.396	0.0167243
579.474	0.0166879
579.552	0.0166620
579.630	0.0166654
579.708	0.0167123
579.786	0.0166302
579.864	0.0166189
579.942	0.0167599
580.021	0.0166711
580.099	0.0166535
580.177	0.0166020
580.255	0.0167004
580.333	0.0166069
580.411	0.0166407
580.489	0.0166307
580.567	0.0166473
580.646	0.0166324
580.724	0.0165285
580.802	0.0165805
580.880	0.0164925
580.958	0.0165696
581.036	0.0166103
581.114	0.0164452
581.192	0.0163954
581.271	0.0165768
581.349	0.0164520
581.427	0.0166043
581.505	0.0166339
581.583	0.0166414
581.661	0.0166323
581.739	0.0165525
581.817	0.0166035
581.896	0.0166677
581.974	0.0166813
582.052	0.0166383
582.130	0.0165786
582.208	0.0165718
582.286	0.0165491
582.364	0.0164993
582.442	0.0164819
582.521	0.0165026
582.599	0.0165762
582.677	0.0166384
582.755	0.0164451
582.833	0.0165318
582.911	0.0166096
582.989	0.0164953
583.067	0.0165196
583.146	0.0164483
583.224	0.0163824
583.302	0.0164400
583.380	0.0164074
583.458	0.0163958
583.536	0.0164210
583.614	0.0164015
583.692	0.0163650
583.771	0.0164194
583.849	0.0162525
583.927	0.0162671
584.005	0.0162427
584.083	0.0161876
584.161	0.0161810
584.239	0.0161383
584.317	0.0160260
584.396	0.0160383
584.474	0.0160926
584.552	0.0161602
584.630	0.0160810
584.708	0.0160532
584.786	0.0160839
584.864	0.0161447
584.942	0.0161691
585.021	0.0160042
585.099	0.0161651
585.177	0.0160775
585.255	0.0160564
585.333	0.0161730
585.411	0.0162900
585.489	0.0162647
585.567	0.0161258
585.646	0.0162106
585.724	0.0160918
585.802	0.0161613
585.880	0.0161536
585.958	0.0163389
586.036	0.0162705
586.114	0.0162760
586.192	0.0162746
586.271	0.0162093
586.349	0.0163358
586.427	0.0164552
586.505	0.0162472
586.583	0.0162265
586.661	0.0164238
586.739	0.0163723
586.817	0.0162329
586.896	0.0163897
586.974	0.0164288
587.052	0.0163399
587.130	0.0163880
587.208	0.0164275
587.286	0.0163895
587.364	0.0164963
587.442	0.0164983
587.521	0.0164608
587.599	0.0164745
587.677	0.0165269
587.755	0.0164425
587.833	0.0165495
587.911	0.0165911
587.989	0.0165783
588.067	0.0166257
588.146	0.0165815
588.224	0.0166652
588.302	0.0166953
588.380	0.0167796
588.458	0.0166808
588.536	0.0167057
588.614	0.0168580
588.692	0.0169373
588.771	0.0166745
588.849	0.0167429
588.927	0.0168255
589.005	0.0167290
589.083	0.0168964
589.161	0.0168439
589.239	0.0167277
589.317	0.0168925
589.396	0.0168060
589.474	0.0168956
589.552	0.0168840
589.630	0.0168803
589.708	0.0170237
589.786	0.0167992
589.864	0.0168601
589.942	0.0167665
590.021	0.0168210
590.099	0.0169106
590.177	0.0168248
590.255	0.0167863
590.333	0.0167315
590.411	0.0168747
590.489	0.0167467
590.567	0.0167064
590.646	0.0167783
590.724	0.0167236
590.802	0.0165746
590.880	0.0165423
590.958	0.0165961
591.036	0.0165631
591.114	0.0166210
591.192	0.0164256
591.271	0.0166254
591.349	0.0166334
591.427	0.0164127
591.505	0.0163535
591.583	0.0163551
591.661	0.0162008
591.739	0.0163971
591.817	0.0162662
591.896	0.0163043
591.974	0.0162104
592.052	0.0161934
592.130	0.0162424
592.208	0.0163814
592.286	0.0161517
592.364	0.0162502
592.442	0.0160346
592.521	0.0161012
592.599	0.0161545
592.677	0.0160533
592.755	0.0161585
592.833	0.0160533
592.911	0.0160684
592.989	0.0161073
593.067	0.0159258
593.146	0.0161217
593.224	0.0160031
593.302	0.0160371
593.380	0.0159596
593.458	0.0160046
593.536	0.0158004
593.614	0.0160342
593.692	0.0159734
593.771	0.0159241
593.849	0.0160165
593.927	0.0159415
594.005	0.0160091
594.083	0.0159127
594.161	0.0158813
594.239	0.0158685
594.317	0.0159402
594.396	0.0159544
594.474	0.0159090
594.552	0.0158762
594.630	0.0159017
594.708	0.0157761
594.786	0.0158997
594.864	0.0157900
594.942	0.0159182
595.021	0.0157666
595.099	0.0157763
595.177	0.0157384
595.255	0.0158211
595.333	0.0157594
595.411	0.0157722
595.489	0.0158190
595.567	0.0158221
595.646	0.0158234
595.724	0.0157835
595.802	0.0158505
595.880	0.0157870
595.958	0.0157751
596.036	0.0157940
596.114	0.0158106
596.192	0.0158044
596.271	0.0158049
596.349	0.0158239
596.427	0.0157561
596.505	0.0158405
596.583	0.0158372
596.661	0.0158721
596.739	0.0157542
596.817	0.0157540
596.896	0.0158162
596.974	0.0158629
597.052	0.0159983
597.130	0.0160160
597.208	0.0157710
597.286	0.0157833
597.364	0.0159696
597.442	0.0159279
597.521	0.0160450
597.599	0.0160268
597.677	0.0160946
597.755	0.0160831
597.833	0.0161056
597.911	0.0162093
597.989	0.0161315
598.067	0.0163302
598.146	0.0162164
598.224	0.0162176
598.302	0.0164031
598.380	0.0163439
598.458	0.0163113
598.536	0.0162347
598.614	0.0163013
598.692	0.0163956
598.771	0.0162603
598.849	0.0164515
598.927	0.0164465
599.005	0.0164860
599.083	0.0163628
599.161	0.0164328
599.239	0.0165155
599.317	0.0164977
599.396	0.0165495
599.474	0.0164099
599.552	0.0165272
599.630	0.0166149
599.708	0.0165215
599.786	0.0165954
599.864	0.0165849
599.942	0.0164724
600.021	0.0164740
600.099	0.0164902
600.177	0.0165044
600.255	0.0165670
600.333	0.0165052
600.411	0.0165540
600.489	0.0164528
600.567	0.0164691
600.646	0.0166109
600.724	0.0165635
600.802	0.0164736
600.880	0.0165360
600.958	0.0164281
601.036	0.0163275
601.114	0.0165164
601.192	0.0165599
601.271	0.0165414
601.349	0.0165897
601.427	0.0164640
601.505	0.0164318
601.583	0.0163822
601.661	0.0163019
601.739	0.0163127
601.817	0.0161998
601.896	0.0163245
601.974	0.0163237
602.052	0.0164153
602.130	0.0163098
602.208	0.0162224
602.286	0.0163396
602.364	0.0162888
602.442	0.0162491
602.521	0.0162687
602.599	0.0163112
602.677	0.0162437
602.755	0.0162041
602.833	0.0162589
602.911	0.0163265
602.989	0.0163054
603.067	0.0161966
603.146	0.0162552
603.224	0.0161971
603.302	0.0161449
603.380	0.0162431
603.458	0.0162234
603.536	0.0161653
603.614	0.0162704
603.692	0.0161810
603.771	0.0161527
603.849	0.0162224
603.927	0.0161761
604.005	0.0160781
604.083	0.0160883
604.161	0.0162328
604.239	0.0162165
604.317	0.0160825
604.396	0.0160252
604.474	0.0160480
604.552	0.0160212
604.630	0.0162405
604.708	0.0162424
604.786	0.0161143
604.864	0.0161722
604.942	0.0161497
605.021	0.0161531
605.099	0.0161347
605.177	0.0161056
605.255	0.0160385
605.333	0.0160958
605.411	0.0161362
605.489	0.0160285
605.567	0.0160104
605.646	0.0161724
605.724	0.0159829
605.802	0.0159453
605.880	0.0160342
605.958	0.0160201
606.036	0.0159521
606.114	0.0160948
606.192	0.0160315
606.271	0.0159875
606.349	0.0160574
606.427	0.0160684
606.505	0.0160003
606.583	0.0160332
606.661	0.0161063
606.739	0.0160387
606.817	0.0161374
606.896	0.0161292
606.974	0.0161365
607.052	0.0161718
607.130	0.0160188
607.208	0.0161826
607.286	0.0159990
607.364	0.0160594
607.442	0.0162064
607.521	0.0160122
607.599	0.0162579
607.677	0.0161750
607.755	0.0161353
607.833	0.0161375
607.911	0.0160623
607.989	0.0160927
608.067	0.0160637
608.146	0.0160905
608.224	0.0160756
608.302	0.0163164
608.380	0.0163553
608.458	0.0162092
608.536	0.0161851
608.614	0.0162586
608.692	0.0160491
608.771	0.0162274
608.849	0.0162067
608.927	0.0162494
609.005	0.0163557
609.083	0.0162336
609.161	0.0162930
609.239	0.0163526
609.317	0.0161941
609.396	0.0162724
609.474	0.0162308
609.552	0.0162849
609.630	0.0164027
609.708	0.0164390
609.786	0.0164474
609.864	0.0164307
609.942	0.0164358
610.021	0.0165469
610.099	0.0164731
610.177	0.0164909
610.255	0.0165209
610.333	0.0163599
610.411	0.0166005
610.489	0.0165401
610.567	0.0165265
610.646	0.0165335
610.724	0.0166265
610.802	0.0166161
610.880	0.0165723
610.958	0.0165543
611.036	0.0166967
611.114	0.0166296
611.192	0.0167335
611.271	0.0166611
611.349	0.0166404
611.427	0.0166816
611.505	0.0167052
611.583	0.0166487
611.661	0.0167204
611.739	0.0167367
611.817	0.0165904
611.896	0.0166626
611.974	0.0165940
612.052	0.0165562
612.130	0.0167361
612.208	0.0165906
612.286	0.0167294
612.364	0.0166927
612.442	0.0165385
612.521	0.0166306
612.599	0.0166424
612.677	0.0166125
612.755	0.0166396
612.833	0.0165816
612.911	0.0166618
612.989	0.0167398
613.067	0.0166335
613.146	0.0166238
613.224	0.0165554
613.302	0.0166120
613.380	0.0165768
613.458	0.0164515
613.536	0.0164574
613.614	0.0165878
613.692	0.0164576
613.771	0.0163803
613.849	0.0165870
613.927	0.0165704
614.005	0.0164020
614.083	0.0164743
614.161	0.0163909
614.239	0.0165273
614.317	0.0164926
614.396	0.0162843
614.474	0.0163519
614.552	0.0163905
614.630	0.0164304
614.708	0.0164182
614.786	0.0165626
614.864	0.0165531
614.942	0.0165096
615.021	0.0164600
615.099	0.0164299
615.177	0.0165138
615.255	0.0166020
615.333	0.0164902
615.411	0.0166204
615.489	0.0166068
615.567	0.0166327
615.646	0.0167702
615.724	0.0166598
615.802	0.0166627
615.880	0.0166238
615.958	0.0167149
616.036	0.0167388
616.114	0.0166694
616.192	0.0166306
616.271	0.0167760
616.349	0.0165909
616.427	0.0165128
616.505	0.0165109
616.583	0.0165347
616.661	0.0165205
616.739	0.0164418
616.817	0.0165290
616.896	0.0164849
616.974	0.0165466
617.052	0.0165408
617.130	0.0163672
617.208	0.0165865
617.286	0.0163875
617.364	0.0163833
617.442	0.0163111
617.521	0.0163409
617.599	0.0163486
617.677	0.0164029
617.755	0.0163800
617.833	0.0162212
617.911	0.0163250
617.989	0.0163152
618.067	0.0163060
618.146	0.0162476
618.224	0.0161768
618.302	0.0162939
618.380	0.0161762
618.458	0.0162009
618.536	0.0162589
618.614	0.0161790
618.692	0.0161524
618.771	0.0161366
618.849	0.0161135
618.927	0.0162291
619.005	0.0162092
619.083	0.0160848
619.161	0.0162730
619.239	0.0161283
619.317	0.0161790
619.396	0.0162287
619.474	0.0162064
619.552	0.0163113
619.630	0.0163760
619.708	0.0160806
619.786	0.0163964
619.864	0.0163846
619.942	0.0161283
620.021	0.0163449
620.099	0.0162906
620.177	0.0163137
620.255	0.0163283
620.333	0.0162930
620.411	0.0164009
620.489	0.0162902
620.567	0.0163085
620.646	0.0162033
620.724	0.0162312
620.802	0.0162764
620.880	0.0162669
620.958	0.0162476
621.036	0.0161274
621.114	0.0161300
621.192	0.0161063
621.271	0.0160897
621.349	0.0161295
621.427	0.0159782
621.505	0.0160916
621.583	0.0160564
621.661	0.0160345
621.739	0.0160302
621.817	0.0158803
621.896	0.0160255
621.974	0.0159459
622.052	0.0159488
622.130	0.0158825
622.208	0.0158698
622.286	0.0159820
622.364	0.0159378
622.442	0.0158685
622.521	0.0156798
622.599	0.0157530
622.677	0.0154566
622.755	0.0155032
622.833	0.0154796
622.911	0.0154571
622.989	0.0152174
623.067	0.0153211
623.146	0.0153137
623.224	0.0153908
623.302	0.0154530
623.380	0.0151882
623.458	0.0154150
623.536	0.0155614
623.614	0.0155309
623.692	0.0153863
623.771	0.0155419
623.849	0.0156604
623.927	0.0157637
624.005	0.0156769
624.083	0.0157125
624.161	0.0156549
624.239	0.0155924
624.317	0.0156054
624.396	0.0156657
624.474	0.0157206
624.552	0.0156255
624.630	0.0157363
624.708	0.0157175
624.786	0.0156747
624.864	0.0157026
624.942	0.0156841
625.021	0.0158270
625.099	0.0159557
625.177	0.0159202
625.255	0.0158916
625.333	0.0159370
625.411	0.0160118
625.489	0.0160766
625.567	0.0160579
625.646	0.0159837
625.724	0.0161281
625.802	0.0161974
625.880	0.0163825
625.958	0.0161184
626.036	0.0162547
626.114	0.0163286
626.192	0.0163567
626.271	0.0163490
626.349	0.0164291
626.427	0.0164998
626.505	0.0166714
626.583	0.0165676
626.661	0.0164815
626.739	0.0166959
626.817	0.0165178
626.896	0.0165562
626.974	0.0164989
627.052	0.0165565
627.130	0.0165748
627.208	0.0164678
627.286	0.0164687
627.364	0.0163115
627.442	0.0163319
627.521	0.0163074
627.599	0.0163840
627.677	0.0163599
627.755	0.0161019
627.833	0.0162246
627.911	0.0162294
627.989	0.0160462
628.067	0.0162182
628.146	0.0161722
628.224	0.0162228
628.302	0.0161568
628.380	0.0162009
628.458	0.0161674
628.536	0.0161456
628.614	0.0162038
628.692	0.0163093
628.771	0.0162341
628.849	0.0160788
628.927	0.0162439
629.005	0.0162184
629.083	0.0160323
629.161	0.0161679
629.239	0.0160129
629.317	0.0161356
629.396	0.0160140
629.474	0.0159424
629.552	0.0162966
629.630	0.0160375
629.708	0.0160160
629.786	0.0160484
629.864	0.0159664
629.942	0.0160783
630.021	0.0159332
630.099	0.0160997
630.177	0.0160075
630.255	0.0159830
630.333	0.0160482
630.411	0.0159132
630.489	0.0160786
630.567	0.0160280
630.646	0.0159474
630.724	0.0159360
630.802	0.0159100
630.880	0.0159821
630.958	0.0158875
631.036	0.0160233
631.114	0.0159926
631.192	0.0161563
631.271	0.0159750
631.349	0.0159000
631.427	0.0160020
631.505	0.0160314
631.583	0.0158777
631.661	0.0160083
631.739	0.0160239
631.817	0.0161170
631.896	0.0161126
631.974	0.0160971
632.052	0.0159967
632.130	0.0160670
632.208	0.0160860
632.286	0.0161028
632.364	0.0161507
632.442	0.0162302
632.521	0.0162326
632.599	0.0161277
632.677	0.0162355
632.755	0.0162533
632.833	0.0163259
632.911	0.0162849
632.989	0.0163789
633.067	0.0164669
633.146	0.0163535
633.224	0.0164448
633.302	0.0163665
633.380	0.0163629
633.458	0.0163780
633.536	0.0164767
633.614	0.0164779
633.692	0.0164768
633.771	0.0164597
633.849	0.0163532
633.927	0.0163925
634.005	0.0164819
634.083	0.0164516
634.161	0.0164290
634.239	0.0166358
634.317	0.0164841
634.396	0.0164892
634.474	0.0166161
634.552	0.0167684
634.630	0.0165886
634.708	0.0165029
634.786	0.0165655
634.864	0.0166422
634.942	0.0167829
635.021	0.0166490
635.099	0.0166653
635.177	0.0167786
635.255	0.0167646
635.333	0.0165652
635.411	0.0167109
635.489	0.0166962
635.567	0.0167034
635.646	0.0168027
635.724	0.0166588
635.802	0.0166430
635.880	0.0167404
635.958	0.0166561
636.036	0.0166508
636.114	0.0166241
636.192	0.0165715
636.271	0.0165185
636.349	0.0164149
636.427	0.0165993
636.505	0.0164335
636.583	0.0165246
636.661	0.0166859
636.739	0.0164645
636.817	0.0165773
636.896	0.0166275
636.974	0.0166879
637.052	0.0166364
637.130	0.0167599
637.208	0.0166393
637.286	0.0167088
637.364	0.0166753
637.442	0.0166702
637.521	0.0165767
637.599	0.0166207
637.677	0.0166927
637.755	0.0166038
637.833	0.0165973
637.911	0.0166047
637.989	0.0167315
638.067	0.0165168
638.146	0.0165788
638.224	0.0165206
638.302	0.0165292
638.380	0.0165083
638.458	0.0164689
638.536	0.0165643
638.614	0.0165663
638.692	0.0164539
638.771	0.0164493
638.849	0.0165449
638.927	0.0163898
639.005	0.0164121
639.083	0.0163876
639.161	0.0164575
639.239	0.0165118
639.317	0.0164971
639.396	0.0164550
639.474	0.0163606
639.552	0.0164928
639.630	0.0165390
639.708	0.0165795
639.786	0.0164641
639.864	0.0165739
639.942	0.0164288
640.021	0.0165909
640.099	0.0165321
640.177	0.0164825
640.255	0.0165591
640.333	0.0165231
640.411	0.0164833
640.489	0.0164117
640.567	0.0164311
640.646	0.0165823
640.724	0.0165060
640.802	0.0165215
640.880	0.0163856
640.958	0.0163721
641.036	0.0164798
641.114	0.0163876
641.192	0.0164565
641.271	0.0162470
641.349	0.0163219
641.427	0.0162433
641.505	0.0162674
641.583	0.0161768
641.661	0.0163293
641.739	0.0163334
641.817	0.0161856
641.896	0.0162148
641.974	0.0162615
642.052	0.0162305
642.130	0.0161037
642.208	0.0162463
642.286	0.0161037
642.364	0.0160303
642.442	0.0162513
642.521	0.0162173
642.599	0.0161681
642.677	0.0161301
642.755	0.0160815
642.833	0.0162030
642.911	0.0161134
642.989	0.0160982
643.067	0.0160952
643.146	0.0160269
643.224	0.0160241
643.302	0.0160169
643.380	0.0161357
643.458	0.0161029
643.536	0.0161790
643.614	0.0162164
643.692	0.0161882
643.771	0.0161270
643.849	0.0161471
643.927	0.0161050
644.005	0.0161554
644.083	0.0161316
644.161	0.0161807
644.239	0.0162789
644.317	0.0162904
644.396	0.0161771
644.474	0.0162949
644.552	0.0164124
644.630	0.0162924
644.708	0.0162271
644.786	0.0161276
644.864	0.0162523
644.942	0.0162052
645.021	0.0162277
645.099	0.0162972
645.177	0.0162122
645.255	0.0164000
645.333	0.0162399
645.411	0.0163052
645.489	0.0161942
645.567	0.0160028
645.646	0.0161599
645.724	0.0161227
645.802	0.0160654
645.880	0.0159425
645.958	0.0161974
646.036	0.0161105
646.114	0.0160860
646.192	0.0161073
646.271	0.0159845
646.349	0.0159742
646.427	0.0159739
646.505	0.0158811
646.583	0.0160626
646.661	0.0160112
646.739	0.0159945
646.817	0.0160935
646.896	0.0160577
646.974	0.0159915
647.052	0.0158527
647.130	0.0158162
647.208	0.0160055
647.286	0.0159306
647.364	0.0159263
647.442	0.0160476
647.521	0.0159742
647.599	0.0159241
647.677	0.0159383
647.755	0.0160898
647.833	0.0159866
647.911	0.0161409
647.989	0.0161685
648.067	0.0163218
648.146	0.0162210
648.224	0.0161705
648.302	0.0162865
648.380	0.0163826
648.458	0.0163840
648.536	0.0163515
648.614	0.0161584
648.692	0.0164356
648.771	0.0163496
648.849	0.0161902
648.927	0.0162345
649.005	0.0162859
649.083	0.0161770
649.161	0.0161755
649.239	0.0161782
649.317	0.0161354
649.396	0.0161514
649.474	0.0162302
649.552	0.0163042
649.630	0.0163058
649.708	0.0163301
649.786	0.0162505
649.864	0.0163104
649.942	0.0164259
650.021	0.0164418
650.099	0.0164937
650.177	0.0165726
650.255	0.0166405
650.333	0.0165118
650.411	0.0166177
650.489	0.0165488
650.567	0.0165064
650.646	0.0164844
650.724	0.0165496
650.802	0.0166144
650.880	0.0165384
650.958	0.0164375
651.036	0.0164503
651.114	0.0165406
651.192	0.0165215
651.271	0.0162995
651.349	0.0164088
651.427	0.0166015
651.505	0.0162724
651.583	0.0164146
651.661	0.0165307
651.739	0.0163643
651.817	0.0164616
651.896	0.0163880
651.974	0.0163229
652.052	0.0164882
652.130	0.0162988
652.208	0.0164164
652.286	0.0162932
652.364	0.0164024
652.442	0.0165334
652.521	0.0163089
652.599	0.0163485
652.677	0.0161816
652.755	0.0162659
652.833	0.0162458
652.911	0.0162750
652.989	0.0161533
653.067	0.0162177
653.146	0.0163955
653.224	0.0162724
653.302	0.0161354
653.380	0.0163393
653.458	0.0161874
653.536	0.0162595
653.614	0.0161346
653.692	0.0163061
653.771	0.0162393
653.849	0.0162819
653.927	0.0163608
654.005	0.0163641
654.083	0.0162457
654.161	0.0162041
654.239	0.0161199
654.317	0.0161217
654.396	0.0162631
654.474	0.0162453
654.552	0.0160981
654.630	0.0163022
654.708	0.0162807
654.786	0.0163017
654.864	0.0163552
654.942	0.0164430
655.021	0.0164379
655.099	0.0163726
655.177	0.0164449
655.255	0.0164954
655.333	0.0165825
655.411	0.0164580
655.489	0.0163950
655.567	0.0165253
655.646	0.0165522
655.724	0.0165322
655.802	0.0164832
655.880	0.0165101
655.958	0.0165262
656.036	0.0164492
656.114	0.0165549
656.192	0.0164362
656.271	0.0164505
656.349	0.0164041
656.427	0.0163055
656.505	0.0164501
656.583	0.0164634
656.661	0.0163326
656.739	0.0164256
656.817	0.0163648
656.896	0.0163000
656.974	0.0164255
657.052	0.0163185
657.130	0.0164699
657.208	0.0163390
657.286	0.0163687
657.364	0.0165038
657.442	0.0163896
657.521	0.0164202
657.599	0.0163369
657.677	0.0163129
657.755	0.0163391
657.833	0.0161948
657.911	0.0163966
657.989	0.0164877
658.067	0.0163112
658.146	0.0163998
658.224	0.0162583
658.302	0.0163280
658.380	0.0163916
658.458	0.0163674
658.536	0.0162292
658.614	0.0163445
658.692	0.0164810
658.771	0.0162441
658.849	0.0164805
658.927	0.0163503
659.005	0.0163953
659.083	0.0163693
659.161	0.0163964
659.239	0.0164146
659.317	0.0164207
659.396	0.0164206
659.474	0.0163432
659.552	0.0162946
659.630	0.0164388
659.708	0.0164613
659.786	0.0164646
659.864	0.0165279
659.942	0.0163391
660.021	0.0165289
660.099	0.0165897
660.177	0.0165138
660.255	0.0163625
660.333	0.0164973
660.411	0.0165732
660.489	0.0164128
660.567	0.0165203
660.646	0.0165006
660.724	0.0164893
660.802	0.0164492
660.880	0.0164708
660.958	0.0164277
661.036	0.0164140
661.114	0.0163747
661.192	0.0163846
661.271	0.0163491
661.349	0.0163834
661.427	0.0163693
661.505	0.0164992
661.583	0.0164872
661.661	0.0164954
661.739	0.0163264
661.817	0.0163415
661.896	0.0163397
661.974	0.0163931
662.052	0.0164216
662.130	0.0163705
662.208	0.0163378
662.286	0.0163587
662.364	0.0164068
662.442	0.0163860
662.521	0.0163307
662.599	0.0163256
662.677	0.0161843
662.755	0.0160557
662.833	0.0162479
662.911	0.0162383
662.989	0.0162979
663.067	0.0162355
663.146	0.0162804
663.224	0.0162691
663.302	0.0162942
663.380	0.0162944
663.458	0.0162762
663.536	0.0161114
663.614	0.0163984
663.692	0.0164896
663.771	0.0163561
663.849	0.0161326
663.927	0.0162614
664.005	0.0162694
664.083	0.0163052
664.161	0.0162786
664.239	0.0162362
664.317	0.0162469
664.396	0.0161251
664.474	0.0162240
664.552	0.0160633
664.630	0.0160796
664.708	0.0161621
664.786	0.0160948
664.864	0.0161195
664.942	0.0161728
665.021	0.0162041
665.099	0.0162095
665.177	0.0160502
665.255	0.0161474
665.333	0.0161932
665.411	0.0162087
665.489	0.0161333
665.567	0.0161539
665.646	0.0161880
665.724	0.0162724
665.802	0.0162680
665.880	0.0162012
665.958	0.0161590
666.036	0.0162807
666.114	0.0162724
666.192	0.0162832
666.271	0.0163299
666.349	0.0161326
666.427	0.0163103
666.505	0.0164100
666.583	0.0163010
666.661	0.0162421
666.739	0.0162041
666.817	0.0162251
666.896	0.0164386
666.974	0.0162676
667.052	0.0162500
667.130	0.0162761
667.208	0.0162829
667.286	0.0162883
667.364	0.0161227
667.442	0.0162030
667.521	0.0162675
667.599	0.0162231
667.677	0.0162405
667.755	0.0160728
667.833	0.0161652
667.911	0.0161754
667.989	0.0161455
668.067	0.0160724
668.146	0.0162513
668.224	0.0160500
668.302	0.0161470
668.380	0.0160026
668.458	0.0160249
668.536	0.0161539
668.614	0.0160638
668.692	0.0161488
668.771	0.0161758
668.849	0.0161718
668.927	0.0161721
669.005	0.0161930
669.083	0.0161636
669.161	0.0162324
669.239	0.0161977
669.317	0.0162000
669.396	0.0160238
669.474	0.0161130
669.552	0.0162379
669.630	0.0161629
669.708	0.0161535
669.786	0.0161620
669.864	0.0160513
669.942	0.0160127
670.021	0.0161791
670.099	0.0160172
670.177	0.0160789
670.255	0.0158976
670.333	0.0159579
670.411	0.0159210
670.489	0.0160544
670.567	0.0160540
670.646	0.0159777
670.724	0.0160033
670.802	0.0160922
670.880	0.0160833
670.958	0.0160605
671.036	0.0161871
671.114	0.0159886
671.192	0.0159837
671.271	0.0160516
671.349	0.0161772
671.427	0.0161313
671.505	0.0161485
671.583	0.0160889
671.661	0.0160960
671.739	0.0162317
671.817	0.0162811
671.896	0.0161532
671.974	0.0161185
672.052	0.0162494
672.130	0.0163088
672.208	0.0162859
672.286	0.0164126
672.364	0.0163056
672.442	0.0162544
672.521	0.0162816
672.599	0.0162867
672.677	0.0163502
672.755	0.0163313
672.833	0.0162660
672.911	0.0163190
672.989	0.0163847
673.067	0.0163976
673.146	0.0163181
673.224	0.0163783
673.302	0.0164883
673.380	0.0163376
673.458	0.0163979
673.536	0.0163522
673.614	0.0163834
673.692	0.0163409
673.771	0.0163548
673.849	0.0164362
673.927	0.0163364
674.005	0.0164626
674.083	0.0165311
674.161	0.0166033
674.239	0.0164590
674.317	0.0164115
674.396	0.0165337
674.474	0.0165152
674.552	0.0164575
674.630	0.0164970
674.708	0.0165653
674.786	0.0165765
674.864	0.0165691
674.942	0.0166342
675.021	0.0164842
675.099	0.0165395
675.177	0.0165712
675.255	0.0165045
675.333	0.0165472
675.411	0.0165816
675.489	0.0166373
675.567	0.0165748
675.646	0.0164499
675.724	0.0166671
675.802	0.0165527
675.880	0.0164434
675.958	0.0165470
676.036	0.0167039
676.114	0.0166483
676.192	0.0165470
676.271	0.0164047
676.349	0.0163301
676.427	0.0162679
676.505	0.0162218
676.583	0.0161756
676.661	0.0161861
676.739	0.0163496
676.817	0.0163477
676.896	0.0162434
676.974	0.0161335
677.052	0.0161691
677.130	0.0160776
677.208	0.0161269
677.286	0.0161353
677.364	0.0161415
677.442	0.0160275
677.521	0.0161726
677.599	0.0161452
677.677	0.0162456
677.755	0.0161679
677.833	0.0162165
677.911	0.0162971
677.989	0.0162489
678.067	0.0163156
678.146	0.0162038
678.224	0.0162146
678.302	0.0163114
678.380	0.0161465
678.458	0.0161826
678.536	0.0162233
678.614	0.0160972
678.692	0.0161905
678.771	0.0163276
678.849	0.0161721
678.927	0.0162394
679.005	0.0161842
679.083	0.0162517
679.161	0.0162144
679.239	0.0161507
679.317	0.0162667
679.396	0.0163194
679.474	0.0164179
679.552	0.0164999
679.630	0.0161905
679.708	0.0163417
679.786	0.0163915
679.864	0.0163928
679.942	0.0163811
680.021	0.0165059
680.099	0.0164358
680.177	0.0163854
680.255	0.0164166
680.333	0.0164127
680.411	0.0163867
680.489	0.0163985
680.567	0.0163791
680.646	0.0164114
680.724	0.0163914
680.802	0.0163411
680.880	0.0163586
680.958	0.0162542
681.036	0.0163186
681.114	0.0164037
681.192	0.0161994
681.271	0.0160500
681.349	0.0161697
681.427	0.0162521
681.505	0.0161163
681.583	0.0161555
681.661	0.0160795
681.739	0.0161525
681.817	0.0162843
681.896	0.0163210
681.974	0.0162408
682.052	0.0160993
682.130	0.0162423
682.208	0.0163294
682.286	0.0163523
682.364	0.0162231
682.442	0.0161705
682.521	0.0163184
682.599	0.0162746
682.677	0.0161755
682.755	0.0163308
682.833	0.0163483
682.911	0.0163307
682.989	0.0161282
683.067	0.0162840
683.146	0.0163054
683.224	0.0163408
683.302	0.0163393
683.380	0.0163447
683.458	0.0163091
683.536	0.0161970
683.614	0.0162319
683.692	0.0162489
683.771	0.0162370
683.849	0.0163158
683.927	0.0161983
684.005	0.0162462
684.083	0.0161870
684.161	0.0162413
684.239	0.0162127
684.317	0.0161190
684.396	0.0159518
684.474	0.0162000
684.552	0.0162593
684.630	0.0162251
684.708	0.0163076
684.786	0.0162377
684.864	0.0161780
684.942	0.0162781
685.021	0.0161568
685.099	0.0161758
685.177	0.0162900
685.255	0.0162212
685.333	0.0160896
685.411	0.0160538
685.489	0.0161830
685.567	0.0161913
685.646	0.0162832
685.724	0.0161246
685.802	0.0160675
685.880	0.0161481
685.958	0.0161652
686.036	0.0161306
686.114	0.0160838
686.192	0.0161912
686.271	0.0160774
686.349	0.0160175
686.427	0.0161422
686.505	0.0162534
686.583	0.0160641
686.661	0.0162450
686.739	0.0160727
686.817	0.0160149
686.896	0.0160712
686.974	0.0161636
687.052	0.0161854
687.130	0.0160645
687.208	0.0159951
687.286	0.0161131
687.364	0.0160679
687.442	0.0161760
687.521	0.0160233
687.599	0.0161340
687.677	0.0161983
687.755	0.0160677
687.833	0.0160117
687.911	0.0160276
687.989	0.0161777
688.067	0.0161460
688.146	0.0161335
688.224	0.0160005
688.302	0.0161217
688.380	0.0161137
688.458	0.0161304
688.536	0.0161600
688.614	0.0161863
688.692	0.0162079
688.771	0.0162138
688.849	0.0162720
688.927	0.0163246
689.005	0.0161516
689.083	0.0163235
689.161	0.0162430
689.239	0.0161670
689.317	0.0161766
689.396	0.0162913
689.474	0.0163513
689.552	0.0162196
689.630	0.0162904
689.708	0.0161535
689.786	0.0163615
689.864	0.0163889
689.942	0.0162834
690.021	0.0163351
690.099	0.0162259
690.177	0.0163516
690.255	0.0163591
690.333	0.0163140
690.411	0.0162764
690.489	0.0163405
690.567	0.0163297
690.646	0.0164089
690.724	0.0162626
690.802	0.0163160
690.880	0.0163235
690.958	0.0161810
691.036	0.0163177
691.114	0.0164069
691.192	0.0164254
691.271	0.0162386
691.349	0.0163560
691.427	0.0163673
691.505	0.0163699
691.583	0.0162927
691.661	0.0161533
691.739	0.0164399
691.817	0.0163159
691.896	0.0162570
691.974	0.0162902
692.052	0.0162180
692.130	0.0163512
692.208	0.0164340
692.286	0.0162840
692.364	0.0163497
692.442	0.0164063
692.521	0.0162026
692.599	0.0162294
692.677	0.0161646
692.755	0.0162877
692.833	0.0162001
692.911	0.0160849
692.989	0.0162578
693.067	0.0160313
693.146	0.0160340
693.224	0.0160184
693.302	0.0161426
693.380	0.0160886
693.458	0.0160825
693.536	0.0160299
693.614	0.0162334
693.692	0.0161664
693.771	0.0159505
693.849	0.0161880
693.927	0.0159531
694.005	0.0160237
694.083	0.0160633
694.161	0.0160847
694.239	0.0160084
694.317	0.0159140
694.396	0.0160418
694.474	0.0160359
694.552	0.0160952
694.630	0.0160019
694.708	0.0158566
694.786	0.0160482
694.864	0.0159078
694.942	0.0159840
695.021	0.0159911
695.099	0.0160114
695.177	0.0160516
695.255	0.0160032
695.333	0.0159274
695.411	0.0160040
695.489	0.0159537
695.567	0.0159315
695.646	0.0158939
695.724	0.0158765
695.802	0.0159893
695.880	0.0161735
695.958	0.0159781
696.036	0.0159322
696.114	0.0159998
696.192	0.0161259
696.271	0.0159410
696.349	0.0158832
696.427	0.0158662
696.505	0.0159680
696.583	0.0158665
696.661	0.0160016
696.739	0.0160046
696.817	0.0159149
696.896	0.0160248
696.974	0.0159911
697.052	0.0160773
697.130	0.0160455
697.208	0.0161119
697.286	0.0161893
697.364	0.0160962
697.442	0.0161428
697.521	0.0161369
697.599	0.0161496
697.677	0.0162755
697.755	0.0161020
697.833	0.0160180
697.911	0.0161331
697.989	0.0162025
698.067	0.0161286
698.146	0.0162421
698.224	0.0163033
698.302	0.0161726
698.380	0.0161422
698.458	0.0160728
698.536	0.0161179
698.614	0.0161349
698.692	0.0162338
698.771	0.0160780
698.849	0.0160870
698.927	0.0162064
699.005	0.0162846
699.083	0.0161936
699.161	0.0161377
699.239	0.0162150
699.317	0.0162709
699.396	0.0162172
699.474	0.0162021
699.552	0.0162753
699.630	0.0161113
699.708	0.0161730
699.786	0.0162935
699.864	0.0161187
699.942	0.0161684
700.021	0.0161061
700.099	0.0160466
700.177	0.0161618
700.255	0.0161929
700.333	0.0159946
700.411	0.0161484
700.489	0.0161835
700.567	0.0162176
700.646	0.0162140
700.724	0.0161816
700.802	0.0162600
700.880	0.0162798
700.958	0.0163326
701.036	0.0162820
701.114	0.0163101
701.192	0.0163134
701.271	0.0164277
701.349	0.0164739
701.427	0.0164806
701.505	0.0162981
701.583	0.0165346
701.661	0.0164751
701.739	0.0162847
701.817	0.0164326
701.896	0.0162734
701.974	0.0163568
702.052	0.0162515
702.130	0.0163817
702.208	0.0163155
702.286	0.0161466
702.364	0.0162315
702.442	0.0161562
702.521	0.0161710
702.599	0.0162753
702.677	0.0163295
702.755	0.0163772
702.833	0.0161944
702.911	0.0163062
702.989	0.0162940
703.067	0.0162090
703.146	0.0162767
703.224	0.0163262
703.302	0.0162553
703.380	0.0163554
703.458	0.0164713
703.536	0.0163354
703.614	0.0162850
703.692	0.0165002
703.771	0.0163960
703.849	0.0163544
703.927	0.0165356
704.005	0.0163759
704.083	0.0165266
704.161	0.0165273
704.239	0.0164811
704.317	0.0165007
704.396	0.0165193
704.474	0.0164436
704.552	0.0165154
704.630	0.0164504
704.708	0.0165232
704.786	0.0165318
704.864	0.0164070
704.942	0.0165286
705.021	0.0164658
705.099	0.0164320
705.177	0.0164879
705.255	0.0166471
705.333	0.0164346
705.411	0.0163557
705.489	0.0165639
705.567	0.0165043
705.646	0.0163552
705.724	0.0164182
705.802	0.0163367
705.880	0.0163242
705.958	0.0162635
706.036	0.0163391
706.114	0.0163223
706.192	0.0162697
706.271	0.0161359
706.349	0.0162206
706.427	0.0162042
706.505	0.0161535
706.583	0.0161522
706.661	0.0161161
706.739	0.0160341
706.817	0.0161374
706.896	0.0160922
706.974	0.0159924
707.052	0.0159796
707.130	0.0160864
707.208	0.0160704
707.286	0.0160165
707.364	0.0161578
707.442	0.0159492
707.521	0.0161147
707.599	0.0160036
707.677	0.0159531
707.755	0.0160953
707.833	0.0160229
707.911	0.0160084
707.989	0.0158862
708.067	0.0160220
708.146	0.0159928
708.224	0.0159409
708.302	0.0160616
708.380	0.0158907
708.458	0.0160647
708.536	0.0160752
708.614	0.0159171
708.692	0.0160221
708.771	0.0160343
708.849	0.0159896
708.927	0.0159615
709.005	0.0159636
709.083	0.0160375
709.161	0.0160780
709.239	0.0160226
709.317	0.0161223
709.396	0.0161153
709.474	0.0160844
709.552	0.0161921
709.630	0.0161858
709.708	0.0162406
709.786	0.0160880
709.864	0.0162746
709.942	0.0163197
710.021	0.0162180
710.099	0.0163651
710.177	0.0160811
710.255	0.0162043
710.333	0.0162179
710.411	0.0161926
710.489	0.0162196
710.567	0.0161621
710.646	0.0161347
710.724	0.0161478
710.802	0.0162479
710.880	0.0160448
710.958	0.0160339
711.036	0.0160709
711.114	0.0161166
711.192	0.0161959
711.271	0.0161204
711.349	0.0162011
711.427	0.0162052
711.505	0.0162481
711.583	0.0161536
711.661	0.0162881
711.739	0.0163123
711.817	0.0163921
711.896	0.0164477
711.974	0.0163962
712.052	0.0164046
712.130	0.0163164
712.208	0.0164175
712.286	0.0164214
712.364	0.0164486
712.442	0.0164268
712.521	0.0162411
712.599	0.0163239
712.677	0.0162507
712.755	0.0163171
712.833	0.0163819
712.911	0.0164224
712.989	0.0161259
713.067	0.0161983
713.146	0.0162695
713.224	0.0163067
713.302	0.0162978
713.380	0.0161681
713.458	0.0164169
713.536	0.0164544
713.614	0.0162915
713.692	0.0165287
713.771	0.0164784
713.849	0.0165229
713.927	0.0163921
714.005	0.0165694
714.083	0.0166508
714.161	0.0165727
714.239	0.0167001
714.317	0.0166248
714.396	0.0167670
714.474	0.0166525
714.552	0.0167263
714.630	0.0168781
714.708	0.0168341
714.786	0.0169424
714.864	0.0168810
714.942	0.0168132
715.021	0.0168843
715.099	0.0169405
715.177	0.0169196
715.255	0.0167632
715.333	0.0168037
715.411	0.0168156
715.489	0.0168104
715.567	0.0168488
715.646	0.0167656
715.724	0.0168874
715.802	0.0168147
715.880	0.0165660
715.958	0.0166304
716.036	0.0165967
716.114	0.0164997
716.192	0.0166352
716.271	0.0165961
716.349	0.0165446
716.427	0.0166843
716.505	0.0167519
716.583	0.0167376
716.661	0.0166643
716.739	0.0165841
716.817	0.0167619
716.896	0.0166882
716.974	0.0166980
717.052	0.0167338
717.130	0.0166977
717.208	0.0167945
717.286	0.0167107
717.364	0.0166931
717.442	0.0166893
717.521	0.0164464
717.599	0.0165701
717.677	0.0165363
717.755	0.0163960
717.833	0.0162727
717.911	0.0161112
717.989	0.0162164
718.067	0.0160869
718.146	0.0160061
718.224	0.0158408
718.302	0.0157745
718.380	0.0158515
718.458	0.0158969
718.536	0.0157700
718.614	0.0157613
718.692	0.0158566
718.771	0.0159084
718.849	0.0158533
718.927	0.0159261
719.005	0.0159614
719.083	0.0160043
719.161	0.0160735
719.239	0.0159818
719.317	0.0161053
719.396	0.0161378
719.474	0.0162713
719.552	0.0162487
719.630	0.0163741
719.708	0.0163876
719.786	0.0163755
719.864	0.0163971
719.942	0.0162788
720.021	0.0163314
720.099	0.0163100
720.177	0.0163953
720.255	0.0164202
720.333	0.0161975
720.411	0.0162907
720.489	0.0163519
720.567	0.0160387
720.646	0.0164132
720.724	0.0163126
720.802	0.0161272
720.880	0.0161906
720.958	0.0161624
721.036	0.0162801
721.114	0.0163022
721.192	0.0161957
721.271	0.0160708
721.349	0.0162000
721.427	0.0161259
721.505	0.0161909
721.583	0.0161983
721.661	0.0160821
721.739	0.0161765
721.817	0.0161499
721.896	0.0160864
721.974	0.0158768
722.052	0.0160728
722.130	0.0160088
722.208	0.0159689
722.286	0.0160036
722.364	0.0161118
722.442	0.0161692
722.521	0.0162695
722.599	0.0162465
722.677	0.0164415
722.755	0.0164711
722.833	0.0166081
722.911	0.0164917
722.989	0.0165565
723.067	0.0165767
723.146	0.0166040
723.224	0.0165808
723.302	0.0167273
723.380	0.0165730
723.458	0.0165424
723.536	0.0165292
723.614	0.0163676
723.692	0.0165434
723.771	0.0164519
723.849	0.0164473
723.927	0.0165532
724.005	0.0165281
724.083	0.0165221
724.161	0.0165453
724.239	0.0164430
724.317	0.0164451
724.396	0.0164115
724.474	0.0166837
724.552	0.0166433
724.630	0.0165930
724.708	0.0165998
724.786	0.0165327
724.864	0.0166256
724.942	0.0166668
725.021	0.0165546
725.099	0.0166257
725.177	0.0165524
725.255	0.0164954
725.333	0.0167285
725.411	0.0165282
725.489	0.0166511
725.567	0.0164738
725.646	0.0165026
725.724	0.0165782
725.802	0.0166425
725.880	0.0166295
725.958	0.0165701
726.036	0.0164263
726.114	0.0163927
726.192	0.0165460
726.271	0.0164931
726.349	0.0165527
726.427	0.0162666
726.505	0.0164996
726.583	0.0163736
726.661	0.0165411
726.739	0.0165480
726.817	0.0162997
726.896	0.0165350
726.974	0.0163962
727.052	0.0163778
727.130	0.0164284
727.208	0.0164629
727.286	0.0165012
727.364	0.0164936
727.442	0.0164216
727.521	0.0165710
727.599	0.0165348
727.677	0.0164073
727.755	0.0165800
727.833	0.0164494
727.911	0.0163895
727.989	0.0163488
728.067	0.0163573
728.146	0.0163760
728.224	0.0163180
728.302	0.0162646
728.380	0.0162160
728.458	0.0162593
728.536	0.0161221
728.614	0.0161962
728.692	0.0162946
728.771	0.0161502
728.849	0.0160759
728.927	0.0160518
729.005	0.0159629
729.083	0.0161294
729.161	0.0161270
729.239	0.0159798
729.317	0.0160717
729.396	0.0159943
729.474	0.0160517
729.552	0.0160920
729.630	0.0160159
729.708	0.0161395
729.786	0.0161096
729.864	0.0160167
729.942	0.0160394
730.021	0.0161549
730.099	0.0162883
730.177	0.0161651
730.255	0.0162392
730.333	0.0161530
730.411	0.0160973
730.489	0.0160964
730.567	0.0159573
730.646	0.0161027
730.724	0.0160671
730.802	0.0160523
730.880	0.0162179
730.958	0.0160106
731.036	0.0160183
731.114	0.0159913
731.192	0.0160936
731.271	0.0160663
731.349	0.0160016
731.427	0.0158843
731.505	0.0160395
731.583	0.0157602
731.661	0.0159212
731.739	0.0159306
731.817	0.0160194
731.896	0.0159640
731.974	0.0158705
732.052	0.0157792
732.130	0.0158814
732.208	0.0158676
732.286	0.0159731
732.364	0.0159232
732.442	0.0159267
732.521	0.0160532
732.599	0.0159512
732.677	0.0160581
732.755	0.0160210
732.833	0.0161295
732.911	0.0161459
732.989	0.0161941
733.067	0.0162506
733.146	0.0163613
733.224	0.0163155
733.302	0.0163573
733.380	0.0163062
733.458	0.0161667
733.536	0.0162761
733.614	0.0162964
733.692	0.0164874
733.771	0.0163896
733.849	0.0162937
733.927	0.0163744
734.005	0.0163948
734.083	0.0163762
734.161	0.0164194
734.239	0.0164349
734.317	0.0164088
734.396	0.0165445
734.474	0.0163826
734.552	0.0164207
734.630	0.0165037
734.708	0.0164563
734.786	0.0164925
734.864	0.0164621
734.942	0.0165192
735.021	0.0164118
735.099	0.0165065
735.177	0.0165845
735.255	0.0164977
735.333	0.0165034
735.411	0.0166850
735.489	0.0166036
735.567	0.0165300
735.646	0.0166261
735.724	0.0167892
735.802	0.0166537
735.880	0.0166092
735.958	0.0167570
736.036	0.0166653
736.114	0.0167592
736.192	0.0167580
736.271	0.0166855
736.349	0.0166730
736.427	0.0167575
736.505	0.0166085
736.583	0.0166772
736.661	0.0166112
736.739	0.0166754
736.817	0.0165878
736.896	0.0165585
736.974	0.0166288
737.052	0.0166183
737.130	0.0165868
737.208	0.0167369
737.286	0.0165807
737.364	0.0168382
737.442	0.0166365
737.521	0.0166059
737.599	0.0166473
737.677	0.0166077
737.755	0.0166277
737.833	0.0166302
737.911	0.0166424
737.989	0.0167094
738.067	0.0165851
738.146	0.0164418
738.224	0.0164729
738.302	0.0165501
738.380	0.0165763
738.458	0.0164582
738.536	0.0165565
738.614	0.0164946
738.692	0.0165883
738.771	0.0165105
738.849	0.0165254
738.927	0.0164793
739.005	0.0164822
739.083	0.0165665
739.161	0.0164481
739.239	0.0165260
739.317	0.0166137
739.396	0.0165262
739.474	0.0164928
739.552	0.0164693
739.630	0.0165851
739.708	0.0164711
739.786	0.0165466
739.864	0.0163991
739.942	0.0165115
740.021	0.0164106
740.099	0.0165414
740.177	0.0163385
740.255	0.0163927
740.333	0.0164422
740.411	0.0162075
740.489	0.0162882
740.567	0.0162887
740.646	0.0163274
740.724	0.0162119
740.802	0.0163068
740.880	0.0162762
740.958	0.0162992
741.036	0.0161059
741.114	0.0160839
741.192	0.0160951
741.271	0.0161821
741.349	0.0162528
741.427	0.0160256
741.505	0.0160323
741.583	0.0160394
741.661	0.0161354
741.739	0.0160747
741.817	0.0159783
741.896	0.0160378
741.974	0.0158389
742.052	0.0160390
742.130	0.0160220
742.208	0.0159800
742.286	0.0160089
742.364	0.0160622
742.442	0.0159953
742.521	0.0160276
742.599	0.0161306
742.677	0.0160832
742.755	0.0160046
742.833	0.0161458
742.911	0.0161650
742.989	0.0162685
743.067	0.0162828
743.146	0.0161654
743.224	0.0162859
743.302	0.0163506
743.380	0.0161881
743.458	0.0162690
743.536	0.0163224
743.614	0.0162730
743.692	0.0162804
743.771	0.0161716
743.849	0.0164236
743.927	0.0163521
744.005	0.0163676
744.083	0.0162990
744.161	0.0163517
744.239	0.0164198
744.317	0.0165019
744.396	0.0164570
744.474	0.0165344
744.552	0.0165692
744.630	0.0163138
744.708	0.0166604
744.786	0.0166541
744.864	0.0165800
744.942	0.0166590
745.021	0.0166558
745.099	0.0164951
745.177	0.0166582
745.255	0.0164793
745.333	0.0164672
745.411	0.0165765
745.489	0.0166296
745.567	0.0165446
745.646	0.0164688
745.724	0.0164301
745.802	0.0164561
745.880	0.0165671
745.958	0.0165160
746.036	0.0164557
746.114	0.0165250
746.192	0.0165810
746.271	0.0165105
746.349	0.0165772
746.427	0.0164875
746.505	0.0165255
746.583	0.0165386
746.661	0.0165530
746.739	0.0165525
746.817	0.0164852
746.896	0.0165062
746.974	0.0165877
747.052	0.0165200
747.130	0.0166395
747.208	0.0164714
747.286	0.0164316
747.364	0.0164780
747.442	0.0163536
747.521	0.0163363
747.599	0.0164115
747.677	0.0163953
747.755	0.0163547
747.833	0.0163437
747.911	0.0162192
747.989	0.0162897
748.067	0.0163052
748.146	0.0163097
748.224	0.0162437
748.302	0.0161941
748.380	0.0162833
748.458	0.0162344
748.536	0.0161153
748.614	0.0161587
748.692	0.0161933
748.771	0.0161176
748.849	0.0161553
748.927	0.0160471
749.005	0.0161320
749.083	0.0160718
749.161	0.0162818
749.239	0.0161879
749.317	0.0161050
749.396	0.0161420
749.474	0.0161340
749.552	0.0160948
749.630	0.0160603
749.708	0.0161330
749.786	0.0159654
749.864	0.0159311
749.942	0.0160104
750.021	0.0160099
750.099	0.0160352
750.177	0.0160729
750.255	0.0160081
750.333	0.0159334
750.411	0.0160772
750.489	0.0160239
750.567	0.0160469
750.646	0.0159523
750.724	0.0161067
750.802	0.0161046
750.880	0.0160667
750.958	0.0160561
751.036	0.0160665
751.114	0.0160922
751.192	0.0160191
751.271	0.0160442
751.349	0.0161127
751.427	0.0160997
751.505	0.0161293
751.583	0.0161253
751.661	0.0162299
751.739	0.0161891
751.817	0.0161969
751.896	0.0161372
751.974	0.0162260
752.052	0.0163924
752.130	0.0162122
752.208	0.0161885
752.286	0.0162617
752.364	0.0161766
752.442	0.0161806
752.521	0.0163031
752.599	0.0163309
752.677	0.0163386
752.755	0.0162917
752.833	0.0161495
752.911	0.0162244
752.989	0.0161137
753.067	0.0163212
753.146	0.0162629
753.224	0.0163551
753.302	0.0163985
753.380	0.0162253
753.458	0.0162050
753.536	0.0162810
753.614	0.0162714
753.692	0.0161998
753.771	0.0163229
753.849	0.0162892
753.927	0.0160654
754.005	0.0161245
754.083	0.0161810
754.161	0.0161565
754.239	0.0161887
754.317	0.0162399
754.396	0.0160986
754.474	0.0162099
754.552	0.0162283
754.630	0.0161491
754.708	0.0162182
754.786	0.0163292
754.864	0.0163351
754.942	0.0162542
755.021	0.0162207
755.099	0.0161842
755.177	0.0161809
755.255	0.0160703
755.333	0.0162059
755.411	0.0162335
755.489	0.0161912
755.567	0.0160326
755.646	0.0161362
755.724	0.0162614
755.802	0.0161372
755.880	0.0160902
755.958	0.0160577
756.036	0.0160996
756.114	0.0161057
756.192	0.0162328
756.271	0.0162253
756.349	0.0162779
756.427	0.0162288
756.505	0.0161320
756.583	0.0162217
756.661	0.0162304
756.739	0.0162959
756.817	0.0162454
756.896	0.0161980
756.974	0.0161022
757.052	0.0161798
757.130	0.0162946
757.208	0.0162714
757.286	0.0161066
757.364	0.0160033
757.442	0.0160362
757.521	0.0160187
757.599	0.0161381
757.677	0.0159433
757.755	0.0160192
757.833	0.0161161
757.911	0.0161972
757.989	0.0161915
758.067	0.0161687
758.146	0.0162466
758.224	0.0163883
758.302	0.0164207
758.380	0.0163129
758.458	0.0163538
758.536	0.0163268
758.614	0.0164968
758.692	0.0165371
758.771	0.0165287
758.849	0.0163944
758.927	0.0165003
759.005	0.0165302
759.083	0.0166570
759.161	0.0165616
759.239	0.0164781
759.317	0.0167071
759.396	0.0166149
759.474	0.0165536
759.552	0.0167242
759.630	0.0165739
759.708	0.0165183
759.786	0.0166385
759.864	0.0164906
759.942	0.0166379
760.021	0.0165201
760.099	0.0166009
760.177	0.0166852
760.255	0.0164673
760.333	0.0164974
760.411	0.0164674
760.489	0.0163171
760.567	0.0164802
760.646	0.0163434
760.724	0.0162403
760.802	0.0164118
760.880	0.0164780
760.958	0.0164103
761.036	0.0161816
761.114	0.0162635
761.192	0.0162740
761.271	0.0163802
761.349	0.0162429
761.427	0.0162266
761.505	0.0161621
761.583	0.0161357
761.661	0.0161620
761.739	0.0161977
761.817	0.0161243
761.896	0.0160467
761.974	0.0160939
762.052	0.0161102
762.130	0.0160131
762.208	0.0160766
762.286	0.0158450
762.364	0.0159171
762.442	0.0160732
762.521	0.0160001
762.599	0.0159340
762.677	0.0158755
762.755	0.0160303
762.833	0.0160162
762.911	0.0160718
762.989	0.0158966
763.067	0.0159680
763.146	0.0159559
763.224	0.0159949
763.302	0.0160296
763.380	0.0158487
763.458	0.0159519
763.536	0.0159345
763.614	0.0161419
763.692	0.0158959
763.771	0.0157556
763.849	0.0159544
763.927	0.0159087
764.005	0.0157362
764.083	0.0159195
764.161	0.0158810
764.239	0.0158585
764.317	0.0159209
764.396	0.0160753
764.474	0.0159737
764.552	0.0159161
764.630	0.0160555
764.708	0.0160219
764.786	0.0160843
764.864	0.0160909
764.942	0.0161707
765.021	0.0163459
765.099	0.0161381
765.177	0.0161637
765.255	0.0161862
765.333	0.0161469
765.411	0.0162832
765.489	0.0163571
765.567	0.0161698
765.646	0.0162569
765.724	0.0162596
765.802	0.0163454
765.880	0.0162526
765.958	0.0163485
766.036	0.0164151
766.114	0.0163872
766.192	0.0163333
766.271	0.0162722
766.349	0.0163985
766.427	0.0164368
766.505	0.0164447
766.583	0.0164267
766.661	0.0163093
766.739	0.0163177
766.817	0.0163638
766.896	0.0162591
766.974	0.0163995
767.052	0.0163108
767.130	0.0163728
767.208	0.0163770
767.286	0.0163313
767.364	0.0162233
767.442	0.0162643
767.521	0.0163474
767.599	0.0163811
767.677	0.0164038
767.755	0.0164601
767.833	0.0163554
767.911	0.0163029
767.989	0.0165086
768.067	0.0164764
768.146	0.0164639
768.224	0.0164579
768.302	0.0163955
768.380	0.0164303
768.458	0.0164914
768.536	0.0163541
768.614	0.0163451
768.692	0.0164153
768.771	0.0163070
768.849	0.0163203
768.927	0.0162831
769.005	0.0161873
769.083	0.0162711
769.161	0.0162113
769.239	0.0161414
769.317	0.0161159
769.396	0.0160818
769.474	0.0159609
769.552	0.0160813
769.630	0.0159775
769.708	0.0159409
769.786	0.0160042
769.864	0.0161042
769.942	0.0161066
770.021	0.0159643
770.099	0.0160149
770.177	0.0160719
770.255	0.0160965
770.333	0.0160388
770.411	0.0160088
770.489	0.0159884
770.567	0.0159290
770.646	0.0159433
770.724	0.0158029
770.802	0.0159316
770.880	0.0158939
770.958	0.0158373
771.036	0.0157815
771.114	0.0158522
771.192	0.0157327
771.271	0.0157861
771.349	0.0157300
771.427	0.0156732
771.505	0.0157001
771.583	0.0157521
771.661	0.0157080
771.739	0.0156858
771.817	0.0156579
771.896	0.0158315
771.974	0.0157192
772.052	0.0156536
772.130	0.0157970
772.208	0.0158849
772.286	0.0158516
772.364	0.0159856
772.442	0.0160028
772.521	0.0160026
772.599	0.0161280
772.677	0.0161411
772.755	0.0158742
772.833	0.0160720
772.911	0.0159610
772.989	0.0161079
773.067	0.0159512
773.146	0.0161020
773.224	0.0161066
773.302	0.0158628
773.380	0.0158904
773.458	0.0160159
773.536	0.0160851
773.614	0.0160483
773.692	0.0160956
773.771	0.0162160
773.849	0.0159824
773.927	0.0161373
774.005	0.0160990
774.083	0.0162050
774.161	0.0160273
774.239	0.0160634
774.317	0.0161514
774.396	0.0161163
774.474	0.0161708
774.552	0.0161038
774.630	0.0161855
774.708	0.0162556
774.786	0.0161491
774.864	0.0162347
774.942	0.0161161
775.021	0.0163016
775.099	0.0162566
775.177	0.0162436
775.255	0.0163068
775.333	0.0163591
775.411	0.0163660
775.489	0.0163538
775.567	0.0163133
775.646	0.0164281
775.724	0.0163689
775.802	0.0164931
775.880	0.0164523
775.958	0.0165075
776.036	0.0165154
776.114	0.0164545
776.192	0.0164120
776.271	0.0166235
776.349	0.0165581
776.427	0.0165646
776.505	0.0165690
776.583	0.0165982
776.661	0.0163702
776.739	0.0165962
776.817	0.0165399
776.896	0.0164371
776.974	0.0166066
777.052	0.0166172
777.130	0.0165103
777.208	0.0165429
777.286	0.0165569
777.364	0.0165772
777.442	0.0165048
777.521	0.0165510
777.599	0.0165485
777.677	0.0164733
777.755	0.0166140
777.833	0.0165421
777.911	0.0164472
777.989	0.0164182
778.067	0.0166068
778.146	0.0164856
778.224	0.0164162
778.302	0.0165413
778.380	0.0164970
778.458	0.0164586
778.536	0.0165050
778.614	0.0164216
778.692	0.0164359
778.771	0.0165265
778.849	0.0164935
778.927	0.0164619
779.005	0.0164476
779.083	0.0164129
779.161	0.0164634
779.239	0.0165235
779.317	0.0165467
779.396	0.0165051
779.474	0.0162329
779.552	0.0164989
779.630	0.0165276
779.708	0.0163633
779.786	0.0164623
779.864	0.0165656
779.942	0.0164233
780.021	0.0165382
780.099	0.0164661
780.177	0.0165287
780.255	0.0164384
780.333	0.0164761
780.411	0.0164376
780.489	0.0165325
780.567	0.0163338
780.646	0.0165187
780.724	0.0166180
780.802	0.0164912
780.880	0.0165269
780.958	0.0165014
781.036	0.0164918
781.114	0.0164907
781.192	0.0165276
781.271	0.0165081
781.349	0.0165871
781.427	0.0165074
781.505	0.0164749
781.583	0.0164163
781.661	0.0165483
781.739	0.0164158
781.817	0.0164474
781.896	0.0166212
781.974	0.0166641
782.052	0.0164177
782.130	0.0165992
782.208	0.0165403
782.286	0.0165695
782.364	0.0165804
782.442	0.0164416
782.521	0.0162747
782.599	0.0163586
782.677	0.0165187
782.755	0.0166064
782.833	0.0166267
782.911	0.0166026
782.989	0.0165709
783.067	0.0166011
783.146	0.0165388
783.224	0.0164539
783.302	0.0165473
783.380	0.0164938
783.458	0.0164468
783.536	0.0165651
783.614	0.0165242
783.692	0.0165374
783.771	0.0164238
783.849	0.0165009
783.927	0.0164909
784.005	0.0164217
784.083	0.0164052
784.161	0.0163609
784.239	0.0162282
784.317	0.0163146
784.396	0.0162596
784.474	0.0163908
784.552	0.0164401
784.630	0.0163133
784.708	0.0163516
784.786	0.0162577
784.864	0.0163831
784.942	0.0162759
785.021	0.0162252
785.099	0.0161770
785.177	0.0162529
785.255	0.0162003
785.333	0.0162604
785.411	0.0162798
785.489	0.0162735
785.567	0.0162229
785.646	0.0163197
785.724	0.0162711
785.802	0.0161779
785.880	0.0162843
785.958	0.0161918
786.036	0.0163357
786.114	0.0161926
786.192	0.0161329
786.271	0.0162962
786.349	0.0160477
786.427	0.0160213
786.505	0.0161710
786.583	0.0160136
786.661	0.0159583
786.739	0.0160018
786.817	0.0161430
786.896	0.0161131
786.974	0.0159830
787.052	0.0160265
787.130	0.0159557
787.208	0.0160506
787.286	0.0160865
787.364	0.0159623
787.442	0.0159782
787.521	0.0161034
787.599	0.0161623
787.677	0.0161067
787.755	0.0159970
787.833	0.0160509
787.911	0.0160961
787.989	0.0159820
788.067	0.0160620
788.146	0.0159994
788.224	0.0159886
788.302	0.0158668
788.380	0.0159702
788.458	0.0159895
788.536	0.0161016
788.614	0.0159544
788.692	0.0158853
788.771	0.0159803
788.849	0.0158897
788.927	0.0159111
789.005	0.0158530
789.083	0.0159305
789.161	0.0158710
789.239	0.0158784
789.317	0.0160280
789.396	0.0159301
789.474	0.0159142
789.552	0.0159278
789.630	0.0159155
789.708	0.0159315
789.786	0.0159071
789.864	0.0159330
789.942	0.0158881
790.021	0.0159676
790.099	0.0158816
790.177	0.0158884
790.255	0.0158851
790.333	0.0159389
790.411	0.0159800
790.489	0.0160741
790.567	0.0161027
790.646	0.0159412
790.724	0.0161927
790.802	0.0160548
790.880	0.0160482
790.958	0.0161695
791.036	0.0161074
791.114	0.0161246
791.192	0.0162892
791.271	0.0160617
791.349	0.0161137
791.427	0.0161372
791.505	0.0161512
791.583	0.0161787
791.661	0.0162054
791.739	0.0161562
791.817	0.0162380
791.896	0.0161810
791.974	0.0160697
792.052	0.0161230
792.130	0.0163347
792.208	0.0162607
792.286	0.0161828
792.364	0.0162486
792.442	0.0162585
792.521	0.0161962
792.599	0.0163091
792.677	0.0160816
792.755	0.0161884
792.833	0.0163397
792.911	0.0163114
792.989	0.0161319
793.067	0.0162161
793.146	0.0161738
793.224	0.0162747
793.302	0.0163025
793.380	0.0163737
793.458	0.0163407
793.536	0.0162659
793.614	0.0161784
793.692	0.0161801
793.771	0.0164499
793.849	0.0164352
793.927	0.0162578
794.005	0.0163879
794.083	0.0163895
794.161	0.0162740
794.239	0.0161780
794.317	0.0162966
794.396	0.0162848
794.474	0.0161127
794.552	0.0161462
794.630	0.0161210
794.708	0.0161787
794.786	0.0162244
794.864	0.0161668
794.942	0.0160712
795.021	0.0160924
795.099	0.0161691
795.177	0.0161448
795.255	0.0161568
795.333	0.0162105
795.411	0.0161923
795.489	0.0162445
795.567	0.0161303
795.646	0.0161961
795.724	0.0161520
795.802	0.0162118
795.880	0.0163548
795.958	0.0162914
796.036	0.0162624
796.114	0.0161031
796.192	0.0162392
796.271	0.0162212
796.349	0.0161249
796.427	0.0162605
796.505	0.0162325
796.583	0.0162308
796.661	0.0162788
796.739	0.0161468
796.817	0.0160510
796.896	0.0162057
796.974	0.0162689
797.052	0.0162341
797.130	0.0161908
797.208	0.0162125
797.286	0.0163009
797.364	0.0162040
797.442	0.0161961
797.521	0.0162495
797.599	0.0163572
797.677	0.0163764
797.755	0.0160161
797.833	0.0162392
797.911	0.0162751
797.989	0.0161447
798.067	0.0161533
798.146	0.0161649
798.224	0.0161958
798.302	0.0161101
798.380	0.0161623
798.458	0.0160060
798.536	0.0162282
798.614	0.0161437
798.692	0.0163186
798.771	0.0161484
798.849	0.0163428
798.927	0.0162835
799.005	0.0163100
799.083	0.0162236
799.161	0.0161373
799.239	0.0164008
799.317	0.0162499
799.396	0.0162824
799.474	0.0163783
799.552	0.0163536
799.630	0.0163367
799.708	0.0163769
799.786	0.0164726
799.864	0.0163164
799.942	0.0163294
800.021	0.0163326
800.099	0.0163846
800.177	0.0163738
800.255	0.0164538
800.333	0.0163826
800.411	0.0163212
800.489	0.0163863
800.567	0.0163588
800.646	0.0164205
800.724	0.0165191
800.802	0.0165070
800.880	0.0163737
800.958	0.0164273
801.036	0.0163856
801.114	0.0163943
801.192	0.0165937
801.271	0.0164493
801.349	0.0164445
801.427	0.0164449
801.505	0.0163368
801.583	0.0164961
801.661	0.0164867
801.739	0.0164827
801.817	0.0164888
801.896	0.0166093
801.974	0.0165713
802.052	0.0167587
802.130	0.0165708
802.208	0.0166651
802.286	0.0166544
802.364	0.0166951
802.442	0.0166042
802.521	0.0166776
802.599	0.0165804
802.677	0.0166229
802.755	0.0167522
802.833	0.0166721
802.911	0.0166914
802.989	0.0167805
803.067	0.0167217
803.146	0.0165260
803.224	0.0166844
803.302	0.0166208
803.380	0.0166133
803.458	0.0166892
803.536	0.0166655
803.614	0.0166185
803.692	0.0166734
803.771	0.0166920
803.849	0.0165928
803.927	0.0165693
804.005	0.0166515
804.083	0.0165870
804.161	0.0165976
804.239	0.0166623
804.317	0.0166292
804.396	0.0166161
804.474	0.0166148
804.552	0.0167042
804.630	0.0164756
804.708	0.0165563
804.786	0.0165410
804.864	0.0165793
804.942	0.0165475
805.021	0.0164980
805.099	0.0164296
805.177	0.0164469
805.255	0.0165394
805.333	0.0165545
805.411	0.0165163
805.489	0.0165221
805.567	0.0164017
805.646	0.0164895
805.724	0.0163504
805.802	0.0164827
805.880	0.0164770
805.958	0.0165237
806.036	0.0165181
806.114	0.0166019
806.192	0.0165631
806.271	0.0165146
806.349	0.0165019
806.427	0.0165088
806.505	0.0164178
806.583	0.0165089
806.661	0.0165183
806.739	0.0166332
806.817	0.0165577
806.896	0.0164137
806.974	0.0164500
807.052	0.0165279
807.130	0.0165870
807.208	0.0164025
807.286	0.0163865
807.364	0.0166273
807.442	0.0164474
807.521	0.0164478
807.599	0.0163582
807.677	0.0163670
807.755	0.0164221
807.833	0.0163622
807.911	0.0163756
807.989	0.0164315
808.067	0.0164140
808.146	0.0162873
808.224	0.0163937
808.302	0.0164822
808.380	0.0164065
808.458	0.0165293
808.536	0.0163335
808.614	0.0164643
808.692	0.0164762
808.771	0.0165044
808.849	0.0165460
808.927	0.0165006
809.005	0.0164417
809.083	0.0164098
809.161	0.0165521
809.239	0.0164673
809.317	0.0164350
809.396	0.0165434
809.474	0.0164166
809.552	0.0164751
809.630	0.0163834
809.708	0.0164335
809.786	0.0165874
809.864	0.0165557
809.942	0.0164813
810.021	0.0164620
810.099	0.0164433
810.177	0.0164021
810.255	0.0163091
810.333	0.0163459
810.411	0.0163674
810.489	0.0163132
810.567	0.0164236
810.646	0.0163216
810.724	0.0163437
810.802	0.0162261
810.880	0.0162556
810.958	0.0162685
811.036	0.0163833
811.114	0.0162452
811.192	0.0163506
811.271	0.0164005
811.349	0.0164027
811.427	0.0162207
811.505	0.0163586
811.583	0.0163271
811.661	0.0162074
811.739	0.0161646
811.817	0.0162572
811.896	0.0162917
811.974	0.0162669
812.052	0.0161932
812.130	0.0161723
812.208	0.0162440
812.286	0.0161545
812.364	0.0161343
812.442	0.0160797
812.521	0.0159699
812.599	0.0158753
812.677	0.0160760
812.755	0.0161082
812.833	0.0159060
812.911	0.0160136
812.989	0.0158672
813.067	0.0158713
813.146	0.0158406
813.224	0.0158662
813.302	0.0158448
813.380	0.0158018
813.458	0.0158406
813.536	0.0158015
813.614	0.0157335
813.692	0.0157630
813.771	0.0156150
813.849	0.0157278
813.927	0.0157745
814.005	0.0156761
814.083	0.0157539
814.161	0.0157179
814.239	0.0158578
814.317	0.0156821
814.396	0.0157277
814.474	0.0158366
814.552	0.0158093
814.630	0.0158560
814.708	0.0157092
814.786	0.0156773
814.864	0.0157452
814.942	0.0158586
815.021	0.0159035
815.099	0.0156973
815.177	0.0159144
815.255	0.0159057
815.333	0.0156927
815.411	0.0158024
815.489	0.0158767
815.567	0.0159330
815.646	0.0160009
815.724	0.0159771
815.802	0.0161229
815.880	0.0160781
815.958	0.0159969
816.036	0.0162044
816.114	0.0160576
816.192	0.0162021
816.271	0.0162132
816.349	0.0162830
816.427	0.0163882
816.505	0.0161674
816.583	0.0163849
816.661	0.0164189
816.739	0.0163572
816.817	0.0162786
816.896	0.0164384
816.974	0.0163698
817.052	0.0165726
817.130	0.0164832
817.208	0.0164706
817.286	0.0164720
817.364	0.0166558
817.442	0.0167071
817.521	0.0166649
817.599	0.0167036
817.677	0.0166888
817.755	0.0166595
817.833	0.0168552
817.911	0.0167720
817.989	0.0167400
818.067	0.0168399
818.146	0.0167983
818.224	0.0168011
818.302	0.0167175
818.380	0.0168446
818.458	0.0167606
818.536	0.0167657
818.614	0.0166273
818.692	0.0167044
818.771	0.0167798
818.849	0.0166316
818.927	0.0166164
819.005	0.0167823
819.083	0.0167146
819.161	0.0166480
819.239	0.0164847
819.317	0.0167120
819.396	0.0167297
819.474	0.0165594
819.552	0.0165234
819.630	0.0165258
819.708	0.0164246
819.786	0.0164920
819.864	0.0164485
819.942	0.0164117
820.021	0.0163633
820.099	0.0162696
820.177	0.0162514
820.255	0.0163227
820.333	0.0162126
820.411	0.0163161
820.489	0.0161492
820.567	0.0161079
820.646	0.0161695
820.724	0.0162158
820.802	0.0160643
820.880	0.0160699
820.958	0.0158753
821.036	0.0158625
821.114	0.0159339
821.192	0.0160677
821.271	0.0158287
821.349	0.0157849
821.427	0.0160528
821.505	0.0158887
821.583	0.0157133
821.661	0.0157801
821.739	0.0156728
821.817	0.0157320
821.896	0.0156844
821.974	0.0157249
822.052	0.0157148
822.130	0.0156435
822.208	0.0155865
822.286	0.0156423
822.364	0.0157090
822.442	0.0156440
822.521	0.0155089
822.599	0.0154958
822.677	0.0155833
822.755	0.0157458
822.833	0.0156094
822.911	0.0156416
822.989	0.0157262
823.067	0.0157597
823.146	0.0156253
823.224	0.0155960
823.302	0.0158388
823.380	0.0159155
823.458	0.0158066
823.536	0.0158784
823.614	0.0158871
823.692	0.0159219
823.771	0.0160128
823.849	0.0160518
823.927	0.0160665
824.005	0.0161985
824.083	0.0160596
824.161	0.0161248
824.239	0.0161929
824.317	0.0162428
824.396	0.0164137
824.474	0.0163457
824.552	0.0164938
824.630	0.0164422
824.708	0.0165010
824.786	0.0166023
824.864	0.0166142
824.942	0.0165823
825.021	0.0165723
825.099	0.0166822
825.177	0.0168177
825.255	0.0167828
825.333	0.0168233
825.411	0.0169114
825.489	0.0169451
825.567	0.0168981
825.646	0.0167842
825.724	0.0169316
825.802	0.0168146
825.880	0.0170368
825.958	0.0170137
826.036	0.0169905
826.114	0.0169721
826.192	0.0170653
826.271	0.0170792
826.349	0.0169254
826.427	0.0169916
826.505	0.0169017
826.583	0.0170129
826.661	0.0170233
826.739	0.0169933
826.817	0.0169814
826.896	0.0170604
826.974	0.0171114
827.052	0.0169976
827.130	0.0169167
827.208	0.0169930
827.286	0.0168679
827.364	0.0168401
827.442	0.0169048
827.521	0.0169768
827.599	0.0168440
827.677	0.0166820
827.755	0.0167442
827.833	0.0166602
827.911	0.0166454
827.989	0.0165631
828.067	0.0165997
828.146	0.0165253
828.224	0.0165406
828.302	0.0165847
828.380	0.0166352
828.458	0.0164954
828.536	0.0163820
828.614	0.0163407
828.692	0.0164702
828.771	0.0163073
828.849	0.0163518
828.927	0.0162843
829.005	0.0163942
829.083	0.0162756
829.161	0.0163153
829.239	0.0162728
829.317	0.0163667
829.396	0.0163337
829.474	0.0162023
829.552	0.0162965
829.630	0.0161993
829.708	0.0163616
829.786	0.0163136
829.864	0.0163461
829.942	0.0163312
830.021	0.0163362
830.099	0.0162766
830.177	0.0162635
830.255	0.0162516
830.333	0.0161262
830.411	0.0162251
830.489	0.0162589
830.567	0.0162868
830.646	0.0161038
830.724	0.0162574
830.802	0.0163351
830.880	0.0163275
830.958	0.0161539
831.036	0.0163271
831.114	0.0164143
831.192	0.0163374
831.271	0.0162740
831.349	0.0163797
831.427	0.0163544
831.505	0.0163931
831.583	0.0163975
831.661	0.0162991
831.739	0.0163071
831.817	0.0164291
831.896	0.0164877
831.974	0.0162622
832.052	0.0164051
832.130	0.0163968
832.208	0.0162653
832.286	0.0163509
832.364	0.0163007
832.442	0.0162484
832.521	0.0163142
832.599	0.0162856
832.677	0.0162628
832.755	0.0162092
832.833	0.0162283
832.911	0.0162745
832.989	0.0162521
833.067	0.0164049
833.146	0.0163661
833.224	0.0164020
833.302	0.0162517
833.380	0.0163289
833.458	0.0163889
833.536	0.0164159
833.614	0.0164899
833.692	0.0162398
833.771	0.0164035
833.849	0.0163889
833.927	0.0163514
834.005	0.0163580
834.083	0.0162218
834.161	0.0163283
834.239	0.0162659
834.317	0.0163300
834.396	0.0163132
834.474	0.0164740
834.552	0.0163889
834.630	0.0163742
834.708	0.0162933
834.786	0.0163452
834.864	0.0164453
834.942	0.0163917
835.021	0.0164627
835.099	0.0162727
835.177	0.0164184
835.255	0.0163367
835.333	0.0162891
835.411	0.0163573
835.489	0.0163777
835.567	0.0162649
835.646	0.0162405
835.724	0.0161503
835.802	0.0164042
835.880	0.0162759
835.958	0.0162920
836.036	0.0161891
836.114	0.0163647
836.192	0.0163101
836.271	0.0163840
836.349	0.0162505
836.427	0.0162981
836.505	0.0164248
836.583	0.0162453
836.661	0.0163293
836.739	0.0164314
836.817	0.0162748
836.896	0.0164057
836.974	0.0164180
837.052	0.0163206
837.130	0.0162617
837.208	0.0162166
837.286	0.0162647
837.364	0.0163142
837.442	0.0163482
837.521	0.0162354
837.599	0.0162876
837.677	0.0163107
837.755	0.0163136
837.833	0.0161941
837.911	0.0161703
837.989	0.0161288
838.067	0.0162577
838.146	0.0163250
838.224	0.0162719
838.302	0.0162860
838.380	0.0164435
838.458	0.0163737
838.536	0.0162961
838.614	0.0163073
838.692	0.0164081
838.771	0.0163141
838.849	0.0164293
838.927	0.0165192
839.005	0.0164964
839.083	0.0163187
839.161	0.0164021
839.239	0.0165030
839.317	0.0163966
839.396	0.0164419
839.474	0.0163345
839.552	0.0164074
839.630	0.0162572
839.708	0.0162984
839.786	0.0163638
839.864	0.0163474
839.942	0.0163526
840.021	0.0162973
840.099	0.0162212
840.177	0.0164310
840.255	0.0163823
840.333	0.0162841
840.411	0.0163090
840.489	0.0163193
840.567	0.0162865
840.646	0.0163107
840.724	0.0162761
840.802	0.0160979
840.880	0.0162849
840.958	0.0164266
841.036	0.0163400
841.114	0.0161951
841.192	0.0163084
841.271	0.0162520
841.349	0.0162295
841.427	0.0162325
841.505	0.0163490
841.583	0.0161529
841.661	0.0162592
841.739	0.0163591
841.817	0.0161839
841.896	0.0162074
841.974	0.0160782
842.052	0.0162537
842.130	0.0162688
842.208	0.0162939
842.286	0.0162302
842.364	0.0163614
842.442	0.0164159
842.521	0.0163310
842.599	0.0162115
842.677	0.0163799
842.755	0.0163036
842.833	0.0163689
842.911	0.0162670
842.989	0.0163206
843.067	0.0163831
843.146	0.0162706
843.224	0.0163936
843.302	0.0163204
843.380	0.0163720
843.458	0.0163326
843.536	0.0163789
843.614	0.0162914
843.692	0.0162933
843.771	0.0162284
843.849	0.0162390
843.927	0.0163065
844.005	0.0160762
844.083	0.0161451
844.161	0.0162096
844.239	0.0160152
844.317	0.0160157
844.396	0.0159236
844.474	0.0159023
844.552	0.0158820
844.630	0.0159585
844.708	0.0159401
844.786	0.0158231
844.864	0.0158437
844.942	0.0158723
845.021	0.0160587
845.099	0.0158963
845.177	0.0159104
845.255	0.0160049
845.333	0.0161101
845.411	0.0161196
845.489	0.0161744
845.567	0.0162305
845.646	0.0161617
845.724	0.0162155
845.802	0.0162563
845.880	0.0163218
845.958	0.0161644
846.036	0.0162821
846.114	0.0162820
846.192	0.0163775
846.271	0.0163359
846.349	0.0163325
846.427	0.0161526
846.505	0.0161420
846.583	0.0161832
846.661	0.0161613
846.739	0.0162322
846.817	0.0161323
846.896	0.0161627
846.974	0.0161955
847.052	0.0162048
847.130	0.0160902
847.208	0.0162707
847.286	0.0163001
847.364	0.0162014
847.442	0.0162246
847.521	0.0164109
847.599	0.0162657
847.677	0.0161629
847.755	0.0163349
847.833	0.0164542
847.911	0.0161754
847.989	0.0163932
848.067	0.0163177
848.146	0.0163134
848.224	0.0162582
848.302	0.0162727
848.380	0.0163322
848.458	0.0164353
848.536	0.0163643
848.614	0.0163899
848.692	0.0163662
848.771	0.0163326
848.849	0.0164329
848.927	0.0162786
849.005	0.0162213
849.083	0.0161666
849.161	0.0162161
849.239	0.0162640
849.317	0.0163654
849.396	0.0162843
849.474	0.0163191
849.552	0.0161991
849.630	0.0160996
849.708	0.0163865
849.786	0.0163054
849.864	0.0162334
849.942	0.0162764
850.021	0.0162779
850.099	0.0163778
850.177	0.0163768
850.255	0.0163750
850.333	0.0164586
850.411	0.0164761
850.489	0.0163852
850.567	0.0165186
850.646	0.0164967
850.724	0.0166433
850.802	0.0165602
850.880	0.0164755
850.958	0.0164849
851.036	0.0164803
851.114	0.0164745
851.192	0.0164954
851.271	0.0165121
851.349	0.0165097
851.427	0.0164768
851.505	0.0164553
851.583	0.0164921
851.661	0.0166384
851.739	0.0164426
851.817	0.0165515
851.896	0.0164857
851.974	0.0164750
852.052	0.0164715
852.130	0.0164621
852.208	0.0164645
852.286	0.0164963
852.364	0.0164451
852.442	0.0165188
852.521	0.0165154
852.599	0.0163847
852.677	0.0164949
852.755	0.0164551
852.833	0.0162459
852.911	0.0162202
852.989	0.0164407
853.067	0.0162843
853.146	0.0163491
853.224	0.0162586
853.302	0.0162641
853.380	0.0162764
853.458	0.0161589
853.536	0.0161355
853.614	0.0159969
853.692	0.0161011
853.771	0.0161179
853.849	0.0160190
853.927	0.0161060
854.005	0.0161153
854.083	0.0162582
854.161	0.0161782
854.239	0.0161581
854.317	0.0159846
854.396	0.0159509
854.474	0.0160683
854.552	0.0161298
854.630	0.0160739
854.708	0.0162653
854.786	0.0162212
854.864	0.0161002
854.942	0.0161160
855.021	0.0163296
855.099	0.0159583
855.177	0.0161721
855.255	0.0162336
855.333	0.0162307
855.411	0.0159856
855.489	0.0161900
855.567	0.0161124
855.646	0.0161716
855.724	0.0161679
855.802	0.0162939
855.880	0.0161330
855.958	0.0161755
856.036	0.0161078
856.114	0.0161613
856.192	0.0161143
856.271	0.0162064
856.349	0.0160979
856.427	0.0161001
856.505	0.0161681
856.583	0.0161102
856.661	0.0161997
856.739	0.0162840
856.817	0.0163866
856.896	0.0162534
856.974	0.0162635
857.052	0.0162888
857.130	0.0161784
857.208	0.0162041
857.286	0.0163323
857.364	0.0162767
857.442	0.0162762
857.521	0.0162988
857.599	0.0162970
857.677	0.0162287
857.755	0.0164328
857.833	0.0165143
857.911	0.0163110
857.989	0.0165038
858.067	0.0165998
858.146	0.0164033
858.224	0.0165314
858.302	0.0165009
858.380	0.0166212
858.458	0.0166885
858.536	0.0167806
858.614	0.0167543
858.692	0.0168027
858.771	0.0168987
858.849	0.0168925
858.927	0.0168216
859.005	0.0169346
859.083	0.0168839
859.161	0.0169780
859.239	0.0168717
859.317	0.0169995
859.396	0.0169528
859.474	0.0169774
859.552	0.0169402
859.630	0.0168476
859.708	0.0166923
859.786	0.0167964
859.864	0.0166714
859.942	0.0165797
860.021	0.0165949
860.099	0.0166796
860.177	0.0164713
860.255	0.0163947
860.333	0.0165121
860.411	0.0164319
860.489	0.0164205
860.567	0.0164773
860.646	0.0162886
860.724	0.0164655
860.802	0.0163914
860.880	0.0162474
860.958	0.0162281
861.036	0.0162281
861.114	0.0163286
861.192	0.0162343
861.271	0.0165022
861.349	0.0163716
861.427	0.0162795
861.505	0.0163300
861.583	0.0162943
861.661	0.0164211
861.739	0.0162852
861.817	0.0163345
861.896	0.0163320
861.974	0.0163070
862.052	0.0163010
862.130	0.0162332
862.208	0.0160173
862.286	0.0161129
862.364	0.0161904
862.442	0.0162241
862.521	0.0163179
862.599	0.0162907
862.677	0.0163751
862.755	0.0162687
862.833	0.0162436
862.911	0.0163300
862.989	0.0162919
863.067	0.0164022
863.146	0.0162699
863.224	0.0164091
863.302	0.0163052
863.380	0.0165356
863.458	0.0164025
863.536	0.0164529
863.614	0.0164877
863.692	0.0165350
863.771	0.0164924
863.849	0.0163554
863.927	0.0165088
864.005	0.0165696
864.083	0.0164002
864.161	0.0164299
864.239	0.0164524
864.317	0.0164363
864.396	0.0164162
864.474	0.0162990
864.552	0.0162698
864.630	0.0163264
864.708	0.0163042
864.786	0.0162129
864.864	0.0162592
864.942	0.0163530
865.021	0.0161292
865.099	0.0162521
865.177	0.0162181
865.255	0.0162717
865.333	0.0163474
865.411	0.0160882
865.489	0.0160917
865.567	0.0160999
865.646	0.0161013
865.724	0.0161923
865.802	0.0162172
865.880	0.0162290
865.958	0.0160860
866.036	0.0161259
866.114	0.0162337
866.192	0.0160381
866.271	0.0162052
866.349	0.0161491
866.427	0.0159493
866.505	0.0161169
866.583	0.0162465
866.661	0.0160877
866.739	0.0160979
866.817	0.0160777
866.896	0.0163477
866.974	0.0163115
867.052	0.0161205
867.130	0.0161646
867.208	0.0161647
867.286	0.0160979
867.364	0.0162039
867.442	0.0162286
867.521	0.0161114
867.599	0.0162124
867.677	0.0162748
867.755	0.0160941
867.833	0.0161702
867.911	0.0162363
867.989	0.0162041
868.067	0.0162054
868.146	0.0163323
868.224	0.0162067
868.302	0.0162779
868.380	0.0162690
868.458	0.0162484
868.536	0.0161225
868.614	0.0162988
868.692	0.0162722
868.771	0.0163001
868.849	0.0163259
868.927	0.0162304
869.005	0.0161427
869.083	0.0161542
869.161	0.0161437
869.239	0.0162279
869.317	0.0160103
869.396	0.0161305
869.474	0.0161210
869.552	0.0160545
869.630	0.0161929
869.708	0.0159939
869.786	0.0158905
869.864	0.0160178
869.942	0.0160764
