06/03/2022	14:52:00	Ver.	4.1	UNKNOWN
Optical Delay	550.020508	Delta X		0.078125	Sweeps	1	Scan Rate	0/0
Coordinates	Axis 1	NaN	Axis 2	NaN	Axis 3	NaN	Axis 4	NaN	Axis 5	NaN	Axis 6	0.000000
TX Power	0.000000	RX Power	0.000000

550.021	0.0158796
550.099	0.0151121
550.177	0.0149841
550.255	0.0148918
550.333	0.0149030
550.411	0.0149882
550.489	0.0149884
550.567	0.0148552
550.646	0.0148504
550.724	0.0148986
550.802	0.0148811
550.880	0.0150003
550.958	0.0148507
551.036	0.0148785
551.114	0.0149332
551.192	0.0148754
551.271	0.0148689
551.349	0.0148285
551.427	0.0149060
551.505	0.0147373
551.583	0.0146386
551.661	0.0149516
551.739	0.0148051
551.817	0.0146924
551.896	0.0146721
551.974	0.0148087
552.052	0.0147102
552.130	0.0147994
552.208	0.0148000
552.286	0.0148603
552.364	0.0147966
552.442	0.0149581
552.521	0.0148772
552.599	0.0150236
552.677	0.0150130
552.755	0.0150588
552.833	0.0151408
552.911	0.0152396
552.989	0.0150670
553.067	0.0150282
553.146	0.0153045
553.224	0.0152407
553.302	0.0152338
553.380	0.0151717
553.458	0.0152048
553.536	0.0152422
553.614	0.0152446
553.692	0.0153173
553.771	0.0153692
553.849	0.0154235
553.927	0.0154178
554.005	0.0154346
554.083	0.0155153
554.161	0.0155103
554.239	0.0155804
554.317	0.0156377
554.396	0.0158133
554.474	0.0159292
554.552	0.0157830
554.630	0.0157766
554.708	0.0160046
554.786	0.0159198
554.864	0.0159625
554.942	0.0161677
555.021	0.0160710
555.099	0.0160760
555.177	0.0162513
555.255	0.0163373
555.333	0.0164309
555.411	0.0163779
555.489	0.0164120
555.567	0.0166349
555.646	0.0167034
555.724	0.0166860
555.802	0.0167122
555.880	0.0167660
555.958	0.0168544
556.036	0.0170036
556.114	0.0171226
556.192	0.0170106
556.271	0.0170615
556.349	0.0170747
556.427	0.0173329
556.505	0.0172310
556.583	0.0171349
556.661	0.0172750
556.739	0.0171326
556.817	0.0172071
556.896	0.0171386
556.974	0.0170516
557.052	0.0171918
557.130	0.0169567
557.208	0.0170186
557.286	0.0170448
557.364	0.0171550
557.442	0.0170343
557.521	0.0167987
557.599	0.0167808
557.677	0.0167661
557.755	0.0166634
557.833	0.0166672
557.911	0.0166920
557.989	0.0165263
558.067	0.0164326
558.146	0.0164959
558.224	0.0164959
558.302	0.0164438
558.380	0.0162756
558.458	0.0162887
558.536	0.0161453
558.614	0.0161389
558.692	0.0160480
558.771	0.0160455
558.849	0.0159439
558.927	0.0158995
559.005	0.0158125
559.083	0.0156607
559.161	0.0157449
559.239	0.0156580
559.317	0.0157797
559.396	0.0156876
559.474	0.0155977
559.552	0.0155051
559.630	0.0154727
559.708	0.0154608
559.786	0.0154380
559.864	0.0152603
559.942	0.0154609
560.021	0.0153731
560.099	0.0153220
560.177	0.0152447
560.255	0.0152975
560.333	0.0154150
560.411	0.0154682
560.489	0.0154707
560.567	0.0153490
560.646	0.0152599
560.724	0.0153934
560.802	0.0153887
560.880	0.0153561
560.958	0.0153308
561.036	0.0154230
561.114	0.0153542
561.192	0.0153282
561.271	0.0154407
561.349	0.0154031
561.427	0.0152897
561.505	0.0154211
561.583	0.0154746
561.661	0.0154582
561.739	0.0154490
561.817	0.0157192
561.896	0.0156808
561.974	0.0156024
562.052	0.0155782
562.130	0.0156717
562.208	0.0157330
562.286	0.0156367
562.364	0.0156889
562.442	0.0157205
562.521	0.0156133
562.599	0.0157891
562.677	0.0156241
562.755	0.0156701
562.833	0.0157335
562.911	0.0156511
562.989	0.0156700
563.067	0.0156982
563.146	0.0157190
563.224	0.0158277
563.302	0.0157811
563.380	0.0158592
563.458	0.0157917
563.536	0.0157987
563.614	0.0158509
563.692	0.0157407
563.771	0.0159763
563.849	0.0158473
563.927	0.0159344
564.005	0.0159357
564.083	0.0159798
564.161	0.0160275
564.239	0.0160167
564.317	0.0160886
564.396	0.0160096
564.474	0.0160616
564.552	0.0161049
564.630	0.0160994
564.708	0.0160662
564.786	0.0161610
564.864	0.0161441
564.942	0.0160091
565.021	0.0160909
565.099	0.0159863
565.177	0.0160045
565.255	0.0160954
565.333	0.0162061
565.411	0.0159887
565.489	0.0161902
565.567	0.0159830
565.646	0.0161053
565.724	0.0160090
565.802	0.0160641
565.880	0.0159557
565.958	0.0158496
566.036	0.0158528
566.114	0.0159276
566.192	0.0159502
566.271	0.0157306
566.349	0.0157542
566.427	0.0157291
566.505	0.0156839
566.583	0.0156622
566.661	0.0157209
566.739	0.0157758
566.817	0.0156091
566.896	0.0156497
566.974	0.0156153
567.052	0.0155274
567.130	0.0153943
567.208	0.0155595
567.286	0.0154086
567.364	0.0153120
567.442	0.0154029
567.521	0.0153950
567.599	0.0153750
567.677	0.0153740
567.755	0.0153181
567.833	0.0153443
567.911	0.0152585
567.989	0.0153157
568.067	0.0152772
568.146	0.0151424
568.224	0.0151424
568.302	0.0152268
568.380	0.0152591
568.458	0.0150642
568.536	0.0150729
568.614	0.0151492
568.692	0.0150655
568.771	0.0151141
568.849	0.0149951
568.927	0.0150015
569.005	0.0149851
569.083	0.0148409
569.161	0.0148570
569.239	0.0148293
569.317	0.0149582
569.396	0.0149783
569.474	0.0149007
569.552	0.0149067
569.630	0.0148589
569.708	0.0148181
569.786	0.0148038
569.864	0.0148671
569.942	0.0149165
570.021	0.0148437
570.099	0.0149763
570.177	0.0149174
570.255	0.0149125
570.333	0.0149895
570.411	0.0150001
570.489	0.0150677
570.567	0.0150878
570.646	0.0149565
570.724	0.0150532
570.802	0.0151078
570.880	0.0149708
570.958	0.0150314
571.036	0.0149394
571.114	0.0150899
571.192	0.0151607
571.271	0.0150953
571.349	0.0150793
571.427	0.0150889
571.505	0.0151439
571.583	0.0151442
571.661	0.0149986
571.739	0.0151393
571.817	0.0152083
571.896	0.0151809
571.974	0.0150978
572.052	0.0151772
572.130	0.0151517
572.208	0.0151753
572.286	0.0152866
572.364	0.0152430
572.442	0.0153251
572.521	0.0152341
572.599	0.0153091
572.677	0.0152190
572.755	0.0154411
572.833	0.0153976
572.911	0.0154399
572.989	0.0153799
573.067	0.0154400
573.146	0.0152889
573.224	0.0153960
573.302	0.0156383
573.380	0.0156082
573.458	0.0154280
573.536	0.0156417
573.614	0.0157085
573.692	0.0157896
573.771	0.0156760
573.849	0.0155807
573.927	0.0157564
574.005	0.0159171
574.083	0.0159321
574.161	0.0159750
574.239	0.0161024
574.317	0.0160895
574.396	0.0161427
574.474	0.0160689
574.552	0.0162537
574.630	0.0163506
574.708	0.0163516
574.786	0.0162854
574.864	0.0162688
574.942	0.0164516
575.021	0.0165260
575.099	0.0164209
575.177	0.0164174
575.255	0.0163998
575.333	0.0166367
575.411	0.0165137
575.489	0.0165731
575.567	0.0165851
575.646	0.0165636
575.724	0.0165472
575.802	0.0166267
575.880	0.0166502
575.958	0.0165875
576.036	0.0163667
576.114	0.0165355
576.192	0.0166341
576.271	0.0167482
576.349	0.0166438
576.427	0.0166529
576.505	0.0167203
576.583	0.0166203
576.661	0.0165413
576.739	0.0166628
576.817	0.0165890
576.896	0.0165665
576.974	0.0165641
577.052	0.0165712
577.130	0.0167062
577.208	0.0164349
577.286	0.0164671
577.364	0.0165619
577.442	0.0164118
577.521	0.0162554
577.599	0.0163923
577.677	0.0163851
577.755	0.0163892
577.833	0.0163410
577.911	0.0163393
577.989	0.0162719
578.067	0.0163290
578.146	0.0162717
578.224	0.0163293
578.302	0.0163074
578.380	0.0163435
578.458	0.0163276
578.536	0.0164392
578.614	0.0160802
578.692	0.0161281
578.771	0.0162588
578.849	0.0161826
578.927	0.0161948
579.005	0.0161727
579.083	0.0162737
579.161	0.0161548
579.239	0.0161630
579.317	0.0162073
579.396	0.0162315
579.474	0.0161317
579.552	0.0161916
579.630	0.0162347
579.708	0.0161406
579.786	0.0162868
579.864	0.0160273
579.942	0.0161725
580.021	0.0161768
580.099	0.0161273
580.177	0.0161159
580.255	0.0161495
580.333	0.0162066
580.411	0.0161203
580.489	0.0161587
580.567	0.0160888
580.646	0.0161767
580.724	0.0161115
580.802	0.0162002
580.880	0.0160704
580.958	0.0160986
581.036	0.0159408
581.114	0.0159856
581.192	0.0161038
581.271	0.0159116
581.349	0.0159267
581.427	0.0158904
581.505	0.0159856
581.583	0.0159292
581.661	0.0158534
581.739	0.0157494
581.817	0.0158263
581.896	0.0158782
581.974	0.0156135
582.052	0.0157275
582.130	0.0157024
582.208	0.0156488
582.286	0.0155453
582.364	0.0155090
582.442	0.0155639
582.521	0.0155766
582.599	0.0153601
582.677	0.0154964
582.755	0.0155019
582.833	0.0154961
582.911	0.0154543
582.989	0.0154836
583.067	0.0156181
583.146	0.0154102
583.224	0.0155110
583.302	0.0154329
583.380	0.0153539
583.458	0.0154824
583.536	0.0154704
583.614	0.0154957
583.692	0.0154924
583.771	0.0155700
583.849	0.0154500
583.927	0.0154601
584.005	0.0155494
584.083	0.0154534
584.161	0.0155297
584.239	0.0154796
584.317	0.0155419
584.396	0.0154723
584.474	0.0154710
584.552	0.0155131
584.630	0.0155762
584.708	0.0155718
584.786	0.0156271
584.864	0.0155598
584.942	0.0155335
585.021	0.0157632
585.099	0.0157594
585.177	0.0157188
585.255	0.0157983
585.333	0.0157951
585.411	0.0156995
585.489	0.0158422
585.567	0.0158868
585.646	0.0158646
585.724	0.0158979
585.802	0.0158263
585.880	0.0158237
585.958	0.0160208
586.036	0.0157751
586.114	0.0158645
586.192	0.0159440
586.271	0.0158808
586.349	0.0159391
586.427	0.0160326
586.505	0.0159282
586.583	0.0159835
586.661	0.0160986
586.739	0.0161012
586.817	0.0162212
586.896	0.0160226
586.974	0.0159750
587.052	0.0160937
587.130	0.0162232
587.208	0.0162890
587.286	0.0160892
587.364	0.0162480
587.442	0.0162458
587.521	0.0160580
587.599	0.0161286
587.677	0.0162136
587.755	0.0161984
587.833	0.0161860
587.911	0.0162500
587.989	0.0163587
588.067	0.0162326
588.146	0.0162927
588.224	0.0162231
588.302	0.0161666
588.380	0.0162698
588.458	0.0163075
588.536	0.0161729
588.614	0.0163831
588.692	0.0163065
588.771	0.0161345
588.849	0.0161066
588.927	0.0162305
589.005	0.0162129
589.083	0.0160847
589.161	0.0161615
589.239	0.0161141
589.317	0.0161088
589.396	0.0160882
589.474	0.0160065
589.552	0.0159715
589.630	0.0160972
589.708	0.0160964
589.786	0.0159470
589.864	0.0158876
589.942	0.0158958
590.021	0.0158858
590.099	0.0158457
590.177	0.0159342
590.255	0.0158069
590.333	0.0157190
590.411	0.0156319
590.489	0.0156690
590.567	0.0156488
590.646	0.0154995
590.724	0.0157093
590.802	0.0156696
590.880	0.0155569
590.958	0.0156438
591.036	0.0153833
591.114	0.0155516
591.192	0.0156261
591.271	0.0154576
591.349	0.0155808
591.427	0.0153866
591.505	0.0153596
591.583	0.0155081
591.661	0.0154098
591.739	0.0153798
591.817	0.0153860
591.896	0.0155062
591.974	0.0153190
592.052	0.0153102
592.130	0.0153521
592.208	0.0152972
592.286	0.0153191
592.364	0.0152729
592.442	0.0152946
592.521	0.0153764
592.599	0.0153301
592.677	0.0151262
592.755	0.0153489
592.833	0.0152115
592.911	0.0152081
592.989	0.0151811
593.067	0.0152327
593.146	0.0151772
593.224	0.0152604
593.302	0.0152457
593.380	0.0152317
593.458	0.0150561
593.536	0.0151484
593.614	0.0152228
593.692	0.0150773
593.771	0.0151005
593.849	0.0152877
593.927	0.0150957
594.005	0.0151427
594.083	0.0151877
594.161	0.0150591
594.239	0.0152182
594.317	0.0151904
594.396	0.0150523
594.474	0.0152938
594.552	0.0152164
594.630	0.0150904
594.708	0.0152045
594.786	0.0153059
594.864	0.0152761
594.942	0.0152500
595.021	0.0153012
595.099	0.0154261
595.177	0.0152827
595.255	0.0154047
595.333	0.0155019
595.411	0.0154745
595.489	0.0154254
595.567	0.0155301
595.646	0.0155045
595.724	0.0155318
595.802	0.0154805
595.880	0.0155499
595.958	0.0155307
596.036	0.0154274
596.114	0.0156123
596.192	0.0156357
596.271	0.0156464
596.349	0.0156915
596.427	0.0157073
596.505	0.0157173
596.583	0.0157471
596.661	0.0157359
596.739	0.0157662
596.817	0.0158497
596.896	0.0158502
596.974	0.0159477
597.052	0.0158810
597.130	0.0158562
597.208	0.0159145
597.286	0.0159421
597.364	0.0159765
597.442	0.0159232
597.521	0.0160808
597.599	0.0160063
597.677	0.0159096
597.755	0.0159570
597.833	0.0158203
597.911	0.0160641
597.989	0.0159716
598.067	0.0160655
598.146	0.0159893
598.224	0.0160209
598.302	0.0158942
598.380	0.0159911
598.458	0.0159425
598.536	0.0159882
598.614	0.0159732
598.692	0.0159202
598.771	0.0160759
598.849	0.0160893
598.927	0.0160405
599.005	0.0160088
599.083	0.0158839
599.161	0.0160365
599.239	0.0159531
599.317	0.0160152
599.396	0.0160139
599.474	0.0159407
599.552	0.0159551
599.630	0.0159319
599.708	0.0160202
599.786	0.0159693
599.864	0.0159101
599.942	0.0160305
600.021	0.0160763
600.099	0.0158868
600.177	0.0158177
600.255	0.0160547
600.333	0.0160036
600.411	0.0158784
600.489	0.0159684
600.567	0.0159224
600.646	0.0158055
600.724	0.0159092
600.802	0.0159350
600.880	0.0158755
600.958	0.0159000
601.036	0.0158081
601.114	0.0157155
601.192	0.0158386
601.271	0.0158484
601.349	0.0157288
601.427	0.0158894
601.505	0.0158411
601.583	0.0158792
601.661	0.0156968
601.739	0.0156820
601.817	0.0157529
601.896	0.0157197
601.974	0.0156699
602.052	0.0157072
602.130	0.0156006
602.208	0.0157993
602.286	0.0156326
602.364	0.0156549
602.442	0.0157019
602.521	0.0158176
602.599	0.0157391
602.677	0.0156102
602.755	0.0156866
602.833	0.0156153
602.911	0.0156426
602.989	0.0156139
603.067	0.0156491
603.146	0.0156616
603.224	0.0155204
603.302	0.0157357
603.380	0.0156391
603.458	0.0155874
603.536	0.0156490
603.614	0.0155269
603.692	0.0155764
603.771	0.0156638
603.849	0.0154893
603.927	0.0155515
604.005	0.0157351
604.083	0.0156334
604.161	0.0155584
604.239	0.0154744
604.317	0.0154926
604.396	0.0155448
604.474	0.0155259
604.552	0.0155338
604.630	0.0155681
604.708	0.0155535
604.786	0.0156018
604.864	0.0155630
604.942	0.0154726
605.021	0.0156192
605.099	0.0156139
605.177	0.0155414
605.255	0.0155355
605.333	0.0155404
605.411	0.0155627
605.489	0.0155968
605.567	0.0156040
605.646	0.0155703
605.724	0.0156284
605.802	0.0154661
605.880	0.0155405
605.958	0.0155832
606.036	0.0154218
606.114	0.0155373
606.192	0.0154626
606.271	0.0155478
606.349	0.0155313
606.427	0.0155264
606.505	0.0157005
606.583	0.0154305
606.661	0.0156721
606.739	0.0156339
606.817	0.0155805
606.896	0.0157693
606.974	0.0157794
607.052	0.0157219
607.130	0.0156690
607.208	0.0157368
607.286	0.0157821
607.364	0.0156725
607.442	0.0157758
607.521	0.0156465
607.599	0.0158491
607.677	0.0157467
607.755	0.0158302
607.833	0.0157515
607.911	0.0157023
607.989	0.0157247
608.067	0.0157693
608.146	0.0157443
608.224	0.0158379
608.302	0.0159071
608.380	0.0159769
608.458	0.0158104
608.536	0.0157406
608.614	0.0158448
608.692	0.0159301
608.771	0.0158561
608.849	0.0157272
608.927	0.0158624
609.005	0.0158614
609.083	0.0159562
609.161	0.0160842
609.239	0.0160468
609.317	0.0159435
609.396	0.0158901
609.474	0.0160516
609.552	0.0160971
609.630	0.0160716
609.708	0.0161179
609.786	0.0160796
609.864	0.0160269
609.942	0.0162674
610.021	0.0161977
610.099	0.0160802
610.177	0.0160429
610.255	0.0161774
610.333	0.0161549
610.411	0.0162241
610.489	0.0163100
610.567	0.0161607
610.646	0.0163039
610.724	0.0160582
610.802	0.0160938
610.880	0.0161990
610.958	0.0161690
611.036	0.0161835
611.114	0.0160133
611.192	0.0159895
611.271	0.0161373
611.349	0.0162315
611.427	0.0161177
611.505	0.0160698
611.583	0.0160255
611.661	0.0159827
611.739	0.0161648
611.817	0.0161039
611.896	0.0158972
611.974	0.0159151
612.052	0.0159651
612.130	0.0158540
612.208	0.0159445
612.286	0.0158410
612.364	0.0159932
612.442	0.0158428
612.521	0.0157887
612.599	0.0158906
612.677	0.0158041
612.755	0.0158904
612.833	0.0158599
612.911	0.0159303
612.989	0.0161221
613.067	0.0160527
613.146	0.0160062
613.224	0.0160902
613.302	0.0160667
613.380	0.0160227
613.458	0.0160413
613.536	0.0160601
613.614	0.0160985
613.692	0.0161806
613.771	0.0160257
613.849	0.0161289
613.927	0.0160301
614.005	0.0160487
614.083	0.0161126
614.161	0.0160526
614.239	0.0160191
614.317	0.0159478
614.396	0.0159995
614.474	0.0159154
614.552	0.0159808
614.630	0.0160943
614.708	0.0160360
614.786	0.0159521
614.864	0.0159880
614.942	0.0159580
615.021	0.0158919
615.099	0.0159093
615.177	0.0158402
615.255	0.0160349
615.333	0.0159207
615.411	0.0159061
615.489	0.0159523
615.567	0.0159074
615.646	0.0157460
615.724	0.0158333
615.802	0.0158482
615.880	0.0158426
615.958	0.0157682
616.036	0.0156365
616.114	0.0157623
616.192	0.0156186
616.271	0.0156081
616.349	0.0157492
616.427	0.0157251
616.505	0.0157645
616.583	0.0155754
616.661	0.0154359
616.739	0.0156346
616.817	0.0155227
616.896	0.0155522
616.974	0.0155639
617.052	0.0156967
617.130	0.0155112
617.208	0.0155997
617.286	0.0155982
617.364	0.0154922
617.442	0.0155511
617.521	0.0156846
617.599	0.0157079
617.677	0.0157919
617.755	0.0156485
617.833	0.0158358
617.911	0.0157767
617.989	0.0156045
618.067	0.0157574
618.146	0.0157787
618.224	0.0157500
618.302	0.0158099
618.380	0.0157028
618.458	0.0158521
618.536	0.0156800
618.614	0.0157687
618.692	0.0158990
618.771	0.0157435
618.849	0.0157637
618.927	0.0158465
619.005	0.0158875
619.083	0.0157092
619.161	0.0156557
619.239	0.0157124
619.317	0.0156041
619.396	0.0155377
619.474	0.0156545
619.552	0.0156594
619.630	0.0157709
619.708	0.0156957
619.786	0.0156057
619.864	0.0155191
619.942	0.0156290
620.021	0.0154410
620.099	0.0154338
620.177	0.0154768
620.255	0.0154383
620.333	0.0154608
620.411	0.0152917
620.489	0.0152682
620.567	0.0152882
620.646	0.0152964
620.724	0.0152791
620.802	0.0151225
620.880	0.0150262
620.958	0.0149044
621.036	0.0149073
621.114	0.0147957
621.192	0.0149090
621.271	0.0148552
621.349	0.0148019
621.427	0.0147231
621.505	0.0147041
621.583	0.0147764
621.661	0.0148277
621.739	0.0148823
621.817	0.0148966
621.896	0.0149843
621.974	0.0150444
622.052	0.0149960
622.130	0.0150602
622.208	0.0150826
622.286	0.0150713
622.364	0.0150879
622.442	0.0150175
622.521	0.0150727
622.599	0.0151454
622.677	0.0150844
622.755	0.0150611
622.833	0.0150831
622.911	0.0151817
622.989	0.0150627
623.067	0.0150259
623.146	0.0152989
623.224	0.0151778
623.302	0.0151324
623.380	0.0150880
623.458	0.0151245
623.536	0.0152573
623.614	0.0154404
623.692	0.0155238
623.771	0.0154844
623.849	0.0154185
623.927	0.0156910
624.005	0.0157536
624.083	0.0157160
624.161	0.0157482
624.239	0.0157713
624.317	0.0157005
624.396	0.0158089
624.474	0.0160207
624.552	0.0160310
624.630	0.0158653
624.708	0.0159564
624.786	0.0159946
624.864	0.0160355
624.942	0.0161137
625.021	0.0160681
625.099	0.0159616
625.177	0.0159838
625.255	0.0159159
625.333	0.0160802
625.411	0.0158880
625.489	0.0158461
625.567	0.0157864
625.646	0.0157999
625.724	0.0158659
625.802	0.0157039
625.880	0.0158016
625.958	0.0158485
626.036	0.0157371
626.114	0.0157499
626.192	0.0156954
626.271	0.0156616
626.349	0.0157357
626.427	0.0156605
626.505	0.0156228
626.583	0.0156629
626.661	0.0156500
626.739	0.0155859
626.817	0.0157650
626.896	0.0156799
626.974	0.0158154
627.052	0.0156586
627.130	0.0156780
627.208	0.0155740
627.286	0.0155571
627.364	0.0156161
627.442	0.0155756
627.521	0.0155905
627.599	0.0156097
627.677	0.0155693
627.755	0.0155322
627.833	0.0154985
627.911	0.0154694
627.989	0.0155537
628.067	0.0154839
628.146	0.0153773
628.224	0.0154449
628.302	0.0153934
628.380	0.0153899
628.458	0.0153173
628.536	0.0154889
628.614	0.0153347
628.692	0.0155315
628.771	0.0154345
628.849	0.0154528
628.927	0.0152936
629.005	0.0153353
629.083	0.0153962
629.161	0.0153350
629.239	0.0154302
629.317	0.0154391
629.396	0.0153790
629.474	0.0154492
629.552	0.0155032
629.630	0.0153324
629.708	0.0154667
629.786	0.0154729
629.864	0.0155562
629.942	0.0155033
630.021	0.0153563
630.099	0.0155727
630.177	0.0154012
630.255	0.0155816
630.333	0.0156114
630.411	0.0156168
630.489	0.0155882
630.567	0.0157099
630.646	0.0156315
630.724	0.0156469
630.802	0.0157391
630.880	0.0156972
630.958	0.0157558
631.036	0.0157248
631.114	0.0158501
631.192	0.0157326
631.271	0.0158602
631.349	0.0158038
631.427	0.0158628
631.505	0.0158849
631.583	0.0158529
631.661	0.0159409
631.739	0.0159391
631.817	0.0158311
631.896	0.0158352
631.974	0.0159733
632.052	0.0158652
632.130	0.0158331
632.208	0.0158540
632.286	0.0159641
632.364	0.0159121
632.442	0.0159585
632.521	0.0158936
632.599	0.0159629
632.677	0.0159064
632.755	0.0159870
632.833	0.0159121
632.911	0.0159664
632.989	0.0161079
633.067	0.0160699
633.146	0.0161501
633.224	0.0161665
633.302	0.0161117
633.380	0.0162069
633.458	0.0161636
633.536	0.0161858
633.614	0.0161131
633.692	0.0161233
633.771	0.0160564
633.849	0.0159383
633.927	0.0160035
634.005	0.0161533
634.083	0.0161140
634.161	0.0159512
634.239	0.0160043
634.317	0.0160818
634.396	0.0159348
634.474	0.0159459
634.552	0.0159031
634.630	0.0159776
634.708	0.0160650
634.786	0.0160635
634.864	0.0159420
634.942	0.0159782
635.021	0.0160938
635.099	0.0161732
635.177	0.0160912
635.255	0.0161142
635.333	0.0162448
635.411	0.0161453
635.489	0.0162273
635.567	0.0162590
635.646	0.0161474
635.724	0.0161114
635.802	0.0160995
635.880	0.0161485
635.958	0.0159909
636.036	0.0159681
636.114	0.0159840
636.192	0.0161206
636.271	0.0159865
636.349	0.0159402
636.427	0.0160184
636.505	0.0160142
636.583	0.0159447
636.661	0.0160791
636.739	0.0159573
636.817	0.0159863
636.896	0.0159278
636.974	0.0159954
637.052	0.0159235
637.130	0.0158059
637.208	0.0159330
637.286	0.0160093
637.364	0.0160025
637.442	0.0160471
637.521	0.0160061
637.599	0.0160204
637.677	0.0159276
637.755	0.0158712
637.833	0.0160127
637.911	0.0157906
637.989	0.0159191
638.067	0.0158963
638.146	0.0160252
638.224	0.0160165
638.302	0.0160666
638.380	0.0159060
638.458	0.0159481
638.536	0.0160775
638.614	0.0159129
638.692	0.0158326
638.771	0.0158710
638.849	0.0158061
638.927	0.0157674
639.005	0.0157647
639.083	0.0158867
639.161	0.0157887
639.239	0.0157867
639.317	0.0158435
639.396	0.0158022
639.474	0.0157216
639.552	0.0156718
639.630	0.0157135
639.708	0.0157604
639.786	0.0157078
639.864	0.0155039
639.942	0.0155535
640.021	0.0156268
640.099	0.0156495
640.177	0.0155910
640.255	0.0155533
640.333	0.0154768
640.411	0.0155402
640.489	0.0155418
640.567	0.0153794
640.646	0.0155141
640.724	0.0156090
640.802	0.0156670
640.880	0.0154213
640.958	0.0154148
641.036	0.0155887
641.114	0.0155112
641.192	0.0153889
641.271	0.0156612
641.349	0.0155571
641.427	0.0154175
641.505	0.0155577
641.583	0.0156676
641.661	0.0154774
641.739	0.0154681
641.817	0.0155650
641.896	0.0155976
641.974	0.0156352
642.052	0.0156017
642.130	0.0157434
642.208	0.0157018
642.286	0.0156430
642.364	0.0157439
642.442	0.0157899
642.521	0.0155064
642.599	0.0156627
642.677	0.0157418
642.755	0.0157854
642.833	0.0156606
642.911	0.0156805
642.989	0.0157047
643.067	0.0156374
643.146	0.0156808
643.224	0.0155524
643.302	0.0156738
643.380	0.0158274
643.458	0.0156706
643.536	0.0156777
643.614	0.0155321
643.692	0.0157285
643.771	0.0155279
643.849	0.0156142
643.927	0.0157275
644.005	0.0156317
644.083	0.0155497
644.161	0.0156010
644.239	0.0155520
644.317	0.0154860
644.396	0.0156171
644.474	0.0154884
644.552	0.0155473
644.630	0.0157213
644.708	0.0155546
644.786	0.0155827
644.864	0.0155257
644.942	0.0154870
645.021	0.0154088
645.099	0.0152943
645.177	0.0155325
645.255	0.0154415
645.333	0.0155782
645.411	0.0154600
645.489	0.0154361
645.567	0.0152919
645.646	0.0153822
645.724	0.0154704
645.802	0.0154257
645.880	0.0154285
645.958	0.0153854
646.036	0.0155664
646.114	0.0156145
646.192	0.0156805
646.271	0.0154758
646.349	0.0155914
646.427	0.0156829
646.505	0.0156634
646.583	0.0157635
646.661	0.0156477
646.739	0.0156821
646.817	0.0156033
646.896	0.0157211
646.974	0.0156468
647.052	0.0155362
647.130	0.0156060
647.208	0.0155645
647.286	0.0154755
647.364	0.0156485
647.442	0.0155707
647.521	0.0156522
647.599	0.0156779
647.677	0.0156223
647.755	0.0155765
647.833	0.0156303
647.911	0.0158547
647.989	0.0159418
648.067	0.0158189
648.146	0.0158183
648.224	0.0160460
648.302	0.0160802
648.380	0.0160735
648.458	0.0160482
648.536	0.0161095
648.614	0.0162970
648.692	0.0161387
648.771	0.0160847
648.849	0.0160119
648.927	0.0161216
649.005	0.0160070
649.083	0.0158966
649.161	0.0159343
649.239	0.0159771
649.317	0.0159805
649.396	0.0159544
649.474	0.0160075
649.552	0.0159260
649.630	0.0160054
649.708	0.0160211
649.786	0.0159441
649.864	0.0156978
649.942	0.0161047
650.021	0.0160546
650.099	0.0159476
650.177	0.0159473
650.255	0.0158903
650.333	0.0159509
650.411	0.0159240
650.489	0.0160959
650.567	0.0158080
650.646	0.0158225
650.724	0.0158672
650.802	0.0158263
650.880	0.0157838
650.958	0.0157317
651.036	0.0157408
651.114	0.0157686
651.192	0.0156593
651.271	0.0157324
651.349	0.0156955
651.427	0.0156583
651.505	0.0155685
651.583	0.0156252
651.661	0.0157361
651.739	0.0156746
651.817	0.0157279
651.896	0.0156799
651.974	0.0157565
652.052	0.0157513
652.130	0.0158284
652.208	0.0158564
652.286	0.0158034
652.364	0.0158887
652.442	0.0158218
652.521	0.0158109
652.599	0.0158115
652.677	0.0158450
652.755	0.0158379
652.833	0.0159536
652.911	0.0159856
652.989	0.0158960
653.067	0.0158811
653.146	0.0159312
653.224	0.0158448
653.302	0.0158038
653.380	0.0159367
653.458	0.0158736
653.536	0.0159026
653.614	0.0159133
653.692	0.0158242
653.771	0.0159062
653.849	0.0158104
653.927	0.0158990
654.005	0.0160485
654.083	0.0160001
654.161	0.0158189
654.239	0.0158820
654.317	0.0160196
654.396	0.0158255
654.474	0.0159022
654.552	0.0160278
654.630	0.0159576
654.708	0.0157493
654.786	0.0158413
654.864	0.0159803
654.942	0.0160865
655.021	0.0158106
655.099	0.0159196
655.177	0.0159404
655.255	0.0159781
655.333	0.0160011
655.411	0.0159238
655.489	0.0157864
655.567	0.0159817
655.646	0.0158897
655.724	0.0159444
655.802	0.0159627
655.880	0.0158826
655.958	0.0159517
656.036	0.0159787
656.114	0.0160075
656.192	0.0158950
656.271	0.0158292
656.349	0.0158569
656.427	0.0159086
656.505	0.0157735
656.583	0.0158549
656.661	0.0159556
656.739	0.0160012
656.817	0.0158938
656.896	0.0158352
656.974	0.0159301
657.052	0.0158985
657.130	0.0158253
657.208	0.0158479
657.286	0.0157792
657.364	0.0157479
657.442	0.0159033
657.521	0.0158223
657.599	0.0160327
657.677	0.0157762
657.755	0.0157945
657.833	0.0158990
657.911	0.0158134
657.989	0.0158810
658.067	0.0158381
658.146	0.0158192
658.224	0.0159921
658.302	0.0159537
658.380	0.0159657
658.458	0.0158980
658.536	0.0159421
658.614	0.0160908
658.692	0.0161139
658.771	0.0160411
658.849	0.0160474
658.927	0.0158590
659.005	0.0157909
659.083	0.0159864
659.161	0.0160192
659.239	0.0159421
659.317	0.0159495
659.396	0.0157086
659.474	0.0157549
659.552	0.0158833
659.630	0.0158266
659.708	0.0158959
659.786	0.0157610
659.864	0.0158693
659.942	0.0159035
660.021	0.0158197
660.099	0.0156706
660.177	0.0155657
660.255	0.0158925
660.333	0.0157781
660.411	0.0158511
660.489	0.0158112
660.567	0.0157820
660.646	0.0157719
660.724	0.0156663
660.802	0.0157289
660.880	0.0156915
660.958	0.0156687
661.036	0.0157564
661.114	0.0156770
661.192	0.0156292
661.271	0.0157068
661.349	0.0157378
661.427	0.0157078
661.505	0.0155812
661.583	0.0156158
661.661	0.0156335
661.739	0.0156081
661.817	0.0157584
661.896	0.0156915
661.974	0.0155965
662.052	0.0155807
662.130	0.0155381
662.208	0.0155660
662.286	0.0156265
662.364	0.0154051
662.442	0.0155985
662.521	0.0155479
662.599	0.0156429
662.677	0.0156214
662.755	0.0156618
662.833	0.0156659
662.911	0.0156863
662.989	0.0156230
663.067	0.0154958
663.146	0.0155919
663.224	0.0157745
663.302	0.0158061
663.380	0.0156335
663.458	0.0157403
663.536	0.0155754
663.614	0.0156464
663.692	0.0157342
663.771	0.0156489
663.849	0.0157282
663.927	0.0156339
664.005	0.0156716
664.083	0.0156446
664.161	0.0156969
664.239	0.0156417
664.317	0.0156003
664.396	0.0154929
664.474	0.0156958
664.552	0.0156985
664.630	0.0155428
664.708	0.0156861
664.786	0.0156231
664.864	0.0156612
664.942	0.0156532
665.021	0.0155482
665.099	0.0155640
665.177	0.0155745
665.255	0.0154618
665.333	0.0155946
665.411	0.0156222
665.489	0.0155438
665.567	0.0156272
665.646	0.0155333
665.724	0.0155247
665.802	0.0154730
665.880	0.0155179
665.958	0.0153780
666.036	0.0156073
666.114	0.0156692
666.192	0.0156372
666.271	0.0154965
666.349	0.0156265
666.427	0.0156773
666.505	0.0155627
666.583	0.0156004
666.661	0.0155194
666.739	0.0154999
666.817	0.0157272
666.896	0.0155666
666.974	0.0155547
667.052	0.0156610
667.130	0.0156342
667.208	0.0154900
667.286	0.0155521
667.364	0.0154834
667.442	0.0153657
667.521	0.0155692
667.599	0.0155158
667.677	0.0153530
667.755	0.0155878
667.833	0.0154395
667.911	0.0153741
667.989	0.0153482
668.067	0.0152795
668.146	0.0155209
668.224	0.0155037
668.302	0.0154548
668.380	0.0154992
668.458	0.0154529
668.536	0.0153309
668.614	0.0153657
668.692	0.0156729
668.771	0.0155968
668.849	0.0155878
668.927	0.0155685
669.005	0.0157211
669.083	0.0156145
669.161	0.0155126
669.239	0.0156383
669.317	0.0156925
669.396	0.0155923
669.474	0.0155393
669.552	0.0156029
669.630	0.0155760
669.708	0.0157360
669.786	0.0156228
669.864	0.0155508
669.942	0.0156359
670.021	0.0155590
670.099	0.0155205
670.177	0.0155868
670.255	0.0155600
670.333	0.0156822
670.411	0.0156452
670.489	0.0156425
670.567	0.0155864
670.646	0.0155928
670.724	0.0155930
670.802	0.0154095
670.880	0.0156770
670.958	0.0156472
671.036	0.0158460
671.114	0.0158424
671.192	0.0157400
671.271	0.0158253
671.349	0.0157344
671.427	0.0158433
671.505	0.0158965
671.583	0.0157381
671.661	0.0158857
671.739	0.0159239
671.817	0.0159954
671.896	0.0158426
671.974	0.0158148
672.052	0.0160751
672.130	0.0161541
672.208	0.0158617
672.286	0.0159525
672.364	0.0161069
672.442	0.0159937
672.521	0.0162148
672.599	0.0161318
672.677	0.0159381
672.755	0.0161181
672.833	0.0159562
672.911	0.0159325
672.989	0.0161535
673.067	0.0159235
673.146	0.0161031
673.224	0.0160170
673.302	0.0161654
673.380	0.0160199
673.458	0.0159736
673.536	0.0159196
673.614	0.0158828
673.692	0.0161600
673.771	0.0161201
673.849	0.0159225
673.927	0.0161004
674.005	0.0159600
674.083	0.0159293
674.161	0.0159577
674.239	0.0159405
674.317	0.0158932
674.396	0.0158178
674.474	0.0157560
674.552	0.0159028
674.630	0.0158987
674.708	0.0158427
674.786	0.0157791
674.864	0.0158237
674.942	0.0157829
675.021	0.0156994
675.099	0.0157801
675.177	0.0157401
675.255	0.0157946
675.333	0.0156779
675.411	0.0156540
675.489	0.0157224
675.567	0.0156907
675.646	0.0158085
675.724	0.0157833
675.802	0.0156994
675.880	0.0156099
675.958	0.0157326
676.036	0.0157587
676.114	0.0158628
676.192	0.0157355
676.271	0.0156110
676.349	0.0156356
676.427	0.0157136
676.505	0.0157383
676.583	0.0156783
676.661	0.0157894
676.739	0.0157717
676.817	0.0156229
676.896	0.0155511
676.974	0.0155412
677.052	0.0155722
677.130	0.0157179
677.208	0.0156271
677.286	0.0157054
677.364	0.0157824
677.442	0.0157076
677.521	0.0157822
677.599	0.0158247
677.677	0.0157010
677.755	0.0157690
677.833	0.0158629
677.911	0.0158321
677.989	0.0157416
678.067	0.0159969
678.146	0.0158480
678.224	0.0158865
678.302	0.0158701
678.380	0.0159337
678.458	0.0159358
678.536	0.0159245
678.614	0.0158884
678.692	0.0158379
678.771	0.0158274
678.849	0.0158103
678.927	0.0157893
679.005	0.0158602
679.083	0.0158559
679.161	0.0157227
679.239	0.0156834
679.317	0.0156355
679.396	0.0157934
679.474	0.0158935
679.552	0.0157896
679.630	0.0158044
679.708	0.0157662
679.786	0.0157236
679.864	0.0156401
679.942	0.0159167
680.021	0.0158034
680.099	0.0158699
680.177	0.0159085
680.255	0.0156976
680.333	0.0157403
680.411	0.0157526
680.489	0.0157452
680.567	0.0156768
680.646	0.0158284
680.724	0.0156265
680.802	0.0158187
680.880	0.0157727
680.958	0.0158144
681.036	0.0156364
681.114	0.0157906
681.192	0.0156687
681.271	0.0157439
681.349	0.0156319
681.427	0.0156445
681.505	0.0155409
681.583	0.0157217
681.661	0.0156914
681.739	0.0157580
681.817	0.0157761
681.896	0.0156940
681.974	0.0157029
682.052	0.0155314
682.130	0.0157224
682.208	0.0156136
682.286	0.0156048
682.364	0.0156838
682.442	0.0157671
682.521	0.0157085
682.599	0.0156277
682.677	0.0156011
682.755	0.0156380
682.833	0.0156949
682.911	0.0156561
682.989	0.0155108
683.067	0.0157906
683.146	0.0156880
683.224	0.0156742
683.302	0.0154781
683.380	0.0156986
683.458	0.0156727
683.536	0.0157637
683.614	0.0156361
683.692	0.0154659
683.771	0.0155378
683.849	0.0155249
683.927	0.0155174
684.005	0.0156451
684.083	0.0156880
684.161	0.0154845
684.239	0.0154519
684.317	0.0155235
684.396	0.0156567
684.474	0.0155292
684.552	0.0155409
684.630	0.0154908
684.708	0.0154895
684.786	0.0154024
684.864	0.0155019
684.942	0.0154976
685.021	0.0154738
685.099	0.0153851
685.177	0.0155293
685.255	0.0154455
685.333	0.0154737
685.411	0.0155419
685.489	0.0155406
685.567	0.0154890
685.646	0.0155900
685.724	0.0154928
685.802	0.0155367
685.880	0.0156269
685.958	0.0155028
686.036	0.0156783
686.114	0.0155394
686.192	0.0156142
686.271	0.0154957
686.349	0.0155103
686.427	0.0156210
686.505	0.0156618
686.583	0.0156966
686.661	0.0155424
686.739	0.0155801
686.817	0.0156299
686.896	0.0155462
686.974	0.0157439
687.052	0.0156253
687.130	0.0156477
687.208	0.0156700
687.286	0.0157029
687.364	0.0157439
687.442	0.0157421
687.521	0.0156979
687.599	0.0155662
687.677	0.0155904
687.755	0.0155527
687.833	0.0156701
687.911	0.0157523
687.989	0.0157110
688.067	0.0155676
688.146	0.0156789
688.224	0.0155919
688.302	0.0156370
688.380	0.0155751
688.458	0.0158108
688.536	0.0157252
688.614	0.0155692
688.692	0.0155571
688.771	0.0156208
688.849	0.0155714
688.927	0.0156792
689.005	0.0156680
689.083	0.0156856
689.161	0.0156867
689.239	0.0156361
689.317	0.0155363
689.396	0.0157896
689.474	0.0157108
689.552	0.0155956
689.630	0.0157160
689.708	0.0155730
689.786	0.0155385
689.864	0.0156126
689.942	0.0156862
690.021	0.0156660
690.099	0.0157211
690.177	0.0155990
690.255	0.0156439
690.333	0.0155207
690.411	0.0156826
690.489	0.0155732
690.567	0.0156344
690.646	0.0155313
690.724	0.0156129
690.802	0.0155769
690.880	0.0155233
690.958	0.0155420
691.036	0.0156726
691.114	0.0156724
691.192	0.0157088
691.271	0.0156446
691.349	0.0156078
691.427	0.0155502
691.505	0.0156610
691.583	0.0154917
691.661	0.0155526
691.739	0.0155741
691.817	0.0155978
691.896	0.0156538
691.974	0.0155603
692.052	0.0155937
692.130	0.0156159
692.208	0.0156210
692.286	0.0156786
692.364	0.0156562
692.442	0.0155529
692.521	0.0156203
692.599	0.0155356
692.677	0.0155893
692.755	0.0156590
692.833	0.0155754
692.911	0.0155338
692.989	0.0155979
693.067	0.0155049
693.146	0.0154593
693.224	0.0155152
693.302	0.0156036
693.380	0.0155396
693.458	0.0152603
693.536	0.0153220
693.614	0.0153948
693.692	0.0153730
693.771	0.0155670
693.849	0.0155256
693.927	0.0154704
694.005	0.0153984
694.083	0.0154445
694.161	0.0154359
694.239	0.0154069
694.317	0.0154389
694.396	0.0154223
694.474	0.0154204
694.552	0.0154601
694.630	0.0154471
694.708	0.0154066
694.786	0.0154001
694.864	0.0154678
694.942	0.0153428
695.021	0.0154849
695.099	0.0155072
695.177	0.0154141
695.255	0.0154683
695.333	0.0154572
695.411	0.0155139
695.489	0.0155534
695.567	0.0153381
695.646	0.0153683
695.724	0.0155265
695.802	0.0155487
695.880	0.0154539
695.958	0.0155518
696.036	0.0155566
696.114	0.0155598
696.192	0.0154256
696.271	0.0154302
696.349	0.0152762
696.427	0.0153996
696.505	0.0154782
696.583	0.0155238
696.661	0.0154202
696.739	0.0155222
696.817	0.0156274
696.896	0.0155978
696.974	0.0156117
697.052	0.0156088
697.130	0.0156783
697.208	0.0156901
697.286	0.0158045
697.364	0.0157455
697.442	0.0156967
697.521	0.0157600
697.599	0.0158644
697.677	0.0158802
697.755	0.0157750
697.833	0.0158110
697.911	0.0157458
697.989	0.0159200
698.067	0.0158319
698.146	0.0158688
698.224	0.0158847
698.302	0.0157250
698.380	0.0158590
698.458	0.0158717
698.536	0.0157624
698.614	0.0156876
698.692	0.0158624
698.771	0.0158625
698.849	0.0158797
698.927	0.0158691
699.005	0.0158426
699.083	0.0157233
699.161	0.0158558
699.239	0.0159093
699.317	0.0156696
699.396	0.0157778
699.474	0.0159195
699.552	0.0158860
699.630	0.0158635
699.708	0.0157639
699.786	0.0156129
699.864	0.0158698
699.942	0.0157000
700.021	0.0158442
700.099	0.0157908
700.177	0.0157771
700.255	0.0157130
700.333	0.0156357
700.411	0.0157023
700.489	0.0155899
700.567	0.0155303
700.646	0.0156551
700.724	0.0156039
700.802	0.0157157
700.880	0.0157791
700.958	0.0156844
701.036	0.0158623
701.114	0.0157664
701.192	0.0159290
701.271	0.0159132
701.349	0.0158891
701.427	0.0159542
701.505	0.0159732
701.583	0.0159083
701.661	0.0158443
701.739	0.0160186
701.817	0.0159795
701.896	0.0159531
701.974	0.0160670
702.052	0.0158685
702.130	0.0159914
702.208	0.0159032
702.286	0.0159042
702.364	0.0159161
702.442	0.0159499
702.521	0.0157926
702.599	0.0159158
702.677	0.0158181
702.755	0.0157140
702.833	0.0158672
702.911	0.0157706
702.989	0.0158111
703.067	0.0157706
703.146	0.0156018
703.224	0.0156372
703.302	0.0156995
703.380	0.0156721
703.458	0.0157684
703.536	0.0158174
703.614	0.0158160
703.692	0.0157632
703.771	0.0158868
703.849	0.0158311
703.927	0.0156751
704.005	0.0159418
704.083	0.0159079
704.161	0.0158437
704.239	0.0158514
704.317	0.0157965
704.396	0.0157761
704.474	0.0157243
704.552	0.0158331
704.630	0.0157228
704.708	0.0157635
704.786	0.0158353
704.864	0.0158157
704.942	0.0156929
705.021	0.0156631
705.099	0.0157216
705.177	0.0156142
705.255	0.0156751
705.333	0.0156641
705.411	0.0156559
705.489	0.0156330
705.567	0.0156121
705.646	0.0156009
705.724	0.0154858
705.802	0.0155193
705.880	0.0154494
705.958	0.0155100
706.036	0.0154646
706.114	0.0154552
706.192	0.0154336
706.271	0.0154768
706.349	0.0154145
706.427	0.0153740
706.505	0.0152429
706.583	0.0153202
706.661	0.0153506
706.739	0.0152529
706.817	0.0153358
706.896	0.0153430
706.974	0.0153960
707.052	0.0154301
707.130	0.0153596
707.208	0.0153870
707.286	0.0154158
707.364	0.0154650
707.442	0.0155271
707.521	0.0155549
707.599	0.0156035
707.677	0.0156870
707.755	0.0155547
707.833	0.0155978
707.911	0.0155133
707.989	0.0156204
708.067	0.0157291
708.146	0.0156474
708.224	0.0156680
708.302	0.0155975
708.380	0.0156589
708.458	0.0154826
708.536	0.0155876
708.614	0.0155610
708.692	0.0155990
708.771	0.0156580
708.849	0.0156481
708.927	0.0154767
709.005	0.0155740
709.083	0.0155573
709.161	0.0154864
709.239	0.0155341
709.317	0.0154856
709.396	0.0157240
709.474	0.0155514
709.552	0.0155687
709.630	0.0156290
709.708	0.0157113
709.786	0.0158687
709.864	0.0156934
709.942	0.0156615
710.021	0.0157626
710.099	0.0157593
710.177	0.0158251
710.255	0.0158526
710.333	0.0157555
710.411	0.0158840
710.489	0.0158672
710.567	0.0158083
710.646	0.0158391
710.724	0.0158082
710.802	0.0156604
710.880	0.0156568
710.958	0.0157803
711.036	0.0155854
711.114	0.0156417
711.192	0.0157150
711.271	0.0158217
711.349	0.0157841
711.427	0.0158918
711.505	0.0158463
711.583	0.0158878
711.661	0.0159520
711.739	0.0158863
711.817	0.0160098
711.896	0.0159656
711.974	0.0161298
712.052	0.0162129
712.130	0.0160562
712.208	0.0159821
712.286	0.0162098
712.364	0.0160834
712.442	0.0161800
712.521	0.0162614
712.599	0.0163824
712.677	0.0161759
712.755	0.0163404
712.833	0.0163048
712.911	0.0161449
712.989	0.0162135
713.067	0.0162447
713.146	0.0163078
713.224	0.0164839
713.302	0.0162839
713.380	0.0163660
713.458	0.0163907
713.536	0.0161929
713.614	0.0162436
713.692	0.0162231
713.771	0.0161589
713.849	0.0161211
713.927	0.0161976
714.005	0.0161341
714.083	0.0161386
714.161	0.0159544
714.239	0.0159493
714.317	0.0159806
714.396	0.0160280
714.474	0.0161451
714.552	0.0161199
714.630	0.0159824
714.708	0.0160258
714.786	0.0160841
714.864	0.0161163
714.942	0.0161179
715.021	0.0161362
715.099	0.0161474
715.177	0.0161628
715.255	0.0161329
715.333	0.0161018
715.411	0.0161887
715.489	0.0160751
715.567	0.0161243
715.646	0.0160793
715.724	0.0161835
715.802	0.0160052
715.880	0.0156838
715.958	0.0158066
716.036	0.0156067
716.114	0.0156589
716.192	0.0155868
716.271	0.0154627
716.349	0.0154388
716.427	0.0153262
716.505	0.0152815
716.583	0.0152925
716.661	0.0152576
716.739	0.0153503
716.817	0.0152480
716.896	0.0153027
716.974	0.0154506
717.052	0.0154600
717.130	0.0155524
717.208	0.0154279
717.286	0.0155280
717.364	0.0155643
717.442	0.0156025
717.521	0.0157429
717.599	0.0157283
717.677	0.0157492
717.755	0.0157829
717.833	0.0158196
717.911	0.0158862
717.989	0.0158281
718.067	0.0157513
718.146	0.0158899
718.224	0.0157145
718.302	0.0156919
718.380	0.0157003
718.458	0.0157287
718.536	0.0156783
718.614	0.0155238
718.692	0.0156438
718.771	0.0155466
718.849	0.0156017
718.927	0.0155510
719.005	0.0155929
719.083	0.0155566
719.161	0.0156468
719.239	0.0155643
719.317	0.0156612
719.396	0.0156740
719.474	0.0155833
719.552	0.0156783
719.630	0.0157534
719.708	0.0155797
719.786	0.0154116
719.864	0.0156979
719.942	0.0155151
720.021	0.0155383
720.099	0.0155256
720.177	0.0156567
720.255	0.0155155
720.333	0.0155980
720.411	0.0158772
720.489	0.0156762
720.567	0.0157365
720.646	0.0155753
720.724	0.0157429
720.802	0.0159781
720.880	0.0159363
720.958	0.0159889
721.036	0.0160592
721.114	0.0161103
721.192	0.0161489
721.271	0.0160093
721.349	0.0160962
721.427	0.0161098
721.505	0.0161746
721.583	0.0159371
721.661	0.0159706
721.739	0.0160358
721.817	0.0159422
721.896	0.0158240
721.974	0.0158971
722.052	0.0159055
722.130	0.0159113
722.208	0.0160677
722.286	0.0159226
722.364	0.0160609
722.442	0.0159680
722.521	0.0159100
722.599	0.0161421
722.677	0.0161516
722.755	0.0161402
722.833	0.0162662
722.911	0.0163382
722.989	0.0162275
723.067	0.0162244
723.146	0.0161691
723.224	0.0162879
723.302	0.0162552
723.380	0.0162986
723.458	0.0162844
723.536	0.0162331
723.614	0.0161079
723.692	0.0160991
723.771	0.0160941
723.849	0.0161285
723.927	0.0161482
724.005	0.0161169
724.083	0.0159519
724.161	0.0160284
724.239	0.0160584
724.317	0.0159364
724.396	0.0160080
724.474	0.0160259
724.552	0.0160615
724.630	0.0160386
724.708	0.0160388
724.786	0.0161446
724.864	0.0158814
724.942	0.0159757
725.021	0.0160785
725.099	0.0160186
725.177	0.0160248
725.255	0.0160442
725.333	0.0159942
725.411	0.0159560
725.489	0.0160390
725.567	0.0160794
725.646	0.0160909
725.724	0.0160185
725.802	0.0158982
725.880	0.0158179
725.958	0.0159779
726.036	0.0159184
726.114	0.0157955
726.192	0.0157652
726.271	0.0157653
726.349	0.0156013
726.427	0.0156201
726.505	0.0156303
726.583	0.0154910
726.661	0.0154305
726.739	0.0155238
726.817	0.0154314
726.896	0.0154516
726.974	0.0153963
727.052	0.0154362
727.130	0.0154829
727.208	0.0153388
727.286	0.0154847
727.364	0.0152946
727.442	0.0152977
727.521	0.0154765
727.599	0.0153745
727.677	0.0151956
727.755	0.0154712
727.833	0.0154919
727.911	0.0154939
727.989	0.0153375
728.067	0.0155070
728.146	0.0154103
728.224	0.0155096
728.302	0.0155850
728.380	0.0155777
728.458	0.0155965
728.536	0.0155556
728.614	0.0155289
728.692	0.0155640
728.771	0.0153673
728.849	0.0154234
728.927	0.0156368
729.005	0.0156506
729.083	0.0154769
729.161	0.0155283
729.239	0.0154736
729.317	0.0153905
729.396	0.0154829
729.474	0.0154093
729.552	0.0154694
729.630	0.0153722
729.708	0.0154035
729.786	0.0153673
729.864	0.0155659
729.942	0.0153954
730.021	0.0154282
730.099	0.0153338
730.177	0.0153319
730.255	0.0154654
730.333	0.0155397
730.411	0.0153416
730.489	0.0154110
730.567	0.0153964
730.646	0.0155538
730.724	0.0155236
730.802	0.0156123
730.880	0.0155440
730.958	0.0155740
731.036	0.0155803
731.114	0.0155325
731.192	0.0156060
731.271	0.0156352
731.349	0.0156821
731.427	0.0156393
731.505	0.0155098
731.583	0.0155431
731.661	0.0156399
731.739	0.0156287
731.817	0.0157804
731.896	0.0157732
731.974	0.0156564
732.052	0.0159364
732.130	0.0159025
732.208	0.0157755
732.286	0.0157727
732.364	0.0159035
732.442	0.0160262
732.521	0.0159161
732.599	0.0158732
732.677	0.0158275
732.755	0.0158230
732.833	0.0160915
732.911	0.0160381
732.989	0.0158941
733.067	0.0159792
733.146	0.0160353
733.224	0.0160930
733.302	0.0160941
733.380	0.0160223
733.458	0.0161830
733.536	0.0161985
733.614	0.0160983
733.692	0.0161457
733.771	0.0161393
733.849	0.0161131
733.927	0.0161337
734.005	0.0160958
734.083	0.0161838
734.161	0.0162191
734.239	0.0161272
734.317	0.0163008
734.396	0.0161665
734.474	0.0161102
734.552	0.0161980
734.630	0.0160305
734.708	0.0161910
734.786	0.0160199
734.864	0.0160072
734.942	0.0162529
735.021	0.0160327
735.099	0.0159642
735.177	0.0162286
735.255	0.0161821
735.333	0.0161005
735.411	0.0159969
735.489	0.0162078
735.567	0.0162734
735.646	0.0161790
735.724	0.0161915
735.802	0.0161190
735.880	0.0162030
735.958	0.0162354
736.036	0.0163080
736.114	0.0162571
736.192	0.0162717
736.271	0.0161600
736.349	0.0162492
736.427	0.0163196
736.505	0.0161768
736.583	0.0161514
736.661	0.0162196
736.739	0.0161966
736.817	0.0160812
736.896	0.0161826
736.974	0.0160395
737.052	0.0161065
737.130	0.0160748
737.208	0.0160883
737.286	0.0160363
737.364	0.0158580
737.442	0.0160308
737.521	0.0159741
737.599	0.0159304
737.677	0.0159373
737.755	0.0159371
737.833	0.0158222
737.911	0.0158189
737.989	0.0158565
738.067	0.0158780
738.146	0.0158493
738.224	0.0156774
738.302	0.0157401
738.380	0.0157027
738.458	0.0156122
738.536	0.0157597
738.614	0.0157662
738.692	0.0155378
738.771	0.0155682
738.849	0.0155541
738.927	0.0154541
739.005	0.0155579
739.083	0.0154807
739.161	0.0155552
739.239	0.0155103
739.317	0.0154159
739.396	0.0155143
739.474	0.0155385
739.552	0.0155244
739.630	0.0155415
739.708	0.0153867
739.786	0.0154796
739.864	0.0156433
739.942	0.0155227
740.021	0.0155319
740.099	0.0154214
740.177	0.0155035
740.255	0.0154187
740.333	0.0154819
740.411	0.0153480
740.489	0.0154414
740.567	0.0154491
740.646	0.0154988
740.724	0.0155687
740.802	0.0156149
740.880	0.0155429
740.958	0.0156520
741.036	0.0156683
741.114	0.0155207
741.192	0.0156303
741.271	0.0155690
741.349	0.0154929
741.427	0.0155694
741.505	0.0156646
741.583	0.0157912
741.661	0.0157686
741.739	0.0157806
741.817	0.0157726
741.896	0.0157362
741.974	0.0157990
742.052	0.0157343
742.130	0.0158733
742.208	0.0158624
742.286	0.0158150
742.364	0.0157338
742.442	0.0160284
742.521	0.0160397
742.599	0.0157740
742.677	0.0159811
742.755	0.0160946
742.833	0.0161548
742.911	0.0160683
742.989	0.0160685
743.067	0.0160215
743.146	0.0159806
743.224	0.0160846
743.302	0.0161391
743.380	0.0159532
743.458	0.0159336
743.536	0.0159743
743.614	0.0160727
743.692	0.0160542
743.771	0.0160164
743.849	0.0159754
743.927	0.0160076
744.005	0.0159681
744.083	0.0159927
744.161	0.0160387
744.239	0.0159354
744.317	0.0160530
744.396	0.0160215
744.474	0.0159566
744.552	0.0161594
744.630	0.0161220
744.708	0.0160696
744.786	0.0159893
744.864	0.0161278
744.942	0.0160506
745.021	0.0159465
745.099	0.0160178
745.177	0.0159115
745.255	0.0159190
745.333	0.0160088
745.411	0.0159188
745.489	0.0157327
745.567	0.0159087
745.646	0.0158457
745.724	0.0159072
745.802	0.0158217
745.880	0.0158053
745.958	0.0158338
746.036	0.0158172
746.114	0.0159101
746.192	0.0158006
746.271	0.0158237
746.349	0.0158224
746.427	0.0158989
746.505	0.0158732
746.583	0.0157956
746.661	0.0159071
746.739	0.0157280
746.817	0.0157925
746.896	0.0156950
746.974	0.0156019
747.052	0.0156812
747.130	0.0157101
747.208	0.0156128
747.286	0.0155515
747.364	0.0155773
747.442	0.0154839
747.521	0.0155503
747.599	0.0155384
747.677	0.0156268
747.755	0.0156442
747.833	0.0154566
747.911	0.0154482
747.989	0.0155568
748.067	0.0155486
748.146	0.0154711
748.224	0.0155141
748.302	0.0154803
748.380	0.0154398
748.458	0.0155319
748.536	0.0155869
748.614	0.0154982
748.692	0.0155105
748.771	0.0155475
748.849	0.0155759
748.927	0.0154791
749.005	0.0156256
749.083	0.0157504
749.161	0.0155669
749.239	0.0154965
749.317	0.0155310
749.396	0.0153701
749.474	0.0154861
749.552	0.0156207
749.630	0.0155982
749.708	0.0154821
749.786	0.0155885
749.864	0.0156479
749.942	0.0155647
750.021	0.0155399
750.099	0.0155305
750.177	0.0156905
750.255	0.0156828
750.333	0.0155938
750.411	0.0157569
750.489	0.0157401
750.567	0.0155594
750.646	0.0157617
750.724	0.0157721
750.802	0.0156332
750.880	0.0157171
750.958	0.0157578
751.036	0.0155958
751.114	0.0156312
751.192	0.0156753
751.271	0.0157084
751.349	0.0156265
751.427	0.0157809
751.505	0.0155972
751.583	0.0157082
751.661	0.0157571
751.739	0.0156027
751.817	0.0155968
751.896	0.0156564
751.974	0.0156641
752.052	0.0156547
752.130	0.0156846
752.208	0.0155218
752.286	0.0156318
752.364	0.0156309
752.442	0.0156633
752.521	0.0156081
752.599	0.0154291
752.677	0.0156121
752.755	0.0154922
752.833	0.0155255
752.911	0.0153845
752.989	0.0155363
753.067	0.0155368
753.146	0.0154788
753.224	0.0154999
753.302	0.0154060
753.380	0.0154078
753.458	0.0155476
753.536	0.0155477
753.614	0.0154124
753.692	0.0155141
753.771	0.0154684
753.849	0.0154948
753.927	0.0153309
754.005	0.0153507
754.083	0.0154929
754.161	0.0155093
754.239	0.0154575
754.317	0.0155400
754.396	0.0154202
754.474	0.0155474
754.552	0.0156943
754.630	0.0156084
754.708	0.0155791
754.786	0.0156952
754.864	0.0156311
754.942	0.0155599
755.021	0.0156065
755.099	0.0156665
755.177	0.0156590
755.255	0.0156638
755.333	0.0156368
755.411	0.0156734
755.489	0.0157938
755.567	0.0155235
755.646	0.0157259
755.724	0.0157156
755.802	0.0157066
755.880	0.0156680
755.958	0.0155981
756.036	0.0156498
756.114	0.0157800
756.192	0.0158588
756.271	0.0157066
756.349	0.0158644
756.427	0.0159790
756.505	0.0159129
756.583	0.0159150
756.661	0.0160456
756.739	0.0160609
756.817	0.0158788
756.896	0.0160173
756.974	0.0159264
757.052	0.0161336
757.130	0.0161110
757.208	0.0161052
757.286	0.0161164
757.364	0.0159847
757.442	0.0160796
757.521	0.0161041
757.599	0.0160624
757.677	0.0160876
757.755	0.0160169
757.833	0.0161636
757.911	0.0161898
757.989	0.0162194
758.067	0.0162479
758.146	0.0161750
758.224	0.0160636
758.302	0.0159939
758.380	0.0160345
758.458	0.0160714
758.536	0.0160476
758.614	0.0158745
758.692	0.0159717
758.771	0.0157851
758.849	0.0159988
758.927	0.0158669
759.005	0.0160641
759.083	0.0159089
759.161	0.0158842
759.239	0.0159023
759.317	0.0160566
759.396	0.0158646
759.474	0.0157241
759.552	0.0157838
759.630	0.0158861
759.708	0.0157272
759.786	0.0156328
759.864	0.0157098
759.942	0.0156337
760.021	0.0155279
760.099	0.0156211
760.177	0.0155199
760.255	0.0154860
760.333	0.0153987
760.411	0.0155168
760.489	0.0154705
760.567	0.0154838
760.646	0.0153136
760.724	0.0154063
760.802	0.0154346
760.880	0.0153421
760.958	0.0153851
761.036	0.0153978
761.114	0.0153675
761.192	0.0154974
761.271	0.0152940
761.349	0.0153394
761.427	0.0154176
761.505	0.0153407
761.583	0.0152734
761.661	0.0153867
761.739	0.0153114
761.817	0.0154207
761.896	0.0151812
761.974	0.0152446
762.052	0.0152545
762.130	0.0152878
762.208	0.0154460
762.286	0.0152625
762.364	0.0152695
762.442	0.0153281
762.521	0.0154250
762.599	0.0154958
762.677	0.0153528
762.755	0.0154831
762.833	0.0154824
762.911	0.0154203
762.989	0.0155453
763.067	0.0155781
763.146	0.0155444
763.224	0.0156293
763.302	0.0156805
763.380	0.0157507
763.458	0.0157825
763.536	0.0155164
763.614	0.0157137
763.692	0.0157909
763.771	0.0157423
763.849	0.0156913
763.927	0.0158598
764.005	0.0158477
764.083	0.0157229
764.161	0.0159735
764.239	0.0157565
764.317	0.0157246
764.396	0.0158656
764.474	0.0158700
764.552	0.0160750
764.630	0.0157697
764.708	0.0159227
764.786	0.0158780
764.864	0.0158311
764.942	0.0158566
765.021	0.0158511
765.099	0.0158627
765.177	0.0160268
765.255	0.0159496
765.333	0.0158771
765.411	0.0159103
765.489	0.0159024
765.567	0.0159100
765.646	0.0159219
765.724	0.0158051
765.802	0.0158620
765.880	0.0158652
765.958	0.0159150
766.036	0.0158279
766.114	0.0158315
766.192	0.0158777
766.271	0.0160181
766.349	0.0158985
766.427	0.0159695
766.505	0.0158666
766.583	0.0157111
766.661	0.0158778
766.739	0.0159213
766.817	0.0158594
766.896	0.0157251
766.974	0.0157256
767.052	0.0157365
767.130	0.0156180
767.208	0.0155604
767.286	0.0156016
767.364	0.0155298
767.442	0.0154578
767.521	0.0155125
767.599	0.0154981
767.677	0.0156117
767.755	0.0155608
767.833	0.0154576
767.911	0.0153664
767.989	0.0155402
768.067	0.0155882
768.146	0.0155537
768.224	0.0154102
768.302	0.0153623
768.380	0.0154578
768.458	0.0154279
768.536	0.0154401
768.614	0.0155061
768.692	0.0156148
768.771	0.0154289
768.849	0.0154453
768.927	0.0153868
769.005	0.0153825
769.083	0.0153767
769.161	0.0153008
769.239	0.0151932
769.317	0.0153372
769.396	0.0152717
769.474	0.0152695
769.552	0.0151245
769.630	0.0152861
769.708	0.0152727
769.786	0.0151796
769.864	0.0152599
769.942	0.0151096
770.021	0.0152028
770.099	0.0154784
770.177	0.0152308
770.255	0.0153125
770.333	0.0153563
770.411	0.0155482
770.489	0.0155354
770.567	0.0154234
770.646	0.0152908
770.724	0.0155443
770.802	0.0154911
770.880	0.0154606
770.958	0.0154548
771.036	0.0153458
771.114	0.0153789
771.192	0.0155236
771.271	0.0155011
771.349	0.0153794
771.427	0.0153790
771.505	0.0153842
771.583	0.0154165
771.661	0.0153944
771.739	0.0155025
771.817	0.0155201
771.896	0.0153080
771.974	0.0154066
772.052	0.0155981
772.130	0.0155062
772.208	0.0156100
772.286	0.0157106
772.364	0.0156915
772.442	0.0156583
772.521	0.0154275
772.599	0.0157561
772.677	0.0157175
772.755	0.0157464
772.833	0.0158026
772.911	0.0156989
772.989	0.0156599
773.067	0.0158213
773.146	0.0157008
773.224	0.0157867
773.302	0.0157488
773.380	0.0156987
773.458	0.0158709
773.536	0.0157357
773.614	0.0157764
773.692	0.0158280
773.771	0.0158510
773.849	0.0159279
773.927	0.0158118
774.005	0.0158527
774.083	0.0158813
774.161	0.0158657
774.239	0.0160110
774.317	0.0159282
774.396	0.0158703
774.474	0.0159307
774.552	0.0160052
774.630	0.0159434
774.708	0.0157975
774.786	0.0159290
774.864	0.0161493
774.942	0.0159447
775.021	0.0159645
775.099	0.0159699
775.177	0.0158737
775.255	0.0159210
775.333	0.0158664
775.411	0.0159536
775.489	0.0159909
775.567	0.0160185
775.646	0.0160299
775.724	0.0159124
775.802	0.0158316
775.880	0.0159583
775.958	0.0158246
776.036	0.0159582
776.114	0.0158826
776.192	0.0158762
776.271	0.0160135
776.349	0.0159758
776.427	0.0158836
776.505	0.0159531
776.583	0.0158860
776.661	0.0160264
776.739	0.0159904
776.817	0.0160029
776.896	0.0158004
776.974	0.0158781
777.052	0.0159636
777.130	0.0158042
777.208	0.0159316
777.286	0.0158794
777.364	0.0159647
777.442	0.0158984
777.521	0.0158707
777.599	0.0159403
777.677	0.0158011
777.755	0.0159667
777.833	0.0158317
777.911	0.0160336
777.989	0.0159310
778.067	0.0158097
778.146	0.0158076
778.224	0.0159794
778.302	0.0158012
778.380	0.0158482
778.458	0.0159405
778.536	0.0159145
778.614	0.0159114
778.692	0.0159223
778.771	0.0159069
778.849	0.0159724
778.927	0.0159319
779.005	0.0159557
779.083	0.0160868
779.161	0.0159223
779.239	0.0158237
779.317	0.0160213
779.396	0.0159443
779.474	0.0159465
779.552	0.0159602
779.630	0.0157896
779.708	0.0158212
779.786	0.0159971
779.864	0.0158829
779.942	0.0158976
780.021	0.0159070
780.099	0.0158498
780.177	0.0158818
780.255	0.0159276
780.333	0.0160215
780.411	0.0159079
780.489	0.0159763
780.567	0.0159977
780.646	0.0160615
780.724	0.0160952
780.802	0.0160265
780.880	0.0159862
780.958	0.0160715
781.036	0.0159860
781.114	0.0160542
781.192	0.0161876
781.271	0.0158773
781.349	0.0159615
781.427	0.0161279
781.505	0.0160727
781.583	0.0159068
781.661	0.0158807
781.739	0.0159325
781.817	0.0160197
781.896	0.0160474
781.974	0.0158275
782.052	0.0158698
782.130	0.0158356
782.208	0.0158611
782.286	0.0158869
782.364	0.0158096
782.442	0.0158147
782.521	0.0158264
782.599	0.0157690
782.677	0.0157699
782.755	0.0157966
782.833	0.0159112
782.911	0.0158052
782.989	0.0156693
783.067	0.0156995
783.146	0.0155858
783.224	0.0158075
783.302	0.0157605
783.380	0.0157677
783.458	0.0157395
783.536	0.0156815
783.614	0.0156572
783.692	0.0157248
783.771	0.0157774
783.849	0.0157489
783.927	0.0157446
784.005	0.0156992
784.083	0.0157661
784.161	0.0157510
784.239	0.0156750
784.317	0.0156712
784.396	0.0155580
784.474	0.0156039
784.552	0.0156492
784.630	0.0155605
784.708	0.0157304
784.786	0.0157542
784.864	0.0155224
784.942	0.0155363
785.021	0.0156573
785.099	0.0156445
785.177	0.0156430
785.255	0.0155246
785.333	0.0156118
785.411	0.0156081
785.489	0.0154096
785.567	0.0154010
785.646	0.0156029
785.724	0.0155925
785.802	0.0155555
785.880	0.0155712
785.958	0.0155829
786.036	0.0155258
786.114	0.0154365
786.192	0.0155152
786.271	0.0155762
786.349	0.0154325
786.427	0.0154725
786.505	0.0154047
786.583	0.0154385
786.661	0.0152544
786.739	0.0152913
786.817	0.0153491
786.896	0.0153736
786.974	0.0154011
787.052	0.0153165
787.130	0.0153721
787.208	0.0154166
787.286	0.0153722
787.364	0.0153063
787.442	0.0153751
787.521	0.0153293
787.599	0.0154433
787.677	0.0154981
787.755	0.0153865
787.833	0.0154749
787.911	0.0154853
787.989	0.0155848
788.067	0.0155900
788.146	0.0155437
788.224	0.0156026
788.302	0.0154948
788.380	0.0155698
788.458	0.0154971
788.536	0.0154786
788.614	0.0155480
788.692	0.0156076
788.771	0.0154060
788.849	0.0154314
788.927	0.0154850
789.005	0.0155032
789.083	0.0153799
789.161	0.0155183
789.239	0.0154427
789.317	0.0154775
789.396	0.0154424
789.474	0.0154164
789.552	0.0155161
789.630	0.0155131
789.708	0.0156128
789.786	0.0155080
789.864	0.0154854
789.942	0.0155670
790.021	0.0155170
790.099	0.0155711
790.177	0.0155864
790.255	0.0156232
790.333	0.0156277
790.411	0.0155462
790.489	0.0156531
790.567	0.0157354
790.646	0.0158418
790.724	0.0157665
790.802	0.0158072
790.880	0.0157160
790.958	0.0157221
791.036	0.0158727
791.114	0.0158456
791.192	0.0156777
791.271	0.0158085
791.349	0.0157915
791.427	0.0158360
791.505	0.0158285
791.583	0.0158521
791.661	0.0158101
791.739	0.0159222
791.817	0.0158105
791.896	0.0157275
791.974	0.0157271
792.052	0.0159643
792.130	0.0158410
792.208	0.0158988
792.286	0.0157283
792.364	0.0157025
792.442	0.0156727
792.521	0.0157266
792.599	0.0156750
792.677	0.0156405
792.755	0.0157658
792.833	0.0156081
792.911	0.0155364
792.989	0.0156914
793.067	0.0157075
793.146	0.0156595
793.224	0.0156539
793.302	0.0155883
793.380	0.0156837
793.458	0.0157091
793.536	0.0156060
793.614	0.0157924
793.692	0.0156336
793.771	0.0156556
793.849	0.0157611
793.927	0.0157063
794.005	0.0156153
794.083	0.0156530
794.161	0.0157804
794.239	0.0157014
794.317	0.0156392
794.396	0.0156001
794.474	0.0156361
794.552	0.0156699
794.630	0.0155875
794.708	0.0155935
794.786	0.0155689
794.864	0.0158385
794.942	0.0156584
795.021	0.0156448
795.099	0.0156291
795.177	0.0157686
795.255	0.0158076
795.333	0.0156956
795.411	0.0157937
795.489	0.0157577
795.567	0.0155852
795.646	0.0157709
795.724	0.0157451
795.802	0.0157549
795.880	0.0157561
795.958	0.0156996
796.036	0.0157005
796.114	0.0157037
796.192	0.0155782
796.271	0.0156521
796.349	0.0156921
796.427	0.0156305
796.505	0.0156554
796.583	0.0157310
796.661	0.0156932
796.739	0.0156016
796.817	0.0157133
796.896	0.0156390
796.974	0.0157332
797.052	0.0156616
797.130	0.0156026
797.208	0.0157203
797.286	0.0157401
797.364	0.0158334
797.442	0.0157752
797.521	0.0157837
797.599	0.0158008
797.677	0.0157980
797.755	0.0158652
797.833	0.0157665
797.911	0.0157121
797.989	0.0159344
798.067	0.0156936
798.146	0.0157295
798.224	0.0160706
798.302	0.0158941
798.380	0.0158539
798.458	0.0159142
798.536	0.0157949
798.614	0.0158982
798.692	0.0158988
798.771	0.0160288
798.849	0.0158321
798.927	0.0159480
799.005	0.0159047
799.083	0.0159864
799.161	0.0159323
799.239	0.0158707
799.317	0.0158189
799.396	0.0159150
799.474	0.0160941
799.552	0.0159519
799.630	0.0159757
799.708	0.0159695
799.786	0.0160960
799.864	0.0159763
799.942	0.0159895
800.021	0.0160361
800.099	0.0160546
800.177	0.0160981
800.255	0.0161037
800.333	0.0160326
800.411	0.0160693
800.489	0.0161324
800.567	0.0160938
800.646	0.0160962
800.724	0.0160596
800.802	0.0161331
800.880	0.0161397
800.958	0.0160999
801.036	0.0162004
801.114	0.0161769
801.192	0.0161086
801.271	0.0160287
801.349	0.0160818
801.427	0.0162542
801.505	0.0161873
801.583	0.0161923
801.661	0.0161457
801.739	0.0160753
801.817	0.0160833
801.896	0.0161109
801.974	0.0161951
802.052	0.0160980
802.130	0.0161034
802.208	0.0161491
802.286	0.0161384
802.364	0.0160935
802.442	0.0160558
802.521	0.0161044
802.599	0.0159255
802.677	0.0160511
802.755	0.0160473
802.833	0.0160184
802.911	0.0158534
802.989	0.0159350
803.067	0.0159509
803.146	0.0158818
803.224	0.0160576
803.302	0.0159772
803.380	0.0158974
803.458	0.0159257
803.536	0.0159116
803.614	0.0158161
803.692	0.0159821
803.771	0.0159293
803.849	0.0159339
803.927	0.0158765
804.005	0.0159191
804.083	0.0159212
804.161	0.0159460
804.239	0.0159641
804.317	0.0160469
804.396	0.0159524
804.474	0.0159370
804.552	0.0158730
804.630	0.0160722
804.708	0.0161319
804.786	0.0160534
804.864	0.0161001
804.942	0.0160218
805.021	0.0160056
805.099	0.0159949
805.177	0.0159280
805.255	0.0160035
805.333	0.0159212
805.411	0.0159817
805.489	0.0159274
805.567	0.0158090
805.646	0.0158602
805.724	0.0160691
805.802	0.0158550
805.880	0.0157832
805.958	0.0158402
806.036	0.0159264
806.114	0.0159767
806.192	0.0159164
806.271	0.0159694
806.349	0.0159777
806.427	0.0158959
806.505	0.0159083
806.583	0.0159818
806.661	0.0159578
806.739	0.0160706
806.817	0.0159582
806.896	0.0158531
806.974	0.0159830
807.052	0.0159399
807.130	0.0159472
807.208	0.0158702
807.286	0.0160074
807.364	0.0159698
807.442	0.0159962
807.521	0.0160366
807.599	0.0159447
807.677	0.0158796
807.755	0.0159635
807.833	0.0160344
807.911	0.0158455
807.989	0.0158870
808.067	0.0158566
808.146	0.0159005
808.224	0.0159676
808.302	0.0158647
808.380	0.0159584
808.458	0.0157671
808.536	0.0159075
808.614	0.0159598
808.692	0.0158612
808.771	0.0158469
808.849	0.0157946
808.927	0.0159665
809.005	0.0158221
809.083	0.0158703
809.161	0.0159390
809.239	0.0158556
809.317	0.0158196
809.396	0.0158663
809.474	0.0157552
809.552	0.0157877
809.630	0.0159506
809.708	0.0159866
809.786	0.0157750
809.864	0.0156375
809.942	0.0157497
810.021	0.0157494
810.099	0.0157082
810.177	0.0156454
810.255	0.0155907
810.333	0.0155207
810.411	0.0154050
810.489	0.0155125
810.567	0.0155043
810.646	0.0155324
810.724	0.0154031
810.802	0.0154762
810.880	0.0153532
810.958	0.0154071
811.036	0.0153744
811.114	0.0152231
811.192	0.0152637
811.271	0.0153133
811.349	0.0152194
811.427	0.0151603
811.505	0.0152998
811.583	0.0153360
811.661	0.0151541
811.739	0.0152461
811.817	0.0152931
811.896	0.0153165
811.974	0.0151806
812.052	0.0151178
812.130	0.0152086
812.208	0.0153195
812.286	0.0152956
812.364	0.0152979
812.442	0.0152734
812.521	0.0152100
812.599	0.0152668
812.677	0.0152911
812.755	0.0152411
812.833	0.0153163
812.911	0.0151280
812.989	0.0153439
813.067	0.0152859
813.146	0.0153431
813.224	0.0153309
813.302	0.0152135
813.380	0.0152155
813.458	0.0153513
813.536	0.0153393
813.614	0.0152404
813.692	0.0152249
813.771	0.0153630
813.849	0.0153201
813.927	0.0153712
814.005	0.0154678
814.083	0.0154973
814.161	0.0154657
814.239	0.0155830
814.317	0.0156143
814.396	0.0156998
814.474	0.0155630
814.552	0.0156998
814.630	0.0156417
814.708	0.0157527
814.786	0.0156567
814.864	0.0156475
814.942	0.0157807
815.021	0.0159054
815.099	0.0158274
815.177	0.0157384
815.255	0.0159621
815.333	0.0158882
815.411	0.0158814
815.489	0.0159988
815.567	0.0160709
815.646	0.0161110
815.724	0.0162482
815.802	0.0161021
815.880	0.0161276
815.958	0.0162495
816.036	0.0161475
816.114	0.0162611
816.192	0.0162486
816.271	0.0163772
816.349	0.0163144
816.427	0.0163129
816.505	0.0162590
816.583	0.0162861
816.661	0.0163490
816.739	0.0163052
816.817	0.0163271
816.896	0.0163420
816.974	0.0164015
817.052	0.0162556
817.130	0.0162505
817.208	0.0163239
817.286	0.0161473
817.364	0.0162879
817.442	0.0163345
817.521	0.0161613
817.599	0.0161642
817.677	0.0161185
817.755	0.0161925
817.833	0.0160494
817.911	0.0161931
817.989	0.0160743
818.067	0.0158886
818.146	0.0160331
818.224	0.0158929
818.302	0.0158750
818.380	0.0159018
818.458	0.0158440
818.536	0.0158405
818.614	0.0157679
818.692	0.0157378
818.771	0.0157051
818.849	0.0155158
818.927	0.0155624
819.005	0.0155860
819.083	0.0155482
819.161	0.0157641
819.239	0.0153619
819.317	0.0155135
819.396	0.0154777
819.474	0.0152644
819.552	0.0153545
819.630	0.0153010
819.708	0.0152877
819.786	0.0153004
819.864	0.0153465
819.942	0.0151780
820.021	0.0151830
820.099	0.0152471
820.177	0.0152055
820.255	0.0150529
820.333	0.0150330
820.411	0.0150071
820.489	0.0149841
820.567	0.0149397
820.646	0.0149568
820.724	0.0149253
820.802	0.0150728
820.880	0.0150223
820.958	0.0150056
821.036	0.0148567
821.114	0.0149596
821.192	0.0148849
821.271	0.0150829
821.349	0.0149801
821.427	0.0150999
821.505	0.0151523
821.583	0.0152458
821.661	0.0152698
821.739	0.0152675
821.817	0.0152348
821.896	0.0151794
821.974	0.0154533
822.052	0.0153483
822.130	0.0154130
822.208	0.0155212
822.286	0.0155592
822.364	0.0154840
822.442	0.0157410
822.521	0.0157688
822.599	0.0156384
822.677	0.0157933
822.755	0.0159599
822.833	0.0159996
822.911	0.0159308
822.989	0.0159183
823.067	0.0161243
823.146	0.0161271
823.224	0.0162142
823.302	0.0162206
823.380	0.0162711
823.458	0.0163199
823.536	0.0163564
823.614	0.0162981
823.692	0.0164937
823.771	0.0164562
823.849	0.0163581
823.927	0.0164091
824.005	0.0164384
824.083	0.0163882
824.161	0.0165390
824.239	0.0165829
824.317	0.0165513
824.396	0.0165392
824.474	0.0165295
824.552	0.0165993
824.630	0.0165138
824.708	0.0165285
824.786	0.0165597
824.864	0.0165279
824.942	0.0164767
825.021	0.0165623
825.099	0.0166496
825.177	0.0165403
825.255	0.0164645
825.333	0.0164697
825.411	0.0165232
825.489	0.0164474
825.567	0.0165028
825.646	0.0163166
825.724	0.0164518
825.802	0.0162678
825.880	0.0163398
825.958	0.0163893
826.036	0.0162988
826.114	0.0162630
826.192	0.0161643
826.271	0.0160968
826.349	0.0161700
826.427	0.0161593
826.505	0.0161399
826.583	0.0160252
826.661	0.0159602
826.739	0.0160228
826.817	0.0159110
826.896	0.0160686
826.974	0.0160217
827.052	0.0159270
827.130	0.0158398
827.208	0.0159472
827.286	0.0159769
827.364	0.0158652
827.442	0.0159770
827.521	0.0158325
827.599	0.0158746
827.677	0.0157944
827.755	0.0157883
827.833	0.0159510
827.911	0.0159643
827.989	0.0157815
828.067	0.0158867
828.146	0.0157925
828.224	0.0156767
828.302	0.0157519
828.380	0.0158914
828.458	0.0158617
828.536	0.0157691
828.614	0.0157730
828.692	0.0157365
828.771	0.0156535
828.849	0.0157310
828.927	0.0157419
829.005	0.0157841
829.083	0.0156818
829.161	0.0157761
829.239	0.0158308
829.317	0.0158215
829.396	0.0157736
829.474	0.0158115
829.552	0.0158096
829.630	0.0158053
829.708	0.0155576
829.786	0.0156461
829.864	0.0157676
829.942	0.0157732
830.021	0.0157297
830.099	0.0155733
830.177	0.0156403
830.255	0.0156704
830.333	0.0155934
830.411	0.0156580
830.489	0.0156476
830.567	0.0156625
830.646	0.0157251
830.724	0.0156799
830.802	0.0156603
830.880	0.0155939
830.958	0.0155874
831.036	0.0155949
831.114	0.0157590
831.192	0.0158447
831.271	0.0157076
831.349	0.0158033
831.427	0.0157195
831.505	0.0158405
831.583	0.0156743
831.661	0.0157339
831.739	0.0158041
831.817	0.0157088
831.896	0.0157449
831.974	0.0158707
832.052	0.0156593
832.130	0.0158251
832.208	0.0157825
832.286	0.0157458
832.364	0.0157184
832.442	0.0157504
832.521	0.0157922
832.599	0.0158676
832.677	0.0158826
832.755	0.0158359
832.833	0.0157954
832.911	0.0157810
832.989	0.0157635
833.067	0.0158655
833.146	0.0157912
833.224	0.0158670
833.302	0.0157596
833.380	0.0157898
833.458	0.0157393
833.536	0.0156799
833.614	0.0157262
833.692	0.0157071
833.771	0.0157425
833.849	0.0157103
833.927	0.0156902
834.005	0.0156767
834.083	0.0156521
834.161	0.0156862
834.239	0.0156647
834.317	0.0156980
834.396	0.0156140
834.474	0.0157543
834.552	0.0156506
834.630	0.0157178
834.708	0.0157587
834.786	0.0156393
834.864	0.0158047
834.942	0.0158235
835.021	0.0157281
835.099	0.0157920
835.177	0.0157970
835.255	0.0155810
835.333	0.0157325
835.411	0.0158334
835.489	0.0156885
835.567	0.0157753
835.646	0.0157215
835.724	0.0156702
835.802	0.0156588
835.880	0.0156695
835.958	0.0156923
836.036	0.0157182
836.114	0.0156127
836.192	0.0156695
836.271	0.0157993
836.349	0.0157139
836.427	0.0156232
836.505	0.0157922
836.583	0.0159008
836.661	0.0157543
836.739	0.0157594
836.817	0.0157334
836.896	0.0159496
836.974	0.0157480
837.052	0.0157172
837.130	0.0158511
837.208	0.0159169
837.286	0.0158559
837.364	0.0157375
837.442	0.0157667
837.521	0.0158075
837.599	0.0159241
837.677	0.0158069
837.755	0.0158683
837.833	0.0157535
837.911	0.0157958
837.989	0.0157713
838.067	0.0157303
838.146	0.0157949
838.224	0.0157320
838.302	0.0157912
838.380	0.0158538
838.458	0.0158099
838.536	0.0157140
838.614	0.0158324
838.692	0.0158189
838.771	0.0157595
838.849	0.0157075
838.927	0.0157066
839.005	0.0156923
839.083	0.0158454
839.161	0.0156778
839.239	0.0157076
839.317	0.0156554
839.396	0.0156920
839.474	0.0157410
839.552	0.0157495
839.630	0.0155364
839.708	0.0157004
839.786	0.0155928
839.864	0.0156636
839.942	0.0157259
840.021	0.0156317
840.099	0.0157728
840.177	0.0156757
840.255	0.0156571
840.333	0.0157218
840.411	0.0158440
840.489	0.0157516
840.567	0.0156874
840.646	0.0158820
840.724	0.0157446
840.802	0.0158176
840.880	0.0158024
840.958	0.0157504
841.036	0.0159373
841.114	0.0156689
841.192	0.0158395
841.271	0.0158514
841.349	0.0158952
841.427	0.0158782
841.505	0.0159110
841.583	0.0158292
841.661	0.0158403
841.739	0.0157990
841.817	0.0158625
841.896	0.0157630
841.974	0.0156454
842.052	0.0156070
842.130	0.0158113
842.208	0.0156863
842.286	0.0154746
842.364	0.0154770
842.442	0.0155408
842.521	0.0153616
842.599	0.0154462
842.677	0.0152629
842.755	0.0154295
842.833	0.0153951
842.911	0.0154446
842.989	0.0153179
843.067	0.0153788
843.146	0.0153611
843.224	0.0155004
843.302	0.0154393
843.380	0.0154889
843.458	0.0153825
843.536	0.0156242
843.614	0.0154524
843.692	0.0155702
843.771	0.0156696
843.849	0.0157520
843.927	0.0156246
844.005	0.0155942
844.083	0.0155623
844.161	0.0155856
844.239	0.0156253
844.317	0.0157325
844.396	0.0155546
844.474	0.0154724
844.552	0.0154045
844.630	0.0154916
844.708	0.0154649
844.786	0.0155144
844.864	0.0154147
844.942	0.0152725
845.021	0.0153304
845.099	0.0154809
845.177	0.0154947
845.255	0.0154959
845.333	0.0155491
845.411	0.0155717
845.489	0.0155737
845.567	0.0156213
845.646	0.0157037
845.724	0.0156681
845.802	0.0156075
845.880	0.0156327
845.958	0.0157785
846.036	0.0157485
846.114	0.0157806
846.192	0.0156832
846.271	0.0157249
846.349	0.0157520
846.427	0.0157026
846.505	0.0156687
846.583	0.0157597
846.661	0.0157006
846.739	0.0156129
846.817	0.0156375
846.896	0.0156539
846.974	0.0158119
847.052	0.0157697
847.130	0.0155602
847.208	0.0155782
847.286	0.0156059
847.364	0.0157830
847.442	0.0157565
847.521	0.0156628
847.599	0.0157212
847.677	0.0157859
847.755	0.0158739
847.833	0.0157781
847.911	0.0158500
847.989	0.0159113
848.067	0.0159695
848.146	0.0160974
848.224	0.0159742
848.302	0.0159109
848.380	0.0160878
848.458	0.0161810
848.536	0.0159995
848.614	0.0160342
848.692	0.0159731
848.771	0.0159612
848.849	0.0161075
848.927	0.0160585
849.005	0.0161626
849.083	0.0160232
849.161	0.0160168
849.239	0.0160248
849.317	0.0160199
849.396	0.0160061
849.474	0.0160897
849.552	0.0160895
849.630	0.0161333
849.708	0.0159630
849.786	0.0160021
849.864	0.0161855
849.942	0.0161478
850.021	0.0160355
850.099	0.0160039
850.177	0.0160265
850.255	0.0159705
850.333	0.0159956
850.411	0.0159773
850.489	0.0160292
850.567	0.0159658
850.646	0.0159323
850.724	0.0158289
850.802	0.0159850
850.880	0.0160294
850.958	0.0160468
851.036	0.0158660
851.114	0.0159646
851.192	0.0157727
851.271	0.0158590
851.349	0.0158563
851.427	0.0157269
851.505	0.0158521
851.583	0.0157661
851.661	0.0156756
851.739	0.0156991
851.817	0.0156831
851.896	0.0157423
851.974	0.0157475
852.052	0.0158472
852.130	0.0155889
852.208	0.0156717
852.286	0.0157845
852.364	0.0156226
852.442	0.0157685
852.521	0.0157087
852.599	0.0156614
852.677	0.0156279
852.755	0.0157278
852.833	0.0155253
852.911	0.0157127
852.989	0.0156557
853.067	0.0157082
853.146	0.0157104
853.224	0.0156728
853.302	0.0157389
853.380	0.0156052
853.458	0.0157526
853.536	0.0156834
853.614	0.0155917
853.692	0.0157114
853.771	0.0156184
853.849	0.0155494
853.927	0.0154770
854.005	0.0156036
854.083	0.0155982
854.161	0.0156615
854.239	0.0156983
854.317	0.0156130
854.396	0.0155909
854.474	0.0155600
854.552	0.0154858
854.630	0.0155975
854.708	0.0156367
854.786	0.0155388
854.864	0.0156251
854.942	0.0155997
855.021	0.0156550
855.099	0.0156759
855.177	0.0156740
855.255	0.0156724
855.333	0.0157105
855.411	0.0157202
855.489	0.0156725
855.567	0.0157276
855.646	0.0157248
855.724	0.0156153
855.802	0.0155839
855.880	0.0157426
855.958	0.0157109
856.036	0.0157034
856.114	0.0155943
856.192	0.0156831
856.271	0.0156081
856.349	0.0157787
856.427	0.0159052
856.505	0.0158402
856.583	0.0160014
856.661	0.0160065
856.739	0.0160263
856.817	0.0161471
856.896	0.0161943
856.974	0.0161908
857.052	0.0161090
857.130	0.0162745
857.208	0.0162803
857.286	0.0163097
857.364	0.0163575
857.442	0.0161823
857.521	0.0162851
857.599	0.0162976
857.677	0.0160770
857.755	0.0161511
857.833	0.0161357
857.911	0.0160606
857.989	0.0161495
858.067	0.0161650
858.146	0.0160062
858.224	0.0159795
858.302	0.0161249
858.380	0.0159396
858.458	0.0158124
858.536	0.0157128
858.614	0.0158295
858.692	0.0155453
858.771	0.0157559
858.849	0.0157907
858.927	0.0156802
859.005	0.0157609
859.083	0.0156202
859.161	0.0157452
859.239	0.0156078
859.317	0.0156423
859.396	0.0156483
859.474	0.0158013
859.552	0.0157494
859.630	0.0156299
859.708	0.0156071
859.786	0.0155867
859.864	0.0156934
859.942	0.0157001
860.021	0.0156261
860.099	0.0155856
860.177	0.0156652
860.255	0.0156078
860.333	0.0157301
860.411	0.0156351
860.489	0.0156804
860.567	0.0155174
860.646	0.0156944
860.724	0.0156936
860.802	0.0156142
860.880	0.0155972
860.958	0.0155990
861.036	0.0156668
861.114	0.0155984
861.192	0.0156521
861.271	0.0157069
861.349	0.0157240
861.427	0.0156783
861.505	0.0156849
861.583	0.0157662
861.661	0.0157610
861.739	0.0157362
861.817	0.0157065
861.896	0.0157428
861.974	0.0155982
862.052	0.0157798
862.130	0.0158064
862.208	0.0157383
862.286	0.0159109
862.364	0.0158141
862.442	0.0156948
862.521	0.0157043
862.599	0.0157302
862.677	0.0157892
862.755	0.0157494
862.833	0.0155840
862.911	0.0156638
862.989	0.0158469
863.067	0.0156244
863.146	0.0157961
863.224	0.0157400
863.302	0.0157804
863.380	0.0157114
863.458	0.0157629
863.536	0.0158224
863.614	0.0156322
863.692	0.0157675
863.771	0.0157190
863.849	0.0156920
863.927	0.0158099
864.005	0.0157331
864.083	0.0156773
864.161	0.0157198
864.239	0.0157528
864.317	0.0157555
864.396	0.0156836
864.474	0.0157228
864.552	0.0156798
864.630	0.0157726
864.708	0.0158637
864.786	0.0157925
864.864	0.0156593
864.942	0.0156880
865.021	0.0156410
865.099	0.0158023
865.177	0.0157402
865.255	0.0157919
865.333	0.0157291
865.411	0.0158933
865.489	0.0158072
865.567	0.0157960
865.646	0.0158256
865.724	0.0158516
865.802	0.0158905
865.880	0.0158629
865.958	0.0157526
866.036	0.0158159
866.114	0.0158215
866.192	0.0158887
866.271	0.0158586
866.349	0.0158497
866.427	0.0157313
866.505	0.0158540
866.583	0.0158694
866.661	0.0159067
866.739	0.0156728
866.817	0.0157317
866.896	0.0158971
866.974	0.0158745
867.052	0.0158165
867.130	0.0157888
867.208	0.0156423
867.286	0.0158376
867.364	0.0156017
867.442	0.0157619
867.521	0.0156541
867.599	0.0156576
867.677	0.0156979
867.755	0.0155544
867.833	0.0155002
867.911	0.0153948
867.989	0.0153667
868.067	0.0156300
868.146	0.0154604
868.224	0.0154436
868.302	0.0154780
868.380	0.0154262
868.458	0.0154259
868.536	0.0154173
868.614	0.0154842
868.692	0.0154284
868.771	0.0154787
868.849	0.0155721
868.927	0.0153884
869.005	0.0154636
869.083	0.0154575
869.161	0.0153500
869.239	0.0154241
869.317	0.0154824
869.396	0.0153841
869.474	0.0153209
869.552	0.0153756
869.630	0.0153121
869.708	0.0154767
869.786	0.0154890
869.864	0.0154843
869.942	0.0154655
