06/03/2022	14:52:15	Ver.	4.1	UNKNOWN
Optical Delay	550.020508	Delta X		0.078125	Sweeps	1	Scan Rate	0/0
Coordinates	Axis 1	NaN	Axis 2	NaN	Axis 3	NaN	Axis 4	NaN	Axis 5	NaN	Axis 6	0.000000
TX Power	0.000000	RX Power	0.000000

550.021	0.0159887
550.099	0.0153525
550.177	0.0152441
550.255	0.0151900
550.333	0.0150887
550.411	0.0150199
550.489	0.0152993
550.567	0.0151020
550.646	0.0150626
550.724	0.0151476
550.802	0.0151974
550.880	0.0151732
550.958	0.0150532
551.036	0.0152180
551.114	0.0152109
551.192	0.0151536
551.271	0.0152509
551.349	0.0152511
551.427	0.0152229
551.505	0.0152853
551.583	0.0153816
551.661	0.0152493
551.739	0.0153594
551.817	0.0153573
551.896	0.0152962
551.974	0.0154509
552.052	0.0154628
552.130	0.0156255
552.208	0.0154778
552.286	0.0154765
552.364	0.0155179
552.442	0.0156325
552.521	0.0156273
552.599	0.0156155
552.677	0.0156699
552.755	0.0156550
552.833	0.0157784
552.911	0.0158120
552.989	0.0157887
553.067	0.0158287
553.146	0.0158781
553.224	0.0159424
553.302	0.0159721
553.380	0.0161274
553.458	0.0160841
553.536	0.0161774
553.614	0.0163178
553.692	0.0162951
553.771	0.0162704
553.849	0.0164294
553.927	0.0164573
554.005	0.0164838
554.083	0.0166235
554.161	0.0167275
554.239	0.0165535
554.317	0.0167208
554.396	0.0167003
554.474	0.0169382
554.552	0.0169868
554.630	0.0169067
554.708	0.0172075
554.786	0.0171963
554.864	0.0173063
554.942	0.0173605
555.021	0.0174189
555.099	0.0174593
555.177	0.0175433
555.255	0.0176919
555.333	0.0179101
555.411	0.0177445
555.489	0.0178869
555.567	0.0180348
555.646	0.0181743
555.724	0.0183569
555.802	0.0182304
555.880	0.0182561
555.958	0.0182359
556.036	0.0183702
556.114	0.0182990
556.192	0.0182904
556.271	0.0182624
556.349	0.0183910
556.427	0.0181635
556.505	0.0179685
556.583	0.0180190
556.661	0.0179536
556.739	0.0177515
556.817	0.0178597
556.896	0.0176416
556.974	0.0173930
557.052	0.0174268
557.130	0.0172475
557.208	0.0172402
557.286	0.0169512
557.364	0.0171188
557.442	0.0168332
557.521	0.0167227
557.599	0.0166061
557.677	0.0165355
557.755	0.0164902
557.833	0.0163715
557.911	0.0162028
557.989	0.0161796
558.067	0.0160413
558.146	0.0160514
558.224	0.0160789
558.302	0.0160401
558.380	0.0160372
558.458	0.0158237
558.536	0.0157703
558.614	0.0159374
558.692	0.0159258
558.771	0.0156477
558.849	0.0156576
558.927	0.0157110
559.005	0.0156576
559.083	0.0156906
559.161	0.0155825
559.239	0.0156414
559.317	0.0155747
559.396	0.0156110
559.474	0.0156274
559.552	0.0156816
559.630	0.0156635
559.708	0.0155619
559.786	0.0156866
559.864	0.0157064
559.942	0.0157173
560.021	0.0156725
560.099	0.0156543
560.177	0.0156802
560.255	0.0157220
560.333	0.0158226
560.411	0.0157062
560.489	0.0157750
560.567	0.0157305
560.646	0.0158211
560.724	0.0157166
560.802	0.0158372
560.880	0.0158542
560.958	0.0159167
561.036	0.0159394
561.114	0.0159059
561.192	0.0159755
561.271	0.0160439
561.349	0.0161722
561.427	0.0160957
561.505	0.0161593
561.583	0.0162287
561.661	0.0161751
561.739	0.0162521
561.817	0.0161008
561.896	0.0161744
561.974	0.0161700
562.052	0.0161468
562.130	0.0162809
562.208	0.0162940
562.286	0.0162059
562.364	0.0162508
562.442	0.0163090
562.521	0.0162749
562.599	0.0161557
562.677	0.0162081
562.755	0.0162061
562.833	0.0163374
562.911	0.0162836
562.989	0.0163237
563.067	0.0163281
563.146	0.0164986
563.224	0.0163814
563.302	0.0164272
563.380	0.0165664
563.458	0.0165540
563.536	0.0165916
563.614	0.0164922
563.692	0.0164794
563.771	0.0165257
563.849	0.0166023
563.927	0.0166622
564.005	0.0166379
564.083	0.0167260
564.161	0.0165055
564.239	0.0165946
564.317	0.0166019
564.396	0.0166623
564.474	0.0166682
564.552	0.0166911
564.630	0.0165173
564.708	0.0165923
564.786	0.0165949
564.864	0.0166933
564.942	0.0166493
565.021	0.0163835
565.099	0.0164977
565.177	0.0164697
565.255	0.0164328
565.333	0.0163765
565.411	0.0163730
565.489	0.0163038
565.567	0.0163665
565.646	0.0163423
565.724	0.0162286
565.802	0.0162250
565.880	0.0162319
565.958	0.0161435
566.036	0.0160877
566.114	0.0161355
566.192	0.0159507
566.271	0.0159461
566.349	0.0159547
566.427	0.0160354
566.505	0.0157973
566.583	0.0159193
566.661	0.0158184
566.739	0.0157326
566.817	0.0156482
566.896	0.0156680
566.974	0.0155822
567.052	0.0155708
567.130	0.0154674
567.208	0.0155915
567.286	0.0154690
567.364	0.0154420
567.442	0.0154817
567.521	0.0154546
567.599	0.0155223
567.677	0.0154211
567.755	0.0153535
567.833	0.0155239
567.911	0.0153867
567.989	0.0153207
568.067	0.0153340
568.146	0.0152966
568.224	0.0152964
568.302	0.0153125
568.380	0.0153856
568.458	0.0152796
568.536	0.0152261
568.614	0.0152150
568.692	0.0152079
568.771	0.0151358
568.849	0.0152574
568.927	0.0152227
569.005	0.0152301
569.083	0.0152306
569.161	0.0149920
569.239	0.0151818
569.317	0.0153224
569.396	0.0151285
569.474	0.0151528
569.552	0.0152357
569.630	0.0152100
569.708	0.0153110
569.786	0.0153136
569.864	0.0153683
569.942	0.0154500
570.021	0.0154575
570.099	0.0152946
570.177	0.0153707
570.255	0.0155119
570.333	0.0156023
570.411	0.0155887
570.489	0.0156690
570.567	0.0155611
570.646	0.0157538
570.724	0.0158582
570.802	0.0157567
570.880	0.0157470
570.958	0.0156680
571.036	0.0157963
571.114	0.0157310
571.192	0.0158553
571.271	0.0157296
571.349	0.0157302
571.427	0.0156977
571.505	0.0158670
571.583	0.0157697
571.661	0.0158289
571.739	0.0160149
571.817	0.0159800
571.896	0.0159210
571.974	0.0158875
572.052	0.0159215
572.130	0.0159784
572.208	0.0161117
572.286	0.0159373
572.364	0.0158831
572.442	0.0160763
572.521	0.0161421
572.599	0.0160612
572.677	0.0162045
572.755	0.0162356
572.833	0.0161540
572.911	0.0160980
572.989	0.0161695
573.067	0.0163483
573.146	0.0166149
573.224	0.0164368
573.302	0.0164294
573.380	0.0165861
573.458	0.0167901
573.536	0.0166940
573.614	0.0167914
573.692	0.0168819
573.771	0.0170164
573.849	0.0170533
573.927	0.0170558
574.005	0.0172652
574.083	0.0172457
574.161	0.0171723
574.239	0.0170799
574.317	0.0173479
574.396	0.0173721
574.474	0.0172975
574.552	0.0174071
574.630	0.0174733
574.708	0.0173273
574.786	0.0173215
574.864	0.0175323
574.942	0.0175606
575.021	0.0174738
575.099	0.0175202
575.177	0.0173351
575.255	0.0174107
575.333	0.0174880
575.411	0.0173021
575.489	0.0174292
575.567	0.0173787
575.646	0.0174371
575.724	0.0174309
575.802	0.0172520
575.880	0.0172284
575.958	0.0174117
576.036	0.0172081
576.114	0.0172072
576.192	0.0173278
576.271	0.0173975
576.349	0.0173386
576.427	0.0172499
576.505	0.0170033
576.583	0.0171986
576.661	0.0170655
576.739	0.0169728
576.817	0.0170742
576.896	0.0170506
576.974	0.0170630
577.052	0.0169579
577.130	0.0170015
577.208	0.0169205
577.286	0.0169853
577.364	0.0169479
577.442	0.0168925
577.521	0.0167415
577.599	0.0167865
577.677	0.0167598
577.755	0.0166926
577.833	0.0166547
577.911	0.0166402
577.989	0.0166775
578.067	0.0165828
578.146	0.0166460
578.224	0.0165730
578.302	0.0165535
578.380	0.0166451
578.458	0.0165780
578.536	0.0167229
578.614	0.0167331
578.692	0.0166435
578.771	0.0166206
578.849	0.0167429
578.927	0.0165652
579.005	0.0167677
579.083	0.0167905
579.161	0.0167831
579.239	0.0168122
579.317	0.0167426
579.396	0.0167432
579.474	0.0167458
579.552	0.0168409
579.630	0.0166272
579.708	0.0166700
579.786	0.0167606
579.864	0.0167295
579.942	0.0166129
580.021	0.0166994
580.099	0.0167297
580.177	0.0166148
580.255	0.0166639
580.333	0.0166750
580.411	0.0165214
580.489	0.0164574
580.567	0.0164889
580.646	0.0165401
580.724	0.0164261
580.802	0.0164229
580.880	0.0164191
580.958	0.0162642
581.036	0.0162661
581.114	0.0161793
581.192	0.0159868
581.271	0.0162624
581.349	0.0160720
581.427	0.0159391
581.505	0.0160751
581.583	0.0158746
581.661	0.0159064
581.739	0.0158828
581.817	0.0158044
581.896	0.0157402
581.974	0.0159070
582.052	0.0157951
582.130	0.0157183
582.208	0.0156315
582.286	0.0157407
582.364	0.0156031
582.442	0.0157370
582.521	0.0157037
582.599	0.0155637
582.677	0.0156205
582.755	0.0156354
582.833	0.0157814
582.911	0.0157215
582.989	0.0157125
583.067	0.0156107
583.146	0.0156724
583.224	0.0157243
583.302	0.0156018
583.380	0.0157993
583.458	0.0158553
583.536	0.0157040
583.614	0.0158411
583.692	0.0157746
583.771	0.0159164
583.849	0.0159046
583.927	0.0159340
584.005	0.0159380
584.083	0.0160953
584.161	0.0159740
584.239	0.0160054
584.317	0.0160099
584.396	0.0160860
584.474	0.0160952
584.552	0.0160428
584.630	0.0161816
584.708	0.0161774
584.786	0.0159673
584.864	0.0159929
584.942	0.0161431
585.021	0.0160812
585.099	0.0161335
585.177	0.0161909
585.255	0.0161736
585.333	0.0164395
585.411	0.0162836
585.489	0.0162479
585.567	0.0162676
585.646	0.0162454
585.724	0.0163011
585.802	0.0163642
585.880	0.0164613
585.958	0.0164616
586.036	0.0163891
586.114	0.0165361
586.192	0.0164065
586.271	0.0165262
586.349	0.0165629
586.427	0.0165688
586.505	0.0165483
586.583	0.0166135
586.661	0.0167085
586.739	0.0166541
586.817	0.0167735
586.896	0.0168201
586.974	0.0167088
587.052	0.0170305
587.130	0.0169305
587.208	0.0168639
587.286	0.0168703
587.364	0.0169130
587.442	0.0168619
587.521	0.0169692
587.599	0.0169495
587.677	0.0169427
587.755	0.0169581
587.833	0.0170573
587.911	0.0168760
587.989	0.0169070
588.067	0.0168489
588.146	0.0168893
588.224	0.0166644
588.302	0.0166998
588.380	0.0167062
588.458	0.0166331
588.536	0.0168002
588.614	0.0167271
588.692	0.0165479
588.771	0.0163947
588.849	0.0164684
588.927	0.0164879
589.005	0.0165448
589.083	0.0164656
589.161	0.0162845
589.239	0.0163862
589.317	0.0162958
589.396	0.0162043
589.474	0.0162344
589.552	0.0161650
589.630	0.0161339
589.708	0.0161145
589.786	0.0161152
589.864	0.0159837
589.942	0.0160902
590.021	0.0158595
590.099	0.0159172
590.177	0.0159248
590.255	0.0157742
590.333	0.0158781
590.411	0.0159085
590.489	0.0159350
590.567	0.0157760
590.646	0.0158373
590.724	0.0158354
590.802	0.0157793
590.880	0.0157513
590.958	0.0157121
591.036	0.0158296
591.114	0.0157793
591.192	0.0159438
591.271	0.0158936
591.349	0.0158133
591.427	0.0156522
591.505	0.0157399
591.583	0.0158788
591.661	0.0158254
591.739	0.0157314
591.817	0.0158534
591.896	0.0157406
591.974	0.0157043
592.052	0.0155512
592.130	0.0157193
592.208	0.0155925
592.286	0.0156499
592.364	0.0156737
592.442	0.0156013
592.521	0.0157543
592.599	0.0156818
592.677	0.0157017
592.755	0.0155309
592.833	0.0156064
592.911	0.0156260
592.989	0.0155228
593.067	0.0155965
593.146	0.0156442
593.224	0.0154322
593.302	0.0155946
593.380	0.0155221
593.458	0.0156406
593.536	0.0155882
593.614	0.0155800
593.692	0.0155997
593.771	0.0153886
593.849	0.0154624
593.927	0.0155087
594.005	0.0154388
594.083	0.0156452
594.161	0.0154475
594.239	0.0153935
594.317	0.0155983
594.396	0.0155675
594.474	0.0155799
594.552	0.0158276
594.630	0.0158583
594.708	0.0155801
594.786	0.0156722
594.864	0.0158421
594.942	0.0157905
595.021	0.0158135
595.099	0.0158874
595.177	0.0160391
595.255	0.0159650
595.333	0.0159531
595.411	0.0160407
595.489	0.0160797
595.567	0.0161793
595.646	0.0161346
595.724	0.0162006
595.802	0.0162793
595.880	0.0163442
595.958	0.0162431
596.036	0.0164332
596.114	0.0164260
596.192	0.0162697
596.271	0.0163159
596.349	0.0164381
596.427	0.0165639
596.505	0.0166238
596.583	0.0165669
596.661	0.0167067
596.739	0.0166171
596.817	0.0166251
596.896	0.0167406
596.974	0.0166405
597.052	0.0166323
597.130	0.0165079
597.208	0.0166483
597.286	0.0167187
597.364	0.0165745
597.442	0.0167012
597.521	0.0167899
597.599	0.0166157
597.677	0.0167171
597.755	0.0167715
597.833	0.0167321
597.911	0.0166349
597.989	0.0166531
598.067	0.0166612
598.146	0.0165928
598.224	0.0165448
598.302	0.0165103
598.380	0.0165726
598.458	0.0165033
598.536	0.0166019
598.614	0.0166214
598.692	0.0166717
598.771	0.0165890
598.849	0.0166634
598.927	0.0166573
599.005	0.0164191
599.083	0.0167609
599.161	0.0166631
599.239	0.0165158
599.317	0.0165466
599.396	0.0164088
599.474	0.0166040
599.552	0.0165093
599.630	0.0164656
599.708	0.0166403
599.786	0.0163880
599.864	0.0164826
599.942	0.0165584
600.021	0.0164910
600.099	0.0165157
600.177	0.0164380
600.255	0.0164075
600.333	0.0164133
600.411	0.0164659
600.489	0.0162582
600.567	0.0163163
600.646	0.0164641
600.724	0.0162319
600.802	0.0163375
600.880	0.0162476
600.958	0.0161974
601.036	0.0162788
601.114	0.0161817
601.192	0.0162546
601.271	0.0161604
601.349	0.0161862
601.427	0.0162472
601.505	0.0164278
601.583	0.0162186
601.661	0.0161066
601.739	0.0161823
601.817	0.0161647
601.896	0.0160205
601.974	0.0161546
602.052	0.0162779
602.130	0.0161776
602.208	0.0161413
602.286	0.0160992
602.364	0.0161343
602.442	0.0162149
602.521	0.0161810
602.599	0.0162465
602.677	0.0162494
602.755	0.0160271
602.833	0.0160007
602.911	0.0162032
602.989	0.0161295
603.067	0.0161706
603.146	0.0161308
603.224	0.0161459
603.302	0.0161876
603.380	0.0161546
603.458	0.0159495
603.536	0.0159373
603.614	0.0161439
603.692	0.0160310
603.771	0.0158184
603.849	0.0160444
603.927	0.0160166
604.005	0.0159215
604.083	0.0160468
604.161	0.0161143
604.239	0.0160314
604.317	0.0160933
604.396	0.0159585
604.474	0.0161169
604.552	0.0160738
604.630	0.0160398
604.708	0.0159303
604.786	0.0158551
604.864	0.0158736
604.942	0.0159315
605.021	0.0159843
605.099	0.0158333
605.177	0.0159714
605.255	0.0158452
605.333	0.0159148
605.411	0.0158408
605.489	0.0159918
605.567	0.0158336
605.646	0.0159053
605.724	0.0160616
605.802	0.0159116
605.880	0.0158777
605.958	0.0158166
606.036	0.0158839
606.114	0.0159364
606.192	0.0160384
606.271	0.0159556
606.349	0.0159958
606.427	0.0160214
606.505	0.0160559
606.583	0.0161878
606.661	0.0159910
606.739	0.0159869
606.817	0.0160185
606.896	0.0161790
606.974	0.0161785
607.052	0.0161557
607.130	0.0162103
607.208	0.0163354
607.286	0.0161773
607.364	0.0162924
607.442	0.0162125
607.521	0.0162437
607.599	0.0162612
607.677	0.0162093
607.755	0.0162556
607.833	0.0162968
607.911	0.0164275
607.989	0.0163191
608.067	0.0162689
608.146	0.0163894
608.224	0.0164136
608.302	0.0164397
608.380	0.0163189
608.458	0.0165461
608.536	0.0164474
608.614	0.0165184
608.692	0.0165489
608.771	0.0163577
608.849	0.0164767
608.927	0.0165211
609.005	0.0165626
609.083	0.0165921
609.161	0.0164703
609.239	0.0164977
609.317	0.0166190
609.396	0.0166684
609.474	0.0167240
609.552	0.0164947
609.630	0.0165714
609.708	0.0165784
609.786	0.0166505
609.864	0.0166147
609.942	0.0165244
610.021	0.0164981
610.099	0.0167467
610.177	0.0166765
610.255	0.0166710
610.333	0.0166613
610.411	0.0165634
610.489	0.0165298
610.567	0.0164436
610.646	0.0164314
610.724	0.0164864
610.802	0.0163853
610.880	0.0163055
610.958	0.0163117
611.036	0.0164017
611.114	0.0163997
611.192	0.0162312
611.271	0.0162863
611.349	0.0164417
611.427	0.0162019
611.505	0.0163363
611.583	0.0164067
611.661	0.0162731
611.739	0.0162711
611.817	0.0162437
611.896	0.0163252
611.974	0.0161755
612.052	0.0162761
612.130	0.0162881
612.208	0.0163310
612.286	0.0163402
612.364	0.0165401
612.442	0.0164601
612.521	0.0165447
612.599	0.0165439
612.677	0.0165471
612.755	0.0166980
612.833	0.0167110
612.911	0.0167009
612.989	0.0166672
613.067	0.0166477
613.146	0.0165972
613.224	0.0166913
613.302	0.0169244
613.380	0.0168243
613.458	0.0167455
613.536	0.0167903
613.614	0.0167244
613.692	0.0166521
613.771	0.0168164
613.849	0.0167973
613.927	0.0168135
614.005	0.0168225
614.083	0.0167420
614.161	0.0166221
614.239	0.0166898
614.317	0.0164617
614.396	0.0165105
614.474	0.0164511
614.552	0.0163805
614.630	0.0165757
614.708	0.0163262
614.786	0.0164103
614.864	0.0161745
614.942	0.0161389
615.021	0.0160603
615.099	0.0161958
615.177	0.0160710
615.255	0.0160647
615.333	0.0159203
615.411	0.0159017
615.489	0.0159055
615.567	0.0158938
615.646	0.0157609
615.724	0.0157038
615.802	0.0156587
615.880	0.0158792
615.958	0.0157564
616.036	0.0157834
616.114	0.0157880
616.192	0.0158439
616.271	0.0158513
616.349	0.0157054
616.427	0.0158081
616.505	0.0159217
616.583	0.0158424
616.661	0.0159681
616.739	0.0160485
616.817	0.0159431
616.896	0.0161819
616.974	0.0160293
617.052	0.0161166
617.130	0.0161107
617.208	0.0162216
617.286	0.0164799
617.364	0.0163506
617.442	0.0165442
617.521	0.0163862
617.599	0.0165318
617.677	0.0165154
617.755	0.0164120
617.833	0.0163453
617.911	0.0166331
617.989	0.0166032
618.067	0.0163635
618.146	0.0164877
618.224	0.0164598
618.302	0.0164973
618.380	0.0163828
618.458	0.0163927
618.536	0.0164056
618.614	0.0163725
618.692	0.0163890
618.771	0.0163443
618.849	0.0162859
618.927	0.0162652
619.005	0.0161819
619.083	0.0159986
619.161	0.0161523
619.239	0.0160889
619.317	0.0161530
619.396	0.0160359
619.474	0.0160123
619.552	0.0158942
619.630	0.0157808
619.708	0.0158708
619.786	0.0155829
619.864	0.0155885
619.942	0.0156905
620.021	0.0155085
620.099	0.0155064
620.177	0.0153642
620.255	0.0153655
620.333	0.0151813
620.411	0.0151662
620.489	0.0150683
620.567	0.0149976
620.646	0.0150089
620.724	0.0149755
620.802	0.0150481
620.880	0.0149249
620.958	0.0149037
621.036	0.0150429
621.114	0.0151455
621.192	0.0150646
621.271	0.0150353
621.349	0.0152693
621.427	0.0152757
621.505	0.0152805
621.583	0.0152096
621.661	0.0152865
621.739	0.0154632
621.817	0.0153925
621.896	0.0153382
621.974	0.0153955
622.052	0.0155779
622.130	0.0155358
622.208	0.0156329
622.286	0.0155216
622.364	0.0156379
622.442	0.0156530
622.521	0.0158480
622.599	0.0157574
622.677	0.0159100
622.755	0.0159769
622.833	0.0158565
622.911	0.0159767
622.989	0.0160197
623.067	0.0160313
623.146	0.0162071
623.224	0.0162415
623.302	0.0162566
623.380	0.0163026
623.458	0.0164401
623.536	0.0163658
623.614	0.0163741
623.692	0.0165322
623.771	0.0166598
623.849	0.0166332
623.927	0.0167379
624.005	0.0167003
624.083	0.0167603
624.161	0.0166757
624.239	0.0167579
624.317	0.0167584
624.396	0.0167023
624.474	0.0167323
624.552	0.0166351
624.630	0.0166424
624.708	0.0166455
624.786	0.0166577
624.864	0.0165451
624.942	0.0164698
625.021	0.0163750
625.099	0.0163501
625.177	0.0162228
625.255	0.0161190
625.333	0.0161034
625.411	0.0162366
625.489	0.0161154
625.567	0.0161355
625.646	0.0160017
625.724	0.0160112
625.802	0.0161485
625.880	0.0159776
625.958	0.0159657
626.036	0.0160469
626.114	0.0160813
626.192	0.0159964
626.271	0.0159372
626.349	0.0161017
626.427	0.0160445
626.505	0.0158390
626.583	0.0160239
626.661	0.0158694
626.739	0.0160637
626.817	0.0159761
626.896	0.0159913
626.974	0.0160151
627.052	0.0160538
627.130	0.0159219
627.208	0.0159610
627.286	0.0159551
627.364	0.0160196
627.442	0.0160168
627.521	0.0160856
627.599	0.0160136
627.677	0.0159986
627.755	0.0158007
627.833	0.0157800
627.911	0.0159420
627.989	0.0159817
628.067	0.0158985
628.146	0.0159936
628.224	0.0158784
628.302	0.0159164
628.380	0.0158768
628.458	0.0159309
628.536	0.0159008
628.614	0.0158493
628.692	0.0158376
628.771	0.0158028
628.849	0.0158672
628.927	0.0158466
629.005	0.0159055
629.083	0.0158879
629.161	0.0158437
629.239	0.0158147
629.317	0.0159129
629.396	0.0159369
629.474	0.0159843
629.552	0.0158202
629.630	0.0159323
629.708	0.0160566
629.786	0.0162143
629.864	0.0160815
629.942	0.0161570
630.021	0.0163061
630.099	0.0161012
630.177	0.0162124
630.255	0.0163120
630.333	0.0161391
630.411	0.0161856
630.489	0.0163066
630.567	0.0163482
630.646	0.0164577
630.724	0.0164101
630.802	0.0164668
630.880	0.0165195
630.958	0.0164461
631.036	0.0164880
631.114	0.0164537
631.192	0.0164547
631.271	0.0164157
631.349	0.0164613
631.427	0.0164732
631.505	0.0165458
631.583	0.0165542
631.661	0.0165113
631.739	0.0165305
631.817	0.0164552
631.896	0.0164521
631.974	0.0164087
632.052	0.0164852
632.130	0.0165191
632.208	0.0165994
632.286	0.0165170
632.364	0.0165281
632.442	0.0166399
632.521	0.0165771
632.599	0.0165522
632.677	0.0165995
632.755	0.0165557
632.833	0.0167676
632.911	0.0166534
632.989	0.0164969
633.067	0.0165886
633.146	0.0166713
633.224	0.0166786
633.302	0.0164307
633.380	0.0164964
633.458	0.0165487
633.536	0.0166060
633.614	0.0164722
633.692	0.0165384
633.771	0.0165175
633.849	0.0164571
633.927	0.0164414
634.005	0.0165383
634.083	0.0164454
634.161	0.0165063
634.239	0.0165636
634.317	0.0165490
634.396	0.0165324
634.474	0.0166538
634.552	0.0165031
634.630	0.0165266
634.708	0.0165901
634.786	0.0166105
634.864	0.0165484
634.942	0.0165757
635.021	0.0165347
635.099	0.0166047
635.177	0.0165882
635.255	0.0165220
635.333	0.0165813
635.411	0.0165405
635.489	0.0165815
635.567	0.0166013
635.646	0.0164693
635.724	0.0163213
635.802	0.0164307
635.880	0.0164602
635.958	0.0163731
636.036	0.0163162
636.114	0.0163853
636.192	0.0164484
636.271	0.0162943
636.349	0.0163247
636.427	0.0162370
636.505	0.0162872
636.583	0.0164355
636.661	0.0163757
636.739	0.0161857
636.817	0.0163627
636.896	0.0164461
636.974	0.0162664
637.052	0.0164924
637.130	0.0164504
637.208	0.0163214
637.286	0.0163870
637.364	0.0164111
637.442	0.0164535
637.521	0.0163756
637.599	0.0165562
637.677	0.0164040
637.755	0.0164468
637.833	0.0164788
637.911	0.0163696
637.989	0.0164726
638.067	0.0164059
638.146	0.0163366
638.224	0.0164349
638.302	0.0164034
638.380	0.0163744
638.458	0.0164204
638.536	0.0164159
638.614	0.0161819
638.692	0.0163148
638.771	0.0163903
638.849	0.0163003
638.927	0.0162801
639.005	0.0162280
639.083	0.0161504
639.161	0.0160957
639.239	0.0160302
639.317	0.0160322
639.396	0.0159873
639.474	0.0159892
639.552	0.0160758
639.630	0.0159325
639.708	0.0158617
639.786	0.0157919
639.864	0.0159899
639.942	0.0159438
640.021	0.0157174
640.099	0.0159186
640.177	0.0159177
640.255	0.0158594
640.333	0.0159214
640.411	0.0159409
640.489	0.0159143
640.567	0.0158385
640.646	0.0158492
640.724	0.0159417
640.802	0.0158454
640.880	0.0158674
640.958	0.0160272
641.036	0.0159405
641.114	0.0160346
641.192	0.0161388
641.271	0.0160363
641.349	0.0160249
641.427	0.0160036
641.505	0.0160727
641.583	0.0161111
641.661	0.0161004
641.739	0.0161728
641.817	0.0161971
641.896	0.0162774
641.974	0.0161887
642.052	0.0161255
642.130	0.0162275
642.208	0.0162158
642.286	0.0162186
642.364	0.0162761
642.442	0.0163068
642.521	0.0161749
642.599	0.0161326
642.677	0.0161916
642.755	0.0163187
642.833	0.0162682
642.911	0.0163120
642.989	0.0162120
643.067	0.0160908
643.146	0.0160918
643.224	0.0161395
643.302	0.0161510
643.380	0.0160715
643.458	0.0161102
643.536	0.0161264
643.614	0.0159581
643.692	0.0160397
643.771	0.0159741
643.849	0.0159115
643.927	0.0159750
644.005	0.0159904
644.083	0.0159444
644.161	0.0158489
644.239	0.0157993
644.317	0.0158777
644.396	0.0158430
644.474	0.0158048
644.552	0.0158144
644.630	0.0157659
644.708	0.0157150
644.786	0.0157093
644.864	0.0157659
644.942	0.0157926
645.021	0.0157429
645.099	0.0156646
645.177	0.0158006
645.255	0.0158147
645.333	0.0157795
645.411	0.0161366
645.489	0.0159502
645.567	0.0159512
645.646	0.0161699
645.724	0.0160970
645.802	0.0161131
645.880	0.0161394
645.958	0.0161954
646.036	0.0161340
646.114	0.0162284
646.192	0.0162177
646.271	0.0162364
646.349	0.0161487
646.427	0.0162148
646.505	0.0162345
646.583	0.0161421
646.661	0.0161472
646.739	0.0163162
646.817	0.0161738
646.896	0.0161841
646.974	0.0161799
647.052	0.0162457
647.130	0.0161491
647.208	0.0161417
647.286	0.0163010
647.364	0.0164616
647.442	0.0162848
647.521	0.0164265
647.599	0.0165533
647.677	0.0166334
647.755	0.0165917
647.833	0.0166348
647.911	0.0166638
647.989	0.0166115
648.067	0.0167062
648.146	0.0166106
648.224	0.0167304
648.302	0.0167351
648.380	0.0167953
648.458	0.0165543
648.536	0.0166163
648.614	0.0166890
648.692	0.0166388
648.771	0.0167634
648.849	0.0166457
648.927	0.0166775
649.005	0.0166271
649.083	0.0164989
649.161	0.0165277
649.239	0.0164901
649.317	0.0165356
649.396	0.0165761
649.474	0.0164330
649.552	0.0164821
649.630	0.0164552
649.708	0.0163846
649.786	0.0163187
649.864	0.0162658
649.942	0.0163038
650.021	0.0162706
650.099	0.0161948
650.177	0.0161456
650.255	0.0160817
650.333	0.0161919
650.411	0.0160901
650.489	0.0161383
650.567	0.0161407
650.646	0.0159962
650.724	0.0159196
650.802	0.0160825
650.880	0.0160114
650.958	0.0161042
651.036	0.0160725
651.114	0.0160348
651.192	0.0160757
651.271	0.0161377
651.349	0.0161660
651.427	0.0162066
651.505	0.0161259
651.583	0.0161040
651.661	0.0161160
651.739	0.0161668
651.817	0.0162543
651.896	0.0163857
651.974	0.0161907
652.052	0.0161317
652.130	0.0162356
652.208	0.0164764
652.286	0.0163579
652.364	0.0163245
652.442	0.0165048
652.521	0.0164332
652.599	0.0166922
652.677	0.0166467
652.755	0.0164239
652.833	0.0164890
652.911	0.0166020
652.989	0.0165440
653.067	0.0165467
653.146	0.0165538
653.224	0.0164973
653.302	0.0165533
653.380	0.0166521
653.458	0.0166533
653.536	0.0165974
653.614	0.0166360
653.692	0.0165578
653.771	0.0164581
653.849	0.0165083
653.927	0.0166340
654.005	0.0165671
654.083	0.0163963
654.161	0.0164288
654.239	0.0164612
654.317	0.0163396
654.396	0.0163189
654.474	0.0163347
654.552	0.0163663
654.630	0.0162888
654.708	0.0163381
654.786	0.0163215
654.864	0.0163591
654.942	0.0163871
655.021	0.0163680
655.099	0.0163639
655.177	0.0164642
655.255	0.0163863
655.333	0.0164127
655.411	0.0163651
655.489	0.0163383
655.567	0.0165142
655.646	0.0164394
655.724	0.0162432
655.802	0.0163338
655.880	0.0163820
655.958	0.0164029
656.036	0.0164287
656.114	0.0164938
656.192	0.0165320
656.271	0.0166120
656.349	0.0164335
656.427	0.0164391
656.505	0.0162798
656.583	0.0164295
656.661	0.0165742
656.739	0.0163483
656.817	0.0163647
656.896	0.0164207
656.974	0.0163496
657.052	0.0164189
657.130	0.0163208
657.208	0.0162489
657.286	0.0163049
657.364	0.0163862
657.442	0.0161517
657.521	0.0163326
657.599	0.0162967
657.677	0.0162922
657.755	0.0164050
657.833	0.0164739
657.911	0.0164013
657.989	0.0163748
658.067	0.0163566
658.146	0.0163030
658.224	0.0163075
658.302	0.0162869
658.380	0.0163779
658.458	0.0162695
658.536	0.0162485
658.614	0.0162666
658.692	0.0161608
658.771	0.0161999
658.849	0.0162137
658.927	0.0162009
659.005	0.0161932
659.083	0.0162273
659.161	0.0160428
659.239	0.0161636
659.317	0.0162302
659.396	0.0162106
659.474	0.0161599
659.552	0.0161854
659.630	0.0160871
659.708	0.0161877
659.786	0.0161668
659.864	0.0161070
659.942	0.0162242
660.021	0.0162196
660.099	0.0161806
660.177	0.0160952
660.255	0.0162324
660.333	0.0161646
660.411	0.0160625
660.489	0.0160947
660.567	0.0160224
660.646	0.0159561
660.724	0.0159588
660.802	0.0161842
660.880	0.0161581
660.958	0.0159610
661.036	0.0159006
661.114	0.0160299
661.192	0.0160020
661.271	0.0159286
661.349	0.0159512
661.427	0.0158842
661.505	0.0160193
661.583	0.0159064
661.661	0.0159605
661.739	0.0160606
661.817	0.0159076
661.896	0.0158978
661.974	0.0157877
662.052	0.0159464
662.130	0.0159965
662.208	0.0161344
662.286	0.0160597
662.364	0.0160813
662.442	0.0159777
662.521	0.0159726
662.599	0.0159658
662.677	0.0159993
662.755	0.0161063
662.833	0.0159306
662.911	0.0160670
662.989	0.0160902
663.067	0.0160283
663.146	0.0160422
663.224	0.0161449
663.302	0.0161021
663.380	0.0162302
663.458	0.0162040
663.536	0.0161716
663.614	0.0160599
663.692	0.0162503
663.771	0.0160974
663.849	0.0159901
663.927	0.0163551
664.005	0.0161820
664.083	0.0162646
664.161	0.0162914
664.239	0.0160598
664.317	0.0160193
664.396	0.0162391
664.474	0.0160647
664.552	0.0160432
664.630	0.0161510
664.708	0.0161356
664.786	0.0161126
664.864	0.0158994
664.942	0.0160223
665.021	0.0159718
665.099	0.0159972
665.177	0.0160929
665.255	0.0161264
665.333	0.0158594
665.411	0.0158611
665.489	0.0159103
665.567	0.0160253
665.646	0.0160107
665.724	0.0161073
665.802	0.0159956
665.880	0.0160137
665.958	0.0160040
666.036	0.0160674
666.114	0.0159385
666.192	0.0160612
666.271	0.0159664
666.349	0.0160278
666.427	0.0159699
666.505	0.0160842
666.583	0.0160158
666.661	0.0160254
666.739	0.0161028
666.817	0.0160226
666.896	0.0161097
666.974	0.0161497
667.052	0.0160334
667.130	0.0160762
667.208	0.0161171
667.286	0.0160277
667.364	0.0160987
667.442	0.0160257
667.521	0.0160741
667.599	0.0160884
667.677	0.0159945
667.755	0.0160296
667.833	0.0160921
667.911	0.0161754
667.989	0.0161166
668.067	0.0158835
668.146	0.0160978
668.224	0.0161681
668.302	0.0161369
668.380	0.0160641
668.458	0.0161358
668.536	0.0160512
668.614	0.0162554
668.692	0.0161246
668.771	0.0160975
668.849	0.0159955
668.927	0.0160715
669.005	0.0162127
669.083	0.0160690
669.161	0.0160066
669.239	0.0160329
669.317	0.0161224
669.396	0.0161451
669.474	0.0161632
669.552	0.0160538
669.630	0.0160265
669.708	0.0160902
669.786	0.0160970
669.864	0.0161279
669.942	0.0162715
670.021	0.0162767
670.099	0.0161099
670.177	0.0161154
670.255	0.0164062
670.333	0.0162899
670.411	0.0164316
670.489	0.0163512
670.567	0.0162319
670.646	0.0165642
670.724	0.0164208
670.802	0.0164938
670.880	0.0164642
670.958	0.0165188
671.036	0.0165910
671.114	0.0165416
671.192	0.0165416
671.271	0.0166683
671.349	0.0166846
671.427	0.0165054
671.505	0.0165823
671.583	0.0165911
671.661	0.0167243
671.739	0.0166070
671.817	0.0166281
671.896	0.0165323
671.974	0.0165911
672.052	0.0166637
672.130	0.0167715
672.208	0.0165839
672.286	0.0166496
672.364	0.0166657
672.442	0.0168069
672.521	0.0166757
672.599	0.0167035
672.677	0.0166302
672.755	0.0167575
672.833	0.0166976
672.911	0.0166908
672.989	0.0166647
673.067	0.0166262
673.146	0.0165576
673.224	0.0165411
673.302	0.0166093
673.380	0.0166030
673.458	0.0164798
673.536	0.0163827
673.614	0.0165377
673.692	0.0164190
673.771	0.0162875
673.849	0.0163402
673.927	0.0163041
674.005	0.0162101
674.083	0.0163166
674.161	0.0162482
674.239	0.0160715
674.317	0.0161600
674.396	0.0162024
674.474	0.0161816
674.552	0.0162032
674.630	0.0160371
674.708	0.0161779
674.786	0.0160791
674.864	0.0160828
674.942	0.0162069
675.021	0.0161102
675.099	0.0160706
675.177	0.0160228
675.255	0.0163343
675.333	0.0161789
675.411	0.0163223
675.489	0.0161278
675.567	0.0161431
675.646	0.0161297
675.724	0.0162311
675.802	0.0163611
675.880	0.0162666
675.958	0.0163183
676.036	0.0162798
676.114	0.0162294
676.192	0.0163260
676.271	0.0162510
676.349	0.0163740
676.427	0.0162398
676.505	0.0161631
676.583	0.0162666
676.661	0.0163618
676.739	0.0163341
676.817	0.0163295
676.896	0.0165479
676.974	0.0162852
677.052	0.0162278
677.130	0.0162476
677.208	0.0162017
677.286	0.0163628
677.364	0.0162497
677.442	0.0162007
677.521	0.0163086
677.599	0.0164202
677.677	0.0164517
677.755	0.0164175
677.833	0.0163615
677.911	0.0163833
677.989	0.0163884
678.067	0.0164682
678.146	0.0163602
678.224	0.0163409
678.302	0.0163847
678.380	0.0164339
678.458	0.0162701
678.536	0.0163648
678.614	0.0162151
678.692	0.0162734
678.771	0.0162880
678.849	0.0161690
678.927	0.0161679
679.005	0.0163457
679.083	0.0163187
679.161	0.0163454
679.239	0.0161622
679.317	0.0162283
679.396	0.0162504
679.474	0.0160930
679.552	0.0162303
679.630	0.0161565
679.708	0.0160729
679.786	0.0161961
679.864	0.0161762
679.942	0.0161987
680.021	0.0161535
680.099	0.0162787
680.177	0.0161480
680.255	0.0162971
680.333	0.0161091
680.411	0.0161632
680.489	0.0162758
680.567	0.0161566
680.646	0.0162158
680.724	0.0161884
680.802	0.0161475
680.880	0.0162202
680.958	0.0162895
681.036	0.0161276
681.114	0.0162954
681.192	0.0161912
681.271	0.0162286
681.349	0.0161773
681.427	0.0161750
681.505	0.0163203
681.583	0.0160484
681.661	0.0161061
681.739	0.0161084
681.817	0.0160509
681.896	0.0161105
681.974	0.0160263
682.052	0.0160063
682.130	0.0159717
682.208	0.0160480
682.286	0.0160472
682.364	0.0161138
682.442	0.0160540
682.521	0.0159158
682.599	0.0159048
682.677	0.0161044
682.755	0.0160812
682.833	0.0162001
682.911	0.0160287
682.989	0.0160307
683.067	0.0159416
683.146	0.0159898
683.224	0.0160545
683.302	0.0161211
683.380	0.0159748
683.458	0.0160233
683.536	0.0160950
683.614	0.0159245
683.692	0.0159930
683.771	0.0158987
683.849	0.0158886
683.927	0.0158487
684.005	0.0158315
684.083	0.0159932
684.161	0.0159377
684.239	0.0157980
684.317	0.0159277
684.396	0.0159417
684.474	0.0159511
684.552	0.0159478
684.630	0.0161209
684.708	0.0159264
684.786	0.0159607
684.864	0.0161148
684.942	0.0160076
685.021	0.0159592
685.099	0.0160494
685.177	0.0161216
685.255	0.0159587
685.333	0.0159508
685.411	0.0159944
685.489	0.0159107
685.567	0.0159653
685.646	0.0159816
685.724	0.0159934
685.802	0.0159588
685.880	0.0161016
685.958	0.0161375
686.036	0.0159711
686.114	0.0159468
686.192	0.0160776
686.271	0.0159505
686.349	0.0160349
686.427	0.0160410
686.505	0.0160370
686.583	0.0159969
686.661	0.0160728
686.739	0.0160480
686.817	0.0160938
686.896	0.0160851
686.974	0.0160209
687.052	0.0161079
687.130	0.0161508
687.208	0.0162727
687.286	0.0163314
687.364	0.0160865
687.442	0.0162097
687.521	0.0162214
687.599	0.0163629
687.677	0.0162634
687.755	0.0161871
687.833	0.0163379
687.911	0.0162755
687.989	0.0162791
688.067	0.0164095
688.146	0.0163863
688.224	0.0162083
688.302	0.0162677
688.380	0.0162826
688.458	0.0163378
688.536	0.0161649
688.614	0.0162914
688.692	0.0162673
688.771	0.0162793
688.849	0.0161630
688.927	0.0161774
689.005	0.0160720
689.083	0.0160569
689.161	0.0161103
689.239	0.0160463
689.317	0.0159721
689.396	0.0159829
689.474	0.0160664
689.552	0.0159398
689.630	0.0160733
689.708	0.0161109
689.786	0.0159045
689.864	0.0160098
689.942	0.0160206
690.021	0.0160735
690.099	0.0162107
690.177	0.0160076
690.255	0.0161471
690.333	0.0161121
690.411	0.0162235
690.489	0.0161381
690.567	0.0161036
690.646	0.0161298
690.724	0.0160395
690.802	0.0160524
690.880	0.0160973
690.958	0.0161603
691.036	0.0159893
691.114	0.0161407
691.192	0.0159872
691.271	0.0161895
691.349	0.0162073
691.427	0.0161712
691.505	0.0161531
691.583	0.0160452
691.661	0.0161358
691.739	0.0162765
691.817	0.0162096
691.896	0.0161852
691.974	0.0160429
692.052	0.0160590
692.130	0.0162625
692.208	0.0160915
692.286	0.0160776
692.364	0.0161435
692.442	0.0161057
692.521	0.0161124
692.599	0.0159074
692.677	0.0158994
692.755	0.0160397
692.833	0.0159998
692.911	0.0161213
692.989	0.0159483
693.067	0.0159515
693.146	0.0159255
693.224	0.0160249
693.302	0.0159613
693.380	0.0159032
693.458	0.0160380
693.536	0.0160406
693.614	0.0160641
693.692	0.0160699
693.771	0.0158949
693.849	0.0160489
693.927	0.0159660
694.005	0.0158944
694.083	0.0158233
694.161	0.0158829
694.239	0.0159647
694.317	0.0159778
694.396	0.0159369
694.474	0.0159650
694.552	0.0158350
694.630	0.0158776
694.708	0.0161053
694.786	0.0159962
694.864	0.0159698
694.942	0.0159694
695.021	0.0160531
695.099	0.0160235
695.177	0.0159177
695.255	0.0159454
695.333	0.0160634
695.411	0.0161246
695.489	0.0159553
695.567	0.0161102
695.646	0.0161139
695.724	0.0160665
695.802	0.0161118
695.880	0.0160307
695.958	0.0160287
696.036	0.0159041
696.114	0.0160260
696.192	0.0162173
696.271	0.0162066
696.349	0.0159968
696.427	0.0162369
696.505	0.0161879
696.583	0.0160872
696.661	0.0162202
696.739	0.0161817
696.817	0.0163245
696.896	0.0162718
696.974	0.0162807
697.052	0.0163008
697.130	0.0162267
697.208	0.0163249
697.286	0.0162690
697.364	0.0163760
697.442	0.0163362
697.521	0.0163290
697.599	0.0164395
697.677	0.0164716
697.755	0.0165411
697.833	0.0164439
697.911	0.0164160
697.989	0.0164671
698.067	0.0164641
698.146	0.0164901
698.224	0.0166366
698.302	0.0164362
698.380	0.0165706
698.458	0.0167148
698.536	0.0166664
698.614	0.0165631
698.692	0.0164483
698.771	0.0165792
698.849	0.0165667
698.927	0.0164523
699.005	0.0166064
699.083	0.0166857
699.161	0.0165669
699.239	0.0165316
699.317	0.0164935
699.396	0.0164102
699.474	0.0162633
699.552	0.0164250
699.630	0.0164504
699.708	0.0164350
699.786	0.0163074
699.864	0.0162309
699.942	0.0163076
700.021	0.0164014
700.099	0.0161359
700.177	0.0162309
700.255	0.0163027
700.333	0.0162548
700.411	0.0162251
700.489	0.0162932
700.567	0.0161907
700.646	0.0161660
700.724	0.0162489
700.802	0.0163682
700.880	0.0162423
700.958	0.0161604
701.036	0.0162521
701.114	0.0162403
701.192	0.0162236
701.271	0.0161662
701.349	0.0162716
701.427	0.0163113
701.505	0.0162969
701.583	0.0163674
701.661	0.0164172
701.739	0.0163760
701.817	0.0163773
701.896	0.0163211
701.974	0.0163979
702.052	0.0164774
702.130	0.0164245
702.208	0.0164613
702.286	0.0163988
702.364	0.0164548
702.442	0.0164522
702.521	0.0164491
702.599	0.0164102
702.677	0.0163512
702.755	0.0164548
702.833	0.0162077
702.911	0.0163966
702.989	0.0163643
703.067	0.0163113
703.146	0.0162950
703.224	0.0163572
703.302	0.0162727
703.380	0.0162166
703.458	0.0162016
703.536	0.0161993
703.614	0.0161948
703.692	0.0160494
703.771	0.0160161
703.849	0.0160538
703.927	0.0161962
704.005	0.0161744
704.083	0.0160803
704.161	0.0160452
704.239	0.0161469
704.317	0.0161428
704.396	0.0159981
704.474	0.0160118
704.552	0.0161095
704.630	0.0159461
704.708	0.0158440
704.786	0.0159467
704.864	0.0159016
704.942	0.0160233
705.021	0.0159164
705.099	0.0160308
705.177	0.0160361
705.255	0.0158567
705.333	0.0158476
705.411	0.0158985
705.489	0.0159167
705.567	0.0159155
705.646	0.0158420
705.724	0.0157289
705.802	0.0157690
705.880	0.0158735
705.958	0.0158812
706.036	0.0158891
706.114	0.0159740
706.192	0.0158954
706.271	0.0159249
706.349	0.0159080
706.427	0.0159019
706.505	0.0158541
706.583	0.0158047
706.661	0.0159032
706.739	0.0159775
706.817	0.0158575
706.896	0.0159063
706.974	0.0159917
707.052	0.0159203
707.130	0.0160799
707.208	0.0160800
707.286	0.0159577
707.364	0.0160590
707.442	0.0161115
707.521	0.0159786
707.599	0.0159352
707.677	0.0160033
707.755	0.0160349
707.833	0.0160034
707.911	0.0161000
707.989	0.0159590
708.067	0.0160516
708.146	0.0159354
708.224	0.0159230
708.302	0.0158498
708.380	0.0158267
708.458	0.0159512
708.536	0.0158631
708.614	0.0159547
708.692	0.0161453
708.771	0.0159576
708.849	0.0161543
708.927	0.0161167
709.005	0.0159858
709.083	0.0161932
709.161	0.0161031
709.239	0.0161301
709.317	0.0162193
709.396	0.0162408
709.474	0.0162128
709.552	0.0161758
709.630	0.0161372
709.708	0.0161338
709.786	0.0160647
709.864	0.0161451
709.942	0.0161706
710.021	0.0162086
710.099	0.0161292
710.177	0.0161108
710.255	0.0161939
710.333	0.0161647
710.411	0.0161347
710.489	0.0163339
710.567	0.0162022
710.646	0.0161782
710.724	0.0162713
710.802	0.0162675
710.880	0.0163659
710.958	0.0164716
711.036	0.0163634
711.114	0.0164994
711.192	0.0166754
711.271	0.0166336
711.349	0.0165121
711.427	0.0165958
711.505	0.0166284
711.583	0.0167315
711.661	0.0167956
711.739	0.0168337
711.817	0.0169931
711.896	0.0168825
711.974	0.0170149
712.052	0.0170637
712.130	0.0170082
712.208	0.0172197
712.286	0.0171615
712.364	0.0170741
712.442	0.0170574
712.521	0.0171902
712.599	0.0171568
712.677	0.0170853
712.755	0.0169962
712.833	0.0168615
712.911	0.0170808
712.989	0.0170378
713.067	0.0169149
713.146	0.0167911
713.224	0.0169230
713.302	0.0166523
713.380	0.0166090
713.458	0.0166588
713.536	0.0166519
713.614	0.0164877
713.692	0.0163788
713.771	0.0165105
713.849	0.0164914
713.927	0.0164645
714.005	0.0164644
714.083	0.0164270
714.161	0.0163976
714.239	0.0165106
714.317	0.0165170
714.396	0.0164954
714.474	0.0164892
714.552	0.0164472
714.630	0.0164924
714.708	0.0164043
714.786	0.0164843
714.864	0.0164462
714.942	0.0165723
715.021	0.0164084
715.099	0.0164906
715.177	0.0162010
715.255	0.0161713
715.333	0.0162159
715.411	0.0161269
715.489	0.0160484
715.567	0.0160332
715.646	0.0158431
715.724	0.0157220
715.802	0.0157544
715.880	0.0157098
715.958	0.0155083
716.036	0.0155019
716.114	0.0157188
716.192	0.0155592
716.271	0.0153726
716.349	0.0155956
716.427	0.0155370
716.505	0.0155952
716.583	0.0156702
716.661	0.0157414
716.739	0.0156936
716.817	0.0157721
716.896	0.0159661
716.974	0.0160506
717.052	0.0161043
717.130	0.0161742
717.208	0.0161884
717.286	0.0164087
717.364	0.0162997
717.442	0.0164341
717.521	0.0165588
717.599	0.0164162
717.677	0.0166232
717.755	0.0165308
717.833	0.0165511
717.911	0.0163486
717.989	0.0164282
718.067	0.0163465
718.146	0.0164302
718.224	0.0163702
718.302	0.0163158
718.380	0.0162586
718.458	0.0162639
718.536	0.0161742
718.614	0.0162049
718.692	0.0161040
718.771	0.0160526
718.849	0.0160721
718.927	0.0159666
719.005	0.0159827
719.083	0.0159154
719.161	0.0159603
719.239	0.0159252
719.317	0.0158636
719.396	0.0159566
719.474	0.0158702
719.552	0.0159514
719.630	0.0159201
719.708	0.0160387
719.786	0.0160420
719.864	0.0162012
719.942	0.0162796
720.021	0.0163018
720.099	0.0163966
720.177	0.0163786
720.255	0.0165507
720.333	0.0165662
720.411	0.0165943
720.489	0.0166257
720.567	0.0165737
720.646	0.0167245
720.724	0.0167422
720.802	0.0166247
720.880	0.0166898
720.958	0.0166885
721.036	0.0165382
721.114	0.0165356
721.192	0.0166467
721.271	0.0166791
721.349	0.0166431
721.427	0.0167063
721.505	0.0165590
721.583	0.0163989
721.661	0.0165218
721.739	0.0166183
721.817	0.0165577
721.896	0.0165108
721.974	0.0165309
722.052	0.0165415
722.130	0.0167269
722.208	0.0165199
722.286	0.0165092
722.364	0.0166573
722.442	0.0166095
722.521	0.0165938
722.599	0.0165769
722.677	0.0165840
722.755	0.0166728
722.833	0.0165340
722.911	0.0166266
722.989	0.0168843
723.067	0.0165983
723.146	0.0165079
723.224	0.0166154
723.302	0.0166332
723.380	0.0165640
723.458	0.0165405
723.536	0.0165087
723.614	0.0166256
723.692	0.0164853
723.771	0.0165209
723.849	0.0165422
723.927	0.0164604
724.005	0.0164621
724.083	0.0163897
724.161	0.0163258
724.239	0.0163988
724.317	0.0165625
724.396	0.0165776
724.474	0.0166255
724.552	0.0164217
724.630	0.0163969
724.708	0.0165187
724.786	0.0164074
724.864	0.0163694
724.942	0.0165444
725.021	0.0165913
725.099	0.0162852
725.177	0.0163287
725.255	0.0163721
725.333	0.0162240
725.411	0.0162173
725.489	0.0162959
725.567	0.0160835
725.646	0.0159777
725.724	0.0159833
725.802	0.0159386
725.880	0.0159297
725.958	0.0157911
726.036	0.0157909
726.114	0.0157547
726.192	0.0157278
726.271	0.0155737
726.349	0.0156657
726.427	0.0155336
726.505	0.0155714
726.583	0.0154969
726.661	0.0155350
726.739	0.0155013
726.817	0.0154640
726.896	0.0155019
726.974	0.0155687
727.052	0.0153295
727.130	0.0155372
727.208	0.0156071
727.286	0.0155315
727.364	0.0157135
727.442	0.0156364
727.521	0.0157893
727.599	0.0157563
727.677	0.0158212
727.755	0.0157126
727.833	0.0158986
727.911	0.0159423
727.989	0.0159091
728.067	0.0158939
728.146	0.0158223
728.224	0.0159250
728.302	0.0159412
728.380	0.0158704
728.458	0.0159393
728.536	0.0157973
728.614	0.0157852
728.692	0.0158553
728.771	0.0158319
728.849	0.0158743
728.927	0.0158295
729.005	0.0157983
729.083	0.0159048
729.161	0.0157655
729.239	0.0158162
729.317	0.0157304
729.396	0.0157648
729.474	0.0158310
729.552	0.0156720
729.630	0.0157375
729.708	0.0158553
729.786	0.0158111
729.864	0.0157120
729.942	0.0156860
730.021	0.0158265
730.099	0.0160088
730.177	0.0160524
730.255	0.0159323
730.333	0.0160168
730.411	0.0160806
730.489	0.0160674
730.567	0.0162374
730.646	0.0162189
730.724	0.0162886
730.802	0.0163671
730.880	0.0164881
730.958	0.0164405
731.036	0.0165137
731.114	0.0165414
731.192	0.0166298
731.271	0.0165660
731.349	0.0166090
731.427	0.0166245
731.505	0.0165369
731.583	0.0166407
731.661	0.0168163
731.739	0.0166530
731.817	0.0166238
731.896	0.0167334
731.974	0.0165522
732.052	0.0165704
732.130	0.0166266
732.208	0.0166250
732.286	0.0165637
732.364	0.0166394
732.442	0.0166487
732.521	0.0166407
732.599	0.0168131
732.677	0.0166228
732.755	0.0165899
732.833	0.0166098
732.911	0.0165944
732.989	0.0165852
733.067	0.0165753
733.146	0.0166142
733.224	0.0165324
733.302	0.0165288
733.380	0.0164902
733.458	0.0166052
733.536	0.0165130
733.614	0.0165572
733.692	0.0166335
733.771	0.0165097
733.849	0.0166531
733.927	0.0165436
734.005	0.0166000
734.083	0.0164682
734.161	0.0165762
734.239	0.0166281
734.317	0.0164810
734.396	0.0164754
734.474	0.0165430
734.552	0.0166357
734.630	0.0165087
734.708	0.0164149
734.786	0.0165939
734.864	0.0165945
734.942	0.0166430
735.021	0.0164970
735.099	0.0165851
735.177	0.0165932
735.255	0.0166898
735.333	0.0166824
735.411	0.0166876
735.489	0.0168810
735.567	0.0165768
735.646	0.0165385
735.724	0.0167430
735.802	0.0166795
735.880	0.0165707
735.958	0.0166208
736.036	0.0167837
736.114	0.0168317
736.192	0.0166795
736.271	0.0167461
736.349	0.0168344
736.427	0.0167264
736.505	0.0165451
736.583	0.0165849
736.661	0.0166181
736.739	0.0165182
736.817	0.0164690
736.896	0.0163695
736.974	0.0163160
737.052	0.0162612
737.130	0.0163166
737.208	0.0161624
737.286	0.0161835
737.364	0.0163386
737.442	0.0161148
737.521	0.0159485
737.599	0.0160353
737.677	0.0160430
737.755	0.0159848
737.833	0.0158540
737.911	0.0159209
737.989	0.0159486
738.067	0.0158195
738.146	0.0159386
738.224	0.0159090
738.302	0.0158234
738.380	0.0157715
738.458	0.0157912
738.536	0.0158057
738.614	0.0159117
738.692	0.0158266
738.771	0.0157441
738.849	0.0156791
738.927	0.0158500
739.005	0.0156171
739.083	0.0157123
739.161	0.0157142
739.239	0.0157769
739.317	0.0157162
739.396	0.0156893
739.474	0.0157021
739.552	0.0157823
739.630	0.0157235
739.708	0.0157576
739.786	0.0157288
739.864	0.0158360
739.942	0.0158414
740.021	0.0158671
740.099	0.0158423
740.177	0.0159026
740.255	0.0160452
740.333	0.0160310
740.411	0.0161446
740.489	0.0160658
740.567	0.0161483
740.646	0.0161411
740.724	0.0161180
740.802	0.0162654
740.880	0.0163101
740.958	0.0163915
741.036	0.0163967
741.114	0.0163553
741.192	0.0164853
741.271	0.0164879
741.349	0.0164971
741.427	0.0166049
741.505	0.0166810
741.583	0.0167239
741.661	0.0167344
741.739	0.0167701
741.817	0.0168687
741.896	0.0168655
741.974	0.0168842
742.052	0.0168316
742.130	0.0169694
742.208	0.0169682
742.286	0.0168132
742.364	0.0168552
742.442	0.0167288
742.521	0.0168935
742.599	0.0168536
742.677	0.0167837
742.755	0.0168604
742.833	0.0167422
742.911	0.0166439
742.989	0.0166882
743.067	0.0167055
743.146	0.0166609
743.224	0.0166947
743.302	0.0165562
743.380	0.0165827
743.458	0.0165711
743.536	0.0166364
743.614	0.0164977
743.692	0.0166042
743.771	0.0165181
743.849	0.0165801
743.927	0.0164962
744.005	0.0164873
744.083	0.0166234
744.161	0.0164514
744.239	0.0164528
744.317	0.0164165
744.396	0.0163985
744.474	0.0163288
744.552	0.0163971
744.630	0.0165194
744.708	0.0161997
744.786	0.0163918
744.864	0.0163323
744.942	0.0162907
745.021	0.0162842
745.099	0.0161894
745.177	0.0162595
745.255	0.0162267
745.333	0.0162318
745.411	0.0161792
745.489	0.0162807
745.567	0.0161565
745.646	0.0160271
745.724	0.0160902
745.802	0.0160618
745.880	0.0160314
745.958	0.0161223
746.036	0.0160122
746.114	0.0158688
746.192	0.0159791
746.271	0.0160198
746.349	0.0160291
746.427	0.0160838
746.505	0.0159466
746.583	0.0158614
746.661	0.0159209
746.739	0.0158960
746.817	0.0159901
746.896	0.0159800
746.974	0.0158201
747.052	0.0159217
747.130	0.0159905
747.208	0.0159464
747.286	0.0159057
747.364	0.0158965
747.442	0.0158746
747.521	0.0159217
747.599	0.0157944
747.677	0.0158933
747.755	0.0157897
747.833	0.0157382
747.911	0.0158490
747.989	0.0159604
748.067	0.0157806
748.146	0.0157841
748.224	0.0157159
748.302	0.0157447
748.380	0.0158308
748.458	0.0158311
748.536	0.0157122
748.614	0.0157494
748.692	0.0157756
748.771	0.0158588
748.849	0.0160309
748.927	0.0159394
749.005	0.0159465
749.083	0.0159127
749.161	0.0160230
749.239	0.0159960
749.317	0.0160091
749.396	0.0160722
749.474	0.0161345
749.552	0.0160685
749.630	0.0161604
749.708	0.0160910
749.786	0.0160931
749.864	0.0160513
749.942	0.0160769
750.021	0.0160737
750.099	0.0161752
750.177	0.0161975
750.255	0.0162142
750.333	0.0161141
750.411	0.0160804
750.489	0.0161664
750.567	0.0162155
750.646	0.0161860
750.724	0.0161864
750.802	0.0160938
750.880	0.0162650
750.958	0.0162909
751.036	0.0163116
751.114	0.0160392
751.192	0.0161087
751.271	0.0161606
751.349	0.0161502
751.427	0.0160801
751.505	0.0160735
751.583	0.0160909
751.661	0.0160577
751.739	0.0161065
751.817	0.0160655
751.896	0.0159381
751.974	0.0159551
752.052	0.0158807
752.130	0.0161182
752.208	0.0160574
752.286	0.0158314
752.364	0.0158939
752.442	0.0159464
752.521	0.0158984
752.599	0.0158313
752.677	0.0157897
752.755	0.0158431
752.833	0.0158045
752.911	0.0158992
752.989	0.0159710
753.067	0.0159077
753.146	0.0157719
753.224	0.0158375
753.302	0.0160273
753.380	0.0158539
753.458	0.0158877
753.536	0.0159273
753.614	0.0159824
753.692	0.0160268
753.771	0.0159836
753.849	0.0160043
753.927	0.0160573
754.005	0.0159392
754.083	0.0160089
754.161	0.0159274
754.239	0.0161466
754.317	0.0160262
754.396	0.0159949
754.474	0.0162611
754.552	0.0160416
754.630	0.0162128
754.708	0.0162322
754.786	0.0161059
754.864	0.0161617
754.942	0.0161310
755.021	0.0161887
755.099	0.0160954
755.177	0.0161687
755.255	0.0162248
755.333	0.0163320
755.411	0.0162827
755.489	0.0164911
755.567	0.0164355
755.646	0.0162981
755.724	0.0163988
755.802	0.0165320
755.880	0.0165871
755.958	0.0165571
756.036	0.0164555
756.114	0.0166153
756.192	0.0166819
756.271	0.0166509
756.349	0.0166480
756.427	0.0167979
756.505	0.0166456
756.583	0.0166837
756.661	0.0167599
756.739	0.0167497
756.817	0.0168246
756.896	0.0168504
756.974	0.0167765
757.052	0.0167094
757.130	0.0167670
757.208	0.0167862
757.286	0.0167447
757.364	0.0167707
757.442	0.0166689
757.521	0.0166833
757.599	0.0166945
757.677	0.0165323
757.755	0.0165214
757.833	0.0164146
757.911	0.0164133
757.989	0.0164608
758.067	0.0162624
758.146	0.0162615
758.224	0.0162478
758.302	0.0159841
758.380	0.0161849
758.458	0.0162029
758.536	0.0162339
758.614	0.0160976
758.692	0.0159564
758.771	0.0161328
758.849	0.0159235
758.927	0.0159789
759.005	0.0159412
759.083	0.0158190
759.161	0.0159299
759.239	0.0159492
759.317	0.0159922
759.396	0.0158920
759.474	0.0158662
759.552	0.0157759
759.630	0.0158279
759.708	0.0157158
759.786	0.0157704
759.864	0.0157627
759.942	0.0158099
760.021	0.0156833
760.099	0.0156697
760.177	0.0156863
760.255	0.0158203
760.333	0.0156533
760.411	0.0157791
760.489	0.0155895
760.567	0.0155943
760.646	0.0155441
760.724	0.0155770
760.802	0.0156751
760.880	0.0156641
760.958	0.0155257
761.036	0.0154977
761.114	0.0156408
761.192	0.0156407
761.271	0.0156097
761.349	0.0155341
761.427	0.0156302
761.505	0.0156868
761.583	0.0157227
761.661	0.0156332
761.739	0.0157108
761.817	0.0157158
761.896	0.0158314
761.974	0.0158031
762.052	0.0159325
762.130	0.0158826
762.208	0.0159624
762.286	0.0159751
762.364	0.0159541
762.442	0.0160249
762.521	0.0161332
762.599	0.0161497
762.677	0.0161506
762.755	0.0162418
762.833	0.0162807
762.911	0.0163316
762.989	0.0163015
763.067	0.0163559
763.146	0.0164356
763.224	0.0163041
763.302	0.0162933
763.380	0.0164304
763.458	0.0165652
763.536	0.0166351
763.614	0.0165794
763.692	0.0165522
763.771	0.0166766
763.849	0.0165888
763.927	0.0165061
764.005	0.0164458
764.083	0.0165466
764.161	0.0164915
764.239	0.0164976
764.317	0.0164725
764.396	0.0164591
764.474	0.0163814
764.552	0.0164418
764.630	0.0163985
764.708	0.0163789
764.786	0.0164804
764.864	0.0164506
764.942	0.0165070
765.021	0.0164671
765.099	0.0164082
765.177	0.0164220
765.255	0.0164027
765.333	0.0164812
765.411	0.0166462
765.489	0.0164314
765.567	0.0164874
765.646	0.0165752
765.724	0.0164819
765.802	0.0163314
765.880	0.0163092
765.958	0.0162592
766.036	0.0163789
766.114	0.0162874
766.192	0.0162299
766.271	0.0161579
766.349	0.0160622
766.427	0.0160822
766.505	0.0160289
766.583	0.0161265
766.661	0.0160681
766.739	0.0161051
766.817	0.0159533
766.896	0.0158245
766.974	0.0158445
767.052	0.0158855
767.130	0.0158368
767.208	0.0158005
767.286	0.0158392
767.364	0.0158212
767.442	0.0157471
767.521	0.0157362
767.599	0.0157076
767.677	0.0158035
767.755	0.0157204
767.833	0.0156530
767.911	0.0157043
767.989	0.0156360
768.067	0.0157008
768.146	0.0156838
768.224	0.0156373
768.302	0.0156564
768.380	0.0156340
768.458	0.0156204
768.536	0.0156960
768.614	0.0155764
768.692	0.0155599
768.771	0.0156020
768.849	0.0154120
768.927	0.0155806
769.005	0.0155087
769.083	0.0155939
769.161	0.0156789
769.239	0.0155579
769.317	0.0155339
769.396	0.0155926
769.474	0.0156911
769.552	0.0155521
769.630	0.0156909
769.708	0.0157797
769.786	0.0157827
769.864	0.0158939
769.942	0.0158145
770.021	0.0159422
770.099	0.0159003
770.177	0.0159076
770.255	0.0158537
770.333	0.0160381
770.411	0.0161029
770.489	0.0159968
770.567	0.0160039
770.646	0.0161650
770.724	0.0159797
770.802	0.0160454
770.880	0.0158697
770.958	0.0160039
771.036	0.0160271
771.114	0.0160677
771.192	0.0159304
771.271	0.0160580
771.349	0.0161694
771.427	0.0161240
771.505	0.0160790
771.583	0.0159836
771.661	0.0161744
771.739	0.0161027
771.817	0.0161591
771.896	0.0160718
771.974	0.0162003
772.052	0.0160183
772.130	0.0161148
772.208	0.0162367
772.286	0.0162442
772.364	0.0162360
772.442	0.0162843
772.521	0.0161681
772.599	0.0161330
772.677	0.0164119
772.755	0.0163200
772.833	0.0164705
772.911	0.0164848
772.989	0.0163302
773.067	0.0163599
773.146	0.0162910
773.224	0.0164145
773.302	0.0165847
773.380	0.0164911
773.458	0.0164672
773.536	0.0165293
773.614	0.0164393
773.692	0.0165047
773.771	0.0164219
773.849	0.0165903
773.927	0.0166418
774.005	0.0166507
774.083	0.0165931
774.161	0.0165852
774.239	0.0165228
774.317	0.0165229
774.396	0.0165915
774.474	0.0165513
774.552	0.0166563
774.630	0.0164460
774.708	0.0165548
774.786	0.0164166
774.864	0.0165202
774.942	0.0164125
775.021	0.0163938
775.099	0.0164883
775.177	0.0164725
775.255	0.0164650
775.333	0.0164773
775.411	0.0165247
775.489	0.0164101
775.567	0.0163883
775.646	0.0164223
775.724	0.0162876
775.802	0.0163580
775.880	0.0163952
775.958	0.0162749
776.036	0.0163554
776.114	0.0164799
776.192	0.0164326
776.271	0.0164061
776.349	0.0164712
776.427	0.0162833
776.505	0.0163443
776.583	0.0163728
776.661	0.0164614
776.739	0.0162755
776.817	0.0163503
776.896	0.0163793
776.974	0.0161737
777.052	0.0163020
777.130	0.0162887
777.208	0.0161893
777.286	0.0161946
777.364	0.0161429
777.442	0.0162511
777.521	0.0162671
777.599	0.0162788
777.677	0.0163233
777.755	0.0162527
777.833	0.0161855
777.911	0.0163904
777.989	0.0163879
778.067	0.0161035
778.146	0.0162381
778.224	0.0163037
778.302	0.0163673
778.380	0.0162597
778.458	0.0162959
778.536	0.0162209
778.614	0.0163293
778.692	0.0163439
778.771	0.0163389
778.849	0.0163705
778.927	0.0162350
779.005	0.0162876
779.083	0.0162352
779.161	0.0162582
779.239	0.0163276
779.317	0.0163719
779.396	0.0163454
779.474	0.0164231
779.552	0.0163141
779.630	0.0162967
779.708	0.0162820
779.786	0.0163108
779.864	0.0164214
779.942	0.0164403
780.021	0.0164498
780.099	0.0164395
780.177	0.0165269
780.255	0.0164314
780.333	0.0164497
780.411	0.0164231
780.489	0.0164726
780.567	0.0164429
780.646	0.0166166
780.724	0.0166888
780.802	0.0166507
780.880	0.0165080
780.958	0.0165819
781.036	0.0165109
781.114	0.0165292
781.192	0.0165699
781.271	0.0166374
781.349	0.0164497
781.427	0.0163384
781.505	0.0164458
781.583	0.0163678
781.661	0.0164455
781.739	0.0163535
781.817	0.0162150
781.896	0.0164572
781.974	0.0162681
782.052	0.0162237
782.130	0.0162023
782.208	0.0161358
782.286	0.0162056
782.364	0.0161831
782.442	0.0161144
782.521	0.0161172
782.599	0.0160556
782.677	0.0162337
782.755	0.0160983
782.833	0.0160497
782.911	0.0161932
782.989	0.0161683
783.067	0.0160844
783.146	0.0160738
783.224	0.0162669
783.302	0.0162261
783.380	0.0161902
783.458	0.0161030
783.536	0.0161855
783.614	0.0161253
783.692	0.0160401
783.771	0.0161158
783.849	0.0161402
783.927	0.0158942
784.005	0.0159695
784.083	0.0161000
784.161	0.0160654
784.239	0.0159512
784.317	0.0159276
784.396	0.0160468
784.474	0.0159746
784.552	0.0158846
784.630	0.0160814
784.708	0.0159246
784.786	0.0158310
784.864	0.0159414
784.942	0.0160461
785.021	0.0159564
785.099	0.0158677
785.177	0.0159005
785.255	0.0159615
785.333	0.0159536
785.411	0.0160017
785.489	0.0158948
785.567	0.0159290
785.646	0.0159682
785.724	0.0160184
785.802	0.0159638
785.880	0.0158086
785.958	0.0159730
786.036	0.0159260
786.114	0.0158859
786.192	0.0159045
786.271	0.0158347
786.349	0.0159682
786.427	0.0158792
786.505	0.0159055
786.583	0.0159923
786.661	0.0158260
786.739	0.0158941
786.817	0.0158387
786.896	0.0159642
786.974	0.0159648
787.052	0.0160799
787.130	0.0158742
787.208	0.0159635
787.286	0.0160637
787.364	0.0159038
787.442	0.0159863
787.521	0.0160450
787.599	0.0160174
787.677	0.0159312
787.755	0.0159798
787.833	0.0160639
787.911	0.0160915
787.989	0.0159801
788.067	0.0159649
788.146	0.0158510
788.224	0.0159786
788.302	0.0159152
788.380	0.0160815
788.458	0.0159750
788.536	0.0160526
788.614	0.0160772
788.692	0.0159147
788.771	0.0160381
788.849	0.0159974
788.927	0.0159563
789.005	0.0159590
789.083	0.0159652
789.161	0.0160255
789.239	0.0161132
789.317	0.0161015
789.396	0.0161166
789.474	0.0159570
789.552	0.0160640
789.630	0.0160283
789.708	0.0160812
789.786	0.0159566
789.864	0.0161796
789.942	0.0160890
790.021	0.0162451
790.099	0.0161452
790.177	0.0162043
790.255	0.0163224
790.333	0.0162090
790.411	0.0162749
790.489	0.0163340
790.567	0.0163750
790.646	0.0162666
790.724	0.0162514
790.802	0.0163476
790.880	0.0162880
790.958	0.0163000
791.036	0.0164020
791.114	0.0163883
791.192	0.0163348
791.271	0.0161946
791.349	0.0163416
791.427	0.0162916
791.505	0.0163193
791.583	0.0163074
791.661	0.0161418
791.739	0.0162205
791.817	0.0162828
791.896	0.0162221
791.974	0.0160422
792.052	0.0160571
792.130	0.0160518
792.208	0.0162388
792.286	0.0161048
792.364	0.0161211
792.442	0.0160369
792.521	0.0160114
792.599	0.0160467
792.677	0.0159373
792.755	0.0159834
792.833	0.0160131
792.911	0.0160294
792.989	0.0160738
793.067	0.0159430
793.146	0.0160715
793.224	0.0161095
793.302	0.0160547
793.380	0.0159815
793.458	0.0160989
793.536	0.0160987
793.614	0.0159879
793.692	0.0160549
793.771	0.0161172
793.849	0.0162219
793.927	0.0162030
794.005	0.0161463
794.083	0.0161800
794.161	0.0161027
794.239	0.0160335
794.317	0.0161429
794.396	0.0160866
794.474	0.0161819
794.552	0.0162159
794.630	0.0163068
794.708	0.0162041
794.786	0.0161910
794.864	0.0161765
794.942	0.0162369
795.021	0.0161280
795.099	0.0162717
795.177	0.0161301
795.255	0.0162207
795.333	0.0161333
795.411	0.0161678
795.489	0.0161105
795.567	0.0160832
795.646	0.0161224
795.724	0.0160479
795.802	0.0160958
795.880	0.0160788
795.958	0.0161615
796.036	0.0161208
796.114	0.0160892
796.192	0.0160983
796.271	0.0162063
796.349	0.0160291
796.427	0.0159680
796.505	0.0161559
796.583	0.0161499
796.661	0.0161719
796.739	0.0161271
796.817	0.0162304
796.896	0.0162138
796.974	0.0161981
797.052	0.0161028
797.130	0.0163317
797.208	0.0163905
797.286	0.0164465
797.364	0.0163754
797.442	0.0162906
797.521	0.0163740
797.599	0.0164398
797.677	0.0163345
797.755	0.0164606
797.833	0.0163731
797.911	0.0163335
797.989	0.0165170
798.067	0.0164656
798.146	0.0164155
798.224	0.0166051
798.302	0.0165088
798.380	0.0164993
798.458	0.0166146
798.536	0.0165672
798.614	0.0165179
798.692	0.0166297
798.771	0.0163410
798.849	0.0164936
798.927	0.0166405
799.005	0.0164804
799.083	0.0164441
799.161	0.0166013
799.239	0.0165569
799.317	0.0165645
799.396	0.0165496
799.474	0.0165455
799.552	0.0166399
799.630	0.0167392
799.708	0.0167256
799.786	0.0167121
799.864	0.0166210
799.942	0.0167304
800.021	0.0167898
800.099	0.0168951
800.177	0.0167924
800.255	0.0166531
800.333	0.0166153
800.411	0.0167206
800.489	0.0168085
800.567	0.0167236
800.646	0.0167430
800.724	0.0167464
800.802	0.0167265
800.880	0.0167097
800.958	0.0166907
801.036	0.0166638
801.114	0.0167575
801.192	0.0167886
801.271	0.0165450
801.349	0.0166740
801.427	0.0166580
801.505	0.0165909
801.583	0.0164069
801.661	0.0165573
801.739	0.0164994
801.817	0.0164658
801.896	0.0165022
801.974	0.0165604
802.052	0.0165907
802.130	0.0165074
802.208	0.0164057
802.286	0.0163418
802.364	0.0164087
802.442	0.0163823
802.521	0.0163912
802.599	0.0163072
802.677	0.0163347
802.755	0.0163029
802.833	0.0161696
802.911	0.0162236
802.989	0.0162157
803.067	0.0161710
803.146	0.0161772
803.224	0.0161230
803.302	0.0161532
803.380	0.0162175
803.458	0.0163347
803.536	0.0161328
803.614	0.0162702
803.692	0.0163659
803.771	0.0163568
803.849	0.0164093
803.927	0.0163125
804.005	0.0163595
804.083	0.0164417
804.161	0.0164841
804.239	0.0163258
804.317	0.0163651
804.396	0.0162327
804.474	0.0164698
804.552	0.0164459
804.630	0.0163792
804.708	0.0164220
804.786	0.0162850
804.864	0.0165295
804.942	0.0164161
805.021	0.0164480
805.099	0.0163007
805.177	0.0163531
805.255	0.0161807
805.333	0.0163845
805.411	0.0165177
805.489	0.0163578
805.567	0.0163940
805.646	0.0163988
805.724	0.0164674
805.802	0.0164874
805.880	0.0163677
805.958	0.0162914
806.036	0.0164718
806.114	0.0164729
806.192	0.0163988
806.271	0.0164693
806.349	0.0165137
806.427	0.0164585
806.505	0.0164162
806.583	0.0163004
806.661	0.0164780
806.739	0.0163766
806.817	0.0163274
806.896	0.0163259
806.974	0.0165826
807.052	0.0162833
807.130	0.0163254
807.208	0.0165014
807.286	0.0164463
807.364	0.0163821
807.442	0.0164094
807.521	0.0163347
807.599	0.0164440
807.677	0.0163060
807.755	0.0163480
807.833	0.0164368
807.911	0.0162728
807.989	0.0163570
808.067	0.0164305
808.146	0.0163432
808.224	0.0163530
808.302	0.0163001
808.380	0.0161191
808.458	0.0163250
808.536	0.0163229
808.614	0.0160606
808.692	0.0162708
808.771	0.0164154
808.849	0.0162646
808.927	0.0162783
809.005	0.0162617
809.083	0.0162404
809.161	0.0162368
809.239	0.0161532
809.317	0.0161717
809.396	0.0161603
809.474	0.0160885
809.552	0.0159322
809.630	0.0160916
809.708	0.0159750
809.786	0.0158970
809.864	0.0159110
809.942	0.0158386
810.021	0.0157184
810.099	0.0157550
810.177	0.0155605
810.255	0.0156541
810.333	0.0157349
810.411	0.0158088
810.489	0.0155109
810.567	0.0156272
810.646	0.0156647
810.724	0.0154983
810.802	0.0154269
810.880	0.0154314
810.958	0.0154698
811.036	0.0155309
811.114	0.0156832
811.192	0.0154974
811.271	0.0154253
811.349	0.0153853
811.427	0.0155316
811.505	0.0155103
811.583	0.0155523
811.661	0.0155838
811.739	0.0155012
811.817	0.0155946
811.896	0.0154937
811.974	0.0156269
812.052	0.0155273
812.130	0.0155354
812.208	0.0156367
812.286	0.0157108
812.364	0.0158267
812.442	0.0156919
812.521	0.0156837
812.599	0.0157113
812.677	0.0158039
812.755	0.0159008
812.833	0.0157269
812.911	0.0157994
812.989	0.0158638
813.067	0.0158025
813.146	0.0158500
813.224	0.0159083
813.302	0.0160024
813.380	0.0159339
813.458	0.0160133
813.536	0.0160937
813.614	0.0159649
813.692	0.0161299
813.771	0.0161582
813.849	0.0161813
813.927	0.0162005
814.005	0.0161523
814.083	0.0162325
814.161	0.0164443
814.239	0.0164198
814.317	0.0163027
814.396	0.0163053
814.474	0.0164626
814.552	0.0165112
814.630	0.0164825
814.708	0.0167142
814.786	0.0165068
814.864	0.0165791
814.942	0.0167495
815.021	0.0167168
815.099	0.0167197
815.177	0.0167854
815.255	0.0167389
815.333	0.0168814
815.411	0.0168916
815.489	0.0169876
815.567	0.0169379
815.646	0.0169208
815.724	0.0168581
815.802	0.0169521
815.880	0.0168365
815.958	0.0168908
816.036	0.0169404
816.114	0.0170012
816.192	0.0167713
816.271	0.0168741
816.349	0.0168790
816.427	0.0169053
816.505	0.0168542
816.583	0.0167319
816.661	0.0167606
816.739	0.0167644
816.817	0.0168053
816.896	0.0166610
816.974	0.0165713
817.052	0.0166460
817.130	0.0166711
817.208	0.0165364
817.286	0.0165115
817.364	0.0163892
817.442	0.0165419
817.521	0.0163954
817.599	0.0164445
817.677	0.0162716
817.755	0.0161003
817.833	0.0162167
817.911	0.0160964
817.989	0.0161490
818.067	0.0160587
818.146	0.0161156
818.224	0.0159503
818.302	0.0158861
818.380	0.0159798
818.458	0.0159558
818.536	0.0157816
818.614	0.0156812
818.692	0.0158027
818.771	0.0157180
818.849	0.0157291
818.927	0.0156883
819.005	0.0155701
819.083	0.0154185
819.161	0.0154751
819.239	0.0155090
819.317	0.0154254
819.396	0.0154993
819.474	0.0153659
819.552	0.0152006
819.630	0.0154017
819.708	0.0151841
819.786	0.0152645
819.864	0.0153202
819.942	0.0150840
820.021	0.0150536
820.099	0.0150481
820.177	0.0151666
820.255	0.0152113
820.333	0.0151639
820.411	0.0151895
820.489	0.0151703
820.567	0.0152990
820.646	0.0152329
820.724	0.0153110
820.802	0.0154736
820.880	0.0155703
820.958	0.0156326
821.036	0.0156625
821.114	0.0156310
821.192	0.0158035
821.271	0.0157566
821.349	0.0158942
821.427	0.0159443
821.505	0.0161193
821.583	0.0163082
821.661	0.0161848
821.739	0.0163506
821.817	0.0162778
821.896	0.0162318
821.974	0.0165002
822.052	0.0165807
822.130	0.0166548
822.208	0.0166167
822.286	0.0166804
822.364	0.0167184
822.442	0.0168119
822.521	0.0168034
822.599	0.0168496
822.677	0.0169427
822.755	0.0169385
822.833	0.0168970
822.911	0.0170518
822.989	0.0170106
823.067	0.0170379
823.146	0.0171252
823.224	0.0171833
823.302	0.0172216
823.380	0.0171415
823.458	0.0171104
823.536	0.0172651
823.614	0.0173270
823.692	0.0172639
823.771	0.0173170
823.849	0.0173405
823.927	0.0172513
824.005	0.0171135
824.083	0.0173140
824.161	0.0173217
824.239	0.0172603
824.317	0.0172694
824.396	0.0172495
824.474	0.0172192
824.552	0.0172698
824.630	0.0171060
824.708	0.0170235
824.786	0.0169889
824.864	0.0171564
824.942	0.0169102
825.021	0.0169859
825.099	0.0168578
825.177	0.0169252
825.255	0.0167530
825.333	0.0167482
825.411	0.0166591
825.489	0.0166539
825.567	0.0166013
825.646	0.0165769
825.724	0.0165533
825.802	0.0164661
825.880	0.0164882
825.958	0.0163453
826.036	0.0163392
826.114	0.0163987
826.192	0.0162538
826.271	0.0162803
826.349	0.0163234
826.427	0.0161410
826.505	0.0161878
826.583	0.0162099
826.661	0.0161639
826.739	0.0162396
826.817	0.0161602
826.896	0.0161702
826.974	0.0160931
827.052	0.0161103
827.130	0.0161964
827.208	0.0161598
827.286	0.0162000
827.364	0.0159646
827.442	0.0161720
827.521	0.0161878
827.599	0.0160497
827.677	0.0160620
827.755	0.0161918
827.833	0.0162973
827.911	0.0161507
827.989	0.0160616
828.067	0.0162916
828.146	0.0161797
828.224	0.0161159
828.302	0.0163063
828.380	0.0162433
828.458	0.0162258
828.536	0.0162643
828.614	0.0162840
828.692	0.0161687
828.771	0.0161744
828.849	0.0161781
828.927	0.0162950
829.005	0.0163988
829.083	0.0163278
829.161	0.0162028
829.239	0.0160887
829.317	0.0162587
829.396	0.0163094
829.474	0.0161747
829.552	0.0161028
829.630	0.0161463
829.708	0.0161568
829.786	0.0159512
829.864	0.0161511
829.942	0.0161809
830.021	0.0160752
830.099	0.0160175
830.177	0.0160250
830.255	0.0159612
830.333	0.0160764
830.411	0.0162013
830.489	0.0160212
830.567	0.0161426
830.646	0.0161600
830.724	0.0161844
830.802	0.0160770
830.880	0.0160546
830.958	0.0161126
831.036	0.0161504
831.114	0.0161739
831.192	0.0162680
831.271	0.0161512
831.349	0.0161677
831.427	0.0162235
831.505	0.0161243
831.583	0.0161105
831.661	0.0162963
831.739	0.0162224
831.817	0.0162608
831.896	0.0162820
831.974	0.0161662
832.052	0.0163078
832.130	0.0163316
832.208	0.0163150
832.286	0.0163585
832.364	0.0162664
832.442	0.0162573
832.521	0.0161869
832.599	0.0161620
832.677	0.0161958
832.755	0.0161102
832.833	0.0159592
832.911	0.0161402
832.989	0.0160928
833.067	0.0160610
833.146	0.0161551
833.224	0.0160326
833.302	0.0158834
833.380	0.0159624
833.458	0.0159587
833.536	0.0159707
833.614	0.0160757
833.692	0.0159341
833.771	0.0158643
833.849	0.0159795
833.927	0.0159090
834.005	0.0159531
834.083	0.0160122
834.161	0.0159296
834.239	0.0160004
834.317	0.0160328
834.396	0.0160838
834.474	0.0159938
834.552	0.0160466
834.630	0.0162309
834.708	0.0160910
834.786	0.0160720
834.864	0.0161374
834.942	0.0160734
835.021	0.0159404
835.099	0.0160729
835.177	0.0160540
835.255	0.0160970
835.333	0.0160669
835.411	0.0161854
835.489	0.0161372
835.567	0.0159576
835.646	0.0161478
835.724	0.0162202
835.802	0.0161326
835.880	0.0160918
835.958	0.0160767
836.036	0.0160584
836.114	0.0161034
836.192	0.0162214
836.271	0.0163269
836.349	0.0162089
836.427	0.0163321
836.505	0.0163172
836.583	0.0163402
836.661	0.0163893
836.739	0.0163968
836.817	0.0162355
836.896	0.0163757
836.974	0.0163344
837.052	0.0163083
837.130	0.0163612
837.208	0.0163849
837.286	0.0163746
837.364	0.0161945
837.442	0.0162753
837.521	0.0162197
837.599	0.0162175
837.677	0.0161536
837.755	0.0161943
837.833	0.0161961
837.911	0.0162863
837.989	0.0160318
838.067	0.0161813
838.146	0.0161275
838.224	0.0161420
838.302	0.0162468
838.380	0.0161794
838.458	0.0160571
838.536	0.0161930
838.614	0.0161895
838.692	0.0161053
838.771	0.0161137
838.849	0.0159926
838.927	0.0162203
839.005	0.0161789
839.083	0.0161182
839.161	0.0160927
839.239	0.0160608
839.317	0.0161283
839.396	0.0160754
839.474	0.0161230
839.552	0.0160895
839.630	0.0162069
839.708	0.0161861
839.786	0.0162782
839.864	0.0163477
839.942	0.0161905
840.021	0.0162947
840.099	0.0164028
840.177	0.0164324
840.255	0.0163927
840.333	0.0164373
840.411	0.0163277
840.489	0.0163364
840.567	0.0163793
840.646	0.0163959
840.724	0.0164337
840.802	0.0163398
840.880	0.0164729
840.958	0.0164185
841.036	0.0163333
841.114	0.0163740
841.192	0.0164732
841.271	0.0162865
841.349	0.0163906
841.427	0.0162822
841.505	0.0163529
841.583	0.0162923
841.661	0.0161858
841.739	0.0162223
841.817	0.0158964
841.896	0.0159163
841.974	0.0158884
842.052	0.0158977
842.130	0.0157602
842.208	0.0157324
842.286	0.0157500
842.364	0.0158128
842.442	0.0158315
842.521	0.0156305
842.599	0.0158468
842.677	0.0157908
842.755	0.0157349
842.833	0.0159157
842.911	0.0158802
842.989	0.0159597
843.067	0.0158335
843.146	0.0159724
843.224	0.0159737
843.302	0.0158902
843.380	0.0160474
843.458	0.0161237
843.536	0.0159998
843.614	0.0159876
843.692	0.0160807
843.771	0.0159879
843.849	0.0159975
843.927	0.0159740
844.005	0.0159531
844.083	0.0159691
844.161	0.0160303
844.239	0.0160273
844.317	0.0160982
844.396	0.0161267
844.474	0.0161403
844.552	0.0161290
844.630	0.0161440
844.708	0.0161323
844.786	0.0160216
844.864	0.0160641
844.942	0.0160818
845.021	0.0161624
845.099	0.0161604
845.177	0.0162169
845.255	0.0161872
845.333	0.0160612
845.411	0.0161707
845.489	0.0163194
845.567	0.0162861
845.646	0.0160501
845.724	0.0161837
845.802	0.0161423
845.880	0.0162119
845.958	0.0162461
846.036	0.0161615
846.114	0.0161364
846.192	0.0162283
846.271	0.0160976
846.349	0.0161169
846.427	0.0161032
846.505	0.0162482
846.583	0.0162318
846.661	0.0161292
846.739	0.0161629
846.817	0.0162058
846.896	0.0161703
846.974	0.0163131
847.052	0.0163071
847.130	0.0164227
847.208	0.0164199
847.286	0.0164219
847.364	0.0164201
847.442	0.0165845
847.521	0.0165602
847.599	0.0165115
847.677	0.0165888
847.755	0.0166768
847.833	0.0164674
847.911	0.0165433
847.989	0.0166085
848.067	0.0168023
848.146	0.0166155
848.224	0.0166948
848.302	0.0167384
848.380	0.0167258
848.458	0.0167130
848.536	0.0165711
848.614	0.0166846
848.692	0.0165743
848.771	0.0166634
848.849	0.0165708
848.927	0.0165929
849.005	0.0166160
849.083	0.0166797
849.161	0.0165699
849.239	0.0165671
849.317	0.0165581
849.396	0.0165185
849.474	0.0164907
849.552	0.0165419
849.630	0.0164833
849.708	0.0165121
849.786	0.0164501
849.864	0.0165804
849.942	0.0165647
850.021	0.0164502
850.099	0.0164207
850.177	0.0164811
850.255	0.0164017
850.333	0.0164513
850.411	0.0162895
850.489	0.0162627
850.567	0.0163633
850.646	0.0162946
850.724	0.0163077
850.802	0.0163402
850.880	0.0163051
850.958	0.0161783
851.036	0.0161150
851.114	0.0161541
851.192	0.0161211
851.271	0.0161334
851.349	0.0160142
851.427	0.0160148
851.505	0.0161739
851.583	0.0161391
851.661	0.0161594
851.739	0.0161924
851.817	0.0159891
851.896	0.0160765
851.974	0.0160114
852.052	0.0159904
852.130	0.0158614
852.208	0.0160969
852.286	0.0160831
852.364	0.0160565
852.442	0.0161375
852.521	0.0161560
852.599	0.0161354
852.677	0.0160640
852.755	0.0160390
852.833	0.0159448
852.911	0.0159184
852.989	0.0159891
853.067	0.0161526
853.146	0.0161113
853.224	0.0160605
853.302	0.0159508
853.380	0.0160003
853.458	0.0159142
853.536	0.0158485
853.614	0.0159881
853.692	0.0160586
853.771	0.0159538
853.849	0.0158060
853.927	0.0158884
854.005	0.0158734
854.083	0.0158129
854.161	0.0158726
854.239	0.0159180
854.317	0.0158498
854.396	0.0159911
854.474	0.0159416
854.552	0.0160713
854.630	0.0159536
854.708	0.0158228
854.786	0.0158883
854.864	0.0159871
854.942	0.0160287
855.021	0.0160962
855.099	0.0159164
855.177	0.0159277
855.255	0.0159113
855.333	0.0160277
855.411	0.0161734
855.489	0.0162345
855.567	0.0161855
855.646	0.0162143
855.724	0.0163929
855.802	0.0163108
855.880	0.0164210
855.958	0.0163642
856.036	0.0166484
856.114	0.0165883
856.192	0.0165103
856.271	0.0166656
856.349	0.0167285
856.427	0.0168085
856.505	0.0168173
856.583	0.0167508
856.661	0.0167060
856.739	0.0169271
856.817	0.0167735
856.896	0.0168040
856.974	0.0167455
857.052	0.0167181
857.130	0.0167494
857.208	0.0168027
857.286	0.0166732
857.364	0.0165346
857.442	0.0164720
857.521	0.0165739
857.599	0.0162423
857.677	0.0163113
857.755	0.0163217
857.833	0.0162255
857.911	0.0160448
857.989	0.0161055
858.067	0.0161680
858.146	0.0159837
858.224	0.0160960
858.302	0.0160595
858.380	0.0157961
858.458	0.0158551
858.536	0.0159417
858.614	0.0159140
858.692	0.0159058
858.771	0.0158106
858.849	0.0157446
858.927	0.0159750
859.005	0.0158595
859.083	0.0158662
859.161	0.0157500
859.239	0.0158701
859.317	0.0158888
859.396	0.0158488
859.474	0.0159153
859.552	0.0159455
859.630	0.0160119
859.708	0.0158884
859.786	0.0159606
859.864	0.0158889
859.942	0.0160201
860.021	0.0160160
860.099	0.0160571
860.177	0.0160306
860.255	0.0159669
860.333	0.0160770
860.411	0.0160944
860.489	0.0160989
860.567	0.0161272
860.646	0.0161193
860.724	0.0161311
860.802	0.0162006
860.880	0.0160854
860.958	0.0161849
861.036	0.0162475
861.114	0.0161741
861.192	0.0161629
861.271	0.0162996
861.349	0.0164870
861.427	0.0163483
861.505	0.0162393
861.583	0.0162968
861.661	0.0163573
861.739	0.0164006
861.817	0.0164253
861.896	0.0164531
861.974	0.0163014
862.052	0.0163180
862.130	0.0162407
862.208	0.0162575
862.286	0.0162086
862.364	0.0162680
862.442	0.0162234
862.521	0.0161455
862.599	0.0162238
862.677	0.0162391
862.755	0.0161754
862.833	0.0161578
862.911	0.0162540
862.989	0.0162172
863.067	0.0160274
863.146	0.0160265
863.224	0.0162912
863.302	0.0161544
863.380	0.0161040
863.458	0.0160893
863.536	0.0161325
863.614	0.0160918
863.692	0.0160117
863.771	0.0161188
863.849	0.0161811
863.927	0.0161262
864.005	0.0160471
864.083	0.0161531
864.161	0.0162217
864.239	0.0161887
864.317	0.0163296
864.396	0.0161504
864.474	0.0162022
864.552	0.0163173
864.630	0.0162991
864.708	0.0162287
864.786	0.0161996
864.864	0.0163509
864.942	0.0163854
865.021	0.0163309
865.099	0.0162884
865.177	0.0164763
865.255	0.0165265
865.333	0.0163769
865.411	0.0166366
865.489	0.0164530
865.567	0.0165753
865.646	0.0164870
865.724	0.0165051
865.802	0.0165547
865.880	0.0165448
865.958	0.0164768
866.036	0.0163371
866.114	0.0164221
866.192	0.0163641
866.271	0.0164760
866.349	0.0163560
866.427	0.0163545
866.505	0.0162572
866.583	0.0162869
866.661	0.0163004
866.739	0.0161620
866.817	0.0160529
866.896	0.0160801
866.974	0.0161234
867.052	0.0159244
867.130	0.0159232
867.208	0.0159287
867.286	0.0159464
867.364	0.0159038
867.442	0.0158666
867.521	0.0159039
867.599	0.0157854
867.677	0.0158720
867.755	0.0156965
867.833	0.0157191
867.911	0.0156540
867.989	0.0156459
868.067	0.0158114
868.146	0.0157574
868.224	0.0156921
868.302	0.0157173
868.380	0.0156562
868.458	0.0157541
868.536	0.0157013
868.614	0.0157298
868.692	0.0157317
868.771	0.0157758
868.849	0.0156684
868.927	0.0157800
869.005	0.0158214
869.083	0.0158604
869.161	0.0157916
869.239	0.0159300
869.317	0.0158834
869.396	0.0159954
869.474	0.0160285
869.552	0.0159682
869.630	0.0160231
869.708	0.0161095
869.786	0.0161939
869.864	0.0161845
869.942	0.0160656
