06/03/2022	14:52:45	Ver.	4.1	UNKNOWN
Optical Delay	550.020508	Delta X		0.078125	Sweeps	1	Scan Rate	0/0
Coordinates	Axis 1	NaN	Axis 2	NaN	Axis 3	NaN	Axis 4	NaN	Axis 5	NaN	Axis 6	0.000000
TX Power	0.000000	RX Power	0.000000

550.021	0.0153788
550.099	0.0157298
550.177	0.0157185
550.255	0.0156724
550.333	0.0157147
550.411	0.0157843
550.489	0.0157744
550.567	0.0156869
550.646	0.0157997
550.724	0.0158407
550.802	0.0159767
550.880	0.0160381
550.958	0.0160075
551.036	0.0160288
551.114	0.0162608
551.192	0.0161599
551.271	0.0163747
551.349	0.0163760
551.427	0.0162071
551.505	0.0163133
551.583	0.0165630
551.661	0.0165503
551.739	0.0164607
551.817	0.0167194
551.896	0.0167760
551.974	0.0167157
552.052	0.0168075
552.130	0.0167264
552.208	0.0168799
552.286	0.0169357
552.364	0.0171624
552.442	0.0173651
552.521	0.0174539
552.599	0.0173200
552.677	0.0174890
552.755	0.0175297
552.833	0.0176438
552.911	0.0177299
552.989	0.0179400
553.067	0.0178890
553.146	0.0178451
553.224	0.0179601
553.302	0.0180852
553.380	0.0181773
553.458	0.0182034
553.536	0.0182008
553.614	0.0182163
553.692	0.0183480
553.771	0.0183002
553.849	0.0183129
553.927	0.0182899
554.005	0.0181525
554.083	0.0182611
554.161	0.0183224
554.239	0.0183620
554.317	0.0181329
554.396	0.0180743
554.474	0.0181419
554.552	0.0180731
554.630	0.0179502
554.708	0.0177557
554.786	0.0178687
554.864	0.0176833
554.942	0.0175703
555.021	0.0174895
555.099	0.0173560
555.177	0.0173533
555.255	0.0173954
555.333	0.0171434
555.411	0.0171019
555.489	0.0168417
555.567	0.0166907
555.646	0.0166943
555.724	0.0165872
555.802	0.0164690
555.880	0.0164944
555.958	0.0162261
556.036	0.0161835
556.114	0.0162236
556.192	0.0161185
556.271	0.0159750
556.349	0.0158859
556.427	0.0158995
556.505	0.0157944
556.583	0.0157343
556.661	0.0157525
556.739	0.0157777
556.817	0.0156026
556.896	0.0154691
556.974	0.0156043
557.052	0.0156834
557.130	0.0156173
557.208	0.0154940
557.286	0.0154972
557.364	0.0154679
557.442	0.0154508
557.521	0.0154800
557.599	0.0155544
557.677	0.0154674
557.755	0.0154668
557.833	0.0155016
557.911	0.0155092
557.989	0.0153992
558.067	0.0155338
558.146	0.0155922
558.224	0.0156492
558.302	0.0156355
558.380	0.0157050
558.458	0.0156904
558.536	0.0156592
558.614	0.0157137
558.692	0.0158318
558.771	0.0157888
558.849	0.0159388
558.927	0.0159814
559.005	0.0159889
559.083	0.0158398
559.161	0.0159865
559.239	0.0159657
559.317	0.0160202
559.396	0.0160658
559.474	0.0159386
559.552	0.0160076
559.630	0.0160388
559.708	0.0160540
559.786	0.0160714
559.864	0.0161509
559.942	0.0161868
560.021	0.0161916
560.099	0.0161480
560.177	0.0161288
560.255	0.0161415
560.333	0.0161811
560.411	0.0163905
560.489	0.0163593
560.567	0.0162941
560.646	0.0162819
560.724	0.0161716
560.802	0.0164538
560.880	0.0164953
560.958	0.0163208
561.036	0.0163700
561.114	0.0163789
561.192	0.0164280
561.271	0.0163119
561.349	0.0164442
561.427	0.0164690
561.505	0.0165118
561.583	0.0166114
561.661	0.0164954
561.739	0.0164550
561.817	0.0167900
561.896	0.0166078
561.974	0.0164347
562.052	0.0165101
562.130	0.0166348
562.208	0.0165988
562.286	0.0165222
562.364	0.0165976
562.442	0.0167081
562.521	0.0166726
562.599	0.0166573
562.677	0.0165221
562.755	0.0164188
562.833	0.0165033
562.911	0.0165585
562.989	0.0164699
563.067	0.0165893
563.146	0.0163879
563.224	0.0163599
563.302	0.0164112
563.380	0.0164066
563.458	0.0164383
563.536	0.0163383
563.614	0.0161829
563.692	0.0162266
563.771	0.0162360
563.849	0.0162981
563.927	0.0161423
564.005	0.0160193
564.083	0.0160633
564.161	0.0159852
564.239	0.0159268
564.317	0.0160732
564.396	0.0159296
564.474	0.0158473
564.552	0.0158904
564.630	0.0157767
564.708	0.0156825
564.786	0.0156377
564.864	0.0155236
564.942	0.0154622
565.021	0.0154953
565.099	0.0154387
565.177	0.0153942
565.255	0.0153748
565.333	0.0153271
565.411	0.0152096
565.489	0.0153496
565.567	0.0152003
565.646	0.0150981
565.724	0.0152472
565.802	0.0151259
565.880	0.0152782
565.958	0.0152691
566.036	0.0151423
566.114	0.0151759
566.192	0.0152593
566.271	0.0151641
566.349	0.0150563
566.427	0.0152190
566.505	0.0152008
566.583	0.0152063
566.661	0.0152292
566.739	0.0151901
566.817	0.0151775
566.896	0.0152113
566.974	0.0151780
567.052	0.0152769
567.130	0.0152203
567.208	0.0153103
567.286	0.0153400
567.364	0.0153561
567.442	0.0153341
567.521	0.0155332
567.599	0.0153947
567.677	0.0154451
567.755	0.0156094
567.833	0.0156514
567.911	0.0155632
567.989	0.0155308
568.067	0.0157117
568.146	0.0156410
568.224	0.0157204
568.302	0.0156828
568.380	0.0156360
568.458	0.0157404
568.536	0.0157822
568.614	0.0156915
568.692	0.0158465
568.771	0.0157399
568.849	0.0157742
568.927	0.0157852
569.005	0.0158074
569.083	0.0158055
569.161	0.0159241
569.239	0.0160739
569.317	0.0158827
569.396	0.0159085
569.474	0.0158692
569.552	0.0159940
569.630	0.0161086
569.708	0.0161870
569.786	0.0161275
569.864	0.0161102
569.942	0.0161855
570.021	0.0162289
570.099	0.0161419
570.177	0.0162326
570.255	0.0162710
570.333	0.0163020
570.411	0.0164484
570.489	0.0164725
570.567	0.0164667
570.646	0.0164618
570.724	0.0166650
570.802	0.0164992
570.880	0.0166879
570.958	0.0167121
571.036	0.0168269
571.114	0.0168909
571.192	0.0169662
571.271	0.0167825
571.349	0.0168494
571.427	0.0169794
571.505	0.0172285
571.583	0.0171510
571.661	0.0172074
571.739	0.0172219
571.817	0.0172640
571.896	0.0172244
571.974	0.0173167
572.052	0.0173994
572.130	0.0175462
572.208	0.0173991
572.286	0.0175822
572.364	0.0176000
572.442	0.0175985
572.521	0.0177211
572.599	0.0178017
572.677	0.0175855
572.755	0.0177473
572.833	0.0177980
572.911	0.0176881
572.989	0.0177679
573.067	0.0178185
573.146	0.0178414
573.224	0.0178490
573.302	0.0176112
573.380	0.0177496
573.458	0.0176555
573.536	0.0177815
573.614	0.0176810
573.692	0.0175088
573.771	0.0175706
573.849	0.0175362
573.927	0.0175788
574.005	0.0174837
574.083	0.0175005
574.161	0.0175513
574.239	0.0175063
574.317	0.0174631
574.396	0.0173104
574.474	0.0172398
574.552	0.0172342
574.630	0.0172709
574.708	0.0172278
574.786	0.0170500
574.864	0.0171205
574.942	0.0169699
575.021	0.0168834
575.099	0.0170031
575.177	0.0168981
575.255	0.0168725
575.333	0.0167101
575.411	0.0169154
575.489	0.0167742
575.567	0.0167137
575.646	0.0169402
575.724	0.0167113
575.802	0.0166431
575.880	0.0167352
575.958	0.0165697
576.036	0.0166798
576.114	0.0166347
576.192	0.0164687
576.271	0.0166810
576.349	0.0166460
576.427	0.0165948
576.505	0.0166529
576.583	0.0165727
576.661	0.0165908
576.739	0.0165447
576.817	0.0165384
576.896	0.0163997
576.974	0.0163727
577.052	0.0166766
577.130	0.0163904
577.208	0.0164710
577.286	0.0164389
577.364	0.0165287
577.442	0.0163835
577.521	0.0164949
577.599	0.0165022
577.677	0.0165034
577.755	0.0164482
577.833	0.0166703
577.911	0.0165833
577.989	0.0163765
578.067	0.0161537
578.146	0.0163093
578.224	0.0164302
578.302	0.0163007
578.380	0.0162856
578.458	0.0162612
578.536	0.0163116
578.614	0.0161673
578.692	0.0160009
578.771	0.0159790
578.849	0.0159415
578.927	0.0159726
579.005	0.0159772
579.083	0.0159470
579.161	0.0159830
579.239	0.0159119
579.317	0.0158068
579.396	0.0157830
579.474	0.0158797
579.552	0.0158385
579.630	0.0157000
579.708	0.0156909
579.786	0.0157964
579.864	0.0156114
579.942	0.0155337
580.021	0.0155566
580.099	0.0155359
580.177	0.0156097
580.255	0.0157096
580.333	0.0154050
580.411	0.0156046
580.489	0.0156017
580.567	0.0155991
580.646	0.0154570
580.724	0.0154098
580.802	0.0155564
580.880	0.0155769
580.958	0.0155918
581.036	0.0156466
581.114	0.0156173
581.192	0.0156025
581.271	0.0157561
581.349	0.0156361
581.427	0.0155161
581.505	0.0156905
581.583	0.0157424
581.661	0.0156925
581.739	0.0158656
581.817	0.0157522
581.896	0.0158704
581.974	0.0158602
582.052	0.0158064
582.130	0.0160402
582.208	0.0158873
582.286	0.0159788
582.364	0.0161770
582.442	0.0159071
582.521	0.0159416
582.599	0.0162682
582.677	0.0161697
582.755	0.0161189
582.833	0.0162138
582.911	0.0162724
582.989	0.0161517
583.067	0.0163851
583.146	0.0163559
583.224	0.0162049
583.302	0.0164920
583.380	0.0165396
583.458	0.0164492
583.536	0.0165204
583.614	0.0164928
583.692	0.0165775
583.771	0.0166273
583.849	0.0167236
583.927	0.0166518
584.005	0.0167805
584.083	0.0167902
584.161	0.0167120
584.239	0.0168929
584.317	0.0168032
584.396	0.0168345
584.474	0.0167872
584.552	0.0168693
584.630	0.0168941
584.708	0.0170088
584.786	0.0169623
584.864	0.0170150
584.942	0.0169533
585.021	0.0170139
585.099	0.0170630
585.177	0.0171291
585.255	0.0167979
585.333	0.0169479
585.411	0.0170883
585.489	0.0170901
585.567	0.0170790
585.646	0.0171164
585.724	0.0168029
585.802	0.0167570
585.880	0.0169868
585.958	0.0168241
586.036	0.0168048
586.114	0.0168867
586.192	0.0169049
586.271	0.0168975
586.349	0.0168993
586.427	0.0167826
586.505	0.0166777
586.583	0.0167945
586.661	0.0169016
586.739	0.0166486
586.817	0.0167046
586.896	0.0166320
586.974	0.0164788
587.052	0.0164903
587.130	0.0164322
587.208	0.0164797
587.286	0.0165303
587.364	0.0163698
587.442	0.0163178
587.521	0.0163084
587.599	0.0162130
587.677	0.0162624
587.755	0.0161137
587.833	0.0160167
587.911	0.0160873
587.989	0.0160818
588.067	0.0161359
588.146	0.0160755
588.224	0.0158675
588.302	0.0158341
588.380	0.0159900
588.458	0.0157790
588.536	0.0158051
588.614	0.0157619
588.692	0.0158544
588.771	0.0158008
588.849	0.0158698
588.927	0.0157794
589.005	0.0157627
589.083	0.0156203
589.161	0.0157539
589.239	0.0158017
589.317	0.0156270
589.396	0.0155289
589.474	0.0155051
589.552	0.0156168
589.630	0.0155627
589.708	0.0156152
589.786	0.0156084
589.864	0.0155277
589.942	0.0154610
590.021	0.0154812
590.099	0.0155668
590.177	0.0156499
590.255	0.0155240
590.333	0.0155283
590.411	0.0154329
590.489	0.0153560
590.567	0.0155051
590.646	0.0155683
590.724	0.0156883
590.802	0.0154919
590.880	0.0154717
590.958	0.0156397
591.036	0.0155722
591.114	0.0154645
591.192	0.0156200
591.271	0.0155367
591.349	0.0155042
591.427	0.0156147
591.505	0.0155032
591.583	0.0155016
591.661	0.0156631
591.739	0.0156321
591.817	0.0155938
591.896	0.0156190
591.974	0.0156738
592.052	0.0157791
592.130	0.0158754
592.208	0.0158794
592.286	0.0158199
592.364	0.0159492
592.442	0.0158083
592.521	0.0158654
592.599	0.0158951
592.677	0.0159452
592.755	0.0159388
592.833	0.0161178
592.911	0.0160181
592.989	0.0160403
593.067	0.0160900
593.146	0.0160480
593.224	0.0160990
593.302	0.0161936
593.380	0.0161340
593.458	0.0162613
593.536	0.0163649
593.614	0.0164446
593.692	0.0162695
593.771	0.0164464
593.849	0.0165801
593.927	0.0165600
594.005	0.0164510
594.083	0.0166098
594.161	0.0166754
594.239	0.0167029
594.317	0.0166959
594.396	0.0167375
594.474	0.0166817
594.552	0.0167744
594.630	0.0167849
594.708	0.0168403
594.786	0.0168652
594.864	0.0167985
594.942	0.0169198
595.021	0.0167738
595.099	0.0168252
595.177	0.0167387
595.255	0.0167928
595.333	0.0167877
595.411	0.0168194
595.489	0.0167326
595.567	0.0169157
595.646	0.0168005
595.724	0.0167443
595.802	0.0167403
595.880	0.0168508
595.958	0.0168075
596.036	0.0169020
596.114	0.0168528
596.192	0.0167258
596.271	0.0167926
596.349	0.0168665
596.427	0.0166467
596.505	0.0167542
596.583	0.0166212
596.661	0.0165779
596.739	0.0166467
596.817	0.0166016
596.896	0.0166686
596.974	0.0166149
597.052	0.0166742
597.130	0.0166695
597.208	0.0164992
597.286	0.0166216
597.364	0.0165858
597.442	0.0165136
597.521	0.0164861
597.599	0.0164888
597.677	0.0164125
597.755	0.0164584
597.833	0.0165067
597.911	0.0165372
597.989	0.0163467
598.067	0.0164142
598.146	0.0163868
598.224	0.0162873
598.302	0.0164246
598.380	0.0163609
598.458	0.0163594
598.536	0.0163995
598.614	0.0163812
598.692	0.0165035
598.771	0.0163108
598.849	0.0161418
598.927	0.0162093
599.005	0.0163111
599.083	0.0162311
599.161	0.0161827
599.239	0.0163576
599.317	0.0162136
599.396	0.0162008
599.474	0.0162320
599.552	0.0162036
599.630	0.0160061
599.708	0.0159946
599.786	0.0161137
599.864	0.0162173
599.942	0.0162547
600.021	0.0160759
600.099	0.0162173
600.177	0.0161462
600.255	0.0160651
600.333	0.0160143
600.411	0.0160399
600.489	0.0160941
600.567	0.0160287
600.646	0.0160674
600.724	0.0161232
600.802	0.0158970
600.880	0.0159912
600.958	0.0158228
601.036	0.0158821
601.114	0.0158578
601.192	0.0158289
601.271	0.0158654
601.349	0.0158846
601.427	0.0158799
601.505	0.0159406
601.583	0.0158907
601.661	0.0157803
601.739	0.0157803
601.817	0.0158978
601.896	0.0158450
601.974	0.0157716
602.052	0.0158215
602.130	0.0158900
602.208	0.0158053
602.286	0.0157301
602.364	0.0157775
602.442	0.0159126
602.521	0.0155737
602.599	0.0158173
602.677	0.0158387
602.755	0.0157992
602.833	0.0157890
602.911	0.0157057
602.989	0.0158253
603.067	0.0158808
603.146	0.0158223
603.224	0.0158832
603.302	0.0159462
603.380	0.0159888
603.458	0.0158778
603.536	0.0160297
603.614	0.0161626
603.692	0.0160102
603.771	0.0160226
603.849	0.0159029
603.927	0.0158858
604.005	0.0160949
604.083	0.0161325
604.161	0.0159430
604.239	0.0160000
604.317	0.0159690
604.396	0.0160258
604.474	0.0160793
604.552	0.0159977
604.630	0.0161426
604.708	0.0161278
604.786	0.0161876
604.864	0.0161823
604.942	0.0161869
605.021	0.0159659
605.099	0.0162103
605.177	0.0162114
605.255	0.0162546
605.333	0.0163255
605.411	0.0161935
605.489	0.0163792
605.567	0.0163042
605.646	0.0163172
605.724	0.0163097
605.802	0.0164137
605.880	0.0163506
605.958	0.0164321
606.036	0.0163869
606.114	0.0164143
606.192	0.0163747
606.271	0.0164675
606.349	0.0164578
606.427	0.0166180
606.505	0.0164423
606.583	0.0164822
606.661	0.0165222
606.739	0.0166648
606.817	0.0165649
606.896	0.0166338
606.974	0.0166401
607.052	0.0165087
607.130	0.0166572
607.208	0.0166248
607.286	0.0166248
607.364	0.0167255
607.442	0.0166380
607.521	0.0166563
607.599	0.0166294
607.677	0.0167090
607.755	0.0166436
607.833	0.0166847
607.911	0.0164935
607.989	0.0166748
608.067	0.0167063
608.146	0.0165924
608.224	0.0165300
608.302	0.0165577
608.380	0.0167447
608.458	0.0166674
608.536	0.0165331
608.614	0.0167552
608.692	0.0166157
608.771	0.0166508
608.849	0.0166638
608.927	0.0165359
609.005	0.0166570
609.083	0.0166920
609.161	0.0165987
609.239	0.0166122
609.317	0.0166720
609.396	0.0167272
609.474	0.0167312
609.552	0.0166548
609.630	0.0167583
609.708	0.0167657
609.786	0.0168964
609.864	0.0168053
609.942	0.0167366
610.021	0.0167489
610.099	0.0166467
610.177	0.0167649
610.255	0.0167282
610.333	0.0167890
610.411	0.0167685
610.489	0.0166950
610.567	0.0167448
610.646	0.0167077
610.724	0.0166750
610.802	0.0167667
610.880	0.0166030
610.958	0.0167133
611.036	0.0168561
611.114	0.0170087
611.192	0.0167546
611.271	0.0168004
611.349	0.0167813
611.427	0.0168913
611.505	0.0168176
611.583	0.0167373
611.661	0.0166142
611.739	0.0165532
611.817	0.0166125
611.896	0.0165317
611.974	0.0165045
612.052	0.0165067
612.130	0.0164733
612.208	0.0163405
612.286	0.0162571
612.364	0.0163179
612.442	0.0163055
612.521	0.0161834
612.599	0.0163042
612.677	0.0161058
612.755	0.0161151
612.833	0.0160318
612.911	0.0160184
612.989	0.0159230
613.067	0.0159923
613.146	0.0160011
613.224	0.0159818
613.302	0.0159476
613.380	0.0158884
613.458	0.0159515
613.536	0.0159202
613.614	0.0159365
613.692	0.0159558
613.771	0.0160376
613.849	0.0158896
613.927	0.0159686
614.005	0.0159115
614.083	0.0158294
614.161	0.0159552
614.239	0.0159450
614.317	0.0158736
614.396	0.0160383
614.474	0.0161180
614.552	0.0161052
614.630	0.0162289
614.708	0.0161245
614.786	0.0160749
614.864	0.0162453
614.942	0.0164046
615.021	0.0163393
615.099	0.0161985
615.177	0.0162936
615.255	0.0164394
615.333	0.0163753
615.411	0.0164943
615.489	0.0164828
615.567	0.0163333
615.646	0.0164864
615.724	0.0165516
615.802	0.0163601
615.880	0.0164866
615.958	0.0164178
616.036	0.0163986
616.114	0.0164473
616.192	0.0164040
616.271	0.0163265
616.349	0.0163123
616.427	0.0162779
616.505	0.0163094
616.583	0.0163055
616.661	0.0161580
616.739	0.0161788
616.817	0.0162185
616.896	0.0161472
616.974	0.0159418
617.052	0.0159437
617.130	0.0157742
617.208	0.0157716
617.286	0.0155042
617.364	0.0154874
617.442	0.0154153
617.521	0.0154303
617.599	0.0154247
617.677	0.0154063
617.755	0.0152234
617.833	0.0153198
617.911	0.0153293
617.989	0.0152014
618.067	0.0152099
618.146	0.0151484
618.224	0.0151973
618.302	0.0152408
618.380	0.0150316
618.458	0.0151359
618.536	0.0151310
618.614	0.0149584
618.692	0.0150035
618.771	0.0150298
618.849	0.0149998
618.927	0.0149915
619.005	0.0149334
619.083	0.0150146
619.161	0.0149545
619.239	0.0149681
619.317	0.0149614
619.396	0.0149848
619.474	0.0150491
619.552	0.0152898
619.630	0.0152657
619.708	0.0154161
619.786	0.0153881
619.864	0.0154047
619.942	0.0155901
620.021	0.0155785
620.099	0.0156697
620.177	0.0157186
620.255	0.0157343
620.333	0.0156623
620.411	0.0158826
620.489	0.0160640
620.567	0.0160152
620.646	0.0162305
620.724	0.0161700
620.802	0.0161909
620.880	0.0164110
620.958	0.0162389
621.036	0.0163294
621.114	0.0165267
621.192	0.0164190
621.271	0.0164384
621.349	0.0164310
621.427	0.0166087
621.505	0.0165860
621.583	0.0164667
621.661	0.0164986
621.739	0.0165706
621.817	0.0165403
621.896	0.0165268
621.974	0.0164568
622.052	0.0164576
622.130	0.0165086
622.208	0.0166233
622.286	0.0165298
622.364	0.0166171
622.442	0.0164988
622.521	0.0164669
622.599	0.0165981
622.677	0.0165819
622.755	0.0166582
622.833	0.0165601
622.911	0.0164817
622.989	0.0166070
623.067	0.0165092
623.146	0.0164260
623.224	0.0164706
623.302	0.0164337
623.380	0.0163144
623.458	0.0163079
623.536	0.0163431
623.614	0.0163190
623.692	0.0162119
623.771	0.0160630
623.849	0.0160638
623.927	0.0160692
624.005	0.0160748
624.083	0.0162052
624.161	0.0160744
624.239	0.0160420
624.317	0.0160959
624.396	0.0161634
624.474	0.0160760
624.552	0.0161489
624.630	0.0160463
624.708	0.0161134
624.786	0.0161225
624.864	0.0159060
624.942	0.0160080
625.021	0.0160719
625.099	0.0160858
625.177	0.0160963
625.255	0.0160189
625.333	0.0160861
625.411	0.0159741
625.489	0.0159303
625.567	0.0158982
625.646	0.0159965
625.724	0.0160614
625.802	0.0159939
625.880	0.0160794
625.958	0.0157861
626.036	0.0159346
626.114	0.0159680
626.192	0.0161565
626.271	0.0159371
626.349	0.0160038
626.427	0.0160077
626.505	0.0160316
626.583	0.0161592
626.661	0.0160686
626.739	0.0161531
626.817	0.0161205
626.896	0.0161497
626.974	0.0160811
627.052	0.0160835
627.130	0.0161940
627.208	0.0161919
627.286	0.0160425
627.364	0.0161050
627.442	0.0161845
627.521	0.0161402
627.599	0.0161724
627.677	0.0162971
627.755	0.0163029
627.833	0.0162518
627.911	0.0161954
627.989	0.0164132
628.067	0.0164211
628.146	0.0163506
628.224	0.0162518
628.302	0.0163985
628.380	0.0162897
628.458	0.0163800
628.536	0.0165241
628.614	0.0165231
628.692	0.0164761
628.771	0.0163988
628.849	0.0165575
628.927	0.0165450
629.005	0.0166048
629.083	0.0165883
629.161	0.0166556
629.239	0.0166380
629.317	0.0166148
629.396	0.0165620
629.474	0.0167004
629.552	0.0165755
629.630	0.0165338
629.708	0.0167078
629.786	0.0166835
629.864	0.0166766
629.942	0.0165962
630.021	0.0166296
630.099	0.0166033
630.177	0.0166760
630.255	0.0165757
630.333	0.0167575
630.411	0.0166936
630.489	0.0165910
630.567	0.0167407
630.646	0.0166370
630.724	0.0167022
630.802	0.0166740
630.880	0.0166795
630.958	0.0167089
631.036	0.0167893
631.114	0.0168105
631.192	0.0167130
631.271	0.0168545
631.349	0.0167052
631.427	0.0168375
631.505	0.0168383
631.583	0.0168890
631.661	0.0169843
631.739	0.0167960
631.817	0.0168634
631.896	0.0167508
631.974	0.0168571
632.052	0.0168586
632.130	0.0166996
632.208	0.0167736
632.286	0.0167529
632.364	0.0166413
632.442	0.0168734
632.521	0.0167845
632.599	0.0168817
632.677	0.0168264
632.755	0.0166404
632.833	0.0167523
632.911	0.0166742
632.989	0.0168191
633.067	0.0167160
633.146	0.0168719
633.224	0.0168595
633.302	0.0167440
633.380	0.0167732
633.458	0.0168716
633.536	0.0168341
633.614	0.0167655
633.692	0.0166930
633.771	0.0167270
633.849	0.0165968
633.927	0.0165745
634.005	0.0166704
634.083	0.0167676
634.161	0.0166508
634.239	0.0166881
634.317	0.0164755
634.396	0.0166660
634.474	0.0167261
634.552	0.0167600
634.630	0.0167301
634.708	0.0165202
634.786	0.0164585
634.864	0.0165003
634.942	0.0165675
635.021	0.0164737
635.099	0.0164160
635.177	0.0164821
635.255	0.0163462
635.333	0.0163759
635.411	0.0164587
635.489	0.0163117
635.567	0.0163573
635.646	0.0163801
635.724	0.0164184
635.802	0.0162585
635.880	0.0163382
635.958	0.0163022
636.036	0.0163809
636.114	0.0162437
636.192	0.0162939
636.271	0.0162147
636.349	0.0161074
636.427	0.0162452
636.505	0.0161488
636.583	0.0161391
636.661	0.0159991
636.739	0.0161117
636.817	0.0159221
636.896	0.0159416
636.974	0.0159936
637.052	0.0159715
637.130	0.0159282
637.208	0.0159373
637.286	0.0159113
637.364	0.0159456
637.442	0.0157858
637.521	0.0158471
637.599	0.0156955
637.677	0.0159602
637.755	0.0159661
637.833	0.0156639
637.911	0.0159444
637.989	0.0158395
638.067	0.0159521
638.146	0.0159264
638.224	0.0158503
638.302	0.0158844
638.380	0.0159726
638.458	0.0159157
638.536	0.0159731
638.614	0.0159577
638.692	0.0160458
638.771	0.0159996
638.849	0.0160918
638.927	0.0161037
639.005	0.0161957
639.083	0.0161811
639.161	0.0162751
639.239	0.0161055
639.317	0.0160962
639.396	0.0163092
639.474	0.0162312
639.552	0.0161755
639.630	0.0161634
639.708	0.0162914
639.786	0.0163045
639.864	0.0161629
639.942	0.0161896
640.021	0.0163031
640.099	0.0163008
640.177	0.0163518
640.255	0.0161966
640.333	0.0162638
640.411	0.0162298
640.489	0.0162579
640.567	0.0162722
640.646	0.0162199
640.724	0.0162613
640.802	0.0162321
640.880	0.0162663
640.958	0.0160846
641.036	0.0162064
641.114	0.0162924
641.192	0.0161381
641.271	0.0161668
641.349	0.0161976
641.427	0.0160240
641.505	0.0159020
641.583	0.0158821
641.661	0.0159808
641.739	0.0159606
641.817	0.0158537
641.896	0.0158839
641.974	0.0158874
642.052	0.0158569
642.130	0.0157000
642.208	0.0158533
642.286	0.0158215
642.364	0.0158997
642.442	0.0159177
642.521	0.0159277
642.599	0.0159119
642.677	0.0159048
642.755	0.0159784
642.833	0.0158878
642.911	0.0160460
642.989	0.0160960
643.067	0.0160953
643.146	0.0161121
643.224	0.0160734
643.302	0.0161487
643.380	0.0160217
643.458	0.0160423
643.536	0.0159769
643.614	0.0161046
643.692	0.0160092
643.771	0.0160907
643.849	0.0160943
643.927	0.0162188
644.005	0.0162392
644.083	0.0162483
644.161	0.0161920
644.239	0.0161808
644.317	0.0163410
644.396	0.0165739
644.474	0.0165310
644.552	0.0164843
644.630	0.0164328
644.708	0.0164838
644.786	0.0165775
644.864	0.0166173
644.942	0.0167455
645.021	0.0168126
645.099	0.0168616
645.177	0.0167158
645.255	0.0165387
645.333	0.0166750
645.411	0.0165511
645.489	0.0168062
645.567	0.0166366
645.646	0.0164785
645.724	0.0166689
645.802	0.0166721
645.880	0.0167213
645.958	0.0166327
646.036	0.0166235
646.114	0.0167530
646.192	0.0168544
646.271	0.0166737
646.349	0.0167771
646.427	0.0167653
646.505	0.0167813
646.583	0.0167463
646.661	0.0167236
646.739	0.0168536
646.817	0.0166152
646.896	0.0166565
646.974	0.0166143
647.052	0.0165724
647.130	0.0165952
647.208	0.0164854
647.286	0.0165065
647.364	0.0164332
647.442	0.0163510
647.521	0.0164523
647.599	0.0162424
647.677	0.0161926
647.755	0.0163279
647.833	0.0162110
647.911	0.0161411
647.989	0.0161581
648.067	0.0162939
648.146	0.0162668
648.224	0.0162234
648.302	0.0162037
648.380	0.0162595
648.458	0.0162797
648.536	0.0162431
648.614	0.0162318
648.692	0.0162212
648.771	0.0163058
648.849	0.0162984
648.927	0.0163810
649.005	0.0162383
649.083	0.0163384
649.161	0.0163223
649.239	0.0163816
649.317	0.0162564
649.396	0.0165733
649.474	0.0163565
649.552	0.0164074
649.630	0.0164011
649.708	0.0164834
649.786	0.0165222
649.864	0.0166206
649.942	0.0165804
650.021	0.0165318
650.099	0.0166608
650.177	0.0166584
650.255	0.0165329
650.333	0.0166775
650.411	0.0166980
650.489	0.0167366
650.567	0.0168427
650.646	0.0167699
650.724	0.0168182
650.802	0.0167229
650.880	0.0168260
650.958	0.0168305
651.036	0.0167471
651.114	0.0168984
651.192	0.0168649
651.271	0.0168842
651.349	0.0168472
651.427	0.0167108
651.505	0.0168349
651.583	0.0168179
651.661	0.0167465
651.739	0.0166976
651.817	0.0168546
651.896	0.0166869
651.974	0.0165749
652.052	0.0166882
652.130	0.0166641
652.208	0.0166027
652.286	0.0165577
652.364	0.0166365
652.442	0.0165459
652.521	0.0166013
652.599	0.0166235
652.677	0.0164689
652.755	0.0164394
652.833	0.0165771
652.911	0.0165230
652.989	0.0165207
653.067	0.0164292
653.146	0.0165216
653.224	0.0166715
653.302	0.0164990
653.380	0.0165342
653.458	0.0166109
653.536	0.0164147
653.614	0.0163895
653.692	0.0164117
653.771	0.0164852
653.849	0.0165069
653.927	0.0164776
654.005	0.0164309
654.083	0.0163857
654.161	0.0163137
654.239	0.0163301
654.317	0.0164143
654.396	0.0162276
654.474	0.0162989
654.552	0.0161895
654.630	0.0163123
654.708	0.0162778
654.786	0.0163202
654.864	0.0163065
654.942	0.0163641
655.021	0.0164548
655.099	0.0163319
655.177	0.0163351
655.255	0.0163857
655.333	0.0164210
655.411	0.0163747
655.489	0.0163815
655.567	0.0163952
655.646	0.0162015
655.724	0.0164296
655.802	0.0163390
655.880	0.0162583
655.958	0.0164243
656.036	0.0163789
656.114	0.0163143
656.192	0.0163619
656.271	0.0163462
656.349	0.0162653
656.427	0.0163968
656.505	0.0162186
656.583	0.0162650
656.661	0.0164171
656.739	0.0162589
656.817	0.0161378
656.896	0.0162627
656.974	0.0161720
657.052	0.0160239
657.130	0.0161800
657.208	0.0161562
657.286	0.0161146
657.364	0.0160749
657.442	0.0161594
657.521	0.0161681
657.599	0.0161798
657.677	0.0160349
657.755	0.0160590
657.833	0.0158965
657.911	0.0160017
657.989	0.0157677
658.067	0.0159053
658.146	0.0160091
658.224	0.0158575
658.302	0.0158084
658.380	0.0159612
658.458	0.0158717
658.536	0.0159603
658.614	0.0159451
658.692	0.0160685
658.771	0.0159514
658.849	0.0160661
658.927	0.0158929
659.005	0.0159589
659.083	0.0159025
659.161	0.0159698
659.239	0.0160789
659.317	0.0159214
659.396	0.0158942
659.474	0.0159541
659.552	0.0160985
659.630	0.0157732
659.708	0.0158288
659.786	0.0159549
659.864	0.0160126
659.942	0.0160870
660.021	0.0161733
660.099	0.0161774
660.177	0.0162444
660.255	0.0161789
660.333	0.0160501
660.411	0.0160505
660.489	0.0161836
660.567	0.0162342
660.646	0.0160460
660.724	0.0160572
660.802	0.0160972
660.880	0.0162395
660.958	0.0161508
661.036	0.0162622
661.114	0.0160818
661.192	0.0160878
661.271	0.0163312
661.349	0.0161936
661.427	0.0161620
661.505	0.0162574
661.583	0.0162164
661.661	0.0161267
661.739	0.0161746
661.817	0.0162042
661.896	0.0161201
661.974	0.0159663
662.052	0.0162226
662.130	0.0162370
662.208	0.0161588
662.286	0.0161066
662.364	0.0160435
662.442	0.0160290
662.521	0.0160928
662.599	0.0160537
662.677	0.0160516
662.755	0.0160445
662.833	0.0161785
662.911	0.0160227
662.989	0.0160294
663.067	0.0158652
663.146	0.0159368
663.224	0.0159922
663.302	0.0161234
663.380	0.0159122
663.458	0.0159120
663.536	0.0159715
663.614	0.0160140
663.692	0.0159057
663.771	0.0157849
663.849	0.0159114
663.927	0.0160646
664.005	0.0159014
664.083	0.0159364
664.161	0.0160908
664.239	0.0160741
664.317	0.0160013
664.396	0.0159665
664.474	0.0161734
664.552	0.0160312
664.630	0.0160471
664.708	0.0160059
664.786	0.0162084
664.864	0.0161675
664.942	0.0160133
665.021	0.0162406
665.099	0.0161971
665.177	0.0162952
665.255	0.0162018
665.333	0.0160071
665.411	0.0159491
665.489	0.0162591
665.567	0.0162847
665.646	0.0162187
665.724	0.0162901
665.802	0.0163664
665.880	0.0162017
665.958	0.0162536
666.036	0.0162463
666.114	0.0162906
666.192	0.0162047
666.271	0.0162934
666.349	0.0163906
666.427	0.0164378
666.505	0.0163326
666.583	0.0162670
666.661	0.0163116
666.739	0.0164185
666.817	0.0164378
666.896	0.0162852
666.974	0.0163865
667.052	0.0164716
667.130	0.0163168
667.208	0.0163511
667.286	0.0163289
667.364	0.0162902
667.442	0.0164505
667.521	0.0165188
667.599	0.0165529
667.677	0.0164616
667.755	0.0163664
667.833	0.0164384
667.911	0.0165142
667.989	0.0164675
668.067	0.0164497
668.146	0.0164494
668.224	0.0164355
668.302	0.0166177
668.380	0.0165000
668.458	0.0164510
668.536	0.0164939
668.614	0.0167165
668.692	0.0166139
668.771	0.0165848
668.849	0.0167284
668.927	0.0167838
669.005	0.0166825
669.083	0.0166972
669.161	0.0165745
669.239	0.0167355
669.317	0.0166296
669.396	0.0167053
669.474	0.0168938
669.552	0.0168113
669.630	0.0167159
669.708	0.0167215
669.786	0.0167004
669.864	0.0167863
669.942	0.0167860
670.021	0.0170087
670.099	0.0168906
670.177	0.0168969
670.255	0.0169785
670.333	0.0169473
670.411	0.0167705
670.489	0.0168480
670.567	0.0168768
670.646	0.0168571
670.724	0.0168565
670.802	0.0166299
670.880	0.0167558
670.958	0.0166747
671.036	0.0166865
671.114	0.0166870
671.192	0.0166770
671.271	0.0164659
671.349	0.0164618
671.427	0.0164783
671.505	0.0164026
671.583	0.0163533
671.661	0.0164129
671.739	0.0164834
671.817	0.0163525
671.896	0.0163429
671.974	0.0161409
672.052	0.0163895
672.130	0.0163625
672.208	0.0162619
672.286	0.0162914
672.364	0.0163038
672.442	0.0163481
672.521	0.0162808
672.599	0.0164127
672.677	0.0162878
672.755	0.0163297
672.833	0.0163149
672.911	0.0162264
672.989	0.0163191
673.067	0.0162711
673.146	0.0161607
673.224	0.0163058
673.302	0.0163353
673.380	0.0163563
673.458	0.0163512
673.536	0.0162847
673.614	0.0163169
673.692	0.0162427
673.771	0.0163626
673.849	0.0164470
673.927	0.0164072
674.005	0.0164650
674.083	0.0163773
674.161	0.0164610
674.239	0.0163748
674.317	0.0164045
674.396	0.0164510
674.474	0.0164426
674.552	0.0164600
674.630	0.0164566
674.708	0.0164272
674.786	0.0163589
674.864	0.0164375
674.942	0.0163056
675.021	0.0164408
675.099	0.0163975
675.177	0.0162907
675.255	0.0164178
675.333	0.0163512
675.411	0.0165143
675.489	0.0164708
675.567	0.0163632
675.646	0.0164227
675.724	0.0164961
675.802	0.0162159
675.880	0.0163943
675.958	0.0164031
676.036	0.0164948
676.114	0.0163492
676.192	0.0163963
676.271	0.0163605
676.349	0.0163145
676.427	0.0163440
676.505	0.0164482
676.583	0.0163499
676.661	0.0163273
676.739	0.0163642
676.817	0.0163557
676.896	0.0161720
676.974	0.0162017
677.052	0.0163236
677.130	0.0163911
677.208	0.0162325
677.286	0.0160835
677.364	0.0160137
677.442	0.0160960
677.521	0.0161847
677.599	0.0159872
677.677	0.0161384
677.755	0.0160941
677.833	0.0160564
677.911	0.0161637
677.989	0.0159099
678.067	0.0161408
678.146	0.0161178
678.224	0.0160757
678.302	0.0160336
678.380	0.0160525
678.458	0.0159616
678.536	0.0161338
678.614	0.0161502
678.692	0.0161008
678.771	0.0161532
678.849	0.0160622
678.927	0.0160750
679.005	0.0160648
679.083	0.0162218
679.161	0.0161124
679.239	0.0162457
679.317	0.0162419
679.396	0.0160326
679.474	0.0160937
679.552	0.0161431
679.630	0.0161237
679.708	0.0159805
679.786	0.0161925
679.864	0.0161964
679.942	0.0159894
680.021	0.0161517
680.099	0.0159345
680.177	0.0160252
680.255	0.0161298
680.333	0.0159650
680.411	0.0157923
680.489	0.0159206
680.567	0.0160352
680.646	0.0158693
680.724	0.0159831
680.802	0.0159942
680.880	0.0159918
680.958	0.0159295
681.036	0.0158560
681.114	0.0159324
681.192	0.0159609
681.271	0.0159148
681.349	0.0159673
681.427	0.0159470
681.505	0.0158459
681.583	0.0159520
681.661	0.0159649
681.739	0.0160388
681.817	0.0160547
681.896	0.0160426
681.974	0.0159499
682.052	0.0160660
682.130	0.0159283
682.208	0.0159265
682.286	0.0159163
682.364	0.0158989
682.442	0.0157934
682.521	0.0158628
682.599	0.0159205
682.677	0.0159000
682.755	0.0159638
682.833	0.0159019
682.911	0.0158529
682.989	0.0158278
683.067	0.0159158
683.146	0.0158072
683.224	0.0158459
683.302	0.0159650
683.380	0.0160011
683.458	0.0159241
683.536	0.0158395
683.614	0.0158981
683.692	0.0159560
683.771	0.0160021
683.849	0.0160194
683.927	0.0159523
684.005	0.0159465
684.083	0.0160482
684.161	0.0160326
684.239	0.0160120
684.317	0.0160672
684.396	0.0160986
684.474	0.0162145
684.552	0.0161995
684.630	0.0159815
684.708	0.0160574
684.786	0.0162475
684.864	0.0163144
684.942	0.0161666
685.021	0.0162477
685.099	0.0163573
685.177	0.0162113
685.255	0.0162108
685.333	0.0163633
685.411	0.0163188
685.489	0.0163625
685.567	0.0163795
685.646	0.0163744
685.724	0.0162798
685.802	0.0162819
685.880	0.0163588
685.958	0.0163693
686.036	0.0165134
686.114	0.0164584
686.192	0.0163144
686.271	0.0163489
686.349	0.0163902
686.427	0.0163725
686.505	0.0162141
686.583	0.0163934
686.661	0.0164106
686.739	0.0161995
686.817	0.0161846
686.896	0.0162746
686.974	0.0161826
687.052	0.0161301
687.130	0.0162246
687.208	0.0162337
687.286	0.0162868
687.364	0.0162711
687.442	0.0163228
687.521	0.0162762
687.599	0.0162753
687.677	0.0163034
687.755	0.0161838
687.833	0.0162143
687.911	0.0162865
687.989	0.0163040
688.067	0.0163163
688.146	0.0162082
688.224	0.0161901
688.302	0.0161916
688.380	0.0162606
688.458	0.0163814
688.536	0.0161655
688.614	0.0161565
688.692	0.0162022
688.771	0.0161822
688.849	0.0161570
688.927	0.0160353
689.005	0.0162227
689.083	0.0161511
689.161	0.0161217
689.239	0.0160831
689.317	0.0159653
689.396	0.0159820
689.474	0.0161032
689.552	0.0161253
689.630	0.0159886
689.708	0.0160397
689.786	0.0160659
689.864	0.0159953
689.942	0.0160767
690.021	0.0160947
690.099	0.0161685
690.177	0.0161179
690.255	0.0161591
690.333	0.0162309
690.411	0.0161471
690.489	0.0161561
690.567	0.0161337
690.646	0.0161610
690.724	0.0162413
690.802	0.0159796
690.880	0.0160190
690.958	0.0159422
691.036	0.0160661
691.114	0.0160927
691.192	0.0160603
691.271	0.0160317
691.349	0.0161082
691.427	0.0162242
691.505	0.0160546
691.583	0.0159715
691.661	0.0160328
691.739	0.0163470
691.817	0.0162928
691.896	0.0162188
691.974	0.0161957
692.052	0.0162609
692.130	0.0163084
692.208	0.0163484
692.286	0.0163709
692.364	0.0162971
692.442	0.0161987
692.521	0.0160666
692.599	0.0161145
692.677	0.0161803
692.755	0.0162077
692.833	0.0161142
692.911	0.0159204
692.989	0.0161240
693.067	0.0161449
693.146	0.0162202
693.224	0.0161472
693.302	0.0161980
693.380	0.0162331
693.458	0.0161538
693.536	0.0162535
693.614	0.0162559
693.692	0.0162805
693.771	0.0162891
693.849	0.0163406
693.927	0.0164113
694.005	0.0163187
694.083	0.0163747
694.161	0.0162646
694.239	0.0162418
694.317	0.0163160
694.396	0.0162930
694.474	0.0164811
694.552	0.0163876
694.630	0.0162964
694.708	0.0163026
694.786	0.0163882
694.864	0.0163084
694.942	0.0162067
695.021	0.0165233
695.099	0.0162157
695.177	0.0164443
695.255	0.0164201
695.333	0.0163892
695.411	0.0163385
695.489	0.0164626
695.567	0.0164959
695.646	0.0164896
695.724	0.0164101
695.802	0.0165154
695.880	0.0164510
695.958	0.0164317
696.036	0.0164717
696.114	0.0163921
696.192	0.0164494
696.271	0.0164317
696.349	0.0164514
696.427	0.0166095
696.505	0.0165003
696.583	0.0163720
696.661	0.0164668
696.739	0.0163755
696.817	0.0163296
696.896	0.0163398
696.974	0.0163633
697.052	0.0164439
697.130	0.0164254
697.208	0.0164112
697.286	0.0164756
697.364	0.0163835
697.442	0.0163950
697.521	0.0163431
697.599	0.0164136
697.677	0.0162596
697.755	0.0164036
697.833	0.0164630
697.911	0.0164787
697.989	0.0166812
698.067	0.0164647
698.146	0.0164828
698.224	0.0165009
698.302	0.0165423
698.380	0.0164986
698.458	0.0165031
698.536	0.0164679
698.614	0.0165061
698.692	0.0165382
698.771	0.0164741
698.849	0.0164100
698.927	0.0164559
699.005	0.0164620
699.083	0.0163602
699.161	0.0163631
699.239	0.0164190
699.317	0.0164182
699.396	0.0162688
699.474	0.0164151
699.552	0.0164263
699.630	0.0163587
699.708	0.0163428
699.786	0.0163084
699.864	0.0164405
699.942	0.0165184
700.021	0.0162612
700.099	0.0163207
700.177	0.0163884
700.255	0.0162493
700.333	0.0163432
700.411	0.0163214
700.489	0.0162446
700.567	0.0161917
700.646	0.0161097
700.724	0.0159728
700.802	0.0159800
700.880	0.0160646
700.958	0.0159854
701.036	0.0160018
701.114	0.0159349
701.192	0.0160109
701.271	0.0161398
701.349	0.0162047
701.427	0.0159248
701.505	0.0160283
701.583	0.0160110
701.661	0.0160151
701.739	0.0160086
701.817	0.0159840
701.896	0.0160631
701.974	0.0160902
702.052	0.0159418
702.130	0.0159852
702.208	0.0161215
702.286	0.0161010
702.364	0.0159912
702.442	0.0160709
702.521	0.0159798
702.599	0.0161092
702.677	0.0159932
702.755	0.0161594
702.833	0.0159811
702.911	0.0157948
702.989	0.0160284
703.067	0.0159793
703.146	0.0160049
703.224	0.0160211
703.302	0.0159203
703.380	0.0158907
703.458	0.0158163
703.536	0.0159056
703.614	0.0159811
703.692	0.0158752
703.771	0.0160125
703.849	0.0158894
703.927	0.0160319
704.005	0.0160754
704.083	0.0158654
704.161	0.0157894
704.239	0.0159634
704.317	0.0159484
704.396	0.0158826
704.474	0.0158264
704.552	0.0159216
704.630	0.0158593
704.708	0.0158065
704.786	0.0159507
704.864	0.0160233
704.942	0.0158516
705.021	0.0158470
705.099	0.0160278
705.177	0.0160163
705.255	0.0161095
705.333	0.0160294
705.411	0.0160231
705.489	0.0159451
705.567	0.0160500
705.646	0.0161818
705.724	0.0162746
705.802	0.0162162
705.880	0.0162708
705.958	0.0161896
706.036	0.0162895
706.114	0.0162537
706.192	0.0162195
706.271	0.0163261
706.349	0.0160613
706.427	0.0161478
706.505	0.0161764
706.583	0.0160945
706.661	0.0159724
706.739	0.0160274
706.817	0.0159009
706.896	0.0160322
706.974	0.0160302
707.052	0.0159947
707.130	0.0159589
707.208	0.0161514
707.286	0.0159016
707.364	0.0159257
707.442	0.0159538
707.521	0.0161951
707.599	0.0160728
707.677	0.0161427
707.755	0.0161316
707.833	0.0162415
707.911	0.0163927
707.989	0.0162540
708.067	0.0164579
708.146	0.0164269
708.224	0.0163229
708.302	0.0165051
708.380	0.0166184
708.458	0.0166850
708.536	0.0165845
708.614	0.0166919
708.692	0.0166756
708.771	0.0166924
708.849	0.0167958
708.927	0.0167899
709.005	0.0168677
709.083	0.0169217
709.161	0.0168540
709.239	0.0168259
709.317	0.0169247
709.396	0.0171305
709.474	0.0171298
709.552	0.0170063
709.630	0.0171362
709.708	0.0170818
709.786	0.0171714
709.864	0.0171288
709.942	0.0172335
710.021	0.0171358
710.099	0.0170544
710.177	0.0171841
710.255	0.0171730
710.333	0.0171321
710.411	0.0171819
710.489	0.0171313
710.567	0.0170600
710.646	0.0170387
710.724	0.0169944
710.802	0.0169604
710.880	0.0168980
710.958	0.0167456
711.036	0.0168445
711.114	0.0169570
711.192	0.0168964
711.271	0.0168447
711.349	0.0167924
711.427	0.0167587
711.505	0.0168034
711.583	0.0167673
711.661	0.0167183
711.739	0.0168013
711.817	0.0168568
711.896	0.0166925
711.974	0.0167643
712.052	0.0166306
712.130	0.0165858
712.208	0.0165279
712.286	0.0165671
712.364	0.0164785
712.442	0.0164276
712.521	0.0164458
712.599	0.0162730
712.677	0.0162436
712.755	0.0161773
712.833	0.0159836
712.911	0.0161459
712.989	0.0161646
713.067	0.0162257
713.146	0.0161145
713.224	0.0160457
713.302	0.0160307
713.380	0.0160294
713.458	0.0162642
713.536	0.0160523
713.614	0.0160905
713.692	0.0161311
713.771	0.0161106
713.849	0.0163146
713.927	0.0160960
714.005	0.0161192
714.083	0.0159103
714.161	0.0161034
714.239	0.0161263
714.317	0.0160603
714.396	0.0159283
714.474	0.0159637
714.552	0.0160287
714.630	0.0158869
714.708	0.0159976
714.786	0.0160325
714.864	0.0159222
714.942	0.0159594
715.021	0.0159978
715.099	0.0158905
715.177	0.0160548
715.255	0.0161056
715.333	0.0161732
715.411	0.0160941
715.489	0.0162425
715.567	0.0161680
715.646	0.0161935
715.724	0.0163089
715.802	0.0163009
715.880	0.0163035
715.958	0.0162881
716.036	0.0162436
716.114	0.0162154
716.192	0.0163114
716.271	0.0162933
716.349	0.0163043
716.427	0.0163189
716.505	0.0162358
716.583	0.0162927
716.661	0.0161626
716.739	0.0162724
716.817	0.0162894
716.896	0.0162756
716.974	0.0163909
717.052	0.0163418
717.130	0.0162999
717.208	0.0163212
717.286	0.0164719
717.364	0.0162923
717.442	0.0165166
717.521	0.0164650
717.599	0.0165824
717.677	0.0163258
717.755	0.0164682
717.833	0.0163931
717.911	0.0163306
717.989	0.0164272
718.067	0.0165881
718.146	0.0166051
718.224	0.0165594
718.302	0.0166629
718.380	0.0164626
718.458	0.0165854
718.536	0.0166890
718.614	0.0166147
718.692	0.0167303
718.771	0.0168301
718.849	0.0168024
718.927	0.0168098
719.005	0.0168124
719.083	0.0168288
719.161	0.0167713
719.239	0.0167554
719.317	0.0167284
719.396	0.0167698
719.474	0.0168515
719.552	0.0166685
719.630	0.0166203
719.708	0.0166837
719.786	0.0166007
719.864	0.0166099
719.942	0.0166542
720.021	0.0165885
720.099	0.0165684
720.177	0.0166241
720.255	0.0165010
720.333	0.0165618
720.411	0.0166035
720.489	0.0165893
720.567	0.0165824
720.646	0.0164791
720.724	0.0165479
720.802	0.0165008
720.880	0.0164796
720.958	0.0164649
721.036	0.0164740
721.114	0.0165174
721.192	0.0165712
721.271	0.0163700
721.349	0.0164673
721.427	0.0163921
721.505	0.0164948
721.583	0.0165181
721.661	0.0164379
721.739	0.0165145
721.817	0.0163983
721.896	0.0165977
721.974	0.0164696
722.052	0.0164179
722.130	0.0163634
722.208	0.0163229
722.286	0.0164291
722.364	0.0163329
722.442	0.0163000
722.521	0.0160848
722.599	0.0162039
722.677	0.0160262
722.755	0.0162223
722.833	0.0161721
722.911	0.0161228
722.989	0.0159171
723.067	0.0158591
723.146	0.0159313
723.224	0.0158775
723.302	0.0158106
723.380	0.0158910
723.458	0.0160253
723.536	0.0159052
723.614	0.0158038
723.692	0.0157084
723.771	0.0157784
723.849	0.0158371
723.927	0.0157394
724.005	0.0158366
724.083	0.0157785
724.161	0.0156992
724.239	0.0158219
724.317	0.0158910
724.396	0.0157820
724.474	0.0157211
724.552	0.0158362
724.630	0.0157872
724.708	0.0158130
724.786	0.0159585
724.864	0.0158091
724.942	0.0158120
725.021	0.0158292
725.099	0.0157013
725.177	0.0158192
725.255	0.0158413
725.333	0.0157947
725.411	0.0158167
725.489	0.0157686
725.567	0.0157324
725.646	0.0159325
725.724	0.0160159
725.802	0.0157774
725.880	0.0157275
725.958	0.0157908
726.036	0.0158604
726.114	0.0155990
726.192	0.0158035
726.271	0.0157794
726.349	0.0158553
726.427	0.0157348
726.505	0.0159197
726.583	0.0158791
726.661	0.0156512
726.739	0.0158185
726.817	0.0158183
726.896	0.0158183
726.974	0.0157716
727.052	0.0157148
727.130	0.0158799
727.208	0.0158864
727.286	0.0158547
727.364	0.0158586
727.442	0.0158207
727.521	0.0158533
727.599	0.0160066
727.677	0.0160742
727.755	0.0158123
727.833	0.0160325
727.911	0.0160707
727.989	0.0162071
728.067	0.0162025
728.146	0.0162407
728.224	0.0162647
728.302	0.0163342
728.380	0.0163135
728.458	0.0164132
728.536	0.0164002
728.614	0.0162178
728.692	0.0163491
728.771	0.0165001
728.849	0.0164479
728.927	0.0165738
729.005	0.0165048
729.083	0.0165603
729.161	0.0165535
729.239	0.0165488
729.317	0.0167249
729.396	0.0166798
729.474	0.0167640
729.552	0.0168271
729.630	0.0167845
729.708	0.0167920
729.786	0.0167999
729.864	0.0169373
729.942	0.0167606
730.021	0.0166903
730.099	0.0167916
730.177	0.0169988
730.255	0.0168459
730.333	0.0168182
730.411	0.0168674
730.489	0.0167548
730.567	0.0167142
730.646	0.0168134
730.724	0.0167928
730.802	0.0166655
730.880	0.0168046
730.958	0.0169873
731.036	0.0167275
731.114	0.0167306
731.192	0.0166824
731.271	0.0166146
731.349	0.0167770
731.427	0.0166080
731.505	0.0164855
731.583	0.0165703
731.661	0.0166674
731.739	0.0165044
731.817	0.0165211
731.896	0.0167033
731.974	0.0165496
732.052	0.0166418
732.130	0.0166782
732.208	0.0165434
732.286	0.0164775
732.364	0.0165585
732.442	0.0166871
732.521	0.0167097
732.599	0.0166319
732.677	0.0166341
732.755	0.0166640
732.833	0.0167171
732.911	0.0165771
732.989	0.0166470
733.067	0.0164970
733.146	0.0166314
733.224	0.0166456
733.302	0.0166806
733.380	0.0164911
733.458	0.0165686
733.536	0.0166703
733.614	0.0166144
733.692	0.0165479
733.771	0.0166048
733.849	0.0164919
733.927	0.0167419
734.005	0.0164278
734.083	0.0165434
734.161	0.0165321
734.239	0.0164972
734.317	0.0166184
734.396	0.0165717
734.474	0.0163091
734.552	0.0164081
734.630	0.0163538
734.708	0.0163646
734.786	0.0163397
734.864	0.0161696
734.942	0.0162500
735.021	0.0163055
735.099	0.0161414
735.177	0.0163220
735.255	0.0162425
735.333	0.0160824
735.411	0.0161764
735.489	0.0161436
735.567	0.0160670
735.646	0.0160232
735.724	0.0160674
735.802	0.0159475
735.880	0.0159934
735.958	0.0161150
736.036	0.0160516
736.114	0.0158646
736.192	0.0160121
736.271	0.0158032
736.349	0.0158936
736.427	0.0159729
736.505	0.0158817
736.583	0.0158499
736.661	0.0159412
736.739	0.0158340
736.817	0.0159076
736.896	0.0159155
736.974	0.0159479
737.052	0.0159793
737.130	0.0160957
737.208	0.0160311
737.286	0.0160789
737.364	0.0160829
737.442	0.0160872
737.521	0.0161265
737.599	0.0162888
737.677	0.0162945
737.755	0.0162627
737.833	0.0162303
737.911	0.0163286
737.989	0.0162145
738.067	0.0161456
738.146	0.0163685
738.224	0.0162151
738.302	0.0163699
738.380	0.0164378
738.458	0.0164691
738.536	0.0163919
738.614	0.0163781
738.692	0.0164691
738.771	0.0165935
738.849	0.0166424
738.927	0.0167084
739.005	0.0167709
739.083	0.0168757
739.161	0.0168320
739.239	0.0168120
739.317	0.0167483
739.396	0.0168736
739.474	0.0169080
739.552	0.0168974
739.630	0.0168064
739.708	0.0169631
739.786	0.0167291
739.864	0.0167361
739.942	0.0168388
740.021	0.0167966
740.099	0.0168040
740.177	0.0168084
740.255	0.0167932
740.333	0.0166509
740.411	0.0166645
740.489	0.0166869
740.567	0.0166838
740.646	0.0168237
740.724	0.0166407
740.802	0.0166021
740.880	0.0168185
740.958	0.0168938
741.036	0.0166903
741.114	0.0167699
741.192	0.0166260
741.271	0.0165369
741.349	0.0166695
741.427	0.0168132
741.505	0.0166760
741.583	0.0168641
741.661	0.0165760
741.739	0.0164560
741.817	0.0164391
741.896	0.0165326
741.974	0.0165109
742.052	0.0164646
742.130	0.0163766
742.208	0.0163216
742.286	0.0162822
742.364	0.0164401
742.442	0.0164375
742.521	0.0163014
742.599	0.0163534
742.677	0.0164529
742.755	0.0162914
742.833	0.0163947
742.911	0.0163364
742.989	0.0162550
743.067	0.0162212
743.146	0.0163032
743.224	0.0162122
743.302	0.0162242
743.380	0.0163766
743.458	0.0162595
743.536	0.0162402
743.614	0.0162748
743.692	0.0161794
743.771	0.0161382
743.849	0.0159991
743.927	0.0160976
744.005	0.0160205
744.083	0.0160261
744.161	0.0160785
744.239	0.0159184
744.317	0.0159223
744.396	0.0159895
744.474	0.0158914
744.552	0.0158852
744.630	0.0160632
744.708	0.0158352
744.786	0.0159692
744.864	0.0159125
744.942	0.0158366
745.021	0.0158566
745.099	0.0159327
745.177	0.0158610
745.255	0.0157793
745.333	0.0158598
745.411	0.0158262
745.489	0.0157951
745.567	0.0157001
745.646	0.0158340
745.724	0.0158392
745.802	0.0156850
745.880	0.0157749
745.958	0.0158321
746.036	0.0158853
746.114	0.0157453
746.192	0.0158670
746.271	0.0158829
746.349	0.0158497
746.427	0.0159068
746.505	0.0159014
746.583	0.0159461
746.661	0.0159888
746.739	0.0159319
746.817	0.0160339
746.896	0.0159815
746.974	0.0159620
747.052	0.0160388
747.130	0.0161769
747.208	0.0160929
747.286	0.0161862
747.364	0.0160367
747.442	0.0161591
747.521	0.0161817
747.599	0.0160897
747.677	0.0162587
747.755	0.0162070
747.833	0.0163905
747.911	0.0164192
747.989	0.0163242
748.067	0.0162817
748.146	0.0162878
748.224	0.0163991
748.302	0.0162462
748.380	0.0162407
748.458	0.0161222
748.536	0.0162447
748.614	0.0163126
748.692	0.0164138
748.771	0.0162255
748.849	0.0164201
748.927	0.0161473
749.005	0.0162926
749.083	0.0162948
749.161	0.0161865
749.239	0.0161443
749.317	0.0161416
749.396	0.0162141
749.474	0.0162298
749.552	0.0162694
749.630	0.0162392
749.708	0.0161362
749.786	0.0163905
749.864	0.0162877
749.942	0.0162581
750.021	0.0163205
750.099	0.0163129
750.177	0.0160657
750.255	0.0162804
750.333	0.0161385
750.411	0.0162038
750.489	0.0162665
750.567	0.0159518
750.646	0.0160558
750.724	0.0161821
750.802	0.0160553
750.880	0.0161269
750.958	0.0160749
751.036	0.0160256
751.114	0.0159969
751.192	0.0161661
751.271	0.0161779
751.349	0.0159946
751.427	0.0159115
751.505	0.0160408
751.583	0.0160182
751.661	0.0160255
751.739	0.0161755
751.817	0.0160740
751.896	0.0159512
751.974	0.0160637
752.052	0.0161619
752.130	0.0162988
752.208	0.0163480
752.286	0.0162954
752.364	0.0162502
752.442	0.0162766
752.521	0.0164515
752.599	0.0162906
752.677	0.0163545
752.755	0.0165257
752.833	0.0162551
752.911	0.0164397
752.989	0.0164584
753.067	0.0163423
753.146	0.0164886
753.224	0.0165124
753.302	0.0163326
753.380	0.0165744
753.458	0.0164333
753.536	0.0163164
753.614	0.0164890
753.692	0.0166748
753.771	0.0166626
753.849	0.0165535
753.927	0.0164903
754.005	0.0165575
754.083	0.0165374
754.161	0.0166138
754.239	0.0165244
754.317	0.0165501
754.396	0.0165862
754.474	0.0164570
754.552	0.0165261
754.630	0.0165248
754.708	0.0164286
754.786	0.0164640
754.864	0.0163915
754.942	0.0165440
755.021	0.0164624
755.099	0.0164668
755.177	0.0163286
755.255	0.0164336
755.333	0.0164961
755.411	0.0163145
755.489	0.0162831
755.567	0.0164497
755.646	0.0163996
755.724	0.0164101
755.802	0.0163831
755.880	0.0163893
755.958	0.0162784
756.036	0.0163775
756.114	0.0161811
756.192	0.0161576
756.271	0.0162323
756.349	0.0160683
756.427	0.0161039
756.505	0.0160477
756.583	0.0159710
756.661	0.0161126
756.739	0.0159344
756.817	0.0159581
756.896	0.0158749
756.974	0.0160281
757.052	0.0159132
757.130	0.0158881
757.208	0.0158759
757.286	0.0159518
757.364	0.0159961
757.442	0.0158845
757.521	0.0159043
757.599	0.0157323
757.677	0.0157959
757.755	0.0158107
757.833	0.0158856
757.911	0.0157589
757.989	0.0155542
758.067	0.0158380
758.146	0.0157426
758.224	0.0156894
758.302	0.0157759
758.380	0.0156811
758.458	0.0157541
758.536	0.0157070
758.614	0.0156030
758.692	0.0156651
758.771	0.0157147
758.849	0.0158201
758.927	0.0155671
759.005	0.0157780
759.083	0.0159423
759.161	0.0156752
759.239	0.0157209
759.317	0.0157925
759.396	0.0159506
759.474	0.0159653
759.552	0.0159351
759.630	0.0159552
759.708	0.0161391
759.786	0.0160639
759.864	0.0160402
759.942	0.0161655
760.021	0.0160802
760.099	0.0161486
760.177	0.0161418
760.255	0.0163937
760.333	0.0163335
760.411	0.0162421
760.489	0.0162191
760.567	0.0163909
760.646	0.0163625
760.724	0.0162999
760.802	0.0163197
760.880	0.0164925
760.958	0.0164750
761.036	0.0164793
761.114	0.0164343
761.192	0.0165570
761.271	0.0165253
761.349	0.0163670
761.427	0.0164838
761.505	0.0164378
761.583	0.0165112
761.661	0.0166239
761.739	0.0164986
761.817	0.0165020
761.896	0.0167642
761.974	0.0166447
762.052	0.0165319
762.130	0.0165899
762.208	0.0166662
762.286	0.0166342
762.364	0.0164924
762.442	0.0165966
762.521	0.0165510
762.599	0.0165398
762.677	0.0165184
762.755	0.0165059
762.833	0.0165662
762.911	0.0164011
762.989	0.0164462
763.067	0.0164719
763.146	0.0163781
763.224	0.0163960
763.302	0.0164659
763.380	0.0162608
763.458	0.0163200
763.536	0.0163873
763.614	0.0163911
763.692	0.0162687
763.771	0.0162292
763.849	0.0162511
763.927	0.0161037
764.005	0.0160300
764.083	0.0161944
764.161	0.0161205
764.239	0.0160407
764.317	0.0160125
764.396	0.0158949
764.474	0.0160242
764.552	0.0160626
764.630	0.0158965
764.708	0.0158608
764.786	0.0159593
764.864	0.0159011
764.942	0.0157480
765.021	0.0157325
765.099	0.0159135
765.177	0.0157529
765.255	0.0156490
765.333	0.0154974
765.411	0.0156841
765.489	0.0156873
765.567	0.0156332
765.646	0.0155972
765.724	0.0155967
765.802	0.0157069
765.880	0.0155723
765.958	0.0155211
766.036	0.0155928
766.114	0.0156080
766.192	0.0156581
766.271	0.0156001
766.349	0.0155904
766.427	0.0156914
766.505	0.0156719
766.583	0.0154865
766.661	0.0156122
766.739	0.0156744
766.817	0.0156992
766.896	0.0158872
766.974	0.0158894
767.052	0.0156361
767.130	0.0158505
767.208	0.0158150
767.286	0.0158233
767.364	0.0159450
767.442	0.0159187
767.521	0.0158136
767.599	0.0159093
767.677	0.0159328
767.755	0.0160270
767.833	0.0160514
767.911	0.0159296
767.989	0.0159378
768.067	0.0161218
768.146	0.0160637
768.224	0.0160660
768.302	0.0160686
768.380	0.0161385
768.458	0.0161895
768.536	0.0161976
768.614	0.0160950
768.692	0.0161885
768.771	0.0161075
768.849	0.0161987
768.927	0.0162320
769.005	0.0161726
769.083	0.0163632
769.161	0.0162858
769.239	0.0163846
769.317	0.0162960
769.396	0.0162431
769.474	0.0162937
769.552	0.0162576
769.630	0.0163771
769.708	0.0163200
769.786	0.0163777
769.864	0.0164233
769.942	0.0164596
770.021	0.0163756
770.099	0.0164155
770.177	0.0164541
770.255	0.0164030
770.333	0.0165530
770.411	0.0166219
770.489	0.0165367
770.567	0.0165259
770.646	0.0164999
770.724	0.0165848
770.802	0.0165573
770.880	0.0166496
770.958	0.0167506
771.036	0.0166176
771.114	0.0165766
771.192	0.0166047
771.271	0.0166647
771.349	0.0166916
771.427	0.0166307
771.505	0.0166169
771.583	0.0166431
771.661	0.0165907
771.739	0.0166679
771.817	0.0166150
771.896	0.0164768
771.974	0.0165807
772.052	0.0165387
772.130	0.0166618
772.208	0.0166894
772.286	0.0166020
772.364	0.0166338
772.442	0.0165067
772.521	0.0166022
772.599	0.0165029
772.677	0.0165893
772.755	0.0164014
772.833	0.0166499
772.911	0.0165413
772.989	0.0165889
773.067	0.0164830
773.146	0.0163988
773.224	0.0164630
773.302	0.0164584
773.380	0.0164693
773.458	0.0163660
773.536	0.0164396
773.614	0.0163065
773.692	0.0162025
773.771	0.0164433
773.849	0.0163621
773.927	0.0162865
774.005	0.0162365
774.083	0.0163661
774.161	0.0163457
774.239	0.0165449
774.317	0.0163235
774.396	0.0162408
774.474	0.0163913
774.552	0.0163871
774.630	0.0162981
774.708	0.0162146
774.786	0.0162841
774.864	0.0163354
774.942	0.0163637
775.021	0.0164095
775.099	0.0163012
775.177	0.0163000
775.255	0.0162829
775.333	0.0162234
775.411	0.0163577
775.489	0.0163289
775.567	0.0164091
775.646	0.0163578
775.724	0.0163425
775.802	0.0162813
775.880	0.0164436
775.958	0.0163403
776.036	0.0163252
776.114	0.0163509
776.192	0.0163488
776.271	0.0162939
776.349	0.0162787
776.427	0.0165424
776.505	0.0163646
776.583	0.0163107
776.661	0.0164186
776.739	0.0164477
776.817	0.0164831
776.896	0.0165936
776.974	0.0164288
777.052	0.0163934
777.130	0.0164644
777.208	0.0165494
777.286	0.0164410
777.364	0.0164871
777.442	0.0165535
777.521	0.0165132
777.599	0.0165363
777.677	0.0165964
777.755	0.0165228
777.833	0.0165084
777.911	0.0165943
777.989	0.0166260
778.067	0.0165900
778.146	0.0165343
778.224	0.0166177
778.302	0.0166177
778.380	0.0165234
778.458	0.0164453
778.536	0.0165984
778.614	0.0165762
778.692	0.0165040
778.771	0.0166014
778.849	0.0165880
778.927	0.0166277
779.005	0.0164771
779.083	0.0164938
779.161	0.0164143
779.239	0.0165308
779.317	0.0164493
779.396	0.0163852
779.474	0.0164835
779.552	0.0164300
779.630	0.0164702
779.708	0.0164467
779.786	0.0164534
779.864	0.0164314
779.942	0.0164019
780.021	0.0162586
780.099	0.0161267
780.177	0.0162319
780.255	0.0163673
780.333	0.0162097
780.411	0.0162894
780.489	0.0162356
780.567	0.0163196
780.646	0.0162346
780.724	0.0162509
780.802	0.0162099
780.880	0.0162395
780.958	0.0162211
781.036	0.0159824
781.114	0.0160748
781.192	0.0162129
781.271	0.0161602
781.349	0.0162075
781.427	0.0161668
781.505	0.0162183
781.583	0.0161244
781.661	0.0160450
781.739	0.0161325
781.817	0.0161411
781.896	0.0160967
781.974	0.0162093
782.052	0.0161109
782.130	0.0162344
782.208	0.0162457
782.286	0.0161680
782.364	0.0161411
782.442	0.0161190
782.521	0.0161721
782.599	0.0162343
782.677	0.0160618
782.755	0.0160060
782.833	0.0161414
782.911	0.0159901
782.989	0.0159604
783.067	0.0159403
783.146	0.0158381
783.224	0.0160043
783.302	0.0159724
783.380	0.0158646
783.458	0.0158022
783.536	0.0159303
783.614	0.0158900
783.692	0.0158397
783.771	0.0158492
783.849	0.0159759
783.927	0.0158925
784.005	0.0160305
784.083	0.0158875
784.161	0.0158384
784.239	0.0159735
784.317	0.0158215
784.396	0.0160183
784.474	0.0159149
784.552	0.0158615
784.630	0.0159478
784.708	0.0159285
784.786	0.0158681
784.864	0.0158332
784.942	0.0157962
785.021	0.0159521
785.099	0.0159055
785.177	0.0157792
785.255	0.0159087
785.333	0.0159621
785.411	0.0159499
785.489	0.0159430
785.567	0.0159823
785.646	0.0158561
785.724	0.0159771
785.802	0.0160707
785.880	0.0159622
785.958	0.0161560
786.036	0.0160387
786.114	0.0158173
786.192	0.0160091
786.271	0.0160669
786.349	0.0162403
786.427	0.0159926
786.505	0.0161364
786.583	0.0161536
786.661	0.0160558
786.739	0.0161298
786.817	0.0160801
786.896	0.0160841
786.974	0.0162470
787.052	0.0161033
787.130	0.0161878
787.208	0.0161192
787.286	0.0161596
787.364	0.0161528
787.442	0.0161115
787.521	0.0161156
787.599	0.0163048
787.677	0.0161726
787.755	0.0162254
787.833	0.0160910
787.911	0.0161726
787.989	0.0162526
788.067	0.0161698
788.146	0.0163499
788.224	0.0164889
788.302	0.0162180
788.380	0.0162382
788.458	0.0163404
788.536	0.0163220
788.614	0.0161772
788.692	0.0164906
788.771	0.0164068
788.849	0.0162569
788.927	0.0162585
789.005	0.0161710
789.083	0.0162788
789.161	0.0164143
789.239	0.0162912
789.317	0.0161790
789.396	0.0163084
789.474	0.0163678
789.552	0.0162962
789.630	0.0162685
789.708	0.0162994
789.786	0.0161832
789.864	0.0161671
789.942	0.0162370
790.021	0.0162357
790.099	0.0161594
790.177	0.0161407
790.255	0.0162996
790.333	0.0162626
790.411	0.0161922
790.489	0.0162176
790.567	0.0163295
790.646	0.0163107
790.724	0.0160410
790.802	0.0162543
790.880	0.0162681
790.958	0.0162254
791.036	0.0161464
791.114	0.0161061
791.192	0.0162328
791.271	0.0162302
791.349	0.0163080
791.427	0.0162947
791.505	0.0162628
791.583	0.0161543
791.661	0.0163325
791.739	0.0162102
791.817	0.0162390
791.896	0.0163583
791.974	0.0162756
792.052	0.0162959
792.130	0.0163144
792.208	0.0162868
792.286	0.0163095
792.364	0.0163171
792.442	0.0163229
792.521	0.0162207
792.599	0.0162280
792.677	0.0162761
792.755	0.0163357
792.833	0.0163767
792.911	0.0162819
792.989	0.0162801
793.067	0.0162349
793.146	0.0163456
793.224	0.0162991
793.302	0.0161680
793.380	0.0162884
793.458	0.0163596
793.536	0.0164369
793.614	0.0162739
793.692	0.0162367
793.771	0.0162729
793.849	0.0163324
793.927	0.0162691
794.005	0.0164727
794.083	0.0164240
794.161	0.0162175
794.239	0.0164561
794.317	0.0164358
794.396	0.0164047
794.474	0.0165018
794.552	0.0163651
794.630	0.0164423
794.708	0.0164989
794.786	0.0165903
794.864	0.0165582
794.942	0.0165071
795.021	0.0165511
795.099	0.0165095
795.177	0.0165455
795.255	0.0165535
795.333	0.0165295
795.411	0.0165816
795.489	0.0166163
795.567	0.0166499
795.646	0.0165466
795.724	0.0164822
795.802	0.0165505
795.880	0.0165797
795.958	0.0166354
796.036	0.0165567
796.114	0.0166232
796.192	0.0166108
796.271	0.0166482
796.349	0.0167043
796.427	0.0166079
796.505	0.0166193
796.583	0.0166832
796.661	0.0167131
796.739	0.0167513
796.817	0.0168526
796.896	0.0166518
796.974	0.0167702
797.052	0.0167422
797.130	0.0166145
797.208	0.0166476
797.286	0.0166807
797.364	0.0165681
797.442	0.0164646
797.521	0.0167273
797.599	0.0166778
797.677	0.0166560
797.755	0.0166252
797.833	0.0165605
797.911	0.0166595
797.989	0.0166378
798.067	0.0167834
798.146	0.0167352
798.224	0.0166457
798.302	0.0166040
798.380	0.0165901
798.458	0.0165620
798.536	0.0166865
798.614	0.0167971
798.692	0.0165621
798.771	0.0166045
798.849	0.0166055
798.927	0.0166263
799.005	0.0165731
799.083	0.0165140
799.161	0.0167612
799.239	0.0167065
799.317	0.0166528
799.396	0.0166071
799.474	0.0164664
799.552	0.0165159
799.630	0.0166100
799.708	0.0165967
799.786	0.0165627
799.864	0.0165288
799.942	0.0163359
800.021	0.0164803
800.099	0.0163725
800.177	0.0162363
800.255	0.0164673
800.333	0.0164905
800.411	0.0163495
800.489	0.0161992
800.567	0.0163718
800.646	0.0162518
800.724	0.0163796
800.802	0.0163308
800.880	0.0164320
800.958	0.0163419
801.036	0.0163419
801.114	0.0163748
801.192	0.0163095
801.271	0.0163356
801.349	0.0162984
801.427	0.0163290
801.505	0.0163355
801.583	0.0162823
801.661	0.0162477
801.739	0.0164763
801.817	0.0163001
801.896	0.0163379
801.974	0.0163447
802.052	0.0163425
802.130	0.0163992
802.208	0.0164327
802.286	0.0164017
802.364	0.0163724
802.442	0.0164090
802.521	0.0164315
802.599	0.0163205
802.677	0.0164796
802.755	0.0165434
802.833	0.0164634
802.911	0.0164778
802.989	0.0164613
803.067	0.0165106
803.146	0.0163611
803.224	0.0164297
803.302	0.0165287
803.380	0.0163516
803.458	0.0163529
803.536	0.0163116
803.614	0.0165133
803.692	0.0164533
803.771	0.0164478
803.849	0.0164789
803.927	0.0163685
804.005	0.0163511
804.083	0.0165204
804.161	0.0165053
804.239	0.0164726
804.317	0.0165654
804.396	0.0165643
804.474	0.0165083
804.552	0.0165848
804.630	0.0164165
804.708	0.0165168
804.786	0.0165852
804.864	0.0164732
804.942	0.0163723
805.021	0.0165465
805.099	0.0166829
805.177	0.0165604
805.255	0.0165275
805.333	0.0165740
805.411	0.0165187
805.489	0.0165732
805.567	0.0165540
805.646	0.0165230
805.724	0.0164475
805.802	0.0165224
805.880	0.0165103
805.958	0.0164896
806.036	0.0165126
806.114	0.0164221
806.192	0.0163904
806.271	0.0163381
806.349	0.0163903
806.427	0.0163429
806.505	0.0162334
806.583	0.0162126
806.661	0.0160805
806.739	0.0161543
806.817	0.0161657
806.896	0.0162317
806.974	0.0161438
807.052	0.0161143
807.130	0.0160177
807.208	0.0158805
807.286	0.0160407
807.364	0.0160130
807.442	0.0158826
807.521	0.0159604
807.599	0.0160069
807.677	0.0158975
807.755	0.0159782
807.833	0.0158811
807.911	0.0157053
807.989	0.0158685
808.067	0.0156794
808.146	0.0156320
808.224	0.0157470
808.302	0.0157267
808.380	0.0156672
808.458	0.0157002
808.536	0.0156620
808.614	0.0156348
808.692	0.0155125
808.771	0.0155292
808.849	0.0157803
808.927	0.0156858
809.005	0.0156194
809.083	0.0157234
809.161	0.0156528
809.239	0.0156949
809.317	0.0156914
809.396	0.0155183
809.474	0.0157591
809.552	0.0157610
809.630	0.0156072
809.708	0.0156227
809.786	0.0157806
809.864	0.0156102
809.942	0.0158445
810.021	0.0157951
810.099	0.0157506
810.177	0.0157933
810.255	0.0159016
810.333	0.0159074
810.411	0.0158843
810.489	0.0160253
810.567	0.0158737
810.646	0.0158093
810.724	0.0159013
810.802	0.0158678
810.880	0.0159441
810.958	0.0161733
811.036	0.0160640
811.114	0.0159751
811.192	0.0161978
811.271	0.0161060
811.349	0.0162068
811.427	0.0162956
811.505	0.0162561
811.583	0.0162379
811.661	0.0164319
811.739	0.0163325
811.817	0.0163961
811.896	0.0165807
811.974	0.0164734
812.052	0.0164912
812.130	0.0164279
812.208	0.0165445
812.286	0.0165547
812.364	0.0167302
812.442	0.0165963
812.521	0.0165637
812.599	0.0166811
812.677	0.0166773
812.755	0.0166704
812.833	0.0167629
812.911	0.0168542
812.989	0.0168098
813.067	0.0168565
813.146	0.0169540
813.224	0.0168265
813.302	0.0168279
813.380	0.0168816
813.458	0.0167091
813.536	0.0169125
813.614	0.0168870
813.692	0.0169867
813.771	0.0168592
813.849	0.0167361
813.927	0.0169257
814.005	0.0169785
814.083	0.0168628
814.161	0.0168314
814.239	0.0167545
814.317	0.0167330
814.396	0.0166193
814.474	0.0166647
814.552	0.0165109
814.630	0.0168050
814.708	0.0167451
814.786	0.0165797
814.864	0.0166200
814.942	0.0165897
815.021	0.0164520
815.099	0.0162664
815.177	0.0164743
815.255	0.0164301
815.333	0.0163774
815.411	0.0165396
815.489	0.0164012
815.567	0.0162743
815.646	0.0162289
815.724	0.0160689
815.802	0.0163637
815.880	0.0162077
815.958	0.0160825
816.036	0.0161167
816.114	0.0160568
816.192	0.0160143
816.271	0.0159389
816.349	0.0159329
816.427	0.0159098
816.505	0.0158572
816.583	0.0158675
816.661	0.0157082
816.739	0.0157100
816.817	0.0156690
816.896	0.0157069
816.974	0.0157823
817.052	0.0156096
817.130	0.0154861
817.208	0.0155918
817.286	0.0155392
817.364	0.0154571
817.442	0.0155177
817.521	0.0155235
817.599	0.0154740
817.677	0.0156301
817.755	0.0155318
817.833	0.0154258
817.911	0.0155950
817.989	0.0154472
818.067	0.0155552
818.146	0.0154523
818.224	0.0153953
818.302	0.0156047
818.380	0.0155602
818.458	0.0156987
818.536	0.0156560
818.614	0.0156493
818.692	0.0157211
818.771	0.0157990
818.849	0.0156976
818.927	0.0158094
819.005	0.0157285
819.083	0.0159410
819.161	0.0159444
819.239	0.0159772
819.317	0.0160825
819.396	0.0162091
819.474	0.0162131
819.552	0.0162949
819.630	0.0163496
819.708	0.0164513
819.786	0.0165993
819.864	0.0165982
819.942	0.0166078
820.021	0.0168439
820.099	0.0167227
820.177	0.0168889
820.255	0.0167899
820.333	0.0169976
820.411	0.0171526
820.489	0.0171487
820.567	0.0170303
820.646	0.0171725
820.724	0.0171479
820.802	0.0173118
820.880	0.0172027
820.958	0.0173991
821.036	0.0173148
821.114	0.0172882
821.192	0.0174098
821.271	0.0173742
821.349	0.0173471
821.427	0.0173457
821.505	0.0173579
821.583	0.0175130
821.661	0.0172761
821.739	0.0174525
821.817	0.0175176
821.896	0.0174129
821.974	0.0173523
822.052	0.0174129
822.130	0.0174159
822.208	0.0173638
822.286	0.0172813
822.364	0.0172865
822.442	0.0171875
822.521	0.0172301
822.599	0.0173165
822.677	0.0173315
822.755	0.0172362
822.833	0.0171219
822.911	0.0171261
822.989	0.0170320
823.067	0.0169563
823.146	0.0169133
823.224	0.0170473
823.302	0.0169199
823.380	0.0169370
823.458	0.0167245
823.536	0.0167785
823.614	0.0167247
823.692	0.0166259
823.771	0.0165421
823.849	0.0164676
823.927	0.0166025
824.005	0.0165283
824.083	0.0164248
824.161	0.0164596
824.239	0.0162045
824.317	0.0163065
824.396	0.0164596
824.474	0.0164065
824.552	0.0162762
824.630	0.0161801
824.708	0.0161319
824.786	0.0162101
824.864	0.0162067
824.942	0.0161063
825.021	0.0161042
825.099	0.0161844
825.177	0.0161502
825.255	0.0162719
825.333	0.0162053
825.411	0.0162418
825.489	0.0161933
825.567	0.0162062
825.646	0.0162331
825.724	0.0161576
825.802	0.0162068
825.880	0.0161845
825.958	0.0163266
826.036	0.0161786
826.114	0.0162184
826.192	0.0162335
826.271	0.0162275
826.349	0.0162887
826.427	0.0161671
826.505	0.0163052
826.583	0.0163011
826.661	0.0161753
826.739	0.0163921
826.817	0.0163758
826.896	0.0163385
826.974	0.0160679
827.052	0.0162492
827.130	0.0162856
827.208	0.0163083
827.286	0.0163252
827.364	0.0164668
827.442	0.0163098
827.521	0.0163508
827.599	0.0161046
827.677	0.0163240
827.755	0.0163133
827.833	0.0162924
827.911	0.0163166
827.989	0.0161364
828.067	0.0160661
828.146	0.0162508
828.224	0.0161674
828.302	0.0162350
828.380	0.0162553
828.458	0.0160972
828.536	0.0161688
828.614	0.0161140
828.692	0.0161477
828.771	0.0161472
828.849	0.0160247
828.927	0.0162027
829.005	0.0161208
829.083	0.0160684
829.161	0.0161478
829.239	0.0162540
829.317	0.0161332
829.396	0.0161992
829.474	0.0161308
829.552	0.0160477
829.630	0.0161485
829.708	0.0160688
829.786	0.0160767
829.864	0.0160081
829.942	0.0160807
830.021	0.0160480
830.099	0.0161196
830.177	0.0159525
830.255	0.0160414
830.333	0.0161929
830.411	0.0160744
830.489	0.0160683
830.567	0.0159627
830.646	0.0160659
830.724	0.0160320
830.802	0.0159719
830.880	0.0160234
830.958	0.0161058
831.036	0.0159328
831.114	0.0158801
831.192	0.0159866
831.271	0.0159645
831.349	0.0160882
831.427	0.0159661
831.505	0.0158993
831.583	0.0158848
831.661	0.0158747
831.739	0.0157993
831.817	0.0159032
831.896	0.0158878
831.974	0.0158388
832.052	0.0155862
832.130	0.0159240
832.208	0.0158622
832.286	0.0159142
832.364	0.0158789
832.442	0.0157426
832.521	0.0158683
832.599	0.0160270
832.677	0.0160045
832.755	0.0159207
832.833	0.0159437
832.911	0.0160193
832.989	0.0160023
833.067	0.0160027
833.146	0.0160896
833.224	0.0161711
833.302	0.0161378
833.380	0.0162199
833.458	0.0161745
833.536	0.0161178
833.614	0.0162532
833.692	0.0161797
833.771	0.0162765
833.849	0.0161843
833.927	0.0162554
834.005	0.0162798
834.083	0.0161418
834.161	0.0162572
834.239	0.0162132
834.317	0.0163268
834.396	0.0162811
834.474	0.0163331
834.552	0.0162489
834.630	0.0163122
834.708	0.0163231
834.786	0.0164603
834.864	0.0164608
834.942	0.0164354
835.021	0.0163159
835.099	0.0163862
835.177	0.0164546
835.255	0.0163659
835.333	0.0163542
835.411	0.0163657
835.489	0.0162581
835.567	0.0162861
835.646	0.0164396
835.724	0.0163577
835.802	0.0164326
835.880	0.0162774
835.958	0.0163394
836.036	0.0163070
836.114	0.0162762
836.192	0.0163218
836.271	0.0163875
836.349	0.0163184
836.427	0.0163073
836.505	0.0162913
836.583	0.0162147
836.661	0.0164110
836.739	0.0164129
836.817	0.0163978
836.896	0.0162038
836.974	0.0165377
837.052	0.0164108
837.130	0.0163586
837.208	0.0164549
837.286	0.0165181
837.364	0.0164589
837.442	0.0165546
837.521	0.0165005
837.599	0.0165764
837.677	0.0166333
837.755	0.0165008
837.833	0.0165133
837.911	0.0165293
837.989	0.0165633
838.067	0.0165452
838.146	0.0165077
838.224	0.0164909
838.302	0.0165900
838.380	0.0165791
838.458	0.0165929
838.536	0.0165553
838.614	0.0164555
838.692	0.0164930
838.771	0.0164333
838.849	0.0164726
838.927	0.0163777
839.005	0.0164959
839.083	0.0162922
839.161	0.0163692
839.239	0.0164275
839.317	0.0163022
839.396	0.0162775
839.474	0.0163670
839.552	0.0162500
839.630	0.0163213
839.708	0.0163201
839.786	0.0164351
839.864	0.0163733
839.942	0.0162386
840.021	0.0162688
840.099	0.0162053
840.177	0.0161465
840.255	0.0160857
840.333	0.0159476
840.411	0.0160284
840.489	0.0160416
840.567	0.0158826
840.646	0.0159584
840.724	0.0158624
840.802	0.0157922
840.880	0.0158366
840.958	0.0157537
841.036	0.0158467
841.114	0.0159827
841.192	0.0159827
841.271	0.0159029
841.349	0.0160939
841.427	0.0159766
841.505	0.0159782
841.583	0.0161414
841.661	0.0159992
841.739	0.0160148
841.817	0.0160916
841.896	0.0161069
841.974	0.0159235
842.052	0.0160077
842.130	0.0160874
842.208	0.0161832
842.286	0.0159766
842.364	0.0161667
842.442	0.0161844
842.521	0.0159779
842.599	0.0160343
842.677	0.0159800
842.755	0.0160268
842.833	0.0160029
842.911	0.0160731
842.989	0.0160320
843.067	0.0160275
843.146	0.0161347
843.224	0.0159264
843.302	0.0160931
843.380	0.0161603
843.458	0.0161562
843.536	0.0160119
843.614	0.0161789
843.692	0.0161216
843.771	0.0162231
843.849	0.0162480
843.927	0.0161898
844.005	0.0162347
844.083	0.0164572
844.161	0.0163582
844.239	0.0162528
844.317	0.0164227
844.396	0.0164857
844.474	0.0163130
844.552	0.0163618
844.630	0.0163916
844.708	0.0164236
844.786	0.0164010
844.864	0.0163697
844.942	0.0165742
845.021	0.0163296
845.099	0.0165826
845.177	0.0166520
845.255	0.0165552
845.333	0.0165859
845.411	0.0166011
845.489	0.0165186
845.567	0.0164959
845.646	0.0165977
845.724	0.0166978
845.802	0.0167271
845.880	0.0167907
845.958	0.0168603
846.036	0.0166113
846.114	0.0168324
846.192	0.0168506
846.271	0.0167923
846.349	0.0167266
846.427	0.0168259
846.505	0.0169999
846.583	0.0168196
846.661	0.0168039
846.739	0.0168703
846.817	0.0167472
846.896	0.0166653
846.974	0.0167168
847.052	0.0167462
847.130	0.0167249
847.208	0.0166902
847.286	0.0168332
847.364	0.0166952
847.442	0.0167580
847.521	0.0167742
847.599	0.0166856
847.677	0.0164719
847.755	0.0165292
847.833	0.0167550
847.911	0.0167178
847.989	0.0164594
848.067	0.0164017
848.146	0.0165081
848.224	0.0165685
848.302	0.0165859
848.380	0.0164413
848.458	0.0163992
848.536	0.0163413
848.614	0.0163513
848.692	0.0163836
848.771	0.0163186
848.849	0.0162799
848.927	0.0162765
849.005	0.0163506
849.083	0.0162210
849.161	0.0162355
849.239	0.0163419
849.317	0.0162841
849.396	0.0162887
849.474	0.0161982
849.552	0.0162731
849.630	0.0162059
849.708	0.0162131
849.786	0.0162202
849.864	0.0160983
849.942	0.0161827
850.021	0.0161732
850.099	0.0161889
850.177	0.0161913
850.255	0.0162522
850.333	0.0161537
850.411	0.0161243
850.489	0.0161491
850.567	0.0162015
850.646	0.0161864
850.724	0.0161501
850.802	0.0160370
850.880	0.0160664
850.958	0.0159977
851.036	0.0161368
851.114	0.0161037
851.192	0.0160477
851.271	0.0160335
851.349	0.0160267
851.427	0.0160052
851.505	0.0160500
851.583	0.0159379
851.661	0.0160015
851.739	0.0160445
851.817	0.0159633
851.896	0.0160854
851.974	0.0160036
852.052	0.0158344
852.130	0.0159647
852.208	0.0158176
852.286	0.0158977
852.364	0.0158558
852.442	0.0160017
852.521	0.0159600
852.599	0.0159775
852.677	0.0160522
852.755	0.0160777
852.833	0.0159607
852.911	0.0160626
852.989	0.0161508
853.067	0.0161703
853.146	0.0161050
853.224	0.0161233
853.302	0.0162649
853.380	0.0163713
853.458	0.0163398
853.536	0.0164879
853.614	0.0162653
853.692	0.0165287
853.771	0.0164630
853.849	0.0164274
853.927	0.0165781
854.005	0.0163869
854.083	0.0165295
854.161	0.0166286
854.239	0.0165142
854.317	0.0165199
854.396	0.0166136
854.474	0.0165956
854.552	0.0166376
854.630	0.0165744
854.708	0.0164811
854.786	0.0165208
854.864	0.0165180
854.942	0.0164848
855.021	0.0165775
855.099	0.0165997
855.177	0.0165191
855.255	0.0164869
855.333	0.0163657
855.411	0.0164026
855.489	0.0163892
855.567	0.0164629
855.646	0.0164046
855.724	0.0163016
855.802	0.0162675
855.880	0.0162778
855.958	0.0162838
856.036	0.0160485
856.114	0.0161145
856.192	0.0161060
856.271	0.0160288
856.349	0.0159019
856.427	0.0160523
856.505	0.0159843
856.583	0.0160799
856.661	0.0158957
856.739	0.0159406
856.817	0.0159771
856.896	0.0159090
856.974	0.0159676
857.052	0.0158555
857.130	0.0159496
857.208	0.0159126
857.286	0.0160044
857.364	0.0157740
857.442	0.0157713
857.521	0.0158958
857.599	0.0159426
857.677	0.0160415
857.755	0.0159321
857.833	0.0160802
857.911	0.0161114
857.989	0.0160665
858.067	0.0159702
858.146	0.0160944
858.224	0.0160529
858.302	0.0161248
858.380	0.0161904
858.458	0.0163212
858.536	0.0160505
858.614	0.0162061
858.692	0.0162634
858.771	0.0164596
858.849	0.0162717
858.927	0.0163686
859.005	0.0162989
859.083	0.0160896
859.161	0.0163004
859.239	0.0164568
859.317	0.0164514
859.396	0.0163142
859.474	0.0162269
859.552	0.0164590
859.630	0.0164492
859.708	0.0162680
859.786	0.0163686
859.864	0.0164851
859.942	0.0163208
860.021	0.0162572
860.099	0.0163076
860.177	0.0162227
860.255	0.0163531
860.333	0.0163383
860.411	0.0164008
860.489	0.0164667
860.567	0.0164924
860.646	0.0164149
860.724	0.0163198
860.802	0.0163263
860.880	0.0163448
860.958	0.0162284
861.036	0.0163464
861.114	0.0164245
861.192	0.0162897
861.271	0.0163020
861.349	0.0163129
861.427	0.0164721
861.505	0.0164077
861.583	0.0163557
861.661	0.0163093
861.739	0.0163774
861.817	0.0164554
861.896	0.0164893
861.974	0.0164929
862.052	0.0163614
862.130	0.0166028
862.208	0.0166397
862.286	0.0164940
862.364	0.0165253
862.442	0.0165175
862.521	0.0164173
862.599	0.0164619
862.677	0.0165858
862.755	0.0166553
862.833	0.0165303
862.911	0.0164400
862.989	0.0164878
863.067	0.0165482
863.146	0.0165597
863.224	0.0165205
863.302	0.0164062
863.380	0.0164951
863.458	0.0165067
863.536	0.0165225
863.614	0.0164307
863.692	0.0163548
863.771	0.0164909
863.849	0.0164297
863.927	0.0164468
864.005	0.0162928
864.083	0.0162631
864.161	0.0161732
864.239	0.0162374
864.317	0.0162084
864.396	0.0160379
864.474	0.0161562
864.552	0.0160320
864.630	0.0160751
864.708	0.0160824
864.786	0.0160382
864.864	0.0160695
864.942	0.0160260
865.021	0.0158508
865.099	0.0156396
865.177	0.0158326
865.255	0.0158350
865.333	0.0158475
865.411	0.0157271
865.489	0.0157477
865.567	0.0157153
865.646	0.0158045
865.724	0.0156852
865.802	0.0156140
865.880	0.0156654
865.958	0.0156443
866.036	0.0158122
866.114	0.0156940
866.192	0.0155618
866.271	0.0157372
866.349	0.0157964
866.427	0.0157079
866.505	0.0156911
866.583	0.0157358
866.661	0.0158525
866.739	0.0158559
866.817	0.0159861
866.896	0.0159721
866.974	0.0159796
867.052	0.0160547
867.130	0.0161359
867.208	0.0160844
867.286	0.0160178
867.364	0.0160738
867.442	0.0161526
867.521	0.0160892
867.599	0.0161254
867.677	0.0161605
867.755	0.0162099
867.833	0.0163281
867.911	0.0162083
867.989	0.0162187
868.067	0.0162264
868.146	0.0163535
868.224	0.0163919
868.302	0.0164093
868.380	0.0163630
868.458	0.0164698
868.536	0.0164003
868.614	0.0165899
868.692	0.0163438
868.771	0.0164639
868.849	0.0164379
868.927	0.0164822
869.005	0.0165099
869.083	0.0165526
869.161	0.0165195
869.239	0.0164994
869.317	0.0165450
869.396	0.0166240
869.474	0.0165362
869.552	0.0165837
869.630	0.0164771
869.708	0.0166089
869.786	0.0165244
869.864	0.0164382
869.942	0.0166216
