06/03/2022	14:53:10	Ver.	4.1	UNKNOWN
Optical Delay	550.020508	Delta X		0.078125	Sweeps	1	Scan Rate	0/0
Coordinates	Axis 1	NaN	Axis 2	NaN	Axis 3	NaN	Axis 4	NaN	Axis 5	NaN	Axis 6	0.000000
TX Power	0.000000	RX Power	0.000000

550.021	0.0165566
550.099	0.0176594
550.177	0.0178147
550.255	0.0182227
550.333	0.0182076
550.411	0.0183914
550.489	0.0184658
550.567	0.0186726
550.646	0.0186913
550.724	0.0188611
550.802	0.0188593
550.880	0.0188366
550.958	0.0190818
551.036	0.0190816
551.114	0.0191447
551.192	0.0190411
551.271	0.0191355
551.349	0.0191007
551.427	0.0190637
551.505	0.0190721
551.583	0.0191173
551.661	0.0190075
551.739	0.0188903
551.817	0.0189324
551.896	0.0188194
551.974	0.0185590
552.052	0.0186313
552.130	0.0183964
552.208	0.0183721
552.286	0.0182356
552.364	0.0181481
552.442	0.0179159
552.521	0.0177933
552.599	0.0177399
552.677	0.0176506
552.755	0.0175848
552.833	0.0173376
552.911	0.0173314
552.989	0.0170644
553.067	0.0169769
553.146	0.0168095
553.224	0.0166685
553.302	0.0165131
553.380	0.0164791
553.458	0.0161793
553.536	0.0160243
553.614	0.0159791
553.692	0.0159930
553.771	0.0158101
553.849	0.0156349
553.927	0.0156879
554.005	0.0156348
554.083	0.0154008
554.161	0.0153800
554.239	0.0154134
554.317	0.0153428
554.396	0.0153929
554.474	0.0152769
554.552	0.0152959
554.630	0.0154011
554.708	0.0154173
554.786	0.0153811
554.864	0.0153802
554.942	0.0153902
555.021	0.0153526
555.099	0.0153921
555.177	0.0155401
555.255	0.0156744
555.333	0.0155885
555.411	0.0154751
555.489	0.0156329
555.567	0.0156427
555.646	0.0156344
555.724	0.0157639
555.802	0.0157106
555.880	0.0157595
555.958	0.0157968
556.036	0.0158535
556.114	0.0158870
556.192	0.0159261
556.271	0.0159865
556.349	0.0159718
556.427	0.0160425
556.505	0.0159569
556.583	0.0159154
556.661	0.0161076
556.739	0.0160323
556.817	0.0161666
556.896	0.0162349
556.974	0.0160663
557.052	0.0161411
557.130	0.0162498
557.208	0.0163359
557.286	0.0162588
557.364	0.0163658
557.442	0.0164230
557.521	0.0164976
557.599	0.0165258
557.677	0.0166021
557.755	0.0164793
557.833	0.0165244
557.911	0.0165733
557.989	0.0166454
558.067	0.0166328
558.146	0.0165628
558.224	0.0168770
558.302	0.0166915
558.380	0.0167333
558.458	0.0167419
558.536	0.0164578
558.614	0.0166233
558.692	0.0167053
558.771	0.0165736
558.849	0.0166630
558.927	0.0167993
559.005	0.0167367
559.083	0.0167795
559.161	0.0168127
559.239	0.0166309
559.317	0.0167883
559.396	0.0168204
559.474	0.0168001
559.552	0.0169267
559.630	0.0168108
559.708	0.0167504
559.786	0.0169609
559.864	0.0168759
559.942	0.0169370
560.021	0.0168783
560.099	0.0169349
560.177	0.0169037
560.255	0.0168444
560.333	0.0167937
560.411	0.0168909
560.489	0.0167127
560.567	0.0166603
560.646	0.0168394
560.724	0.0168513
560.802	0.0167447
560.880	0.0167095
560.958	0.0168050
561.036	0.0165152
561.114	0.0165831
561.192	0.0165081
561.271	0.0165411
561.349	0.0163291
561.427	0.0163531
561.505	0.0162730
561.583	0.0161533
561.661	0.0161090
561.739	0.0159315
561.817	0.0159171
561.896	0.0158141
561.974	0.0157607
562.052	0.0155869
562.130	0.0154911
562.208	0.0154371
562.286	0.0153004
562.364	0.0153434
562.442	0.0152290
562.521	0.0152468
562.599	0.0152166
562.677	0.0151376
562.755	0.0149912
562.833	0.0149737
562.911	0.0150741
562.989	0.0148854
563.067	0.0148679
563.146	0.0150011
563.224	0.0149841
563.302	0.0150061
563.380	0.0150126
563.458	0.0151347
563.536	0.0150615
563.614	0.0150436
563.692	0.0150279
563.771	0.0150521
563.849	0.0150558
563.927	0.0152764
564.005	0.0152293
564.083	0.0152215
564.161	0.0152729
564.239	0.0153314
564.317	0.0152747
564.396	0.0154250
564.474	0.0153932
564.552	0.0154416
564.630	0.0155588
564.708	0.0156413
564.786	0.0156613
564.864	0.0156153
564.942	0.0158695
565.021	0.0159097
565.099	0.0159410
565.177	0.0159660
565.255	0.0160674
565.333	0.0159739
565.411	0.0161438
565.489	0.0163010
565.567	0.0162782
565.646	0.0160894
565.724	0.0163099
565.802	0.0163975
565.880	0.0164183
565.958	0.0164046
566.036	0.0163421
566.114	0.0163837
566.192	0.0163946
566.271	0.0163972
566.349	0.0165131
566.427	0.0164283
566.505	0.0164327
566.583	0.0163763
566.661	0.0164247
566.739	0.0164389
566.817	0.0165674
566.896	0.0164317
566.974	0.0164508
567.052	0.0164410
567.130	0.0163933
567.208	0.0164463
567.286	0.0163684
567.364	0.0164464
567.442	0.0165588
567.521	0.0165508
567.599	0.0165738
567.677	0.0166068
567.755	0.0166061
567.833	0.0166598
567.911	0.0166724
567.989	0.0166351
568.067	0.0168172
568.146	0.0168427
568.224	0.0169832
568.302	0.0170117
568.380	0.0169987
568.458	0.0170097
568.536	0.0172092
568.614	0.0172633
568.692	0.0172676
568.771	0.0172462
568.849	0.0172600
568.927	0.0174032
569.005	0.0174843
569.083	0.0176234
569.161	0.0176060
569.239	0.0176601
569.317	0.0176884
569.396	0.0177448
569.474	0.0178983
569.552	0.0177509
569.630	0.0179241
569.708	0.0180669
569.786	0.0178783
569.864	0.0180932
569.942	0.0181736
570.021	0.0182019
570.099	0.0181551
570.177	0.0181339
570.255	0.0182653
570.333	0.0183132
570.411	0.0183765
570.489	0.0183105
570.567	0.0182379
570.646	0.0184559
570.724	0.0182906
570.802	0.0182093
570.880	0.0181231
570.958	0.0183519
571.036	0.0182967
571.114	0.0181853
571.192	0.0179918
571.271	0.0181791
571.349	0.0181079
571.427	0.0180954
571.505	0.0180547
571.583	0.0178407
571.661	0.0178927
571.739	0.0178908
571.817	0.0178168
571.896	0.0178060
571.974	0.0175987
572.052	0.0174776
572.130	0.0174850
572.208	0.0174447
572.286	0.0172530
572.364	0.0173395
572.442	0.0172789
572.521	0.0171375
572.599	0.0170845
572.677	0.0170158
572.755	0.0169302
572.833	0.0169779
572.911	0.0170027
572.989	0.0168877
573.067	0.0169631
573.146	0.0168082
573.224	0.0168700
573.302	0.0170347
573.380	0.0166946
573.458	0.0166251
573.536	0.0167413
573.614	0.0168573
573.692	0.0166280
573.771	0.0167702
573.849	0.0166436
573.927	0.0166705
574.005	0.0165643
574.083	0.0165610
574.161	0.0166922
574.239	0.0167344
574.317	0.0166563
574.396	0.0166546
574.474	0.0166309
574.552	0.0167274
574.630	0.0166422
574.708	0.0166503
574.786	0.0167107
574.864	0.0166177
574.942	0.0166380
575.021	0.0166442
575.099	0.0165916
575.177	0.0167101
575.255	0.0165431
575.333	0.0165293
575.411	0.0166002
575.489	0.0166178
575.567	0.0164899
575.646	0.0164581
575.724	0.0165220
575.802	0.0163760
575.880	0.0161595
575.958	0.0163882
576.036	0.0163643
576.114	0.0163051
576.192	0.0161945
576.271	0.0161211
576.349	0.0161353
576.427	0.0159980
576.505	0.0161256
576.583	0.0159250
576.661	0.0159612
576.739	0.0158501
576.817	0.0158999
576.896	0.0159071
576.974	0.0157472
577.052	0.0157538
577.130	0.0157804
577.208	0.0156670
577.286	0.0156625
577.364	0.0155426
577.442	0.0155081
577.521	0.0154516
577.599	0.0156354
577.677	0.0155802
577.755	0.0155612
577.833	0.0154290
577.911	0.0155362
577.989	0.0154887
578.067	0.0156322
578.146	0.0155301
578.224	0.0156489
578.302	0.0156079
578.380	0.0154900
578.458	0.0156293
578.536	0.0156492
578.614	0.0157030
578.692	0.0156626
578.771	0.0158900
578.849	0.0159621
578.927	0.0158768
579.005	0.0157949
579.083	0.0158160
579.161	0.0158327
579.239	0.0157983
579.317	0.0159859
579.396	0.0160787
579.474	0.0160219
579.552	0.0160183
579.630	0.0161304
579.708	0.0161583
579.786	0.0162089
579.864	0.0162375
579.942	0.0162759
580.021	0.0162882
580.099	0.0164332
580.177	0.0164255
580.255	0.0163526
580.333	0.0164053
580.411	0.0166015
580.489	0.0166563
580.567	0.0166031
580.646	0.0166026
580.724	0.0166266
580.802	0.0167891
580.880	0.0166869
580.958	0.0168547
581.036	0.0169486
581.114	0.0170078
581.192	0.0169485
581.271	0.0170470
581.349	0.0170684
581.427	0.0170229
581.505	0.0170324
581.583	0.0171116
581.661	0.0171971
581.739	0.0172077
581.817	0.0172966
581.896	0.0172873
581.974	0.0172814
582.052	0.0174696
582.130	0.0174295
582.208	0.0172942
582.286	0.0173074
582.364	0.0175575
582.442	0.0175137
582.521	0.0175587
582.599	0.0176676
582.677	0.0175129
582.755	0.0175642
582.833	0.0176452
582.911	0.0175932
582.989	0.0174876
583.067	0.0174619
583.146	0.0174683
583.224	0.0175775
583.302	0.0174306
583.380	0.0175055
583.458	0.0174288
583.536	0.0171632
583.614	0.0172818
583.692	0.0173301
583.771	0.0172364
583.849	0.0171240
583.927	0.0170343
584.005	0.0170129
584.083	0.0170889
584.161	0.0168122
584.239	0.0167682
584.317	0.0167903
584.396	0.0168250
584.474	0.0165855
584.552	0.0167210
584.630	0.0166092
584.708	0.0166094
584.786	0.0164437
584.864	0.0163513
584.942	0.0162941
585.021	0.0163252
585.099	0.0161464
585.177	0.0161845
585.255	0.0161647
585.333	0.0161027
585.411	0.0160760
585.489	0.0160029
585.567	0.0160655
585.646	0.0159869
585.724	0.0159865
585.802	0.0159187
585.880	0.0158334
585.958	0.0157592
586.036	0.0158154
586.114	0.0157637
586.192	0.0156651
586.271	0.0157746
586.349	0.0156311
586.427	0.0156963
586.505	0.0156668
586.583	0.0155682
586.661	0.0156001
586.739	0.0155020
586.817	0.0155197
586.896	0.0156551
586.974	0.0156305
587.052	0.0154568
587.130	0.0156205
587.208	0.0155643
587.286	0.0155946
587.364	0.0154662
587.442	0.0154143
587.521	0.0155379
587.599	0.0154842
587.677	0.0154908
587.755	0.0155074
587.833	0.0154670
587.911	0.0154657
587.989	0.0155589
588.067	0.0154390
588.146	0.0153287
588.224	0.0154534
588.302	0.0154951
588.380	0.0154785
588.458	0.0155391
588.536	0.0154338
588.614	0.0154457
588.692	0.0154325
588.771	0.0155405
588.849	0.0154527
588.927	0.0155187
589.005	0.0155704
589.083	0.0156745
589.161	0.0156831
589.239	0.0157272
589.317	0.0156636
589.396	0.0157034
589.474	0.0158867
589.552	0.0157167
589.630	0.0157786
589.708	0.0157906
589.786	0.0160158
589.864	0.0160348
589.942	0.0161221
590.021	0.0159301
590.099	0.0162022
590.177	0.0162138
590.255	0.0162460
590.333	0.0162841
590.411	0.0163498
590.489	0.0163521
590.567	0.0164578
590.646	0.0164052
590.724	0.0164592
590.802	0.0164297
590.880	0.0164635
590.958	0.0165586
591.036	0.0167657
591.114	0.0166642
591.192	0.0168025
591.271	0.0169468
591.349	0.0167719
591.427	0.0169814
591.505	0.0169433
591.583	0.0170319
591.661	0.0167793
591.739	0.0170937
591.817	0.0171020
591.896	0.0170087
591.974	0.0171310
592.052	0.0170193
592.130	0.0171999
592.208	0.0171876
592.286	0.0171513
592.364	0.0172809
592.442	0.0171883
592.521	0.0172031
592.599	0.0172845
592.677	0.0172771
592.755	0.0171149
592.833	0.0171881
592.911	0.0171723
592.989	0.0172089
593.067	0.0171477
593.146	0.0171094
593.224	0.0170370
593.302	0.0172296
593.380	0.0171586
593.458	0.0171840
593.536	0.0171644
593.614	0.0170054
593.692	0.0170585
593.771	0.0170002
593.849	0.0169083
593.927	0.0170146
594.005	0.0170737
594.083	0.0170560
594.161	0.0168366
594.239	0.0169633
594.317	0.0170182
594.396	0.0169037
594.474	0.0167320
594.552	0.0167874
594.630	0.0168269
594.708	0.0168455
594.786	0.0167503
594.864	0.0167776
594.942	0.0167153
595.021	0.0167516
595.099	0.0167679
595.177	0.0166994
595.255	0.0166249
595.333	0.0166718
595.411	0.0166428
595.489	0.0166443
595.567	0.0165778
595.646	0.0165180
595.724	0.0166705
595.802	0.0166128
595.880	0.0166270
595.958	0.0166145
596.036	0.0164812
596.114	0.0165418
596.192	0.0165659
596.271	0.0164532
596.349	0.0165121
596.427	0.0166127
596.505	0.0164611
596.583	0.0164056
596.661	0.0164825
596.739	0.0164330
596.817	0.0163297
596.896	0.0163016
596.974	0.0163847
597.052	0.0162446
597.130	0.0163761
597.208	0.0161996
597.286	0.0162832
597.364	0.0162595
597.442	0.0162871
597.521	0.0163031
597.599	0.0161953
597.677	0.0163616
597.755	0.0162685
597.833	0.0163710
597.911	0.0162545
597.989	0.0162421
598.067	0.0161934
598.146	0.0161899
598.224	0.0160323
598.302	0.0161604
598.380	0.0162083
598.458	0.0161488
598.536	0.0161041
598.614	0.0160393
598.692	0.0160652
598.771	0.0160921
598.849	0.0161392
598.927	0.0158581
599.005	0.0159257
599.083	0.0159589
599.161	0.0159447
599.239	0.0159278
599.317	0.0160663
599.396	0.0161214
599.474	0.0161615
599.552	0.0159830
599.630	0.0159299
599.708	0.0160481
599.786	0.0161664
599.864	0.0160804
599.942	0.0159783
600.021	0.0159473
600.099	0.0161482
600.177	0.0161378
600.255	0.0159589
600.333	0.0161111
600.411	0.0160180
600.489	0.0162391
600.567	0.0162134
600.646	0.0160904
600.724	0.0163024
600.802	0.0163158
600.880	0.0163432
600.958	0.0163987
601.036	0.0163327
601.114	0.0163185
601.192	0.0163122
601.271	0.0163994
601.349	0.0165363
601.427	0.0164809
601.505	0.0163458
601.583	0.0165125
601.661	0.0163969
601.739	0.0163755
601.817	0.0165233
601.896	0.0166313
601.974	0.0165343
602.052	0.0164859
602.130	0.0165788
602.208	0.0167013
602.286	0.0165340
602.364	0.0165924
602.442	0.0167245
602.521	0.0167237
602.599	0.0167445
602.677	0.0166454
602.755	0.0168694
602.833	0.0168513
602.911	0.0167325
602.989	0.0168417
603.067	0.0168742
603.146	0.0169305
603.224	0.0169300
603.302	0.0168038
603.380	0.0168501
603.458	0.0169800
603.536	0.0168203
603.614	0.0169637
603.692	0.0168945
603.771	0.0169910
603.849	0.0169044
603.927	0.0169415
604.005	0.0169727
604.083	0.0169972
604.161	0.0169760
604.239	0.0169915
604.317	0.0169983
604.396	0.0170620
604.474	0.0169518
604.552	0.0168459
604.630	0.0170066
604.708	0.0168976
604.786	0.0169286
604.864	0.0168896
604.942	0.0170853
605.021	0.0171301
605.099	0.0170245
605.177	0.0170205
605.255	0.0168665
605.333	0.0168962
605.411	0.0169852
605.489	0.0171252
605.567	0.0171494
605.646	0.0170110
605.724	0.0170647
605.802	0.0170506
605.880	0.0170548
605.958	0.0171600
606.036	0.0169437
606.114	0.0171474
606.192	0.0170473
606.271	0.0170861
606.349	0.0171239
606.427	0.0169934
606.505	0.0170239
606.583	0.0170118
606.661	0.0171172
606.739	0.0170733
606.817	0.0170127
606.896	0.0169654
606.974	0.0169252
607.052	0.0169600
607.130	0.0168885
607.208	0.0169297
607.286	0.0168565
607.364	0.0170690
607.442	0.0170306
607.521	0.0170511
607.599	0.0169090
607.677	0.0168044
607.755	0.0170090
607.833	0.0170125
607.911	0.0168477
607.989	0.0170825
608.067	0.0171355
608.146	0.0168258
608.224	0.0169862
608.302	0.0171421
608.380	0.0169952
608.458	0.0168586
608.536	0.0168571
608.614	0.0168719
608.692	0.0167780
608.771	0.0166650
608.849	0.0167397
608.927	0.0167833
609.005	0.0167336
609.083	0.0165935
609.161	0.0165782
609.239	0.0165269
609.317	0.0165208
609.396	0.0164931
609.474	0.0163748
609.552	0.0163887
609.630	0.0163364
609.708	0.0164106
609.786	0.0161127
609.864	0.0160743
609.942	0.0161936
610.021	0.0160413
610.099	0.0160786
610.177	0.0159927
610.255	0.0159985
610.333	0.0159926
610.411	0.0159515
610.489	0.0159141
610.567	0.0159481
610.646	0.0160381
610.724	0.0160477
610.802	0.0159411
610.880	0.0158681
610.958	0.0159361
611.036	0.0160638
611.114	0.0160120
611.192	0.0159460
611.271	0.0159509
611.349	0.0160427
611.427	0.0160693
611.505	0.0160733
611.583	0.0160834
611.661	0.0160406
611.739	0.0162527
611.817	0.0162751
611.896	0.0164123
611.974	0.0162358
612.052	0.0162717
612.130	0.0163018
612.208	0.0164422
612.286	0.0164603
612.364	0.0164877
612.442	0.0164799
612.521	0.0165881
612.599	0.0165523
612.677	0.0166483
612.755	0.0166069
612.833	0.0167771
612.911	0.0166119
612.989	0.0166889
613.067	0.0167108
613.146	0.0167187
613.224	0.0168456
613.302	0.0168159
613.380	0.0166386
613.458	0.0166219
613.536	0.0168191
613.614	0.0167166
613.692	0.0166310
613.771	0.0166560
613.849	0.0165776
613.927	0.0165022
614.005	0.0163693
614.083	0.0162509
614.161	0.0161064
614.239	0.0161090
614.317	0.0160468
614.396	0.0159905
614.474	0.0156786
614.552	0.0157866
614.630	0.0158537
614.708	0.0155993
614.786	0.0154530
614.864	0.0156641
614.942	0.0154684
615.021	0.0154795
615.099	0.0154578
615.177	0.0155512
615.255	0.0153752
615.333	0.0152996
615.411	0.0153329
615.489	0.0151872
615.567	0.0150045
615.646	0.0149740
615.724	0.0150404
615.802	0.0150182
615.880	0.0149134
615.958	0.0149236
616.036	0.0148072
616.114	0.0147260
616.192	0.0147482
616.271	0.0148827
616.349	0.0148485
616.427	0.0148753
616.505	0.0148823
616.583	0.0150305
616.661	0.0150391
616.739	0.0151618
616.817	0.0151382
616.896	0.0153856
616.974	0.0153172
617.052	0.0154375
617.130	0.0157038
617.208	0.0156969
617.286	0.0157375
617.364	0.0157134
617.442	0.0159943
617.521	0.0160744
617.599	0.0161782
617.677	0.0162043
617.755	0.0162542
617.833	0.0163905
617.911	0.0163646
617.989	0.0164310
618.067	0.0166518
618.146	0.0165524
618.224	0.0165569
618.302	0.0165918
618.380	0.0167182
618.458	0.0167238
618.536	0.0167908
618.614	0.0168259
618.692	0.0167310
618.771	0.0167531
618.849	0.0167388
618.927	0.0168827
619.005	0.0169869
619.083	0.0169765
619.161	0.0169298
619.239	0.0168723
619.317	0.0168643
619.396	0.0169803
619.474	0.0169585
619.552	0.0169423
619.630	0.0168728
619.708	0.0170337
619.786	0.0168501
619.864	0.0170027
619.942	0.0168653
620.021	0.0168424
620.099	0.0168626
620.177	0.0169540
620.255	0.0166869
620.333	0.0166762
620.411	0.0166579
620.489	0.0166500
620.567	0.0167598
620.646	0.0165467
620.724	0.0164365
620.802	0.0165828
620.880	0.0164980
620.958	0.0165437
621.036	0.0166063
621.114	0.0164909
621.192	0.0165913
621.271	0.0165867
621.349	0.0164349
621.427	0.0163797
621.505	0.0165778
621.583	0.0165062
621.661	0.0165530
621.739	0.0164140
621.817	0.0163412
621.896	0.0164896
621.974	0.0164414
622.052	0.0165118
622.130	0.0164278
622.208	0.0163085
622.286	0.0164131
622.364	0.0163361
622.442	0.0163938
622.521	0.0164010
622.599	0.0164592
622.677	0.0163872
622.755	0.0163799
622.833	0.0164334
622.911	0.0163773
622.989	0.0163839
623.067	0.0164770
623.146	0.0163145
623.224	0.0164097
623.302	0.0164246
623.380	0.0164322
623.458	0.0164501
623.536	0.0164590
623.614	0.0165206
623.692	0.0163715
623.771	0.0164157
623.849	0.0165934
623.927	0.0164872
624.005	0.0163724
624.083	0.0165598
624.161	0.0164654
624.239	0.0164629
624.317	0.0165570
624.396	0.0165050
624.474	0.0164999
624.552	0.0165755
624.630	0.0164206
624.708	0.0166407
624.786	0.0166028
624.864	0.0165205
624.942	0.0166489
625.021	0.0166509
625.099	0.0167350
625.177	0.0167007
625.255	0.0166972
625.333	0.0167516
625.411	0.0167948
625.489	0.0166478
625.567	0.0167542
625.646	0.0169163
625.724	0.0167934
625.802	0.0168829
625.880	0.0168722
625.958	0.0168800
626.036	0.0168857
626.114	0.0169987
626.192	0.0170068
626.271	0.0169603
626.349	0.0169953
626.427	0.0170776
626.505	0.0170350
626.583	0.0170812
626.661	0.0169550
626.739	0.0170693
626.817	0.0169978
626.896	0.0168949
626.974	0.0169328
627.052	0.0168892
627.130	0.0169643
627.208	0.0169693
627.286	0.0170020
627.364	0.0169579
627.442	0.0171070
627.521	0.0171317
627.599	0.0171422
627.677	0.0170084
627.755	0.0170539
627.833	0.0171498
627.911	0.0171214
627.989	0.0170310
628.067	0.0171414
628.146	0.0171974
628.224	0.0171923
628.302	0.0172163
628.380	0.0171151
628.458	0.0172807
628.536	0.0171608
628.614	0.0171484
628.692	0.0171727
628.771	0.0172277
628.849	0.0172107
628.927	0.0171870
629.005	0.0172082
629.083	0.0172997
629.161	0.0170967
629.239	0.0171123
629.317	0.0170796
629.396	0.0171187
629.474	0.0172346
629.552	0.0172050
629.630	0.0172147
629.708	0.0170869
629.786	0.0171591
629.864	0.0171524
629.942	0.0172066
630.021	0.0171182
630.099	0.0173193
630.177	0.0173093
630.255	0.0171717
630.333	0.0172445
630.411	0.0171003
630.489	0.0170761
630.567	0.0170857
630.646	0.0170062
630.724	0.0170331
630.802	0.0170735
630.880	0.0171468
630.958	0.0170193
631.036	0.0171820
631.114	0.0169746
631.192	0.0169979
631.271	0.0170051
631.349	0.0168993
631.427	0.0168284
631.505	0.0169240
631.583	0.0167739
631.661	0.0166815
631.739	0.0168172
631.817	0.0167759
631.896	0.0167249
631.974	0.0165992
632.052	0.0166341
632.130	0.0167485
632.208	0.0166412
632.286	0.0166515
632.364	0.0165929
632.442	0.0166162
632.521	0.0164969
632.599	0.0166341
632.677	0.0164761
632.755	0.0166204
632.833	0.0166548
632.911	0.0165011
632.989	0.0164401
633.067	0.0165341
633.146	0.0163078
633.224	0.0161983
633.302	0.0163815
633.380	0.0163004
633.458	0.0164607
633.536	0.0164320
633.614	0.0163199
633.692	0.0163280
633.771	0.0162591
633.849	0.0162981
633.927	0.0162739
634.005	0.0161781
634.083	0.0162022
634.161	0.0161604
634.239	0.0161593
634.317	0.0160707
634.396	0.0158976
634.474	0.0159866
634.552	0.0160389
634.630	0.0158453
634.708	0.0157672
634.786	0.0158420
634.864	0.0158962
634.942	0.0156989
635.021	0.0159238
635.099	0.0158308
635.177	0.0158067
635.255	0.0159648
635.333	0.0158191
635.411	0.0160355
635.489	0.0161017
635.567	0.0159426
635.646	0.0159171
635.724	0.0161390
635.802	0.0159450
635.880	0.0161565
635.958	0.0160768
636.036	0.0159859
636.114	0.0161849
636.192	0.0161603
636.271	0.0161720
636.349	0.0162136
636.427	0.0162422
636.505	0.0162006
636.583	0.0163133
636.661	0.0163578
636.739	0.0163741
636.817	0.0163136
636.896	0.0164003
636.974	0.0165598
637.052	0.0165043
637.130	0.0164216
637.208	0.0164909
637.286	0.0166015
637.364	0.0165815
637.442	0.0166045
637.521	0.0166686
637.599	0.0166745
637.677	0.0167249
637.755	0.0165125
637.833	0.0167436
637.911	0.0165538
637.989	0.0166245
638.067	0.0166548
638.146	0.0166348
638.224	0.0164903
638.302	0.0166005
638.380	0.0165083
638.458	0.0164660
638.536	0.0163410
638.614	0.0163111
638.692	0.0162867
638.771	0.0162662
638.849	0.0162006
638.927	0.0162088
639.005	0.0162067
639.083	0.0161066
639.161	0.0161770
639.239	0.0160767
639.317	0.0160590
639.396	0.0162051
639.474	0.0161822
639.552	0.0161540
639.630	0.0160867
639.708	0.0160464
639.786	0.0161919
639.864	0.0161659
639.942	0.0160291
640.021	0.0160208
640.099	0.0161863
640.177	0.0161275
640.255	0.0161845
640.333	0.0160802
640.411	0.0161547
640.489	0.0160076
640.567	0.0161259
640.646	0.0162779
640.724	0.0162147
640.802	0.0163024
640.880	0.0162631
640.958	0.0163765
641.036	0.0164151
641.114	0.0165005
641.192	0.0165137
641.271	0.0166428
641.349	0.0166079
641.427	0.0167056
641.505	0.0168098
641.583	0.0167188
641.661	0.0168620
641.739	0.0168074
641.817	0.0169582
641.896	0.0170313
641.974	0.0169939
642.052	0.0168951
642.130	0.0169861
642.208	0.0170421
642.286	0.0168533
642.364	0.0170603
642.442	0.0168809
642.521	0.0169509
642.599	0.0168686
642.677	0.0170583
642.755	0.0168960
642.833	0.0168805
642.911	0.0171151
642.989	0.0169373
643.067	0.0171068
643.146	0.0172114
643.224	0.0170360
643.302	0.0168848
643.380	0.0170272
643.458	0.0170918
643.536	0.0169711
643.614	0.0169037
643.692	0.0169955
643.771	0.0170276
643.849	0.0169949
643.927	0.0170325
644.005	0.0167891
644.083	0.0168227
644.161	0.0168062
644.239	0.0167012
644.317	0.0168954
644.396	0.0167349
644.474	0.0167315
644.552	0.0167517
644.630	0.0164903
644.708	0.0165591
644.786	0.0165851
644.864	0.0164890
644.942	0.0165142
645.021	0.0162965
645.099	0.0165180
645.177	0.0164744
645.255	0.0162975
645.333	0.0164256
645.411	0.0164081
645.489	0.0163528
645.567	0.0162740
645.646	0.0163102
645.724	0.0162862
645.802	0.0163296
645.880	0.0163761
645.958	0.0163525
646.036	0.0164371
646.114	0.0163029
646.192	0.0164457
646.271	0.0164523
646.349	0.0164736
646.427	0.0164314
646.505	0.0165001
646.583	0.0164114
646.661	0.0164982
646.739	0.0167310
646.817	0.0166895
646.896	0.0166809
646.974	0.0167368
647.052	0.0168179
647.130	0.0166903
647.208	0.0168800
647.286	0.0167907
647.364	0.0169047
647.442	0.0168637
647.521	0.0169396
647.599	0.0170367
647.677	0.0169374
647.755	0.0170375
647.833	0.0169269
647.911	0.0171676
647.989	0.0171569
648.067	0.0172166
648.146	0.0171848
648.224	0.0172059
648.302	0.0172955
648.380	0.0171709
648.458	0.0172174
648.536	0.0172381
648.614	0.0172820
648.692	0.0172691
648.771	0.0171033
648.849	0.0171794
648.927	0.0172859
649.005	0.0172060
649.083	0.0172903
649.161	0.0172131
649.239	0.0172274
649.317	0.0170574
649.396	0.0169910
649.474	0.0170591
649.552	0.0169952
649.630	0.0168398
649.708	0.0169473
649.786	0.0169559
649.864	0.0168410
649.942	0.0169341
650.021	0.0167010
650.099	0.0168211
650.177	0.0168688
650.255	0.0168206
650.333	0.0168029
650.411	0.0168497
650.489	0.0167244
650.567	0.0167146
650.646	0.0167894
650.724	0.0166278
650.802	0.0166584
650.880	0.0165333
650.958	0.0166683
651.036	0.0166853
651.114	0.0166411
651.192	0.0164213
651.271	0.0165173
651.349	0.0165351
651.427	0.0164419
651.505	0.0164786
651.583	0.0164237
651.661	0.0163541
651.739	0.0163448
651.817	0.0164751
651.896	0.0163786
651.974	0.0163718
652.052	0.0163452
652.130	0.0162328
652.208	0.0162426
652.286	0.0163310
652.364	0.0163937
652.442	0.0162727
652.521	0.0162354
652.599	0.0163810
652.677	0.0164118
652.755	0.0163593
652.833	0.0164022
652.911	0.0164148
652.989	0.0164784
653.067	0.0164326
653.146	0.0164846
653.224	0.0163939
653.302	0.0163080
653.380	0.0165324
653.458	0.0165208
653.536	0.0162846
653.614	0.0163845
653.692	0.0163263
653.771	0.0163718
653.849	0.0164098
653.927	0.0163227
654.005	0.0163586
654.083	0.0163761
654.161	0.0162824
654.239	0.0163679
654.317	0.0164080
654.396	0.0162572
654.474	0.0163737
654.552	0.0162560
654.630	0.0162234
654.708	0.0162192
654.786	0.0162881
654.864	0.0162772
654.942	0.0162658
655.021	0.0160587
655.099	0.0160703
655.177	0.0161533
655.255	0.0160554
655.333	0.0161118
655.411	0.0159898
655.489	0.0159614
655.567	0.0160860
655.646	0.0159357
655.724	0.0160518
655.802	0.0161478
655.880	0.0161507
655.958	0.0161504
656.036	0.0161382
656.114	0.0161839
656.192	0.0163264
656.271	0.0163922
656.349	0.0162674
656.427	0.0163058
656.505	0.0162917
656.583	0.0164259
656.661	0.0163350
656.739	0.0162872
656.817	0.0162032
656.896	0.0161692
656.974	0.0161800
657.052	0.0161279
657.130	0.0161969
657.208	0.0163835
657.286	0.0162237
657.364	0.0164193
657.442	0.0163878
657.521	0.0162532
657.599	0.0163050
657.677	0.0164894
657.755	0.0165935
657.833	0.0165742
657.911	0.0164985
657.989	0.0165083
658.067	0.0164169
658.146	0.0165211
658.224	0.0163955
658.302	0.0163647
658.380	0.0165264
658.458	0.0165456
658.536	0.0163793
658.614	0.0165021
658.692	0.0164434
658.771	0.0164395
658.849	0.0165035
658.927	0.0164951
659.005	0.0163968
659.083	0.0164018
659.161	0.0163874
659.239	0.0163900
659.317	0.0164099
659.396	0.0163661
659.474	0.0163095
659.552	0.0162416
659.630	0.0164008
659.708	0.0162370
659.786	0.0163760
659.864	0.0162077
659.942	0.0163783
660.021	0.0164468
660.099	0.0163206
660.177	0.0162980
660.255	0.0162753
660.333	0.0162292
660.411	0.0161504
660.489	0.0161459
660.567	0.0162089
660.646	0.0163250
660.724	0.0161730
660.802	0.0162469
660.880	0.0161397
660.958	0.0160827
661.036	0.0162209
661.114	0.0161917
661.192	0.0161051
661.271	0.0161150
661.349	0.0161903
661.427	0.0161256
661.505	0.0162238
661.583	0.0161396
661.661	0.0162104
661.739	0.0161864
661.817	0.0161783
661.896	0.0162944
661.974	0.0162334
662.052	0.0163525
662.130	0.0164706
662.208	0.0165575
662.286	0.0163992
662.364	0.0164298
662.442	0.0165025
662.521	0.0166560
662.599	0.0164975
662.677	0.0165890
662.755	0.0165993
662.833	0.0166930
662.911	0.0166972
662.989	0.0165695
663.067	0.0166097
663.146	0.0165332
663.224	0.0165977
663.302	0.0168015
663.380	0.0167011
663.458	0.0165923
663.536	0.0168350
663.614	0.0166196
663.692	0.0166418
663.771	0.0167975
663.849	0.0166583
663.927	0.0167959
664.005	0.0165811
664.083	0.0166058
664.161	0.0166305
664.239	0.0167478
664.317	0.0166548
664.396	0.0165546
664.474	0.0166181
664.552	0.0168074
664.630	0.0166483
664.708	0.0166474
664.786	0.0166398
664.864	0.0166897
664.942	0.0165929
665.021	0.0166331
665.099	0.0165319
665.177	0.0166475
665.255	0.0165954
665.333	0.0166142
665.411	0.0167149
665.489	0.0166938
665.567	0.0167578
665.646	0.0166107
665.724	0.0167541
665.802	0.0165871
665.880	0.0167507
665.958	0.0167776
666.036	0.0168427
666.114	0.0169144
666.192	0.0168331
666.271	0.0169894
666.349	0.0168470
666.427	0.0169838
666.505	0.0169585
666.583	0.0170721
666.661	0.0171485
666.739	0.0170501
666.817	0.0170004
666.896	0.0171465
666.974	0.0171393
667.052	0.0170927
667.130	0.0170798
667.208	0.0170879
667.286	0.0171811
667.364	0.0169984
667.442	0.0171136
667.521	0.0171497
667.599	0.0171953
667.677	0.0170216
667.755	0.0171468
667.833	0.0172839
667.911	0.0171699
667.989	0.0171733
668.067	0.0171002
668.146	0.0170523
668.224	0.0170625
668.302	0.0171120
668.380	0.0170300
668.458	0.0168944
668.536	0.0169373
668.614	0.0169221
668.692	0.0170025
668.771	0.0168286
668.849	0.0167134
668.927	0.0168674
669.005	0.0167741
669.083	0.0166179
669.161	0.0167045
669.239	0.0166031
669.317	0.0164918
669.396	0.0165975
669.474	0.0164213
669.552	0.0165399
669.630	0.0163935
669.708	0.0165633
669.786	0.0164761
669.864	0.0163302
669.942	0.0165498
670.021	0.0165200
670.099	0.0163971
670.177	0.0163757
670.255	0.0163282
670.333	0.0164081
670.411	0.0164204
670.489	0.0163389
670.567	0.0164037
670.646	0.0163797
670.724	0.0164153
670.802	0.0163432
670.880	0.0165363
670.958	0.0164939
671.036	0.0165004
671.114	0.0164202
671.192	0.0164703
671.271	0.0164343
671.349	0.0165201
671.427	0.0163380
671.505	0.0165272
671.583	0.0165672
671.661	0.0164355
671.739	0.0164104
671.817	0.0164182
671.896	0.0166718
671.974	0.0164625
672.052	0.0164867
672.130	0.0163585
672.208	0.0164841
672.286	0.0166006
672.364	0.0166474
672.442	0.0165504
672.521	0.0165475
672.599	0.0166311
672.677	0.0166935
672.755	0.0166833
672.833	0.0166526
672.911	0.0166535
672.989	0.0166488
673.067	0.0166467
673.146	0.0168169
673.224	0.0166250
673.302	0.0166380
673.380	0.0166422
673.458	0.0165960
673.536	0.0165476
673.614	0.0165891
673.692	0.0165771
673.771	0.0165570
673.849	0.0165015
673.927	0.0163969
674.005	0.0164978
674.083	0.0164012
674.161	0.0164262
674.239	0.0164065
674.317	0.0164397
674.396	0.0163309
674.474	0.0161511
674.552	0.0162342
674.630	0.0163172
674.708	0.0163112
674.786	0.0161713
674.864	0.0162523
674.942	0.0163979
675.021	0.0163071
675.099	0.0161430
675.177	0.0160416
675.255	0.0162424
675.333	0.0161249
675.411	0.0162310
675.489	0.0160683
675.567	0.0159615
675.646	0.0160479
675.724	0.0160328
675.802	0.0161780
675.880	0.0161778
675.958	0.0160052
676.036	0.0159397
676.114	0.0160073
676.192	0.0160439
676.271	0.0160893
676.349	0.0162125
676.427	0.0160788
676.505	0.0161163
676.583	0.0162336
676.661	0.0161932
676.739	0.0161983
676.817	0.0163145
676.896	0.0162247
676.974	0.0161797
677.052	0.0161954
677.130	0.0161650
677.208	0.0160812
677.286	0.0161640
677.364	0.0161665
677.442	0.0161376
677.521	0.0160419
677.599	0.0160651
677.677	0.0160509
677.755	0.0160784
677.833	0.0160867
677.911	0.0161846
677.989	0.0161611
678.067	0.0161304
678.146	0.0161017
678.224	0.0161751
678.302	0.0161200
678.380	0.0162122
678.458	0.0161787
678.536	0.0161430
678.614	0.0161169
678.692	0.0161954
678.771	0.0161411
678.849	0.0161857
678.927	0.0162446
679.005	0.0161955
679.083	0.0161520
679.161	0.0161996
679.239	0.0162556
679.317	0.0162405
679.396	0.0162513
679.474	0.0162564
679.552	0.0162843
679.630	0.0161764
679.708	0.0163043
679.786	0.0163768
679.864	0.0163071
679.942	0.0161254
680.021	0.0161951
680.099	0.0162405
680.177	0.0163905
680.255	0.0163329
680.333	0.0161723
680.411	0.0161053
680.489	0.0161423
680.567	0.0162971
680.646	0.0162175
680.724	0.0162784
680.802	0.0162963
680.880	0.0161952
680.958	0.0161512
681.036	0.0161008
681.114	0.0161220
681.192	0.0162905
681.271	0.0162090
681.349	0.0162167
681.427	0.0162559
681.505	0.0162917
681.583	0.0164061
681.661	0.0163286
681.739	0.0162466
681.817	0.0163808
681.896	0.0164323
681.974	0.0163763
682.052	0.0162363
682.130	0.0165156
682.208	0.0164738
682.286	0.0164973
682.364	0.0166023
682.442	0.0166193
682.521	0.0166190
682.599	0.0165556
682.677	0.0166016
682.755	0.0166561
682.833	0.0166695
682.911	0.0166298
682.989	0.0165009
683.067	0.0165562
683.146	0.0165622
683.224	0.0167249
683.302	0.0165842
683.380	0.0165569
683.458	0.0165442
683.536	0.0166634
683.614	0.0167199
683.692	0.0165553
683.771	0.0166911
683.849	0.0165508
683.927	0.0167419
684.005	0.0165820
684.083	0.0165878
684.161	0.0165862
684.239	0.0165546
684.317	0.0165788
684.396	0.0165427
684.474	0.0166000
684.552	0.0167810
684.630	0.0166022
684.708	0.0165952
684.786	0.0167419
684.864	0.0165877
684.942	0.0166446
685.021	0.0166400
685.099	0.0166548
685.177	0.0167383
685.255	0.0167564
685.333	0.0167338
685.411	0.0166341
685.489	0.0167702
685.567	0.0167635
685.646	0.0166235
685.724	0.0165368
685.802	0.0165524
685.880	0.0164676
685.958	0.0164731
686.036	0.0164774
686.114	0.0165144
686.192	0.0165041
686.271	0.0163527
686.349	0.0164429
686.427	0.0163896
686.505	0.0163588
686.583	0.0161955
686.661	0.0163590
686.739	0.0162406
686.817	0.0163141
686.896	0.0163375
686.974	0.0162826
687.052	0.0162829
687.130	0.0162735
687.208	0.0163383
687.286	0.0163443
687.364	0.0163209
687.442	0.0162561
687.521	0.0161727
687.599	0.0163801
687.677	0.0162974
687.755	0.0163666
687.833	0.0163808
687.911	0.0162907
687.989	0.0163634
688.067	0.0163593
688.146	0.0164574
688.224	0.0163312
688.302	0.0163216
688.380	0.0163915
688.458	0.0164159
688.536	0.0164836
688.614	0.0164429
688.692	0.0164711
688.771	0.0164079
688.849	0.0164655
688.927	0.0165370
689.005	0.0164989
689.083	0.0166893
689.161	0.0165549
689.239	0.0165505
689.317	0.0165695
689.396	0.0165470
689.474	0.0165488
689.552	0.0164035
689.630	0.0163198
689.708	0.0164109
689.786	0.0163437
689.864	0.0163940
689.942	0.0162923
690.021	0.0163791
690.099	0.0163706
690.177	0.0164052
690.255	0.0163309
690.333	0.0163927
690.411	0.0164233
690.489	0.0162907
690.567	0.0164136
690.646	0.0165668
690.724	0.0164700
690.802	0.0165660
690.880	0.0164531
690.958	0.0165404
691.036	0.0165709
691.114	0.0164196
691.192	0.0166321
691.271	0.0164940
691.349	0.0166222
691.427	0.0166504
691.505	0.0166813
691.583	0.0166971
691.661	0.0166788
691.739	0.0167889
691.817	0.0166305
691.896	0.0167068
691.974	0.0168570
692.052	0.0167738
692.130	0.0168325
692.208	0.0168811
692.286	0.0166660
692.364	0.0167882
692.442	0.0168329
692.521	0.0169637
692.599	0.0167930
692.677	0.0168859
692.755	0.0169792
692.833	0.0168642
692.911	0.0166473
692.989	0.0168140
693.067	0.0167737
693.146	0.0166918
693.224	0.0167490
693.302	0.0166986
693.380	0.0166768
693.458	0.0166937
693.536	0.0166599
693.614	0.0165906
693.692	0.0166166
693.771	0.0167384
693.849	0.0166604
693.927	0.0165034
694.005	0.0165883
694.083	0.0166953
694.161	0.0165357
694.239	0.0166325
694.317	0.0167406
694.396	0.0166286
694.474	0.0167480
694.552	0.0166874
694.630	0.0166673
694.708	0.0166841
694.786	0.0166215
694.864	0.0167540
694.942	0.0167963
695.021	0.0166343
695.099	0.0167227
695.177	0.0165962
695.255	0.0166283
695.333	0.0166352
695.411	0.0166236
695.489	0.0165221
695.567	0.0166607
695.646	0.0167158
695.724	0.0166127
695.802	0.0165992
695.880	0.0163556
695.958	0.0164088
696.036	0.0166157
696.114	0.0164771
696.192	0.0164230
696.271	0.0164021
696.349	0.0164719
696.427	0.0164306
696.505	0.0161709
696.583	0.0163264
696.661	0.0163998
696.739	0.0164638
696.817	0.0163593
696.896	0.0163856
696.974	0.0164438
697.052	0.0164544
697.130	0.0164580
697.208	0.0163349
697.286	0.0163628
697.364	0.0163976
697.442	0.0164684
697.521	0.0162975
697.599	0.0163822
697.677	0.0163132
697.755	0.0163354
697.833	0.0163219
697.911	0.0162579
697.989	0.0162309
698.067	0.0163293
698.146	0.0163290
698.224	0.0163577
698.302	0.0165099
698.380	0.0163447
698.458	0.0163614
698.536	0.0163821
698.614	0.0162220
698.692	0.0164846
698.771	0.0163670
698.849	0.0164233
698.927	0.0164181
699.005	0.0164458
699.083	0.0164901
699.161	0.0164725
699.239	0.0164416
699.317	0.0165220
699.396	0.0163947
699.474	0.0164448
699.552	0.0163966
699.630	0.0162997
699.708	0.0162853
699.786	0.0162917
699.864	0.0164285
699.942	0.0163879
700.021	0.0161631
700.099	0.0162938
700.177	0.0163448
700.255	0.0162852
700.333	0.0163034
700.411	0.0162350
700.489	0.0160635
700.567	0.0160844
700.646	0.0163391
700.724	0.0161641
700.802	0.0161173
700.880	0.0161001
700.958	0.0162211
701.036	0.0161145
701.114	0.0161662
701.192	0.0162926
701.271	0.0159903
701.349	0.0160330
701.427	0.0162189
701.505	0.0161285
701.583	0.0161488
701.661	0.0162289
701.739	0.0162853
701.817	0.0161984
701.896	0.0162942
701.974	0.0163302
702.052	0.0161454
702.130	0.0161596
702.208	0.0163647
702.286	0.0163561
702.364	0.0162112
702.442	0.0163802
702.521	0.0163518
702.599	0.0164221
702.677	0.0164683
702.755	0.0164606
702.833	0.0164945
702.911	0.0165419
702.989	0.0165392
703.067	0.0163802
703.146	0.0164720
703.224	0.0164748
703.302	0.0164704
703.380	0.0165663
703.458	0.0165063
703.536	0.0163879
703.614	0.0164275
703.692	0.0163944
703.771	0.0163489
703.849	0.0161654
703.927	0.0162534
704.005	0.0162871
704.083	0.0163393
704.161	0.0163362
704.239	0.0163463
704.317	0.0162442
704.396	0.0163626
704.474	0.0164055
704.552	0.0164304
704.630	0.0163569
704.708	0.0164806
704.786	0.0164820
704.864	0.0165668
704.942	0.0165567
705.021	0.0164986
705.099	0.0165128
705.177	0.0166622
705.255	0.0166366
705.333	0.0165823
705.411	0.0167716
705.489	0.0168088
705.567	0.0168597
705.646	0.0168372
705.724	0.0170235
705.802	0.0169742
705.880	0.0170772
705.958	0.0170641
706.036	0.0169346
706.114	0.0171062
706.192	0.0171744
706.271	0.0172917
706.349	0.0172789
706.427	0.0172211
706.505	0.0173518
706.583	0.0174254
706.661	0.0173365
706.739	0.0173473
706.817	0.0175285
706.896	0.0174609
706.974	0.0173540
707.052	0.0174882
707.130	0.0175002
707.208	0.0174561
707.286	0.0174753
707.364	0.0173323
707.442	0.0173915
707.521	0.0173893
707.599	0.0174222
707.677	0.0172952
707.755	0.0172468
707.833	0.0172075
707.911	0.0172049
707.989	0.0172973
708.067	0.0171239
708.146	0.0171915
708.224	0.0170184
708.302	0.0170155
708.380	0.0171942
708.458	0.0170721
708.536	0.0172122
708.614	0.0171532
708.692	0.0170828
708.771	0.0171205
708.849	0.0170355
708.927	0.0169633
709.005	0.0169439
709.083	0.0167587
709.161	0.0167406
709.239	0.0167506
709.317	0.0166940
709.396	0.0166696
709.474	0.0165878
709.552	0.0164161
709.630	0.0165083
709.708	0.0163903
709.786	0.0165097
709.864	0.0163732
709.942	0.0163756
710.021	0.0164806
710.099	0.0164207
710.177	0.0164183
710.255	0.0165715
710.333	0.0165176
710.411	0.0163544
710.489	0.0164556
710.567	0.0165823
710.646	0.0166305
710.724	0.0164960
710.802	0.0164587
710.880	0.0164761
710.958	0.0164787
711.036	0.0163610
711.114	0.0165283
711.192	0.0163717
711.271	0.0162905
711.349	0.0164047
711.427	0.0163579
711.505	0.0161703
711.583	0.0160990
711.661	0.0161337
711.739	0.0160508
711.817	0.0161080
711.896	0.0161942
711.974	0.0162864
712.052	0.0162022
712.130	0.0164000
712.208	0.0163126
712.286	0.0162983
712.364	0.0163010
712.442	0.0165147
712.521	0.0164473
712.599	0.0166095
712.677	0.0165805
712.755	0.0165616
712.833	0.0164576
712.911	0.0166061
712.989	0.0165729
713.067	0.0163918
713.146	0.0165122
713.224	0.0166691
713.302	0.0164031
713.380	0.0164355
713.458	0.0165335
713.536	0.0164462
713.614	0.0165265
713.692	0.0165681
713.771	0.0166347
713.849	0.0165822
713.927	0.0166022
714.005	0.0166182
714.083	0.0166632
714.161	0.0166534
714.239	0.0165895
714.317	0.0166874
714.396	0.0165993
714.474	0.0166623
714.552	0.0166108
714.630	0.0165855
714.708	0.0164982
714.786	0.0165242
714.864	0.0164961
714.942	0.0164223
715.021	0.0167097
715.099	0.0164785
715.177	0.0166776
715.255	0.0168089
715.333	0.0167195
715.411	0.0166635
715.489	0.0166289
715.567	0.0167912
715.646	0.0168115
715.724	0.0169920
715.802	0.0169380
715.880	0.0168557
715.958	0.0169646
716.036	0.0168320
716.114	0.0168972
716.192	0.0167846
716.271	0.0169274
716.349	0.0168862
716.427	0.0168380
716.505	0.0167133
716.583	0.0167199
716.661	0.0169022
716.739	0.0168849
716.817	0.0169519
716.896	0.0168606
716.974	0.0166354
717.052	0.0167649
717.130	0.0168426
717.208	0.0169408
717.286	0.0166426
717.364	0.0167381
717.442	0.0169093
717.521	0.0167302
717.599	0.0167565
717.677	0.0166910
717.755	0.0168337
717.833	0.0168375
717.911	0.0167522
717.989	0.0166525
718.067	0.0168278
718.146	0.0166872
718.224	0.0167050
718.302	0.0165614
718.380	0.0167614
718.458	0.0168541
718.536	0.0167823
718.614	0.0167162
718.692	0.0166341
718.771	0.0166597
718.849	0.0167374
718.927	0.0167488
719.005	0.0166156
719.083	0.0166216
719.161	0.0165285
719.239	0.0166482
719.317	0.0166154
719.396	0.0163366
719.474	0.0163367
719.552	0.0164641
719.630	0.0163250
719.708	0.0163202
719.786	0.0162499
719.864	0.0162965
719.942	0.0162662
720.021	0.0162083
720.099	0.0163616
720.177	0.0162564
720.255	0.0161749
720.333	0.0160852
720.411	0.0161411
720.489	0.0160333
720.567	0.0160014
720.646	0.0161544
720.724	0.0160442
720.802	0.0160246
720.880	0.0159559
720.958	0.0160132
721.036	0.0159361
721.114	0.0158927
721.192	0.0159566
721.271	0.0157780
721.349	0.0158620
721.427	0.0159402
721.505	0.0159897
721.583	0.0159038
721.661	0.0158594
721.739	0.0160310
721.817	0.0159240
721.896	0.0158366
721.974	0.0160073
722.052	0.0159629
722.130	0.0159824
722.208	0.0160222
722.286	0.0159840
722.364	0.0159713
722.442	0.0159765
722.521	0.0160800
722.599	0.0160591
722.677	0.0159370
722.755	0.0160993
722.833	0.0160033
722.911	0.0162731
722.989	0.0162001
723.067	0.0161607
723.146	0.0160815
723.224	0.0160811
723.302	0.0161147
723.380	0.0160516
723.458	0.0161811
723.536	0.0160842
723.614	0.0160790
723.692	0.0159887
723.771	0.0161170
723.849	0.0161015
723.927	0.0161421
724.005	0.0161259
724.083	0.0161102
724.161	0.0161821
724.239	0.0161717
724.317	0.0161660
724.396	0.0162011
724.474	0.0161688
724.552	0.0161359
724.630	0.0163104
724.708	0.0163387
724.786	0.0163331
724.864	0.0162759
724.942	0.0164567
725.021	0.0164603
725.099	0.0164195
725.177	0.0164060
725.255	0.0164564
725.333	0.0164326
725.411	0.0165121
725.489	0.0166154
725.567	0.0166669
725.646	0.0166622
725.724	0.0167145
725.802	0.0167284
725.880	0.0167813
725.958	0.0167427
726.036	0.0168391
726.114	0.0167915
726.192	0.0168017
726.271	0.0169787
726.349	0.0169400
726.427	0.0169292
726.505	0.0170901
726.583	0.0170869
726.661	0.0170206
726.739	0.0170744
726.817	0.0172364
726.896	0.0171146
726.974	0.0171259
727.052	0.0172620
727.130	0.0173405
727.208	0.0172253
727.286	0.0172175
727.364	0.0171978
727.442	0.0172112
727.521	0.0172520
727.599	0.0171262
727.677	0.0171519
727.755	0.0171936
727.833	0.0170190
727.911	0.0169805
727.989	0.0171029
728.067	0.0168614
728.146	0.0168868
728.224	0.0170605
728.302	0.0171640
728.380	0.0167893
728.458	0.0167323
728.536	0.0168472
728.614	0.0168047
728.692	0.0166816
728.771	0.0167896
728.849	0.0168260
728.927	0.0167329
729.005	0.0167004
729.083	0.0167855
729.161	0.0168308
729.239	0.0168119
729.317	0.0168243
729.396	0.0168100
729.474	0.0168457
729.552	0.0168922
729.630	0.0168729
729.708	0.0169323
729.786	0.0168201
729.864	0.0168629
729.942	0.0169868
730.021	0.0168930
730.099	0.0168713
730.177	0.0169337
730.255	0.0169467
730.333	0.0169393
730.411	0.0170113
730.489	0.0170402
730.567	0.0171024
730.646	0.0170763
730.724	0.0170580
730.802	0.0170514
730.880	0.0171125
730.958	0.0170858
731.036	0.0170260
731.114	0.0170851
731.192	0.0170907
731.271	0.0169469
731.349	0.0169706
731.427	0.0167879
731.505	0.0167836
731.583	0.0168729
731.661	0.0168203
731.739	0.0167930
731.817	0.0167606
731.896	0.0167476
731.974	0.0166087
732.052	0.0164590
732.130	0.0164883
732.208	0.0163422
732.286	0.0164397
732.364	0.0163364
732.442	0.0163243
732.521	0.0162473
732.599	0.0161841
732.677	0.0162061
732.755	0.0161778
732.833	0.0160416
732.911	0.0159608
732.989	0.0159261
733.067	0.0159824
733.146	0.0158221
733.224	0.0159473
733.302	0.0159170
733.380	0.0157893
733.458	0.0159738
733.536	0.0160721
733.614	0.0160746
733.692	0.0159960
733.771	0.0160835
733.849	0.0161181
733.927	0.0160300
734.005	0.0162012
734.083	0.0161762
734.161	0.0161335
734.239	0.0162320
734.317	0.0163203
734.396	0.0162359
734.474	0.0162135
734.552	0.0161497
734.630	0.0163060
734.708	0.0162322
734.786	0.0162550
734.864	0.0163358
734.942	0.0164336
735.021	0.0164320
735.099	0.0164787
735.177	0.0165223
735.255	0.0164613
735.333	0.0165552
735.411	0.0167284
735.489	0.0167852
735.567	0.0166874
735.646	0.0167709
735.724	0.0168433
735.802	0.0169305
735.880	0.0169329
735.958	0.0170045
736.036	0.0169226
736.114	0.0170136
736.192	0.0171156
736.271	0.0171333
736.349	0.0170905
736.427	0.0171546
736.505	0.0171313
736.583	0.0169979
736.661	0.0171179
736.739	0.0171828
736.817	0.0171524
736.896	0.0171791
736.974	0.0172576
737.052	0.0171471
737.130	0.0171700
737.208	0.0171866
737.286	0.0171889
737.364	0.0171794
737.442	0.0171449
737.521	0.0171362
737.599	0.0171397
737.677	0.0172710
737.755	0.0170717
737.833	0.0171588
737.911	0.0171157
737.989	0.0170089
738.067	0.0169468
738.146	0.0168797
738.224	0.0170567
738.302	0.0168706
738.380	0.0169519
738.458	0.0169008
738.536	0.0168911
738.614	0.0167310
738.692	0.0166953
738.771	0.0168168
738.849	0.0168563
738.927	0.0166501
739.005	0.0168683
739.083	0.0166557
739.161	0.0167143
739.239	0.0165542
739.317	0.0164697
739.396	0.0165758
739.474	0.0163943
739.552	0.0164011
739.630	0.0165214
739.708	0.0165658
739.786	0.0165594
739.864	0.0164636
739.942	0.0166476
740.021	0.0165835
740.099	0.0164951
740.177	0.0164442
740.255	0.0164135
740.333	0.0164619
740.411	0.0165066
740.489	0.0165427
740.567	0.0165188
740.646	0.0165986
740.724	0.0164517
740.802	0.0165257
740.880	0.0164776
740.958	0.0165194
741.036	0.0164519
741.114	0.0165755
741.192	0.0166087
741.271	0.0164083
741.349	0.0163988
741.427	0.0164307
741.505	0.0163393
741.583	0.0161871
741.661	0.0163264
741.739	0.0163790
741.817	0.0162440
741.896	0.0162282
741.974	0.0163203
742.052	0.0163181
742.130	0.0162386
742.208	0.0161490
742.286	0.0161306
742.364	0.0161866
742.442	0.0161279
742.521	0.0160915
742.599	0.0159929
742.677	0.0161259
742.755	0.0160316
742.833	0.0160323
742.911	0.0160079
742.989	0.0161644
743.067	0.0160480
743.146	0.0160240
743.224	0.0161181
743.302	0.0160455
743.380	0.0160896
743.458	0.0160539
743.536	0.0161978
743.614	0.0160750
743.692	0.0161823
743.771	0.0159766
743.849	0.0161031
743.927	0.0159502
744.005	0.0160481
744.083	0.0160270
744.161	0.0162007
744.239	0.0161697
744.317	0.0162057
744.396	0.0163087
744.474	0.0161404
744.552	0.0162588
744.630	0.0162339
744.708	0.0162898
744.786	0.0161589
744.864	0.0163827
744.942	0.0162495
745.021	0.0163168
745.099	0.0162972
745.177	0.0161989
745.255	0.0163396
745.333	0.0164084
745.411	0.0164558
745.489	0.0164033
745.567	0.0163038
745.646	0.0162469
745.724	0.0162370
745.802	0.0163023
745.880	0.0162496
745.958	0.0164378
746.036	0.0162131
746.114	0.0162445
746.192	0.0164359
746.271	0.0162774
746.349	0.0163055
746.427	0.0164344
746.505	0.0163642
746.583	0.0164338
746.661	0.0164396
746.739	0.0163593
746.817	0.0163694
746.896	0.0164352
746.974	0.0164389
747.052	0.0163786
747.130	0.0164324
747.208	0.0163358
747.286	0.0163501
747.364	0.0164040
747.442	0.0162523
747.521	0.0163200
747.599	0.0164944
747.677	0.0164260
747.755	0.0162794
747.833	0.0162287
747.911	0.0163055
747.989	0.0162602
748.067	0.0161909
748.146	0.0163371
748.224	0.0160693
748.302	0.0161994
748.380	0.0162301
748.458	0.0160178
748.536	0.0160917
748.614	0.0162089
748.692	0.0162534
748.771	0.0161618
748.849	0.0160474
748.927	0.0162914
749.005	0.0162743
749.083	0.0161658
749.161	0.0163272
749.239	0.0163198
749.317	0.0163725
749.396	0.0163885
749.474	0.0163566
749.552	0.0163770
749.630	0.0165557
749.708	0.0164471
749.786	0.0164141
749.864	0.0164534
749.942	0.0164090
750.021	0.0163730
750.099	0.0164793
750.177	0.0163017
750.255	0.0163982
750.333	0.0164497
750.411	0.0165566
750.489	0.0163922
750.567	0.0165075
750.646	0.0166251
750.724	0.0165401
750.802	0.0166338
750.880	0.0166616
750.958	0.0166973
751.036	0.0167537
751.114	0.0166478
751.192	0.0168338
751.271	0.0168961
751.349	0.0168353
751.427	0.0168088
751.505	0.0168704
751.583	0.0167671
751.661	0.0167797
751.739	0.0166978
751.817	0.0166891
751.896	0.0167804
751.974	0.0167760
752.052	0.0167163
752.130	0.0167523
752.208	0.0167152
752.286	0.0167172
752.364	0.0167361
752.442	0.0166219
752.521	0.0166209
752.599	0.0167216
752.677	0.0167526
752.755	0.0165281
752.833	0.0165266
752.911	0.0167017
752.989	0.0165424
753.067	0.0165625
753.146	0.0165232
753.224	0.0163538
753.302	0.0165340
753.380	0.0163351
753.458	0.0163627
753.536	0.0163341
753.614	0.0162450
753.692	0.0162661
753.771	0.0163525
753.849	0.0163840
753.927	0.0162734
754.005	0.0160761
754.083	0.0162791
754.161	0.0163277
754.239	0.0163940
754.317	0.0162205
754.396	0.0160136
754.474	0.0162661
754.552	0.0162246
754.630	0.0160886
754.708	0.0161530
754.786	0.0161707
754.864	0.0161607
754.942	0.0159451
755.021	0.0159844
755.099	0.0159585
755.177	0.0159850
755.255	0.0160195
755.333	0.0159802
755.411	0.0160884
755.489	0.0161499
755.567	0.0160938
755.646	0.0161154
755.724	0.0157645
755.802	0.0158945
755.880	0.0159975
755.958	0.0162112
756.036	0.0162171
756.114	0.0161626
756.192	0.0161266
756.271	0.0161566
756.349	0.0162612
756.427	0.0161543
756.505	0.0162265
756.583	0.0163486
756.661	0.0161934
756.739	0.0161600
756.817	0.0161980
756.896	0.0164018
756.974	0.0163925
757.052	0.0163388
757.130	0.0162402
757.208	0.0162682
757.286	0.0163678
757.364	0.0165112
757.442	0.0164582
757.521	0.0166090
757.599	0.0165971
757.677	0.0164931
757.755	0.0165066
757.833	0.0165620
757.911	0.0165849
757.989	0.0167249
758.067	0.0166588
758.146	0.0167854
758.224	0.0168208
758.302	0.0168098
758.380	0.0168169
758.458	0.0167350
758.536	0.0169244
758.614	0.0169142
758.692	0.0168182
758.771	0.0168997
758.849	0.0169283
758.927	0.0168952
759.005	0.0169105
759.083	0.0169120
759.161	0.0168185
759.239	0.0167859
759.317	0.0167479
759.396	0.0168411
759.474	0.0166646
759.552	0.0166367
759.630	0.0166155
759.708	0.0167553
759.786	0.0166837
759.864	0.0167023
759.942	0.0165952
760.021	0.0165414
760.099	0.0164471
760.177	0.0166669
760.255	0.0166443
760.333	0.0164997
760.411	0.0166273
760.489	0.0165150
760.567	0.0164686
760.646	0.0163380
760.724	0.0165356
760.802	0.0166774
760.880	0.0164499
760.958	0.0164919
761.036	0.0162993
761.114	0.0164186
761.192	0.0164191
761.271	0.0163578
761.349	0.0164108
761.427	0.0162365
761.505	0.0163804
761.583	0.0163258
761.661	0.0164007
761.739	0.0162907
761.817	0.0161563
761.896	0.0161179
761.974	0.0159666
762.052	0.0160940
762.130	0.0160693
762.208	0.0160169
762.286	0.0159851
762.364	0.0160546
762.442	0.0159398
762.521	0.0159904
762.599	0.0158556
762.677	0.0159362
762.755	0.0161431
762.833	0.0159985
762.911	0.0159615
762.989	0.0160106
763.067	0.0160133
763.146	0.0160674
763.224	0.0161348
763.302	0.0160030
763.380	0.0160767
763.458	0.0161238
763.536	0.0161278
763.614	0.0162354
763.692	0.0162045
763.771	0.0161260
763.849	0.0162354
763.927	0.0162027
764.005	0.0162953
764.083	0.0161571
764.161	0.0162474
764.239	0.0163419
764.317	0.0162366
764.396	0.0164931
764.474	0.0164186
764.552	0.0162861
764.630	0.0163837
764.708	0.0164816
764.786	0.0164852
764.864	0.0163873
764.942	0.0164281
765.021	0.0164740
765.099	0.0165314
765.177	0.0165234
765.255	0.0166132
765.333	0.0166939
765.411	0.0165984
765.489	0.0164916
765.567	0.0166454
765.646	0.0166185
765.724	0.0167089
765.802	0.0165868
765.880	0.0166009
765.958	0.0165176
766.036	0.0166350
766.114	0.0166486
766.192	0.0165368
766.271	0.0165987
766.349	0.0166711
766.427	0.0165607
766.505	0.0165742
766.583	0.0165975
766.661	0.0164790
766.739	0.0165886
766.817	0.0166692
766.896	0.0165947
766.974	0.0166759
767.052	0.0164922
767.130	0.0166433
767.208	0.0167743
767.286	0.0166776
767.364	0.0167432
767.442	0.0168235
767.521	0.0166178
767.599	0.0168034
767.677	0.0168852
767.755	0.0166767
767.833	0.0166225
767.911	0.0165720
767.989	0.0167170
768.067	0.0167052
768.146	0.0166798
768.224	0.0167133
768.302	0.0167452
768.380	0.0167748
768.458	0.0167563
768.536	0.0167010
768.614	0.0167024
768.692	0.0167312
768.771	0.0167360
768.849	0.0166530
768.927	0.0166910
769.005	0.0167830
769.083	0.0167987
769.161	0.0167312
769.239	0.0167313
769.317	0.0167855
769.396	0.0168272
769.474	0.0167316
769.552	0.0167992
769.630	0.0168377
769.708	0.0166053
769.786	0.0167377
769.864	0.0168436
769.942	0.0168113
770.021	0.0167831
770.099	0.0166230
770.177	0.0167171
770.255	0.0166659
770.333	0.0165919
770.411	0.0166413
770.489	0.0164993
770.567	0.0167188
770.646	0.0166010
770.724	0.0165082
770.802	0.0163459
770.880	0.0163543
770.958	0.0165657
771.036	0.0166308
771.114	0.0164877
771.192	0.0164904
771.271	0.0163114
771.349	0.0164485
771.427	0.0163565
771.505	0.0162601
771.583	0.0163707
771.661	0.0164571
771.739	0.0165017
771.817	0.0165168
771.896	0.0163609
771.974	0.0164169
772.052	0.0165920
772.130	0.0165890
772.208	0.0164119
772.286	0.0163736
772.364	0.0164193
772.442	0.0164282
772.521	0.0165448
772.599	0.0165087
772.677	0.0165799
772.755	0.0165397
772.833	0.0164213
772.911	0.0166034
772.989	0.0165801
773.067	0.0165974
773.146	0.0165230
773.224	0.0165887
773.302	0.0167337
773.380	0.0167651
773.458	0.0167410
773.536	0.0167065
773.614	0.0166465
773.692	0.0167848
773.771	0.0169221
773.849	0.0168546
773.927	0.0167183
774.005	0.0168552
774.083	0.0168108
774.161	0.0167785
774.239	0.0167004
774.317	0.0168298
774.396	0.0168491
774.474	0.0167690
774.552	0.0167504
774.630	0.0168843
774.708	0.0171043
774.786	0.0168897
774.864	0.0168027
774.942	0.0169720
775.021	0.0168325
775.099	0.0169298
775.177	0.0167938
775.255	0.0168753
775.333	0.0170407
775.411	0.0170178
775.489	0.0168767
775.567	0.0169891
775.646	0.0169467
775.724	0.0170118
775.802	0.0169757
775.880	0.0169079
775.958	0.0168773
776.036	0.0169215
776.114	0.0168459
776.192	0.0168956
776.271	0.0168630
776.349	0.0168346
776.427	0.0168200
776.505	0.0167767
776.583	0.0166817
776.661	0.0167602
776.739	0.0167361
776.817	0.0167790
776.896	0.0165640
776.974	0.0165215
777.052	0.0165107
777.130	0.0164508
777.208	0.0166398
777.286	0.0165113
777.364	0.0164266
777.442	0.0165839
777.521	0.0165670
777.599	0.0165457
777.677	0.0163571
777.755	0.0163958
777.833	0.0165105
777.911	0.0163020
777.989	0.0163616
778.067	0.0163038
778.146	0.0163067
778.224	0.0162810
778.302	0.0163221
778.380	0.0162583
778.458	0.0163245
778.536	0.0161691
778.614	0.0162132
778.692	0.0161452
778.771	0.0161633
778.849	0.0161047
778.927	0.0161311
779.005	0.0162389
779.083	0.0161843
779.161	0.0161517
779.239	0.0162489
779.317	0.0162233
779.396	0.0160908
779.474	0.0161904
779.552	0.0162206
779.630	0.0163019
779.708	0.0161430
779.786	0.0162291
779.864	0.0161993
779.942	0.0160662
780.021	0.0162265
780.099	0.0161533
780.177	0.0161307
780.255	0.0161521
780.333	0.0162256
780.411	0.0160553
780.489	0.0160862
780.567	0.0160631
780.646	0.0160207
780.724	0.0160188
780.802	0.0161023
780.880	0.0161955
780.958	0.0162039
781.036	0.0161629
781.114	0.0161189
781.192	0.0161746
781.271	0.0162112
781.349	0.0161365
781.427	0.0160886
781.505	0.0160340
781.583	0.0158796
781.661	0.0160235
781.739	0.0160934
781.817	0.0159661
781.896	0.0160499
781.974	0.0159475
782.052	0.0161214
782.130	0.0160509
782.208	0.0159910
782.286	0.0159111
782.364	0.0160848
782.442	0.0161221
782.521	0.0161051
782.599	0.0160139
782.677	0.0160561
782.755	0.0161298
782.833	0.0162093
782.911	0.0160848
782.989	0.0161165
783.067	0.0160849
783.146	0.0160526
783.224	0.0160888
783.302	0.0162499
783.380	0.0161718
783.458	0.0160968
783.536	0.0162446
783.614	0.0162043
783.692	0.0162876
783.771	0.0162004
783.849	0.0163242
783.927	0.0164028
784.005	0.0163123
784.083	0.0163666
784.161	0.0163312
784.239	0.0164410
784.317	0.0164165
784.396	0.0163433
784.474	0.0165109
784.552	0.0164548
784.630	0.0163887
784.708	0.0165543
784.786	0.0163860
784.864	0.0164226
784.942	0.0164613
785.021	0.0164551
785.099	0.0166283
785.177	0.0165317
785.255	0.0164351
785.333	0.0167048
785.411	0.0167230
785.489	0.0165983
785.567	0.0166003
785.646	0.0166779
785.724	0.0166194
785.802	0.0167223
785.880	0.0167533
785.958	0.0167238
786.036	0.0168061
786.114	0.0167087
786.192	0.0167139
786.271	0.0167958
786.349	0.0166373
786.427	0.0167508
786.505	0.0167114
786.583	0.0168035
786.661	0.0166215
786.739	0.0165137
786.817	0.0167762
786.896	0.0167872
786.974	0.0166646
787.052	0.0165516
787.130	0.0166772
787.208	0.0165697
787.286	0.0166694
787.364	0.0167680
787.442	0.0166341
787.521	0.0165774
787.599	0.0167985
787.677	0.0166319
787.755	0.0167674
787.833	0.0167167
787.911	0.0166793
787.989	0.0163100
788.067	0.0166195
788.146	0.0165171
788.224	0.0164816
788.302	0.0166093
788.380	0.0165285
788.458	0.0164904
788.536	0.0166467
788.614	0.0165296
788.692	0.0164986
788.771	0.0164978
788.849	0.0165762
788.927	0.0165281
789.005	0.0165763
789.083	0.0165363
789.161	0.0166084
789.239	0.0166657
789.317	0.0164946
789.396	0.0165658
789.474	0.0165530
789.552	0.0166080
789.630	0.0165623
789.708	0.0165924
789.786	0.0166246
789.864	0.0164330
789.942	0.0165646
790.021	0.0164385
790.099	0.0164931
790.177	0.0166514
790.255	0.0167523
790.333	0.0165053
790.411	0.0165786
790.489	0.0164845
790.567	0.0165987
790.646	0.0165927
790.724	0.0166546
790.802	0.0165756
790.880	0.0164700
790.958	0.0164791
791.036	0.0165768
791.114	0.0165102
791.192	0.0165497
791.271	0.0166777
791.349	0.0165710
791.427	0.0166281
791.505	0.0165355
791.583	0.0165990
791.661	0.0167316
791.739	0.0165874
791.817	0.0167004
791.896	0.0166268
791.974	0.0167263
792.052	0.0167969
792.130	0.0168167
792.208	0.0167728
792.286	0.0168530
792.364	0.0167398
792.442	0.0166946
792.521	0.0168758
792.599	0.0169818
792.677	0.0167527
792.755	0.0169495
792.833	0.0168095
792.911	0.0168123
792.989	0.0168472
793.067	0.0168409
793.146	0.0168509
793.224	0.0169953
793.302	0.0169241
793.380	0.0169010
793.458	0.0169276
793.536	0.0169379
793.614	0.0169791
793.692	0.0169147
793.771	0.0169016
793.849	0.0168707
793.927	0.0168811
794.005	0.0168556
794.083	0.0169103
794.161	0.0168682
794.239	0.0167832
794.317	0.0168051
794.396	0.0167661
794.474	0.0167899
794.552	0.0169430
794.630	0.0168415
794.708	0.0169447
794.786	0.0168194
794.864	0.0168017
794.942	0.0168245
795.021	0.0169427
795.099	0.0168201
795.177	0.0168879
795.255	0.0167786
795.333	0.0168954
795.411	0.0168033
795.489	0.0169846
795.567	0.0167919
795.646	0.0167009
795.724	0.0168591
795.802	0.0168338
795.880	0.0166989
795.958	0.0169292
796.036	0.0168950
796.114	0.0169937
796.192	0.0168433
796.271	0.0167266
796.349	0.0166949
796.427	0.0167589
796.505	0.0168433
796.583	0.0166515
796.661	0.0166821
796.739	0.0168165
796.817	0.0167781
796.896	0.0164974
796.974	0.0166640
797.052	0.0166942
797.130	0.0165881
797.208	0.0165514
797.286	0.0166234
797.364	0.0166621
797.442	0.0165495
797.521	0.0165023
797.599	0.0164609
797.677	0.0166275
797.755	0.0164645
797.833	0.0163873
797.911	0.0164179
797.989	0.0165411
798.067	0.0165731
798.146	0.0163721
798.224	0.0164204
798.302	0.0163320
798.380	0.0163755
798.458	0.0163950
798.536	0.0163628
798.614	0.0163847
798.692	0.0165343
798.771	0.0165498
798.849	0.0164872
798.927	0.0164885
799.005	0.0165173
799.083	0.0165124
799.161	0.0165720
799.239	0.0164339
799.317	0.0165986
799.396	0.0164707
799.474	0.0165856
799.552	0.0166086
799.630	0.0166238
799.708	0.0165870
799.786	0.0166692
799.864	0.0166320
799.942	0.0166412
800.021	0.0166642
800.099	0.0165903
800.177	0.0166721
800.255	0.0166379
800.333	0.0167249
800.411	0.0166989
800.489	0.0165700
800.567	0.0166707
800.646	0.0166168
800.724	0.0166454
800.802	0.0166725
800.880	0.0167820
800.958	0.0166084
801.036	0.0166761
801.114	0.0167342
801.192	0.0167155
801.271	0.0166590
801.349	0.0166424
801.427	0.0168199
801.505	0.0167774
801.583	0.0166930
801.661	0.0167332
801.739	0.0165818
801.817	0.0168259
801.896	0.0167319
801.974	0.0166956
802.052	0.0167423
802.130	0.0167495
802.208	0.0167533
802.286	0.0167508
802.364	0.0168207
802.442	0.0168329
802.521	0.0168744
802.599	0.0169189
802.677	0.0169251
802.755	0.0167101
802.833	0.0167119
802.911	0.0167936
802.989	0.0169579
803.067	0.0169039
803.146	0.0167051
803.224	0.0166996
803.302	0.0166251
803.380	0.0166965
803.458	0.0166005
803.536	0.0165394
803.614	0.0167030
803.692	0.0166096
803.771	0.0166270
803.849	0.0165321
803.927	0.0164561
804.005	0.0164697
804.083	0.0164558
804.161	0.0164695
804.239	0.0163845
804.317	0.0163704
804.396	0.0163604
804.474	0.0162273
804.552	0.0162121
804.630	0.0162057
804.708	0.0162704
804.786	0.0161244
804.864	0.0161404
804.942	0.0160927
805.021	0.0160130
805.099	0.0160330
805.177	0.0158289
805.255	0.0159113
805.333	0.0159608
805.411	0.0159510
805.489	0.0160163
805.567	0.0159389
805.646	0.0159364
805.724	0.0158831
805.802	0.0157445
805.880	0.0158620
805.958	0.0159821
806.036	0.0158594
806.114	0.0160003
806.192	0.0158988
806.271	0.0158886
806.349	0.0158433
806.427	0.0158755
806.505	0.0158177
806.583	0.0158917
806.661	0.0159660
806.739	0.0159109
806.817	0.0160480
806.896	0.0160493
806.974	0.0159560
807.052	0.0161856
807.130	0.0161149
807.208	0.0162214
807.286	0.0161719
807.364	0.0161689
807.442	0.0161744
807.521	0.0162376
807.599	0.0162683
807.677	0.0162122
807.755	0.0162440
807.833	0.0163847
807.911	0.0163600
807.989	0.0163506
808.067	0.0162745
808.146	0.0163387
808.224	0.0164872
808.302	0.0164751
808.380	0.0164100
808.458	0.0163965
808.536	0.0164522
808.614	0.0165540
808.692	0.0166650
808.771	0.0164365
808.849	0.0164844
808.927	0.0166038
809.005	0.0164404
809.083	0.0165907
809.161	0.0166248
809.239	0.0167607
809.317	0.0166969
809.396	0.0168555
809.474	0.0167515
809.552	0.0168045
809.630	0.0166424
809.708	0.0167370
809.786	0.0168664
809.864	0.0168288
809.942	0.0168460
810.021	0.0167451
810.099	0.0168982
810.177	0.0169167
810.255	0.0169775
810.333	0.0169049
810.411	0.0169334
810.489	0.0170225
810.567	0.0170287
810.646	0.0171290
810.724	0.0168360
810.802	0.0168015
810.880	0.0170717
810.958	0.0169411
811.036	0.0169308
811.114	0.0170159
811.192	0.0169244
811.271	0.0169051
811.349	0.0169354
811.427	0.0168221
811.505	0.0168096
811.583	0.0167835
811.661	0.0168515
811.739	0.0168750
811.817	0.0167780
811.896	0.0167595
811.974	0.0168511
812.052	0.0168444
812.130	0.0168824
812.208	0.0167393
812.286	0.0166700
812.364	0.0166337
812.442	0.0167019
812.521	0.0168812
812.599	0.0167435
812.677	0.0166011
812.755	0.0166954
812.833	0.0164874
812.911	0.0165508
812.989	0.0165025
813.067	0.0165976
813.146	0.0165417
813.224	0.0163737
813.302	0.0162835
813.380	0.0163673
813.458	0.0164510
813.536	0.0163539
813.614	0.0161871
813.692	0.0163342
813.771	0.0163086
813.849	0.0161904
813.927	0.0162490
814.005	0.0159210
814.083	0.0159552
814.161	0.0161002
814.239	0.0159260
814.317	0.0159184
814.396	0.0158662
814.474	0.0158835
814.552	0.0157746
814.630	0.0158307
814.708	0.0158867
814.786	0.0157832
814.864	0.0158167
814.942	0.0157034
815.021	0.0157420
815.099	0.0156814
815.177	0.0157343
815.255	0.0157493
815.333	0.0157841
815.411	0.0158174
815.489	0.0158447
815.567	0.0158166
815.646	0.0159396
815.724	0.0157449
815.802	0.0157736
815.880	0.0156087
815.958	0.0160628
816.036	0.0159333
816.114	0.0160792
816.192	0.0161227
816.271	0.0161267
816.349	0.0162775
816.427	0.0161928
816.505	0.0163020
816.583	0.0162629
816.661	0.0163372
816.739	0.0165816
816.817	0.0166218
816.896	0.0167034
816.974	0.0167981
817.052	0.0168230
817.130	0.0167971
817.208	0.0170758
817.286	0.0169367
817.364	0.0170731
817.442	0.0171880
817.521	0.0172131
817.599	0.0171743
817.677	0.0172470
817.755	0.0174273
817.833	0.0173792
817.911	0.0175629
817.989	0.0175113
818.067	0.0176456
818.146	0.0176598
818.224	0.0177209
818.302	0.0176537
818.380	0.0177482
818.458	0.0177230
818.536	0.0177084
818.614	0.0177720
818.692	0.0176810
818.771	0.0177929
818.849	0.0178262
818.927	0.0178302
819.005	0.0177113
819.083	0.0176799
819.161	0.0176373
819.239	0.0176950
819.317	0.0177143
819.396	0.0175762
819.474	0.0175318
819.552	0.0176787
819.630	0.0176262
819.708	0.0174152
819.786	0.0175645
819.864	0.0175914
819.942	0.0173481
820.021	0.0174157
820.099	0.0173019
820.177	0.0173106
820.255	0.0172020
820.333	0.0171497
820.411	0.0171709
820.489	0.0169418
820.567	0.0168977
820.646	0.0169977
820.724	0.0167818
820.802	0.0167871
820.880	0.0167439
820.958	0.0165965
821.036	0.0167612
821.114	0.0166285
821.192	0.0166154
821.271	0.0166019
821.349	0.0164581
821.427	0.0164346
821.505	0.0164067
821.583	0.0164550
821.661	0.0163570
821.739	0.0163735
821.817	0.0162595
821.896	0.0162955
821.974	0.0163109
822.052	0.0163270
822.130	0.0162708
822.208	0.0163441
822.286	0.0162746
822.364	0.0162298
822.442	0.0162655
822.521	0.0161552
822.599	0.0162865
822.677	0.0163168
822.755	0.0162778
822.833	0.0163764
822.911	0.0162553
822.989	0.0161729
823.067	0.0163683
823.146	0.0164606
823.224	0.0163120
823.302	0.0162197
823.380	0.0163484
823.458	0.0163983
823.536	0.0163219
823.614	0.0163920
823.692	0.0164024
823.771	0.0165874
823.849	0.0165424
823.927	0.0164463
824.005	0.0164632
824.083	0.0165426
824.161	0.0164876
824.239	0.0165774
824.317	0.0165517
824.396	0.0166180
824.474	0.0165738
824.552	0.0165797
824.630	0.0164498
824.708	0.0165540
824.786	0.0165639
824.864	0.0164426
824.942	0.0163538
825.021	0.0163871
825.099	0.0164257
825.177	0.0162512
825.255	0.0163480
825.333	0.0164352
825.411	0.0163892
825.489	0.0163647
825.567	0.0163264
825.646	0.0162278
825.724	0.0162843
825.802	0.0163988
825.880	0.0162868
825.958	0.0162332
826.036	0.0163580
826.114	0.0163418
826.192	0.0162802
826.271	0.0162622
826.349	0.0162438
826.427	0.0162785
826.505	0.0161415
826.583	0.0161613
826.661	0.0161841
826.739	0.0161656
826.817	0.0161095
826.896	0.0160883
826.974	0.0162240
827.052	0.0161008
827.130	0.0160406
827.208	0.0160466
827.286	0.0161509
827.364	0.0161687
827.442	0.0161188
827.521	0.0161014
827.599	0.0162203
827.677	0.0161546
827.755	0.0161253
827.833	0.0161964
827.911	0.0161616
827.989	0.0161224
828.067	0.0160694
828.146	0.0160764
828.224	0.0161989
828.302	0.0160238
828.380	0.0159747
828.458	0.0159241
828.536	0.0159498
828.614	0.0158864
828.692	0.0160098
828.771	0.0159230
828.849	0.0157732
828.927	0.0159933
829.005	0.0158254
829.083	0.0160090
829.161	0.0159309
829.239	0.0159099
829.317	0.0159938
829.396	0.0159987
829.474	0.0159399
829.552	0.0160145
829.630	0.0161071
829.708	0.0161288
829.786	0.0160981
829.864	0.0161719
829.942	0.0161869
830.021	0.0162506
830.099	0.0163357
830.177	0.0162581
830.255	0.0161541
830.333	0.0163521
830.411	0.0163383
830.489	0.0164026
830.567	0.0164912
830.646	0.0166741
830.724	0.0165292
830.802	0.0164398
830.880	0.0163904
830.958	0.0164491
831.036	0.0165325
831.114	0.0165699
831.192	0.0165884
831.271	0.0165269
831.349	0.0166118
831.427	0.0166883
831.505	0.0165570
831.583	0.0166097
831.661	0.0165083
831.739	0.0166049
831.817	0.0167653
831.896	0.0167317
831.974	0.0166383
832.052	0.0166653
832.130	0.0166931
832.208	0.0167355
832.286	0.0166348
832.364	0.0167653
832.442	0.0167192
832.521	0.0166203
832.599	0.0166591
832.677	0.0167142
832.755	0.0166808
832.833	0.0165591
832.911	0.0166106
832.989	0.0167328
833.067	0.0166840
833.146	0.0166252
833.224	0.0165092
833.302	0.0166890
833.380	0.0167299
833.458	0.0167300
833.536	0.0166037
833.614	0.0166545
833.692	0.0167661
833.771	0.0165461
833.849	0.0166171
833.927	0.0167824
834.005	0.0167365
834.083	0.0167747
834.161	0.0168806
834.239	0.0168092
834.317	0.0167267
834.396	0.0169646
834.474	0.0169670
834.552	0.0169101
834.630	0.0167957
834.708	0.0169773
834.786	0.0169072
834.864	0.0169147
834.942	0.0168745
835.021	0.0168872
835.099	0.0168190
835.177	0.0167444
835.255	0.0168277
835.333	0.0168430
835.411	0.0168902
835.489	0.0167171
835.567	0.0168816
835.646	0.0168560
835.724	0.0167205
835.802	0.0167596
835.880	0.0166904
835.958	0.0167305
836.036	0.0167783
836.114	0.0167727
836.192	0.0168565
836.271	0.0167079
836.349	0.0165942
836.427	0.0167475
836.505	0.0167101
836.583	0.0167132
836.661	0.0165440
836.739	0.0165261
836.817	0.0164108
836.896	0.0165374
836.974	0.0165190
837.052	0.0166047
837.130	0.0163056
837.208	0.0162762
837.286	0.0162518
837.364	0.0161105
837.442	0.0160981
837.521	0.0162273
837.599	0.0162860
837.677	0.0160603
837.755	0.0160436
837.833	0.0161773
837.911	0.0160169
837.989	0.0160724
838.067	0.0161248
838.146	0.0161970
838.224	0.0161620
838.302	0.0161280
838.380	0.0162442
838.458	0.0162404
838.536	0.0162134
838.614	0.0161922
838.692	0.0162722
838.771	0.0162379
838.849	0.0162404
838.927	0.0162489
839.005	0.0161653
839.083	0.0161007
839.161	0.0161817
839.239	0.0162279
839.317	0.0161673
839.396	0.0162225
839.474	0.0161579
839.552	0.0161280
839.630	0.0162067
839.708	0.0160564
839.786	0.0161690
839.864	0.0161591
839.942	0.0161112
840.021	0.0161467
840.099	0.0161057
840.177	0.0159941
840.255	0.0161092
840.333	0.0162000
840.411	0.0161147
840.489	0.0162155
840.567	0.0162112
840.646	0.0161327
840.724	0.0162173
840.802	0.0162831
840.880	0.0163641
840.958	0.0163500
841.036	0.0163869
841.114	0.0164452
841.192	0.0164381
841.271	0.0163988
841.349	0.0164008
841.427	0.0164677
841.505	0.0165200
841.583	0.0165236
841.661	0.0165078
841.739	0.0164225
841.817	0.0164855
841.896	0.0166051
841.974	0.0166714
842.052	0.0165936
842.130	0.0166843
842.208	0.0166653
842.286	0.0167065
842.364	0.0167359
842.442	0.0168118
842.521	0.0167647
842.599	0.0168618
842.677	0.0169538
842.755	0.0169859
842.833	0.0169582
842.911	0.0170273
842.989	0.0171185
843.067	0.0170655
843.146	0.0170787
843.224	0.0169580
843.302	0.0172008
843.380	0.0172004
843.458	0.0170585
843.536	0.0169823
843.614	0.0172436
843.692	0.0171966
843.771	0.0171493
843.849	0.0171503
843.927	0.0170741
844.005	0.0170939
844.083	0.0171172
844.161	0.0170276
844.239	0.0171379
844.317	0.0170763
844.396	0.0169016
844.474	0.0170057
844.552	0.0170253
844.630	0.0169289
844.708	0.0171278
844.786	0.0170161
844.864	0.0170495
844.942	0.0169868
845.021	0.0168834
845.099	0.0168471
845.177	0.0169080
845.255	0.0169518
845.333	0.0169285
845.411	0.0168063
845.489	0.0167643
845.567	0.0168386
845.646	0.0170243
845.724	0.0166800
845.802	0.0167691
845.880	0.0167015
845.958	0.0167078
846.036	0.0166881
846.114	0.0166956
846.192	0.0166260
846.271	0.0166424
846.349	0.0165226
846.427	0.0165428
846.505	0.0165611
846.583	0.0162875
846.661	0.0164073
846.739	0.0163953
846.817	0.0163808
846.896	0.0163058
846.974	0.0162283
847.052	0.0163723
847.130	0.0163176
847.208	0.0162462
847.286	0.0162866
847.364	0.0162442
847.442	0.0161868
847.521	0.0161458
847.599	0.0162537
847.677	0.0161208
847.755	0.0160294
847.833	0.0160788
847.911	0.0160714
847.989	0.0160218
848.067	0.0161104
848.146	0.0160571
848.224	0.0160745
848.302	0.0159213
848.380	0.0161022
848.458	0.0160510
848.536	0.0160667
848.614	0.0160262
848.692	0.0158842
848.771	0.0159924
848.849	0.0158706
848.927	0.0158467
849.005	0.0158821
849.083	0.0159016
849.161	0.0159444
849.239	0.0157894
849.317	0.0158786
849.396	0.0157211
849.474	0.0158183
849.552	0.0158896
849.630	0.0159387
849.708	0.0159587
849.786	0.0160681
849.864	0.0160469
849.942	0.0161050
850.021	0.0160128
850.099	0.0161169
850.177	0.0161120
850.255	0.0161113
850.333	0.0162215
850.411	0.0162463
850.489	0.0162746
850.567	0.0162549
850.646	0.0163004
850.724	0.0160822
850.802	0.0163216
850.880	0.0163473
850.958	0.0162699
851.036	0.0163906
851.114	0.0165308
851.192	0.0164686
851.271	0.0165053
851.349	0.0164875
851.427	0.0167101
851.505	0.0166399
851.583	0.0165833
851.661	0.0165895
851.739	0.0165377
851.817	0.0166527
851.896	0.0166281
851.974	0.0168021
852.052	0.0166946
852.130	0.0167274
852.208	0.0167857
852.286	0.0167170
852.364	0.0167684
852.442	0.0167422
852.521	0.0168061
852.599	0.0167120
852.677	0.0167034
852.755	0.0168052
852.833	0.0165990
852.911	0.0167979
852.989	0.0166811
853.067	0.0167262
853.146	0.0166873
853.224	0.0166255
853.302	0.0165735
853.380	0.0166085
853.458	0.0164275
853.536	0.0163773
853.614	0.0164158
853.692	0.0163419
853.771	0.0163860
853.849	0.0163255
853.927	0.0164446
854.005	0.0163812
854.083	0.0162450
854.161	0.0163143
854.239	0.0164214
854.317	0.0163516
854.396	0.0162827
854.474	0.0162635
854.552	0.0161854
854.630	0.0162888
854.708	0.0162514
854.786	0.0162564
854.864	0.0163340
854.942	0.0162027
855.021	0.0163362
855.099	0.0164319
855.177	0.0165144
855.255	0.0163039
855.333	0.0165075
855.411	0.0163171
855.489	0.0164375
855.567	0.0164766
855.646	0.0164462
855.724	0.0165260
855.802	0.0164445
855.880	0.0165215
855.958	0.0166402
856.036	0.0166680
856.114	0.0166429
856.192	0.0166998
856.271	0.0167655
856.349	0.0165587
856.427	0.0167883
856.505	0.0166973
856.583	0.0165745
856.661	0.0167190
856.739	0.0166908
856.817	0.0167271
856.896	0.0166930
856.974	0.0166930
857.052	0.0166887
857.130	0.0167237
857.208	0.0167694
857.286	0.0167218
857.364	0.0166785
857.442	0.0167382
857.521	0.0166985
857.599	0.0165489
857.677	0.0167076
857.755	0.0167912
857.833	0.0167203
857.911	0.0165839
857.989	0.0167022
858.067	0.0167316
858.146	0.0167612
858.224	0.0167970
858.302	0.0166340
858.380	0.0166224
858.458	0.0167484
858.536	0.0167734
858.614	0.0167417
858.692	0.0166645
858.771	0.0166756
858.849	0.0166380
858.927	0.0167462
859.005	0.0166042
859.083	0.0166870
859.161	0.0168029
859.239	0.0167229
859.317	0.0167394
859.396	0.0168166
859.474	0.0168292
859.552	0.0167870
859.630	0.0167580
859.708	0.0167374
859.786	0.0169228
859.864	0.0168346
859.942	0.0168230
860.021	0.0166346
860.099	0.0167785
860.177	0.0168903
860.255	0.0167441
860.333	0.0167715
860.411	0.0167329
860.489	0.0167329
860.567	0.0165656
860.646	0.0165208
860.724	0.0166509
860.802	0.0165957
860.880	0.0164111
860.958	0.0164481
861.036	0.0167074
861.114	0.0165422
861.192	0.0165049
861.271	0.0164619
861.349	0.0164338
861.427	0.0164112
861.505	0.0164254
861.583	0.0163664
861.661	0.0163954
861.739	0.0163518
861.817	0.0163117
861.896	0.0161620
861.974	0.0161248
862.052	0.0162956
862.130	0.0161674
862.208	0.0161511
862.286	0.0159934
862.364	0.0160709
862.442	0.0160292
862.521	0.0160428
862.599	0.0158591
862.677	0.0159052
862.755	0.0157764
862.833	0.0157447
862.911	0.0158281
862.989	0.0159315
863.067	0.0158180
863.146	0.0159627
863.224	0.0158767
863.302	0.0159539
863.380	0.0159920
863.458	0.0159779
863.536	0.0159117
863.614	0.0160114
863.692	0.0161137
863.771	0.0160529
863.849	0.0159911
863.927	0.0161429
864.005	0.0162047
864.083	0.0161510
864.161	0.0162580
864.239	0.0163180
864.317	0.0162646
864.396	0.0163338
864.474	0.0163171
864.552	0.0164615
864.630	0.0164412
864.708	0.0164058
864.786	0.0164840
864.864	0.0164832
864.942	0.0164833
865.021	0.0164449
865.099	0.0167079
865.177	0.0165578
865.255	0.0166431
865.333	0.0166959
865.411	0.0165904
865.489	0.0168178
865.567	0.0167894
865.646	0.0167428
865.724	0.0168622
865.802	0.0166672
865.880	0.0167170
865.958	0.0167925
866.036	0.0168374
866.114	0.0168428
866.192	0.0167505
866.271	0.0167504
866.349	0.0167914
866.427	0.0167195
866.505	0.0169286
866.583	0.0169447
866.661	0.0168842
866.739	0.0166936
866.817	0.0166243
866.896	0.0167397
866.974	0.0168915
867.052	0.0167918
867.130	0.0168513
867.208	0.0167717
867.286	0.0168333
867.364	0.0168982
867.442	0.0167730
867.521	0.0167091
867.599	0.0168282
867.677	0.0167574
867.755	0.0167741
867.833	0.0166664
867.911	0.0166486
867.989	0.0167059
868.067	0.0165652
868.146	0.0166108
868.224	0.0165464
868.302	0.0166525
868.380	0.0166321
868.458	0.0166256
868.536	0.0164524
868.614	0.0164161
868.692	0.0165499
868.771	0.0163589
868.849	0.0164827
868.927	0.0163766
869.005	0.0165581
869.083	0.0164228
869.161	0.0163128
869.239	0.0163723
869.317	0.0163400
869.396	0.0163424
869.474	0.0162748
869.552	0.0162710
869.630	0.0161938
869.708	0.0163983
869.786	0.0162504
869.864	0.0161414
869.942	0.0160728
