06/03/2022	14:53:40	Ver.	4.1	UNKNOWN
Optical Delay	550.020508	Delta X		0.078125	Sweeps	1	Scan Rate	0/0
Coordinates	Axis 1	NaN	Axis 2	NaN	Axis 3	NaN	Axis 4	NaN	Axis 5	NaN	Axis 6	0.000000
TX Power	0.000000	RX Power	0.000000

550.021	0.0182088
550.099	0.0193684
550.177	0.0192123
550.255	0.0190073
550.333	0.0186608
550.411	0.0182960
550.489	0.0180805
550.567	0.0176330
550.646	0.0173016
550.724	0.0171574
550.802	0.0167428
550.880	0.0165108
550.958	0.0162408
551.036	0.0159521
551.114	0.0158775
551.192	0.0157141
551.271	0.0154980
551.349	0.0152730
551.427	0.0151431
551.505	0.0150403
551.583	0.0148077
551.661	0.0147617
551.739	0.0147542
551.817	0.0145491
551.896	0.0145026
551.974	0.0145606
552.052	0.0143410
552.130	0.0142118
552.208	0.0143131
552.286	0.0141634
552.364	0.0143273
552.442	0.0141543
552.521	0.0141805
552.599	0.0142424
552.677	0.0142113
552.755	0.0144263
552.833	0.0144235
552.911	0.0145016
552.989	0.0145940
553.067	0.0145386
553.146	0.0145936
553.224	0.0147135
553.302	0.0147637
553.380	0.0148083
553.458	0.0149108
553.536	0.0149503
553.614	0.0150592
553.692	0.0151425
553.771	0.0151640
553.849	0.0151592
553.927	0.0153615
554.005	0.0154720
554.083	0.0156461
554.161	0.0156551
554.239	0.0157139
554.317	0.0156777
554.396	0.0157770
554.474	0.0157934
554.552	0.0159277
554.630	0.0159333
554.708	0.0160287
554.786	0.0158842
554.864	0.0159435
554.942	0.0161223
555.021	0.0162466
555.099	0.0161439
555.177	0.0161752
555.255	0.0161673
555.333	0.0161266
555.411	0.0162107
555.489	0.0161741
555.567	0.0160043
555.646	0.0161452
555.724	0.0162206
555.802	0.0162926
555.880	0.0162746
555.958	0.0161935
556.036	0.0159472
556.114	0.0161224
556.192	0.0162806
556.271	0.0162793
556.349	0.0162520
556.427	0.0162936
556.505	0.0163565
556.583	0.0162724
556.661	0.0163567
556.739	0.0164775
556.817	0.0164967
556.896	0.0164747
556.974	0.0165261
557.052	0.0165398
557.130	0.0165185
557.208	0.0164165
557.286	0.0164550
557.364	0.0166713
557.442	0.0165359
557.521	0.0165570
557.599	0.0166451
557.677	0.0166284
557.755	0.0166644
557.833	0.0166666
557.911	0.0164874
557.989	0.0166026
558.067	0.0166213
558.146	0.0164761
558.224	0.0165904
558.302	0.0164476
558.380	0.0164792
558.458	0.0163186
558.536	0.0163428
558.614	0.0163858
558.692	0.0164348
558.771	0.0163948
558.849	0.0163032
558.927	0.0163587
559.005	0.0163346
559.083	0.0161611
559.161	0.0162901
559.239	0.0159857
559.317	0.0159509
559.396	0.0157723
559.474	0.0157438
559.552	0.0156975
559.630	0.0155547
559.708	0.0154324
559.786	0.0152774
559.864	0.0151636
559.942	0.0152220
560.021	0.0148624
560.099	0.0147430
560.177	0.0146260
560.255	0.0144935
560.333	0.0143245
560.411	0.0142544
560.489	0.0141609
560.567	0.0140961
560.646	0.0139061
560.724	0.0138324
560.802	0.0139120
560.880	0.0138631
560.958	0.0138596
561.036	0.0135709
561.114	0.0136574
561.192	0.0136932
561.271	0.0137637
561.349	0.0136968
561.427	0.0139247
561.505	0.0138766
561.583	0.0138219
561.661	0.0140376
561.739	0.0140772
561.817	0.0141437
561.896	0.0143352
561.974	0.0144772
562.052	0.0147172
562.130	0.0147836
562.208	0.0149324
562.286	0.0148907
562.364	0.0150058
562.442	0.0153044
562.521	0.0153016
562.599	0.0154249
562.677	0.0155596
562.755	0.0154097
562.833	0.0154654
562.911	0.0157355
562.989	0.0157972
563.067	0.0159744
563.146	0.0158188
563.224	0.0158515
563.302	0.0159071
563.380	0.0159625
563.458	0.0162159
563.536	0.0161023
563.614	0.0163407
563.692	0.0162140
563.771	0.0163611
563.849	0.0164135
563.927	0.0164162
564.005	0.0164219
564.083	0.0164159
564.161	0.0165115
564.239	0.0165254
564.317	0.0165174
564.396	0.0162979
564.474	0.0164229
564.552	0.0164108
564.630	0.0163605
564.708	0.0162822
564.786	0.0162168
564.864	0.0162003
564.942	0.0161037
565.021	0.0160989
565.099	0.0160417
565.177	0.0160551
565.255	0.0159218
565.333	0.0159488
565.411	0.0158623
565.489	0.0158495
565.567	0.0158570
565.646	0.0158646
565.724	0.0159146
565.802	0.0158636
565.880	0.0157395
565.958	0.0159478
566.036	0.0160698
566.114	0.0162173
566.192	0.0161255
566.271	0.0162396
566.349	0.0163639
566.427	0.0165087
566.505	0.0166124
566.583	0.0166766
566.661	0.0166455
566.739	0.0168513
566.817	0.0170834
566.896	0.0171111
566.974	0.0172975
567.052	0.0173965
567.130	0.0175506
567.208	0.0176328
567.286	0.0176717
567.364	0.0177612
567.442	0.0179173
567.521	0.0180208
567.599	0.0181373
567.677	0.0181458
567.755	0.0182478
567.833	0.0183267
567.911	0.0182850
567.989	0.0183070
568.067	0.0184647
568.146	0.0185358
568.224	0.0184935
568.302	0.0185184
568.380	0.0185035
568.458	0.0184808
568.536	0.0183102
568.614	0.0184826
568.692	0.0185249
568.771	0.0184872
568.849	0.0185459
568.927	0.0183916
569.005	0.0183479
569.083	0.0182979
569.161	0.0182663
569.239	0.0182230
569.317	0.0182380
569.396	0.0182037
569.474	0.0182067
569.552	0.0180690
569.630	0.0180509
569.708	0.0178121
569.786	0.0178155
569.864	0.0177807
569.942	0.0177152
570.021	0.0177029
570.099	0.0174495
570.177	0.0172842
570.255	0.0173470
570.333	0.0171899
570.411	0.0170370
570.489	0.0169595
570.567	0.0169233
570.646	0.0166741
570.724	0.0166130
570.802	0.0164977
570.880	0.0166349
570.958	0.0163061
571.036	0.0162330
571.114	0.0162672
571.192	0.0162165
571.271	0.0161536
571.349	0.0160855
571.427	0.0160712
571.505	0.0160461
571.583	0.0160401
571.661	0.0161008
571.739	0.0160949
571.817	0.0161608
571.896	0.0161166
571.974	0.0161684
572.052	0.0160381
572.130	0.0160648
572.208	0.0162074
572.286	0.0161974
572.364	0.0161768
572.442	0.0161151
572.521	0.0163468
572.599	0.0163055
572.677	0.0161938
572.755	0.0162304
572.833	0.0162235
572.911	0.0162559
572.989	0.0163761
573.067	0.0162227
573.146	0.0163148
573.224	0.0161952
573.302	0.0161473
573.380	0.0161892
573.458	0.0162486
573.536	0.0160961
573.614	0.0161002
573.692	0.0161547
573.771	0.0160162
573.849	0.0159975
573.927	0.0158848
574.005	0.0158826
574.083	0.0158015
574.161	0.0156594
574.239	0.0158310
574.317	0.0156400
574.396	0.0155589
574.474	0.0153242
574.552	0.0155518
574.630	0.0153163
574.708	0.0154228
574.786	0.0151050
574.864	0.0153117
574.942	0.0151647
575.021	0.0151705
575.099	0.0149940
575.177	0.0149274
575.255	0.0149646
575.333	0.0149038
575.411	0.0148360
575.489	0.0149184
575.567	0.0147667
575.646	0.0147630
575.724	0.0147733
575.802	0.0147365
575.880	0.0147913
575.958	0.0148588
576.036	0.0147778
576.114	0.0148196
576.192	0.0147592
576.271	0.0147978
576.349	0.0148534
576.427	0.0150925
576.505	0.0150435
576.583	0.0149676
576.661	0.0150907
576.739	0.0151000
576.817	0.0151447
576.896	0.0153327
576.974	0.0154771
577.052	0.0154026
577.130	0.0154025
577.208	0.0154993
577.286	0.0155888
577.364	0.0156245
577.442	0.0154938
577.521	0.0156015
577.599	0.0158137
577.677	0.0158016
577.755	0.0157646
577.833	0.0159193
577.911	0.0159515
577.989	0.0158456
578.067	0.0160062
578.146	0.0161068
578.224	0.0160792
578.302	0.0159032
578.380	0.0161685
578.458	0.0162141
578.536	0.0161589
578.614	0.0163499
578.692	0.0164148
578.771	0.0164007
578.849	0.0164249
578.927	0.0166672
579.005	0.0166972
579.083	0.0166830
579.161	0.0166651
579.239	0.0166937
579.317	0.0168382
579.396	0.0167920
579.474	0.0169386
579.552	0.0170740
579.630	0.0170859
579.708	0.0170330
579.786	0.0169895
579.864	0.0172021
579.942	0.0171701
580.021	0.0173284
580.099	0.0174572
580.177	0.0173767
580.255	0.0172833
580.333	0.0174522
580.411	0.0175377
580.489	0.0175650
580.567	0.0176498
580.646	0.0175066
580.724	0.0174841
580.802	0.0176450
580.880	0.0175922
580.958	0.0174856
581.036	0.0174718
581.114	0.0173923
581.192	0.0174731
581.271	0.0174674
581.349	0.0173872
581.427	0.0171799
581.505	0.0171478
581.583	0.0171742
581.661	0.0169606
581.739	0.0169398
581.817	0.0168666
581.896	0.0168996
581.974	0.0166840
582.052	0.0165997
582.130	0.0165110
582.208	0.0164638
582.286	0.0163271
582.364	0.0163105
582.442	0.0161399
582.521	0.0161169
582.599	0.0162016
582.677	0.0159765
582.755	0.0158223
582.833	0.0157342
582.911	0.0157062
582.989	0.0156223
583.067	0.0155509
583.146	0.0156023
583.224	0.0153713
583.302	0.0152001
583.380	0.0153503
583.458	0.0154168
583.536	0.0152280
583.614	0.0149806
583.692	0.0150997
583.771	0.0149976
583.849	0.0148907
583.927	0.0149933
584.005	0.0149440
584.083	0.0148535
584.161	0.0148669
584.239	0.0149121
584.317	0.0147740
584.396	0.0148190
584.474	0.0148986
584.552	0.0148428
584.630	0.0149454
584.708	0.0148482
584.786	0.0147832
584.864	0.0147218
584.942	0.0148189
585.021	0.0147631
585.099	0.0148763
585.177	0.0149366
585.255	0.0147607
585.333	0.0147260
585.411	0.0148953
585.489	0.0148952
585.567	0.0147800
585.646	0.0148415
585.724	0.0148566
585.802	0.0147275
585.880	0.0149118
585.958	0.0148428
586.036	0.0148431
586.114	0.0149056
586.192	0.0147643
586.271	0.0148319
586.349	0.0149284
586.427	0.0148073
586.505	0.0148582
586.583	0.0149935
586.661	0.0149702
586.739	0.0148810
586.817	0.0149323
586.896	0.0150898
586.974	0.0151071
587.052	0.0150768
587.130	0.0152258
587.208	0.0151972
587.286	0.0151968
587.364	0.0151728
587.442	0.0152788
587.521	0.0153555
587.599	0.0153062
587.677	0.0154066
587.755	0.0155175
587.833	0.0155694
587.911	0.0156417
587.989	0.0156119
588.067	0.0157231
588.146	0.0158928
588.224	0.0158959
588.302	0.0159965
588.380	0.0159306
588.458	0.0158783
588.536	0.0160464
588.614	0.0160339
588.692	0.0161530
588.771	0.0160830
588.849	0.0162699
588.927	0.0163620
589.005	0.0162276
589.083	0.0162672
589.161	0.0163449
589.239	0.0163953
589.317	0.0164552
589.396	0.0165540
589.474	0.0163593
589.552	0.0166654
589.630	0.0164651
589.708	0.0165443
589.786	0.0166080
589.864	0.0168295
589.942	0.0166492
590.021	0.0168247
590.099	0.0166922
590.177	0.0168690
590.255	0.0168829
590.333	0.0168159
590.411	0.0168737
590.489	0.0169151
590.567	0.0170085
590.646	0.0169324
590.724	0.0169154
590.802	0.0169715
590.880	0.0169756
590.958	0.0170671
591.036	0.0170543
591.114	0.0170051
591.192	0.0170611
591.271	0.0169965
591.349	0.0170007
591.427	0.0169865
591.505	0.0169588
591.583	0.0169935
591.661	0.0170106
591.739	0.0170261
591.817	0.0169142
591.896	0.0169088
591.974	0.0168417
592.052	0.0169458
592.130	0.0167759
592.208	0.0168158
592.286	0.0168211
592.364	0.0167063
592.442	0.0166600
592.521	0.0165759
592.599	0.0167318
592.677	0.0165456
592.755	0.0166403
592.833	0.0166752
592.911	0.0166586
592.989	0.0165390
593.067	0.0165437
593.146	0.0165610
593.224	0.0164532
593.302	0.0165315
593.380	0.0163935
593.458	0.0165225
593.536	0.0165944
593.614	0.0163831
593.692	0.0163945
593.771	0.0163095
593.849	0.0163112
593.927	0.0162686
594.005	0.0162057
594.083	0.0163103
594.161	0.0162892
594.239	0.0161958
594.317	0.0163544
594.396	0.0161056
594.474	0.0160632
594.552	0.0161284
594.630	0.0162489
594.708	0.0162157
594.786	0.0162023
594.864	0.0161819
594.942	0.0160278
595.021	0.0162691
595.099	0.0161537
595.177	0.0161732
595.255	0.0160889
595.333	0.0160619
595.411	0.0161099
595.489	0.0160948
595.567	0.0160100
595.646	0.0160529
595.724	0.0158914
595.802	0.0159680
595.880	0.0159189
595.958	0.0159161
596.036	0.0157735
596.114	0.0157705
596.192	0.0159184
596.271	0.0158338
596.349	0.0159254
596.427	0.0157490
596.505	0.0157158
596.583	0.0158452
596.661	0.0157204
596.739	0.0157628
596.817	0.0156699
596.896	0.0156699
596.974	0.0156326
597.052	0.0156106
597.130	0.0155621
597.208	0.0156633
597.286	0.0156316
597.364	0.0155312
597.442	0.0156156
597.521	0.0154784
597.599	0.0156353
597.677	0.0155464
597.755	0.0153500
597.833	0.0156339
597.911	0.0156973
597.989	0.0156808
598.067	0.0156352
598.146	0.0157609
598.224	0.0158360
598.302	0.0157870
598.380	0.0157179
598.458	0.0158821
598.536	0.0160385
598.614	0.0158070
598.692	0.0158552
598.771	0.0157927
598.849	0.0158800
598.927	0.0158460
599.005	0.0160187
599.083	0.0160629
599.161	0.0160176
599.239	0.0160191
599.317	0.0160427
599.396	0.0161665
599.474	0.0160677
599.552	0.0161494
599.630	0.0163039
599.708	0.0162757
599.786	0.0163007
599.864	0.0163013
599.942	0.0163477
600.021	0.0163460
600.099	0.0163580
600.177	0.0164366
600.255	0.0163370
600.333	0.0162572
600.411	0.0164554
600.489	0.0163959
600.567	0.0165044
600.646	0.0163738
600.724	0.0164957
600.802	0.0164772
600.880	0.0163661
600.958	0.0163517
601.036	0.0165168
601.114	0.0165409
601.192	0.0163905
601.271	0.0164955
601.349	0.0165909
601.427	0.0165694
601.505	0.0166701
601.583	0.0166502
601.661	0.0166109
601.739	0.0166364
601.817	0.0167256
601.896	0.0167459
601.974	0.0167789
602.052	0.0167446
602.130	0.0167431
602.208	0.0166781
602.286	0.0166843
602.364	0.0167033
602.442	0.0166348
602.521	0.0167166
602.599	0.0167385
602.677	0.0166795
602.755	0.0166910
602.833	0.0166834
602.911	0.0165105
602.989	0.0165522
603.067	0.0166277
603.146	0.0164655
603.224	0.0165216
603.302	0.0165453
603.380	0.0165788
603.458	0.0165704
603.536	0.0165031
603.614	0.0166006
603.692	0.0165204
603.771	0.0164001
603.849	0.0165711
603.927	0.0165354
604.005	0.0165939
604.083	0.0165636
604.161	0.0165447
604.239	0.0165230
604.317	0.0165334
604.396	0.0165543
604.474	0.0165862
604.552	0.0166285
604.630	0.0165547
604.708	0.0166402
604.786	0.0165889
604.864	0.0166263
604.942	0.0166567
605.021	0.0166296
605.099	0.0166740
605.177	0.0165797
605.255	0.0165458
605.333	0.0164478
605.411	0.0166142
605.489	0.0166512
605.567	0.0167139
605.646	0.0163947
605.724	0.0164401
605.802	0.0165498
605.880	0.0164275
605.958	0.0164964
606.036	0.0164223
606.114	0.0164907
606.192	0.0164082
606.271	0.0164124
606.349	0.0163696
606.427	0.0162852
606.505	0.0163840
606.583	0.0162176
606.661	0.0162161
606.739	0.0162640
606.817	0.0161349
606.896	0.0161803
606.974	0.0162044
607.052	0.0160799
607.130	0.0160784
607.208	0.0160774
607.286	0.0159710
607.364	0.0158035
607.442	0.0159212
607.521	0.0158253
607.599	0.0158301
607.677	0.0156660
607.755	0.0156273
607.833	0.0154879
607.911	0.0156112
607.989	0.0156029
608.067	0.0155221
608.146	0.0154999
608.224	0.0152779
608.302	0.0153808
608.380	0.0154629
608.458	0.0152296
608.536	0.0152471
608.614	0.0153934
608.692	0.0153273
608.771	0.0153065
608.849	0.0153421
608.927	0.0152203
609.005	0.0153120
609.083	0.0153571
609.161	0.0154809
609.239	0.0154562
609.317	0.0154740
609.396	0.0155896
609.474	0.0156617
609.552	0.0158350
609.630	0.0157220
609.708	0.0158888
609.786	0.0160875
609.864	0.0160106
609.942	0.0162200
610.021	0.0161044
610.099	0.0163031
610.177	0.0164150
610.255	0.0163836
610.333	0.0163048
610.411	0.0165178
610.489	0.0165739
610.567	0.0166673
610.646	0.0165290
610.724	0.0165466
610.802	0.0165971
610.880	0.0166463
610.958	0.0165778
611.036	0.0165471
611.114	0.0165968
611.192	0.0165653
611.271	0.0164362
611.349	0.0164204
611.427	0.0162740
611.505	0.0164156
611.583	0.0163326
611.661	0.0162807
611.739	0.0162319
611.817	0.0160921
611.896	0.0158971
611.974	0.0158659
612.052	0.0158053
612.130	0.0157259
612.208	0.0157520
612.286	0.0155708
612.364	0.0153450
612.442	0.0153777
612.521	0.0153571
612.599	0.0151517
612.677	0.0150375
612.755	0.0148301
612.833	0.0147939
612.911	0.0148125
612.989	0.0146232
613.067	0.0145756
613.146	0.0146342
613.224	0.0145537
613.302	0.0145032
613.380	0.0143894
613.458	0.0143811
613.536	0.0144001
613.614	0.0143319
613.692	0.0143544
613.771	0.0142929
613.849	0.0141635
613.927	0.0143174
614.005	0.0142551
614.083	0.0141412
614.161	0.0142055
614.239	0.0142999
614.317	0.0144347
614.396	0.0143315
614.474	0.0143228
614.552	0.0144518
614.630	0.0145985
614.708	0.0146412
614.786	0.0147267
614.864	0.0149298
614.942	0.0150085
615.021	0.0151382
615.099	0.0153473
615.177	0.0154952
615.255	0.0155753
615.333	0.0157462
615.411	0.0157545
615.489	0.0160589
615.567	0.0162135
615.646	0.0162984
615.724	0.0165292
615.802	0.0164954
615.880	0.0165720
615.958	0.0166348
616.036	0.0168710
616.114	0.0167757
616.192	0.0168523
616.271	0.0168632
616.349	0.0170237
616.427	0.0169260
616.505	0.0169215
616.583	0.0168372
616.661	0.0170817
616.739	0.0168858
616.817	0.0168285
616.896	0.0169891
616.974	0.0169287
617.052	0.0167914
617.130	0.0167644
617.208	0.0168861
617.286	0.0166330
617.364	0.0166808
617.442	0.0167600
617.521	0.0167709
617.599	0.0167090
617.677	0.0164871
617.755	0.0166180
617.833	0.0165852
617.911	0.0165541
617.989	0.0164954
618.067	0.0163573
618.146	0.0165509
618.224	0.0164304
618.302	0.0164085
618.380	0.0163515
618.458	0.0164214
618.536	0.0163995
618.614	0.0162920
618.692	0.0164185
618.771	0.0162114
618.849	0.0162767
618.927	0.0163416
619.005	0.0161994
619.083	0.0161468
619.161	0.0162452
619.239	0.0161285
619.317	0.0161211
619.396	0.0162395
619.474	0.0160743
619.552	0.0161803
619.630	0.0160577
619.708	0.0161776
619.786	0.0161518
619.864	0.0161529
619.942	0.0161415
620.021	0.0161564
620.099	0.0161462
620.177	0.0161364
620.255	0.0161971
620.333	0.0161954
620.411	0.0162586
620.489	0.0162696
620.567	0.0161777
620.646	0.0161797
620.724	0.0162547
620.802	0.0163068
620.880	0.0161960
620.958	0.0160931
621.036	0.0161617
621.114	0.0162686
621.192	0.0161971
621.271	0.0162722
621.349	0.0162672
621.427	0.0161416
621.505	0.0162748
621.583	0.0162326
621.661	0.0161922
621.739	0.0161041
621.817	0.0162307
621.896	0.0163448
621.974	0.0161063
622.052	0.0161304
622.130	0.0162760
622.208	0.0163152
622.286	0.0162955
622.364	0.0163342
622.442	0.0162863
622.521	0.0163306
622.599	0.0162528
622.677	0.0163953
622.755	0.0163509
622.833	0.0164491
622.911	0.0163821
622.989	0.0163423
623.067	0.0163816
623.146	0.0164232
623.224	0.0164909
623.302	0.0164187
623.380	0.0165895
623.458	0.0165247
623.536	0.0165303
623.614	0.0166222
623.692	0.0165907
623.771	0.0167500
623.849	0.0167628
623.927	0.0166177
624.005	0.0167065
624.083	0.0167641
624.161	0.0168764
624.239	0.0168578
624.317	0.0169296
624.396	0.0167772
624.474	0.0168098
624.552	0.0168785
624.630	0.0168256
624.708	0.0168378
624.786	0.0168606
624.864	0.0168705
624.942	0.0168869
625.021	0.0167926
625.099	0.0168316
625.177	0.0168398
625.255	0.0167684
625.333	0.0166875
625.411	0.0168054
625.489	0.0167202
625.567	0.0166579
625.646	0.0167075
625.724	0.0166971
625.802	0.0166377
625.880	0.0167663
625.958	0.0166103
626.036	0.0166798
626.114	0.0165901
626.192	0.0166631
626.271	0.0166706
626.349	0.0167134
626.427	0.0167558
626.505	0.0167349
626.583	0.0167474
626.661	0.0169254
626.739	0.0167014
626.817	0.0168681
626.896	0.0168733
626.974	0.0168694
627.052	0.0168022
627.130	0.0167217
627.208	0.0167946
627.286	0.0168307
627.364	0.0169723
627.442	0.0167272
627.521	0.0167875
627.599	0.0169086
627.677	0.0168523
627.755	0.0168784
627.833	0.0167608
627.911	0.0166251
627.989	0.0167661
628.067	0.0168519
628.146	0.0167661
628.224	0.0167184
628.302	0.0167113
628.380	0.0166885
628.458	0.0167150
628.536	0.0166528
628.614	0.0164889
628.692	0.0166373
628.771	0.0165807
628.849	0.0165678
628.927	0.0166060
629.005	0.0165084
629.083	0.0165629
629.161	0.0166472
629.239	0.0165337
629.317	0.0164826
629.396	0.0164709
629.474	0.0165824
629.552	0.0164781
629.630	0.0164108
629.708	0.0164095
629.786	0.0164173
629.864	0.0163435
629.942	0.0163490
630.021	0.0162779
630.099	0.0161679
630.177	0.0160967
630.255	0.0161247
630.333	0.0161960
630.411	0.0159430
630.489	0.0160653
630.567	0.0159757
630.646	0.0159699
630.724	0.0159048
630.802	0.0160054
630.880	0.0159514
630.958	0.0160202
631.036	0.0160164
631.114	0.0159310
631.192	0.0159999
631.271	0.0159994
631.349	0.0160072
631.427	0.0159993
631.505	0.0159504
631.583	0.0159277
631.661	0.0160237
631.739	0.0159538
631.817	0.0160299
631.896	0.0159147
631.974	0.0158542
632.052	0.0159495
632.130	0.0159148
632.208	0.0158530
632.286	0.0158270
632.364	0.0157928
632.442	0.0158569
632.521	0.0156570
632.599	0.0155775
632.677	0.0154739
632.755	0.0155450
632.833	0.0154269
632.911	0.0154079
632.989	0.0153220
633.067	0.0152329
633.146	0.0151809
633.224	0.0151332
633.302	0.0150352
633.380	0.0150197
633.458	0.0151198
633.536	0.0152205
633.614	0.0149841
633.692	0.0150349
633.771	0.0150957
633.849	0.0151953
633.927	0.0152561
634.005	0.0152675
634.083	0.0153990
634.161	0.0154421
634.239	0.0155859
634.317	0.0157755
634.396	0.0157612
634.474	0.0158682
634.552	0.0160146
634.630	0.0160924
634.708	0.0159595
634.786	0.0162090
634.864	0.0162214
634.942	0.0161983
635.021	0.0161982
635.099	0.0163064
635.177	0.0163347
635.255	0.0163025
635.333	0.0163433
635.411	0.0163457
635.489	0.0163077
635.567	0.0162750
635.646	0.0163129
635.724	0.0164312
635.802	0.0162738
635.880	0.0164008
635.958	0.0163326
636.036	0.0163102
636.114	0.0163914
636.192	0.0162491
636.271	0.0162819
636.349	0.0163329
636.427	0.0162267
636.505	0.0161671
636.583	0.0159479
636.661	0.0160085
636.739	0.0160296
636.817	0.0158974
636.896	0.0158495
636.974	0.0157736
637.052	0.0157944
637.130	0.0158074
637.208	0.0157998
637.286	0.0155278
637.364	0.0155482
637.442	0.0156430
637.521	0.0156822
637.599	0.0157056
637.677	0.0155176
637.755	0.0156178
637.833	0.0156082
637.911	0.0154694
637.989	0.0154826
638.067	0.0155768
638.146	0.0156112
638.224	0.0155960
638.302	0.0156561
638.380	0.0157230
638.458	0.0156479
638.536	0.0157160
638.614	0.0158194
638.692	0.0157790
638.771	0.0157913
638.849	0.0159968
638.927	0.0158251
639.005	0.0159611
639.083	0.0160341
639.161	0.0161147
639.239	0.0162141
639.317	0.0163050
639.396	0.0163537
639.474	0.0165063
639.552	0.0166666
639.630	0.0165862
639.708	0.0167762
639.786	0.0168634
639.864	0.0168914
639.942	0.0169540
640.021	0.0169566
640.099	0.0168407
640.177	0.0169740
640.255	0.0170148
640.333	0.0167940
640.411	0.0169662
640.489	0.0169534
640.567	0.0169346
640.646	0.0168999
640.724	0.0166489
640.802	0.0167308
640.880	0.0168805
640.958	0.0167880
641.036	0.0167480
641.114	0.0167065
641.192	0.0168040
641.271	0.0166160
641.349	0.0165173
641.427	0.0165359
641.505	0.0166603
641.583	0.0165511
641.661	0.0165654
641.739	0.0163414
641.817	0.0163454
641.896	0.0162977
641.974	0.0163507
642.052	0.0164068
642.130	0.0163869
642.208	0.0163519
642.286	0.0164300
642.364	0.0162877
642.442	0.0161604
642.521	0.0161877
642.599	0.0162274
642.677	0.0161243
642.755	0.0161540
642.833	0.0160346
642.911	0.0160764
642.989	0.0160210
643.067	0.0160345
643.146	0.0159367
643.224	0.0160050
643.302	0.0159149
643.380	0.0156976
643.458	0.0158031
643.536	0.0157114
643.614	0.0156474
643.692	0.0158446
643.771	0.0158569
643.849	0.0157815
643.927	0.0158327
644.005	0.0158681
644.083	0.0156915
644.161	0.0158089
644.239	0.0159296
644.317	0.0158665
644.396	0.0159629
644.474	0.0160978
644.552	0.0159444
644.630	0.0161624
644.708	0.0163048
644.786	0.0162898
644.864	0.0164233
644.942	0.0165142
645.021	0.0165338
645.099	0.0165756
645.177	0.0167155
645.255	0.0169415
645.333	0.0168892
645.411	0.0170245
645.489	0.0169815
645.567	0.0169653
645.646	0.0171501
645.724	0.0171655
645.802	0.0172459
645.880	0.0171655
645.958	0.0171816
646.036	0.0172615
646.114	0.0173059
646.192	0.0172997
646.271	0.0173920
646.349	0.0173293
646.427	0.0174373
646.505	0.0172450
646.583	0.0172953
646.661	0.0171599
646.739	0.0172633
646.817	0.0173740
646.896	0.0171437
646.974	0.0172457
647.052	0.0171903
647.130	0.0172474
647.208	0.0171397
647.286	0.0172453
647.364	0.0170925
647.442	0.0169169
647.521	0.0169880
647.599	0.0168869
647.677	0.0168200
647.755	0.0168266
647.833	0.0166560
647.911	0.0168314
647.989	0.0166110
648.067	0.0164490
648.146	0.0164837
648.224	0.0164273
648.302	0.0163683
648.380	0.0162361
648.458	0.0162532
648.536	0.0161820
648.614	0.0161837
648.692	0.0160681
648.771	0.0162171
648.849	0.0161074
648.927	0.0160058
649.005	0.0159441
649.083	0.0159610
649.161	0.0159365
649.239	0.0159582
649.317	0.0157703
649.396	0.0156977
649.474	0.0156479
649.552	0.0158717
649.630	0.0158160
649.708	0.0157221
649.786	0.0156669
649.864	0.0157644
649.942	0.0156285
650.021	0.0156419
650.099	0.0157187
650.177	0.0155724
650.255	0.0156954
650.333	0.0154736
650.411	0.0154807
650.489	0.0154646
650.567	0.0156181
650.646	0.0156132
650.724	0.0155556
650.802	0.0155711
650.880	0.0155448
650.958	0.0157041
651.036	0.0157531
651.114	0.0157735
651.192	0.0157720
651.271	0.0158886
651.349	0.0157470
651.427	0.0159602
651.505	0.0160313
651.583	0.0158710
651.661	0.0158949
651.739	0.0158057
651.817	0.0160599
651.896	0.0160255
651.974	0.0160566
652.052	0.0160148
652.130	0.0158868
652.208	0.0159284
652.286	0.0159403
652.364	0.0159002
652.442	0.0160688
652.521	0.0158874
652.599	0.0158675
652.677	0.0158113
652.755	0.0157550
652.833	0.0157685
652.911	0.0157935
652.989	0.0158595
653.067	0.0157716
653.146	0.0158023
653.224	0.0155993
653.302	0.0158006
653.380	0.0157396
653.458	0.0158111
653.536	0.0156937
653.614	0.0157385
653.692	0.0156416
653.771	0.0158295
653.849	0.0155275
653.927	0.0155802
654.005	0.0156004
654.083	0.0155746
654.161	0.0158131
654.239	0.0158721
654.317	0.0159635
654.396	0.0159740
654.474	0.0160107
654.552	0.0159946
654.630	0.0160545
654.708	0.0161037
654.786	0.0160252
654.864	0.0162832
654.942	0.0162146
655.021	0.0164260
655.099	0.0162820
655.177	0.0162428
655.255	0.0163223
655.333	0.0161721
655.411	0.0162723
655.489	0.0161925
655.567	0.0162773
655.646	0.0162568
655.724	0.0161633
655.802	0.0161720
655.880	0.0162708
655.958	0.0160954
656.036	0.0162309
656.114	0.0162486
656.192	0.0160194
656.271	0.0162560
656.349	0.0163052
656.427	0.0162944
656.505	0.0162499
656.583	0.0163448
656.661	0.0161897
656.739	0.0161443
656.817	0.0160390
656.896	0.0161102
656.974	0.0161084
657.052	0.0161401
657.130	0.0159750
657.208	0.0158769
657.286	0.0158846
657.364	0.0159109
657.442	0.0158543
657.521	0.0157024
657.599	0.0156677
657.677	0.0158169
657.755	0.0157153
657.833	0.0155757
657.911	0.0156328
657.989	0.0155763
658.067	0.0156720
658.146	0.0154758
658.224	0.0156604
658.302	0.0156416
658.380	0.0156300
658.458	0.0156327
658.536	0.0156502
658.614	0.0156156
658.692	0.0156345
658.771	0.0156854
658.849	0.0155611
658.927	0.0156754
659.005	0.0156969
659.083	0.0157915
659.161	0.0157129
659.239	0.0156490
659.317	0.0157253
659.396	0.0156312
659.474	0.0157378
659.552	0.0156897
659.630	0.0157974
659.708	0.0157377
659.786	0.0157507
659.864	0.0158522
659.942	0.0158034
660.021	0.0158772
660.099	0.0159315
660.177	0.0158484
660.255	0.0160094
660.333	0.0161021
660.411	0.0160633
660.489	0.0160025
660.567	0.0161573
660.646	0.0161552
660.724	0.0163165
660.802	0.0162895
660.880	0.0162980
660.958	0.0163502
661.036	0.0163556
661.114	0.0164389
661.192	0.0164852
661.271	0.0164129
661.349	0.0163725
661.427	0.0164502
661.505	0.0164979
661.583	0.0163958
661.661	0.0164928
661.739	0.0163692
661.817	0.0165264
661.896	0.0163133
661.974	0.0162522
662.052	0.0162024
662.130	0.0162357
662.208	0.0161040
662.286	0.0161626
662.364	0.0161690
662.442	0.0161222
662.521	0.0161180
662.599	0.0160448
662.677	0.0159323
662.755	0.0161149
662.833	0.0160521
662.911	0.0159080
662.989	0.0160701
663.067	0.0161737
663.146	0.0159980
663.224	0.0160886
663.302	0.0161507
663.380	0.0162588
663.458	0.0161444
663.536	0.0162649
663.614	0.0162964
663.692	0.0164075
663.771	0.0163917
663.849	0.0166201
663.927	0.0164122
664.005	0.0165028
664.083	0.0166290
664.161	0.0165886
664.239	0.0165933
664.317	0.0166766
664.396	0.0165630
664.474	0.0166894
664.552	0.0167532
664.630	0.0168414
664.708	0.0168941
664.786	0.0168763
664.864	0.0169530
664.942	0.0168494
665.021	0.0168199
665.099	0.0167654
665.177	0.0169126
665.255	0.0168499
665.333	0.0167632
665.411	0.0167689
665.489	0.0166954
665.567	0.0167489
665.646	0.0168482
665.724	0.0168055
665.802	0.0167059
665.880	0.0166778
665.958	0.0168108
666.036	0.0167992
666.114	0.0167558
666.192	0.0167794
666.271	0.0166261
666.349	0.0166422
666.427	0.0165996
666.505	0.0165114
666.583	0.0166405
666.661	0.0165003
666.739	0.0165176
666.817	0.0166396
666.896	0.0165269
666.974	0.0162550
667.052	0.0163775
667.130	0.0163309
667.208	0.0161298
667.286	0.0161018
667.364	0.0160532
667.442	0.0161636
667.521	0.0159746
667.599	0.0159637
667.677	0.0159680
667.755	0.0159418
667.833	0.0158200
667.911	0.0158280
667.989	0.0158540
668.067	0.0158327
668.146	0.0158052
668.224	0.0159412
668.302	0.0159117
668.380	0.0158738
668.458	0.0158485
668.536	0.0158401
668.614	0.0159589
668.692	0.0159293
668.771	0.0159166
668.849	0.0162034
668.927	0.0161051
669.005	0.0160320
669.083	0.0161181
669.161	0.0161488
669.239	0.0161203
669.317	0.0161617
669.396	0.0160347
669.474	0.0160984
669.552	0.0162921
669.630	0.0162526
669.708	0.0161580
669.786	0.0161285
669.864	0.0162282
669.942	0.0162401
670.021	0.0162009
670.099	0.0164550
670.177	0.0163139
670.255	0.0163150
670.333	0.0162301
670.411	0.0162923
670.489	0.0162685
670.567	0.0161824
670.646	0.0163953
670.724	0.0164483
670.802	0.0161803
670.880	0.0162424
670.958	0.0164784
671.036	0.0163291
671.114	0.0164594
671.192	0.0163165
671.271	0.0163467
671.349	0.0163771
671.427	0.0163391
671.505	0.0162685
671.583	0.0162314
671.661	0.0162840
671.739	0.0163857
671.817	0.0163091
671.896	0.0163078
671.974	0.0162583
672.052	0.0160476
672.130	0.0159933
672.208	0.0159892
672.286	0.0160642
672.364	0.0159743
672.442	0.0159848
672.521	0.0158908
672.599	0.0157064
672.677	0.0157182
672.755	0.0157424
672.833	0.0158752
672.911	0.0156094
672.989	0.0157667
673.067	0.0156706
673.146	0.0156464
673.224	0.0155669
673.302	0.0155512
673.380	0.0155697
673.458	0.0157337
673.536	0.0154968
673.614	0.0155886
673.692	0.0156215
673.771	0.0155318
673.849	0.0155652
673.927	0.0154340
674.005	0.0156094
674.083	0.0156483
674.161	0.0156345
674.239	0.0156391
674.317	0.0155015
674.396	0.0156108
674.474	0.0156529
674.552	0.0156095
674.630	0.0156758
674.708	0.0157724
674.786	0.0155736
674.864	0.0157121
674.942	0.0158341
675.021	0.0156249
675.099	0.0157744
675.177	0.0156851
675.255	0.0156834
675.333	0.0158105
675.411	0.0158180
675.489	0.0157217
675.567	0.0156123
675.646	0.0154807
675.724	0.0155785
675.802	0.0157330
675.880	0.0157203
675.958	0.0156944
676.036	0.0158375
676.114	0.0156581
676.192	0.0158315
676.271	0.0158896
676.349	0.0156057
676.427	0.0158256
676.505	0.0158464
676.583	0.0158213
676.661	0.0159412
676.739	0.0159344
676.817	0.0159620
676.896	0.0159726
676.974	0.0159258
677.052	0.0160555
677.130	0.0160925
677.208	0.0160596
677.286	0.0161010
677.364	0.0160793
677.442	0.0160395
677.521	0.0161208
677.599	0.0159717
677.677	0.0159919
677.755	0.0160867
677.833	0.0159682
677.911	0.0158345
677.989	0.0159140
678.067	0.0159857
678.146	0.0158961
678.224	0.0158816
678.302	0.0159606
678.380	0.0160426
678.458	0.0160567
678.536	0.0160159
678.614	0.0159559
678.692	0.0160648
678.771	0.0160739
678.849	0.0160583
678.927	0.0159191
679.005	0.0161771
679.083	0.0161409
679.161	0.0161814
679.239	0.0162454
679.317	0.0160718
679.396	0.0162360
679.474	0.0160750
679.552	0.0161415
679.630	0.0161190
679.708	0.0161391
679.786	0.0161705
679.864	0.0160416
679.942	0.0161974
680.021	0.0162434
680.099	0.0163223
680.177	0.0161711
680.255	0.0161526
680.333	0.0160167
680.411	0.0161063
680.489	0.0161948
680.567	0.0161211
680.646	0.0162044
680.724	0.0162605
680.802	0.0161005
680.880	0.0160632
680.958	0.0162196
681.036	0.0161782
681.114	0.0161750
681.192	0.0163209
681.271	0.0162626
681.349	0.0163129
681.427	0.0162875
681.505	0.0163351
681.583	0.0164091
681.661	0.0164146
681.739	0.0164161
681.817	0.0162884
681.896	0.0165535
681.974	0.0164257
682.052	0.0163137
682.130	0.0163863
682.208	0.0163509
682.286	0.0165074
682.364	0.0163404
682.442	0.0163068
682.521	0.0163647
682.599	0.0163879
682.677	0.0162475
682.755	0.0163097
682.833	0.0164812
682.911	0.0162720
682.989	0.0161710
683.067	0.0160950
683.146	0.0162019
683.224	0.0161410
683.302	0.0162876
683.380	0.0162149
683.458	0.0161052
683.536	0.0159795
683.614	0.0160312
683.692	0.0160860
683.771	0.0159614
683.849	0.0159171
683.927	0.0160943
684.005	0.0159267
684.083	0.0157249
684.161	0.0157245
684.239	0.0157815
684.317	0.0157825
684.396	0.0156194
684.474	0.0155447
684.552	0.0156688
684.630	0.0157281
684.708	0.0157433
684.786	0.0156429
684.864	0.0156104
684.942	0.0156654
685.021	0.0156450
685.099	0.0157837
685.177	0.0159294
685.255	0.0157487
685.333	0.0157700
685.411	0.0158703
685.489	0.0158891
685.567	0.0158444
685.646	0.0157834
685.724	0.0159898
685.802	0.0159772
685.880	0.0159215
685.958	0.0159937
686.036	0.0161607
686.114	0.0159722
686.192	0.0160738
686.271	0.0161087
686.349	0.0160886
686.427	0.0160825
686.505	0.0160136
686.583	0.0160325
686.661	0.0160355
686.739	0.0161012
686.817	0.0159100
686.896	0.0159803
686.974	0.0161237
687.052	0.0161594
687.130	0.0161928
687.208	0.0161523
687.286	0.0160810
687.364	0.0163280
687.442	0.0160996
687.521	0.0162495
687.599	0.0162108
687.677	0.0162254
687.755	0.0161607
687.833	0.0161523
687.911	0.0162164
687.989	0.0161103
688.067	0.0161122
688.146	0.0160798
688.224	0.0162390
688.302	0.0162338
688.380	0.0162080
688.458	0.0160845
688.536	0.0161767
688.614	0.0162138
688.692	0.0162274
688.771	0.0163171
688.849	0.0163593
688.927	0.0162777
689.005	0.0162122
689.083	0.0162789
689.161	0.0164018
689.239	0.0164402
689.317	0.0164384
689.396	0.0164428
689.474	0.0163615
689.552	0.0163749
689.630	0.0164003
689.708	0.0164360
689.786	0.0164218
689.864	0.0163017
689.942	0.0163094
690.021	0.0164098
690.099	0.0163361
690.177	0.0162686
690.255	0.0163162
690.333	0.0163837
690.411	0.0163733
690.489	0.0163235
690.567	0.0163942
690.646	0.0164286
690.724	0.0163522
690.802	0.0162947
690.880	0.0161396
690.958	0.0163164
691.036	0.0163162
691.114	0.0163033
691.192	0.0163435
691.271	0.0164014
691.349	0.0163871
691.427	0.0163580
691.505	0.0161676
691.583	0.0164096
691.661	0.0164128
691.739	0.0163953
691.817	0.0161929
691.896	0.0164018
691.974	0.0164780
692.052	0.0164723
692.130	0.0163305
692.208	0.0163511
692.286	0.0164070
692.364	0.0164749
692.442	0.0163584
692.521	0.0162668
692.599	0.0165259
692.677	0.0164380
692.755	0.0164476
692.833	0.0162810
692.911	0.0162966
692.989	0.0163736
693.067	0.0162069
693.146	0.0163692
693.224	0.0162650
693.302	0.0161543
693.380	0.0162281
693.458	0.0163709
693.536	0.0162189
693.614	0.0160440
693.692	0.0162168
693.771	0.0161710
693.849	0.0161535
693.927	0.0161707
694.005	0.0161192
694.083	0.0159523
694.161	0.0159966
694.239	0.0161618
694.317	0.0161017
694.396	0.0161409
694.474	0.0162226
694.552	0.0160475
694.630	0.0162222
694.708	0.0160909
694.786	0.0159171
694.864	0.0160697
694.942	0.0161587
695.021	0.0160175
695.099	0.0160182
695.177	0.0161803
695.255	0.0160847
695.333	0.0161015
695.411	0.0159888
695.489	0.0161451
695.567	0.0160697
695.646	0.0160663
695.724	0.0161142
695.802	0.0160088
695.880	0.0160860
695.958	0.0160126
696.036	0.0160798
696.114	0.0160754
696.192	0.0160504
696.271	0.0158594
696.349	0.0160117
696.427	0.0160310
696.505	0.0160883
696.583	0.0160217
696.661	0.0161284
696.739	0.0160193
696.817	0.0159573
696.896	0.0160014
696.974	0.0159475
697.052	0.0160031
697.130	0.0159922
697.208	0.0158570
697.286	0.0158178
697.364	0.0158413
697.442	0.0159629
697.521	0.0158793
697.599	0.0158298
697.677	0.0158785
697.755	0.0158466
697.833	0.0158245
697.911	0.0157069
697.989	0.0158045
698.067	0.0158939
698.146	0.0157495
698.224	0.0158578
698.302	0.0159537
698.380	0.0159109
698.458	0.0160765
698.536	0.0158437
698.614	0.0159243
698.692	0.0160209
698.771	0.0159513
698.849	0.0160476
698.927	0.0159435
699.005	0.0158886
699.083	0.0159807
699.161	0.0159560
699.239	0.0160160
699.317	0.0161108
699.396	0.0159679
699.474	0.0160473
699.552	0.0160383
699.630	0.0160661
699.708	0.0161374
699.786	0.0162063
699.864	0.0160786
699.942	0.0161055
700.021	0.0161918
700.099	0.0160117
700.177	0.0161856
700.255	0.0160135
700.333	0.0161046
700.411	0.0161408
700.489	0.0161111
700.567	0.0161232
700.646	0.0160952
700.724	0.0159946
700.802	0.0161007
700.880	0.0160873
700.958	0.0159068
701.036	0.0161698
701.114	0.0161082
701.192	0.0159976
701.271	0.0159919
701.349	0.0160171
701.427	0.0161760
701.505	0.0161202
701.583	0.0160272
701.661	0.0160407
701.739	0.0160684
701.817	0.0160265
701.896	0.0160992
701.974	0.0160312
702.052	0.0161461
702.130	0.0159405
702.208	0.0160719
702.286	0.0161066
702.364	0.0161879
702.442	0.0160538
702.521	0.0160074
702.599	0.0161810
702.677	0.0162033
702.755	0.0161618
702.833	0.0162238
702.911	0.0162731
702.989	0.0161890
703.067	0.0162065
703.146	0.0161924
703.224	0.0164549
703.302	0.0162169
703.380	0.0164102
703.458	0.0164761
703.536	0.0166034
703.614	0.0166442
703.692	0.0166083
703.771	0.0168549
703.849	0.0167494
703.927	0.0168605
704.005	0.0169641
704.083	0.0170637
704.161	0.0171154
704.239	0.0170746
704.317	0.0172363
704.396	0.0171495
704.474	0.0172369
704.552	0.0172566
704.630	0.0173457
704.708	0.0173415
704.786	0.0172278
704.864	0.0171504
704.942	0.0172565
705.021	0.0171056
705.099	0.0170972
705.177	0.0171947
705.255	0.0170762
705.333	0.0170409
705.411	0.0168242
705.489	0.0169005
705.567	0.0168750
705.646	0.0168462
705.724	0.0167606
705.802	0.0167467
705.880	0.0166916
705.958	0.0166187
706.036	0.0166649
706.114	0.0165636
706.192	0.0165363
706.271	0.0165663
706.349	0.0165062
706.427	0.0166154
706.505	0.0165868
706.583	0.0164108
706.661	0.0165238
706.739	0.0166539
706.817	0.0165163
706.896	0.0164000
706.974	0.0163409
707.052	0.0166306
707.130	0.0165242
707.208	0.0163617
707.286	0.0163212
707.364	0.0163094
707.442	0.0163049
707.521	0.0161506
707.599	0.0161063
707.677	0.0162097
707.755	0.0161547
707.833	0.0160747
707.911	0.0159209
707.989	0.0160238
708.067	0.0158765
708.146	0.0158190
708.224	0.0158135
708.302	0.0158388
708.380	0.0157758
708.458	0.0157072
708.536	0.0156715
708.614	0.0158367
708.692	0.0158399
708.771	0.0160032
708.849	0.0158675
708.927	0.0158798
709.005	0.0158937
709.083	0.0159119
709.161	0.0161115
709.239	0.0160310
709.317	0.0160188
709.396	0.0159576
709.474	0.0160908
709.552	0.0160847
709.630	0.0159771
709.708	0.0161546
709.786	0.0160983
709.864	0.0159382
709.942	0.0160661
710.021	0.0161042
710.099	0.0159554
710.177	0.0160172
710.255	0.0159620
710.333	0.0161438
710.411	0.0160961
710.489	0.0159357
710.567	0.0160706
710.646	0.0162561
710.724	0.0161105
710.802	0.0161449
710.880	0.0161139
710.958	0.0160759
711.036	0.0161343
711.114	0.0161357
711.192	0.0161623
711.271	0.0161710
711.349	0.0162067
711.427	0.0162234
711.505	0.0161944
711.583	0.0161488
711.661	0.0162375
711.739	0.0160477
711.817	0.0161800
711.896	0.0161375
711.974	0.0162148
712.052	0.0162075
712.130	0.0162173
712.208	0.0162093
712.286	0.0162621
712.364	0.0163457
712.442	0.0162967
712.521	0.0163688
712.599	0.0162215
712.677	0.0162700
712.755	0.0163446
712.833	0.0161942
712.911	0.0162498
712.989	0.0164249
713.067	0.0163780
713.146	0.0162836
713.224	0.0163474
713.302	0.0162562
713.380	0.0163456
713.458	0.0163296
713.536	0.0164037
713.614	0.0165040
713.692	0.0165935
713.771	0.0165790
713.849	0.0166444
713.927	0.0166491
714.005	0.0165567
714.083	0.0165565
714.161	0.0166627
714.239	0.0166776
714.317	0.0167131
714.396	0.0166991
714.474	0.0166825
714.552	0.0166973
714.630	0.0167928
714.708	0.0167123
714.786	0.0166565
714.864	0.0166867
714.942	0.0165974
715.021	0.0166516
715.099	0.0166687
715.177	0.0166000
715.255	0.0165679
715.333	0.0162870
715.411	0.0164217
715.489	0.0164505
715.567	0.0164534
715.646	0.0163839
715.724	0.0162070
715.802	0.0162621
715.880	0.0163090
715.958	0.0161371
716.036	0.0162510
716.114	0.0163103
716.192	0.0162784
716.271	0.0163869
716.349	0.0162800
716.427	0.0162009
716.505	0.0161614
716.583	0.0162888
716.661	0.0162461
716.739	0.0162555
716.817	0.0162543
716.896	0.0162348
716.974	0.0162106
717.052	0.0162527
717.130	0.0162769
717.208	0.0162003
717.286	0.0162210
717.364	0.0161430
717.442	0.0161044
717.521	0.0160238
717.599	0.0160469
717.677	0.0160920
717.755	0.0159144
717.833	0.0158726
717.911	0.0159718
717.989	0.0157320
718.067	0.0157588
718.146	0.0157100
718.224	0.0157160
718.302	0.0155588
718.380	0.0155885
718.458	0.0155872
718.536	0.0156844
718.614	0.0157236
718.692	0.0155308
718.771	0.0154567
718.849	0.0155529
718.927	0.0156317
719.005	0.0155262
719.083	0.0156257
719.161	0.0155631
719.239	0.0155959
719.317	0.0155547
719.396	0.0156631
719.474	0.0155991
719.552	0.0155801
719.630	0.0157262
719.708	0.0157162
719.786	0.0156644
719.864	0.0156898
719.942	0.0157999
720.021	0.0157255
720.099	0.0157735
720.177	0.0158659
720.255	0.0158826
720.333	0.0158670
720.411	0.0160065
720.489	0.0158127
720.567	0.0158969
720.646	0.0158939
720.724	0.0159786
720.802	0.0161076
720.880	0.0160106
720.958	0.0159383
721.036	0.0159930
721.114	0.0158856
721.192	0.0159417
721.271	0.0159327
721.349	0.0158094
721.427	0.0159962
721.505	0.0159368
721.583	0.0160493
721.661	0.0159244
721.739	0.0157534
721.817	0.0157912
721.896	0.0157849
721.974	0.0156892
722.052	0.0157719
722.130	0.0157171
722.208	0.0157504
722.286	0.0157130
722.364	0.0155725
722.442	0.0156926
722.521	0.0156907
722.599	0.0158477
722.677	0.0156847
722.755	0.0158266
722.833	0.0157601
722.911	0.0157759
722.989	0.0158275
723.067	0.0158465
723.146	0.0159513
723.224	0.0159786
723.302	0.0158537
723.380	0.0160723
723.458	0.0161016
723.536	0.0160051
723.614	0.0162869
723.692	0.0162755
723.771	0.0162843
723.849	0.0163383
723.927	0.0163966
724.005	0.0165469
724.083	0.0167355
724.161	0.0166143
724.239	0.0165845
724.317	0.0168366
724.396	0.0168109
724.474	0.0169386
724.552	0.0168845
724.630	0.0169255
724.708	0.0171296
724.786	0.0170656
724.864	0.0171224
724.942	0.0170726
725.021	0.0168906
725.099	0.0170466
725.177	0.0170145
725.255	0.0170454
725.333	0.0170762
725.411	0.0170792
725.489	0.0169297
725.567	0.0170345
725.646	0.0170803
725.724	0.0169724
725.802	0.0170049
725.880	0.0169985
725.958	0.0169478
726.036	0.0167953
726.114	0.0168884
726.192	0.0168480
726.271	0.0168110
726.349	0.0166733
726.427	0.0166317
726.505	0.0165926
726.583	0.0166199
726.661	0.0164967
726.739	0.0164484
726.817	0.0162857
726.896	0.0162996
726.974	0.0164713
727.052	0.0161735
727.130	0.0162099
727.208	0.0160812
727.286	0.0160844
727.364	0.0161042
727.442	0.0160345
727.521	0.0160892
727.599	0.0158499
727.677	0.0159416
727.755	0.0159819
727.833	0.0160329
727.911	0.0160870
727.989	0.0162191
728.067	0.0160755
728.146	0.0160966
728.224	0.0162738
728.302	0.0163020
728.380	0.0165092
728.458	0.0165314
728.536	0.0165392
728.614	0.0166443
728.692	0.0166833
728.771	0.0168748
728.849	0.0168350
728.927	0.0170210
729.005	0.0169070
729.083	0.0169878
729.161	0.0170489
729.239	0.0169836
729.317	0.0168694
729.396	0.0168793
729.474	0.0167490
729.552	0.0165929
729.630	0.0166245
729.708	0.0166984
729.786	0.0164799
729.864	0.0163560
729.942	0.0163557
730.021	0.0161936
730.099	0.0160480
730.177	0.0159979
730.255	0.0159485
730.333	0.0157948
730.411	0.0156601
730.489	0.0155959
730.567	0.0156853
730.646	0.0155527
730.724	0.0153812
730.802	0.0152386
730.880	0.0151874
730.958	0.0152380
731.036	0.0152131
731.114	0.0151565
731.192	0.0152628
731.271	0.0153226
731.349	0.0151685
731.427	0.0153008
731.505	0.0152676
731.583	0.0152438
731.661	0.0152693
731.739	0.0153899
731.817	0.0154798
731.896	0.0154729
731.974	0.0155395
732.052	0.0156391
732.130	0.0156460
732.208	0.0157470
732.286	0.0159216
732.364	0.0159528
732.442	0.0159716
732.521	0.0161525
732.599	0.0162349
732.677	0.0163824
732.755	0.0163911
732.833	0.0163279
732.911	0.0164792
732.989	0.0164261
733.067	0.0166509
733.146	0.0165836
733.224	0.0164860
733.302	0.0164386
733.380	0.0164269
733.458	0.0166653
733.536	0.0167213
733.614	0.0165957
733.692	0.0166198
733.771	0.0166761
733.849	0.0167378
733.927	0.0167690
734.005	0.0167151
734.083	0.0168366
734.161	0.0167483
734.239	0.0167124
734.317	0.0169176
734.396	0.0169263
734.474	0.0169880
734.552	0.0169355
734.630	0.0168640
734.708	0.0170399
734.786	0.0171325
734.864	0.0169979
734.942	0.0169530
735.021	0.0170088
735.099	0.0169662
735.177	0.0169777
735.255	0.0170610
735.333	0.0168305
735.411	0.0168937
735.489	0.0168894
735.567	0.0169020
735.646	0.0168565
735.724	0.0168633
735.802	0.0168022
735.880	0.0166947
735.958	0.0166826
736.036	0.0165916
736.114	0.0165963
736.192	0.0163477
736.271	0.0163947
736.349	0.0161757
736.427	0.0163892
736.505	0.0163781
736.583	0.0161506
736.661	0.0162409
736.739	0.0162418
736.817	0.0161478
736.896	0.0161621
736.974	0.0159944
737.052	0.0160252
737.130	0.0162471
737.208	0.0161895
737.286	0.0161005
737.364	0.0161268
737.442	0.0160680
737.521	0.0161212
737.599	0.0162216
737.677	0.0160670
737.755	0.0160893
737.833	0.0161390
737.911	0.0161615
737.989	0.0162115
738.067	0.0161572
738.146	0.0160799
738.224	0.0160421
738.302	0.0160235
738.380	0.0161420
738.458	0.0160767
738.536	0.0161880
738.614	0.0161209
738.692	0.0162309
738.771	0.0161839
738.849	0.0160784
738.927	0.0161718
739.005	0.0161897
739.083	0.0162024
739.161	0.0162947
739.239	0.0160967
739.317	0.0162780
739.396	0.0162148
739.474	0.0161620
739.552	0.0161234
739.630	0.0161391
739.708	0.0160126
739.786	0.0160165
739.864	0.0160908
739.942	0.0158312
740.021	0.0158312
740.099	0.0157874
740.177	0.0158897
740.255	0.0158511
740.333	0.0157851
740.411	0.0157796
740.489	0.0156809
740.567	0.0156560
740.646	0.0157190
740.724	0.0158194
740.802	0.0155873
740.880	0.0156999
740.958	0.0157876
741.036	0.0157078
741.114	0.0156817
741.192	0.0156654
741.271	0.0157272
741.349	0.0156413
741.427	0.0156601
741.505	0.0156458
741.583	0.0157076
741.661	0.0157673
741.739	0.0156472
741.817	0.0157207
741.896	0.0156833
741.974	0.0158098
742.052	0.0158652
742.130	0.0158015
742.208	0.0157105
742.286	0.0157934
742.364	0.0159083
742.442	0.0159996
742.521	0.0159896
742.599	0.0159513
742.677	0.0160913
742.755	0.0159751
742.833	0.0160224
742.911	0.0160961
742.989	0.0161019
743.067	0.0161385
743.146	0.0160866
743.224	0.0162065
743.302	0.0161465
743.380	0.0162079
743.458	0.0162250
743.536	0.0162928
743.614	0.0161529
743.692	0.0161163
743.771	0.0161425
743.849	0.0162517
743.927	0.0160023
744.005	0.0160633
744.083	0.0158852
744.161	0.0161113
744.239	0.0159941
744.317	0.0161239
744.396	0.0160429
744.474	0.0159319
744.552	0.0159206
744.630	0.0159771
744.708	0.0159797
744.786	0.0158420
744.864	0.0158908
744.942	0.0159522
745.021	0.0158761
745.099	0.0158816
745.177	0.0159433
745.255	0.0157325
745.333	0.0159170
745.411	0.0158509
745.489	0.0157512
745.567	0.0160659
745.646	0.0160471
745.724	0.0158945
745.802	0.0158073
745.880	0.0159318
745.958	0.0158855
746.036	0.0159284
746.114	0.0158758
746.192	0.0158404
746.271	0.0158755
746.349	0.0158280
746.427	0.0158047
746.505	0.0156721
746.583	0.0156493
746.661	0.0157195
746.739	0.0157315
746.817	0.0156760
746.896	0.0158261
746.974	0.0158091
747.052	0.0157789
747.130	0.0156615
747.208	0.0156519
747.286	0.0158488
747.364	0.0158721
747.442	0.0159511
747.521	0.0158714
747.599	0.0158851
747.677	0.0160761
747.755	0.0160369
747.833	0.0161436
747.911	0.0159438
747.989	0.0161549
748.067	0.0162225
748.146	0.0161078
748.224	0.0160740
748.302	0.0162664
748.380	0.0163097
748.458	0.0161030
748.536	0.0163373
748.614	0.0162477
748.692	0.0162585
748.771	0.0161966
748.849	0.0162518
748.927	0.0162807
749.005	0.0163029
749.083	0.0162004
749.161	0.0162852
749.239	0.0162193
749.317	0.0162102
749.396	0.0163695
749.474	0.0162522
749.552	0.0162778
749.630	0.0163447
749.708	0.0163973
749.786	0.0163876
749.864	0.0165257
749.942	0.0165498
750.021	0.0163942
750.099	0.0164953
750.177	0.0164452
750.255	0.0165158
750.333	0.0166008
750.411	0.0164510
750.489	0.0164716
750.567	0.0164259
750.646	0.0165717
750.724	0.0165498
750.802	0.0164525
750.880	0.0163880
750.958	0.0162610
751.036	0.0163744
751.114	0.0163972
751.192	0.0163120
751.271	0.0162373
751.349	0.0162025
751.427	0.0161452
751.505	0.0161874
751.583	0.0159710
751.661	0.0159643
751.739	0.0160571
751.817	0.0159036
751.896	0.0160163
751.974	0.0159054
752.052	0.0157984
752.130	0.0157402
752.208	0.0158199
752.286	0.0157822
752.364	0.0157212
752.442	0.0157084
752.521	0.0159249
752.599	0.0157920
752.677	0.0156709
752.755	0.0156659
752.833	0.0157349
752.911	0.0157548
752.989	0.0156522
753.067	0.0158275
753.146	0.0157292
753.224	0.0158038
753.302	0.0156694
753.380	0.0156351
753.458	0.0156425
753.536	0.0157302
753.614	0.0157441
753.692	0.0156741
753.771	0.0155668
753.849	0.0157975
753.927	0.0158234
754.005	0.0157267
754.083	0.0156894
754.161	0.0158465
754.239	0.0158758
754.317	0.0159732
754.396	0.0160035
754.474	0.0157798
754.552	0.0159142
754.630	0.0159516
754.708	0.0160558
754.786	0.0160837
754.864	0.0160761
754.942	0.0161082
755.021	0.0160062
755.099	0.0161372
755.177	0.0161233
755.255	0.0163076
755.333	0.0162817
755.411	0.0161949
755.489	0.0162313
755.567	0.0163275
755.646	0.0163285
755.724	0.0164390
755.802	0.0164229
755.880	0.0164877
755.958	0.0165193
756.036	0.0164037
756.114	0.0165464
756.192	0.0163996
756.271	0.0164761
756.349	0.0163756
756.427	0.0164877
756.505	0.0165450
756.583	0.0165572
756.661	0.0164272
756.739	0.0165738
756.817	0.0166699
756.896	0.0165434
756.974	0.0165866
757.052	0.0164347
757.130	0.0164098
757.208	0.0165213
757.286	0.0166060
757.364	0.0163985
757.442	0.0166090
757.521	0.0165250
757.599	0.0163567
757.677	0.0164381
757.755	0.0163326
757.833	0.0164639
757.911	0.0163914
757.989	0.0162041
758.067	0.0164128
758.146	0.0162667
758.224	0.0162315
758.302	0.0160318
758.380	0.0161008
758.458	0.0160342
758.536	0.0160278
758.614	0.0160077
758.692	0.0159637
758.771	0.0158686
758.849	0.0159119
758.927	0.0157648
759.005	0.0158752
759.083	0.0158489
759.161	0.0158772
759.239	0.0158259
759.317	0.0158320
759.396	0.0158730
759.474	0.0156406
759.552	0.0158015
759.630	0.0158145
759.708	0.0157093
759.786	0.0158647
759.864	0.0158730
759.942	0.0155717
760.021	0.0157575
760.099	0.0158887
760.177	0.0157671
760.255	0.0157500
760.333	0.0156007
760.411	0.0156821
760.489	0.0156776
760.567	0.0156763
760.646	0.0157103
760.724	0.0156551
760.802	0.0157262
760.880	0.0157986
760.958	0.0156435
761.036	0.0156226
761.114	0.0158089
761.192	0.0157870
761.271	0.0157676
761.349	0.0158111
761.427	0.0158234
761.505	0.0157949
761.583	0.0158811
761.661	0.0159325
761.739	0.0161207
761.817	0.0161183
761.896	0.0161614
761.974	0.0161697
762.052	0.0161639
762.130	0.0163126
762.208	0.0161662
762.286	0.0162643
762.364	0.0163445
762.442	0.0164090
762.521	0.0163646
762.599	0.0164087
762.677	0.0164460
762.755	0.0164451
762.833	0.0163549
762.911	0.0164858
762.989	0.0165161
763.067	0.0165174
763.146	0.0164581
763.224	0.0165260
763.302	0.0165826
763.380	0.0166063
763.458	0.0166124
763.536	0.0166678
763.614	0.0167026
763.692	0.0166309
763.771	0.0166264
763.849	0.0166381
763.927	0.0164748
764.005	0.0165644
764.083	0.0166910
764.161	0.0165237
764.239	0.0164850
764.317	0.0165226
764.396	0.0164356
764.474	0.0165905
764.552	0.0164306
764.630	0.0163317
764.708	0.0164391
764.786	0.0164378
764.864	0.0165067
764.942	0.0163999
765.021	0.0164639
765.099	0.0163973
765.177	0.0164600
765.255	0.0162833
765.333	0.0163023
765.411	0.0164022
765.489	0.0163483
765.567	0.0164619
765.646	0.0163068
765.724	0.0162785
765.802	0.0163383
765.880	0.0161904
765.958	0.0162041
766.036	0.0162875
766.114	0.0162548
766.192	0.0164409
766.271	0.0162063
766.349	0.0162844
766.427	0.0163171
766.505	0.0161696
766.583	0.0163411
766.661	0.0164288
766.739	0.0162514
766.817	0.0164635
766.896	0.0163365
766.974	0.0163963
767.052	0.0162898
767.130	0.0162700
767.208	0.0164494
767.286	0.0162138
767.364	0.0163952
767.442	0.0164404
767.521	0.0163427
767.599	0.0162733
767.677	0.0163387
767.755	0.0162605
767.833	0.0164354
767.911	0.0162828
767.989	0.0160788
768.067	0.0162530
768.146	0.0162148
768.224	0.0162389
768.302	0.0161601
768.380	0.0162083
768.458	0.0161279
768.536	0.0160579
768.614	0.0160358
768.692	0.0161821
768.771	0.0161068
768.849	0.0160160
768.927	0.0160042
769.005	0.0159731
769.083	0.0159538
769.161	0.0159030
769.239	0.0158701
769.317	0.0159546
769.396	0.0159230
769.474	0.0159910
769.552	0.0159588
769.630	0.0158262
769.708	0.0159787
769.786	0.0159389
769.864	0.0159046
769.942	0.0160174
770.021	0.0158777
770.099	0.0159283
770.177	0.0159644
770.255	0.0161451
770.333	0.0162531
770.411	0.0161807
770.489	0.0161386
770.567	0.0162025
770.646	0.0160749
770.724	0.0163686
770.802	0.0164355
770.880	0.0163564
770.958	0.0163925
771.036	0.0164294
771.114	0.0165173
771.192	0.0165292
771.271	0.0165754
771.349	0.0166749
771.427	0.0166911
771.505	0.0167430
771.583	0.0166782
771.661	0.0166692
771.739	0.0167787
771.817	0.0167926
771.896	0.0167355
771.974	0.0167948
772.052	0.0166000
772.130	0.0166798
772.208	0.0166106
772.286	0.0166839
772.364	0.0166630
772.442	0.0166628
772.521	0.0165755
772.599	0.0165783
772.677	0.0165461
772.755	0.0166248
772.833	0.0165640
772.911	0.0165769
772.989	0.0164388
773.067	0.0165376
773.146	0.0165154
773.224	0.0164248
773.302	0.0164893
773.380	0.0166446
773.458	0.0165560
773.536	0.0164790
773.614	0.0164471
773.692	0.0165501
773.771	0.0164693
773.849	0.0165180
773.927	0.0165780
774.005	0.0164503
774.083	0.0164713
774.161	0.0164645
774.239	0.0164005
774.317	0.0165350
774.396	0.0163200
774.474	0.0164419
774.552	0.0164264
774.630	0.0162444
774.708	0.0163138
774.786	0.0162128
774.864	0.0160695
774.942	0.0162045
775.021	0.0161539
775.099	0.0161542
775.177	0.0161411
775.255	0.0159251
775.333	0.0160151
775.411	0.0159274
775.489	0.0158652
775.567	0.0158154
775.646	0.0157755
775.724	0.0159064
775.802	0.0156887
775.880	0.0157134
775.958	0.0157483
776.036	0.0157160
776.114	0.0157024
776.192	0.0157243
776.271	0.0157920
776.349	0.0156487
776.427	0.0157778
776.505	0.0158237
776.583	0.0157012
776.661	0.0156802
776.739	0.0157864
776.817	0.0157572
776.896	0.0156626
776.974	0.0157784
777.052	0.0156812
777.130	0.0158093
777.208	0.0156004
777.286	0.0156842
777.364	0.0157674
777.442	0.0158670
777.521	0.0157858
777.599	0.0158095
777.677	0.0157559
777.755	0.0158437
777.833	0.0158930
777.911	0.0158492
777.989	0.0157575
778.067	0.0158866
778.146	0.0158420
778.224	0.0158909
778.302	0.0157484
778.380	0.0157817
778.458	0.0157872
778.536	0.0157598
778.614	0.0157992
778.692	0.0158142
778.771	0.0158048
778.849	0.0159453
778.927	0.0158438
779.005	0.0157706
779.083	0.0157937
779.161	0.0158199
779.239	0.0158710
779.317	0.0158905
779.396	0.0158798
779.474	0.0157020
779.552	0.0158169
779.630	0.0158038
779.708	0.0157712
779.786	0.0157694
779.864	0.0155734
779.942	0.0157032
780.021	0.0158195
780.099	0.0156908
780.177	0.0156017
780.255	0.0155797
780.333	0.0157212
780.411	0.0155624
780.489	0.0155466
780.567	0.0156686
780.646	0.0156656
780.724	0.0156250
780.802	0.0157065
780.880	0.0155827
780.958	0.0156737
781.036	0.0156202
781.114	0.0158379
781.192	0.0157806
781.271	0.0158810
781.349	0.0159255
781.427	0.0158724
781.505	0.0160910
781.583	0.0160144
781.661	0.0160238
781.739	0.0160874
781.817	0.0160944
781.896	0.0162540
781.974	0.0161794
782.052	0.0160256
782.130	0.0162207
782.208	0.0162232
782.286	0.0163964
782.364	0.0164030
782.442	0.0165025
782.521	0.0163202
782.599	0.0164910
782.677	0.0164463
782.755	0.0164092
782.833	0.0163873
782.911	0.0165717
782.989	0.0163824
783.067	0.0164246
783.146	0.0164891
783.224	0.0163965
783.302	0.0164346
783.380	0.0164894
783.458	0.0166177
783.536	0.0164085
783.614	0.0163628
783.692	0.0164136
783.771	0.0165685
783.849	0.0163217
783.927	0.0164184
784.005	0.0164388
784.083	0.0164591
784.161	0.0165347
784.239	0.0164217
784.317	0.0164975
784.396	0.0164570
784.474	0.0165279
784.552	0.0164462
784.630	0.0165785
784.708	0.0164406
784.786	0.0165170
784.864	0.0165301
784.942	0.0164958
785.021	0.0165012
785.099	0.0165486
785.177	0.0165251
785.255	0.0165300
785.333	0.0164341
785.411	0.0164625
785.489	0.0164769
785.567	0.0163100
785.646	0.0164578
785.724	0.0164241
785.802	0.0163419
785.880	0.0163504
785.958	0.0163591
786.036	0.0164108
786.114	0.0163467
786.192	0.0161993
786.271	0.0162970
786.349	0.0162953
786.427	0.0162545
786.505	0.0161624
786.583	0.0161801
786.661	0.0163123
786.739	0.0162598
786.817	0.0162629
786.896	0.0161668
786.974	0.0160850
787.052	0.0162197
787.130	0.0164156
787.208	0.0161672
787.286	0.0162115
787.364	0.0162814
787.442	0.0162841
787.521	0.0162209
787.599	0.0162462
787.677	0.0163447
787.755	0.0162498
787.833	0.0163068
787.911	0.0164122
787.989	0.0163936
788.067	0.0163613
788.146	0.0164196
788.224	0.0162219
788.302	0.0163203
788.380	0.0163583
788.458	0.0164812
788.536	0.0164166
788.614	0.0164788
788.692	0.0163812
788.771	0.0164653
788.849	0.0164085
788.927	0.0164330
789.005	0.0163504
789.083	0.0164153
789.161	0.0163647
789.239	0.0164191
789.317	0.0162462
789.396	0.0162301
789.474	0.0164229
789.552	0.0162761
789.630	0.0163139
789.708	0.0161244
789.786	0.0162447
789.864	0.0162362
789.942	0.0162875
790.021	0.0162781
790.099	0.0162929
790.177	0.0163106
790.255	0.0162784
790.333	0.0164553
790.411	0.0164168
790.489	0.0164278
790.567	0.0164563
790.646	0.0165617
790.724	0.0165143
790.802	0.0165572
790.880	0.0163647
790.958	0.0164216
791.036	0.0165482
791.114	0.0165395
791.192	0.0164770
791.271	0.0165984
791.349	0.0165173
791.427	0.0165949
791.505	0.0164622
791.583	0.0166304
791.661	0.0166762
791.739	0.0164102
791.817	0.0164808
791.896	0.0166618
791.974	0.0165176
792.052	0.0166379
792.130	0.0166234
792.208	0.0165743
792.286	0.0164594
792.364	0.0166800
792.442	0.0164566
792.521	0.0165343
792.599	0.0163833
792.677	0.0163557
792.755	0.0164315
792.833	0.0164259
792.911	0.0163342
792.989	0.0164188
793.067	0.0162279
793.146	0.0162470
793.224	0.0162700
793.302	0.0164859
793.380	0.0163431
793.458	0.0161756
793.536	0.0162445
793.614	0.0161342
793.692	0.0162822
793.771	0.0163371
793.849	0.0163450
793.927	0.0163783
794.005	0.0162759
794.083	0.0163128
794.161	0.0163243
794.239	0.0163507
794.317	0.0162303
794.396	0.0162528
794.474	0.0161782
794.552	0.0162016
794.630	0.0163400
794.708	0.0162415
794.786	0.0162431
794.864	0.0162174
794.942	0.0161825
795.021	0.0163625
795.099	0.0162368
795.177	0.0161868
795.255	0.0161285
795.333	0.0162280
795.411	0.0161498
795.489	0.0160573
795.567	0.0160390
795.646	0.0160829
795.724	0.0159344
795.802	0.0160853
795.880	0.0161333
795.958	0.0159487
796.036	0.0158902
796.114	0.0159618
796.192	0.0160156
796.271	0.0160539
796.349	0.0158440
796.427	0.0158650
796.505	0.0159715
796.583	0.0160115
796.661	0.0159259
796.739	0.0159531
796.817	0.0160052
796.896	0.0159174
796.974	0.0160273
797.052	0.0160047
797.130	0.0159977
797.208	0.0159159
797.286	0.0161689
797.364	0.0160920
797.442	0.0161425
797.521	0.0161183
797.599	0.0161755
797.677	0.0161136
797.755	0.0162862
797.833	0.0163341
797.911	0.0163097
797.989	0.0163799
798.067	0.0164243
798.146	0.0163991
798.224	0.0165446
798.302	0.0164630
798.380	0.0165401
798.458	0.0164550
798.536	0.0164931
798.614	0.0164358
798.692	0.0164087
798.771	0.0164391
798.849	0.0164573
798.927	0.0164635
799.005	0.0164510
799.083	0.0165449
799.161	0.0163497
799.239	0.0164227
799.317	0.0164675
799.396	0.0163705
799.474	0.0163954
799.552	0.0164212
799.630	0.0163738
799.708	0.0163850
799.786	0.0164298
799.864	0.0163159
799.942	0.0163667
800.021	0.0164516
800.099	0.0164251
800.177	0.0164838
800.255	0.0165235
800.333	0.0163835
800.411	0.0164370
800.489	0.0165290
800.567	0.0164727
800.646	0.0165076
800.724	0.0165051
800.802	0.0164462
800.880	0.0165933
800.958	0.0165977
801.036	0.0164950
801.114	0.0165144
801.192	0.0164943
801.271	0.0164769
801.349	0.0164509
801.427	0.0163490
801.505	0.0163910
801.583	0.0163422
801.661	0.0163609
801.739	0.0163240
801.817	0.0160892
801.896	0.0160979
801.974	0.0160865
802.052	0.0159306
802.130	0.0159381
802.208	0.0158554
802.286	0.0156652
802.364	0.0156600
802.442	0.0157329
802.521	0.0155806
802.599	0.0157530
802.677	0.0155772
802.755	0.0154295
802.833	0.0155051
802.911	0.0154779
802.989	0.0156048
803.067	0.0153308
803.146	0.0155187
803.224	0.0155716
803.302	0.0155397
803.380	0.0155005
803.458	0.0153876
803.536	0.0155226
803.614	0.0155660
803.692	0.0155170
803.771	0.0155597
803.849	0.0155417
803.927	0.0155741
804.005	0.0156063
804.083	0.0156622
804.161	0.0156474
804.239	0.0156309
804.317	0.0157335
804.396	0.0158792
804.474	0.0157859
804.552	0.0157348
804.630	0.0158141
804.708	0.0158331
804.786	0.0157664
804.864	0.0159236
804.942	0.0158656
805.021	0.0158943
805.099	0.0158437
805.177	0.0158230
805.255	0.0158416
805.333	0.0159097
805.411	0.0159782
805.489	0.0158982
805.567	0.0159877
805.646	0.0159379
805.724	0.0159401
805.802	0.0159363
805.880	0.0158927
805.958	0.0159168
806.036	0.0159467
806.114	0.0159776
806.192	0.0161391
806.271	0.0159160
806.349	0.0160130
806.427	0.0159881
806.505	0.0159611
806.583	0.0159953
806.661	0.0159734
806.739	0.0160564
806.817	0.0161204
806.896	0.0160378
806.974	0.0160593
807.052	0.0161150
807.130	0.0160471
807.208	0.0162280
807.286	0.0162898
807.364	0.0162474
807.442	0.0162766
807.521	0.0161306
807.599	0.0163376
807.677	0.0162576
807.755	0.0164167
807.833	0.0164122
807.911	0.0163798
807.989	0.0164584
808.067	0.0165366
808.146	0.0165818
808.224	0.0165096
808.302	0.0165049
808.380	0.0165928
808.458	0.0166666
808.536	0.0165479
808.614	0.0165823
808.692	0.0166241
808.771	0.0166219
808.849	0.0165214
808.927	0.0166391
809.005	0.0166105
809.083	0.0166183
809.161	0.0166068
809.239	0.0165287
809.317	0.0164227
809.396	0.0164398
809.474	0.0163869
809.552	0.0165020
809.630	0.0163878
809.708	0.0164216
809.786	0.0163072
809.864	0.0163981
809.942	0.0164829
810.021	0.0164075
810.099	0.0162473
810.177	0.0162429
810.255	0.0163480
810.333	0.0162368
810.411	0.0160962
810.489	0.0162478
810.567	0.0161820
810.646	0.0161290
810.724	0.0161167
810.802	0.0160873
810.880	0.0160561
810.958	0.0161959
811.036	0.0160663
811.114	0.0160050
811.192	0.0159642
811.271	0.0159033
811.349	0.0158706
811.427	0.0158964
811.505	0.0159116
811.583	0.0159626
811.661	0.0158626
811.739	0.0157337
811.817	0.0157788
811.896	0.0157039
811.974	0.0157699
812.052	0.0155378
812.130	0.0154687
812.208	0.0156392
812.286	0.0156937
812.364	0.0155502
812.442	0.0155805
812.521	0.0155170
812.599	0.0154722
812.677	0.0155155
812.755	0.0153732
812.833	0.0153470
812.911	0.0154167
812.989	0.0153127
813.067	0.0154509
813.146	0.0153489
813.224	0.0154495
813.302	0.0154151
813.380	0.0153554
813.458	0.0153347
813.536	0.0155016
813.614	0.0154472
813.692	0.0155328
813.771	0.0154017
813.849	0.0156023
813.927	0.0155608
814.005	0.0155472
814.083	0.0156599
814.161	0.0157830
814.239	0.0157787
814.317	0.0158241
814.396	0.0159808
814.474	0.0160640
814.552	0.0161282
814.630	0.0162670
814.708	0.0163734
814.786	0.0164413
814.864	0.0164927
814.942	0.0165067
815.021	0.0166144
815.099	0.0167246
815.177	0.0167348
815.255	0.0169283
815.333	0.0168182
815.411	0.0171603
815.489	0.0172133
815.567	0.0172900
815.646	0.0173284
815.724	0.0171883
815.802	0.0174030
815.880	0.0174172
815.958	0.0172693
816.036	0.0173238
816.114	0.0174555
816.192	0.0174609
816.271	0.0174430
816.349	0.0175775
816.427	0.0175137
816.505	0.0175441
816.583	0.0174989
816.661	0.0175053
816.739	0.0174059
816.817	0.0175705
816.896	0.0175274
816.974	0.0174206
817.052	0.0173417
817.130	0.0174345
817.208	0.0172403
817.286	0.0170729
817.364	0.0171584
817.442	0.0171140
817.521	0.0170298
817.599	0.0169587
817.677	0.0168948
817.755	0.0168781
817.833	0.0169733
817.911	0.0168831
817.989	0.0168495
818.067	0.0166933
818.146	0.0166303
818.224	0.0166186
818.302	0.0167218
818.380	0.0166096
818.458	0.0164153
818.536	0.0164014
818.614	0.0163726
818.692	0.0163106
818.771	0.0162337
818.849	0.0162384
818.927	0.0160458
819.005	0.0161350
819.083	0.0160158
819.161	0.0159531
819.239	0.0158586
819.317	0.0158622
819.396	0.0158537
819.474	0.0157819
819.552	0.0157658
819.630	0.0156059
819.708	0.0157529
819.786	0.0156637
819.864	0.0155621
819.942	0.0156985
820.021	0.0157462
820.099	0.0155788
820.177	0.0156980
820.255	0.0156212
820.333	0.0157225
820.411	0.0158429
820.489	0.0157370
820.567	0.0157803
820.646	0.0158699
820.724	0.0159392
820.802	0.0158408
820.880	0.0158762
820.958	0.0159343
821.036	0.0160267
821.114	0.0161935
821.192	0.0162642
821.271	0.0161617
821.349	0.0161913
821.427	0.0162053
821.505	0.0163117
821.583	0.0163090
821.661	0.0162543
821.739	0.0162732
821.817	0.0163024
821.896	0.0163082
821.974	0.0164315
822.052	0.0163953
822.130	0.0164105
822.208	0.0163951
822.286	0.0164195
822.364	0.0164116
822.442	0.0164929
822.521	0.0164010
822.599	0.0163200
822.677	0.0163843
822.755	0.0162762
822.833	0.0162725
822.911	0.0161488
822.989	0.0162220
823.067	0.0160499
823.146	0.0160001
823.224	0.0160049
823.302	0.0161526
823.380	0.0160390
823.458	0.0159289
823.536	0.0158067
823.614	0.0157063
823.692	0.0158666
823.771	0.0158210
823.849	0.0156736
823.927	0.0155722
824.005	0.0156052
824.083	0.0155865
824.161	0.0155657
824.239	0.0156995
824.317	0.0157426
824.396	0.0155638
824.474	0.0157764
824.552	0.0156609
824.630	0.0157250
824.708	0.0156680
824.786	0.0156767
824.864	0.0156504
824.942	0.0157457
825.021	0.0157087
825.099	0.0157396
825.177	0.0157895
825.255	0.0158978
825.333	0.0157822
825.411	0.0158158
825.489	0.0158162
825.567	0.0158280
825.646	0.0158627
825.724	0.0157155
825.802	0.0157364
825.880	0.0158324
825.958	0.0157285
826.036	0.0156035
826.114	0.0155399
826.192	0.0154884
826.271	0.0156824
826.349	0.0155718
826.427	0.0155322
826.505	0.0155409
826.583	0.0154427
826.661	0.0153275
826.739	0.0154477
826.817	0.0154494
826.896	0.0154179
826.974	0.0153726
827.052	0.0152622
827.130	0.0153110
827.208	0.0154167
827.286	0.0153317
827.364	0.0153049
827.442	0.0153502
827.521	0.0153888
827.599	0.0153682
827.677	0.0154819
827.755	0.0153412
827.833	0.0156186
827.911	0.0156550
827.989	0.0157228
828.067	0.0156833
828.146	0.0156069
828.224	0.0159081
828.302	0.0157857
828.380	0.0159933
828.458	0.0160933
828.536	0.0160912
828.614	0.0160601
828.692	0.0161703
828.771	0.0162248
828.849	0.0162951
828.927	0.0164259
829.005	0.0163997
829.083	0.0163065
829.161	0.0162473
829.239	0.0164174
829.317	0.0163935
829.396	0.0164443
829.474	0.0163686
829.552	0.0164194
829.630	0.0165148
829.708	0.0165460
829.786	0.0163309
829.864	0.0165026
829.942	0.0165642
830.021	0.0164601
830.099	0.0163985
830.177	0.0164469
830.255	0.0165957
830.333	0.0163237
830.411	0.0163952
830.489	0.0163998
830.567	0.0162302
830.646	0.0163759
830.724	0.0162714
830.802	0.0162642
830.880	0.0163721
830.958	0.0163655
831.036	0.0161832
831.114	0.0162035
831.192	0.0163013
831.271	0.0164352
831.349	0.0162612
831.427	0.0165440
831.505	0.0161700
831.583	0.0162782
831.661	0.0162038
831.739	0.0163258
831.817	0.0164130
831.896	0.0162705
831.974	0.0161833
832.052	0.0163120
832.130	0.0163977
832.208	0.0164864
832.286	0.0164641
832.364	0.0162830
832.442	0.0163316
832.521	0.0164601
832.599	0.0164189
832.677	0.0164365
832.755	0.0165283
832.833	0.0165154
832.911	0.0165323
832.989	0.0164912
833.067	0.0166369
833.146	0.0164905
833.224	0.0165984
833.302	0.0166673
833.380	0.0165447
833.458	0.0165053
833.536	0.0166100
833.614	0.0165385
833.692	0.0164832
833.771	0.0166076
833.849	0.0165090
833.927	0.0164773
834.005	0.0165729
834.083	0.0164729
834.161	0.0162417
834.239	0.0164491
834.317	0.0163531
834.396	0.0162636
834.474	0.0163384
834.552	0.0163533
834.630	0.0163431
834.708	0.0162566
834.786	0.0162661
834.864	0.0161539
834.942	0.0160959
835.021	0.0160583
835.099	0.0161736
835.177	0.0161950
835.255	0.0161768
835.333	0.0159698
835.411	0.0159852
835.489	0.0159942
835.567	0.0157668
835.646	0.0159444
835.724	0.0157929
835.802	0.0157503
835.880	0.0156933
835.958	0.0155777
836.036	0.0156622
836.114	0.0157200
836.192	0.0157327
836.271	0.0156448
836.349	0.0156459
836.427	0.0156721
836.505	0.0157449
836.583	0.0158182
836.661	0.0156776
836.739	0.0158018
836.817	0.0158171
836.896	0.0159006
836.974	0.0159208
837.052	0.0159231
837.130	0.0159953
837.208	0.0159931
837.286	0.0160133
837.364	0.0159433
837.442	0.0159004
837.521	0.0158822
837.599	0.0160395
837.677	0.0159797
837.755	0.0159332
837.833	0.0159447
837.911	0.0158615
837.989	0.0158492
838.067	0.0158238
838.146	0.0157472
838.224	0.0158042
838.302	0.0156813
838.380	0.0157066
838.458	0.0157141
838.536	0.0154769
838.614	0.0157084
838.692	0.0155335
838.771	0.0155048
838.849	0.0155954
838.927	0.0157223
839.005	0.0156157
839.083	0.0156033
839.161	0.0156890
839.239	0.0156319
839.317	0.0156581
839.396	0.0157944
839.474	0.0156802
839.552	0.0159664
839.630	0.0158763
839.708	0.0160287
839.786	0.0159521
839.864	0.0159128
839.942	0.0162096
840.021	0.0163033
840.099	0.0161847
840.177	0.0164101
840.255	0.0162912
840.333	0.0163757
840.411	0.0165651
840.489	0.0166715
840.567	0.0165248
840.646	0.0165946
840.724	0.0165971
840.802	0.0166569
840.880	0.0166240
840.958	0.0167962
841.036	0.0168168
841.114	0.0168605
841.192	0.0168108
841.271	0.0166788
841.349	0.0169204
841.427	0.0168110
841.505	0.0167382
841.583	0.0168040
841.661	0.0168692
841.739	0.0168372
841.817	0.0168969
841.896	0.0168281
841.974	0.0168127
842.052	0.0168013
842.130	0.0167944
842.208	0.0168948
842.286	0.0167638
842.364	0.0168493
842.442	0.0166996
842.521	0.0167612
842.599	0.0165697
842.677	0.0167957
842.755	0.0167265
842.833	0.0167548
842.911	0.0166740
842.989	0.0165786
843.067	0.0166387
843.146	0.0166377
843.224	0.0166393
843.302	0.0164811
843.380	0.0164838
843.458	0.0165109
843.536	0.0165985
843.614	0.0166830
843.692	0.0165262
843.771	0.0163895
843.849	0.0163845
843.927	0.0164075
844.005	0.0164205
844.083	0.0163876
844.161	0.0164419
844.239	0.0164584
844.317	0.0162483
844.396	0.0163010
844.474	0.0162266
844.552	0.0161076
844.630	0.0161906
844.708	0.0161581
844.786	0.0160889
844.864	0.0160414
844.942	0.0159577
845.021	0.0158032
845.099	0.0157407
845.177	0.0157178
845.255	0.0156416
845.333	0.0156519
845.411	0.0157247
845.489	0.0156142
845.567	0.0154259
845.646	0.0155984
845.724	0.0156159
845.802	0.0154495
845.880	0.0154436
845.958	0.0155222
846.036	0.0155015
846.114	0.0155361
846.192	0.0154810
846.271	0.0155565
846.349	0.0155499
846.427	0.0154879
846.505	0.0155305
846.583	0.0154282
846.661	0.0154737
846.739	0.0155706
846.817	0.0153735
846.896	0.0152999
846.974	0.0155789
847.052	0.0154974
847.130	0.0154546
847.208	0.0155122
847.286	0.0154521
847.364	0.0154324
847.442	0.0154900
847.521	0.0155701
847.599	0.0155463
847.677	0.0154528
847.755	0.0156709
847.833	0.0157176
847.911	0.0156058
847.989	0.0157303
848.067	0.0158097
848.146	0.0157977
848.224	0.0159039
848.302	0.0159380
848.380	0.0160020
848.458	0.0160603
848.536	0.0162005
848.614	0.0161443
848.692	0.0161669
848.771	0.0161657
848.849	0.0161427
848.927	0.0160017
849.005	0.0162609
849.083	0.0163149
849.161	0.0163572
849.239	0.0162721
849.317	0.0162708
849.396	0.0162940
849.474	0.0162990
849.552	0.0163480
849.630	0.0163754
849.708	0.0164369
849.786	0.0162873
849.864	0.0163470
849.942	0.0162653
850.021	0.0164686
850.099	0.0163613
850.177	0.0164673
850.255	0.0164201
850.333	0.0164561
850.411	0.0163092
850.489	0.0163284
850.567	0.0163242
850.646	0.0163785
850.724	0.0162975
850.802	0.0163413
850.880	0.0162632
850.958	0.0162672
851.036	0.0161395
851.114	0.0163060
851.192	0.0160603
851.271	0.0162215
851.349	0.0162160
851.427	0.0160533
851.505	0.0160778
851.583	0.0162389
851.661	0.0160303
851.739	0.0158981
851.817	0.0159949
851.896	0.0159483
851.974	0.0157934
852.052	0.0157977
852.130	0.0158965
852.208	0.0158873
852.286	0.0159719
852.364	0.0160460
852.442	0.0159115
852.521	0.0159187
852.599	0.0160212
852.677	0.0159057
852.755	0.0160211
852.833	0.0160617
852.911	0.0160197
852.989	0.0159522
853.067	0.0160724
853.146	0.0161601
853.224	0.0160673
853.302	0.0161931
853.380	0.0161080
853.458	0.0162909
853.536	0.0160732
853.614	0.0161395
853.692	0.0163966
853.771	0.0163496
853.849	0.0163108
853.927	0.0162877
854.005	0.0163476
854.083	0.0163461
854.161	0.0163493
854.239	0.0164687
854.317	0.0164756
854.396	0.0163390
854.474	0.0164841
854.552	0.0165098
854.630	0.0164263
854.708	0.0164706
854.786	0.0164950
854.864	0.0164451
854.942	0.0166247
855.021	0.0164258
855.099	0.0163692
855.177	0.0165733
855.255	0.0165075
855.333	0.0164200
855.411	0.0164294
855.489	0.0164937
855.567	0.0163909
855.646	0.0164378
855.724	0.0165055
855.802	0.0164168
855.880	0.0164251
855.958	0.0163956
856.036	0.0163573
856.114	0.0163507
856.192	0.0161663
856.271	0.0162749
856.349	0.0164678
856.427	0.0163960
856.505	0.0164180
856.583	0.0163074
856.661	0.0162798
856.739	0.0162410
856.817	0.0163753
856.896	0.0162107
856.974	0.0163083
857.052	0.0163881
857.130	0.0162515
857.208	0.0162675
857.286	0.0162319
857.364	0.0163225
857.442	0.0163051
857.521	0.0161476
857.599	0.0163087
857.677	0.0162711
857.755	0.0163424
857.833	0.0162119
857.911	0.0162709
857.989	0.0162653
858.067	0.0163794
858.146	0.0164819
858.224	0.0164664
858.302	0.0163609
858.380	0.0162749
858.458	0.0163935
858.536	0.0163695
858.614	0.0162855
858.692	0.0164178
858.771	0.0163233
858.849	0.0163222
858.927	0.0162075
859.005	0.0160625
859.083	0.0162766
859.161	0.0161998
859.239	0.0161890
859.317	0.0160329
859.396	0.0160012
859.474	0.0160721
859.552	0.0160072
859.630	0.0159816
859.708	0.0158627
859.786	0.0159173
859.864	0.0156637
859.942	0.0158335
860.021	0.0157769
860.099	0.0157454
860.177	0.0157605
860.255	0.0158243
860.333	0.0156509
860.411	0.0155618
860.489	0.0155795
860.567	0.0155684
860.646	0.0155031
860.724	0.0154725
860.802	0.0156037
860.880	0.0155424
860.958	0.0154051
861.036	0.0156001
861.114	0.0154780
861.192	0.0154955
861.271	0.0156141
861.349	0.0155356
861.427	0.0155809
861.505	0.0157194
861.583	0.0157624
861.661	0.0158267
861.739	0.0157890
861.817	0.0159337
861.896	0.0159870
861.974	0.0160062
862.052	0.0161771
862.130	0.0162493
862.208	0.0161829
862.286	0.0162584
862.364	0.0163642
862.442	0.0165272
862.521	0.0163420
862.599	0.0165109
862.677	0.0165787
862.755	0.0166516
862.833	0.0166677
862.911	0.0165617
862.989	0.0166589
863.067	0.0166222
863.146	0.0166216
863.224	0.0165733
863.302	0.0166785
863.380	0.0166889
863.458	0.0164555
863.536	0.0164327
863.614	0.0164391
863.692	0.0166115
863.771	0.0165510
863.849	0.0163972
863.927	0.0162381
864.005	0.0163732
864.083	0.0162521
864.161	0.0163387
864.239	0.0163668
864.317	0.0164004
864.396	0.0162370
864.474	0.0161738
864.552	0.0162286
864.630	0.0162585
864.708	0.0162556
864.786	0.0160818
864.864	0.0162894
864.942	0.0163025
865.021	0.0161556
865.099	0.0162815
865.177	0.0162431
865.255	0.0163420
865.333	0.0163036
865.411	0.0162769
865.489	0.0163039
865.567	0.0160655
865.646	0.0161446
865.724	0.0162122
865.802	0.0163226
865.880	0.0162242
865.958	0.0162640
866.036	0.0163268
866.114	0.0163016
866.192	0.0163657
866.271	0.0161930
866.349	0.0162020
866.427	0.0162884
866.505	0.0161955
866.583	0.0162700
866.661	0.0160769
866.739	0.0160798
866.817	0.0162051
866.896	0.0161461
866.974	0.0160831
867.052	0.0159915
867.130	0.0159446
867.208	0.0159425
867.286	0.0159296
867.364	0.0157912
867.442	0.0158877
867.521	0.0158397
867.599	0.0158450
867.677	0.0158016
867.755	0.0157029
867.833	0.0156718
867.911	0.0156396
867.989	0.0155005
868.067	0.0156803
868.146	0.0156441
868.224	0.0156226
868.302	0.0156252
868.380	0.0156708
868.458	0.0156512
868.536	0.0157233
868.614	0.0157345
868.692	0.0158291
868.771	0.0158431
868.849	0.0159311
868.927	0.0158859
869.005	0.0157616
869.083	0.0161984
869.161	0.0160986
869.239	0.0160329
869.317	0.0161275
869.396	0.0161479
869.474	0.0161798
869.552	0.0163516
869.630	0.0163250
869.708	0.0164662
869.786	0.0163902
869.864	0.0164949
869.942	0.0165214
