06/03/2022	14:54:20	Ver.	4.1	UNKNOWN
Optical Delay	550.020508	Delta X		0.078125	Sweeps	1	Scan Rate	0/0
Coordinates	Axis 1	NaN	Axis 2	NaN	Axis 3	NaN	Axis 4	NaN	Axis 5	NaN	Axis 6	0.000000
TX Power	0.000000	RX Power	0.000000

550.021	0.0155928
550.099	0.0165850
550.177	0.0166154
550.255	0.0164523
550.333	0.0163443
550.411	0.0163101
550.489	0.0162660
550.567	0.0161767
550.646	0.0160235
550.724	0.0158605
550.802	0.0159663
550.880	0.0160151
550.958	0.0158434
551.036	0.0158361
551.114	0.0158696
551.192	0.0158239
551.271	0.0157370
551.349	0.0157767
551.427	0.0157755
551.505	0.0156338
551.583	0.0157401
551.661	0.0157745
551.739	0.0155444
551.817	0.0154696
551.896	0.0153661
551.974	0.0153313
552.052	0.0153001
552.130	0.0151648
552.208	0.0153023
552.286	0.0153468
552.364	0.0151506
552.442	0.0152774
552.521	0.0156120
552.599	0.0155565
552.677	0.0156628
552.755	0.0155743
552.833	0.0157493
552.911	0.0159137
552.989	0.0158823
553.067	0.0161505
553.146	0.0162213
553.224	0.0163328
553.302	0.0165804
553.380	0.0167794
553.458	0.0167041
553.536	0.0169020
553.614	0.0170685
553.692	0.0170826
553.771	0.0170365
553.849	0.0170580
553.927	0.0170838
554.005	0.0169722
554.083	0.0168023
554.161	0.0168732
554.239	0.0165789
554.317	0.0164549
554.396	0.0161584
554.474	0.0159689
554.552	0.0157993
554.630	0.0155834
554.708	0.0154562
554.786	0.0152480
554.864	0.0150219
554.942	0.0148923
555.021	0.0147900
555.099	0.0146957
555.177	0.0145256
555.255	0.0144372
555.333	0.0143909
555.411	0.0143825
555.489	0.0142995
555.567	0.0142894
555.646	0.0143588
555.724	0.0142995
555.802	0.0143992
555.880	0.0143073
555.958	0.0141898
556.036	0.0141154
556.114	0.0141508
556.192	0.0142850
556.271	0.0141513
556.349	0.0142247
556.427	0.0141269
556.505	0.0142355
556.583	0.0141660
556.661	0.0140382
556.739	0.0139970
556.817	0.0140881
556.896	0.0140698
556.974	0.0140875
557.052	0.0141755
557.130	0.0142563
557.208	0.0142928
557.286	0.0145031
557.364	0.0146326
557.442	0.0149258
557.521	0.0149929
557.599	0.0151957
557.677	0.0156322
557.755	0.0158067
557.833	0.0160156
557.911	0.0164807
557.989	0.0165710
558.067	0.0169962
558.146	0.0172533
558.224	0.0174030
558.302	0.0175179
558.380	0.0177429
558.458	0.0178684
558.536	0.0178746
558.614	0.0180255
558.692	0.0180491
558.771	0.0180817
558.849	0.0178890
558.927	0.0177637
559.005	0.0177555
559.083	0.0176382
559.161	0.0175366
559.239	0.0171803
559.317	0.0171807
559.396	0.0171931
559.474	0.0169952
559.552	0.0167961
559.630	0.0168159
559.708	0.0166828
559.786	0.0166206
559.864	0.0164764
559.942	0.0164808
560.021	0.0164343
560.099	0.0163077
560.177	0.0163148
560.255	0.0160793
560.333	0.0160878
560.411	0.0162176
560.489	0.0160563
560.567	0.0158233
560.646	0.0159147
560.724	0.0158521
560.802	0.0156798
560.880	0.0155303
560.958	0.0155782
561.036	0.0154863
561.114	0.0153843
561.192	0.0152036
561.271	0.0152102
561.349	0.0154055
561.427	0.0154576
561.505	0.0153366
561.583	0.0155537
561.661	0.0154514
561.739	0.0155518
561.817	0.0158118
561.896	0.0159814
561.974	0.0160419
562.052	0.0163318
562.130	0.0163195
562.208	0.0167109
562.286	0.0168690
562.364	0.0170579
562.442	0.0172757
562.521	0.0173814
562.599	0.0176820
562.677	0.0178601
562.755	0.0180785
562.833	0.0182344
562.911	0.0185259
562.989	0.0185065
563.067	0.0187026
563.146	0.0188591
563.224	0.0190860
563.302	0.0191837
563.380	0.0193855
563.458	0.0195780
563.536	0.0197910
563.614	0.0199388
563.692	0.0201302
563.771	0.0201688
563.849	0.0202415
563.927	0.0202194
564.005	0.0204291
564.083	0.0204964
564.161	0.0204132
564.239	0.0204287
564.317	0.0202980
564.396	0.0203457
564.474	0.0201677
564.552	0.0198590
564.630	0.0197045
564.708	0.0196208
564.786	0.0192032
564.864	0.0189717
564.942	0.0188374
565.021	0.0186395
565.099	0.0183810
565.177	0.0180750
565.255	0.0177689
565.333	0.0176852
565.411	0.0174628
565.489	0.0171966
565.567	0.0170393
565.646	0.0168565
565.724	0.0166689
565.802	0.0165176
565.880	0.0164274
565.958	0.0163715
566.036	0.0163352
566.114	0.0161742
566.192	0.0161484
566.271	0.0163319
566.349	0.0162405
566.427	0.0159988
566.505	0.0160123
566.583	0.0160257
566.661	0.0160123
566.739	0.0160139
566.817	0.0159001
566.896	0.0160674
566.974	0.0160656
567.052	0.0158450
567.130	0.0160191
567.208	0.0161093
567.286	0.0160947
567.364	0.0161200
567.442	0.0163854
567.521	0.0163667
567.599	0.0164038
567.677	0.0164597
567.755	0.0165179
567.833	0.0166837
567.911	0.0166527
567.989	0.0169930
568.067	0.0169194
568.146	0.0170722
568.224	0.0170123
568.302	0.0171426
568.380	0.0172734
568.458	0.0173161
568.536	0.0173031
568.614	0.0171959
568.692	0.0172649
568.771	0.0172163
568.849	0.0172872
568.927	0.0171801
569.005	0.0171540
569.083	0.0170910
569.161	0.0168839
569.239	0.0168055
569.317	0.0166837
569.396	0.0166850
569.474	0.0164658
569.552	0.0163202
569.630	0.0161412
569.708	0.0162383
569.786	0.0159619
569.864	0.0158495
569.942	0.0155840
570.021	0.0154876
570.099	0.0152568
570.177	0.0153201
570.255	0.0148537
570.333	0.0148063
570.411	0.0148090
570.489	0.0147266
570.567	0.0145518
570.646	0.0143835
570.724	0.0143549
570.802	0.0144090
570.880	0.0142617
570.958	0.0142358
571.036	0.0142640
571.114	0.0141987
571.192	0.0142594
571.271	0.0142101
571.349	0.0143338
571.427	0.0143855
571.505	0.0142988
571.583	0.0143465
571.661	0.0144252
571.739	0.0145168
571.817	0.0145986
571.896	0.0147005
571.974	0.0146767
572.052	0.0148951
572.130	0.0150105
572.208	0.0149940
572.286	0.0150945
572.364	0.0152530
572.442	0.0154150
572.521	0.0154743
572.599	0.0156807
572.677	0.0158929
572.755	0.0159058
572.833	0.0158907
572.911	0.0160307
572.989	0.0161707
573.067	0.0163232
573.146	0.0163501
573.224	0.0164649
573.302	0.0164227
573.380	0.0162579
573.458	0.0164206
573.536	0.0163277
573.614	0.0162682
573.692	0.0164028
573.771	0.0164523
573.849	0.0164445
573.927	0.0162242
574.005	0.0163046
574.083	0.0162702
574.161	0.0164193
574.239	0.0163856
574.317	0.0162883
574.396	0.0162498
574.474	0.0163117
574.552	0.0164260
574.630	0.0163918
574.708	0.0164281
574.786	0.0165215
574.864	0.0165395
574.942	0.0165519
575.021	0.0165684
575.099	0.0167831
575.177	0.0168221
575.255	0.0167318
575.333	0.0167115
575.411	0.0169888
575.489	0.0170499
575.567	0.0170640
575.646	0.0170426
575.724	0.0171061
575.802	0.0172353
575.880	0.0172051
575.958	0.0173396
576.036	0.0175371
576.114	0.0174382
576.192	0.0173272
576.271	0.0174431
576.349	0.0173633
576.427	0.0172114
576.505	0.0174634
576.583	0.0174991
576.661	0.0173226
576.739	0.0173507
576.817	0.0171899
576.896	0.0172008
576.974	0.0169962
577.052	0.0169300
577.130	0.0167428
577.208	0.0167535
577.286	0.0166599
577.364	0.0163796
577.442	0.0162488
577.521	0.0161217
577.599	0.0159933
577.677	0.0157851
577.755	0.0158643
577.833	0.0156528
577.911	0.0155719
577.989	0.0154676
578.067	0.0155717
578.146	0.0153471
578.224	0.0153143
578.302	0.0152699
578.380	0.0151607
578.458	0.0150887
578.536	0.0151234
578.614	0.0149571
578.692	0.0149984
578.771	0.0151199
578.849	0.0150452
578.927	0.0150504
579.005	0.0149910
579.083	0.0151437
579.161	0.0151906
579.239	0.0151888
579.317	0.0151582
579.396	0.0152434
579.474	0.0152413
579.552	0.0153792
579.630	0.0153833
579.708	0.0154622
579.786	0.0153553
579.864	0.0155139
579.942	0.0155588
580.021	0.0155833
580.099	0.0156064
580.177	0.0156949
580.255	0.0156347
580.333	0.0156778
580.411	0.0157055
580.489	0.0156960
580.567	0.0157427
580.646	0.0156925
580.724	0.0156863
580.802	0.0156529
580.880	0.0155807
580.958	0.0155299
581.036	0.0157269
581.114	0.0156099
581.192	0.0155267
581.271	0.0157063
581.349	0.0154902
581.427	0.0154597
581.505	0.0155349
581.583	0.0154269
581.661	0.0154395
581.739	0.0154297
581.817	0.0152532
581.896	0.0155029
581.974	0.0154701
582.052	0.0153400
582.130	0.0155061
582.208	0.0154460
582.286	0.0155382
582.364	0.0155177
582.442	0.0156017
582.521	0.0156915
582.599	0.0155193
582.677	0.0156979
582.755	0.0157661
582.833	0.0156290
582.911	0.0156812
582.989	0.0156412
583.067	0.0157024
583.146	0.0157333
583.224	0.0156790
583.302	0.0157277
583.380	0.0158488
583.458	0.0158463
583.536	0.0159814
583.614	0.0161294
583.692	0.0160936
583.771	0.0162637
583.849	0.0164134
583.927	0.0164663
584.005	0.0165261
584.083	0.0167350
584.161	0.0167650
584.239	0.0166914
584.317	0.0166453
584.396	0.0166225
584.474	0.0167312
584.552	0.0165725
584.630	0.0166304
584.708	0.0167202
584.786	0.0165513
584.864	0.0164079
584.942	0.0164766
585.021	0.0164704
585.099	0.0164518
585.177	0.0163901
585.255	0.0164404
585.333	0.0164702
585.411	0.0164197
585.489	0.0165353
585.567	0.0166207
585.646	0.0166955
585.724	0.0169408
585.802	0.0167825
585.880	0.0167825
585.958	0.0170815
586.036	0.0171737
586.114	0.0171722
586.192	0.0174035
586.271	0.0174294
586.349	0.0175072
586.427	0.0175361
586.505	0.0176904
586.583	0.0175731
586.661	0.0177264
586.739	0.0177875
586.817	0.0177637
586.896	0.0178241
586.974	0.0176829
587.052	0.0179010
587.130	0.0177932
587.208	0.0177196
587.286	0.0177852
587.364	0.0177788
587.442	0.0177040
587.521	0.0175713
587.599	0.0174437
587.677	0.0175443
587.755	0.0173911
587.833	0.0173161
587.911	0.0173806
587.989	0.0172142
588.067	0.0173003
588.146	0.0173021
588.224	0.0171716
588.302	0.0171177
588.380	0.0171928
588.458	0.0171642
588.536	0.0170412
588.614	0.0171368
588.692	0.0170849
588.771	0.0171059
588.849	0.0170054
588.927	0.0171083
589.005	0.0171002
589.083	0.0172243
589.161	0.0171119
589.239	0.0170205
589.317	0.0169541
589.396	0.0170570
589.474	0.0170234
589.552	0.0170337
589.630	0.0171292
589.708	0.0169118
589.786	0.0169241
589.864	0.0170074
589.942	0.0170079
590.021	0.0170248
590.099	0.0168287
590.177	0.0169307
590.255	0.0168398
590.333	0.0167805
590.411	0.0168067
590.489	0.0168143
590.567	0.0167879
590.646	0.0167818
590.724	0.0165675
590.802	0.0165765
590.880	0.0164305
590.958	0.0165154
591.036	0.0164564
591.114	0.0163525
591.192	0.0163477
591.271	0.0162472
591.349	0.0161728
591.427	0.0163032
591.505	0.0161893
591.583	0.0161282
591.661	0.0161159
591.739	0.0160329
591.817	0.0160832
591.896	0.0159445
591.974	0.0159381
592.052	0.0160184
592.130	0.0160680
592.208	0.0159071
592.286	0.0159519
592.364	0.0159877
592.442	0.0159936
592.521	0.0159180
592.599	0.0160117
592.677	0.0159730
592.755	0.0160233
592.833	0.0158673
592.911	0.0159448
592.989	0.0159818
593.067	0.0157241
593.146	0.0157724
593.224	0.0156883
593.302	0.0158008
593.380	0.0157676
593.458	0.0157278
593.536	0.0157526
593.614	0.0158051
593.692	0.0157764
593.771	0.0159285
593.849	0.0158540
593.927	0.0160201
594.005	0.0159389
594.083	0.0161221
594.161	0.0160913
594.239	0.0160631
594.317	0.0163013
594.396	0.0162542
594.474	0.0161166
594.552	0.0161756
594.630	0.0162500
594.708	0.0163160
594.786	0.0164140
594.864	0.0162518
594.942	0.0163689
595.021	0.0164690
595.099	0.0165379
595.177	0.0165483
595.255	0.0163539
595.333	0.0165480
595.411	0.0167785
595.489	0.0167014
595.567	0.0167453
595.646	0.0168512
595.724	0.0167370
595.802	0.0167213
595.880	0.0170044
595.958	0.0168083
596.036	0.0167549
596.114	0.0168312
596.192	0.0167130
596.271	0.0166930
596.349	0.0166963
596.427	0.0166007
596.505	0.0166518
596.583	0.0166065
596.661	0.0164336
596.739	0.0163220
596.817	0.0163638
596.896	0.0163101
596.974	0.0162650
597.052	0.0161582
597.130	0.0162453
597.208	0.0162585
597.286	0.0162619
597.364	0.0162463
597.442	0.0162463
597.521	0.0162369
597.599	0.0163229
597.677	0.0162817
597.755	0.0162684
597.833	0.0165085
597.911	0.0164480
597.989	0.0165721
598.067	0.0165179
598.146	0.0165750
598.224	0.0167226
598.302	0.0166928
598.380	0.0167719
598.458	0.0168539
598.536	0.0168409
598.614	0.0168773
598.692	0.0169011
598.771	0.0168984
598.849	0.0170424
598.927	0.0170217
599.005	0.0170637
599.083	0.0170741
599.161	0.0170947
599.239	0.0171852
599.317	0.0171921
599.396	0.0172268
599.474	0.0171353
599.552	0.0170246
599.630	0.0170657
599.708	0.0170329
599.786	0.0171291
599.864	0.0170496
599.942	0.0169704
600.021	0.0168372
600.099	0.0168854
600.177	0.0167679
600.255	0.0167781
600.333	0.0167491
600.411	0.0164629
600.489	0.0165954
600.567	0.0165608
600.646	0.0165533
600.724	0.0165366
600.802	0.0164036
600.880	0.0162684
600.958	0.0162204
601.036	0.0163160
601.114	0.0161650
601.192	0.0160540
601.271	0.0159162
601.349	0.0159740
601.427	0.0158964
601.505	0.0157912
601.583	0.0157764
601.661	0.0159045
601.739	0.0156281
601.817	0.0157040
601.896	0.0156504
601.974	0.0155730
602.052	0.0156490
602.130	0.0157547
602.208	0.0157147
602.286	0.0158244
602.364	0.0158394
602.442	0.0159354
602.521	0.0158798
602.599	0.0159556
602.677	0.0162790
602.755	0.0162148
602.833	0.0162225
602.911	0.0162455
602.989	0.0163654
603.067	0.0165556
603.146	0.0165019
603.224	0.0165490
603.302	0.0166393
603.380	0.0167164
603.458	0.0167770
603.536	0.0167947
603.614	0.0167159
603.692	0.0167662
603.771	0.0168169
603.849	0.0167803
603.927	0.0167145
604.005	0.0165293
604.083	0.0166614
604.161	0.0167113
604.239	0.0166232
604.317	0.0164995
604.396	0.0164338
604.474	0.0162849
604.552	0.0162421
604.630	0.0162972
604.708	0.0164051
604.786	0.0161938
604.864	0.0161745
604.942	0.0162185
605.021	0.0160991
605.099	0.0161021
605.177	0.0161398
605.255	0.0160817
605.333	0.0161749
605.411	0.0160589
605.489	0.0161317
605.567	0.0161858
605.646	0.0163064
605.724	0.0162923
605.802	0.0162812
605.880	0.0163560
605.958	0.0164650
606.036	0.0165007
606.114	0.0164690
606.192	0.0164095
606.271	0.0164416
606.349	0.0164293
606.427	0.0164554
606.505	0.0164255
606.583	0.0164651
606.661	0.0163824
606.739	0.0164079
606.817	0.0161731
606.896	0.0162284
606.974	0.0162841
607.052	0.0161703
607.130	0.0160716
607.208	0.0161916
607.286	0.0160202
607.364	0.0159668
607.442	0.0159468
607.521	0.0158469
607.599	0.0158211
607.677	0.0156297
607.755	0.0158047
607.833	0.0156516
607.911	0.0155004
607.989	0.0156657
608.067	0.0153748
608.146	0.0153995
608.224	0.0154748
608.302	0.0155064
608.380	0.0154030
608.458	0.0153471
608.536	0.0152795
608.614	0.0153252
608.692	0.0153478
608.771	0.0153316
608.849	0.0153091
608.927	0.0152808
609.005	0.0153917
609.083	0.0153091
609.161	0.0154468
609.239	0.0153219
609.317	0.0153797
609.396	0.0154694
609.474	0.0155626
609.552	0.0156469
609.630	0.0155294
609.708	0.0156948
609.786	0.0157393
609.864	0.0158335
609.942	0.0160298
610.021	0.0160331
610.099	0.0160025
610.177	0.0162081
610.255	0.0161283
610.333	0.0161883
610.411	0.0163346
610.489	0.0162335
610.567	0.0162249
610.646	0.0164143
610.724	0.0164444
610.802	0.0165359
610.880	0.0165949
610.958	0.0166829
611.036	0.0168300
611.114	0.0167046
611.192	0.0166771
611.271	0.0168420
611.349	0.0167335
611.427	0.0168758
611.505	0.0168517
611.583	0.0170158
611.661	0.0169853
611.739	0.0170901
611.817	0.0170353
611.896	0.0171205
611.974	0.0169585
612.052	0.0168712
612.130	0.0170563
612.208	0.0169081
612.286	0.0171062
612.364	0.0171661
612.442	0.0171499
612.521	0.0172203
612.599	0.0170341
612.677	0.0170877
612.755	0.0170197
612.833	0.0169118
612.911	0.0170582
612.989	0.0170004
613.067	0.0168623
613.146	0.0168942
613.224	0.0169976
613.302	0.0168895
613.380	0.0168623
613.458	0.0168828
613.536	0.0168638
613.614	0.0167081
613.692	0.0165930
613.771	0.0166318
613.849	0.0167094
613.927	0.0165405
614.005	0.0165486
614.083	0.0163709
614.161	0.0164586
614.239	0.0164166
614.317	0.0163693
614.396	0.0160838
614.474	0.0162738
614.552	0.0162563
614.630	0.0160706
614.708	0.0161512
614.786	0.0161069
614.864	0.0161715
614.942	0.0160680
615.021	0.0161711
615.099	0.0161287
615.177	0.0161263
615.255	0.0160838
615.333	0.0162080
615.411	0.0163490
615.489	0.0162260
615.567	0.0163599
615.646	0.0164468
615.724	0.0163948
615.802	0.0164086
615.880	0.0165353
615.958	0.0165934
616.036	0.0166288
616.114	0.0166404
616.192	0.0166512
616.271	0.0166745
616.349	0.0166811
616.427	0.0166959
616.505	0.0167484
616.583	0.0167715
616.661	0.0165504
616.739	0.0166735
616.817	0.0166765
616.896	0.0166528
616.974	0.0166896
617.052	0.0166652
617.130	0.0166150
617.208	0.0166493
617.286	0.0166518
617.364	0.0167186
617.442	0.0166744
617.521	0.0164774
617.599	0.0166051
617.677	0.0166307
617.755	0.0165306
617.833	0.0166599
617.911	0.0166931
617.989	0.0167234
618.067	0.0168053
618.146	0.0167307
618.224	0.0167750
618.302	0.0168327
618.380	0.0169098
618.458	0.0167767
618.536	0.0169554
618.614	0.0170689
618.692	0.0171381
618.771	0.0170306
618.849	0.0171564
618.927	0.0171371
619.005	0.0172571
619.083	0.0171802
619.161	0.0171983
619.239	0.0172234
619.317	0.0172736
619.396	0.0171935
619.474	0.0172130
619.552	0.0171987
619.630	0.0171629
619.708	0.0171600
619.786	0.0171788
619.864	0.0170385
619.942	0.0170084
620.021	0.0171500
620.099	0.0171474
620.177	0.0171568
620.255	0.0170201
620.333	0.0171650
620.411	0.0171241
620.489	0.0170496
620.567	0.0170213
620.646	0.0171058
620.724	0.0170155
620.802	0.0170494
620.880	0.0170463
620.958	0.0170232
621.036	0.0169752
621.114	0.0170128
621.192	0.0169505
621.271	0.0167801
621.349	0.0166869
621.427	0.0169435
621.505	0.0167136
621.583	0.0165401
621.661	0.0165894
621.739	0.0164980
621.817	0.0166372
621.896	0.0165761
621.974	0.0165488
622.052	0.0166557
622.130	0.0165936
622.208	0.0164593
622.286	0.0164880
622.364	0.0164383
622.442	0.0165110
622.521	0.0165994
622.599	0.0165762
622.677	0.0165298
622.755	0.0165180
622.833	0.0166191
622.911	0.0167417
622.989	0.0168393
623.067	0.0166846
623.146	0.0166333
623.224	0.0166875
623.302	0.0166462
623.380	0.0166931
623.458	0.0167289
623.536	0.0166753
623.614	0.0166246
623.692	0.0166116
623.771	0.0165223
623.849	0.0166246
623.927	0.0165974
624.005	0.0165977
624.083	0.0164923
624.161	0.0165295
624.239	0.0163865
624.317	0.0163779
624.396	0.0165603
624.474	0.0163963
624.552	0.0165955
624.630	0.0166673
624.708	0.0165927
624.786	0.0167027
624.864	0.0166159
624.942	0.0166702
625.021	0.0167622
625.099	0.0167833
625.177	0.0169679
625.255	0.0168744
625.333	0.0166341
625.411	0.0168885
625.489	0.0168062
625.567	0.0168759
625.646	0.0168727
625.724	0.0167091
625.802	0.0167313
625.880	0.0168488
625.958	0.0167772
626.036	0.0167621
626.114	0.0167199
626.192	0.0167438
626.271	0.0166690
626.349	0.0166425
626.427	0.0166481
626.505	0.0167397
626.583	0.0166714
626.661	0.0166180
626.739	0.0168463
626.817	0.0167478
626.896	0.0166817
626.974	0.0167196
627.052	0.0168211
627.130	0.0167612
627.208	0.0168313
627.286	0.0165064
627.364	0.0166601
627.442	0.0166182
627.521	0.0165897
627.599	0.0165152
627.677	0.0165922
627.755	0.0162705
627.833	0.0162313
627.911	0.0161085
627.989	0.0159771
628.067	0.0160395
628.146	0.0158483
628.224	0.0157436
628.302	0.0154548
628.380	0.0153489
628.458	0.0152799
628.536	0.0150262
628.614	0.0148418
628.692	0.0147167
628.771	0.0145327
628.849	0.0144752
628.927	0.0143502
629.005	0.0142819
629.083	0.0144250
629.161	0.0142945
629.239	0.0143895
629.317	0.0143978
629.396	0.0145839
629.474	0.0145750
629.552	0.0148983
629.630	0.0149393
629.708	0.0150906
629.786	0.0154790
629.864	0.0156285
629.942	0.0158699
630.021	0.0159689
630.099	0.0163342
630.177	0.0163901
630.255	0.0165881
630.333	0.0168742
630.411	0.0171784
630.489	0.0170793
630.567	0.0173381
630.646	0.0174881
630.724	0.0174041
630.802	0.0173746
630.880	0.0174928
630.958	0.0176106
631.036	0.0174768
631.114	0.0175478
631.192	0.0172858
631.271	0.0172478
631.349	0.0172472
631.427	0.0172264
631.505	0.0170606
631.583	0.0170876
631.661	0.0168901
631.739	0.0168498
631.817	0.0167564
631.896	0.0165386
631.974	0.0165590
632.052	0.0164449
632.130	0.0165363
632.208	0.0165559
632.286	0.0164198
632.364	0.0163419
632.442	0.0164310
632.521	0.0163299
632.599	0.0163672
632.677	0.0163043
632.755	0.0162509
632.833	0.0162309
632.911	0.0161171
632.989	0.0161767
633.067	0.0162679
633.146	0.0161423
633.224	0.0160014
633.302	0.0160101
633.380	0.0160147
633.458	0.0158618
633.536	0.0161549
633.614	0.0160645
633.692	0.0160423
633.771	0.0161138
633.849	0.0160583
633.927	0.0161282
634.005	0.0162687
634.083	0.0162102
634.161	0.0162773
634.239	0.0162067
634.317	0.0165226
634.396	0.0165845
634.474	0.0168143
634.552	0.0168548
634.630	0.0167822
634.708	0.0170658
634.786	0.0172080
634.864	0.0173299
634.942	0.0174046
635.021	0.0175026
635.099	0.0175947
635.177	0.0176875
635.255	0.0176827
635.333	0.0177098
635.411	0.0176759
635.489	0.0174776
635.567	0.0175712
635.646	0.0175137
635.724	0.0173700
635.802	0.0171960
635.880	0.0171399
635.958	0.0169148
636.036	0.0168121
636.114	0.0167220
636.192	0.0166354
636.271	0.0165870
636.349	0.0165728
636.427	0.0163980
636.505	0.0162800
636.583	0.0162886
636.661	0.0163606
636.739	0.0163895
636.817	0.0161940
636.896	0.0161824
636.974	0.0161317
637.052	0.0160876
637.130	0.0161073
637.208	0.0160866
637.286	0.0162014
637.364	0.0161900
637.442	0.0161848
637.521	0.0163441
637.599	0.0160915
637.677	0.0164080
637.755	0.0162354
637.833	0.0163312
637.911	0.0162502
637.989	0.0165028
638.067	0.0164244
638.146	0.0161676
638.224	0.0162917
638.302	0.0163072
638.380	0.0162578
638.458	0.0164111
638.536	0.0164718
638.614	0.0162623
638.692	0.0163304
638.771	0.0162033
638.849	0.0163518
638.927	0.0162289
639.005	0.0161441
639.083	0.0161016
639.161	0.0162880
639.239	0.0160883
639.317	0.0161032
639.396	0.0159492
639.474	0.0160287
639.552	0.0159684
639.630	0.0159147
639.708	0.0159792
639.786	0.0159367
639.864	0.0159515
639.942	0.0159811
640.021	0.0162012
640.099	0.0160985
640.177	0.0161468
640.255	0.0161822
640.333	0.0163125
640.411	0.0164220
640.489	0.0165223
640.567	0.0166882
640.646	0.0168630
640.724	0.0167955
640.802	0.0169186
640.880	0.0170297
640.958	0.0170486
641.036	0.0171631
641.114	0.0173473
641.192	0.0173878
641.271	0.0175134
641.349	0.0176163
641.427	0.0175921
641.505	0.0177177
641.583	0.0177843
641.661	0.0177926
641.739	0.0178972
641.817	0.0177699
641.896	0.0179283
641.974	0.0179671
642.052	0.0179740
642.130	0.0178829
642.208	0.0180105
642.286	0.0180597
642.364	0.0180226
642.442	0.0177467
642.521	0.0178806
642.599	0.0178178
642.677	0.0177598
642.755	0.0177805
642.833	0.0177132
642.911	0.0175194
642.989	0.0174686
643.067	0.0174291
643.146	0.0172704
643.224	0.0169762
643.302	0.0169524
643.380	0.0168585
643.458	0.0166935
643.536	0.0165675
643.614	0.0165064
643.692	0.0162300
643.771	0.0161543
643.849	0.0161201
643.927	0.0160050
644.005	0.0159512
644.083	0.0160383
644.161	0.0159219
644.239	0.0157941
644.317	0.0156895
644.396	0.0156876
644.474	0.0155883
644.552	0.0157314
644.630	0.0157331
644.708	0.0155634
644.786	0.0155358
644.864	0.0155709
644.942	0.0156445
645.021	0.0156297
645.099	0.0155842
645.177	0.0156355
645.255	0.0156461
645.333	0.0156701
645.411	0.0158252
645.489	0.0158504
645.567	0.0156178
645.646	0.0156918
645.724	0.0158365
645.802	0.0158165
645.880	0.0158386
645.958	0.0158807
646.036	0.0158562
646.114	0.0157873
646.192	0.0159684
646.271	0.0160421
646.349	0.0159064
646.427	0.0158218
646.505	0.0158237
646.583	0.0160208
646.661	0.0162050
646.739	0.0160510
646.817	0.0161584
646.896	0.0161765
646.974	0.0161698
647.052	0.0160263
647.130	0.0161459
647.208	0.0160375
647.286	0.0161293
647.364	0.0160629
647.442	0.0161412
647.521	0.0160621
647.599	0.0160751
647.677	0.0161768
647.755	0.0159924
647.833	0.0159994
647.911	0.0161002
647.989	0.0161659
648.067	0.0160792
648.146	0.0160258
648.224	0.0161208
648.302	0.0161314
648.380	0.0161991
648.458	0.0160654
648.536	0.0160545
648.614	0.0162119
648.692	0.0161911
648.771	0.0161346
648.849	0.0161997
648.927	0.0163692
649.005	0.0163656
649.083	0.0161671
649.161	0.0163403
649.239	0.0165078
649.317	0.0163508
649.396	0.0163870
649.474	0.0165157
649.552	0.0163750
649.630	0.0163168
649.708	0.0163409
649.786	0.0164324
649.864	0.0164709
649.942	0.0165147
650.021	0.0164346
650.099	0.0164761
650.177	0.0167569
650.255	0.0167214
650.333	0.0167430
650.411	0.0167634
650.489	0.0169053
650.567	0.0169129
650.646	0.0168904
650.724	0.0166527
650.802	0.0166428
650.880	0.0165275
650.958	0.0162571
651.036	0.0161545
651.114	0.0159603
651.192	0.0158797
651.271	0.0157749
651.349	0.0155958
651.427	0.0156794
651.505	0.0156770
651.583	0.0156158
651.661	0.0156609
651.739	0.0157506
651.817	0.0156288
651.896	0.0157714
651.974	0.0157740
652.052	0.0158416
652.130	0.0160087
652.208	0.0158620
652.286	0.0159396
652.364	0.0161073
652.442	0.0160806
652.521	0.0161546
652.599	0.0160929
652.677	0.0163261
652.755	0.0162537
652.833	0.0162963
652.911	0.0162245
652.989	0.0160588
653.067	0.0161288
653.146	0.0162118
653.224	0.0160565
653.302	0.0160670
653.380	0.0159174
653.458	0.0159896
653.536	0.0157095
653.614	0.0158935
653.692	0.0158708
653.771	0.0158704
653.849	0.0158663
653.927	0.0157931
654.005	0.0158451
654.083	0.0157079
654.161	0.0158070
654.239	0.0157914
654.317	0.0158409
654.396	0.0159739
654.474	0.0160616
654.552	0.0160920
654.630	0.0160110
654.708	0.0161523
654.786	0.0163062
654.864	0.0162634
654.942	0.0163065
655.021	0.0163795
655.099	0.0163381
655.177	0.0165092
655.255	0.0163069
655.333	0.0163909
655.411	0.0165076
655.489	0.0165027
655.567	0.0164680
655.646	0.0163694
655.724	0.0164398
655.802	0.0163784
655.880	0.0164387
655.958	0.0165501
656.036	0.0164712
656.114	0.0164062
656.192	0.0164288
656.271	0.0165347
656.349	0.0166185
656.427	0.0165686
656.505	0.0165489
656.583	0.0166219
656.661	0.0167870
656.739	0.0168643
656.817	0.0167530
656.896	0.0168597
656.974	0.0168888
657.052	0.0169176
657.130	0.0168732
657.208	0.0169978
657.286	0.0169651
657.364	0.0169881
657.442	0.0169098
657.521	0.0168865
657.599	0.0169551
657.677	0.0169144
657.755	0.0168324
657.833	0.0167957
657.911	0.0166212
657.989	0.0164227
658.067	0.0164250
658.146	0.0165342
658.224	0.0164153
658.302	0.0162409
658.380	0.0161890
658.458	0.0162273
658.536	0.0163477
658.614	0.0162679
658.692	0.0162701
658.771	0.0164500
658.849	0.0164725
658.927	0.0165051
659.005	0.0166283
659.083	0.0167529
659.161	0.0168796
659.239	0.0170282
659.317	0.0169575
659.396	0.0169122
659.474	0.0171714
659.552	0.0172398
659.630	0.0171598
659.708	0.0171910
659.786	0.0171127
659.864	0.0173498
659.942	0.0172865
660.021	0.0171277
660.099	0.0173828
660.177	0.0172773
660.255	0.0172868
660.333	0.0173681
660.411	0.0174370
660.489	0.0171787
660.567	0.0172459
660.646	0.0173421
660.724	0.0171638
660.802	0.0170969
660.880	0.0171912
660.958	0.0168970
661.036	0.0170298
661.114	0.0170274
661.192	0.0169830
661.271	0.0168898
661.349	0.0169047
661.427	0.0168713
661.505	0.0168119
661.583	0.0167837
661.661	0.0168204
661.739	0.0167964
661.817	0.0167259
661.896	0.0167648
661.974	0.0167417
662.052	0.0165823
662.130	0.0166468
662.208	0.0167799
662.286	0.0166507
662.364	0.0166679
662.442	0.0166164
662.521	0.0165835
662.599	0.0166249
662.677	0.0165612
662.755	0.0164085
662.833	0.0164772
662.911	0.0163833
662.989	0.0164470
663.067	0.0163645
663.146	0.0162232
663.224	0.0160238
663.302	0.0162135
663.380	0.0160340
663.458	0.0159557
663.536	0.0158535
663.614	0.0159204
663.692	0.0157178
663.771	0.0157954
663.849	0.0156939
663.927	0.0157039
664.005	0.0157041
664.083	0.0155581
664.161	0.0157993
664.239	0.0156890
664.317	0.0157530
664.396	0.0159561
664.474	0.0159986
664.552	0.0160517
664.630	0.0161668
664.708	0.0162667
664.786	0.0163457
664.864	0.0164419
664.942	0.0165762
665.021	0.0166077
665.099	0.0168031
665.177	0.0167751
665.255	0.0168273
665.333	0.0168011
665.411	0.0168907
665.489	0.0169702
665.567	0.0169685
665.646	0.0168665
665.724	0.0168328
665.802	0.0166503
665.880	0.0167542
665.958	0.0167838
666.036	0.0165600
666.114	0.0166953
666.192	0.0165054
666.271	0.0164813
666.349	0.0164252
666.427	0.0164424
666.505	0.0165011
666.583	0.0165356
666.661	0.0163197
666.739	0.0165421
666.817	0.0165441
666.896	0.0164046
666.974	0.0164990
667.052	0.0165296
667.130	0.0165048
667.208	0.0164496
667.286	0.0164696
667.364	0.0163889
667.442	0.0164140
667.521	0.0163736
667.599	0.0160669
667.677	0.0161224
667.755	0.0161234
667.833	0.0160408
667.911	0.0159877
667.989	0.0160023
668.067	0.0158740
668.146	0.0158887
668.224	0.0159471
668.302	0.0157970
668.380	0.0157783
668.458	0.0157422
668.536	0.0156338
668.614	0.0156688
668.692	0.0155587
668.771	0.0153915
668.849	0.0157957
668.927	0.0155418
669.005	0.0156087
669.083	0.0155972
669.161	0.0155987
669.239	0.0156480
669.317	0.0157896
669.396	0.0157619
669.474	0.0158221
669.552	0.0157585
669.630	0.0158900
669.708	0.0158270
669.786	0.0158202
669.864	0.0158483
669.942	0.0158132
670.021	0.0160320
670.099	0.0159303
670.177	0.0158789
670.255	0.0159572
670.333	0.0159118
670.411	0.0160388
670.489	0.0159825
670.567	0.0159640
670.646	0.0159856
670.724	0.0160093
670.802	0.0160567
670.880	0.0161368
670.958	0.0161230
671.036	0.0159863
671.114	0.0162107
671.192	0.0161732
671.271	0.0160703
671.349	0.0162328
671.427	0.0162786
671.505	0.0162133
671.583	0.0162733
671.661	0.0161614
671.739	0.0162222
671.817	0.0162227
671.896	0.0160715
671.974	0.0160421
672.052	0.0162055
672.130	0.0161820
672.208	0.0160606
672.286	0.0162084
672.364	0.0161622
672.442	0.0163828
672.521	0.0164462
672.599	0.0165183
672.677	0.0165138
672.755	0.0166190
672.833	0.0166149
672.911	0.0166101
672.989	0.0165537
673.067	0.0166906
673.146	0.0165741
673.224	0.0166491
673.302	0.0167309
673.380	0.0166633
673.458	0.0166084
673.536	0.0165400
673.614	0.0165924
673.692	0.0164678
673.771	0.0162794
673.849	0.0163982
673.927	0.0162959
674.005	0.0163343
674.083	0.0162830
674.161	0.0161556
674.239	0.0163251
674.317	0.0161296
674.396	0.0161087
674.474	0.0160333
674.552	0.0161092
674.630	0.0160440
674.708	0.0161799
674.786	0.0163496
674.864	0.0162560
674.942	0.0162851
675.021	0.0162466
675.099	0.0162941
675.177	0.0164532
675.255	0.0163528
675.333	0.0165008
675.411	0.0164278
675.489	0.0163461
675.567	0.0165682
675.646	0.0164496
675.724	0.0165257
675.802	0.0165852
675.880	0.0166169
675.958	0.0165688
676.036	0.0164823
676.114	0.0165389
676.192	0.0166052
676.271	0.0165691
676.349	0.0166315
676.427	0.0167369
676.505	0.0166203
676.583	0.0165585
676.661	0.0165717
676.739	0.0166335
676.817	0.0165699
676.896	0.0165923
676.974	0.0165097
677.052	0.0165854
677.130	0.0164797
677.208	0.0166399
677.286	0.0165986
677.364	0.0164764
677.442	0.0164899
677.521	0.0164455
677.599	0.0164146
677.677	0.0164973
677.755	0.0165353
677.833	0.0164536
677.911	0.0164474
677.989	0.0164616
678.067	0.0164029
678.146	0.0163314
678.224	0.0164032
678.302	0.0165401
678.380	0.0164840
678.458	0.0163411
678.536	0.0162770
678.614	0.0163208
678.692	0.0162991
678.771	0.0161440
678.849	0.0161984
678.927	0.0162537
679.005	0.0160976
679.083	0.0160896
679.161	0.0161516
679.239	0.0161218
679.317	0.0161712
679.396	0.0159955
679.474	0.0159219
679.552	0.0160424
679.630	0.0160316
679.708	0.0160720
679.786	0.0161069
679.864	0.0159195
679.942	0.0158813
680.021	0.0160709
680.099	0.0162122
680.177	0.0160941
680.255	0.0160497
680.333	0.0160705
680.411	0.0162005
680.489	0.0162060
680.567	0.0164318
680.646	0.0162653
680.724	0.0163459
680.802	0.0164845
680.880	0.0163868
680.958	0.0164067
681.036	0.0163702
681.114	0.0162917
681.192	0.0162725
681.271	0.0162475
681.349	0.0162313
681.427	0.0163049
681.505	0.0162275
681.583	0.0162720
681.661	0.0160236
681.739	0.0160226
681.817	0.0161893
681.896	0.0160823
681.974	0.0160847
682.052	0.0160468
682.130	0.0160995
682.208	0.0162183
682.286	0.0161636
682.364	0.0162199
682.442	0.0161598
682.521	0.0160855
682.599	0.0163937
682.677	0.0162647
682.755	0.0163284
682.833	0.0164793
682.911	0.0165792
682.989	0.0164570
683.067	0.0165220
683.146	0.0166164
683.224	0.0167322
683.302	0.0167021
683.380	0.0166920
683.458	0.0168031
683.536	0.0167539
683.614	0.0167820
683.692	0.0166384
683.771	0.0168429
683.849	0.0168231
683.927	0.0166695
684.005	0.0167235
684.083	0.0167985
684.161	0.0167217
684.239	0.0166439
684.317	0.0166892
684.396	0.0165998
684.474	0.0165737
684.552	0.0164970
684.630	0.0166018
684.708	0.0163747
684.786	0.0165988
684.864	0.0165091
684.942	0.0164194
685.021	0.0164840
685.099	0.0164025
685.177	0.0166016
685.255	0.0163851
685.333	0.0163863
685.411	0.0164894
685.489	0.0163251
685.567	0.0164545
685.646	0.0166492
685.724	0.0163882
685.802	0.0164407
685.880	0.0164573
685.958	0.0165968
686.036	0.0166174
686.114	0.0166953
686.192	0.0166277
686.271	0.0164797
686.349	0.0165710
686.427	0.0167278
686.505	0.0166960
686.583	0.0166801
686.661	0.0166409
686.739	0.0166647
686.817	0.0167992
686.896	0.0168354
686.974	0.0165817
687.052	0.0166951
687.130	0.0168456
687.208	0.0167571
687.286	0.0167447
687.364	0.0166486
687.442	0.0166956
687.521	0.0167081
687.599	0.0167129
687.677	0.0166825
687.755	0.0166008
687.833	0.0166178
687.911	0.0164285
687.989	0.0165643
688.067	0.0163959
688.146	0.0164846
688.224	0.0163728
688.302	0.0163213
688.380	0.0164152
688.458	0.0164431
688.536	0.0163329
688.614	0.0161248
688.692	0.0161496
688.771	0.0162221
688.849	0.0162267
688.927	0.0162282
689.005	0.0162566
689.083	0.0162350
689.161	0.0161186
689.239	0.0162236
689.317	0.0161803
689.396	0.0161995
689.474	0.0162511
689.552	0.0164025
689.630	0.0164547
689.708	0.0165419
689.786	0.0164870
689.864	0.0165889
689.942	0.0165894
690.021	0.0165604
690.099	0.0165606
690.177	0.0165250
690.255	0.0165551
690.333	0.0165741
690.411	0.0164693
690.489	0.0166045
690.567	0.0164745
690.646	0.0162831
690.724	0.0163862
690.802	0.0163287
690.880	0.0161938
690.958	0.0162395
691.036	0.0161723
691.114	0.0161794
691.192	0.0161119
691.271	0.0162277
691.349	0.0161207
691.427	0.0161414
691.505	0.0161157
691.583	0.0161659
691.661	0.0162951
691.739	0.0161875
691.817	0.0163910
691.896	0.0163464
691.974	0.0163606
692.052	0.0162233
692.130	0.0163511
692.208	0.0163723
692.286	0.0162724
692.364	0.0163462
692.442	0.0162270
692.521	0.0163560
692.599	0.0163679
692.677	0.0163353
692.755	0.0163724
692.833	0.0161994
692.911	0.0162106
692.989	0.0163146
693.067	0.0164209
693.146	0.0162682
693.224	0.0163215
693.302	0.0162340
693.380	0.0162872
693.458	0.0161630
693.536	0.0163028
693.614	0.0162452
693.692	0.0164468
693.771	0.0163687
693.849	0.0164090
693.927	0.0164442
694.005	0.0163988
694.083	0.0163033
694.161	0.0162704
694.239	0.0162868
694.317	0.0162532
694.396	0.0162658
694.474	0.0161774
694.552	0.0162457
694.630	0.0162329
694.708	0.0160889
694.786	0.0160350
694.864	0.0161145
694.942	0.0160605
695.021	0.0160254
695.099	0.0159478
695.177	0.0159597
695.255	0.0159261
695.333	0.0157938
695.411	0.0160385
695.489	0.0159379
695.567	0.0159605
695.646	0.0161070
695.724	0.0159727
695.802	0.0160125
695.880	0.0162785
695.958	0.0162867
696.036	0.0162453
696.114	0.0163021
696.192	0.0164431
696.271	0.0162970
696.349	0.0163695
696.427	0.0164249
696.505	0.0166304
696.583	0.0166393
696.661	0.0166330
696.739	0.0166178
696.817	0.0165829
696.896	0.0167461
696.974	0.0167746
697.052	0.0166967
697.130	0.0167243
697.208	0.0166859
697.286	0.0169068
697.364	0.0169994
697.442	0.0169363
697.521	0.0168694
697.599	0.0169077
697.677	0.0169845
697.755	0.0167265
697.833	0.0169286
697.911	0.0169450
697.989	0.0169447
698.067	0.0170519
698.146	0.0169256
698.224	0.0168423
698.302	0.0168861
698.380	0.0167937
698.458	0.0168111
698.536	0.0166893
698.614	0.0167226
698.692	0.0167223
698.771	0.0166897
698.849	0.0167510
698.927	0.0165829
699.005	0.0163307
699.083	0.0164035
699.161	0.0166138
699.239	0.0166503
699.317	0.0167258
699.396	0.0165920
699.474	0.0166146
699.552	0.0167683
699.630	0.0168387
699.708	0.0168011
699.786	0.0169698
699.864	0.0169943
699.942	0.0172653
700.021	0.0171959
700.099	0.0172142
700.177	0.0172439
700.255	0.0172498
700.333	0.0174817
700.411	0.0174269
700.489	0.0174578
700.567	0.0174978
700.646	0.0175302
700.724	0.0173969
700.802	0.0175318
700.880	0.0175867
700.958	0.0174277
701.036	0.0173904
701.114	0.0174345
701.192	0.0172191
701.271	0.0173212
701.349	0.0172865
701.427	0.0171064
701.505	0.0170794
701.583	0.0169810
701.661	0.0169227
701.739	0.0167739
701.817	0.0167293
701.896	0.0167197
701.974	0.0166524
702.052	0.0164788
702.130	0.0165682
702.208	0.0164345
702.286	0.0161719
702.364	0.0163166
702.442	0.0162029
702.521	0.0161864
702.599	0.0161450
702.677	0.0161992
702.755	0.0160130
702.833	0.0159216
702.911	0.0160268
702.989	0.0159100
703.067	0.0159197
703.146	0.0158902
703.224	0.0160181
703.302	0.0159312
703.380	0.0160046
703.458	0.0158868
703.536	0.0159863
703.614	0.0160557
703.692	0.0163374
703.771	0.0163456
703.849	0.0162332
703.927	0.0161488
704.005	0.0164301
704.083	0.0164089
704.161	0.0165123
704.239	0.0162536
704.317	0.0163242
704.396	0.0163210
704.474	0.0164313
704.552	0.0163871
704.630	0.0163828
704.708	0.0163615
704.786	0.0164471
704.864	0.0164363
704.942	0.0164027
705.021	0.0165061
705.099	0.0164080
705.177	0.0162529
705.255	0.0161703
705.333	0.0162653
705.411	0.0162949
705.489	0.0161575
705.567	0.0160940
705.646	0.0163392
705.724	0.0161678
705.802	0.0162433
705.880	0.0161113
705.958	0.0161416
706.036	0.0160775
706.114	0.0161208
706.192	0.0163162
706.271	0.0162122
706.349	0.0164010
706.427	0.0162801
706.505	0.0162399
706.583	0.0163806
706.661	0.0163924
706.739	0.0164402
706.817	0.0164796
706.896	0.0165403
706.974	0.0164240
707.052	0.0164244
707.130	0.0164951
707.208	0.0164674
707.286	0.0166142
707.364	0.0164779
707.442	0.0165082
707.521	0.0165782
707.599	0.0166055
707.677	0.0166703
707.755	0.0166103
707.833	0.0166138
707.911	0.0166006
707.989	0.0165315
708.067	0.0166528
708.146	0.0167642
708.224	0.0165640
708.302	0.0165585
708.380	0.0164921
708.458	0.0164747
708.536	0.0166772
708.614	0.0165855
708.692	0.0165480
708.771	0.0165334
708.849	0.0165813
708.927	0.0164878
709.005	0.0165081
709.083	0.0165877
709.161	0.0165481
709.239	0.0165312
709.317	0.0165723
709.396	0.0166355
709.474	0.0165427
709.552	0.0164391
709.630	0.0163841
709.708	0.0164399
709.786	0.0164302
709.864	0.0164257
709.942	0.0163882
710.021	0.0164297
710.099	0.0163412
710.177	0.0164596
710.255	0.0165385
710.333	0.0164072
710.411	0.0163809
710.489	0.0164569
710.567	0.0166910
710.646	0.0164962
710.724	0.0165330
710.802	0.0166149
710.880	0.0166174
710.958	0.0165633
711.036	0.0167101
711.114	0.0167213
711.192	0.0167377
711.271	0.0166946
711.349	0.0167245
711.427	0.0166523
711.505	0.0165930
711.583	0.0165697
711.661	0.0164373
711.739	0.0164919
711.817	0.0164789
711.896	0.0165008
711.974	0.0164559
712.052	0.0166199
712.130	0.0165430
712.208	0.0164753
712.286	0.0164758
712.364	0.0164115
712.442	0.0163603
712.521	0.0163517
712.599	0.0162907
712.677	0.0163004
712.755	0.0164408
712.833	0.0161859
712.911	0.0163242
712.989	0.0162972
713.067	0.0162074
713.146	0.0163252
713.224	0.0164075
713.302	0.0164281
713.380	0.0162830
713.458	0.0164275
713.536	0.0164363
713.614	0.0164360
713.692	0.0162135
713.771	0.0163056
713.849	0.0161974
713.927	0.0163407
714.005	0.0162756
714.083	0.0163262
714.161	0.0163403
714.239	0.0163583
714.317	0.0162374
714.396	0.0161073
714.474	0.0162800
714.552	0.0162438
714.630	0.0163934
714.708	0.0162280
714.786	0.0163564
714.864	0.0162083
714.942	0.0160671
715.021	0.0161328
715.099	0.0161953
715.177	0.0161961
715.255	0.0161019
715.333	0.0161542
715.411	0.0160509
715.489	0.0159793
715.567	0.0159378
715.646	0.0159331
715.724	0.0158718
715.802	0.0159393
715.880	0.0158134
715.958	0.0156628
716.036	0.0158289
716.114	0.0158504
716.192	0.0155644
716.271	0.0154802
716.349	0.0156441
716.427	0.0155658
716.505	0.0155046
716.583	0.0156020
716.661	0.0155016
716.739	0.0154822
716.817	0.0155262
716.896	0.0156059
716.974	0.0156720
717.052	0.0157171
717.130	0.0156661
717.208	0.0156221
717.286	0.0157130
717.364	0.0158734
717.442	0.0158073
717.521	0.0157628
717.599	0.0158624
717.677	0.0159982
717.755	0.0159781
717.833	0.0160074
717.911	0.0159122
717.989	0.0159469
718.067	0.0160233
718.146	0.0159547
718.224	0.0159100
718.302	0.0160424
718.380	0.0161212
718.458	0.0161134
718.536	0.0160649
718.614	0.0160395
718.692	0.0162115
718.771	0.0161079
718.849	0.0161951
718.927	0.0160755
719.005	0.0162563
719.083	0.0164307
719.161	0.0162934
719.239	0.0163451
719.317	0.0166427
719.396	0.0166390
719.474	0.0166347
719.552	0.0167551
719.630	0.0168342
719.708	0.0169970
719.786	0.0172318
719.864	0.0171843
719.942	0.0173564
720.021	0.0174553
720.099	0.0175352
720.177	0.0175545
720.255	0.0175803
720.333	0.0174915
720.411	0.0175216
720.489	0.0174554
720.567	0.0173265
720.646	0.0173592
720.724	0.0173318
720.802	0.0172503
720.880	0.0171644
720.958	0.0171117
721.036	0.0171432
721.114	0.0170923
721.192	0.0171194
721.271	0.0170491
721.349	0.0169519
721.427	0.0169817
721.505	0.0169202
721.583	0.0170541
721.661	0.0170551
721.739	0.0168604
721.817	0.0169395
721.896	0.0169127
721.974	0.0170358
722.052	0.0169743
722.130	0.0169286
722.208	0.0169184
722.286	0.0168987
722.364	0.0168668
722.442	0.0169060
722.521	0.0167738
722.599	0.0167589
722.677	0.0166943
722.755	0.0164942
722.833	0.0165240
722.911	0.0164796
722.989	0.0163821
723.067	0.0161987
723.146	0.0162205
723.224	0.0162635
723.302	0.0161089
723.380	0.0160416
723.458	0.0161456
723.536	0.0161205
723.614	0.0162192
723.692	0.0163332
723.771	0.0165165
723.849	0.0165628
723.927	0.0167154
724.005	0.0167779
724.083	0.0170670
724.161	0.0173536
724.239	0.0173669
724.317	0.0176568
724.396	0.0178348
724.474	0.0179493
724.552	0.0181156
724.630	0.0181895
724.708	0.0183610
724.786	0.0183633
724.864	0.0180835
724.942	0.0181374
725.021	0.0179672
725.099	0.0178031
725.177	0.0176577
725.255	0.0174207
725.333	0.0171321
725.411	0.0168891
725.489	0.0166827
725.567	0.0163763
725.646	0.0161879
725.724	0.0159841
725.802	0.0157207
725.880	0.0155589
725.958	0.0152032
726.036	0.0152188
726.114	0.0149433
726.192	0.0149200
726.271	0.0148676
726.349	0.0147974
726.427	0.0146393
726.505	0.0148707
726.583	0.0148467
726.661	0.0150752
726.739	0.0149818
726.817	0.0152252
726.896	0.0152674
726.974	0.0153571
727.052	0.0155344
727.130	0.0157566
727.208	0.0159565
727.286	0.0159651
727.364	0.0160254
727.442	0.0161504
727.521	0.0164370
727.599	0.0164954
727.677	0.0165764
727.755	0.0167365
727.833	0.0167128
727.911	0.0167515
727.989	0.0168922
728.067	0.0170670
728.146	0.0170063
728.224	0.0169473
728.302	0.0170859
728.380	0.0170857
728.458	0.0171503
728.536	0.0170091
728.614	0.0171061
728.692	0.0170784
728.771	0.0171061
728.849	0.0168814
728.927	0.0170066
729.005	0.0169560
729.083	0.0168826
729.161	0.0170514
729.239	0.0170612
729.317	0.0169134
729.396	0.0170212
729.474	0.0169689
729.552	0.0170949
729.630	0.0170578
729.708	0.0171120
729.786	0.0169844
729.864	0.0170360
729.942	0.0171022
730.021	0.0171001
730.099	0.0170300
730.177	0.0169846
730.255	0.0170454
730.333	0.0170186
730.411	0.0169521
730.489	0.0169446
730.567	0.0168736
730.646	0.0169513
730.724	0.0169708
730.802	0.0169299
730.880	0.0168754
730.958	0.0167299
731.036	0.0166964
731.114	0.0166994
731.192	0.0166774
731.271	0.0165649
731.349	0.0163369
731.427	0.0162780
731.505	0.0161420
731.583	0.0160816
731.661	0.0161222
731.739	0.0159073
731.817	0.0156943
731.896	0.0157249
731.974	0.0156020
732.052	0.0154697
732.130	0.0156647
732.208	0.0156795
732.286	0.0155476
732.364	0.0156102
732.442	0.0155687
732.521	0.0157759
732.599	0.0158753
732.677	0.0158293
732.755	0.0160295
732.833	0.0160027
732.911	0.0162626
732.989	0.0162241
733.067	0.0162910
733.146	0.0164019
733.224	0.0164301
733.302	0.0163609
733.380	0.0162776
733.458	0.0165048
733.536	0.0166239
733.614	0.0166003
733.692	0.0163528
733.771	0.0163468
733.849	0.0164146
733.927	0.0164230
734.005	0.0164137
734.083	0.0163596
734.161	0.0163756
734.239	0.0164677
734.317	0.0163854
734.396	0.0164011
734.474	0.0163457
734.552	0.0164076
734.630	0.0165014
734.708	0.0165022
734.786	0.0164445
734.864	0.0167024
734.942	0.0165350
735.021	0.0164902
735.099	0.0166141
735.177	0.0165108
735.255	0.0163474
735.333	0.0162483
735.411	0.0162819
735.489	0.0163200
735.567	0.0160851
735.646	0.0159746
735.724	0.0159312
735.802	0.0159569
735.880	0.0157243
735.958	0.0157571
736.036	0.0157468
736.114	0.0157080
736.192	0.0158238
736.271	0.0158698
736.349	0.0158744
736.427	0.0162744
736.505	0.0162029
736.583	0.0162453
736.661	0.0164671
736.739	0.0164497
736.817	0.0163518
736.896	0.0165182
736.974	0.0165183
737.052	0.0164799
737.130	0.0163522
737.208	0.0164011
737.286	0.0163353
737.364	0.0161395
737.442	0.0162531
737.521	0.0161644
737.599	0.0158817
737.677	0.0159487
737.755	0.0159082
737.833	0.0157796
737.911	0.0156622
737.989	0.0158080
738.067	0.0156638
738.146	0.0157957
738.224	0.0158495
738.302	0.0157891
738.380	0.0158622
738.458	0.0158985
738.536	0.0157903
738.614	0.0159456
738.692	0.0161059
738.771	0.0161675
738.849	0.0161201
738.927	0.0161909
739.005	0.0163958
739.083	0.0163313
739.161	0.0165515
739.239	0.0165020
739.317	0.0165086
739.396	0.0165102
739.474	0.0165553
739.552	0.0167162
739.630	0.0167483
739.708	0.0165676
739.786	0.0163917
739.864	0.0163726
739.942	0.0165730
740.021	0.0162865
740.099	0.0161679
740.177	0.0162532
740.255	0.0163327
740.333	0.0162783
740.411	0.0161252
740.489	0.0162182
740.567	0.0159570
740.646	0.0160081
740.724	0.0161091
740.802	0.0162200
740.880	0.0161533
740.958	0.0161208
741.036	0.0161707
741.114	0.0161264
741.192	0.0162863
741.271	0.0162951
741.349	0.0162891
741.427	0.0164847
741.505	0.0164903
741.583	0.0165050
741.661	0.0165136
741.739	0.0163771
741.817	0.0165024
741.896	0.0165768
741.974	0.0164994
742.052	0.0164524
742.130	0.0165197
742.208	0.0163959
742.286	0.0164269
742.364	0.0163225
742.442	0.0165704
742.521	0.0163367
742.599	0.0161475
742.677	0.0162127
742.755	0.0162479
742.833	0.0161024
742.911	0.0162726
742.989	0.0161694
743.067	0.0160226
743.146	0.0161924
743.224	0.0160768
743.302	0.0163392
743.380	0.0163892
743.458	0.0163519
743.536	0.0162605
743.614	0.0162722
743.692	0.0163709
743.771	0.0163940
743.849	0.0164230
743.927	0.0165722
744.005	0.0166321
744.083	0.0165086
744.161	0.0166515
744.239	0.0166558
744.317	0.0164847
744.396	0.0164898
744.474	0.0166089
744.552	0.0164744
744.630	0.0163847
744.708	0.0164688
744.786	0.0164001
744.864	0.0164260
744.942	0.0164436
745.021	0.0166110
745.099	0.0163955
745.177	0.0165221
745.255	0.0165369
745.333	0.0165323
745.411	0.0166905
745.489	0.0167015
745.567	0.0166951
745.646	0.0168092
745.724	0.0170210
745.802	0.0170335
745.880	0.0169982
745.958	0.0169763
746.036	0.0171740
746.114	0.0170271
746.192	0.0170481
746.271	0.0170710
746.349	0.0171146
746.427	0.0170219
746.505	0.0169942
746.583	0.0168129
746.661	0.0167906
746.739	0.0166889
746.817	0.0165985
746.896	0.0165308
746.974	0.0165105
747.052	0.0162432
747.130	0.0162135
747.208	0.0160277
747.286	0.0159059
747.364	0.0157172
747.442	0.0157417
747.521	0.0156181
747.599	0.0156174
747.677	0.0155604
747.755	0.0154496
747.833	0.0156845
747.911	0.0154665
747.989	0.0155251
748.067	0.0153381
748.146	0.0155509
748.224	0.0154659
748.302	0.0155395
748.380	0.0153703
748.458	0.0155424
748.536	0.0154925
748.614	0.0158076
748.692	0.0158503
748.771	0.0157751
748.849	0.0160161
748.927	0.0159888
749.005	0.0160619
749.083	0.0160930
749.161	0.0161888
749.239	0.0161345
749.317	0.0162699
749.396	0.0164144
749.474	0.0164568
749.552	0.0162788
749.630	0.0162965
749.708	0.0163457
749.786	0.0164725
749.864	0.0164043
749.942	0.0164229
750.021	0.0164809
750.099	0.0162954
750.177	0.0164215
750.255	0.0164311
750.333	0.0163107
750.411	0.0163039
750.489	0.0162750
750.567	0.0161604
750.646	0.0162177
750.724	0.0161532
750.802	0.0161342
750.880	0.0162081
750.958	0.0160278
751.036	0.0161493
751.114	0.0161086
751.192	0.0161932
751.271	0.0161332
751.349	0.0162523
751.427	0.0162524
751.505	0.0162766
751.583	0.0162248
751.661	0.0162591
751.739	0.0163061
751.817	0.0163414
751.896	0.0163862
751.974	0.0165047
752.052	0.0165530
752.130	0.0164867
752.208	0.0165087
752.286	0.0166129
752.364	0.0165257
752.442	0.0167438
752.521	0.0166346
752.599	0.0166320
752.677	0.0166809
752.755	0.0167451
752.833	0.0166651
752.911	0.0167570
752.989	0.0167155
753.067	0.0167163
753.146	0.0167226
753.224	0.0169224
753.302	0.0168478
753.380	0.0167853
753.458	0.0169162
753.536	0.0169630
753.614	0.0168843
753.692	0.0169693
753.771	0.0170504
753.849	0.0171101
753.927	0.0170188
754.005	0.0169706
754.083	0.0168247
754.161	0.0168455
754.239	0.0167606
754.317	0.0168277
754.396	0.0167694
754.474	0.0165110
754.552	0.0165803
754.630	0.0166437
754.708	0.0164280
754.786	0.0164026
754.864	0.0162954
754.942	0.0163871
755.021	0.0163633
755.099	0.0163501
755.177	0.0163451
755.255	0.0163735
755.333	0.0162945
755.411	0.0162958
755.489	0.0164088
755.567	0.0163091
755.646	0.0163715
755.724	0.0163049
755.802	0.0163770
755.880	0.0165723
755.958	0.0163531
756.036	0.0162476
756.114	0.0164060
756.192	0.0163259
756.271	0.0163461
756.349	0.0165153
756.427	0.0164951
756.505	0.0166181
756.583	0.0165703
756.661	0.0166175
756.739	0.0165842
756.817	0.0166966
756.896	0.0167183
756.974	0.0167097
757.052	0.0168003
757.130	0.0169580
757.208	0.0168274
757.286	0.0169421
757.364	0.0168661
757.442	0.0169531
757.521	0.0170775
757.599	0.0168918
757.677	0.0170664
757.755	0.0170309
757.833	0.0170622
757.911	0.0169573
757.989	0.0169082
758.067	0.0170025
758.146	0.0169926
758.224	0.0169150
758.302	0.0169696
758.380	0.0168378
758.458	0.0168955
758.536	0.0168359
758.614	0.0168511
758.692	0.0167430
758.771	0.0167819
758.849	0.0168525
758.927	0.0167172
759.005	0.0166522
759.083	0.0167227
759.161	0.0167366
759.239	0.0166516
759.317	0.0165850
759.396	0.0165643
759.474	0.0164947
759.552	0.0164809
759.630	0.0163667
759.708	0.0163756
759.786	0.0162553
759.864	0.0164374
759.942	0.0163455
760.021	0.0161831
760.099	0.0163055
760.177	0.0163301
760.255	0.0162923
760.333	0.0162171
760.411	0.0161417
760.489	0.0161673
760.567	0.0159780
760.646	0.0159975
760.724	0.0160763
760.802	0.0159448
760.880	0.0159508
760.958	0.0158991
761.036	0.0159239
761.114	0.0159416
761.192	0.0161446
761.271	0.0158447
761.349	0.0159010
761.427	0.0161200
761.505	0.0159244
761.583	0.0159752
761.661	0.0159753
761.739	0.0159014
761.817	0.0159918
761.896	0.0160825
761.974	0.0160621
762.052	0.0161098
762.130	0.0161028
762.208	0.0160562
762.286	0.0161664
762.364	0.0161840
762.442	0.0161480
762.521	0.0162139
762.599	0.0161987
762.677	0.0163483
762.755	0.0163768
762.833	0.0162442
762.911	0.0163435
762.989	0.0164894
763.067	0.0166470
763.146	0.0165199
763.224	0.0163665
763.302	0.0166196
763.380	0.0165260
763.458	0.0164947
763.536	0.0164534
763.614	0.0164678
763.692	0.0165539
763.771	0.0165524
763.849	0.0164047
763.927	0.0164716
764.005	0.0164129
764.083	0.0163530
764.161	0.0164973
764.239	0.0163902
764.317	0.0163546
764.396	0.0162701
764.474	0.0163708
764.552	0.0162174
764.630	0.0163018
764.708	0.0163316
764.786	0.0163388
764.864	0.0162664
764.942	0.0162222
765.021	0.0162926
765.099	0.0164689
765.177	0.0163816
765.255	0.0163232
765.333	0.0162980
765.411	0.0162312
765.489	0.0163763
765.567	0.0163747
765.646	0.0164106
765.724	0.0163120
765.802	0.0164650
765.880	0.0163816
765.958	0.0163536
766.036	0.0164021
766.114	0.0163466
766.192	0.0164308
766.271	0.0163969
766.349	0.0165852
766.427	0.0165421
766.505	0.0167079
766.583	0.0167358
766.661	0.0166858
766.739	0.0167013
766.817	0.0167470
766.896	0.0169133
766.974	0.0169075
767.052	0.0168599
767.130	0.0167920
767.208	0.0169245
767.286	0.0169875
767.364	0.0170118
767.442	0.0170462
767.521	0.0168925
767.599	0.0168906
767.677	0.0170033
767.755	0.0170328
767.833	0.0168325
767.911	0.0169718
767.989	0.0167924
768.067	0.0168378
768.146	0.0167164
768.224	0.0168077
768.302	0.0167317
768.380	0.0167479
768.458	0.0167138
768.536	0.0165325
768.614	0.0164629
768.692	0.0165373
768.771	0.0166228
768.849	0.0165584
768.927	0.0164397
769.005	0.0163858
769.083	0.0164079
769.161	0.0164491
769.239	0.0163362
769.317	0.0163361
769.396	0.0164404
769.474	0.0165038
769.552	0.0164600
769.630	0.0165302
769.708	0.0165616
769.786	0.0164728
769.864	0.0163775
769.942	0.0163280
770.021	0.0164467
770.099	0.0162496
770.177	0.0162774
770.255	0.0163063
770.333	0.0162315
770.411	0.0160194
770.489	0.0160390
770.567	0.0160128
770.646	0.0158670
770.724	0.0157968
770.802	0.0156412
770.880	0.0155545
770.958	0.0155425
771.036	0.0155173
771.114	0.0154060
771.192	0.0155587
771.271	0.0155859
771.349	0.0155553
771.427	0.0155078
771.505	0.0155839
771.583	0.0156581
771.661	0.0156071
771.739	0.0158235
771.817	0.0159584
771.896	0.0159480
771.974	0.0158973
772.052	0.0160529
772.130	0.0160395
772.208	0.0161989
772.286	0.0162807
772.364	0.0163139
772.442	0.0162827
772.521	0.0164650
772.599	0.0164856
772.677	0.0164126
772.755	0.0162609
772.833	0.0162584
772.911	0.0161808
772.989	0.0163480
773.067	0.0164236
773.146	0.0162827
773.224	0.0163532
773.302	0.0163981
773.380	0.0163764
773.458	0.0163297
773.536	0.0164186
773.614	0.0162550
773.692	0.0164214
773.771	0.0163933
773.849	0.0163029
773.927	0.0163422
774.005	0.0163149
774.083	0.0164185
774.161	0.0162833
774.239	0.0162945
774.317	0.0162824
774.396	0.0162337
774.474	0.0160351
774.552	0.0161766
774.630	0.0160612
774.708	0.0160489
774.786	0.0160300
774.864	0.0160714
774.942	0.0161134
775.021	0.0159225
775.099	0.0160619
775.177	0.0159721
775.255	0.0160443
775.333	0.0159083
775.411	0.0158557
775.489	0.0159167
775.567	0.0160157
775.646	0.0160114
775.724	0.0159430
775.802	0.0159641
775.880	0.0159276
775.958	0.0160278
776.036	0.0162319
776.114	0.0161510
776.192	0.0160583
776.271	0.0161581
776.349	0.0163147
776.427	0.0163259
776.505	0.0164655
776.583	0.0165057
776.661	0.0165412
776.739	0.0166865
776.817	0.0166533
776.896	0.0167828
776.974	0.0167018
777.052	0.0168369
777.130	0.0168408
777.208	0.0168048
777.286	0.0170219
777.364	0.0170599
777.442	0.0169947
777.521	0.0169989
777.599	0.0169958
777.677	0.0171082
777.755	0.0170901
777.833	0.0171269
777.911	0.0170315
777.989	0.0172659
778.067	0.0171243
778.146	0.0169814
778.224	0.0171739
778.302	0.0172060
778.380	0.0171239
778.458	0.0171385
778.536	0.0171649
778.614	0.0171314
778.692	0.0171511
778.771	0.0170367
778.849	0.0169035
778.927	0.0170692
779.005	0.0170556
779.083	0.0167436
779.161	0.0168224
779.239	0.0168730
779.317	0.0168098
779.396	0.0167967
779.474	0.0168826
779.552	0.0168472
779.630	0.0169054
779.708	0.0168500
779.786	0.0167748
779.864	0.0167845
779.942	0.0167512
780.021	0.0168188
780.099	0.0168784
780.177	0.0168423
780.255	0.0169040
780.333	0.0168248
780.411	0.0167417
780.489	0.0168659
780.567	0.0166841
780.646	0.0167458
780.724	0.0165825
780.802	0.0166960
780.880	0.0164494
780.958	0.0166165
781.036	0.0166716
781.114	0.0164483
781.192	0.0163887
781.271	0.0165211
781.349	0.0164619
781.427	0.0163535
781.505	0.0163189
781.583	0.0162230
781.661	0.0162171
781.739	0.0162170
781.817	0.0162406
781.896	0.0163492
781.974	0.0162350
782.052	0.0162595
782.130	0.0161440
782.208	0.0160383
782.286	0.0160727
782.364	0.0161430
782.442	0.0161145
782.521	0.0162588
782.599	0.0161907
782.677	0.0161022
782.755	0.0159782
782.833	0.0161109
782.911	0.0162766
782.989	0.0163256
783.067	0.0161192
783.146	0.0161304
783.224	0.0161151
783.302	0.0160243
783.380	0.0164057
783.458	0.0161294
783.536	0.0161560
783.614	0.0162877
783.692	0.0163112
783.771	0.0162645
783.849	0.0162352
783.927	0.0163766
784.005	0.0164368
784.083	0.0166396
784.161	0.0166392
784.239	0.0165187
784.317	0.0165297
784.396	0.0165907
784.474	0.0166003
784.552	0.0165168
784.630	0.0165508
784.708	0.0166628
784.786	0.0163969
784.864	0.0163741
784.942	0.0162478
785.021	0.0163499
785.099	0.0162717
785.177	0.0163416
785.255	0.0164329
785.333	0.0163881
785.411	0.0161373
785.489	0.0162104
785.567	0.0163764
785.646	0.0164596
785.724	0.0163461
785.802	0.0163504
785.880	0.0163795
785.958	0.0164188
786.036	0.0163080
786.114	0.0163538
786.192	0.0164725
786.271	0.0165206
786.349	0.0165328
786.427	0.0166307
786.505	0.0165797
786.583	0.0165838
786.661	0.0165359
786.739	0.0167088
786.817	0.0165432
786.896	0.0164468
786.974	0.0165765
787.052	0.0165649
787.130	0.0165279
787.208	0.0165579
787.286	0.0165934
787.364	0.0165353
787.442	0.0163957
787.521	0.0164336
787.599	0.0164405
787.677	0.0164420
787.755	0.0165220
787.833	0.0165419
787.911	0.0164576
787.989	0.0165555
788.067	0.0162044
788.146	0.0162910
788.224	0.0164993
788.302	0.0164944
788.380	0.0164078
788.458	0.0163738
788.536	0.0165060
788.614	0.0164832
788.692	0.0164582
788.771	0.0165737
788.849	0.0165574
788.927	0.0165513
789.005	0.0165881
789.083	0.0163906
789.161	0.0166310
789.239	0.0166593
789.317	0.0166234
789.396	0.0167401
789.474	0.0167529
789.552	0.0167246
789.630	0.0166058
789.708	0.0166467
789.786	0.0166234
789.864	0.0166325
789.942	0.0166345
790.021	0.0167268
790.099	0.0165743
790.177	0.0165395
790.255	0.0164944
790.333	0.0164931
790.411	0.0163963
790.489	0.0164355
790.567	0.0164938
790.646	0.0164225
790.724	0.0163209
790.802	0.0163503
790.880	0.0164462
790.958	0.0163843
791.036	0.0162202
791.114	0.0161118
791.192	0.0162782
791.271	0.0162166
791.349	0.0161581
791.427	0.0162053
791.505	0.0161552
791.583	0.0162514
791.661	0.0161897
791.739	0.0162499
791.817	0.0161324
791.896	0.0161372
791.974	0.0161849
792.052	0.0160284
792.130	0.0160185
792.208	0.0161088
792.286	0.0160569
792.364	0.0161684
792.442	0.0161407
792.521	0.0161388
792.599	0.0160994
792.677	0.0162758
792.755	0.0162682
792.833	0.0163631
792.911	0.0163747
792.989	0.0163995
793.067	0.0162660
793.146	0.0164413
793.224	0.0164890
793.302	0.0165516
793.380	0.0164866
793.458	0.0166304
793.536	0.0168275
793.614	0.0168560
793.692	0.0167937
793.771	0.0168062
793.849	0.0168454
793.927	0.0168797
794.005	0.0168926
794.083	0.0169696
794.161	0.0170649
794.239	0.0169988
794.317	0.0169331
794.396	0.0170192
794.474	0.0169902
794.552	0.0169067
794.630	0.0168805
794.708	0.0168111
794.786	0.0167747
794.864	0.0169620
794.942	0.0168546
795.021	0.0168950
795.099	0.0167958
795.177	0.0168917
795.255	0.0167358
795.333	0.0167265
795.411	0.0167800
795.489	0.0166191
795.567	0.0167844
795.646	0.0166737
795.724	0.0165939
795.802	0.0166841
795.880	0.0166145
795.958	0.0164686
796.036	0.0165089
796.114	0.0165767
796.192	0.0165475
796.271	0.0164355
796.349	0.0164215
796.427	0.0164581
796.505	0.0164896
796.583	0.0164886
796.661	0.0164716
796.739	0.0163577
796.817	0.0165642
796.896	0.0165437
796.974	0.0163947
797.052	0.0164786
797.130	0.0166502
797.208	0.0165392
797.286	0.0164497
797.364	0.0166144
797.442	0.0165694
797.521	0.0166298
797.599	0.0165701
797.677	0.0166160
797.755	0.0164830
797.833	0.0164827
797.911	0.0163960
797.989	0.0163873
798.067	0.0164348
798.146	0.0164161
798.224	0.0163174
798.302	0.0163227
798.380	0.0163374
798.458	0.0163213
798.536	0.0162115
798.614	0.0161311
798.692	0.0162273
798.771	0.0160790
798.849	0.0161106
798.927	0.0161172
799.005	0.0160687
799.083	0.0159624
799.161	0.0160690
799.239	0.0161349
799.317	0.0161174
799.396	0.0162207
799.474	0.0161209
799.552	0.0161828
799.630	0.0162961
799.708	0.0162017
799.786	0.0161804
799.864	0.0162005
799.942	0.0163145
800.021	0.0163448
800.099	0.0162018
800.177	0.0162546
800.255	0.0161767
800.333	0.0162412
800.411	0.0163238
800.489	0.0162466
800.567	0.0162272
800.646	0.0162376
800.724	0.0161422
800.802	0.0161279
800.880	0.0162614
800.958	0.0161811
801.036	0.0161423
801.114	0.0161117
801.192	0.0161202
801.271	0.0159879
801.349	0.0160474
801.427	0.0162272
801.505	0.0161056
801.583	0.0162015
801.661	0.0162386
801.739	0.0161180
801.817	0.0161470
801.896	0.0162273
801.974	0.0161139
802.052	0.0162311
802.130	0.0164349
802.208	0.0161903
802.286	0.0161686
802.364	0.0162313
802.442	0.0163314
802.521	0.0162543
802.599	0.0162373
802.677	0.0163190
802.755	0.0161493
802.833	0.0160892
802.911	0.0161731
802.989	0.0163840
803.067	0.0163379
803.146	0.0164116
803.224	0.0163416
803.302	0.0163313
803.380	0.0164040
803.458	0.0164262
803.536	0.0164453
803.614	0.0164201
803.692	0.0166272
803.771	0.0166243
803.849	0.0164408
803.927	0.0165686
804.005	0.0166115
804.083	0.0164485
804.161	0.0165884
804.239	0.0166564
804.317	0.0165625
804.396	0.0165773
804.474	0.0165365
804.552	0.0165279
804.630	0.0164571
804.708	0.0165087
804.786	0.0164620
804.864	0.0164980
804.942	0.0164555
805.021	0.0163815
805.099	0.0164586
805.177	0.0163825
805.255	0.0164848
805.333	0.0164095
805.411	0.0163303
805.489	0.0163480
805.567	0.0162664
805.646	0.0164775
805.724	0.0163590
805.802	0.0163093
805.880	0.0162666
805.958	0.0162308
806.036	0.0161983
806.114	0.0162469
806.192	0.0162997
806.271	0.0161915
806.349	0.0161076
806.427	0.0163181
806.505	0.0163001
806.583	0.0159759
806.661	0.0160849
806.739	0.0161372
806.817	0.0159757
806.896	0.0160371
806.974	0.0160983
807.052	0.0160831
807.130	0.0160046
807.208	0.0161635
807.286	0.0159116
807.364	0.0159870
807.442	0.0160229
807.521	0.0162625
807.599	0.0162361
807.677	0.0162270
807.755	0.0162087
807.833	0.0162148
807.911	0.0162061
807.989	0.0163351
808.067	0.0161691
808.146	0.0161806
808.224	0.0161142
808.302	0.0161008
808.380	0.0160939
808.458	0.0161220
808.536	0.0160491
808.614	0.0160950
808.692	0.0159763
808.771	0.0159486
808.849	0.0160152
808.927	0.0159704
809.005	0.0160291
809.083	0.0159768
809.161	0.0158347
809.239	0.0158487
809.317	0.0161497
809.396	0.0160845
809.474	0.0160636
809.552	0.0160695
809.630	0.0162055
809.708	0.0162920
809.786	0.0162200
809.864	0.0162135
809.942	0.0163541
810.021	0.0164222
810.099	0.0162567
810.177	0.0164574
810.255	0.0166617
810.333	0.0167900
810.411	0.0165990
810.489	0.0168190
810.567	0.0169209
810.646	0.0170681
810.724	0.0170979
810.802	0.0171069
810.880	0.0172655
810.958	0.0171410
811.036	0.0172351
811.114	0.0172740
811.192	0.0172266
811.271	0.0174075
811.349	0.0174321
811.427	0.0172191
811.505	0.0173247
811.583	0.0172784
811.661	0.0171991
811.739	0.0172427
811.817	0.0170993
811.896	0.0170400
811.974	0.0171927
812.052	0.0170251
812.130	0.0170848
812.208	0.0170544
812.286	0.0169810
812.364	0.0169868
812.442	0.0169648
812.521	0.0168118
812.599	0.0169017
812.677	0.0169743
812.755	0.0169249
812.833	0.0167700
812.911	0.0167358
812.989	0.0167075
813.067	0.0167007
813.146	0.0167486
813.224	0.0166753
813.302	0.0166416
813.380	0.0166282
813.458	0.0166986
813.536	0.0166068
813.614	0.0166364
813.692	0.0167220
813.771	0.0166516
813.849	0.0163892
813.927	0.0166589
814.005	0.0166666
814.083	0.0166119
814.161	0.0165652
814.239	0.0164879
814.317	0.0164899
814.396	0.0163835
814.474	0.0164457
814.552	0.0162858
814.630	0.0163072
814.708	0.0161952
814.786	0.0160441
814.864	0.0160661
814.942	0.0159639
815.021	0.0160274
815.099	0.0159603
815.177	0.0158201
815.255	0.0159147
815.333	0.0159602
815.411	0.0160779
815.489	0.0161588
815.567	0.0160950
815.646	0.0160895
815.724	0.0161663
815.802	0.0162895
815.880	0.0162618
815.958	0.0163149
816.036	0.0163884
816.114	0.0164052
816.192	0.0166699
816.271	0.0166260
816.349	0.0167338
816.427	0.0166205
816.505	0.0166824
816.583	0.0168730
816.661	0.0168425
816.739	0.0169884
816.817	0.0169386
816.896	0.0170409
816.974	0.0171106
817.052	0.0170197
817.130	0.0169441
817.208	0.0169962
817.286	0.0169774
817.364	0.0169624
817.442	0.0169398
817.521	0.0169639
817.599	0.0168683
817.677	0.0168568
817.755	0.0168815
817.833	0.0167857
817.911	0.0166998
817.989	0.0166526
818.067	0.0165373
818.146	0.0165057
818.224	0.0164168
818.302	0.0163971
818.380	0.0164882
818.458	0.0165021
818.536	0.0163191
818.614	0.0163729
818.692	0.0161541
818.771	0.0161766
818.849	0.0160506
818.927	0.0160510
819.005	0.0158978
819.083	0.0158775
819.161	0.0155895
819.239	0.0156660
819.317	0.0154852
819.396	0.0154776
819.474	0.0155354
819.552	0.0153893
819.630	0.0154234
819.708	0.0153864
819.786	0.0153870
819.864	0.0155441
819.942	0.0156411
820.021	0.0156616
820.099	0.0156393
820.177	0.0156585
820.255	0.0158236
820.333	0.0158145
820.411	0.0157794
820.489	0.0159512
820.567	0.0160015
820.646	0.0161173
820.724	0.0161893
820.802	0.0162884
820.880	0.0163213
820.958	0.0163058
821.036	0.0163551
821.114	0.0164375
821.192	0.0163757
821.271	0.0162670
821.349	0.0162650
821.427	0.0163789
821.505	0.0161485
821.583	0.0160975
821.661	0.0160017
821.739	0.0159628
821.817	0.0159943
821.896	0.0157625
821.974	0.0157332
822.052	0.0156918
822.130	0.0156114
822.208	0.0155260
822.286	0.0154339
822.364	0.0153375
822.442	0.0153278
822.521	0.0154372
822.599	0.0153870
822.677	0.0152064
822.755	0.0153100
822.833	0.0153461
822.911	0.0153021
822.989	0.0153249
823.067	0.0154747
823.146	0.0155030
823.224	0.0156497
823.302	0.0155362
823.380	0.0157630
823.458	0.0158171
823.536	0.0159252
823.614	0.0161675
823.692	0.0161385
823.771	0.0162179
823.849	0.0164668
823.927	0.0163501
824.005	0.0164628
824.083	0.0165611
824.161	0.0165774
824.239	0.0166933
824.317	0.0166272
824.396	0.0166408
824.474	0.0167821
824.552	0.0165921
824.630	0.0166199
824.708	0.0168539
824.786	0.0167494
824.864	0.0167500
824.942	0.0168210
825.021	0.0167524
825.099	0.0167163
825.177	0.0168529
825.255	0.0166315
825.333	0.0166753
825.411	0.0166933
825.489	0.0167071
825.567	0.0167701
825.646	0.0167632
825.724	0.0166262
825.802	0.0167098
825.880	0.0165639
825.958	0.0165927
826.036	0.0165340
826.114	0.0164449
826.192	0.0164713
826.271	0.0166583
826.349	0.0164674
826.427	0.0164960
826.505	0.0163380
826.583	0.0163995
826.661	0.0164167
826.739	0.0163331
826.817	0.0164250
826.896	0.0161639
826.974	0.0163725
827.052	0.0164876
827.130	0.0162236
827.208	0.0162543
827.286	0.0162430
827.364	0.0163515
827.442	0.0163592
827.521	0.0163857
827.599	0.0165059
827.677	0.0164752
827.755	0.0164732
827.833	0.0163668
827.911	0.0165115
827.989	0.0165672
828.067	0.0164813
828.146	0.0164129
828.224	0.0165634
828.302	0.0165717
828.380	0.0166055
828.458	0.0167291
828.536	0.0165511
828.614	0.0165614
828.692	0.0165264
828.771	0.0165159
828.849	0.0165130
828.927	0.0167647
829.005	0.0167776
829.083	0.0167155
829.161	0.0165981
829.239	0.0167998
829.317	0.0167645
829.396	0.0168902
829.474	0.0169982
829.552	0.0168676
829.630	0.0170033
829.708	0.0168357
829.786	0.0169452
829.864	0.0168854
829.942	0.0169729
830.021	0.0169697
830.099	0.0169669
830.177	0.0168738
830.255	0.0169707
830.333	0.0168754
830.411	0.0166872
830.489	0.0168521
830.567	0.0170255
830.646	0.0168179
830.724	0.0168458
830.802	0.0168193
830.880	0.0167101
830.958	0.0166953
831.036	0.0167066
831.114	0.0165897
831.192	0.0165553
831.271	0.0165044
831.349	0.0164511
831.427	0.0165378
831.505	0.0165563
831.583	0.0165023
831.661	0.0163998
831.739	0.0165408
831.817	0.0163705
831.896	0.0164861
831.974	0.0163106
832.052	0.0163547
832.130	0.0163122
832.208	0.0164372
832.286	0.0163642
832.364	0.0162830
832.442	0.0164785
832.521	0.0163781
832.599	0.0165239
832.677	0.0164751
832.755	0.0162433
832.833	0.0164144
832.911	0.0165075
832.989	0.0164272
833.067	0.0164165
833.146	0.0165849
833.224	0.0164748
833.302	0.0164691
833.380	0.0163789
833.458	0.0163542
833.536	0.0164033
833.614	0.0163995
833.692	0.0162537
833.771	0.0163966
833.849	0.0161658
833.927	0.0162315
834.005	0.0162045
834.083	0.0161124
834.161	0.0161198
834.239	0.0161263
834.317	0.0160091
834.396	0.0160287
834.474	0.0159602
834.552	0.0158060
834.630	0.0159052
834.708	0.0160404
834.786	0.0158988
834.864	0.0159165
834.942	0.0160266
835.021	0.0159200
835.099	0.0158372
835.177	0.0160934
835.255	0.0160500
835.333	0.0160223
835.411	0.0160143
835.489	0.0161969
835.567	0.0161887
835.646	0.0161279
835.724	0.0163518
835.802	0.0163017
835.880	0.0164798
835.958	0.0163413
836.036	0.0164863
836.114	0.0162754
836.192	0.0164162
836.271	0.0166789
836.349	0.0165092
836.427	0.0166091
836.505	0.0166870
836.583	0.0165720
836.661	0.0165867
836.739	0.0165972
836.817	0.0166360
836.896	0.0166463
836.974	0.0165935
837.052	0.0166124
837.130	0.0165872
837.208	0.0166949
837.286	0.0168064
837.364	0.0167091
837.442	0.0167739
837.521	0.0168393
837.599	0.0168196
837.677	0.0167863
837.755	0.0168584
837.833	0.0169199
837.911	0.0167981
837.989	0.0169746
838.067	0.0169022
838.146	0.0167847
838.224	0.0168787
838.302	0.0167969
838.380	0.0167760
838.458	0.0167664
838.536	0.0168091
838.614	0.0166598
838.692	0.0167012
838.771	0.0167185
838.849	0.0167211
838.927	0.0166607
839.005	0.0167030
839.083	0.0166810
839.161	0.0167894
839.239	0.0167734
839.317	0.0166819
839.396	0.0167127
839.474	0.0166965
839.552	0.0166541
839.630	0.0166431
839.708	0.0166502
839.786	0.0164719
839.864	0.0164400
839.942	0.0164565
840.021	0.0164204
840.099	0.0163361
840.177	0.0163688
840.255	0.0162685
840.333	0.0162148
840.411	0.0162083
840.489	0.0160930
840.567	0.0160740
840.646	0.0159171
840.724	0.0158589
840.802	0.0157306
840.880	0.0157751
840.958	0.0157246
841.036	0.0156512
841.114	0.0157119
841.192	0.0156109
841.271	0.0156906
841.349	0.0155499
841.427	0.0156647
841.505	0.0157214
841.583	0.0157440
841.661	0.0157005
841.739	0.0157705
841.817	0.0157903
841.896	0.0159067
841.974	0.0160539
842.052	0.0160629
842.130	0.0161576
842.208	0.0162112
842.286	0.0161926
842.364	0.0162041
842.442	0.0161816
842.521	0.0162612
842.599	0.0164742
842.677	0.0163620
842.755	0.0164555
842.833	0.0163336
842.911	0.0162874
842.989	0.0163765
843.067	0.0162675
843.146	0.0164427
843.224	0.0162428
843.302	0.0163041
843.380	0.0163939
843.458	0.0164362
843.536	0.0166367
843.614	0.0165263
843.692	0.0165636
843.771	0.0166716
843.849	0.0165786
843.927	0.0167222
844.005	0.0165971
844.083	0.0167089
844.161	0.0166514
844.239	0.0165816
844.317	0.0166528
844.396	0.0165511
844.474	0.0166049
844.552	0.0165682
844.630	0.0166505
844.708	0.0166586
844.786	0.0165332
844.864	0.0163423
844.942	0.0164422
845.021	0.0163990
845.099	0.0162592
845.177	0.0161226
845.255	0.0160695
845.333	0.0160329
845.411	0.0160822
845.489	0.0161032
845.567	0.0159497
845.646	0.0159866
845.724	0.0158121
845.802	0.0160252
845.880	0.0158952
845.958	0.0158482
846.036	0.0159559
846.114	0.0159857
846.192	0.0160438
846.271	0.0160201
846.349	0.0158614
846.427	0.0158939
846.505	0.0159299
846.583	0.0160915
846.661	0.0159894
846.739	0.0158451
846.817	0.0160337
846.896	0.0160058
846.974	0.0160020
847.052	0.0158928
847.130	0.0159465
847.208	0.0160120
847.286	0.0159434
847.364	0.0157556
847.442	0.0157944
847.521	0.0158623
847.599	0.0157631
847.677	0.0158364
847.755	0.0159946
847.833	0.0158189
847.911	0.0159772
847.989	0.0160286
848.067	0.0160078
848.146	0.0160322
848.224	0.0160641
848.302	0.0163032
848.380	0.0161449
848.458	0.0162244
848.536	0.0161538
848.614	0.0163003
848.692	0.0162988
848.771	0.0162534
848.849	0.0164178
848.927	0.0163950
849.005	0.0163639
849.083	0.0163992
849.161	0.0163440
849.239	0.0163940
849.317	0.0164323
849.396	0.0163730
849.474	0.0164415
849.552	0.0163828
849.630	0.0163740
849.708	0.0163840
849.786	0.0164112
849.864	0.0165182
849.942	0.0165543
850.021	0.0166154
850.099	0.0166276
850.177	0.0165366
850.255	0.0167006
850.333	0.0167994
850.411	0.0167632
850.489	0.0167399
850.567	0.0168028
850.646	0.0168459
850.724	0.0169341
850.802	0.0169212
850.880	0.0169362
850.958	0.0169272
851.036	0.0169514
851.114	0.0169882
851.192	0.0169839
851.271	0.0168484
851.349	0.0168866
851.427	0.0168194
851.505	0.0170028
851.583	0.0168775
851.661	0.0168790
851.739	0.0168594
851.817	0.0166428
851.896	0.0168292
851.974	0.0167710
852.052	0.0166428
852.130	0.0167068
852.208	0.0167350
852.286	0.0167377
852.364	0.0165560
852.442	0.0165069
852.521	0.0164450
852.599	0.0163360
852.677	0.0163860
852.755	0.0163189
852.833	0.0162500
852.911	0.0161672
852.989	0.0162209
853.067	0.0160957
853.146	0.0162399
853.224	0.0161070
853.302	0.0162069
853.380	0.0160948
853.458	0.0162201
853.536	0.0162187
853.614	0.0163251
853.692	0.0164893
853.771	0.0164838
853.849	0.0165910
853.927	0.0165630
854.005	0.0166057
854.083	0.0169597
854.161	0.0167953
854.239	0.0168955
854.317	0.0170801
854.396	0.0168467
854.474	0.0168848
854.552	0.0169651
854.630	0.0169577
854.708	0.0168504
854.786	0.0168217
854.864	0.0168520
854.942	0.0168088
855.021	0.0166534
855.099	0.0166673
855.177	0.0167462
855.255	0.0167222
855.333	0.0165306
855.411	0.0165112
855.489	0.0165201
855.567	0.0166076
855.646	0.0165123
855.724	0.0164812
855.802	0.0168021
855.880	0.0168017
855.958	0.0167128
856.036	0.0166365
856.114	0.0167670
856.192	0.0168250
856.271	0.0167794
856.349	0.0167937
856.427	0.0168346
856.505	0.0167585
856.583	0.0167290
856.661	0.0168467
856.739	0.0168715
856.817	0.0168636
856.896	0.0168993
856.974	0.0169444
857.052	0.0169449
857.130	0.0169781
857.208	0.0169589
857.286	0.0169333
857.364	0.0170364
857.442	0.0169042
857.521	0.0169540
857.599	0.0171333
857.677	0.0168184
857.755	0.0169425
857.833	0.0169748
857.911	0.0168557
857.989	0.0169294
858.067	0.0169714
858.146	0.0170541
858.224	0.0170466
858.302	0.0169597
858.380	0.0169834
858.458	0.0170226
858.536	0.0170274
858.614	0.0169877
858.692	0.0170708
858.771	0.0169730
858.849	0.0169368
858.927	0.0168409
859.005	0.0168836
859.083	0.0166521
859.161	0.0167182
859.239	0.0166557
859.317	0.0165730
859.396	0.0163739
859.474	0.0164021
859.552	0.0164267
859.630	0.0163241
859.708	0.0163036
859.786	0.0160896
859.864	0.0161547
859.942	0.0162003
860.021	0.0160820
860.099	0.0162141
860.177	0.0161924
860.255	0.0162231
860.333	0.0161869
860.411	0.0162922
860.489	0.0163897
860.567	0.0162554
860.646	0.0162507
860.724	0.0162582
860.802	0.0162435
860.880	0.0160433
860.958	0.0162346
861.036	0.0161259
861.114	0.0161787
861.192	0.0160902
861.271	0.0161567
861.349	0.0162322
861.427	0.0162361
861.505	0.0160261
861.583	0.0160189
861.661	0.0160891
861.739	0.0161620
861.817	0.0161192
861.896	0.0160581
861.974	0.0160622
862.052	0.0161623
862.130	0.0160122
862.208	0.0158155
862.286	0.0160165
862.364	0.0160519
862.442	0.0159151
862.521	0.0158610
862.599	0.0157828
862.677	0.0158453
862.755	0.0157707
862.833	0.0157281
862.911	0.0158150
862.989	0.0157807
863.067	0.0155599
863.146	0.0156721
863.224	0.0157259
863.302	0.0154749
863.380	0.0156216
863.458	0.0156200
863.536	0.0155078
863.614	0.0157446
863.692	0.0157614
863.771	0.0156752
863.849	0.0157423
863.927	0.0158344
864.005	0.0158976
864.083	0.0158793
864.161	0.0161185
864.239	0.0161208
864.317	0.0160147
864.396	0.0162823
864.474	0.0163448
864.552	0.0163292
864.630	0.0163887
864.708	0.0165154
864.786	0.0166747
864.864	0.0166317
864.942	0.0166552
865.021	0.0167490
865.099	0.0168796
865.177	0.0169145
865.255	0.0169300
865.333	0.0168376
865.411	0.0169664
865.489	0.0169292
865.567	0.0171516
865.646	0.0171281
865.724	0.0171647
865.802	0.0170898
865.880	0.0170795
865.958	0.0171012
866.036	0.0171458
866.114	0.0172570
866.192	0.0171355
866.271	0.0170608
866.349	0.0170893
866.427	0.0170506
866.505	0.0170950
866.583	0.0169695
866.661	0.0170305
866.739	0.0168662
866.817	0.0168578
866.896	0.0167945
866.974	0.0167533
867.052	0.0167770
867.130	0.0165795
867.208	0.0165553
867.286	0.0165737
867.364	0.0163816
867.442	0.0162414
867.521	0.0163313
867.599	0.0162380
867.677	0.0161351
867.755	0.0161541
867.833	0.0160794
867.911	0.0160756
867.989	0.0159687
868.067	0.0159447
868.146	0.0159437
868.224	0.0158677
868.302	0.0159114
868.380	0.0159745
868.458	0.0159257
868.536	0.0159186
868.614	0.0159091
868.692	0.0160349
868.771	0.0159167
868.849	0.0158268
868.927	0.0161208
869.005	0.0160448
869.083	0.0161216
869.161	0.0162595
869.239	0.0160830
869.317	0.0162114
869.396	0.0162022
869.474	0.0162061
869.552	0.0162640
869.630	0.0164323
869.708	0.0163960
869.786	0.0163312
869.864	0.0164980
869.942	0.0166620
