06/03/2022	14:54:30	Ver.	4.1	UNKNOWN
Optical Delay	550.020508	Delta X		0.078125	Sweeps	1	Scan Rate	0/0
Coordinates	Axis 1	NaN	Axis 2	NaN	Axis 3	NaN	Axis 4	NaN	Axis 5	NaN	Axis 6	0.000000
TX Power	0.000000	RX Power	0.000000

550.021	0.0159719
550.099	0.0166308
550.177	0.0164370
550.255	0.0164841
550.333	0.0162936
550.411	0.0163483
550.489	0.0162352
550.567	0.0160345
550.646	0.0161791
550.724	0.0162325
550.802	0.0162407
550.880	0.0161711
550.958	0.0162786
551.036	0.0160974
551.114	0.0160596
551.192	0.0161169
551.271	0.0159342
551.349	0.0160178
551.427	0.0160675
551.505	0.0158524
551.583	0.0156709
551.661	0.0157361
551.739	0.0156391
551.817	0.0156961
551.896	0.0155493
551.974	0.0156620
552.052	0.0157508
552.130	0.0157285
552.208	0.0156667
552.286	0.0156926
552.364	0.0158701
552.442	0.0158575
552.521	0.0159384
552.599	0.0161127
552.677	0.0162220
552.755	0.0163692
552.833	0.0163526
552.911	0.0165015
552.989	0.0167163
553.067	0.0167934
553.146	0.0168111
553.224	0.0170430
553.302	0.0171611
553.380	0.0171274
553.458	0.0171102
553.536	0.0172401
553.614	0.0173041
553.692	0.0171402
553.771	0.0170959
553.849	0.0169530
553.927	0.0168869
554.005	0.0167950
554.083	0.0166567
554.161	0.0164126
554.239	0.0162367
554.317	0.0160480
554.396	0.0156454
554.474	0.0156270
554.552	0.0154752
554.630	0.0152583
554.708	0.0151835
554.786	0.0150574
554.864	0.0149061
554.942	0.0147579
555.021	0.0146341
555.099	0.0147714
555.177	0.0146864
555.255	0.0147360
555.333	0.0147144
555.411	0.0147099
555.489	0.0146072
555.567	0.0146442
555.646	0.0146414
555.724	0.0146899
555.802	0.0146348
555.880	0.0145520
555.958	0.0145290
556.036	0.0145339
556.114	0.0143944
556.192	0.0143739
556.271	0.0144002
556.349	0.0143399
556.427	0.0142574
556.505	0.0143466
556.583	0.0142722
556.661	0.0142960
556.739	0.0143917
556.817	0.0144123
556.896	0.0145850
556.974	0.0145380
557.052	0.0148431
557.130	0.0151300
557.208	0.0152283
557.286	0.0156074
557.364	0.0157195
557.442	0.0160186
557.521	0.0163052
557.599	0.0166106
557.677	0.0168488
557.755	0.0171304
557.833	0.0173727
557.911	0.0175465
557.989	0.0178394
558.067	0.0179424
558.146	0.0181019
558.224	0.0182304
558.302	0.0183763
558.380	0.0183711
558.458	0.0182648
558.536	0.0182168
558.614	0.0181664
558.692	0.0179889
558.771	0.0179446
558.849	0.0177849
558.927	0.0175047
559.005	0.0176006
559.083	0.0173949
559.161	0.0171294
559.239	0.0170233
559.317	0.0169206
559.396	0.0167793
559.474	0.0168337
559.552	0.0167586
559.630	0.0166274
559.708	0.0166821
559.786	0.0167106
559.864	0.0165717
559.942	0.0163590
560.021	0.0164240
560.099	0.0163274
560.177	0.0162579
560.255	0.0161974
560.333	0.0161751
560.411	0.0161606
560.489	0.0160966
560.567	0.0158324
560.646	0.0158311
560.724	0.0156700
560.802	0.0157304
560.880	0.0156392
560.958	0.0156332
561.036	0.0157526
561.114	0.0157057
561.192	0.0156193
561.271	0.0156245
561.349	0.0157532
561.427	0.0158605
561.505	0.0160416
561.583	0.0161679
561.661	0.0166191
561.739	0.0166508
561.817	0.0168568
561.896	0.0170720
561.974	0.0172245
562.052	0.0174463
562.130	0.0176131
562.208	0.0179488
562.286	0.0180668
562.364	0.0181603
562.442	0.0183121
562.521	0.0187553
562.599	0.0188025
562.677	0.0188343
562.755	0.0190107
562.833	0.0192597
562.911	0.0194572
562.989	0.0196365
563.067	0.0198798
563.146	0.0200368
563.224	0.0200130
563.302	0.0202766
563.380	0.0202474
563.458	0.0202604
563.536	0.0204147
563.614	0.0205642
563.692	0.0206332
563.771	0.0206814
563.849	0.0205798
563.927	0.0206546
564.005	0.0204418
564.083	0.0204077
564.161	0.0202127
564.239	0.0198855
564.317	0.0199576
564.396	0.0196954
564.474	0.0193065
564.552	0.0192534
564.630	0.0189219
564.708	0.0187540
564.786	0.0184792
564.864	0.0181250
564.942	0.0179585
565.021	0.0177937
565.099	0.0174615
565.177	0.0175046
565.255	0.0171351
565.333	0.0168597
565.411	0.0167741
565.489	0.0168726
565.567	0.0167102
565.646	0.0165575
565.724	0.0165901
565.802	0.0164707
565.880	0.0164262
565.958	0.0165369
566.036	0.0164095
566.114	0.0165086
566.192	0.0163859
566.271	0.0162853
566.349	0.0162930
566.427	0.0164439
566.505	0.0163105
566.583	0.0163386
566.661	0.0164936
566.739	0.0164343
566.817	0.0162784
566.896	0.0163265
566.974	0.0163416
567.052	0.0163570
567.130	0.0164926
567.208	0.0165833
567.286	0.0165750
567.364	0.0166622
567.442	0.0168029
567.521	0.0168107
567.599	0.0170443
567.677	0.0170648
567.755	0.0172163
567.833	0.0172713
567.911	0.0173705
567.989	0.0172994
568.067	0.0174601
568.146	0.0176108
568.224	0.0174858
568.302	0.0175671
568.380	0.0175874
568.458	0.0175469
568.536	0.0174522
568.614	0.0175220
568.692	0.0173793
568.771	0.0173033
568.849	0.0171458
568.927	0.0169359
569.005	0.0170788
569.083	0.0168348
569.161	0.0167236
569.239	0.0165402
569.317	0.0164296
569.396	0.0162814
569.474	0.0162316
569.552	0.0159320
569.630	0.0158479
569.708	0.0155363
569.786	0.0155565
569.864	0.0153226
569.942	0.0152052
570.021	0.0152415
570.099	0.0149493
570.177	0.0149490
570.255	0.0146565
570.333	0.0147019
570.411	0.0147645
570.489	0.0146967
570.567	0.0147991
570.646	0.0144455
570.724	0.0145824
570.802	0.0145371
570.880	0.0144227
570.958	0.0144233
571.036	0.0144867
571.114	0.0144547
571.192	0.0145837
571.271	0.0146889
571.349	0.0145197
571.427	0.0146458
571.505	0.0148540
571.583	0.0148026
571.661	0.0149076
571.739	0.0151204
571.817	0.0151541
571.896	0.0151656
571.974	0.0152639
572.052	0.0155502
572.130	0.0157907
572.208	0.0158948
572.286	0.0158427
572.364	0.0159339
572.442	0.0162226
572.521	0.0163033
572.599	0.0161509
572.677	0.0164652
572.755	0.0164182
572.833	0.0165147
572.911	0.0165450
572.989	0.0164946
573.067	0.0165880
573.146	0.0165713
573.224	0.0164127
573.302	0.0165408
573.380	0.0165297
573.458	0.0165089
573.536	0.0164246
573.614	0.0163840
573.692	0.0164594
573.771	0.0163667
573.849	0.0164989
573.927	0.0163949
574.005	0.0163700
574.083	0.0163322
574.161	0.0164651
574.239	0.0163599
574.317	0.0163058
574.396	0.0164906
574.474	0.0164652
574.552	0.0165710
574.630	0.0166037
574.708	0.0167686
574.786	0.0166405
574.864	0.0167193
574.942	0.0169482
575.021	0.0169950
575.099	0.0170958
575.177	0.0170255
575.255	0.0172413
575.333	0.0172147
575.411	0.0174199
575.489	0.0174339
575.567	0.0174054
575.646	0.0174191
575.724	0.0174907
575.802	0.0175185
575.880	0.0175251
575.958	0.0176289
576.036	0.0177708
576.114	0.0176263
576.192	0.0175153
576.271	0.0174573
576.349	0.0175111
576.427	0.0175733
576.505	0.0173612
576.583	0.0173251
576.661	0.0172848
576.739	0.0173031
576.817	0.0171545
576.896	0.0169474
576.974	0.0168510
577.052	0.0166340
577.130	0.0163865
577.208	0.0163892
577.286	0.0163764
577.364	0.0162173
577.442	0.0161660
577.521	0.0160150
577.599	0.0159835
577.677	0.0158064
577.755	0.0157813
577.833	0.0157691
577.911	0.0155199
577.989	0.0154210
578.067	0.0155270
578.146	0.0156543
578.224	0.0155957
578.302	0.0154587
578.380	0.0155288
578.458	0.0155635
578.536	0.0153956
578.614	0.0153988
578.692	0.0154533
578.771	0.0155632
578.849	0.0155396
578.927	0.0155663
579.005	0.0155963
579.083	0.0155543
579.161	0.0157291
579.239	0.0158313
579.317	0.0158381
579.396	0.0157644
579.474	0.0159287
579.552	0.0159019
579.630	0.0160128
579.708	0.0159202
579.786	0.0160058
579.864	0.0161183
579.942	0.0160548
580.021	0.0160818
580.099	0.0159904
580.177	0.0161488
580.255	0.0162240
580.333	0.0159650
580.411	0.0159615
580.489	0.0159812
580.567	0.0160710
580.646	0.0160485
580.724	0.0159792
580.802	0.0160785
580.880	0.0159737
580.958	0.0158953
581.036	0.0159328
581.114	0.0159467
581.192	0.0159488
581.271	0.0156787
581.349	0.0157584
581.427	0.0157539
581.505	0.0157838
581.583	0.0158557
581.661	0.0157072
581.739	0.0158013
581.817	0.0158269
581.896	0.0160094
581.974	0.0157719
582.052	0.0158256
582.130	0.0158707
582.208	0.0158447
582.286	0.0159292
582.364	0.0159683
582.442	0.0160930
582.521	0.0159212
582.599	0.0158947
582.677	0.0158776
582.755	0.0159573
582.833	0.0159285
582.911	0.0161723
582.989	0.0160856
583.067	0.0160210
583.146	0.0162361
583.224	0.0161974
583.302	0.0164344
583.380	0.0163625
583.458	0.0164121
583.536	0.0165025
583.614	0.0167367
583.692	0.0168652
583.771	0.0168227
583.849	0.0167751
583.927	0.0169666
584.005	0.0169259
584.083	0.0168845
584.161	0.0169219
584.239	0.0167679
584.317	0.0168489
584.396	0.0168349
584.474	0.0168688
584.552	0.0167063
584.630	0.0166904
584.708	0.0165331
584.786	0.0166779
584.864	0.0166172
584.942	0.0165887
585.021	0.0166131
585.099	0.0166570
585.177	0.0167372
585.255	0.0167754
585.333	0.0168452
585.411	0.0170365
585.489	0.0170631
585.567	0.0170763
585.646	0.0172614
585.724	0.0173251
585.802	0.0174468
585.880	0.0175485
585.958	0.0175976
586.036	0.0176678
586.114	0.0178596
586.192	0.0178926
586.271	0.0179699
586.349	0.0180975
586.427	0.0180291
586.505	0.0180688
586.583	0.0181633
586.661	0.0181055
586.739	0.0182643
586.817	0.0180816
586.896	0.0181606
586.974	0.0180818
587.052	0.0180087
587.130	0.0179772
587.208	0.0179701
587.286	0.0178294
587.364	0.0178442
587.442	0.0178294
587.521	0.0177193
587.599	0.0177742
587.677	0.0175922
587.755	0.0175991
587.833	0.0173804
587.911	0.0175007
587.989	0.0174331
588.067	0.0173748
588.146	0.0173584
588.224	0.0174310
588.302	0.0174133
588.380	0.0174006
588.458	0.0172857
588.536	0.0173502
588.614	0.0173426
588.692	0.0173694
588.771	0.0173432
588.849	0.0173232
588.927	0.0172598
589.005	0.0172491
589.083	0.0172340
589.161	0.0172522
589.239	0.0172182
589.317	0.0171967
589.396	0.0173615
589.474	0.0172171
589.552	0.0172756
589.630	0.0172301
589.708	0.0171111
589.786	0.0171068
589.864	0.0170769
589.942	0.0170395
590.021	0.0171520
590.099	0.0170132
590.177	0.0170914
590.255	0.0170197
590.333	0.0169572
590.411	0.0169370
590.489	0.0168973
590.567	0.0168269
590.646	0.0168335
590.724	0.0167446
590.802	0.0165476
590.880	0.0166662
590.958	0.0165238
591.036	0.0164893
591.114	0.0164876
591.192	0.0164632
591.271	0.0162399
591.349	0.0164520
591.427	0.0164971
591.505	0.0162933
591.583	0.0164170
591.661	0.0163607
591.739	0.0162921
591.817	0.0163436
591.896	0.0162836
591.974	0.0163573
592.052	0.0163286
592.130	0.0162669
592.208	0.0163535
592.286	0.0162560
592.364	0.0161863
592.442	0.0161963
592.521	0.0162284
592.599	0.0163156
592.677	0.0161599
592.755	0.0160205
592.833	0.0160737
592.911	0.0160114
592.989	0.0160126
593.067	0.0161283
593.146	0.0161395
593.224	0.0160308
593.302	0.0159606
593.380	0.0160073
593.458	0.0161579
593.536	0.0161954
593.614	0.0161915
593.692	0.0162958
593.771	0.0162809
593.849	0.0162600
593.927	0.0162563
594.005	0.0163552
594.083	0.0163950
594.161	0.0164045
594.239	0.0164538
594.317	0.0165556
594.396	0.0165339
594.474	0.0165512
594.552	0.0166840
594.630	0.0167886
594.708	0.0166270
594.786	0.0166962
594.864	0.0167618
594.942	0.0168250
595.021	0.0168841
595.099	0.0167827
595.177	0.0168511
595.255	0.0168758
595.333	0.0170388
595.411	0.0170128
595.489	0.0169477
595.567	0.0169414
595.646	0.0170242
595.724	0.0170407
595.802	0.0170001
595.880	0.0169392
595.958	0.0168903
596.036	0.0168550
596.114	0.0168647
596.192	0.0168306
596.271	0.0167820
596.349	0.0166641
596.427	0.0165620
596.505	0.0165546
596.583	0.0163451
596.661	0.0164868
596.739	0.0164547
596.817	0.0163867
596.896	0.0164283
596.974	0.0163695
597.052	0.0164204
597.130	0.0164864
597.208	0.0165482
597.286	0.0164471
597.364	0.0166366
597.442	0.0166305
597.521	0.0165815
597.599	0.0168092
597.677	0.0168679
597.755	0.0169353
597.833	0.0168674
597.911	0.0169871
597.989	0.0171196
598.067	0.0171736
598.146	0.0171068
598.224	0.0172382
598.302	0.0172893
598.380	0.0173174
598.458	0.0173345
598.536	0.0174197
598.614	0.0172834
598.692	0.0174375
598.771	0.0174232
598.849	0.0174744
598.927	0.0174557
599.005	0.0174387
599.083	0.0174367
599.161	0.0172739
599.239	0.0173925
599.317	0.0174270
599.396	0.0174162
599.474	0.0174150
599.552	0.0173005
599.630	0.0171802
599.708	0.0172356
599.786	0.0171890
599.864	0.0169202
599.942	0.0170827
600.021	0.0170377
600.099	0.0168537
600.177	0.0167276
600.255	0.0167043
600.333	0.0167175
600.411	0.0166809
600.489	0.0165804
600.567	0.0166217
600.646	0.0163873
600.724	0.0162971
600.802	0.0164175
600.880	0.0162283
600.958	0.0160956
601.036	0.0160565
601.114	0.0161705
601.192	0.0159429
601.271	0.0160294
601.349	0.0159065
601.427	0.0159199
601.505	0.0158752
601.583	0.0158993
601.661	0.0160135
601.739	0.0159598
601.817	0.0160372
601.896	0.0160965
601.974	0.0160158
602.052	0.0161694
602.130	0.0163318
602.208	0.0162832
602.286	0.0162672
602.364	0.0164313
602.442	0.0165113
602.521	0.0166414
602.599	0.0167718
602.677	0.0168561
602.755	0.0168742
602.833	0.0170247
602.911	0.0169927
602.989	0.0170673
603.067	0.0170711
603.146	0.0170547
603.224	0.0172678
603.302	0.0171468
603.380	0.0172098
603.458	0.0171365
603.536	0.0171682
603.614	0.0171832
603.692	0.0171046
603.771	0.0169898
603.849	0.0170045
603.927	0.0170603
604.005	0.0168811
604.083	0.0166764
604.161	0.0168525
604.239	0.0166240
604.317	0.0166854
604.396	0.0166172
604.474	0.0165158
604.552	0.0164223
604.630	0.0163746
604.708	0.0164640
604.786	0.0164820
604.864	0.0164522
604.942	0.0161930
605.021	0.0163604
605.099	0.0163686
605.177	0.0165897
605.255	0.0164957
605.333	0.0164206
605.411	0.0165347
605.489	0.0165636
605.567	0.0165544
605.646	0.0167033
605.724	0.0165532
605.802	0.0167068
605.880	0.0167682
605.958	0.0167374
606.036	0.0166238
606.114	0.0166486
606.192	0.0167413
606.271	0.0166830
606.349	0.0166525
606.427	0.0167307
606.505	0.0166276
606.583	0.0166743
606.661	0.0165135
606.739	0.0165295
606.817	0.0164660
606.896	0.0164888
606.974	0.0163689
607.052	0.0164478
607.130	0.0162685
607.208	0.0162231
607.286	0.0161978
607.364	0.0161448
607.442	0.0160390
607.521	0.0160223
607.599	0.0159257
607.677	0.0159422
607.755	0.0159320
607.833	0.0158147
607.911	0.0158215
607.989	0.0157562
608.067	0.0156705
608.146	0.0158401
608.224	0.0156838
608.302	0.0157053
608.380	0.0156726
608.458	0.0156546
608.536	0.0156999
608.614	0.0157424
608.692	0.0155112
608.771	0.0155800
608.849	0.0157262
608.927	0.0156642
609.005	0.0157340
609.083	0.0158638
609.161	0.0159039
609.239	0.0158809
609.317	0.0159938
609.396	0.0157899
609.474	0.0159925
609.552	0.0162782
609.630	0.0161867
609.708	0.0162357
609.786	0.0160627
609.864	0.0162057
609.942	0.0163448
610.021	0.0162799
610.099	0.0163178
610.177	0.0164375
610.255	0.0163534
610.333	0.0165834
610.411	0.0165664
610.489	0.0165295
610.567	0.0166453
610.646	0.0166611
610.724	0.0166993
610.802	0.0168887
610.880	0.0169008
610.958	0.0169272
611.036	0.0169913
611.114	0.0170669
611.192	0.0171273
611.271	0.0172369
611.349	0.0172166
611.427	0.0172666
611.505	0.0173152
611.583	0.0173901
611.661	0.0171738
611.739	0.0172541
611.817	0.0175090
611.896	0.0172990
611.974	0.0173850
612.052	0.0174329
612.130	0.0172752
612.208	0.0173549
612.286	0.0173486
612.364	0.0172776
612.442	0.0173133
612.521	0.0175781
612.599	0.0174088
612.677	0.0173111
612.755	0.0172162
612.833	0.0172896
612.911	0.0174693
612.989	0.0172279
613.067	0.0171926
613.146	0.0172133
613.224	0.0169660
613.302	0.0170203
613.380	0.0170470
613.458	0.0169592
613.536	0.0169243
613.614	0.0167584
613.692	0.0168139
613.771	0.0167365
613.849	0.0165739
613.927	0.0166219
614.005	0.0166319
614.083	0.0165688
614.161	0.0165527
614.239	0.0164906
614.317	0.0164025
614.396	0.0163725
614.474	0.0164460
614.552	0.0165499
614.630	0.0163986
614.708	0.0164184
614.786	0.0164359
614.864	0.0163206
614.942	0.0165498
615.021	0.0165116
615.099	0.0164961
615.177	0.0166405
615.255	0.0166738
615.333	0.0167205
615.411	0.0166663
615.489	0.0167226
615.567	0.0167477
615.646	0.0167788
615.724	0.0167358
615.802	0.0168751
615.880	0.0168643
615.958	0.0168432
616.036	0.0168641
616.114	0.0169061
616.192	0.0167769
616.271	0.0169201
616.349	0.0168790
616.427	0.0168433
616.505	0.0168949
616.583	0.0167886
616.661	0.0169522
616.739	0.0170376
616.817	0.0170266
616.896	0.0167960
616.974	0.0168835
617.052	0.0169275
617.130	0.0168792
617.208	0.0168275
617.286	0.0169074
617.364	0.0168876
617.442	0.0168530
617.521	0.0168736
617.599	0.0169042
617.677	0.0166986
617.755	0.0169473
617.833	0.0170387
617.911	0.0169935
617.989	0.0170821
618.067	0.0171072
618.146	0.0170958
618.224	0.0171193
618.302	0.0172038
618.380	0.0171278
618.458	0.0173064
618.536	0.0173090
618.614	0.0173220
618.692	0.0175145
618.771	0.0173960
618.849	0.0173795
618.927	0.0174237
619.005	0.0173939
619.083	0.0174623
619.161	0.0174151
619.239	0.0174580
619.317	0.0175452
619.396	0.0174609
619.474	0.0173495
619.552	0.0176028
619.630	0.0174902
619.708	0.0173669
619.786	0.0174542
619.864	0.0174471
619.942	0.0174349
620.021	0.0172597
620.099	0.0172658
620.177	0.0173712
620.255	0.0174160
620.333	0.0172842
620.411	0.0172279
620.489	0.0172532
620.567	0.0172894
620.646	0.0173316
620.724	0.0172031
620.802	0.0171517
620.880	0.0171496
620.958	0.0172115
621.036	0.0170899
621.114	0.0170326
621.192	0.0170274
621.271	0.0168990
621.349	0.0169463
621.427	0.0170508
621.505	0.0168893
621.583	0.0168586
621.661	0.0167676
621.739	0.0167433
621.817	0.0168871
621.896	0.0168628
621.974	0.0168280
622.052	0.0168612
622.130	0.0168949
622.208	0.0168464
622.286	0.0168011
622.364	0.0169425
622.442	0.0169881
622.521	0.0168509
622.599	0.0167966
622.677	0.0169537
622.755	0.0169942
622.833	0.0169458
622.911	0.0169849
622.989	0.0169829
623.067	0.0167962
623.146	0.0169102
623.224	0.0168623
623.302	0.0169552
623.380	0.0167106
623.458	0.0167833
623.536	0.0168450
623.614	0.0166875
623.692	0.0167017
623.771	0.0168194
623.849	0.0168178
623.927	0.0167822
624.005	0.0167941
624.083	0.0167466
624.161	0.0169003
624.239	0.0167906
624.317	0.0168510
624.396	0.0168945
624.474	0.0168814
624.552	0.0169178
624.630	0.0170679
624.708	0.0170850
624.786	0.0171066
624.864	0.0169966
624.942	0.0169880
625.021	0.0171001
625.099	0.0170683
625.177	0.0170255
625.255	0.0171364
625.333	0.0169160
625.411	0.0168559
625.489	0.0169532
625.567	0.0170139
625.646	0.0169844
625.724	0.0169856
625.802	0.0168414
625.880	0.0168303
625.958	0.0168484
626.036	0.0169700
626.114	0.0168954
626.192	0.0169373
626.271	0.0169261
626.349	0.0170672
626.427	0.0168495
626.505	0.0169885
626.583	0.0169485
626.661	0.0168639
626.739	0.0170745
626.817	0.0169370
626.896	0.0167954
626.974	0.0168985
627.052	0.0169111
627.130	0.0168466
627.208	0.0166698
627.286	0.0168324
627.364	0.0165891
627.442	0.0165567
627.521	0.0164256
627.599	0.0164577
627.677	0.0164542
627.755	0.0162855
627.833	0.0160182
627.911	0.0160249
627.989	0.0158472
628.067	0.0157635
628.146	0.0155151
628.224	0.0153087
628.302	0.0150884
628.380	0.0150739
628.458	0.0149097
628.536	0.0147830
628.614	0.0146640
628.692	0.0148246
628.771	0.0146313
628.849	0.0146371
628.927	0.0146970
629.005	0.0146688
629.083	0.0148932
629.161	0.0150898
629.239	0.0151651
629.317	0.0152592
629.396	0.0153785
629.474	0.0156771
629.552	0.0158501
629.630	0.0159666
629.708	0.0163222
629.786	0.0165321
629.864	0.0166678
629.942	0.0168513
630.021	0.0171290
630.099	0.0172766
630.177	0.0174492
630.255	0.0173755
630.333	0.0176637
630.411	0.0177374
630.489	0.0177001
630.567	0.0178781
630.646	0.0178201
630.724	0.0177158
630.802	0.0176492
630.880	0.0176778
630.958	0.0175404
631.036	0.0174882
631.114	0.0173595
631.192	0.0172611
631.271	0.0171861
631.349	0.0172432
631.427	0.0172125
631.505	0.0169268
631.583	0.0168905
631.661	0.0168035
631.739	0.0167856
631.817	0.0166211
631.896	0.0167113
631.974	0.0165806
632.052	0.0164869
632.130	0.0164753
632.208	0.0165525
632.286	0.0163875
632.364	0.0163718
632.442	0.0164006
632.521	0.0164262
632.599	0.0163308
632.677	0.0162577
632.755	0.0163847
632.833	0.0161404
632.911	0.0161936
632.989	0.0164532
633.067	0.0162490
633.146	0.0162760
633.224	0.0162933
633.302	0.0162247
633.380	0.0162295
633.458	0.0162643
633.536	0.0163999
633.614	0.0164125
633.692	0.0163225
633.771	0.0165640
633.849	0.0165495
633.927	0.0166257
634.005	0.0167271
634.083	0.0168432
634.161	0.0169076
634.239	0.0169937
634.317	0.0172725
634.396	0.0175186
634.474	0.0173962
634.552	0.0175667
634.630	0.0175195
634.708	0.0176736
634.786	0.0179785
634.864	0.0178897
634.942	0.0179588
635.021	0.0178513
635.099	0.0178024
635.177	0.0177599
635.255	0.0177528
635.333	0.0177139
635.411	0.0176894
635.489	0.0176357
635.567	0.0173684
635.646	0.0170795
635.724	0.0169817
635.802	0.0169706
635.880	0.0168217
635.958	0.0166796
636.036	0.0167290
636.114	0.0166424
636.192	0.0165948
636.271	0.0164059
636.349	0.0163421
636.427	0.0164217
636.505	0.0164599
636.583	0.0164325
636.661	0.0164404
636.739	0.0163573
636.817	0.0164105
636.896	0.0163245
636.974	0.0163318
637.052	0.0164046
637.130	0.0163482
637.208	0.0163749
637.286	0.0164475
637.364	0.0164247
637.442	0.0165349
637.521	0.0166008
637.599	0.0165596
637.677	0.0166131
637.755	0.0165246
637.833	0.0165297
637.911	0.0165833
637.989	0.0167008
638.067	0.0166038
638.146	0.0166476
638.224	0.0166180
638.302	0.0165908
638.380	0.0164630
638.458	0.0164278
638.536	0.0164890
638.614	0.0164754
638.692	0.0164786
638.771	0.0165047
638.849	0.0164272
638.927	0.0163197
639.005	0.0163353
639.083	0.0162642
639.161	0.0163057
639.239	0.0164309
639.317	0.0161661
639.396	0.0162796
639.474	0.0163559
639.552	0.0162204
639.630	0.0162051
639.708	0.0163223
639.786	0.0164162
639.864	0.0164400
639.942	0.0164887
640.021	0.0165401
640.099	0.0166853
640.177	0.0168314
640.255	0.0168055
640.333	0.0169462
640.411	0.0170988
640.489	0.0172205
640.567	0.0172282
640.646	0.0174716
640.724	0.0175078
640.802	0.0174879
640.880	0.0176536
640.958	0.0177106
641.036	0.0178243
641.114	0.0177992
641.192	0.0178278
641.271	0.0179455
641.349	0.0180235
641.427	0.0179599
641.505	0.0180556
641.583	0.0182133
641.661	0.0182201
641.739	0.0181399
641.817	0.0182655
641.896	0.0183429
641.974	0.0181793
642.052	0.0183293
642.130	0.0183170
642.208	0.0181673
642.286	0.0182100
642.364	0.0181313
642.442	0.0180112
642.521	0.0179446
642.599	0.0178531
642.677	0.0177548
642.755	0.0175694
642.833	0.0174780
642.911	0.0174053
642.989	0.0172771
643.067	0.0172115
643.146	0.0169943
643.224	0.0167702
643.302	0.0167099
643.380	0.0166183
643.458	0.0165409
643.536	0.0165535
643.614	0.0163967
643.692	0.0161633
643.771	0.0161152
643.849	0.0161213
643.927	0.0160784
644.005	0.0160625
644.083	0.0160742
644.161	0.0158561
644.239	0.0158589
644.317	0.0158512
644.396	0.0157409
644.474	0.0160125
644.552	0.0160006
644.630	0.0158938
644.708	0.0160187
644.786	0.0160278
644.864	0.0158356
644.942	0.0160590
645.021	0.0161669
645.099	0.0161488
645.177	0.0160098
645.255	0.0160842
645.333	0.0161587
645.411	0.0160932
645.489	0.0160989
645.567	0.0163081
645.646	0.0162164
645.724	0.0161231
645.802	0.0162470
645.880	0.0162025
645.958	0.0161637
646.036	0.0162246
646.114	0.0163425
646.192	0.0163963
646.271	0.0162616
646.349	0.0163661
646.427	0.0163874
646.505	0.0163469
646.583	0.0164045
646.661	0.0164299
646.739	0.0163050
646.817	0.0164139
646.896	0.0164639
646.974	0.0164928
647.052	0.0163583
647.130	0.0163908
647.208	0.0164088
647.286	0.0162684
647.364	0.0163782
647.442	0.0162667
647.521	0.0162719
647.599	0.0163165
647.677	0.0162838
647.755	0.0162527
647.833	0.0162362
647.911	0.0160905
647.989	0.0161477
648.067	0.0162440
648.146	0.0163916
648.224	0.0163235
648.302	0.0163714
648.380	0.0163971
648.458	0.0164716
648.536	0.0163364
648.614	0.0165351
648.692	0.0164687
648.771	0.0165355
648.849	0.0166261
648.927	0.0166427
649.005	0.0165887
649.083	0.0167683
649.161	0.0166945
649.239	0.0165633
649.317	0.0165048
649.396	0.0166067
649.474	0.0166588
649.552	0.0166003
649.630	0.0167500
649.708	0.0167497
649.786	0.0167950
649.864	0.0169006
649.942	0.0169182
650.021	0.0169486
650.099	0.0168855
650.177	0.0169244
650.255	0.0170549
650.333	0.0168772
650.411	0.0168112
650.489	0.0167765
650.567	0.0166353
650.646	0.0164949
650.724	0.0164289
650.802	0.0161840
650.880	0.0159965
650.958	0.0159806
651.036	0.0159564
651.114	0.0159939
651.192	0.0158459
651.271	0.0159698
651.349	0.0159287
651.427	0.0158698
651.505	0.0159438
651.583	0.0160195
651.661	0.0160287
651.739	0.0160880
651.817	0.0161687
651.896	0.0161942
651.974	0.0163279
652.052	0.0163036
652.130	0.0162783
652.208	0.0165092
652.286	0.0164967
652.364	0.0165901
652.442	0.0166558
652.521	0.0165061
652.599	0.0165648
652.677	0.0164575
652.755	0.0166073
652.833	0.0163421
652.911	0.0164903
652.989	0.0163499
653.067	0.0162672
653.146	0.0161119
653.224	0.0161432
653.302	0.0162257
653.380	0.0161569
653.458	0.0162174
653.536	0.0160031
653.614	0.0158906
653.692	0.0159878
653.771	0.0159824
653.849	0.0159496
653.927	0.0162018
654.005	0.0162337
654.083	0.0161410
654.161	0.0162646
654.239	0.0161951
654.317	0.0163142
654.396	0.0163235
654.474	0.0163338
654.552	0.0165907
654.630	0.0165587
654.708	0.0164928
654.786	0.0165129
654.864	0.0166855
654.942	0.0166724
655.021	0.0166917
655.099	0.0166834
655.177	0.0167659
655.255	0.0166799
655.333	0.0167280
655.411	0.0167001
655.489	0.0167020
655.567	0.0166005
655.646	0.0168004
655.724	0.0167665
655.802	0.0167038
655.880	0.0167587
655.958	0.0167133
656.036	0.0168054
656.114	0.0168678
656.192	0.0168153
656.271	0.0169974
656.349	0.0169218
656.427	0.0169743
656.505	0.0169157
656.583	0.0170560
656.661	0.0169946
656.739	0.0171233
656.817	0.0172063
656.896	0.0170928
656.974	0.0170804
657.052	0.0171122
657.130	0.0170415
657.208	0.0171223
657.286	0.0170576
657.364	0.0170535
657.442	0.0169529
657.521	0.0169045
657.599	0.0166864
657.677	0.0168518
657.755	0.0166096
657.833	0.0166316
657.911	0.0165533
657.989	0.0164919
658.067	0.0165249
658.146	0.0163947
658.224	0.0164504
658.302	0.0164548
658.380	0.0165876
658.458	0.0167358
658.536	0.0166042
658.614	0.0167168
658.692	0.0169637
658.771	0.0168728
658.849	0.0169967
658.927	0.0170592
659.005	0.0171539
659.083	0.0173637
659.161	0.0172262
659.239	0.0173044
659.317	0.0174253
659.396	0.0174129
659.474	0.0174287
659.552	0.0174285
659.630	0.0174889
659.708	0.0173701
659.786	0.0175869
659.864	0.0177223
659.942	0.0175129
660.021	0.0174383
660.099	0.0174759
660.177	0.0174958
660.255	0.0175398
660.333	0.0174611
660.411	0.0174729
660.489	0.0173308
660.567	0.0174400
660.646	0.0173157
660.724	0.0172092
660.802	0.0174435
660.880	0.0172581
660.958	0.0172185
661.036	0.0171062
661.114	0.0169566
661.192	0.0171885
661.271	0.0169590
661.349	0.0169807
661.427	0.0167871
661.505	0.0168550
661.583	0.0167697
661.661	0.0169690
661.739	0.0168085
661.817	0.0169302
661.896	0.0169186
661.974	0.0167061
662.052	0.0167669
662.130	0.0167001
662.208	0.0167673
662.286	0.0169176
662.364	0.0167971
662.442	0.0167829
662.521	0.0165934
662.599	0.0166722
662.677	0.0167383
662.755	0.0164971
662.833	0.0163651
662.911	0.0164177
662.989	0.0163491
663.067	0.0162056
663.146	0.0161839
663.224	0.0161832
663.302	0.0163125
663.380	0.0160433
663.458	0.0159123
663.536	0.0159406
663.614	0.0160865
663.692	0.0160194
663.771	0.0158208
663.849	0.0159856
663.927	0.0160511
664.005	0.0162349
664.083	0.0162216
664.161	0.0162932
664.239	0.0162783
664.317	0.0164200
664.396	0.0167005
664.474	0.0166208
664.552	0.0166734
664.630	0.0169275
664.708	0.0171022
664.786	0.0169603
664.864	0.0169886
664.942	0.0171870
665.021	0.0173265
665.099	0.0172488
665.177	0.0172729
665.255	0.0171730
665.333	0.0170970
665.411	0.0171452
665.489	0.0171770
665.567	0.0171170
665.646	0.0170406
665.724	0.0168654
665.802	0.0167453
665.880	0.0167263
665.958	0.0166430
666.036	0.0167461
666.114	0.0167191
666.192	0.0165801
666.271	0.0165663
666.349	0.0165379
666.427	0.0165067
666.505	0.0166849
666.583	0.0165718
666.661	0.0165957
666.739	0.0166151
666.817	0.0165979
666.896	0.0166091
666.974	0.0165440
667.052	0.0165838
667.130	0.0165119
667.208	0.0166779
667.286	0.0164115
667.364	0.0164044
667.442	0.0164592
667.521	0.0163304
667.599	0.0161934
667.677	0.0163014
667.755	0.0163222
667.833	0.0161095
667.911	0.0161589
667.989	0.0159822
668.067	0.0159817
668.146	0.0160812
668.224	0.0160302
668.302	0.0159527
668.380	0.0159449
668.458	0.0159251
668.536	0.0158991
668.614	0.0159468
668.692	0.0159842
668.771	0.0159494
668.849	0.0159731
668.927	0.0159863
669.005	0.0160213
669.083	0.0161520
669.161	0.0162136
669.239	0.0161865
669.317	0.0162499
669.396	0.0161514
669.474	0.0161726
669.552	0.0163242
669.630	0.0161848
669.708	0.0162118
669.786	0.0161819
669.864	0.0163927
669.942	0.0162521
670.021	0.0161369
670.099	0.0162473
670.177	0.0163054
670.255	0.0163712
670.333	0.0162405
670.411	0.0163365
670.489	0.0163052
670.567	0.0162988
670.646	0.0163074
670.724	0.0163817
670.802	0.0163675
670.880	0.0164285
670.958	0.0164320
671.036	0.0164566
671.114	0.0164284
671.192	0.0164526
671.271	0.0164987
671.349	0.0164273
671.427	0.0162810
671.505	0.0163112
671.583	0.0163375
671.661	0.0162827
671.739	0.0164549
671.817	0.0164338
671.896	0.0164532
671.974	0.0165569
672.052	0.0164731
672.130	0.0165470
672.208	0.0167313
672.286	0.0167314
672.364	0.0167241
672.442	0.0168793
672.521	0.0168077
672.599	0.0167679
672.677	0.0168023
672.755	0.0169754
672.833	0.0167861
672.911	0.0170436
672.989	0.0167949
673.067	0.0169871
673.146	0.0167997
673.224	0.0167834
673.302	0.0168500
673.380	0.0165628
673.458	0.0165958
673.536	0.0165118
673.614	0.0164850
673.692	0.0163668
673.771	0.0164639
673.849	0.0164473
673.927	0.0163046
674.005	0.0163185
674.083	0.0163103
674.161	0.0163331
674.239	0.0162948
674.317	0.0163652
674.396	0.0163293
674.474	0.0163544
674.552	0.0164822
674.630	0.0165262
674.708	0.0165334
674.786	0.0165278
674.864	0.0167395
674.942	0.0167130
675.021	0.0166220
675.099	0.0165652
675.177	0.0167234
675.255	0.0168230
675.333	0.0167764
675.411	0.0167917
675.489	0.0168111
675.567	0.0167872
675.646	0.0168222
675.724	0.0169017
675.802	0.0168732
675.880	0.0168437
675.958	0.0168628
676.036	0.0169579
676.114	0.0168760
676.192	0.0169814
676.271	0.0169348
676.349	0.0169025
676.427	0.0170058
676.505	0.0168705
676.583	0.0169508
676.661	0.0169463
676.739	0.0169409
676.817	0.0168964
676.896	0.0169119
676.974	0.0168067
677.052	0.0166924
677.130	0.0167523
677.208	0.0168372
677.286	0.0168630
677.364	0.0167822
677.442	0.0167117
677.521	0.0166988
677.599	0.0165742
677.677	0.0166557
677.755	0.0167797
677.833	0.0167815
677.911	0.0165710
677.989	0.0165300
678.067	0.0165543
678.146	0.0166076
678.224	0.0165205
678.302	0.0166108
678.380	0.0166003
678.458	0.0163748
678.536	0.0164213
678.614	0.0163645
678.692	0.0163305
678.771	0.0163494
678.849	0.0161835
678.927	0.0161475
679.005	0.0162431
679.083	0.0161502
679.161	0.0161882
679.239	0.0162670
679.317	0.0163239
679.396	0.0162642
679.474	0.0159365
679.552	0.0160735
679.630	0.0162533
679.708	0.0163557
679.786	0.0161871
679.864	0.0161282
679.942	0.0162323
680.021	0.0163840
680.099	0.0164067
680.177	0.0163544
680.255	0.0164234
680.333	0.0165043
680.411	0.0165301
680.489	0.0167132
680.567	0.0165189
680.646	0.0165203
680.724	0.0166700
680.802	0.0164123
680.880	0.0165486
680.958	0.0166175
681.036	0.0164868
681.114	0.0163705
681.192	0.0165500
681.271	0.0165165
681.349	0.0163528
681.427	0.0164276
681.505	0.0163375
681.583	0.0164137
681.661	0.0164442
681.739	0.0163279
681.817	0.0165257
681.896	0.0162701
681.974	0.0164001
682.052	0.0164332
682.130	0.0163724
682.208	0.0164221
682.286	0.0163515
682.364	0.0164581
682.442	0.0164954
682.521	0.0165039
682.599	0.0165139
682.677	0.0165244
682.755	0.0167273
682.833	0.0167529
682.911	0.0167291
682.989	0.0169349
683.067	0.0169614
683.146	0.0169666
683.224	0.0169781
683.302	0.0168858
683.380	0.0169247
683.458	0.0170421
683.536	0.0170174
683.614	0.0168509
683.692	0.0169456
683.771	0.0169917
683.849	0.0169400
683.927	0.0168962
684.005	0.0169131
684.083	0.0169152
684.161	0.0166880
684.239	0.0167535
684.317	0.0167529
684.396	0.0167013
684.474	0.0166764
684.552	0.0167800
684.630	0.0165702
684.708	0.0166795
684.786	0.0166086
684.864	0.0166382
684.942	0.0167506
685.021	0.0165922
685.099	0.0164571
685.177	0.0165945
685.255	0.0166389
685.333	0.0164570
685.411	0.0166427
685.489	0.0165962
685.567	0.0166541
685.646	0.0165795
685.724	0.0166792
685.802	0.0168114
685.880	0.0167841
685.958	0.0167384
686.036	0.0169473
686.114	0.0167452
686.192	0.0169112
686.271	0.0169820
686.349	0.0168998
686.427	0.0169120
686.505	0.0168784
686.583	0.0169035
686.661	0.0168616
686.739	0.0169078
686.817	0.0169325
686.896	0.0170906
686.974	0.0169355
687.052	0.0170043
687.130	0.0168679
687.208	0.0169209
687.286	0.0169382
687.364	0.0168446
687.442	0.0169320
687.521	0.0168800
687.599	0.0167921
687.677	0.0169117
687.755	0.0169199
687.833	0.0167662
687.911	0.0167140
687.989	0.0166444
688.067	0.0167471
688.146	0.0167922
688.224	0.0167102
688.302	0.0166953
688.380	0.0167033
688.458	0.0165844
688.536	0.0165691
688.614	0.0164577
688.692	0.0165174
688.771	0.0164140
688.849	0.0164653
688.927	0.0165289
689.005	0.0164805
689.083	0.0164449
689.161	0.0165327
689.239	0.0164206
689.317	0.0164764
689.396	0.0165736
689.474	0.0165784
689.552	0.0165344
689.630	0.0167615
689.708	0.0166963
689.786	0.0167091
689.864	0.0167786
689.942	0.0167760
690.021	0.0166550
690.099	0.0166721
690.177	0.0168055
690.255	0.0167838
690.333	0.0166651
690.411	0.0166453
690.489	0.0165572
690.567	0.0166122
690.646	0.0165304
690.724	0.0166887
690.802	0.0166031
690.880	0.0164391
690.958	0.0164196
691.036	0.0166135
691.114	0.0166589
691.192	0.0164681
691.271	0.0164207
691.349	0.0166359
691.427	0.0165413
691.505	0.0164720
691.583	0.0165164
691.661	0.0165163
691.739	0.0164647
691.817	0.0164393
691.896	0.0165245
691.974	0.0165764
692.052	0.0165969
692.130	0.0165005
692.208	0.0165388
692.286	0.0164053
692.364	0.0165350
692.442	0.0166071
692.521	0.0165606
692.599	0.0166141
692.677	0.0165660
692.755	0.0166112
692.833	0.0166500
692.911	0.0166105
692.989	0.0164557
693.067	0.0164878
693.146	0.0164765
693.224	0.0166119
693.302	0.0166557
693.380	0.0166490
693.458	0.0165555
693.536	0.0165928
693.614	0.0166084
693.692	0.0165405
693.771	0.0166225
693.849	0.0168114
693.927	0.0166704
694.005	0.0166067
694.083	0.0165672
694.161	0.0164793
694.239	0.0165012
694.317	0.0164103
694.396	0.0166000
694.474	0.0164393
694.552	0.0163836
694.630	0.0164050
694.708	0.0164296
694.786	0.0163104
694.864	0.0162621
694.942	0.0162473
695.021	0.0164084
695.099	0.0164168
695.177	0.0163459
695.255	0.0162866
695.333	0.0162273
695.411	0.0163658
695.489	0.0163704
695.567	0.0164548
695.646	0.0165449
695.724	0.0165340
695.802	0.0164531
695.880	0.0165901
695.958	0.0166608
696.036	0.0167057
696.114	0.0166692
696.192	0.0166373
696.271	0.0168475
696.349	0.0168674
696.427	0.0168799
696.505	0.0169577
696.583	0.0169160
696.661	0.0170850
696.739	0.0170181
696.817	0.0169948
696.896	0.0169528
696.974	0.0170198
697.052	0.0169762
697.130	0.0169722
697.208	0.0170319
697.286	0.0171433
697.364	0.0172011
697.442	0.0171336
697.521	0.0171001
697.599	0.0170531
697.677	0.0169950
697.755	0.0171298
697.833	0.0170177
697.911	0.0169965
697.989	0.0171433
698.067	0.0171037
698.146	0.0170635
698.224	0.0169621
698.302	0.0168926
698.380	0.0169237
698.458	0.0170798
698.536	0.0169478
698.614	0.0168919
698.692	0.0168349
698.771	0.0167985
698.849	0.0169392
698.927	0.0168385
699.005	0.0167921
699.083	0.0168728
699.161	0.0168987
699.239	0.0169267
699.317	0.0171491
699.396	0.0172352
699.474	0.0171465
699.552	0.0170892
699.630	0.0172753
699.708	0.0173585
699.786	0.0172433
699.864	0.0174093
699.942	0.0174517
700.021	0.0175098
700.099	0.0176364
700.177	0.0176536
700.255	0.0176556
700.333	0.0175285
700.411	0.0176049
700.489	0.0175998
700.567	0.0176825
700.646	0.0176051
700.724	0.0175289
700.802	0.0175684
700.880	0.0174662
700.958	0.0174384
701.036	0.0173476
701.114	0.0175603
701.192	0.0173164
701.271	0.0171152
701.349	0.0171448
701.427	0.0171164
701.505	0.0170241
701.583	0.0169659
701.661	0.0167387
701.739	0.0166482
701.817	0.0165979
701.896	0.0166256
701.974	0.0165761
702.052	0.0164028
702.130	0.0163294
702.208	0.0164453
702.286	0.0164410
702.364	0.0162041
702.442	0.0163419
702.521	0.0161276
702.599	0.0161788
702.677	0.0163501
702.755	0.0162062
702.833	0.0161789
702.911	0.0160951
702.989	0.0162447
703.067	0.0163537
703.146	0.0163873
703.224	0.0162572
703.302	0.0165017
703.380	0.0164742
703.458	0.0162771
703.536	0.0164949
703.614	0.0165578
703.692	0.0165079
703.771	0.0165020
703.849	0.0166305
703.927	0.0167036
704.005	0.0165096
704.083	0.0168463
704.161	0.0165260
704.239	0.0167484
704.317	0.0167262
704.396	0.0167366
704.474	0.0168488
704.552	0.0166167
704.630	0.0166582
704.708	0.0165540
704.786	0.0165826
704.864	0.0166697
704.942	0.0165630
705.021	0.0164275
705.099	0.0164153
705.177	0.0163889
705.255	0.0162648
705.333	0.0162646
705.411	0.0163698
705.489	0.0162962
705.567	0.0164246
705.646	0.0162046
705.724	0.0161696
705.802	0.0164865
705.880	0.0163602
705.958	0.0162727
706.036	0.0164371
706.114	0.0164538
706.192	0.0165147
706.271	0.0165459
706.349	0.0164907
706.427	0.0165674
706.505	0.0166692
706.583	0.0165927
706.661	0.0165552
706.739	0.0166940
706.817	0.0166438
706.896	0.0166349
706.974	0.0169278
707.052	0.0167090
707.130	0.0167857
707.208	0.0167525
707.286	0.0169170
707.364	0.0167943
707.442	0.0167244
707.521	0.0168285
707.599	0.0166727
707.677	0.0168601
707.755	0.0169918
707.833	0.0167396
707.911	0.0166419
707.989	0.0167502
708.067	0.0166252
708.146	0.0166696
708.224	0.0165513
708.302	0.0166197
708.380	0.0165992
708.458	0.0165659
708.536	0.0166288
708.614	0.0164967
708.692	0.0166653
708.771	0.0166997
708.849	0.0165524
708.927	0.0164996
709.005	0.0166355
709.083	0.0166582
709.161	0.0166935
709.239	0.0166185
709.317	0.0166250
709.396	0.0166935
709.474	0.0167468
709.552	0.0166961
709.630	0.0166737
709.708	0.0167770
709.786	0.0167805
709.864	0.0166531
709.942	0.0167656
710.021	0.0168672
710.099	0.0169619
710.177	0.0168755
710.255	0.0169436
710.333	0.0168596
710.411	0.0169415
710.489	0.0170744
710.567	0.0170345
710.646	0.0168704
710.724	0.0169704
710.802	0.0169649
710.880	0.0169000
710.958	0.0169702
711.036	0.0168306
711.114	0.0169244
711.192	0.0168716
711.271	0.0169411
711.349	0.0168475
711.427	0.0167300
711.505	0.0166939
711.583	0.0166672
711.661	0.0167162
711.739	0.0167846
711.817	0.0166289
711.896	0.0166349
711.974	0.0165371
712.052	0.0166739
712.130	0.0166665
712.208	0.0165739
712.286	0.0166679
712.364	0.0167522
712.442	0.0165359
712.521	0.0165211
712.599	0.0164752
712.677	0.0164621
712.755	0.0166018
712.833	0.0166761
712.911	0.0165569
712.989	0.0166569
713.067	0.0165661
713.146	0.0165939
713.224	0.0164892
713.302	0.0166451
713.380	0.0166041
713.458	0.0166079
713.536	0.0166057
713.614	0.0166295
713.692	0.0166566
713.771	0.0165148
713.849	0.0165667
713.927	0.0166389
714.005	0.0165227
714.083	0.0164899
714.161	0.0164660
714.239	0.0164473
714.317	0.0164479
714.396	0.0165536
714.474	0.0164665
714.552	0.0164532
714.630	0.0164994
714.708	0.0163972
714.786	0.0164185
714.864	0.0163987
714.942	0.0162664
715.021	0.0162412
715.099	0.0162842
715.177	0.0162858
715.255	0.0161549
715.333	0.0161131
715.411	0.0161402
715.489	0.0160235
715.567	0.0160358
715.646	0.0161084
715.724	0.0160664
715.802	0.0159566
715.880	0.0159097
715.958	0.0159461
716.036	0.0160268
716.114	0.0158524
716.192	0.0157664
716.271	0.0158638
716.349	0.0158163
716.427	0.0158303
716.505	0.0157185
716.583	0.0158014
716.661	0.0158501
716.739	0.0159927
716.817	0.0160274
716.896	0.0159430
716.974	0.0159998
717.052	0.0159638
717.130	0.0161878
717.208	0.0161140
717.286	0.0162147
717.364	0.0164088
717.442	0.0161584
717.521	0.0162527
717.599	0.0163672
717.677	0.0164595
717.755	0.0164807
717.833	0.0164254
717.911	0.0164230
717.989	0.0165479
718.067	0.0166114
718.146	0.0164417
718.224	0.0164547
718.302	0.0164999
718.380	0.0166244
718.458	0.0166217
718.536	0.0165141
718.614	0.0164725
718.692	0.0165482
718.771	0.0165659
718.849	0.0166415
718.927	0.0166767
719.005	0.0167540
719.083	0.0168132
719.161	0.0169681
719.239	0.0170272
719.317	0.0170442
719.396	0.0170596
719.474	0.0173285
719.552	0.0174048
719.630	0.0175912
719.708	0.0175620
719.786	0.0177120
719.864	0.0176799
719.942	0.0176402
720.021	0.0176707
720.099	0.0176397
720.177	0.0176605
720.255	0.0176249
720.333	0.0174942
720.411	0.0175021
720.489	0.0175231
720.567	0.0174456
720.646	0.0174783
720.724	0.0175233
720.802	0.0174393
720.880	0.0173886
720.958	0.0173414
721.036	0.0171466
721.114	0.0172784
721.192	0.0173788
721.271	0.0173365
721.349	0.0173064
721.427	0.0173470
721.505	0.0171371
721.583	0.0173803
721.661	0.0172353
721.739	0.0172137
721.817	0.0172494
721.896	0.0170235
721.974	0.0171770
722.052	0.0170356
722.130	0.0170990
722.208	0.0169111
722.286	0.0168048
722.364	0.0169723
722.442	0.0167758
722.521	0.0167946
722.599	0.0167205
722.677	0.0166187
722.755	0.0164006
722.833	0.0163104
722.911	0.0164132
722.989	0.0165084
723.067	0.0162955
723.146	0.0163331
723.224	0.0163135
723.302	0.0163946
723.380	0.0165324
723.458	0.0165980
723.536	0.0168668
723.614	0.0169217
723.692	0.0170588
723.771	0.0172348
723.849	0.0174426
723.927	0.0177460
724.005	0.0180403
724.083	0.0180457
724.161	0.0182343
724.239	0.0183740
724.317	0.0184990
724.396	0.0184424
724.474	0.0182777
724.552	0.0184289
724.630	0.0182294
724.708	0.0180867
724.786	0.0180641
724.864	0.0178828
724.942	0.0174892
725.021	0.0174441
725.099	0.0172103
725.177	0.0170317
725.255	0.0167886
725.333	0.0166466
725.411	0.0162893
725.489	0.0161323
725.567	0.0157861
725.646	0.0155808
725.724	0.0155601
725.802	0.0152579
725.880	0.0152112
725.958	0.0152837
726.036	0.0151794
726.114	0.0150603
726.192	0.0152013
726.271	0.0151155
726.349	0.0153248
726.427	0.0152666
726.505	0.0153233
726.583	0.0156612
726.661	0.0156756
726.739	0.0158015
726.817	0.0160854
726.896	0.0161429
726.974	0.0162563
727.052	0.0164214
727.130	0.0165417
727.208	0.0167856
727.286	0.0168938
727.364	0.0169584
727.442	0.0169855
727.521	0.0171159
727.599	0.0171155
727.677	0.0173389
727.755	0.0171711
727.833	0.0172005
727.911	0.0173827
727.989	0.0174506
728.067	0.0173450
728.146	0.0172024
728.224	0.0174013
728.302	0.0172182
728.380	0.0170888
728.458	0.0172163
728.536	0.0171987
728.614	0.0171486
728.692	0.0171085
728.771	0.0169974
728.849	0.0170276
728.927	0.0170754
729.005	0.0171867
729.083	0.0170023
729.161	0.0171105
729.239	0.0171356
729.317	0.0171585
729.396	0.0171612
729.474	0.0170959
729.552	0.0170335
729.630	0.0172681
729.708	0.0173303
729.786	0.0170832
729.864	0.0171717
729.942	0.0171763
730.021	0.0171159
730.099	0.0170878
730.177	0.0170986
730.255	0.0171118
730.333	0.0171042
730.411	0.0170808
730.489	0.0171350
730.567	0.0170363
730.646	0.0170470
730.724	0.0169224
730.802	0.0167558
730.880	0.0167881
730.958	0.0167485
731.036	0.0165498
731.114	0.0164579
731.192	0.0163813
731.271	0.0162798
731.349	0.0162789
731.427	0.0160719
731.505	0.0160281
731.583	0.0159104
731.661	0.0159605
731.739	0.0158160
731.817	0.0159667
731.896	0.0159283
731.974	0.0158210
732.052	0.0157758
732.130	0.0159836
732.208	0.0160394
732.286	0.0161671
732.364	0.0161048
732.442	0.0162509
732.521	0.0163072
732.599	0.0165810
732.677	0.0166337
732.755	0.0166010
732.833	0.0167972
732.911	0.0167353
732.989	0.0167545
733.067	0.0168356
733.146	0.0166978
733.224	0.0167641
733.302	0.0168639
733.380	0.0170278
733.458	0.0167697
733.536	0.0167004
733.614	0.0167094
733.692	0.0167867
733.771	0.0165816
733.849	0.0166573
733.927	0.0167159
734.005	0.0166410
734.083	0.0168374
734.161	0.0168150
734.239	0.0166464
734.317	0.0166028
734.396	0.0166953
734.474	0.0169553
734.552	0.0169865
734.630	0.0169421
734.708	0.0169073
734.786	0.0169577
734.864	0.0168925
734.942	0.0166184
735.021	0.0167529
735.099	0.0165623
735.177	0.0164793
735.255	0.0164038
735.333	0.0162177
735.411	0.0162923
735.489	0.0162434
735.567	0.0161572
735.646	0.0159800
735.724	0.0159577
735.802	0.0161091
735.880	0.0160986
735.958	0.0161474
736.036	0.0162708
736.114	0.0163571
736.192	0.0164220
736.271	0.0164526
736.349	0.0166245
736.427	0.0167697
736.505	0.0169080
736.583	0.0166339
736.661	0.0167374
736.739	0.0167886
736.817	0.0167670
736.896	0.0167059
736.974	0.0165224
737.052	0.0165486
737.130	0.0162929
737.208	0.0164030
737.286	0.0163352
737.364	0.0162155
737.442	0.0161794
737.521	0.0161683
737.599	0.0160524
737.677	0.0160749
737.755	0.0159823
737.833	0.0160506
737.911	0.0159708
737.989	0.0160218
738.067	0.0161972
738.146	0.0161079
738.224	0.0163231
738.302	0.0160841
738.380	0.0162983
738.458	0.0163401
738.536	0.0163182
738.614	0.0165007
738.692	0.0165884
738.771	0.0165447
738.849	0.0166911
738.927	0.0167477
739.005	0.0168796
739.083	0.0168295
739.161	0.0168253
739.239	0.0169045
739.317	0.0167227
739.396	0.0169180
739.474	0.0166936
739.552	0.0167620
739.630	0.0167666
739.708	0.0167560
739.786	0.0164777
739.864	0.0166009
739.942	0.0165559
740.021	0.0164668
740.099	0.0164005
740.177	0.0164848
740.255	0.0163874
740.333	0.0163249
740.411	0.0163750
740.489	0.0164349
740.567	0.0164404
740.646	0.0163245
740.724	0.0164516
740.802	0.0166164
740.880	0.0166286
740.958	0.0165937
741.036	0.0166259
741.114	0.0168055
741.192	0.0167397
741.271	0.0167310
741.349	0.0168270
741.427	0.0167817
741.505	0.0168365
741.583	0.0168721
741.661	0.0167838
741.739	0.0167725
741.817	0.0168353
741.896	0.0168040
741.974	0.0166523
742.052	0.0166745
742.130	0.0165243
742.208	0.0164959
742.286	0.0166181
742.364	0.0165047
742.442	0.0165590
742.521	0.0165060
742.599	0.0164809
742.677	0.0163902
742.755	0.0163908
742.833	0.0165942
742.911	0.0165658
742.989	0.0165674
743.067	0.0165192
743.146	0.0166502
743.224	0.0165771
743.302	0.0165605
743.380	0.0166180
743.458	0.0166357
743.536	0.0166348
743.614	0.0167699
743.692	0.0169147
743.771	0.0168456
743.849	0.0167499
743.927	0.0167284
744.005	0.0167673
744.083	0.0167269
744.161	0.0167282
744.239	0.0169007
744.317	0.0167604
744.396	0.0166956
744.474	0.0168794
744.552	0.0167223
744.630	0.0166869
744.708	0.0168004
744.786	0.0167017
744.864	0.0167781
744.942	0.0169235
745.021	0.0168607
745.099	0.0168867
745.177	0.0169864
745.255	0.0169378
745.333	0.0170171
745.411	0.0171400
745.489	0.0170145
745.567	0.0171676
745.646	0.0172273
745.724	0.0172666
745.802	0.0171700
745.880	0.0172780
745.958	0.0174033
746.036	0.0171359
746.114	0.0171954
746.192	0.0172308
746.271	0.0171161
746.349	0.0170876
746.427	0.0169891
746.505	0.0170291
746.583	0.0167943
746.661	0.0165003
746.739	0.0165527
746.817	0.0166772
746.896	0.0163805
746.974	0.0163954
747.052	0.0161938
747.130	0.0161525
747.208	0.0159436
747.286	0.0159200
747.364	0.0158839
747.442	0.0159126
747.521	0.0157237
747.599	0.0157093
747.677	0.0156491
747.755	0.0157401
747.833	0.0158618
747.911	0.0157223
747.989	0.0158117
748.067	0.0158613
748.146	0.0157294
748.224	0.0158443
748.302	0.0159408
748.380	0.0160781
748.458	0.0162511
748.536	0.0161098
748.614	0.0162836
748.692	0.0163420
748.771	0.0164240
748.849	0.0163837
748.927	0.0164660
749.005	0.0164696
749.083	0.0166264
749.161	0.0167915
749.239	0.0167448
749.317	0.0166673
749.396	0.0167365
749.474	0.0166801
749.552	0.0165883
749.630	0.0166379
749.708	0.0167500
749.786	0.0167090
749.864	0.0166095
749.942	0.0166704
750.021	0.0167191
750.099	0.0166380
750.177	0.0167214
750.255	0.0165707
750.333	0.0164275
750.411	0.0165235
750.489	0.0165259
750.567	0.0165411
750.646	0.0163890
750.724	0.0163892
750.802	0.0166096
750.880	0.0165092
750.958	0.0166191
751.036	0.0165587
751.114	0.0165620
751.192	0.0164902
751.271	0.0166489
751.349	0.0166339
751.427	0.0166966
751.505	0.0166845
751.583	0.0167723
751.661	0.0165917
751.739	0.0167316
751.817	0.0169696
751.896	0.0168443
751.974	0.0168246
752.052	0.0168648
752.130	0.0168282
752.208	0.0167481
752.286	0.0167598
752.364	0.0169699
752.442	0.0170393
752.521	0.0169043
752.599	0.0169633
752.677	0.0171232
752.755	0.0170637
752.833	0.0169063
752.911	0.0171323
752.989	0.0170734
753.067	0.0172136
753.146	0.0172369
753.224	0.0172366
753.302	0.0173399
753.380	0.0172811
753.458	0.0171877
753.536	0.0172554
753.614	0.0173073
753.692	0.0172250
753.771	0.0171146
753.849	0.0171288
753.927	0.0169595
754.005	0.0170362
754.083	0.0170818
754.161	0.0169383
754.239	0.0168305
754.317	0.0167630
754.396	0.0166926
754.474	0.0166817
754.552	0.0165733
754.630	0.0166237
754.708	0.0167574
754.786	0.0164459
754.864	0.0166159
754.942	0.0167081
755.021	0.0167194
755.099	0.0164433
755.177	0.0166873
755.255	0.0166128
755.333	0.0165195
755.411	0.0165789
755.489	0.0165967
755.567	0.0166071
755.646	0.0166285
755.724	0.0166134
755.802	0.0166428
755.880	0.0165038
755.958	0.0166639
756.036	0.0167078
756.114	0.0166650
756.192	0.0167060
756.271	0.0167864
756.349	0.0168011
756.427	0.0167161
756.505	0.0169601
756.583	0.0170391
756.661	0.0170694
756.739	0.0168201
756.817	0.0172640
756.896	0.0171140
756.974	0.0171220
757.052	0.0170998
757.130	0.0170015
757.208	0.0172497
757.286	0.0172971
757.364	0.0171979
757.442	0.0171674
757.521	0.0170506
757.599	0.0172549
757.677	0.0172368
757.755	0.0171053
757.833	0.0171827
757.911	0.0171579
757.989	0.0170573
758.067	0.0171213
758.146	0.0171013
758.224	0.0170768
758.302	0.0169817
758.380	0.0171463
758.458	0.0169017
758.536	0.0169441
758.614	0.0169589
758.692	0.0169485
758.771	0.0169203
758.849	0.0169100
758.927	0.0166912
759.005	0.0167274
759.083	0.0167863
759.161	0.0166560
759.239	0.0166920
759.317	0.0166783
759.396	0.0166187
759.474	0.0166867
759.552	0.0165954
759.630	0.0166451
759.708	0.0165789
759.786	0.0164365
759.864	0.0165275
759.942	0.0165137
760.021	0.0163463
760.099	0.0163931
760.177	0.0164758
760.255	0.0163623
760.333	0.0162173
760.411	0.0163252
760.489	0.0162973
760.567	0.0161361
760.646	0.0163304
760.724	0.0163638
760.802	0.0162089
760.880	0.0163190
760.958	0.0162473
761.036	0.0161796
761.114	0.0163074
761.192	0.0163750
761.271	0.0162651
761.349	0.0164494
761.427	0.0163068
761.505	0.0163638
761.583	0.0163020
761.661	0.0163610
761.739	0.0164338
761.817	0.0164516
761.896	0.0165440
761.974	0.0165334
762.052	0.0163978
762.130	0.0164297
762.208	0.0165671
762.286	0.0165635
762.364	0.0165084
762.442	0.0166591
762.521	0.0166317
762.599	0.0167152
762.677	0.0166988
762.755	0.0167979
762.833	0.0167324
762.911	0.0168549
762.989	0.0168325
763.067	0.0169798
763.146	0.0168208
763.224	0.0167619
763.302	0.0168032
763.380	0.0168918
763.458	0.0168523
763.536	0.0167939
763.614	0.0167183
763.692	0.0169041
763.771	0.0167828
763.849	0.0168020
763.927	0.0167679
764.005	0.0165272
764.083	0.0167045
764.161	0.0166199
764.239	0.0165958
764.317	0.0166233
764.396	0.0166099
764.474	0.0166644
764.552	0.0165047
764.630	0.0167033
764.708	0.0166210
764.786	0.0166773
764.864	0.0167384
764.942	0.0167542
765.021	0.0166512
765.099	0.0166076
765.177	0.0167513
765.255	0.0168028
765.333	0.0167081
765.411	0.0166499
765.489	0.0166566
765.567	0.0167103
765.646	0.0166673
765.724	0.0168222
765.802	0.0168221
765.880	0.0167625
765.958	0.0169260
766.036	0.0168586
766.114	0.0168593
766.192	0.0169458
766.271	0.0170105
766.349	0.0168861
766.427	0.0170108
766.505	0.0171171
766.583	0.0170153
766.661	0.0172380
766.739	0.0171561
766.817	0.0171415
766.896	0.0172995
766.974	0.0172529
767.052	0.0171530
767.130	0.0173190
767.208	0.0171986
767.286	0.0172237
767.364	0.0171304
767.442	0.0170376
767.521	0.0170946
767.599	0.0169809
767.677	0.0168968
767.755	0.0170374
767.833	0.0169969
767.911	0.0167779
767.989	0.0169004
768.067	0.0168609
768.146	0.0167908
768.224	0.0166071
768.302	0.0168147
768.380	0.0166120
768.458	0.0165998
768.536	0.0166058
768.614	0.0165579
768.692	0.0166903
768.771	0.0166720
768.849	0.0165424
768.927	0.0166083
769.005	0.0165977
769.083	0.0166302
769.161	0.0165119
769.239	0.0166405
769.317	0.0167395
769.396	0.0165627
769.474	0.0166176
769.552	0.0167344
769.630	0.0167481
769.708	0.0165928
769.786	0.0164999
769.864	0.0166190
769.942	0.0165147
770.021	0.0164458
770.099	0.0163013
770.177	0.0162888
770.255	0.0162911
770.333	0.0160795
770.411	0.0160493
770.489	0.0159577
770.567	0.0158111
770.646	0.0158716
770.724	0.0158649
770.802	0.0158878
770.880	0.0158854
770.958	0.0158102
771.036	0.0158147
771.114	0.0158642
771.192	0.0158952
771.271	0.0158238
771.349	0.0159483
771.427	0.0160314
771.505	0.0161282
771.583	0.0162000
771.661	0.0163581
771.739	0.0164044
771.817	0.0163195
771.896	0.0164950
771.974	0.0165202
772.052	0.0165862
772.130	0.0166768
772.208	0.0168224
772.286	0.0168028
772.364	0.0167242
772.442	0.0167015
772.521	0.0167009
772.599	0.0168194
772.677	0.0168027
772.755	0.0167010
772.833	0.0166895
772.911	0.0166701
772.989	0.0167696
773.067	0.0166943
773.146	0.0165694
773.224	0.0167634
773.302	0.0166991
773.380	0.0164708
773.458	0.0167184
773.536	0.0166637
773.614	0.0166298
773.692	0.0166224
773.771	0.0167293
773.849	0.0166243
773.927	0.0166042
774.005	0.0164585
774.083	0.0165315
774.161	0.0164620
774.239	0.0163661
774.317	0.0164261
774.396	0.0164890
774.474	0.0164603
774.552	0.0162894
774.630	0.0164077
774.708	0.0162435
774.786	0.0161411
774.864	0.0162195
774.942	0.0163480
775.021	0.0162733
775.099	0.0163702
775.177	0.0161661
775.255	0.0162655
775.333	0.0162280
775.411	0.0163911
775.489	0.0163614
775.567	0.0164254
775.646	0.0164565
775.724	0.0164671
775.802	0.0164423
775.880	0.0166209
775.958	0.0166251
776.036	0.0166048
776.114	0.0167007
776.192	0.0169126
776.271	0.0168674
776.349	0.0169891
776.427	0.0169618
776.505	0.0169131
776.583	0.0169675
776.661	0.0170109
776.739	0.0170892
776.817	0.0171247
776.896	0.0171684
776.974	0.0173239
777.052	0.0171217
777.130	0.0172597
777.208	0.0171829
777.286	0.0172624
777.364	0.0173522
777.442	0.0174821
777.521	0.0172510
777.599	0.0173514
777.677	0.0174170
777.755	0.0175457
777.833	0.0173933
777.911	0.0172991
777.989	0.0173573
778.067	0.0174480
778.146	0.0174658
778.224	0.0172295
778.302	0.0173058
778.380	0.0172895
778.458	0.0171860
778.536	0.0172198
778.614	0.0171478
778.692	0.0171118
778.771	0.0169990
778.849	0.0171776
778.927	0.0171470
779.005	0.0170711
779.083	0.0169881
779.161	0.0169014
779.239	0.0168508
779.317	0.0170174
779.396	0.0171265
779.474	0.0169206
779.552	0.0170092
779.630	0.0170716
779.708	0.0171336
779.786	0.0170177
779.864	0.0169420
779.942	0.0170138
780.021	0.0171220
780.099	0.0170207
780.177	0.0170521
780.255	0.0172630
780.333	0.0170351
780.411	0.0168571
780.489	0.0168912
780.567	0.0168859
780.646	0.0168295
780.724	0.0167844
780.802	0.0166343
780.880	0.0167657
780.958	0.0167278
781.036	0.0166163
781.114	0.0166384
781.192	0.0164923
781.271	0.0164970
781.349	0.0164168
781.427	0.0165259
781.505	0.0162692
781.583	0.0162695
781.661	0.0163183
781.739	0.0163387
781.817	0.0162556
781.896	0.0161911
781.974	0.0162550
782.052	0.0162480
782.130	0.0163607
782.208	0.0162600
782.286	0.0162331
782.364	0.0162775
782.442	0.0163051
782.521	0.0163521
782.599	0.0163506
782.677	0.0162299
782.755	0.0163522
782.833	0.0162296
782.911	0.0162955
782.989	0.0164223
783.067	0.0164159
783.146	0.0164006
783.224	0.0164193
783.302	0.0164376
783.380	0.0164098
783.458	0.0164572
783.536	0.0166767
783.614	0.0168349
783.692	0.0167512
783.771	0.0166125
783.849	0.0167650
783.927	0.0166895
784.005	0.0167488
784.083	0.0167810
784.161	0.0167710
784.239	0.0168606
784.317	0.0166140
784.396	0.0167751
784.474	0.0168071
784.552	0.0167837
784.630	0.0166816
784.708	0.0165692
784.786	0.0166355
784.864	0.0166238
784.942	0.0168075
785.021	0.0165367
785.099	0.0166221
785.177	0.0165778
785.255	0.0167143
785.333	0.0165226
785.411	0.0166831
785.489	0.0164890
785.567	0.0166557
785.646	0.0168044
785.724	0.0168423
785.802	0.0168346
785.880	0.0169086
785.958	0.0168760
786.036	0.0168075
786.114	0.0167509
786.192	0.0168231
786.271	0.0169328
786.349	0.0169566
786.427	0.0168584
786.505	0.0168594
786.583	0.0169386
786.661	0.0169775
786.739	0.0167410
786.817	0.0168134
786.896	0.0167823
786.974	0.0168020
787.052	0.0168420
787.130	0.0168463
787.208	0.0166606
787.286	0.0167430
787.364	0.0167610
787.442	0.0167120
787.521	0.0166321
787.599	0.0167529
787.677	0.0168303
787.755	0.0167326
787.833	0.0166138
787.911	0.0166826
787.989	0.0168545
788.067	0.0168488
788.146	0.0168605
788.224	0.0168258
788.302	0.0167525
788.380	0.0169331
788.458	0.0169231
788.536	0.0168595
788.614	0.0169237
788.692	0.0170075
788.771	0.0168792
788.849	0.0170672
788.927	0.0170024
789.005	0.0170378
789.083	0.0170549
789.161	0.0169089
789.239	0.0169670
789.317	0.0170103
789.396	0.0169783
789.474	0.0169827
789.552	0.0169096
789.630	0.0169210
789.708	0.0169829
789.786	0.0168612
789.864	0.0170739
789.942	0.0168495
790.021	0.0167171
790.099	0.0168094
790.177	0.0168642
790.255	0.0167394
790.333	0.0167499
790.411	0.0167516
790.489	0.0167520
790.567	0.0168061
790.646	0.0166628
790.724	0.0165894
790.802	0.0165685
790.880	0.0167680
790.958	0.0165607
791.036	0.0165370
791.114	0.0165385
791.192	0.0165835
791.271	0.0166787
791.349	0.0165468
791.427	0.0166014
791.505	0.0165290
791.583	0.0166162
791.661	0.0164680
791.739	0.0164271
791.817	0.0162186
791.896	0.0163577
791.974	0.0164667
792.052	0.0164236
792.130	0.0163747
792.208	0.0164311
792.286	0.0163737
792.364	0.0164646
792.442	0.0165045
792.521	0.0164271
792.599	0.0166304
792.677	0.0164675
792.755	0.0165623
792.833	0.0166242
792.911	0.0166777
792.989	0.0168568
793.067	0.0168417
793.146	0.0169460
793.224	0.0169536
793.302	0.0169805
793.380	0.0168413
793.458	0.0168910
793.536	0.0171990
793.614	0.0171124
793.692	0.0172392
793.771	0.0172142
793.849	0.0171717
793.927	0.0171194
794.005	0.0172567
794.083	0.0172540
794.161	0.0172120
794.239	0.0171001
794.317	0.0170650
794.396	0.0170911
794.474	0.0170555
794.552	0.0170269
794.630	0.0170695
794.708	0.0171512
794.786	0.0170878
794.864	0.0170212
794.942	0.0168948
795.021	0.0168372
795.099	0.0168472
795.177	0.0167800
795.255	0.0169764
795.333	0.0169302
795.411	0.0168382
795.489	0.0169363
795.567	0.0167645
795.646	0.0169437
795.724	0.0167384
795.802	0.0168655
795.880	0.0167758
795.958	0.0167023
796.036	0.0166662
796.114	0.0168067
796.192	0.0166832
796.271	0.0166587
796.349	0.0167239
796.427	0.0166895
796.505	0.0167464
796.583	0.0167304
796.661	0.0167459
796.739	0.0167758
796.817	0.0165418
796.896	0.0168002
796.974	0.0168748
797.052	0.0169521
797.130	0.0167740
797.208	0.0168140
797.286	0.0166926
797.364	0.0167872
797.442	0.0167437
797.521	0.0168159
797.599	0.0166497
797.677	0.0167323
797.755	0.0167102
797.833	0.0165382
797.911	0.0166167
797.989	0.0166124
798.067	0.0165343
798.146	0.0165751
798.224	0.0165445
798.302	0.0165608
798.380	0.0163757
798.458	0.0164252
798.536	0.0164703
798.614	0.0165162
798.692	0.0162561
798.771	0.0164005
798.849	0.0163554
798.927	0.0162700
799.005	0.0165554
799.083	0.0165304
799.161	0.0165033
799.239	0.0164912
799.317	0.0165368
799.396	0.0165401
799.474	0.0165588
799.552	0.0164678
799.630	0.0165231
799.708	0.0164439
799.786	0.0166178
799.864	0.0164087
799.942	0.0163593
800.021	0.0164482
800.099	0.0165555
800.177	0.0163222
800.255	0.0164379
800.333	0.0163181
800.411	0.0163757
800.489	0.0163650
800.567	0.0164532
800.646	0.0163366
800.724	0.0163652
800.802	0.0163754
800.880	0.0163831
800.958	0.0163698
801.036	0.0162777
801.114	0.0163425
801.192	0.0163216
801.271	0.0164442
801.349	0.0163615
801.427	0.0162688
801.505	0.0163913
801.583	0.0163656
801.661	0.0164114
801.739	0.0165503
801.817	0.0164314
801.896	0.0163502
801.974	0.0163948
802.052	0.0165018
802.130	0.0164277
802.208	0.0164113
802.286	0.0164531
802.364	0.0164999
802.442	0.0164169
802.521	0.0164625
802.599	0.0165028
802.677	0.0165756
802.755	0.0166136
802.833	0.0165433
802.911	0.0166692
802.989	0.0165535
803.067	0.0167053
803.146	0.0166984
803.224	0.0167491
803.302	0.0166617
803.380	0.0167037
803.458	0.0167095
803.536	0.0168581
803.614	0.0167113
803.692	0.0166851
803.771	0.0166940
803.849	0.0167394
803.927	0.0168514
804.005	0.0166837
804.083	0.0167435
804.161	0.0167859
804.239	0.0167751
804.317	0.0165593
804.396	0.0166681
804.474	0.0165110
804.552	0.0167762
804.630	0.0165600
804.708	0.0166583
804.786	0.0166390
804.864	0.0166847
804.942	0.0166409
805.021	0.0165018
805.099	0.0165591
805.177	0.0165633
805.255	0.0165765
805.333	0.0165968
805.411	0.0165283
805.489	0.0166050
805.567	0.0164141
805.646	0.0164874
805.724	0.0165136
805.802	0.0163666
805.880	0.0163734
805.958	0.0164577
806.036	0.0164459
806.114	0.0163644
806.192	0.0162720
806.271	0.0162189
806.349	0.0163137
806.427	0.0164346
806.505	0.0163181
806.583	0.0163947
806.661	0.0161699
806.739	0.0164407
806.817	0.0163087
806.896	0.0163419
806.974	0.0165051
807.052	0.0163025
807.130	0.0164828
807.208	0.0163303
807.286	0.0162872
807.364	0.0164740
807.442	0.0164758
807.521	0.0163753
807.599	0.0166238
807.677	0.0165137
807.755	0.0164755
807.833	0.0164217
807.911	0.0164945
807.989	0.0164218
808.067	0.0164192
808.146	0.0165082
808.224	0.0163055
808.302	0.0165041
808.380	0.0164264
808.458	0.0162508
808.536	0.0163144
808.614	0.0163088
808.692	0.0163289
808.771	0.0164057
808.849	0.0163476
808.927	0.0162748
809.005	0.0163531
809.083	0.0164346
809.161	0.0163857
809.239	0.0164339
809.317	0.0164194
809.396	0.0165392
809.474	0.0165511
809.552	0.0163390
809.630	0.0166581
809.708	0.0166676
809.786	0.0166157
809.864	0.0168112
809.942	0.0169584
810.021	0.0169047
810.099	0.0169958
810.177	0.0170599
810.255	0.0170435
810.333	0.0173235
810.411	0.0172390
810.489	0.0172617
810.567	0.0173700
810.646	0.0172454
810.724	0.0172907
810.802	0.0174392
810.880	0.0174511
810.958	0.0174554
811.036	0.0174139
811.114	0.0174245
811.192	0.0174192
811.271	0.0175290
811.349	0.0172967
811.427	0.0173579
811.505	0.0172693
811.583	0.0173350
811.661	0.0173122
811.739	0.0172897
811.817	0.0171551
811.896	0.0171700
811.974	0.0170963
812.052	0.0171677
812.130	0.0170336
812.208	0.0170525
812.286	0.0170806
812.364	0.0170491
812.442	0.0171019
812.521	0.0170052
812.599	0.0169966
812.677	0.0170600
812.755	0.0169289
812.833	0.0169597
812.911	0.0170009
812.989	0.0170372
813.067	0.0169566
813.146	0.0167524
813.224	0.0168375
813.302	0.0167711
813.380	0.0168667
813.458	0.0168152
813.536	0.0168706
813.614	0.0168652
813.692	0.0169714
813.771	0.0168107
813.849	0.0167424
813.927	0.0167764
814.005	0.0165554
814.083	0.0165607
814.161	0.0166058
814.239	0.0165521
814.317	0.0164786
814.396	0.0163791
814.474	0.0164378
814.552	0.0164452
814.630	0.0164858
814.708	0.0162428
814.786	0.0161320
814.864	0.0161930
814.942	0.0161614
815.021	0.0163928
815.099	0.0163721
815.177	0.0163396
815.255	0.0164492
815.333	0.0163710
815.411	0.0166197
815.489	0.0164507
815.567	0.0165361
815.646	0.0167563
815.724	0.0168236
815.802	0.0169449
815.880	0.0169264
815.958	0.0169848
816.036	0.0169473
816.114	0.0170827
816.192	0.0171507
816.271	0.0172623
816.349	0.0173038
816.427	0.0172800
816.505	0.0172990
816.583	0.0174123
816.661	0.0173111
816.739	0.0173161
816.817	0.0172694
816.896	0.0173856
816.974	0.0173693
817.052	0.0172672
817.130	0.0172327
817.208	0.0172324
817.286	0.0172207
817.364	0.0171668
817.442	0.0171732
817.521	0.0170842
817.599	0.0170493
817.677	0.0168893
817.755	0.0168076
817.833	0.0168373
817.911	0.0168001
817.989	0.0167215
818.067	0.0167152
818.146	0.0168105
818.224	0.0166640
818.302	0.0164999
818.380	0.0164553
818.458	0.0164100
818.536	0.0163567
818.614	0.0162453
818.692	0.0161928
818.771	0.0160913
818.849	0.0158997
818.927	0.0159579
819.005	0.0158636
819.083	0.0158549
819.161	0.0157191
819.239	0.0157052
819.317	0.0158097
819.396	0.0156875
819.474	0.0156654
819.552	0.0157160
819.630	0.0158042
819.708	0.0158990
819.786	0.0159861
819.864	0.0159394
819.942	0.0159750
820.021	0.0161223
820.099	0.0162148
820.177	0.0162051
820.255	0.0162357
820.333	0.0163477
820.411	0.0164833
820.489	0.0166211
820.567	0.0165517
820.646	0.0165774
820.724	0.0166503
820.802	0.0165109
820.880	0.0166076
820.958	0.0165915
821.036	0.0164052
821.114	0.0165226
821.192	0.0164833
821.271	0.0163083
821.349	0.0163888
821.427	0.0161528
821.505	0.0160915
821.583	0.0161265
821.661	0.0160298
821.739	0.0159586
821.817	0.0158371
821.896	0.0157374
821.974	0.0157581
822.052	0.0157301
822.130	0.0156597
822.208	0.0156750
822.286	0.0157466
822.364	0.0156789
822.442	0.0155248
822.521	0.0156745
822.599	0.0155498
822.677	0.0156468
822.755	0.0159016
822.833	0.0156803
822.911	0.0157761
822.989	0.0158589
823.067	0.0161045
823.146	0.0160398
823.224	0.0161187
823.302	0.0163299
823.380	0.0162988
823.458	0.0165420
823.536	0.0164398
823.614	0.0165749
823.692	0.0167419
823.771	0.0167424
823.849	0.0168989
823.927	0.0166864
824.005	0.0167496
824.083	0.0168893
824.161	0.0168327
824.239	0.0169636
824.317	0.0170736
824.396	0.0170614
824.474	0.0169850
824.552	0.0169957
824.630	0.0170401
824.708	0.0170627
824.786	0.0170402
824.864	0.0170105
824.942	0.0169906
825.021	0.0169717
825.099	0.0169849
825.177	0.0169638
825.255	0.0170061
825.333	0.0170407
825.411	0.0169051
825.489	0.0168528
825.567	0.0168819
825.646	0.0169353
825.724	0.0168459
825.802	0.0168483
825.880	0.0168264
825.958	0.0169440
826.036	0.0168459
826.114	0.0167441
826.192	0.0166843
826.271	0.0167656
826.349	0.0166310
826.427	0.0166872
826.505	0.0165365
826.583	0.0165714
826.661	0.0165343
826.739	0.0165613
826.817	0.0164555
826.896	0.0164390
826.974	0.0166514
827.052	0.0166266
827.130	0.0166335
827.208	0.0166475
827.286	0.0165633
827.364	0.0165577
827.442	0.0166068
827.521	0.0165689
827.599	0.0166181
827.677	0.0165887
827.755	0.0166330
827.833	0.0167216
827.911	0.0167323
827.989	0.0167567
828.067	0.0167824
828.146	0.0167470
828.224	0.0168193
828.302	0.0168885
828.380	0.0168484
828.458	0.0167786
828.536	0.0167346
828.614	0.0170539
828.692	0.0169878
828.771	0.0169927
828.849	0.0171486
828.927	0.0169974
829.005	0.0170719
829.083	0.0171993
829.161	0.0171925
829.239	0.0172321
829.317	0.0172217
829.396	0.0172223
829.474	0.0172636
829.552	0.0173015
829.630	0.0173245
829.708	0.0172165
829.786	0.0172177
829.864	0.0173669
829.942	0.0171727
830.021	0.0172049
830.099	0.0172268
830.177	0.0171663
830.255	0.0171586
830.333	0.0169552
830.411	0.0169977
830.489	0.0171320
830.567	0.0168598
830.646	0.0168564
830.724	0.0168248
830.802	0.0169008
830.880	0.0167232
830.958	0.0167619
831.036	0.0166348
831.114	0.0165697
831.192	0.0166196
831.271	0.0166875
831.349	0.0164906
831.427	0.0165286
831.505	0.0164635
831.583	0.0164664
831.661	0.0166492
831.739	0.0166166
831.817	0.0163729
831.896	0.0164791
831.974	0.0165443
832.052	0.0166287
832.130	0.0165653
832.208	0.0165961
832.286	0.0166138
832.364	0.0167468
832.442	0.0166753
832.521	0.0166743
832.599	0.0166393
832.677	0.0167226
832.755	0.0168011
832.833	0.0166409
832.911	0.0166842
832.989	0.0166824
833.067	0.0167059
833.146	0.0166772
833.224	0.0167202
833.302	0.0166163
833.380	0.0165993
833.458	0.0164818
833.536	0.0166891
833.614	0.0164529
833.692	0.0163897
833.771	0.0164755
833.849	0.0164254
833.927	0.0163799
834.005	0.0163860
834.083	0.0163644
834.161	0.0161835
834.239	0.0163837
834.317	0.0162656
834.396	0.0163285
834.474	0.0161514
834.552	0.0161250
834.630	0.0162452
834.708	0.0162249
834.786	0.0162601
834.864	0.0163543
834.942	0.0162827
835.021	0.0163917
835.099	0.0164045
835.177	0.0163127
835.255	0.0164420
835.333	0.0163112
835.411	0.0163687
835.489	0.0166765
835.567	0.0165850
835.646	0.0166228
835.724	0.0166954
835.802	0.0166373
835.880	0.0167612
835.958	0.0168391
836.036	0.0168649
836.114	0.0168839
836.192	0.0168810
836.271	0.0168994
836.349	0.0169116
836.427	0.0169526
836.505	0.0170310
836.583	0.0168296
836.661	0.0169093
836.739	0.0169012
836.817	0.0169498
836.896	0.0168597
836.974	0.0170080
837.052	0.0169662
837.130	0.0169442
837.208	0.0171555
837.286	0.0169974
837.364	0.0170731
837.442	0.0170694
837.521	0.0170998
837.599	0.0170740
837.677	0.0171246
837.755	0.0172426
837.833	0.0172933
837.911	0.0171474
837.989	0.0172045
838.067	0.0170865
838.146	0.0170430
838.224	0.0171066
838.302	0.0170863
838.380	0.0170191
838.458	0.0169369
838.536	0.0170402
838.614	0.0170937
838.692	0.0171963
838.771	0.0170367
838.849	0.0170481
838.927	0.0171365
839.005	0.0170583
839.083	0.0171592
839.161	0.0169488
839.239	0.0168233
839.317	0.0170181
839.396	0.0170057
839.474	0.0168603
839.552	0.0167174
839.630	0.0166775
839.708	0.0168815
839.786	0.0166733
839.864	0.0166148
839.942	0.0166614
840.021	0.0165692
840.099	0.0166372
840.177	0.0166029
840.255	0.0163912
840.333	0.0163626
840.411	0.0163228
840.489	0.0163609
840.567	0.0162897
840.646	0.0160680
840.724	0.0160852
840.802	0.0162394
840.880	0.0161154
840.958	0.0160938
841.036	0.0161086
841.114	0.0159868
841.192	0.0161994
841.271	0.0160980
841.349	0.0161432
841.427	0.0162556
841.505	0.0162113
841.583	0.0163834
841.661	0.0162708
841.739	0.0165600
841.817	0.0165327
841.896	0.0164194
841.974	0.0165467
842.052	0.0166981
842.130	0.0166653
842.208	0.0166310
842.286	0.0166328
842.364	0.0166048
842.442	0.0166783
842.521	0.0168620
842.599	0.0166803
842.677	0.0165806
842.755	0.0167991
842.833	0.0167909
842.911	0.0166853
842.989	0.0166235
843.067	0.0167424
843.146	0.0167725
843.224	0.0167904
843.302	0.0166915
843.380	0.0167455
843.458	0.0167503
843.536	0.0167961
843.614	0.0169119
843.692	0.0168005
843.771	0.0167625
843.849	0.0168022
843.927	0.0168013
844.005	0.0169195
844.083	0.0167471
844.161	0.0165810
844.239	0.0166634
844.317	0.0168400
844.396	0.0165811
844.474	0.0165726
844.552	0.0165719
844.630	0.0165878
844.708	0.0165131
844.786	0.0164045
844.864	0.0163380
844.942	0.0163710
845.021	0.0161960
845.099	0.0162371
845.177	0.0162685
845.255	0.0162173
845.333	0.0162086
845.411	0.0162458
845.489	0.0161435
845.567	0.0162003
845.646	0.0161857
845.724	0.0163117
845.802	0.0162525
845.880	0.0163174
845.958	0.0163228
846.036	0.0162851
846.114	0.0163367
846.192	0.0164193
846.271	0.0163318
846.349	0.0162689
846.427	0.0162503
846.505	0.0161774
846.583	0.0162888
846.661	0.0162554
846.739	0.0162713
846.817	0.0163489
846.896	0.0162482
846.974	0.0162239
847.052	0.0161621
847.130	0.0162501
847.208	0.0161439
847.286	0.0161852
847.364	0.0162242
847.442	0.0161332
847.521	0.0163173
847.599	0.0162823
847.677	0.0161177
847.755	0.0162189
847.833	0.0163651
847.911	0.0161962
847.989	0.0163555
848.067	0.0165206
848.146	0.0164831
848.224	0.0164307
848.302	0.0164942
848.380	0.0164394
848.458	0.0165735
848.536	0.0166183
848.614	0.0166594
848.692	0.0167255
848.771	0.0164597
848.849	0.0165465
848.927	0.0165717
849.005	0.0165704
849.083	0.0167454
849.161	0.0167857
849.239	0.0166454
849.317	0.0166647
849.396	0.0169123
849.474	0.0168894
849.552	0.0169013
849.630	0.0169022
849.708	0.0168922
849.786	0.0170279
849.864	0.0170685
849.942	0.0170319
850.021	0.0169963
850.099	0.0170963
850.177	0.0170885
850.255	0.0171456
850.333	0.0171769
850.411	0.0170807
850.489	0.0171557
850.567	0.0172226
850.646	0.0171877
850.724	0.0172682
850.802	0.0170168
850.880	0.0172212
850.958	0.0172297
851.036	0.0171142
851.114	0.0172274
851.192	0.0170918
851.271	0.0169758
851.349	0.0172153
851.427	0.0170908
851.505	0.0170877
851.583	0.0170993
851.661	0.0172169
851.739	0.0170452
851.817	0.0170295
851.896	0.0169026
851.974	0.0168104
852.052	0.0169651
852.130	0.0169527
852.208	0.0167940
852.286	0.0167556
852.364	0.0168229
852.442	0.0164552
852.521	0.0165986
852.599	0.0167115
852.677	0.0165347
852.755	0.0164750
852.833	0.0165524
852.911	0.0165347
852.989	0.0164369
853.067	0.0165129
853.146	0.0164684
853.224	0.0165932
853.302	0.0166374
853.380	0.0166203
853.458	0.0167295
853.536	0.0169518
853.614	0.0169289
853.692	0.0169743
853.771	0.0171814
853.849	0.0171988
853.927	0.0172583
854.005	0.0172659
854.083	0.0173244
854.161	0.0173131
854.239	0.0172607
854.317	0.0172583
854.396	0.0172726
854.474	0.0172424
854.552	0.0172545
854.630	0.0171735
854.708	0.0170360
854.786	0.0170942
854.864	0.0171135
854.942	0.0169743
855.021	0.0169773
855.099	0.0168959
855.177	0.0169076
855.255	0.0169946
855.333	0.0170387
855.411	0.0170175
855.489	0.0169624
855.567	0.0171124
855.646	0.0170906
855.724	0.0170457
855.802	0.0171593
855.880	0.0171044
855.958	0.0169699
856.036	0.0171205
856.114	0.0172520
856.192	0.0172586
856.271	0.0171815
856.349	0.0171027
856.427	0.0172238
856.505	0.0173151
856.583	0.0171182
856.661	0.0172231
856.739	0.0172459
856.817	0.0172558
856.896	0.0172384
856.974	0.0171291
857.052	0.0172832
857.130	0.0171272
857.208	0.0171037
857.286	0.0172413
857.364	0.0171142
857.442	0.0172923
857.521	0.0170856
857.599	0.0172591
857.677	0.0170223
857.755	0.0172778
857.833	0.0169682
857.911	0.0173100
857.989	0.0171723
858.067	0.0170668
858.146	0.0172352
858.224	0.0172428
858.302	0.0171873
858.380	0.0170773
858.458	0.0170892
858.536	0.0172036
858.614	0.0172565
858.692	0.0170606
858.771	0.0169942
858.849	0.0169030
858.927	0.0169327
859.005	0.0168322
859.083	0.0167526
859.161	0.0166572
859.239	0.0167330
859.317	0.0164944
859.396	0.0165527
859.474	0.0165369
859.552	0.0165288
859.630	0.0164194
859.708	0.0163586
859.786	0.0164362
859.864	0.0165511
859.942	0.0165796
860.021	0.0165491
860.099	0.0164035
860.177	0.0165788
860.255	0.0166232
860.333	0.0165028
860.411	0.0164379
860.489	0.0164648
860.567	0.0163595
860.646	0.0164390
860.724	0.0166341
860.802	0.0165613
860.880	0.0163174
860.958	0.0163354
861.036	0.0165160
861.114	0.0164222
861.192	0.0164501
861.271	0.0164888
861.349	0.0164940
861.427	0.0163551
861.505	0.0165523
861.583	0.0164868
861.661	0.0163696
861.739	0.0163048
861.817	0.0163984
861.896	0.0162424
861.974	0.0161808
862.052	0.0162201
862.130	0.0162879
862.208	0.0161148
862.286	0.0161159
862.364	0.0158965
862.442	0.0160422
862.521	0.0160310
862.599	0.0159849
862.677	0.0159940
862.755	0.0159090
862.833	0.0160526
862.911	0.0159785
862.989	0.0159126
863.067	0.0159544
863.146	0.0159746
863.224	0.0159653
863.302	0.0160289
863.380	0.0159416
863.458	0.0161555
863.536	0.0162095
863.614	0.0161686
863.692	0.0161023
863.771	0.0162720
863.849	0.0163300
863.927	0.0163635
864.005	0.0165227
864.083	0.0165115
864.161	0.0166112
864.239	0.0165807
864.317	0.0167802
864.396	0.0167532
864.474	0.0167632
864.552	0.0168449
864.630	0.0168647
864.708	0.0170551
864.786	0.0170173
864.864	0.0170671
864.942	0.0172681
865.021	0.0171701
865.099	0.0171977
865.177	0.0172326
865.255	0.0173306
865.333	0.0172635
865.411	0.0173022
865.489	0.0173579
865.567	0.0173026
865.646	0.0172498
865.724	0.0173255
865.802	0.0173498
865.880	0.0173278
865.958	0.0173815
866.036	0.0172491
866.114	0.0171880
866.192	0.0172196
866.271	0.0172292
866.349	0.0172253
866.427	0.0172823
866.505	0.0172595
866.583	0.0170804
866.661	0.0170232
866.739	0.0170647
866.817	0.0169232
866.896	0.0167400
866.974	0.0167423
867.052	0.0167057
867.130	0.0168105
867.208	0.0166357
867.286	0.0164180
867.364	0.0164501
867.442	0.0164804
867.521	0.0164045
867.599	0.0162351
867.677	0.0161970
867.755	0.0162397
867.833	0.0164738
867.911	0.0162561
867.989	0.0160281
868.067	0.0161859
868.146	0.0161750
868.224	0.0160859
868.302	0.0161646
868.380	0.0162149
868.458	0.0163385
868.536	0.0162204
868.614	0.0161784
868.692	0.0162347
868.771	0.0162431
868.849	0.0164495
868.927	0.0166081
869.005	0.0162687
869.083	0.0164974
869.161	0.0165597
869.239	0.0165837
869.317	0.0166682
869.396	0.0166549
869.474	0.0167098
869.552	0.0167439
869.630	0.0167187
869.708	0.0168356
869.786	0.0167475
869.864	0.0167258
869.942	0.0167306
