06/03/2022	14:55:35	Ver.	4.1	UNKNOWN
Optical Delay	550.020508	Delta X		0.078125	Sweeps	1	Scan Rate	0/0
Coordinates	Axis 1	NaN	Axis 2	NaN	Axis 3	NaN	Axis 4	NaN	Axis 5	NaN	Axis 6	0.000000
TX Power	0.000000	RX Power	0.000000

550.021	0.0161094
550.099	0.0172617
550.177	0.0170408
550.255	0.0170332
550.333	0.0170817
550.411	0.0169771
550.489	0.0168298
550.567	0.0166315
550.646	0.0165422
550.724	0.0165228
550.802	0.0163916
550.880	0.0161411
550.958	0.0160860
551.036	0.0159761
551.114	0.0159232
551.192	0.0158411
551.271	0.0158457
551.349	0.0157534
551.427	0.0157166
551.505	0.0157757
551.583	0.0156757
551.661	0.0156681
551.739	0.0155550
551.817	0.0155261
551.896	0.0154129
551.974	0.0153959
552.052	0.0154378
552.130	0.0152582
552.208	0.0152749
552.286	0.0151429
552.364	0.0150901
552.442	0.0150883
552.521	0.0150901
552.599	0.0148981
552.677	0.0148298
552.755	0.0147800
552.833	0.0150240
552.911	0.0148019
552.989	0.0147009
553.067	0.0147092
553.146	0.0146609
553.224	0.0146487
553.302	0.0147588
553.380	0.0147728
553.458	0.0148479
553.536	0.0148559
553.614	0.0150885
553.692	0.0152290
553.771	0.0152306
553.849	0.0154947
553.927	0.0156332
554.005	0.0159344
554.083	0.0161887
554.161	0.0163441
554.239	0.0166705
554.317	0.0168721
554.396	0.0168475
554.474	0.0170235
554.552	0.0172878
554.630	0.0174918
554.708	0.0175894
554.786	0.0175039
554.864	0.0173871
554.942	0.0173828
555.021	0.0173368
555.099	0.0173309
555.177	0.0171604
555.255	0.0170242
555.333	0.0170575
555.411	0.0167033
555.489	0.0167066
555.567	0.0165051
555.646	0.0163412
555.724	0.0165046
555.802	0.0162292
555.880	0.0162331
555.958	0.0161977
556.036	0.0163060
556.114	0.0161865
556.192	0.0161280
556.271	0.0160323
556.349	0.0160497
556.427	0.0162006
556.505	0.0161488
556.583	0.0161141
556.661	0.0161561
556.739	0.0160632
556.817	0.0160458
556.896	0.0160635
556.974	0.0158879
557.052	0.0161086
557.130	0.0158840
557.208	0.0158419
557.286	0.0159052
557.364	0.0158956
557.442	0.0159222
557.521	0.0158858
557.599	0.0159939
557.677	0.0159702
557.755	0.0161485
557.833	0.0162139
557.911	0.0162424
557.989	0.0162519
558.067	0.0165591
558.146	0.0166562
558.224	0.0166941
558.302	0.0168667
558.380	0.0171201
558.458	0.0172535
558.536	0.0173744
558.614	0.0175829
558.692	0.0176966
558.771	0.0180457
558.849	0.0181665
558.927	0.0182695
559.005	0.0184081
559.083	0.0185194
559.161	0.0188289
559.239	0.0190341
559.317	0.0190798
559.396	0.0192517
559.474	0.0193539
559.552	0.0194273
559.630	0.0194872
559.708	0.0196215
559.786	0.0196331
559.864	0.0198354
559.942	0.0197814
560.021	0.0199934
560.099	0.0198518
560.177	0.0197601
560.255	0.0197110
560.333	0.0196092
560.411	0.0194672
560.489	0.0194581
560.567	0.0194282
560.646	0.0190739
560.724	0.0190513
560.802	0.0189338
560.880	0.0186696
560.958	0.0184593
561.036	0.0181953
561.114	0.0181477
561.192	0.0178703
561.271	0.0177420
561.349	0.0175398
561.427	0.0174226
561.505	0.0172052
561.583	0.0171141
561.661	0.0169440
561.739	0.0167873
561.817	0.0166645
561.896	0.0165201
561.974	0.0164833
562.052	0.0163564
562.130	0.0161512
562.208	0.0161090
562.286	0.0161839
562.364	0.0160232
562.442	0.0159612
562.521	0.0160246
562.599	0.0159329
562.677	0.0158721
562.755	0.0157917
562.833	0.0159000
562.911	0.0158399
562.989	0.0158524
563.067	0.0157380
563.146	0.0157518
563.224	0.0159653
563.302	0.0158688
563.380	0.0158091
563.458	0.0158484
563.536	0.0159190
563.614	0.0160801
563.692	0.0159473
563.771	0.0159711
563.849	0.0160754
563.927	0.0160004
564.005	0.0160435
564.083	0.0161071
564.161	0.0161684
564.239	0.0161438
564.317	0.0162199
564.396	0.0162891
564.474	0.0162656
564.552	0.0162756
564.630	0.0163529
564.708	0.0163361
564.786	0.0163165
564.864	0.0163099
564.942	0.0163530
565.021	0.0163406
565.099	0.0163140
565.177	0.0163400
565.255	0.0162965
565.333	0.0160773
565.411	0.0161079
565.489	0.0158759
565.567	0.0158892
565.646	0.0157650
565.724	0.0156854
565.802	0.0156294
565.880	0.0154674
565.958	0.0155266
566.036	0.0153872
566.114	0.0154610
566.192	0.0153896
566.271	0.0153082
566.349	0.0152264
566.427	0.0151515
566.505	0.0152861
566.583	0.0150979
566.661	0.0150191
566.739	0.0151662
566.817	0.0148390
566.896	0.0150142
566.974	0.0149564
567.052	0.0149352
567.130	0.0149763
567.208	0.0148347
567.286	0.0150309
567.364	0.0148314
567.442	0.0148940
567.521	0.0150018
567.599	0.0150946
567.677	0.0150237
567.755	0.0150703
567.833	0.0151460
567.911	0.0152692
567.989	0.0153418
568.067	0.0153193
568.146	0.0154971
568.224	0.0156307
568.302	0.0156146
568.380	0.0157520
568.458	0.0157001
568.536	0.0158435
568.614	0.0159792
568.692	0.0159171
568.771	0.0162546
568.849	0.0163020
568.927	0.0162918
569.005	0.0162675
569.083	0.0164145
569.161	0.0164584
569.239	0.0167126
569.317	0.0166551
569.396	0.0165997
569.474	0.0165749
569.552	0.0166562
569.630	0.0166821
569.708	0.0166029
569.786	0.0165210
569.864	0.0166552
569.942	0.0166612
570.021	0.0165554
570.099	0.0163882
570.177	0.0164304
570.255	0.0165015
570.333	0.0164500
570.411	0.0163062
570.489	0.0163476
570.567	0.0162524
570.646	0.0164079
570.724	0.0163973
570.802	0.0165073
570.880	0.0162923
570.958	0.0162362
571.036	0.0164053
571.114	0.0164884
571.192	0.0164713
571.271	0.0165228
571.349	0.0166922
571.427	0.0168039
571.505	0.0168287
571.583	0.0168399
571.661	0.0169975
571.739	0.0170731
571.817	0.0172092
571.896	0.0171848
571.974	0.0171894
572.052	0.0173501
572.130	0.0174984
572.208	0.0173737
572.286	0.0175318
572.364	0.0175748
572.442	0.0173949
572.521	0.0175765
572.599	0.0176121
572.677	0.0174033
572.755	0.0175259
572.833	0.0175867
572.911	0.0174783
572.989	0.0174015
573.067	0.0174474
573.146	0.0173656
573.224	0.0170956
573.302	0.0170830
573.380	0.0171103
573.458	0.0168758
573.536	0.0168511
573.614	0.0168771
573.692	0.0165944
573.771	0.0165652
573.849	0.0165045
573.927	0.0165232
574.005	0.0163513
574.083	0.0162565
574.161	0.0161697
574.239	0.0162253
574.317	0.0161200
574.396	0.0160717
574.474	0.0161083
574.552	0.0161028
574.630	0.0160085
574.708	0.0159798
574.786	0.0160148
574.864	0.0157943
574.942	0.0159470
575.021	0.0160259
575.099	0.0158778
575.177	0.0157874
575.255	0.0159634
575.333	0.0159360
575.411	0.0157992
575.489	0.0159340
575.567	0.0159775
575.646	0.0159565
575.724	0.0161059
575.802	0.0161391
575.880	0.0159652
575.958	0.0160487
576.036	0.0161608
576.114	0.0161753
576.192	0.0161433
576.271	0.0162366
576.349	0.0162971
576.427	0.0162852
576.505	0.0162405
576.583	0.0161835
576.661	0.0161408
576.739	0.0162685
576.817	0.0161704
576.896	0.0161008
576.974	0.0162551
577.052	0.0161809
577.130	0.0161653
577.208	0.0161890
577.286	0.0161626
577.364	0.0161915
577.442	0.0160305
577.521	0.0160907
577.599	0.0161050
577.677	0.0162399
577.755	0.0160596
577.833	0.0161259
577.911	0.0160008
577.989	0.0161663
578.067	0.0161370
578.146	0.0160765
578.224	0.0161845
578.302	0.0160189
578.380	0.0161202
578.458	0.0160414
578.536	0.0160426
578.614	0.0160864
578.692	0.0159346
578.771	0.0159301
578.849	0.0157881
578.927	0.0159252
579.005	0.0159288
579.083	0.0159756
579.161	0.0161063
579.239	0.0161048
579.317	0.0161246
579.396	0.0162785
579.474	0.0161936
579.552	0.0163617
579.630	0.0164716
579.708	0.0166336
579.786	0.0166133
579.864	0.0166613
579.942	0.0167680
580.021	0.0168101
580.099	0.0168645
580.177	0.0169118
580.255	0.0169505
580.333	0.0169836
580.411	0.0171983
580.489	0.0170727
580.567	0.0170640
580.646	0.0170985
580.724	0.0171957
580.802	0.0170373
580.880	0.0169720
580.958	0.0169742
581.036	0.0169980
581.114	0.0171554
581.192	0.0171259
581.271	0.0171056
581.349	0.0170247
581.427	0.0170083
581.505	0.0169307
581.583	0.0170715
581.661	0.0170616
581.739	0.0169955
581.817	0.0171916
581.896	0.0170823
581.974	0.0171646
582.052	0.0171630
582.130	0.0172730
582.208	0.0173471
582.286	0.0173679
582.364	0.0174202
582.442	0.0175156
582.521	0.0176076
582.599	0.0176096
582.677	0.0175931
582.755	0.0175786
582.833	0.0177470
582.911	0.0177495
582.989	0.0177811
583.067	0.0177643
583.146	0.0178548
583.224	0.0177634
583.302	0.0177761
583.380	0.0176577
583.458	0.0175518
583.536	0.0176097
583.614	0.0175415
583.692	0.0175085
583.771	0.0173463
583.849	0.0172367
583.927	0.0173333
584.005	0.0172505
584.083	0.0170524
584.161	0.0169590
584.239	0.0169920
584.317	0.0169637
584.396	0.0168925
584.474	0.0169363
584.552	0.0168948
584.630	0.0168243
584.708	0.0168606
584.786	0.0168578
584.864	0.0168211
584.942	0.0169577
585.021	0.0167763
585.099	0.0168715
585.177	0.0168871
585.255	0.0168311
585.333	0.0168828
585.411	0.0168237
585.489	0.0169301
585.567	0.0168499
585.646	0.0167217
585.724	0.0166917
585.802	0.0167027
585.880	0.0166503
585.958	0.0166859
586.036	0.0167236
586.114	0.0166203
586.192	0.0166102
586.271	0.0166646
586.349	0.0166809
586.427	0.0166426
586.505	0.0166383
586.583	0.0164906
586.661	0.0166238
586.739	0.0166726
586.817	0.0165800
586.896	0.0165382
586.974	0.0164147
587.052	0.0164432
587.130	0.0164977
587.208	0.0162920
587.286	0.0162639
587.364	0.0161868
587.442	0.0162643
587.521	0.0162050
587.599	0.0160905
587.677	0.0162247
587.755	0.0161402
587.833	0.0160040
587.911	0.0160355
587.989	0.0160673
588.067	0.0160178
588.146	0.0159740
588.224	0.0160208
588.302	0.0159845
588.380	0.0160729
588.458	0.0160993
588.536	0.0161002
588.614	0.0159156
588.692	0.0160989
588.771	0.0161320
588.849	0.0160027
588.927	0.0161243
589.005	0.0160683
589.083	0.0160254
589.161	0.0160467
589.239	0.0160589
589.317	0.0160841
589.396	0.0161694
589.474	0.0159777
589.552	0.0160151
589.630	0.0161252
589.708	0.0161105
589.786	0.0161325
589.864	0.0160802
589.942	0.0160162
590.021	0.0160385
590.099	0.0160685
590.177	0.0161061
590.255	0.0161549
590.333	0.0162500
590.411	0.0161124
590.489	0.0161858
590.567	0.0162813
590.646	0.0162431
590.724	0.0162415
590.802	0.0163188
590.880	0.0163398
590.958	0.0164411
591.036	0.0165380
591.114	0.0164125
591.192	0.0164730
591.271	0.0165209
591.349	0.0166463
591.427	0.0165694
591.505	0.0166652
591.583	0.0168694
591.661	0.0169753
591.739	0.0167937
591.817	0.0167810
591.896	0.0168417
591.974	0.0169709
592.052	0.0168671
592.130	0.0169830
592.208	0.0169925
592.286	0.0169479
592.364	0.0167012
592.442	0.0168376
592.521	0.0167550
592.599	0.0164375
592.677	0.0166225
592.755	0.0165249
592.833	0.0164783
592.911	0.0163961
592.989	0.0163503
593.067	0.0164229
593.146	0.0160253
593.224	0.0161812
593.302	0.0162653
593.380	0.0161077
593.458	0.0161387
593.536	0.0162432
593.614	0.0162946
593.692	0.0163651
593.771	0.0163326
593.849	0.0163723
593.927	0.0165958
594.005	0.0165381
594.083	0.0165568
594.161	0.0166167
594.239	0.0168089
594.317	0.0169004
594.396	0.0169077
594.474	0.0169923
594.552	0.0170375
594.630	0.0170872
594.708	0.0170526
594.786	0.0171837
594.864	0.0173184
594.942	0.0171812
595.021	0.0171922
595.099	0.0172483
595.177	0.0172562
595.255	0.0172389
595.333	0.0171866
595.411	0.0170693
595.489	0.0170074
595.567	0.0169559
595.646	0.0169593
595.724	0.0169263
595.802	0.0169156
595.880	0.0167849
595.958	0.0166847
596.036	0.0167316
596.114	0.0167090
596.192	0.0165993
596.271	0.0165853
596.349	0.0164403
596.427	0.0163740
596.505	0.0165691
596.583	0.0164191
596.661	0.0162286
596.739	0.0161674
596.817	0.0162212
596.896	0.0163293
596.974	0.0164062
597.052	0.0160261
597.130	0.0161876
597.208	0.0162363
597.286	0.0160405
597.364	0.0160149
597.442	0.0161063
597.521	0.0160582
597.599	0.0160297
597.677	0.0161140
597.755	0.0159599
597.833	0.0160024
597.911	0.0160355
597.989	0.0160339
598.067	0.0163161
598.146	0.0161028
598.224	0.0161314
598.302	0.0161475
598.380	0.0162743
598.458	0.0162170
598.536	0.0162933
598.614	0.0163000
598.692	0.0163023
598.771	0.0163835
598.849	0.0164978
598.927	0.0165237
599.005	0.0164821
599.083	0.0165530
599.161	0.0166530
599.239	0.0166506
599.317	0.0167124
599.396	0.0167395
599.474	0.0168805
599.552	0.0167997
599.630	0.0168133
599.708	0.0170560
599.786	0.0171363
599.864	0.0169975
599.942	0.0169754
600.021	0.0169917
600.099	0.0170563
600.177	0.0169964
600.255	0.0168300
600.333	0.0168456
600.411	0.0169138
600.489	0.0169794
600.567	0.0169312
600.646	0.0167022
600.724	0.0168533
600.802	0.0169954
600.880	0.0166973
600.958	0.0165786
601.036	0.0167686
601.114	0.0166133
601.192	0.0166174
601.271	0.0165234
601.349	0.0166663
601.427	0.0166412
601.505	0.0165991
601.583	0.0165757
601.661	0.0164746
601.739	0.0167550
601.817	0.0166595
601.896	0.0166853
601.974	0.0167299
602.052	0.0166219
602.130	0.0167342
602.208	0.0167202
602.286	0.0166825
602.364	0.0167216
602.442	0.0167893
602.521	0.0167639
602.599	0.0169137
602.677	0.0167890
602.755	0.0167910
602.833	0.0167158
602.911	0.0167741
602.989	0.0167861
603.067	0.0169834
603.146	0.0167283
603.224	0.0167652
603.302	0.0167021
603.380	0.0167455
603.458	0.0167630
603.536	0.0166301
603.614	0.0165978
603.692	0.0165858
603.771	0.0165308
603.849	0.0164878
603.927	0.0166228
604.005	0.0164043
604.083	0.0166573
604.161	0.0164101
604.239	0.0162969
604.317	0.0164504
604.396	0.0163907
604.474	0.0164835
604.552	0.0163284
604.630	0.0161885
604.708	0.0161574
604.786	0.0162029
604.864	0.0161012
604.942	0.0162030
605.021	0.0160437
605.099	0.0162447
605.177	0.0161828
605.255	0.0160342
605.333	0.0159873
605.411	0.0159852
605.489	0.0158302
605.567	0.0158472
605.646	0.0159253
605.724	0.0157732
605.802	0.0156996
605.880	0.0155444
605.958	0.0156834
606.036	0.0157536
606.114	0.0155256
606.192	0.0155100
606.271	0.0155730
606.349	0.0155989
606.427	0.0154794
606.505	0.0155490
606.583	0.0156950
606.661	0.0154722
606.739	0.0155035
606.817	0.0157586
606.896	0.0157304
606.974	0.0155444
607.052	0.0155717
607.130	0.0157760
607.208	0.0157845
607.286	0.0158337
607.364	0.0158109
607.442	0.0157735
607.521	0.0159406
607.599	0.0160188
607.677	0.0161092
607.755	0.0160539
607.833	0.0161389
607.911	0.0162349
607.989	0.0163854
608.067	0.0161857
608.146	0.0163238
608.224	0.0163416
608.302	0.0163818
608.380	0.0164323
608.458	0.0164989
608.536	0.0165319
608.614	0.0165340
608.692	0.0166965
608.771	0.0165732
608.849	0.0165040
608.927	0.0165983
609.005	0.0166360
609.083	0.0167029
609.161	0.0166895
609.239	0.0167453
609.317	0.0164811
609.396	0.0166704
609.474	0.0169006
609.552	0.0168546
609.630	0.0167377
609.708	0.0168051
609.786	0.0167159
609.864	0.0167654
609.942	0.0167554
610.021	0.0167276
610.099	0.0167909
610.177	0.0166863
610.255	0.0167908
610.333	0.0166737
610.411	0.0167702
610.489	0.0167292
610.567	0.0166988
610.646	0.0167492
610.724	0.0167001
610.802	0.0167458
610.880	0.0166476
610.958	0.0167412
611.036	0.0167922
611.114	0.0167754
611.192	0.0167669
611.271	0.0167878
611.349	0.0167497
611.427	0.0168173
611.505	0.0167959
611.583	0.0169116
611.661	0.0167995
611.739	0.0167209
611.817	0.0167171
611.896	0.0169418
611.974	0.0168775
612.052	0.0167733
612.130	0.0168692
612.208	0.0168357
612.286	0.0166818
612.364	0.0169622
612.442	0.0167412
612.521	0.0168143
612.599	0.0167282
612.677	0.0167739
612.755	0.0168286
612.833	0.0168638
612.911	0.0167919
612.989	0.0168056
613.067	0.0168497
613.146	0.0168919
613.224	0.0167805
613.302	0.0166755
613.380	0.0168373
613.458	0.0168578
613.536	0.0168819
613.614	0.0168842
613.692	0.0167995
613.771	0.0167791
613.849	0.0167338
613.927	0.0167052
614.005	0.0167643
614.083	0.0167099
614.161	0.0165646
614.239	0.0165923
614.317	0.0166273
614.396	0.0165826
614.474	0.0167436
614.552	0.0165093
614.630	0.0164497
614.708	0.0166453
614.786	0.0165920
614.864	0.0166796
614.942	0.0165791
615.021	0.0165051
615.099	0.0166505
615.177	0.0166689
615.255	0.0165563
615.333	0.0165504
615.411	0.0167114
615.489	0.0165909
615.567	0.0166315
615.646	0.0166647
615.724	0.0165837
615.802	0.0166273
615.880	0.0164778
615.958	0.0164679
616.036	0.0165726
616.114	0.0166505
616.192	0.0164713
616.271	0.0165535
616.349	0.0166215
616.427	0.0165833
616.505	0.0164910
616.583	0.0164945
616.661	0.0165321
616.739	0.0164590
616.817	0.0164181
616.896	0.0164177
616.974	0.0164076
617.052	0.0164382
617.130	0.0164279
617.208	0.0164647
617.286	0.0163378
617.364	0.0163721
617.442	0.0162617
617.521	0.0163218
617.599	0.0161918
617.677	0.0161771
617.755	0.0162222
617.833	0.0161323
617.911	0.0161646
617.989	0.0162178
618.067	0.0160770
618.146	0.0161891
618.224	0.0161555
618.302	0.0162003
618.380	0.0161285
618.458	0.0162302
618.536	0.0163127
618.614	0.0162340
618.692	0.0164358
618.771	0.0162436
618.849	0.0163794
618.927	0.0165002
619.005	0.0165088
619.083	0.0164871
619.161	0.0166427
619.239	0.0167387
619.317	0.0165825
619.396	0.0166341
619.474	0.0166193
619.552	0.0166411
619.630	0.0167242
619.708	0.0167484
619.786	0.0165767
619.864	0.0166546
619.942	0.0167852
620.021	0.0166981
620.099	0.0167972
620.177	0.0168300
620.255	0.0166927
620.333	0.0166310
620.411	0.0167391
620.489	0.0168954
620.567	0.0167571
620.646	0.0167229
620.724	0.0168326
620.802	0.0167925
620.880	0.0168784
620.958	0.0167831
621.036	0.0169888
621.114	0.0169904
621.192	0.0168936
621.271	0.0169743
621.349	0.0168743
621.427	0.0169503
621.505	0.0168624
621.583	0.0167497
621.661	0.0168252
621.739	0.0168054
621.817	0.0168427
621.896	0.0168463
621.974	0.0167216
622.052	0.0167957
622.130	0.0168183
622.208	0.0168921
622.286	0.0166735
622.364	0.0165884
622.442	0.0167018
622.521	0.0167930
622.599	0.0167661
622.677	0.0167130
622.755	0.0166370
622.833	0.0166990
622.911	0.0167327
622.989	0.0166290
623.067	0.0166557
623.146	0.0165627
623.224	0.0166245
623.302	0.0165440
623.380	0.0165199
623.458	0.0165437
623.536	0.0163732
623.614	0.0162634
623.692	0.0165066
623.771	0.0162348
623.849	0.0162614
623.927	0.0163296
624.005	0.0161288
624.083	0.0161284
624.161	0.0159579
624.239	0.0160215
624.317	0.0158463
624.396	0.0158076
624.474	0.0157219
624.552	0.0154237
624.630	0.0154433
624.708	0.0154651
624.786	0.0154618
624.864	0.0153400
624.942	0.0151395
625.021	0.0153704
625.099	0.0153082
625.177	0.0150620
625.255	0.0152219
625.333	0.0153651
625.411	0.0154293
625.489	0.0153898
625.567	0.0154784
625.646	0.0156533
625.724	0.0158306
625.802	0.0157900
625.880	0.0160676
625.958	0.0161069
626.036	0.0162923
626.114	0.0162923
626.192	0.0165169
626.271	0.0164329
626.349	0.0167287
626.427	0.0167938
626.505	0.0166051
626.583	0.0167314
626.661	0.0167760
626.739	0.0169149
626.817	0.0170787
626.896	0.0169862
626.974	0.0169628
627.052	0.0170021
627.130	0.0170341
627.208	0.0168751
627.286	0.0169242
627.364	0.0169204
627.442	0.0168826
627.521	0.0166956
627.599	0.0166962
627.677	0.0166428
627.755	0.0166758
627.833	0.0166153
627.911	0.0164087
627.989	0.0163857
628.067	0.0164628
628.146	0.0162482
628.224	0.0161700
628.302	0.0162366
628.380	0.0161310
628.458	0.0160747
628.536	0.0160561
628.614	0.0159856
628.692	0.0160966
628.771	0.0159487
628.849	0.0159709
628.927	0.0159919
629.005	0.0159381
629.083	0.0159795
629.161	0.0161064
629.239	0.0160791
629.317	0.0160570
629.396	0.0160894
629.474	0.0161281
629.552	0.0161610
629.630	0.0160742
629.708	0.0159884
629.786	0.0160786
629.864	0.0163183
629.942	0.0160989
630.021	0.0162610
630.099	0.0162533
630.177	0.0163721
630.255	0.0164175
630.333	0.0164217
630.411	0.0166411
630.489	0.0167467
630.567	0.0166919
630.646	0.0167662
630.724	0.0168741
630.802	0.0170340
630.880	0.0169769
630.958	0.0171619
631.036	0.0171642
631.114	0.0172867
631.192	0.0172105
631.271	0.0171820
631.349	0.0172691
631.427	0.0173383
631.505	0.0172893
631.583	0.0173155
631.661	0.0172315
631.739	0.0173593
631.817	0.0172000
631.896	0.0171581
631.974	0.0172090
632.052	0.0173029
632.130	0.0171092
632.208	0.0171336
632.286	0.0171071
632.364	0.0169939
632.442	0.0169909
632.521	0.0168704
632.599	0.0169730
632.677	0.0168378
632.755	0.0168040
632.833	0.0166805
632.911	0.0167537
632.989	0.0167345
633.067	0.0166752
633.146	0.0168731
633.224	0.0167863
633.302	0.0168298
633.380	0.0167683
633.458	0.0167478
633.536	0.0168781
633.614	0.0168521
633.692	0.0168090
633.771	0.0168759
633.849	0.0168508
633.927	0.0169178
634.005	0.0169728
634.083	0.0167426
634.161	0.0167776
634.239	0.0167690
634.317	0.0167047
634.396	0.0167268
634.474	0.0166955
634.552	0.0166267
634.630	0.0165459
634.708	0.0166625
634.786	0.0165541
634.864	0.0164881
634.942	0.0163654
635.021	0.0162638
635.099	0.0162937
635.177	0.0162093
635.255	0.0161877
635.333	0.0161349
635.411	0.0163715
635.489	0.0161168
635.567	0.0160873
635.646	0.0160364
635.724	0.0160523
635.802	0.0162405
635.880	0.0161610
635.958	0.0160643
636.036	0.0161814
636.114	0.0162305
636.192	0.0163226
636.271	0.0162234
636.349	0.0161497
636.427	0.0162869
636.505	0.0163506
636.583	0.0163184
636.661	0.0164116
636.739	0.0165402
636.817	0.0166047
636.896	0.0164534
636.974	0.0167997
637.052	0.0167200
637.130	0.0167492
637.208	0.0169518
637.286	0.0169707
637.364	0.0169463
637.442	0.0170982
637.521	0.0170776
637.599	0.0171668
637.677	0.0171373
637.755	0.0171846
637.833	0.0173605
637.911	0.0174226
637.989	0.0174267
638.067	0.0175042
638.146	0.0172928
638.224	0.0173623
638.302	0.0174165
638.380	0.0174995
638.458	0.0174004
638.536	0.0173109
638.614	0.0173904
638.692	0.0172319
638.771	0.0172050
638.849	0.0172953
638.927	0.0170368
639.005	0.0170753
639.083	0.0169332
639.161	0.0170200
639.239	0.0168736
639.317	0.0167603
639.396	0.0166626
639.474	0.0166220
639.552	0.0165649
639.630	0.0165008
639.708	0.0164897
639.786	0.0165311
639.864	0.0162978
639.942	0.0162511
640.021	0.0161916
640.099	0.0159946
640.177	0.0161123
640.255	0.0159336
640.333	0.0160096
640.411	0.0158535
640.489	0.0157159
640.567	0.0157088
640.646	0.0158054
640.724	0.0157233
640.802	0.0155979
640.880	0.0157501
640.958	0.0156875
641.036	0.0157298
641.114	0.0155368
641.192	0.0156020
641.271	0.0157063
641.349	0.0156848
641.427	0.0156207
641.505	0.0157891
641.583	0.0157220
641.661	0.0157227
641.739	0.0158016
641.817	0.0157449
641.896	0.0158419
641.974	0.0158161
642.052	0.0158018
642.130	0.0159716
642.208	0.0158819
642.286	0.0158031
642.364	0.0159518
642.442	0.0158749
642.521	0.0159154
642.599	0.0158744
642.677	0.0158295
642.755	0.0159836
642.833	0.0159168
642.911	0.0161179
642.989	0.0159644
643.067	0.0159998
643.146	0.0161442
643.224	0.0161315
643.302	0.0159390
643.380	0.0160971
643.458	0.0162129
643.536	0.0162231
643.614	0.0160518
643.692	0.0162244
643.771	0.0160826
643.849	0.0160315
643.927	0.0160676
644.005	0.0162227
644.083	0.0163141
644.161	0.0161078
644.239	0.0162904
644.317	0.0162011
644.396	0.0162041
644.474	0.0162344
644.552	0.0162002
644.630	0.0162565
644.708	0.0163527
644.786	0.0163385
644.864	0.0163326
644.942	0.0163380
645.021	0.0164812
645.099	0.0164664
645.177	0.0164188
645.255	0.0163906
645.333	0.0165064
645.411	0.0164530
645.489	0.0166384
645.567	0.0165675
645.646	0.0165350
645.724	0.0165408
645.802	0.0166221
645.880	0.0166138
645.958	0.0167007
646.036	0.0168951
646.114	0.0168719
646.192	0.0168142
646.271	0.0168906
646.349	0.0169216
646.427	0.0168950
646.505	0.0169195
646.583	0.0168334
646.661	0.0168987
646.739	0.0167613
646.817	0.0167422
646.896	0.0167113
646.974	0.0166255
647.052	0.0167486
647.130	0.0166580
647.208	0.0164511
647.286	0.0162929
647.364	0.0164465
647.442	0.0161485
647.521	0.0162787
647.599	0.0162005
647.677	0.0161842
647.755	0.0162376
647.833	0.0163216
647.911	0.0163287
647.989	0.0161647
648.067	0.0162688
648.146	0.0163912
648.224	0.0163133
648.302	0.0163715
648.380	0.0165282
648.458	0.0165391
648.536	0.0164517
648.614	0.0165953
648.692	0.0166266
648.771	0.0166679
648.849	0.0164272
648.927	0.0165266
649.005	0.0165855
649.083	0.0165054
649.161	0.0164899
649.239	0.0163768
649.317	0.0164081
649.396	0.0163217
649.474	0.0162312
649.552	0.0161906
649.630	0.0161244
649.708	0.0161702
649.786	0.0161478
649.864	0.0161137
649.942	0.0159888
650.021	0.0160622
650.099	0.0160922
650.177	0.0161739
650.255	0.0161588
650.333	0.0162029
650.411	0.0162411
650.489	0.0163000
650.567	0.0162757
650.646	0.0163994
650.724	0.0165372
650.802	0.0165308
650.880	0.0165068
650.958	0.0165279
651.036	0.0164895
651.114	0.0166016
651.192	0.0167630
651.271	0.0165950
651.349	0.0165699
651.427	0.0165997
651.505	0.0165979
651.583	0.0166180
651.661	0.0165840
651.739	0.0166451
651.817	0.0166518
651.896	0.0165176
651.974	0.0166241
652.052	0.0166741
652.130	0.0166044
652.208	0.0166694
652.286	0.0166032
652.364	0.0165070
652.442	0.0166613
652.521	0.0167251
652.599	0.0167415
652.677	0.0169543
652.755	0.0169456
652.833	0.0168120
652.911	0.0167580
652.989	0.0169352
653.067	0.0168880
653.146	0.0169888
653.224	0.0171018
653.302	0.0169141
653.380	0.0170716
653.458	0.0169437
653.536	0.0168171
653.614	0.0169272
653.692	0.0168843
653.771	0.0167679
653.849	0.0167725
653.927	0.0167394
654.005	0.0167386
654.083	0.0167812
654.161	0.0167617
654.239	0.0166665
654.317	0.0166508
654.396	0.0166231
654.474	0.0165150
654.552	0.0165342
654.630	0.0164624
654.708	0.0164497
654.786	0.0164771
654.864	0.0165178
654.942	0.0165822
655.021	0.0164574
655.099	0.0165350
655.177	0.0166328
655.255	0.0166808
655.333	0.0166337
655.411	0.0166377
655.489	0.0168692
655.567	0.0169418
655.646	0.0168311
655.724	0.0169083
655.802	0.0170748
655.880	0.0169894
655.958	0.0169025
656.036	0.0171015
656.114	0.0170824
656.192	0.0172157
656.271	0.0172715
656.349	0.0169889
656.427	0.0171545
656.505	0.0172895
656.583	0.0171369
656.661	0.0171387
656.739	0.0173209
656.817	0.0172659
656.896	0.0173242
656.974	0.0172083
657.052	0.0170988
657.130	0.0173067
657.208	0.0172174
657.286	0.0172477
657.364	0.0172252
657.442	0.0172584
657.521	0.0170520
657.599	0.0171643
657.677	0.0171883
657.755	0.0171208
657.833	0.0170628
657.911	0.0171114
657.989	0.0170868
658.067	0.0168995
658.146	0.0168533
658.224	0.0168851
658.302	0.0169525
658.380	0.0169573
658.458	0.0168927
658.536	0.0167779
658.614	0.0169316
658.692	0.0167458
658.771	0.0168646
658.849	0.0169136
658.927	0.0168104
659.005	0.0167875
659.083	0.0167342
659.161	0.0165751
659.239	0.0165841
659.317	0.0165724
659.396	0.0165253
659.474	0.0163762
659.552	0.0164291
659.630	0.0164259
659.708	0.0162459
659.786	0.0162453
659.864	0.0161912
659.942	0.0160713
660.021	0.0159528
660.099	0.0160944
660.177	0.0160471
660.255	0.0160287
660.333	0.0162093
660.411	0.0162684
660.489	0.0160365
660.567	0.0161090
660.646	0.0163087
660.724	0.0165585
660.802	0.0166022
660.880	0.0167223
660.958	0.0166869
661.036	0.0168702
661.114	0.0169085
661.192	0.0169330
661.271	0.0170095
661.349	0.0170090
661.427	0.0171096
661.505	0.0171280
661.583	0.0170718
661.661	0.0169893
661.739	0.0169770
661.817	0.0169530
661.896	0.0168710
661.974	0.0168446
662.052	0.0167815
662.130	0.0166929
662.208	0.0165556
662.286	0.0165568
662.364	0.0164398
662.442	0.0165620
662.521	0.0164363
662.599	0.0162261
662.677	0.0161839
662.755	0.0163055
662.833	0.0162479
662.911	0.0161314
662.989	0.0160703
663.067	0.0161104
663.146	0.0160161
663.224	0.0160342
663.302	0.0160404
663.380	0.0160966
663.458	0.0159333
663.536	0.0158714
663.614	0.0158762
663.692	0.0158231
663.771	0.0158222
663.849	0.0157396
663.927	0.0158385
664.005	0.0157502
664.083	0.0157760
664.161	0.0157158
664.239	0.0156841
664.317	0.0157286
664.396	0.0156017
664.474	0.0157011
664.552	0.0155430
664.630	0.0155301
664.708	0.0154689
664.786	0.0154907
664.864	0.0157205
664.942	0.0156222
665.021	0.0156293
665.099	0.0156523
665.177	0.0155739
665.255	0.0156869
665.333	0.0157665
665.411	0.0156319
665.489	0.0154974
665.567	0.0156100
665.646	0.0157117
665.724	0.0157153
665.802	0.0157917
665.880	0.0158899
665.958	0.0158179
666.036	0.0159873
666.114	0.0158163
666.192	0.0160400
666.271	0.0158146
666.349	0.0159763
666.427	0.0160381
666.505	0.0159673
666.583	0.0160126
666.661	0.0160169
666.739	0.0161362
666.817	0.0162451
666.896	0.0162022
666.974	0.0161864
667.052	0.0163127
667.130	0.0162842
667.208	0.0163834
667.286	0.0163859
667.364	0.0165318
667.442	0.0165314
667.521	0.0164938
667.599	0.0166736
667.677	0.0166376
667.755	0.0166531
667.833	0.0165846
667.911	0.0166166
667.989	0.0165698
668.067	0.0165254
668.146	0.0165571
668.224	0.0166544
668.302	0.0165093
668.380	0.0165404
668.458	0.0166801
668.536	0.0164342
668.614	0.0164964
668.692	0.0165786
668.771	0.0165533
668.849	0.0165141
668.927	0.0166336
669.005	0.0166582
669.083	0.0166277
669.161	0.0167151
669.239	0.0166737
669.317	0.0167213
669.396	0.0166833
669.474	0.0164712
669.552	0.0166281
669.630	0.0165356
669.708	0.0165108
669.786	0.0164139
669.864	0.0164606
669.942	0.0164259
670.021	0.0162835
670.099	0.0163940
670.177	0.0164426
670.255	0.0162731
670.333	0.0162814
670.411	0.0163916
670.489	0.0165169
670.567	0.0162759
670.646	0.0163711
670.724	0.0164279
670.802	0.0164291
670.880	0.0162940
670.958	0.0164347
671.036	0.0163146
671.114	0.0164337
671.192	0.0163984
671.271	0.0163094
671.349	0.0163857
671.427	0.0163207
671.505	0.0162778
671.583	0.0163864
671.661	0.0165256
671.739	0.0165371
671.817	0.0163850
671.896	0.0164393
671.974	0.0164036
672.052	0.0166325
672.130	0.0165440
672.208	0.0164916
672.286	0.0164761
672.364	0.0164263
672.442	0.0165513
672.521	0.0165845
672.599	0.0166692
672.677	0.0166397
672.755	0.0165721
672.833	0.0167751
672.911	0.0167548
672.989	0.0167178
673.067	0.0167269
673.146	0.0166704
673.224	0.0168771
673.302	0.0167565
673.380	0.0166145
673.458	0.0165945
673.536	0.0166615
673.614	0.0166087
673.692	0.0165515
673.771	0.0164440
673.849	0.0163689
673.927	0.0165564
674.005	0.0164673
674.083	0.0164859
674.161	0.0163373
674.239	0.0163894
674.317	0.0163149
674.396	0.0163622
674.474	0.0163579
674.552	0.0164720
674.630	0.0163177
674.708	0.0163704
674.786	0.0164693
674.864	0.0163932
674.942	0.0163732
675.021	0.0162902
675.099	0.0162476
675.177	0.0161623
675.255	0.0161524
675.333	0.0163411
675.411	0.0161717
675.489	0.0162191
675.567	0.0161514
675.646	0.0161999
675.724	0.0161632
675.802	0.0160919
675.880	0.0163294
675.958	0.0163939
676.036	0.0162907
676.114	0.0163300
676.192	0.0163789
676.271	0.0163643
676.349	0.0162666
676.427	0.0164385
676.505	0.0166350
676.583	0.0166122
676.661	0.0165239
676.739	0.0165241
676.817	0.0165569
676.896	0.0166898
676.974	0.0166096
677.052	0.0165482
677.130	0.0165696
677.208	0.0166450
677.286	0.0167167
677.364	0.0167078
677.442	0.0165289
677.521	0.0165793
677.599	0.0166297
677.677	0.0165690
677.755	0.0165773
677.833	0.0165760
677.911	0.0166689
677.989	0.0166261
678.067	0.0165170
678.146	0.0165659
678.224	0.0166209
678.302	0.0165470
678.380	0.0166042
678.458	0.0166285
678.536	0.0166493
678.614	0.0166843
678.692	0.0166349
678.771	0.0166445
678.849	0.0166440
678.927	0.0166101
679.005	0.0166179
679.083	0.0167460
679.161	0.0167936
679.239	0.0167086
679.317	0.0168697
679.396	0.0169760
679.474	0.0169691
679.552	0.0169061
679.630	0.0169833
679.708	0.0170616
679.786	0.0168622
679.864	0.0167743
679.942	0.0168795
680.021	0.0171081
680.099	0.0170667
680.177	0.0168321
680.255	0.0168074
680.333	0.0170894
680.411	0.0169637
680.489	0.0168496
680.567	0.0168020
680.646	0.0168945
680.724	0.0168117
680.802	0.0167237
680.880	0.0168117
680.958	0.0169563
681.036	0.0167816
681.114	0.0165808
681.192	0.0167206
681.271	0.0166322
681.349	0.0167672
681.427	0.0167338
681.505	0.0166740
681.583	0.0166282
681.661	0.0165889
681.739	0.0167163
681.817	0.0166002
681.896	0.0166122
681.974	0.0166383
682.052	0.0166770
682.130	0.0165621
682.208	0.0166342
682.286	0.0165369
682.364	0.0166818
682.442	0.0167074
682.521	0.0166213
682.599	0.0166050
682.677	0.0166230
682.755	0.0165772
682.833	0.0164311
682.911	0.0165160
682.989	0.0166027
683.067	0.0167060
683.146	0.0165413
683.224	0.0165486
683.302	0.0166711
683.380	0.0166441
683.458	0.0166348
683.536	0.0166082
683.614	0.0166214
683.692	0.0165533
683.771	0.0165328
683.849	0.0165192
683.927	0.0165598
684.005	0.0165319
684.083	0.0164655
684.161	0.0164980
684.239	0.0164930
684.317	0.0165565
684.396	0.0164240
684.474	0.0163812
684.552	0.0162980
684.630	0.0163802
684.708	0.0163705
684.786	0.0163283
684.864	0.0164075
684.942	0.0163451
685.021	0.0164111
685.099	0.0163485
685.177	0.0163223
685.255	0.0163554
685.333	0.0164484
685.411	0.0163760
685.489	0.0162655
685.567	0.0163096
685.646	0.0163626
685.724	0.0162808
685.802	0.0163461
685.880	0.0162486
685.958	0.0162206
686.036	0.0162042
686.114	0.0163557
686.192	0.0161793
686.271	0.0160891
686.349	0.0162057
686.427	0.0162609
686.505	0.0161064
686.583	0.0162572
686.661	0.0160501
686.739	0.0159406
686.817	0.0158200
686.896	0.0160885
686.974	0.0160722
687.052	0.0158999
687.130	0.0159599
687.208	0.0157922
687.286	0.0159192
687.364	0.0159168
687.442	0.0159905
687.521	0.0159272
687.599	0.0158701
687.677	0.0159328
687.755	0.0159748
687.833	0.0160907
687.911	0.0161002
687.989	0.0161208
688.067	0.0161563
688.146	0.0161375
688.224	0.0161259
688.302	0.0161786
688.380	0.0161044
688.458	0.0163170
688.536	0.0162054
688.614	0.0162741
688.692	0.0161536
688.771	0.0160352
688.849	0.0160861
688.927	0.0161970
689.005	0.0162154
689.083	0.0163139
689.161	0.0163094
689.239	0.0161249
689.317	0.0163682
689.396	0.0163222
689.474	0.0162806
689.552	0.0162601
689.630	0.0162207
689.708	0.0162885
689.786	0.0162022
689.864	0.0161187
689.942	0.0161304
690.021	0.0162600
690.099	0.0163084
690.177	0.0162062
690.255	0.0161318
690.333	0.0161420
690.411	0.0160203
690.489	0.0161343
690.567	0.0160476
690.646	0.0161024
690.724	0.0161047
690.802	0.0160403
690.880	0.0160350
690.958	0.0161176
691.036	0.0160172
691.114	0.0159470
691.192	0.0160718
691.271	0.0160807
691.349	0.0161626
691.427	0.0162157
691.505	0.0161462
691.583	0.0160555
691.661	0.0161346
691.739	0.0162917
691.817	0.0162727
691.896	0.0163069
691.974	0.0163483
692.052	0.0164429
692.130	0.0163715
692.208	0.0163933
692.286	0.0164507
692.364	0.0165735
692.442	0.0165540
692.521	0.0166357
692.599	0.0166270
692.677	0.0166279
692.755	0.0167702
692.833	0.0167125
692.911	0.0166635
692.989	0.0166467
693.067	0.0167329
693.146	0.0166777
693.224	0.0168600
693.302	0.0168166
693.380	0.0169115
693.458	0.0168706
693.536	0.0168943
693.614	0.0168447
693.692	0.0168277
693.771	0.0169301
693.849	0.0169270
693.927	0.0167928
694.005	0.0168226
694.083	0.0168843
694.161	0.0169420
694.239	0.0169641
694.317	0.0168210
694.396	0.0167890
694.474	0.0168388
694.552	0.0168988
694.630	0.0168309
694.708	0.0168458
694.786	0.0169394
694.864	0.0168892
694.942	0.0169455
695.021	0.0169254
695.099	0.0169365
695.177	0.0169839
695.255	0.0169319
695.333	0.0170007
695.411	0.0167947
695.489	0.0168321
695.567	0.0168197
695.646	0.0168944
695.724	0.0170271
695.802	0.0169568
695.880	0.0169050
695.958	0.0171183
696.036	0.0170986
696.114	0.0170879
696.192	0.0172603
696.271	0.0172553
696.349	0.0174967
696.427	0.0174794
696.505	0.0173238
696.583	0.0173358
696.661	0.0175019
696.739	0.0175186
696.817	0.0174960
696.896	0.0176113
696.974	0.0175092
697.052	0.0175060
697.130	0.0173727
697.208	0.0174866
697.286	0.0174960
697.364	0.0173656
697.442	0.0172250
697.521	0.0171381
697.599	0.0170314
697.677	0.0170370
697.755	0.0168064
697.833	0.0169476
697.911	0.0168694
697.989	0.0166999
698.067	0.0165592
698.146	0.0166723
698.224	0.0165354
698.302	0.0164332
698.380	0.0163565
698.458	0.0162376
698.536	0.0162145
698.614	0.0162491
698.692	0.0162923
698.771	0.0162324
698.849	0.0162328
698.927	0.0161462
699.005	0.0162098
699.083	0.0161432
699.161	0.0160764
699.239	0.0161877
699.317	0.0160417
699.396	0.0161832
699.474	0.0159686
699.552	0.0159833
699.630	0.0159192
699.708	0.0160318
699.786	0.0160616
699.864	0.0159660
699.942	0.0158842
700.021	0.0159657
700.099	0.0158809
700.177	0.0158675
700.255	0.0158347
700.333	0.0159058
700.411	0.0159050
700.489	0.0159457
700.567	0.0159116
700.646	0.0159532
700.724	0.0160577
700.802	0.0160248
700.880	0.0160523
700.958	0.0160772
701.036	0.0159197
701.114	0.0161642
701.192	0.0161411
701.271	0.0160683
701.349	0.0162284
701.427	0.0163670
701.505	0.0162829
701.583	0.0160432
701.661	0.0160959
701.739	0.0162444
701.817	0.0162185
701.896	0.0163547
701.974	0.0161602
702.052	0.0162247
702.130	0.0161491
702.208	0.0160493
702.286	0.0160809
702.364	0.0161800
702.442	0.0160745
702.521	0.0160429
702.599	0.0161269
702.677	0.0161971
702.755	0.0161531
702.833	0.0161433
702.911	0.0162306
702.989	0.0163800
703.067	0.0164494
703.146	0.0164175
703.224	0.0166819
703.302	0.0165119
703.380	0.0168132
703.458	0.0168201
703.536	0.0167861
703.614	0.0168972
703.692	0.0169413
703.771	0.0168178
703.849	0.0170395
703.927	0.0170644
704.005	0.0169254
704.083	0.0168893
704.161	0.0170341
704.239	0.0169070
704.317	0.0168471
704.396	0.0170056
704.474	0.0169468
704.552	0.0167967
704.630	0.0166138
704.708	0.0166957
704.786	0.0167711
704.864	0.0166344
704.942	0.0166645
705.021	0.0166949
705.099	0.0167355
705.177	0.0166748
705.255	0.0165323
705.333	0.0164217
705.411	0.0167218
705.489	0.0166630
705.567	0.0164753
705.646	0.0165250
705.724	0.0166685
705.802	0.0166341
705.880	0.0165706
705.958	0.0165833
706.036	0.0168420
706.114	0.0166643
706.192	0.0166548
706.271	0.0166414
706.349	0.0167710
706.427	0.0167223
706.505	0.0167988
706.583	0.0168544
706.661	0.0167343
706.739	0.0167611
706.817	0.0168018
706.896	0.0166785
706.974	0.0167204
707.052	0.0168895
707.130	0.0167608
707.208	0.0167760
707.286	0.0167182
707.364	0.0166948
707.442	0.0166644
707.521	0.0166074
707.599	0.0164462
707.677	0.0164783
707.755	0.0166006
707.833	0.0166070
707.911	0.0163320
707.989	0.0164633
708.067	0.0163753
708.146	0.0163184
708.224	0.0162959
708.302	0.0163726
708.380	0.0163829
708.458	0.0162540
708.536	0.0162371
708.614	0.0161257
708.692	0.0161829
708.771	0.0161189
708.849	0.0161144
708.927	0.0159727
709.005	0.0159556
709.083	0.0160121
709.161	0.0160577
709.239	0.0159216
709.317	0.0159998
709.396	0.0158741
709.474	0.0159187
709.552	0.0158970
709.630	0.0159121
709.708	0.0159087
709.786	0.0159277
709.864	0.0159702
709.942	0.0159641
710.021	0.0159035
710.099	0.0158147
710.177	0.0159209
710.255	0.0159203
710.333	0.0159784
710.411	0.0160713
710.489	0.0160331
710.567	0.0158455
710.646	0.0160661
710.724	0.0159174
710.802	0.0158259
710.880	0.0159174
710.958	0.0158983
711.036	0.0158672
711.114	0.0160349
711.192	0.0160787
711.271	0.0159957
711.349	0.0159911
711.427	0.0161209
711.505	0.0161497
711.583	0.0160339
711.661	0.0159668
711.739	0.0159700
711.817	0.0159861
711.896	0.0160353
711.974	0.0160110
712.052	0.0160393
712.130	0.0160642
712.208	0.0161462
712.286	0.0159549
712.364	0.0158942
712.442	0.0159982
712.521	0.0159396
712.599	0.0159692
712.677	0.0160810
712.755	0.0159808
712.833	0.0159723
712.911	0.0160986
712.989	0.0161466
713.067	0.0161642
713.146	0.0162725
713.224	0.0163132
713.302	0.0163554
713.380	0.0164240
713.458	0.0165059
713.536	0.0164868
713.614	0.0164671
713.692	0.0165525
713.771	0.0165773
713.849	0.0165466
713.927	0.0168377
714.005	0.0167805
714.083	0.0166609
714.161	0.0166881
714.239	0.0165697
714.317	0.0166159
714.396	0.0167113
714.474	0.0167503
714.552	0.0166519
714.630	0.0166800
714.708	0.0168003
714.786	0.0167616
714.864	0.0165925
714.942	0.0166459
715.021	0.0168122
715.099	0.0167168
715.177	0.0168660
715.255	0.0167408
715.333	0.0168800
715.411	0.0169405
715.489	0.0170134
715.567	0.0171330
715.646	0.0170952
715.724	0.0170869
715.802	0.0171752
715.880	0.0171210
715.958	0.0172140
716.036	0.0173135
716.114	0.0173196
716.192	0.0172686
716.271	0.0173882
716.349	0.0172337
716.427	0.0171881
716.505	0.0174128
716.583	0.0173546
716.661	0.0173383
716.739	0.0173875
716.817	0.0172987
716.896	0.0172764
716.974	0.0173952
717.052	0.0172844
717.130	0.0172488
717.208	0.0174274
717.286	0.0174092
717.364	0.0173679
717.442	0.0172404
717.521	0.0172004
717.599	0.0173807
717.677	0.0173259
717.755	0.0172452
717.833	0.0171500
717.911	0.0172567
717.989	0.0171664
718.067	0.0170195
718.146	0.0170763
718.224	0.0169979
718.302	0.0170152
718.380	0.0169178
718.458	0.0167583
718.536	0.0166552
718.614	0.0167409
718.692	0.0166914
718.771	0.0166325
718.849	0.0166199
718.927	0.0165534
719.005	0.0166243
719.083	0.0165036
719.161	0.0163647
719.239	0.0164395
719.317	0.0164920
719.396	0.0164849
719.474	0.0164203
719.552	0.0162724
719.630	0.0164008
719.708	0.0165309
719.786	0.0165273
719.864	0.0165038
719.942	0.0167169
720.021	0.0167839
720.099	0.0168577
720.177	0.0169569
720.255	0.0170332
720.333	0.0171998
720.411	0.0172454
720.489	0.0171894
720.567	0.0174076
720.646	0.0174010
720.724	0.0174577
720.802	0.0175073
720.880	0.0174327
720.958	0.0173299
721.036	0.0173256
721.114	0.0172972
721.192	0.0171628
721.271	0.0169404
721.349	0.0169238
721.427	0.0167106
721.505	0.0166423
721.583	0.0164029
721.661	0.0164291
721.739	0.0164138
721.817	0.0161010
721.896	0.0159807
721.974	0.0158363
722.052	0.0156673
722.130	0.0157138
722.208	0.0156091
722.286	0.0155872
722.364	0.0156147
722.442	0.0155002
722.521	0.0154823
722.599	0.0154665
722.677	0.0154774
722.755	0.0154759
722.833	0.0156779
722.911	0.0157362
722.989	0.0155899
723.067	0.0158156
723.146	0.0160704
723.224	0.0161068
723.302	0.0162174
723.380	0.0160714
723.458	0.0161846
723.536	0.0162716
723.614	0.0163271
723.692	0.0163738
723.771	0.0165485
723.849	0.0165912
723.927	0.0165489
724.005	0.0165196
724.083	0.0167028
724.161	0.0166661
724.239	0.0166559
724.317	0.0166987
724.396	0.0167213
724.474	0.0167313
724.552	0.0166336
724.630	0.0166254
724.708	0.0167347
724.786	0.0167251
724.864	0.0166750
724.942	0.0166028
725.021	0.0167142
725.099	0.0166202
725.177	0.0166369
725.255	0.0166309
725.333	0.0167496
725.411	0.0166587
725.489	0.0165852
725.567	0.0166799
725.646	0.0164407
725.724	0.0166629
725.802	0.0164822
725.880	0.0168249
725.958	0.0167173
726.036	0.0166534
726.114	0.0165908
726.192	0.0165955
726.271	0.0166381
726.349	0.0166375
726.427	0.0166951
726.505	0.0167014
726.583	0.0167102
726.661	0.0165312
726.739	0.0164722
726.817	0.0165162
726.896	0.0165813
726.974	0.0165216
727.052	0.0165516
727.130	0.0165781
727.208	0.0164207
727.286	0.0164984
727.364	0.0164200
727.442	0.0162623
727.521	0.0163579
727.599	0.0163200
727.677	0.0161513
727.755	0.0162357
727.833	0.0162832
727.911	0.0161443
727.989	0.0160279
728.067	0.0162177
728.146	0.0160898
728.224	0.0162383
728.302	0.0161767
728.380	0.0161043
728.458	0.0162152
728.536	0.0161972
728.614	0.0162276
728.692	0.0163618
728.771	0.0162743
728.849	0.0162843
728.927	0.0165546
729.005	0.0165738
729.083	0.0166344
729.161	0.0167537
729.239	0.0166234
729.317	0.0167286
729.396	0.0168898
729.474	0.0167685
729.552	0.0168559
729.630	0.0167841
729.708	0.0167546
729.786	0.0167964
729.864	0.0167670
729.942	0.0167203
730.021	0.0167168
730.099	0.0166218
730.177	0.0167644
730.255	0.0165966
730.333	0.0167044
730.411	0.0167180
730.489	0.0166962
730.567	0.0167329
730.646	0.0167669
730.724	0.0166081
730.802	0.0165514
730.880	0.0165258
730.958	0.0166590
731.036	0.0165242
731.114	0.0164375
731.192	0.0163106
731.271	0.0163609
731.349	0.0162677
731.427	0.0162116
731.505	0.0162677
731.583	0.0162103
731.661	0.0162704
731.739	0.0161538
731.817	0.0161792
731.896	0.0159407
731.974	0.0161131
732.052	0.0161064
732.130	0.0160291
732.208	0.0160235
732.286	0.0162154
732.364	0.0161990
732.442	0.0162206
732.521	0.0163739
732.599	0.0162148
732.677	0.0162901
732.755	0.0164877
732.833	0.0165453
732.911	0.0164069
732.989	0.0165506
733.067	0.0166970
733.146	0.0163457
733.224	0.0164360
733.302	0.0165646
733.380	0.0164410
733.458	0.0164305
733.536	0.0163882
733.614	0.0161700
733.692	0.0163899
733.771	0.0163522
733.849	0.0160950
733.927	0.0163519
734.005	0.0163776
734.083	0.0162795
734.161	0.0162622
734.239	0.0163699
734.317	0.0164368
734.396	0.0162422
734.474	0.0164088
734.552	0.0163889
734.630	0.0165626
734.708	0.0165435
734.786	0.0165211
734.864	0.0167449
734.942	0.0167327
735.021	0.0166710
735.099	0.0167113
735.177	0.0167664
735.255	0.0168600
735.333	0.0168539
735.411	0.0168909
735.489	0.0169096
735.567	0.0170424
735.646	0.0170197
735.724	0.0169990
735.802	0.0169398
735.880	0.0169583
735.958	0.0170084
736.036	0.0170087
736.114	0.0168385
736.192	0.0168991
736.271	0.0169037
736.349	0.0168014
736.427	0.0167397
736.505	0.0167082
736.583	0.0166788
736.661	0.0166662
736.739	0.0165890
736.817	0.0165356
736.896	0.0165256
736.974	0.0164783
737.052	0.0165366
737.130	0.0166110
737.208	0.0166499
737.286	0.0166402
737.364	0.0166999
737.442	0.0166059
737.521	0.0166022
737.599	0.0167229
737.677	0.0168081
737.755	0.0167208
737.833	0.0167353
737.911	0.0167079
737.989	0.0166380
738.067	0.0166909
738.146	0.0169048
738.224	0.0165825
738.302	0.0166099
738.380	0.0165425
738.458	0.0164965
738.536	0.0163698
738.614	0.0163190
738.692	0.0161941
738.771	0.0161237
738.849	0.0162143
738.927	0.0162341
739.005	0.0160985
739.083	0.0161210
739.161	0.0161613
739.239	0.0160988
739.317	0.0160994
739.396	0.0160474
739.474	0.0160868
739.552	0.0161539
739.630	0.0162152
739.708	0.0161530
739.786	0.0163358
739.864	0.0162888
739.942	0.0162931
740.021	0.0163107
740.099	0.0164043
740.177	0.0162231
740.255	0.0165012
740.333	0.0164126
740.411	0.0164968
740.489	0.0166788
740.567	0.0165868
740.646	0.0165018
740.724	0.0165208
740.802	0.0166675
740.880	0.0166698
740.958	0.0165759
741.036	0.0166013
741.114	0.0166489
741.192	0.0164190
741.271	0.0164571
741.349	0.0166184
741.427	0.0167648
741.505	0.0165681
741.583	0.0165542
741.661	0.0164968
741.739	0.0166758
741.817	0.0168758
741.896	0.0168388
741.974	0.0167179
742.052	0.0168442
742.130	0.0169447
742.208	0.0169128
742.286	0.0168394
742.364	0.0168070
742.442	0.0169165
742.521	0.0168153
742.599	0.0167522
742.677	0.0168063
742.755	0.0167078
742.833	0.0166526
742.911	0.0167338
742.989	0.0165958
743.067	0.0164590
743.146	0.0162251
743.224	0.0161913
743.302	0.0162143
743.380	0.0161178
743.458	0.0160110
743.536	0.0158922
743.614	0.0158768
743.692	0.0157996
743.771	0.0157462
743.849	0.0155858
743.927	0.0156827
744.005	0.0156966
744.083	0.0156959
744.161	0.0158441
744.239	0.0158887
744.317	0.0160474
744.396	0.0159149
744.474	0.0159853
744.552	0.0159666
744.630	0.0162698
744.708	0.0162526
744.786	0.0161890
744.864	0.0164114
744.942	0.0163909
745.021	0.0164819
745.099	0.0165640
745.177	0.0165876
745.255	0.0167007
745.333	0.0167704
745.411	0.0167937
745.489	0.0168814
745.567	0.0167786
745.646	0.0170116
745.724	0.0169595
745.802	0.0169048
745.880	0.0168161
745.958	0.0168767
746.036	0.0168668
746.114	0.0169863
746.192	0.0168290
746.271	0.0166557
746.349	0.0168025
746.427	0.0167321
746.505	0.0167326
746.583	0.0165811
746.661	0.0166560
746.739	0.0166058
746.817	0.0163969
746.896	0.0164609
746.974	0.0163667
747.052	0.0164349
747.130	0.0163927
747.208	0.0165519
747.286	0.0165379
747.364	0.0164864
747.442	0.0165202
747.521	0.0165538
747.599	0.0166033
747.677	0.0165347
747.755	0.0164812
747.833	0.0165504
747.911	0.0166293
747.989	0.0166650
748.067	0.0166898
748.146	0.0167323
748.224	0.0167612
748.302	0.0168063
748.380	0.0167863
748.458	0.0168073
748.536	0.0168966
748.614	0.0169237
748.692	0.0169911
748.771	0.0169801
748.849	0.0168673
748.927	0.0170469
749.005	0.0170899
749.083	0.0168749
749.161	0.0169070
749.239	0.0169081
749.317	0.0169267
749.396	0.0169757
749.474	0.0168969
749.552	0.0170145
749.630	0.0169868
749.708	0.0169689
749.786	0.0169433
749.864	0.0167957
749.942	0.0167242
750.021	0.0167666
750.099	0.0165126
750.177	0.0166837
750.255	0.0165349
750.333	0.0165866
750.411	0.0164691
750.489	0.0164703
750.567	0.0164153
750.646	0.0163776
750.724	0.0162666
750.802	0.0162849
750.880	0.0162127
750.958	0.0162126
751.036	0.0161623
751.114	0.0162781
751.192	0.0162349
751.271	0.0161927
751.349	0.0162402
751.427	0.0161912
751.505	0.0162031
751.583	0.0161397
751.661	0.0162705
751.739	0.0162495
751.817	0.0161543
751.896	0.0162743
751.974	0.0161262
752.052	0.0161329
752.130	0.0161129
752.208	0.0160373
752.286	0.0161923
752.364	0.0161665
752.442	0.0159592
752.521	0.0160822
752.599	0.0161608
752.677	0.0161356
752.755	0.0161404
752.833	0.0160972
752.911	0.0161568
752.989	0.0161742
753.067	0.0161253
753.146	0.0163178
753.224	0.0160947
753.302	0.0162673
753.380	0.0163018
753.458	0.0162381
753.536	0.0162123
753.614	0.0163024
753.692	0.0164904
753.771	0.0163644
753.849	0.0163510
753.927	0.0163396
754.005	0.0163731
754.083	0.0163262
754.161	0.0163400
754.239	0.0163029
754.317	0.0162251
754.396	0.0162821
754.474	0.0162907
754.552	0.0162862
754.630	0.0162848
754.708	0.0163405
754.786	0.0163883
754.864	0.0163291
754.942	0.0163387
755.021	0.0163993
755.099	0.0163508
755.177	0.0165034
755.255	0.0164201
755.333	0.0165203
755.411	0.0163811
755.489	0.0164638
755.567	0.0165779
755.646	0.0164774
755.724	0.0164428
755.802	0.0164867
755.880	0.0164003
755.958	0.0165643
756.036	0.0165876
756.114	0.0164932
756.192	0.0165424
756.271	0.0166695
756.349	0.0164460
756.427	0.0166115
756.505	0.0166816
756.583	0.0165586
756.661	0.0166016
756.739	0.0166550
756.817	0.0167962
756.896	0.0167146
756.974	0.0165625
757.052	0.0168063
757.130	0.0167625
757.208	0.0167625
757.286	0.0166519
757.364	0.0167712
757.442	0.0167212
757.521	0.0168450
757.599	0.0168320
757.677	0.0167505
757.755	0.0166245
757.833	0.0168216
757.911	0.0168172
757.989	0.0169880
758.067	0.0168587
758.146	0.0169578
758.224	0.0169040
758.302	0.0169014
758.380	0.0169058
758.458	0.0169952
758.536	0.0168430
758.614	0.0169381
758.692	0.0169160
758.771	0.0171581
758.849	0.0171749
758.927	0.0170966
759.005	0.0170605
759.083	0.0170260
759.161	0.0171539
759.239	0.0171238
759.317	0.0169794
759.396	0.0170588
759.474	0.0171302
759.552	0.0169890
759.630	0.0169868
759.708	0.0169297
759.786	0.0169638
759.864	0.0169566
759.942	0.0169172
760.021	0.0167615
760.099	0.0169185
760.177	0.0165797
760.255	0.0167262
760.333	0.0167016
760.411	0.0166084
760.489	0.0165328
760.567	0.0165111
760.646	0.0163995
760.724	0.0163288
760.802	0.0164473
760.880	0.0164083
760.958	0.0162607
761.036	0.0162070
761.114	0.0161917
761.192	0.0163193
761.271	0.0162796
761.349	0.0160485
761.427	0.0162782
761.505	0.0161902
761.583	0.0162007
761.661	0.0162959
761.739	0.0162360
761.817	0.0162332
761.896	0.0162662
761.974	0.0163060
762.052	0.0162601
762.130	0.0162679
762.208	0.0163328
762.286	0.0163429
762.364	0.0164590
762.442	0.0163187
762.521	0.0163772
762.599	0.0164207
762.677	0.0163653
762.755	0.0163301
762.833	0.0164487
762.911	0.0165674
762.989	0.0163905
763.067	0.0166724
763.146	0.0165802
763.224	0.0166320
763.302	0.0166404
763.380	0.0166071
763.458	0.0166132
763.536	0.0165344
763.614	0.0165899
763.692	0.0165779
763.771	0.0166511
763.849	0.0164924
763.927	0.0165466
764.005	0.0164141
764.083	0.0164520
764.161	0.0164819
764.239	0.0165367
764.317	0.0163807
764.396	0.0164329
764.474	0.0164152
764.552	0.0164923
764.630	0.0164832
764.708	0.0163609
764.786	0.0162898
764.864	0.0163914
764.942	0.0164271
765.021	0.0163103
765.099	0.0163750
765.177	0.0164388
765.255	0.0163899
765.333	0.0164943
765.411	0.0163540
765.489	0.0162820
765.567	0.0163445
765.646	0.0162733
765.724	0.0163892
765.802	0.0162618
765.880	0.0164598
765.958	0.0164159
766.036	0.0163416
766.114	0.0163660
766.192	0.0165099
766.271	0.0165022
766.349	0.0163980
766.427	0.0161868
766.505	0.0162093
766.583	0.0162629
766.661	0.0163420
766.739	0.0160262
766.817	0.0161787
766.896	0.0159951
766.974	0.0162071
767.052	0.0160195
767.130	0.0159389
767.208	0.0161420
767.286	0.0159886
767.364	0.0160236
767.442	0.0161326
767.521	0.0161124
767.599	0.0161275
767.677	0.0161374
767.755	0.0162383
767.833	0.0162669
767.911	0.0162788
767.989	0.0163389
768.067	0.0164250
768.146	0.0164423
768.224	0.0165363
768.302	0.0164359
768.380	0.0166202
768.458	0.0166962
768.536	0.0166936
768.614	0.0167776
768.692	0.0166289
768.771	0.0167556
768.849	0.0168295
768.927	0.0166650
769.005	0.0166851
769.083	0.0166200
769.161	0.0166307
769.239	0.0167145
769.317	0.0166003
769.396	0.0168034
769.474	0.0167450
769.552	0.0167456
769.630	0.0167680
769.708	0.0167419
769.786	0.0168262
769.864	0.0166853
769.942	0.0166086
770.021	0.0166906
770.099	0.0167259
770.177	0.0166278
770.255	0.0166728
770.333	0.0166015
770.411	0.0167278
770.489	0.0166362
770.567	0.0165733
770.646	0.0164485
770.724	0.0164255
770.802	0.0164519
770.880	0.0163630
770.958	0.0163393
771.036	0.0164230
771.114	0.0163726
771.192	0.0163661
771.271	0.0163707
771.349	0.0162432
771.427	0.0162502
771.505	0.0162249
771.583	0.0163810
771.661	0.0162135
771.739	0.0162916
771.817	0.0162254
771.896	0.0161500
771.974	0.0163848
772.052	0.0162449
772.130	0.0162114
772.208	0.0164185
772.286	0.0162695
772.364	0.0163676
772.442	0.0163143
772.521	0.0162832
772.599	0.0162715
772.677	0.0163441
772.755	0.0163332
772.833	0.0162952
772.911	0.0163966
772.989	0.0164730
773.067	0.0165000
773.146	0.0165110
773.224	0.0164413
773.302	0.0163996
773.380	0.0165720
773.458	0.0166876
773.536	0.0164489
773.614	0.0166453
773.692	0.0166183
773.771	0.0167155
773.849	0.0166958
773.927	0.0167171
774.005	0.0167883
774.083	0.0168055
774.161	0.0165936
774.239	0.0165721
774.317	0.0166391
774.396	0.0165953
774.474	0.0166900
774.552	0.0167433
774.630	0.0166489
774.708	0.0166127
774.786	0.0166747
774.864	0.0166051
774.942	0.0165025
775.021	0.0166001
775.099	0.0165032
775.177	0.0165567
775.255	0.0166647
775.333	0.0164816
775.411	0.0163934
775.489	0.0165166
775.567	0.0164370
775.646	0.0164821
775.724	0.0163267
775.802	0.0164022
775.880	0.0164348
775.958	0.0164127
776.036	0.0163485
776.114	0.0164440
776.192	0.0164655
776.271	0.0164214
776.349	0.0164732
776.427	0.0165472
776.505	0.0164652
776.583	0.0165874
776.661	0.0165379
776.739	0.0164188
776.817	0.0164425
776.896	0.0164478
776.974	0.0164490
777.052	0.0164677
777.130	0.0163320
777.208	0.0163648
777.286	0.0163736
777.364	0.0163438
777.442	0.0164286
777.521	0.0163406
777.599	0.0161266
777.677	0.0161249
777.755	0.0161006
777.833	0.0161895
777.911	0.0162044
777.989	0.0161305
778.067	0.0161572
778.146	0.0161611
778.224	0.0160361
778.302	0.0161400
778.380	0.0162072
778.458	0.0162312
778.536	0.0161023
778.614	0.0160994
778.692	0.0160870
778.771	0.0163112
778.849	0.0162839
778.927	0.0162022
779.005	0.0163354
779.083	0.0162909
779.161	0.0163942
779.239	0.0163852
779.317	0.0164417
779.396	0.0164194
779.474	0.0165641
779.552	0.0165600
779.630	0.0166821
779.708	0.0167129
779.786	0.0167934
779.864	0.0167957
779.942	0.0168628
780.021	0.0167527
780.099	0.0168204
780.177	0.0168755
780.255	0.0169112
780.333	0.0168629
780.411	0.0168346
780.489	0.0169166
780.567	0.0169559
780.646	0.0169270
780.724	0.0170210
780.802	0.0168820
780.880	0.0168771
780.958	0.0167783
781.036	0.0167701
781.114	0.0167448
781.192	0.0167959
781.271	0.0167361
781.349	0.0168909
781.427	0.0167706
781.505	0.0166553
781.583	0.0166697
781.661	0.0165822
781.739	0.0166840
781.817	0.0166412
781.896	0.0165946
781.974	0.0165887
782.052	0.0164941
782.130	0.0166086
782.208	0.0166135
782.286	0.0165146
782.364	0.0164961
782.442	0.0164816
782.521	0.0165142
782.599	0.0164349
782.677	0.0165768
782.755	0.0164985
782.833	0.0163484
782.911	0.0163269
782.989	0.0164794
783.067	0.0165698
783.146	0.0163644
783.224	0.0164339
783.302	0.0164686
783.380	0.0163698
783.458	0.0163891
783.536	0.0164184
783.614	0.0163715
783.692	0.0165004
783.771	0.0163992
783.849	0.0164305
783.927	0.0164713
784.005	0.0164204
784.083	0.0164415
784.161	0.0165216
784.239	0.0163907
784.317	0.0164700
784.396	0.0163612
784.474	0.0164998
784.552	0.0164224
784.630	0.0163523
784.708	0.0164670
784.786	0.0164529
784.864	0.0164065
784.942	0.0164465
785.021	0.0163699
785.099	0.0164029
785.177	0.0164085
785.255	0.0164378
785.333	0.0164072
785.411	0.0164621
785.489	0.0164328
785.567	0.0163650
785.646	0.0164811
785.724	0.0164098
785.802	0.0162817
785.880	0.0161915
785.958	0.0162379
786.036	0.0163161
786.114	0.0163428
786.192	0.0161783
786.271	0.0161579
786.349	0.0163073
786.427	0.0162889
786.505	0.0162029
786.583	0.0160773
786.661	0.0162495
786.739	0.0162775
786.817	0.0161356
786.896	0.0162277
786.974	0.0162173
787.052	0.0162474
787.130	0.0162932
787.208	0.0161474
787.286	0.0159951
787.364	0.0161464
787.442	0.0161231
787.521	0.0161151
787.599	0.0161272
787.677	0.0160886
787.755	0.0160056
787.833	0.0160620
787.911	0.0162442
787.989	0.0160444
788.067	0.0161269
788.146	0.0162257
788.224	0.0161942
788.302	0.0161359
788.380	0.0163020
788.458	0.0163670
788.536	0.0164500
788.614	0.0162552
788.692	0.0162453
788.771	0.0162745
788.849	0.0162555
788.927	0.0162038
789.005	0.0162743
789.083	0.0164709
789.161	0.0163387
789.239	0.0162263
789.317	0.0164909
789.396	0.0164150
789.474	0.0164833
789.552	0.0166139
789.630	0.0165880
789.708	0.0166486
789.786	0.0165506
789.864	0.0166892
789.942	0.0165999
790.021	0.0165962
790.099	0.0166332
790.177	0.0166943
790.255	0.0169247
790.333	0.0169836
790.411	0.0169614
790.489	0.0168739
790.567	0.0170467
790.646	0.0169197
790.724	0.0167786
790.802	0.0169872
790.880	0.0170142
790.958	0.0169742
791.036	0.0171138
791.114	0.0169291
791.192	0.0168748
791.271	0.0169439
791.349	0.0169334
791.427	0.0167759
791.505	0.0167077
791.583	0.0169731
791.661	0.0168414
791.739	0.0168233
791.817	0.0167010
791.896	0.0166508
791.974	0.0166524
792.052	0.0166196
792.130	0.0165569
792.208	0.0165558
792.286	0.0164977
792.364	0.0165147
792.442	0.0164879
792.521	0.0163489
792.599	0.0162596
792.677	0.0163843
792.755	0.0164431
792.833	0.0164138
792.911	0.0162945
792.989	0.0163599
793.067	0.0163696
793.146	0.0163787
793.224	0.0162204
793.302	0.0163926
793.380	0.0163993
793.458	0.0163651
793.536	0.0164548
793.614	0.0164580
793.692	0.0164753
793.771	0.0164324
793.849	0.0164716
793.927	0.0163673
794.005	0.0163427
794.083	0.0162307
794.161	0.0163802
794.239	0.0161948
794.317	0.0162045
794.396	0.0161284
794.474	0.0161762
794.552	0.0160818
794.630	0.0161700
794.708	0.0161070
794.786	0.0160633
794.864	0.0160487
794.942	0.0160663
795.021	0.0158710
795.099	0.0159613
795.177	0.0158530
795.255	0.0158347
795.333	0.0160674
795.411	0.0159632
795.489	0.0156735
795.567	0.0157454
795.646	0.0158117
795.724	0.0156184
795.802	0.0158443
795.880	0.0157780
795.958	0.0156555
796.036	0.0158115
796.114	0.0160012
796.192	0.0158570
796.271	0.0159676
796.349	0.0160075
796.427	0.0159612
796.505	0.0158917
796.583	0.0160592
796.661	0.0159841
796.739	0.0160928
796.817	0.0161419
796.896	0.0162063
796.974	0.0160692
797.052	0.0162305
797.130	0.0161380
797.208	0.0162569
797.286	0.0162145
797.364	0.0161261
797.442	0.0163227
797.521	0.0162495
797.599	0.0161962
797.677	0.0161848
797.755	0.0162885
797.833	0.0162890
797.911	0.0164127
797.989	0.0163493
798.067	0.0163218
798.146	0.0164370
798.224	0.0163822
798.302	0.0164292
798.380	0.0162215
798.458	0.0164196
798.536	0.0163615
798.614	0.0164899
798.692	0.0162463
798.771	0.0164500
798.849	0.0163526
798.927	0.0162658
799.005	0.0165805
799.083	0.0163062
799.161	0.0163000
799.239	0.0164317
799.317	0.0164140
799.396	0.0165470
799.474	0.0164809
799.552	0.0162984
799.630	0.0164325
799.708	0.0164687
799.786	0.0164380
799.864	0.0163657
799.942	0.0165217
800.021	0.0164493
800.099	0.0166025
800.177	0.0166767
800.255	0.0166220
800.333	0.0167590
800.411	0.0166723
800.489	0.0167092
800.567	0.0168562
800.646	0.0166325
800.724	0.0167164
800.802	0.0166195
800.880	0.0165675
800.958	0.0166206
801.036	0.0165950
801.114	0.0166516
801.192	0.0166495
801.271	0.0165959
801.349	0.0165461
801.427	0.0165074
801.505	0.0164998
801.583	0.0165646
801.661	0.0165608
801.739	0.0165881
801.817	0.0165950
801.896	0.0165681
801.974	0.0166418
802.052	0.0165726
802.130	0.0166631
802.208	0.0166833
802.286	0.0166263
802.364	0.0165670
802.442	0.0166228
802.521	0.0167085
802.599	0.0167071
802.677	0.0165063
802.755	0.0165594
802.833	0.0165448
802.911	0.0167081
802.989	0.0166914
803.067	0.0166449
803.146	0.0163317
803.224	0.0163768
803.302	0.0164886
803.380	0.0165028
803.458	0.0165170
803.536	0.0162737
803.614	0.0163876
803.692	0.0163358
803.771	0.0162480
803.849	0.0161961
803.927	0.0160716
804.005	0.0162051
804.083	0.0163301
804.161	0.0161763
804.239	0.0159565
804.317	0.0162540
804.396	0.0161922
804.474	0.0160942
804.552	0.0160329
804.630	0.0160461
804.708	0.0161137
804.786	0.0161321
804.864	0.0162030
804.942	0.0160892
805.021	0.0161285
805.099	0.0159902
805.177	0.0160400
805.255	0.0159959
805.333	0.0159570
805.411	0.0159821
805.489	0.0160469
805.567	0.0159695
805.646	0.0160124
805.724	0.0159225
805.802	0.0158343
805.880	0.0160529
805.958	0.0159483
806.036	0.0159538
806.114	0.0159939
806.192	0.0160828
806.271	0.0160648
806.349	0.0161579
806.427	0.0161916
806.505	0.0162213
806.583	0.0161871
806.661	0.0161468
806.739	0.0163363
806.817	0.0163221
806.896	0.0164415
806.974	0.0162970
807.052	0.0165024
807.130	0.0165299
807.208	0.0164124
807.286	0.0166823
807.364	0.0168120
807.442	0.0166372
807.521	0.0165895
807.599	0.0166839
807.677	0.0168044
807.755	0.0168002
807.833	0.0168880
807.911	0.0167101
807.989	0.0167568
808.067	0.0169244
808.146	0.0168918
808.224	0.0168569
808.302	0.0168436
808.380	0.0168959
808.458	0.0169469
808.536	0.0168959
808.614	0.0168258
808.692	0.0169176
808.771	0.0170638
808.849	0.0169267
808.927	0.0170171
809.005	0.0169543
809.083	0.0171465
809.161	0.0170918
809.239	0.0170989
809.317	0.0171574
809.396	0.0169826
809.474	0.0170882
809.552	0.0169568
809.630	0.0169958
809.708	0.0171460
809.786	0.0171632
809.864	0.0170119
809.942	0.0168926
810.021	0.0170401
810.099	0.0170257
810.177	0.0169381
810.255	0.0168155
810.333	0.0169039
810.411	0.0167007
810.489	0.0168178
810.567	0.0167192
810.646	0.0167736
810.724	0.0166933
810.802	0.0165427
810.880	0.0166074
810.958	0.0163728
811.036	0.0163316
811.114	0.0163961
811.192	0.0163565
811.271	0.0163194
811.349	0.0163094
811.427	0.0162103
811.505	0.0163518
811.583	0.0161668
811.661	0.0161421
811.739	0.0161850
811.817	0.0162284
811.896	0.0161450
811.974	0.0162663
812.052	0.0163366
812.130	0.0162961
812.208	0.0162494
812.286	0.0164195
812.364	0.0164212
812.442	0.0165113
812.521	0.0164884
812.599	0.0166882
812.677	0.0163504
812.755	0.0163927
812.833	0.0166349
812.911	0.0165017
812.989	0.0165192
813.067	0.0166161
813.146	0.0165923
813.224	0.0164946
813.302	0.0164890
813.380	0.0166547
813.458	0.0167966
813.536	0.0165416
813.614	0.0167799
813.692	0.0165855
813.771	0.0166861
813.849	0.0166788
813.927	0.0165562
814.005	0.0164408
814.083	0.0165032
814.161	0.0166394
814.239	0.0165535
814.317	0.0164832
814.396	0.0163632
814.474	0.0164348
814.552	0.0163524
814.630	0.0162402
814.708	0.0162836
814.786	0.0161491
814.864	0.0159689
814.942	0.0160831
815.021	0.0161172
815.099	0.0160826
815.177	0.0158195
815.255	0.0160085
815.333	0.0159038
815.411	0.0158096
815.489	0.0159087
815.567	0.0158381
815.646	0.0157969
815.724	0.0157672
815.802	0.0157110
815.880	0.0158407
815.958	0.0157476
816.036	0.0158917
816.114	0.0158839
816.192	0.0159794
816.271	0.0160323
816.349	0.0160670
816.427	0.0160798
816.505	0.0160084
816.583	0.0161831
816.661	0.0161938
816.739	0.0164111
816.817	0.0164724
816.896	0.0162572
816.974	0.0165330
817.052	0.0164104
817.130	0.0165360
817.208	0.0164512
817.286	0.0166224
817.364	0.0164048
817.442	0.0165838
817.521	0.0164245
817.599	0.0162937
817.677	0.0164153
817.755	0.0163777
817.833	0.0163892
817.911	0.0162307
817.989	0.0162740
818.067	0.0163093
818.146	0.0161420
818.224	0.0161826
818.302	0.0161582
818.380	0.0159680
818.458	0.0160677
818.536	0.0161119
818.614	0.0160029
818.692	0.0160410
818.771	0.0159615
818.849	0.0160439
818.927	0.0160815
819.005	0.0160446
819.083	0.0160390
819.161	0.0160983
819.239	0.0161331
819.317	0.0161566
819.396	0.0163455
819.474	0.0161730
819.552	0.0163540
819.630	0.0165647
819.708	0.0164796
819.786	0.0165652
819.864	0.0166616
819.942	0.0167813
820.021	0.0167444
820.099	0.0168123
820.177	0.0170309
820.255	0.0169743
820.333	0.0168747
820.411	0.0170454
820.489	0.0170426
820.567	0.0170493
820.646	0.0171540
820.724	0.0171951
820.802	0.0170494
820.880	0.0170000
820.958	0.0171221
821.036	0.0170702
821.114	0.0170832
821.192	0.0169713
821.271	0.0171589
821.349	0.0171268
821.427	0.0170046
821.505	0.0171085
821.583	0.0170483
821.661	0.0172108
821.739	0.0170749
821.817	0.0169573
821.896	0.0170451
821.974	0.0168619
822.052	0.0167886
822.130	0.0168562
822.208	0.0170033
822.286	0.0168553
822.364	0.0168004
822.442	0.0167159
822.521	0.0166779
822.599	0.0166170
822.677	0.0167537
822.755	0.0167057
822.833	0.0166160
822.911	0.0166077
822.989	0.0165976
823.067	0.0165896
823.146	0.0167279
823.224	0.0165695
823.302	0.0167103
823.380	0.0165314
823.458	0.0166331
823.536	0.0167441
823.614	0.0168466
823.692	0.0166309
823.771	0.0166679
823.849	0.0167470
823.927	0.0167063
824.005	0.0167516
824.083	0.0166874
824.161	0.0168100
824.239	0.0167710
824.317	0.0167365
824.396	0.0168323
824.474	0.0168579
824.552	0.0167204
824.630	0.0167369
824.708	0.0169571
824.786	0.0168777
824.864	0.0167745
824.942	0.0168933
825.021	0.0170548
825.099	0.0169214
825.177	0.0169424
825.255	0.0168077
825.333	0.0169525
825.411	0.0170341
825.489	0.0169280
825.567	0.0168990
825.646	0.0168493
825.724	0.0168681
825.802	0.0168440
825.880	0.0168481
825.958	0.0168703
826.036	0.0166860
826.114	0.0165011
826.192	0.0167662
826.271	0.0167212
826.349	0.0165860
826.427	0.0166304
826.505	0.0165355
826.583	0.0165065
826.661	0.0164502
826.739	0.0164164
826.817	0.0166004
826.896	0.0165002
826.974	0.0165115
827.052	0.0163541
827.130	0.0163110
827.208	0.0163377
827.286	0.0161301
827.364	0.0161933
827.442	0.0162341
827.521	0.0160771
827.599	0.0161485
827.677	0.0161411
827.755	0.0160687
827.833	0.0160306
827.911	0.0161234
827.989	0.0160121
828.067	0.0161777
828.146	0.0160522
828.224	0.0161990
828.302	0.0161548
828.380	0.0160953
828.458	0.0161713
828.536	0.0160915
828.614	0.0160839
828.692	0.0161272
828.771	0.0161781
828.849	0.0160655
828.927	0.0161591
829.005	0.0161548
829.083	0.0160777
829.161	0.0162159
829.239	0.0162086
829.317	0.0163004
829.396	0.0162379
829.474	0.0162455
829.552	0.0164585
829.630	0.0164021
829.708	0.0163268
829.786	0.0165367
829.864	0.0163948
829.942	0.0163782
830.021	0.0164938
830.099	0.0166325
830.177	0.0165434
830.255	0.0163884
830.333	0.0165773
830.411	0.0165896
830.489	0.0163684
830.567	0.0163710
830.646	0.0164912
830.724	0.0164468
830.802	0.0163213
830.880	0.0163217
830.958	0.0163990
831.036	0.0164870
831.114	0.0165162
831.192	0.0164410
831.271	0.0164739
831.349	0.0164970
831.427	0.0165587
831.505	0.0164888
831.583	0.0165524
831.661	0.0166035
831.739	0.0164495
831.817	0.0165691
831.896	0.0167314
831.974	0.0165565
832.052	0.0166425
832.130	0.0167371
832.208	0.0167978
832.286	0.0167738
832.364	0.0168330
832.442	0.0167975
832.521	0.0169138
832.599	0.0169727
832.677	0.0169006
832.755	0.0169024
832.833	0.0169455
832.911	0.0169807
832.989	0.0170160
833.067	0.0170882
833.146	0.0169221
833.224	0.0169324
833.302	0.0169782
833.380	0.0169274
833.458	0.0169185
833.536	0.0169849
833.614	0.0170001
833.692	0.0170738
833.771	0.0169394
833.849	0.0169080
833.927	0.0169343
834.005	0.0168623
834.083	0.0169228
834.161	0.0168363
834.239	0.0169223
834.317	0.0169000
834.396	0.0168632
834.474	0.0169180
834.552	0.0169240
834.630	0.0168127
834.708	0.0169751
834.786	0.0168549
834.864	0.0167637
834.942	0.0169371
835.021	0.0169113
835.099	0.0169670
835.177	0.0169344
835.255	0.0169923
835.333	0.0169376
835.411	0.0167128
835.489	0.0168406
835.567	0.0170317
835.646	0.0168716
835.724	0.0168495
835.802	0.0168860
835.880	0.0169094
835.958	0.0168548
836.036	0.0167667
836.114	0.0165955
836.192	0.0165740
836.271	0.0165797
836.349	0.0165070
836.427	0.0164729
836.505	0.0164561
836.583	0.0165011
836.661	0.0163876
836.739	0.0162569
836.817	0.0164377
836.896	0.0164325
836.974	0.0163380
837.052	0.0165234
837.130	0.0163417
837.208	0.0164227
837.286	0.0163625
837.364	0.0162856
837.442	0.0163895
837.521	0.0164130
837.599	0.0163766
837.677	0.0164365
837.755	0.0162661
837.833	0.0163542
837.911	0.0164041
837.989	0.0164204
838.067	0.0164689
838.146	0.0163575
838.224	0.0164635
838.302	0.0165080
838.380	0.0164364
838.458	0.0164237
838.536	0.0164693
838.614	0.0163889
838.692	0.0164538
838.771	0.0164235
838.849	0.0164457
838.927	0.0162534
839.005	0.0162415
839.083	0.0164134
839.161	0.0162552
839.239	0.0163383
839.317	0.0162994
839.396	0.0163708
839.474	0.0162719
839.552	0.0162242
839.630	0.0162373
839.708	0.0163480
839.786	0.0163167
839.864	0.0162483
839.942	0.0161845
840.021	0.0163654
840.099	0.0163843
840.177	0.0162566
840.255	0.0162696
840.333	0.0162838
840.411	0.0162924
840.489	0.0163636
840.567	0.0163454
840.646	0.0162672
840.724	0.0162921
840.802	0.0164579
840.880	0.0164382
840.958	0.0164339
841.036	0.0164362
841.114	0.0163808
841.192	0.0163934
841.271	0.0164214
841.349	0.0164753
841.427	0.0165330
841.505	0.0165421
841.583	0.0164403
841.661	0.0164232
841.739	0.0164651
841.817	0.0166712
841.896	0.0166277
841.974	0.0167789
842.052	0.0167152
842.130	0.0167999
842.208	0.0166352
842.286	0.0168008
842.364	0.0167812
842.442	0.0167736
842.521	0.0167834
842.599	0.0167673
842.677	0.0168415
842.755	0.0167661
842.833	0.0166634
842.911	0.0166548
842.989	0.0167116
843.067	0.0167611
843.146	0.0167202
843.224	0.0165840
843.302	0.0164514
843.380	0.0166398
843.458	0.0166962
843.536	0.0166633
843.614	0.0165189
843.692	0.0165601
843.771	0.0164413
843.849	0.0163861
843.927	0.0164140
844.005	0.0164362
844.083	0.0165167
844.161	0.0165921
844.239	0.0162476
844.317	0.0164319
844.396	0.0165710
844.474	0.0164301
844.552	0.0163897
844.630	0.0165195
844.708	0.0165675
844.786	0.0165800
844.864	0.0164783
844.942	0.0164857
845.021	0.0165739
845.099	0.0165973
845.177	0.0164607
845.255	0.0164710
845.333	0.0165417
845.411	0.0166512
845.489	0.0164969
845.567	0.0166467
845.646	0.0165329
845.724	0.0165733
845.802	0.0167085
845.880	0.0166936
845.958	0.0167068
846.036	0.0167239
846.114	0.0168169
846.192	0.0168616
846.271	0.0168353
846.349	0.0168385
846.427	0.0169472
846.505	0.0170346
846.583	0.0168301
846.661	0.0168575
846.739	0.0169336
846.817	0.0168246
846.896	0.0170075
846.974	0.0169108
847.052	0.0168962
847.130	0.0168495
847.208	0.0169138
847.286	0.0170057
847.364	0.0168243
847.442	0.0169967
847.521	0.0169883
847.599	0.0170281
847.677	0.0168214
847.755	0.0168620
847.833	0.0168777
847.911	0.0168338
847.989	0.0169143
848.067	0.0166803
848.146	0.0167766
848.224	0.0167171
848.302	0.0168213
848.380	0.0167310
848.458	0.0166846
848.536	0.0165093
848.614	0.0165096
848.692	0.0166525
848.771	0.0164857
848.849	0.0165282
848.927	0.0165325
849.005	0.0164549
849.083	0.0164391
849.161	0.0165144
849.239	0.0164731
849.317	0.0165572
849.396	0.0165425
849.474	0.0165623
849.552	0.0164847
849.630	0.0164445
849.708	0.0164342
849.786	0.0165568
849.864	0.0166805
849.942	0.0166500
850.021	0.0167001
850.099	0.0167525
850.177	0.0167784
850.255	0.0167912
850.333	0.0167458
850.411	0.0167487
850.489	0.0168390
850.567	0.0169035
850.646	0.0168650
850.724	0.0168600
850.802	0.0168736
850.880	0.0168788
850.958	0.0168169
851.036	0.0166297
851.114	0.0167467
851.192	0.0166747
851.271	0.0166210
851.349	0.0165763
851.427	0.0164730
851.505	0.0163465
851.583	0.0164181
851.661	0.0163834
851.739	0.0163223
851.817	0.0163588
851.896	0.0162305
851.974	0.0162337
852.052	0.0161355
852.130	0.0162124
852.208	0.0162668
852.286	0.0161868
852.364	0.0162823
852.442	0.0161420
852.521	0.0162611
852.599	0.0163055
852.677	0.0161776
852.755	0.0160556
852.833	0.0162715
852.911	0.0161668
852.989	0.0163889
853.067	0.0161388
853.146	0.0161462
853.224	0.0161900
853.302	0.0161668
853.380	0.0161994
853.458	0.0160468
853.536	0.0160428
853.614	0.0162421
853.692	0.0162210
853.771	0.0161430
853.849	0.0161665
853.927	0.0162760
854.005	0.0163616
854.083	0.0163990
854.161	0.0163229
854.239	0.0162740
854.317	0.0163555
854.396	0.0165165
854.474	0.0163851
854.552	0.0165536
854.630	0.0164561
854.708	0.0165117
854.786	0.0166668
854.864	0.0165313
854.942	0.0164905
855.021	0.0165929
855.099	0.0166393
855.177	0.0164728
855.255	0.0167241
855.333	0.0165472
855.411	0.0165411
855.489	0.0166209
855.567	0.0164738
855.646	0.0165370
855.724	0.0165132
855.802	0.0164082
855.880	0.0165107
855.958	0.0165462
856.036	0.0164563
856.114	0.0164229
856.192	0.0166753
856.271	0.0167035
856.349	0.0167212
856.427	0.0166040
856.505	0.0166446
856.583	0.0167420
856.661	0.0167213
856.739	0.0167614
856.817	0.0167419
856.896	0.0168515
856.974	0.0168742
857.052	0.0169862
857.130	0.0169463
857.208	0.0167916
857.286	0.0168559
857.364	0.0168259
857.442	0.0168770
857.521	0.0167719
857.599	0.0167776
857.677	0.0169076
857.755	0.0166388
857.833	0.0167825
857.911	0.0167895
857.989	0.0169213
858.067	0.0166771
858.146	0.0167184
858.224	0.0167728
858.302	0.0167139
858.380	0.0166504
858.458	0.0167439
858.536	0.0167886
858.614	0.0165858
858.692	0.0165169
858.771	0.0166848
858.849	0.0166936
858.927	0.0164934
859.005	0.0164935
859.083	0.0165915
859.161	0.0165643
859.239	0.0164542
859.317	0.0164141
859.396	0.0164096
859.474	0.0165228
859.552	0.0164835
859.630	0.0163479
859.708	0.0163355
859.786	0.0164258
859.864	0.0163885
859.942	0.0162728
860.021	0.0163072
860.099	0.0163538
860.177	0.0163157
860.255	0.0163931
860.333	0.0163937
860.411	0.0162822
860.489	0.0164723
860.567	0.0164279
860.646	0.0163467
860.724	0.0163248
860.802	0.0165228
860.880	0.0165390
860.958	0.0163905
861.036	0.0164973
861.114	0.0165565
861.192	0.0166953
861.271	0.0165530
861.349	0.0166999
861.427	0.0166758
861.505	0.0166115
861.583	0.0166376
861.661	0.0165790
861.739	0.0167520
861.817	0.0168159
861.896	0.0165564
861.974	0.0166943
862.052	0.0167188
862.130	0.0167474
862.208	0.0166296
862.286	0.0165154
862.364	0.0166117
862.442	0.0166142
862.521	0.0164919
862.599	0.0164366
862.677	0.0166351
862.755	0.0165143
862.833	0.0163563
862.911	0.0163831
862.989	0.0163325
863.067	0.0162720
863.146	0.0163255
863.224	0.0163196
863.302	0.0162450
863.380	0.0163123
863.458	0.0162672
863.536	0.0161593
863.614	0.0162054
863.692	0.0161196
863.771	0.0159963
863.849	0.0161658
863.927	0.0160673
864.005	0.0160466
864.083	0.0159452
864.161	0.0160178
864.239	0.0160773
864.317	0.0160673
864.396	0.0160640
864.474	0.0161021
864.552	0.0160810
864.630	0.0161295
864.708	0.0161231
864.786	0.0162650
864.864	0.0161964
864.942	0.0162503
865.021	0.0162610
865.099	0.0163250
865.177	0.0163432
865.255	0.0163177
865.333	0.0164270
865.411	0.0166431
865.489	0.0164046
865.567	0.0165810
865.646	0.0165397
865.724	0.0165539
865.802	0.0167149
865.880	0.0166035
865.958	0.0166105
866.036	0.0166572
866.114	0.0166080
866.192	0.0165672
866.271	0.0166174
866.349	0.0165029
866.427	0.0165655
866.505	0.0164944
866.583	0.0165688
866.661	0.0165733
866.739	0.0164790
866.817	0.0163120
866.896	0.0163456
866.974	0.0163190
867.052	0.0162833
867.130	0.0162840
867.208	0.0162738
867.286	0.0161834
867.364	0.0162268
867.442	0.0161274
867.521	0.0163355
867.599	0.0163982
867.677	0.0163628
867.755	0.0163168
867.833	0.0164818
867.911	0.0165024
867.989	0.0165538
868.067	0.0164719
868.146	0.0167056
868.224	0.0166811
868.302	0.0166320
868.380	0.0166716
868.458	0.0167233
868.536	0.0167639
868.614	0.0166227
868.692	0.0166599
868.771	0.0166194
868.849	0.0166036
868.927	0.0165971
869.005	0.0165603
869.083	0.0163821
869.161	0.0164981
869.239	0.0165426
869.317	0.0165067
869.396	0.0165569
869.474	0.0164199
869.552	0.0164431
869.630	0.0163551
869.708	0.0163958
869.786	0.0164577
869.864	0.0164426
869.942	0.0164323
