06/03/2022	13:57:00	Ver.	4.1	UNKNOWN
Optical Delay	599.988409	Delta X		0.078125	Sweeps	1	Scan Rate	0/0
Coordinates	Axis 1	NaN	Axis 2	NaN	Axis 3	NaN	Axis 4	NaN	Axis 5	NaN	Axis 6	0.000000
TX Power	0.000000	RX Power	0.000000

599.988	0.0166286
600.067	0.0165560
600.145	0.0166275
600.223	0.0167060
600.301	0.0165267
600.379	0.0165605
600.457	0.0166572
600.535	0.0165559
600.613	0.0168293
600.692	0.0166830
600.770	0.0165524
600.848	0.0166104
600.926	0.0166327
601.004	0.0166905
601.082	0.0167702
601.160	0.0166740
601.238	0.0166353
601.317	0.0165189
601.395	0.0166175
601.473	0.0167836
601.551	0.0165833
601.629	0.0166054
601.707	0.0165347
601.785	0.0165779
601.863	0.0165636
601.942	0.0167410
602.020	0.0167441
602.098	0.0166137
602.176	0.0165912
602.254	0.0166293
602.332	0.0166716
602.410	0.0165662
602.488	0.0167142
602.567	0.0166720
602.645	0.0166721
602.723	0.0165551
602.801	0.0167415
602.879	0.0166730
602.957	0.0165951
603.035	0.0165012
603.113	0.0166512
603.192	0.0166418
603.270	0.0166271
603.348	0.0167473
603.426	0.0166635
603.504	0.0165691
603.582	0.0164943
603.660	0.0165694
603.738	0.0167535
603.817	0.0166773
603.895	0.0165387
603.973	0.0166999
604.051	0.0167192
604.129	0.0166815
604.207	0.0165307
604.285	0.0167186
604.363	0.0166410
604.442	0.0166457
604.520	0.0165594
604.598	0.0167419
604.676	0.0165842
604.754	0.0165704
604.832	0.0167371
604.910	0.0165899
604.988	0.0167007
605.067	0.0167096
605.145	0.0166967
605.223	0.0166947
605.301	0.0167001
605.379	0.0165579
605.457	0.0166053
605.535	0.0167559
605.613	0.0166709
605.692	0.0166801
605.770	0.0167233
605.848	0.0165698
605.926	0.0165598
606.004	0.0164877
606.082	0.0165644
606.160	0.0166278
606.238	0.0166810
606.317	0.0167480
606.395	0.0166377
606.473	0.0166349
606.551	0.0165064
606.629	0.0165676
606.707	0.0167100
606.785	0.0166599
606.863	0.0166790
606.942	0.0166763
607.020	0.0167528
607.098	0.0166602
607.176	0.0165951
607.254	0.0166695
607.332	0.0166109
607.410	0.0166005
607.488	0.0165733
607.567	0.0164674
607.645	0.0166736
607.723	0.0167673
607.801	0.0165968
607.879	0.0167176
607.957	0.0167153
608.035	0.0166336
608.113	0.0166340
608.192	0.0166415
608.270	0.0166745
608.348	0.0166756
608.426	0.0168490
608.504	0.0167470
608.582	0.0167212
608.660	0.0166075
608.738	0.0165807
608.817	0.0167762
608.895	0.0167256
608.973	0.0166537
609.051	0.0166859
609.129	0.0167899
609.207	0.0166949
609.285	0.0165842
609.363	0.0167054
609.442	0.0167016
609.520	0.0166611
609.598	0.0165661
609.676	0.0166203
609.754	0.0167495
609.832	0.0166713
609.910	0.0165255
609.988	0.0166132
610.067	0.0165961
610.145	0.0167348
610.223	0.0166339
610.301	0.0167553
610.379	0.0167071
610.457	0.0166377
610.535	0.0166386
610.613	0.0166897
610.692	0.0165472
610.770	0.0166871
610.848	0.0167303
610.926	0.0167292
611.004	0.0166191
611.082	0.0167015
611.160	0.0167946
611.238	0.0167072
611.317	0.0165442
611.395	0.0166400
611.473	0.0165195
611.551	0.0164648
611.629	0.0165742
611.707	0.0165013
611.785	0.0165857
611.863	0.0165622
611.942	0.0165533
612.020	0.0167006
612.098	0.0164534
612.176	0.0165512
612.254	0.0166939
612.332	0.0166970
612.410	0.0167581
612.488	0.0166569
612.567	0.0166057
612.645	0.0165526
612.723	0.0166715
612.801	0.0166543
612.879	0.0166826
612.957	0.0165897
613.035	0.0166505
613.113	0.0166082
613.192	0.0167416
613.270	0.0167500
613.348	0.0166277
613.426	0.0166070
613.504	0.0165215
613.582	0.0166848
613.660	0.0166845
613.738	0.0166169
613.817	0.0166401
613.895	0.0167219
613.973	0.0167191
614.051	0.0166319
614.129	0.0165294
614.207	0.0164748
614.285	0.0165208
614.363	0.0165536
614.442	0.0166510
614.520	0.0167008
614.598	0.0167219
614.676	0.0166103
614.754	0.0166358
614.832	0.0167532
614.910	0.0167769
614.988	0.0165475
615.067	0.0166180
615.145	0.0166651
615.223	0.0167262
615.301	0.0167524
615.379	0.0166866
615.457	0.0166322
615.535	0.0167185
615.613	0.0167770
615.692	0.0165705
615.770	0.0165081
615.848	0.0166125
615.926	0.0167136
616.004	0.0167207
616.082	0.0165694
616.160	0.0166200
616.238	0.0166542
616.317	0.0166251
616.395	0.0166265
616.473	0.0165533
616.551	0.0167205
616.629	0.0166032
616.707	0.0165411
616.785	0.0167547
616.863	0.0166146
616.942	0.0165668
617.020	0.0165906
617.098	0.0166879
617.176	0.0166598
617.254	0.0166395
617.332	0.0165759
617.410	0.0165159
617.488	0.0166948
617.567	0.0165672
617.645	0.0166364
617.723	0.0166338
617.801	0.0166388
617.879	0.0167714
617.957	0.0167027
618.035	0.0166122
618.113	0.0166396
618.192	0.0165448
618.270	0.0167622
618.348	0.0166297
618.426	0.0165964
618.504	0.0167206
618.582	0.0167250
618.660	0.0165745
618.738	0.0165558
618.817	0.0165528
618.895	0.0166188
618.973	0.0167479
619.051	0.0165957
619.129	0.0166335
619.207	0.0166805
619.285	0.0166601
619.363	0.0166960
619.442	0.0167006
619.520	0.0165350
619.598	0.0165805
619.676	0.0165599
619.754	0.0165790
619.832	0.0165577
619.910	0.0166711
619.988	0.0166737
620.067	0.0165967
620.145	0.0165051
620.223	0.0166205
620.301	0.0165582
620.379	0.0166688
620.457	0.0166964
620.535	0.0165433
620.613	0.0165445
620.692	0.0167042
620.770	0.0166489
620.848	0.0167165
620.926	0.0166437
621.004	0.0165904
621.082	0.0166952
621.160	0.0166171
621.238	0.0167242
621.317	0.0166329
621.395	0.0166885
621.473	0.0165662
621.551	0.0165383
621.629	0.0165794
621.707	0.0165777
621.785	0.0165327
621.863	0.0166865
621.942	0.0167101
622.020	0.0165881
622.098	0.0165648
622.176	0.0165176
622.254	0.0166665
622.332	0.0166822
622.410	0.0165610
622.488	0.0166295
622.567	0.0166235
622.645	0.0165763
622.723	0.0167507
622.801	0.0166296
622.879	0.0167567
622.957	0.0165663
623.035	0.0165463
623.113	0.0166692
623.192	0.0165759
623.270	0.0166983
623.348	0.0166944
623.426	0.0166647
623.504	0.0166354
623.582	0.0165193
623.660	0.0166354
623.738	0.0165906
623.817	0.0165490
623.895	0.0166557
623.973	0.0166669
624.051	0.0166993
624.129	0.0166745
624.207	0.0165624
624.285	0.0166050
624.363	0.0167385
624.442	0.0166948
624.520	0.0166625
624.598	0.0167587
624.676	0.0167619
624.754	0.0164849
624.832	0.0165537
624.910	0.0166388
624.988	0.0166577
625.067	0.0167025
625.145	0.0166625
625.223	0.0165719
625.301	0.0166727
625.379	0.0166380
625.457	0.0166652
625.535	0.0168089
625.613	0.0166822
625.692	0.0166268
625.770	0.0166390
625.848	0.0165279
625.926	0.0166611
626.004	0.0167693
626.082	0.0166311
626.160	0.0165570
626.238	0.0166457
626.317	0.0167006
626.395	0.0166360
626.473	0.0166619
626.551	0.0167072
626.629	0.0166159
626.707	0.0165498
626.785	0.0165189
626.863	0.0165390
626.942	0.0166568
627.020	0.0165720
627.098	0.0166907
627.176	0.0167287
627.254	0.0167595
627.332	0.0165952
627.410	0.0166211
627.488	0.0166775
627.567	0.0166576
627.645	0.0166193
627.723	0.0165748
627.801	0.0165211
627.879	0.0166293
627.957	0.0166322
628.035	0.0166245
628.113	0.0166974
628.192	0.0167142
628.270	0.0166725
628.348	0.0164930
628.426	0.0165574
628.504	0.0166174
628.582	0.0166260
628.660	0.0166129
628.738	0.0167465
628.817	0.0165284
628.895	0.0165752
628.973	0.0167007
629.051	0.0167350
629.129	0.0166769
629.207	0.0167014
629.285	0.0166761
629.363	0.0166165
629.442	0.0166167
629.520	0.0165820
629.598	0.0166801
629.676	0.0166530
629.754	0.0166247
629.832	0.0166237
629.910	0.0165915
629.988	0.0167899
630.067	0.0166386
630.145	0.0166142
630.223	0.0168060
630.301	0.0166639
630.379	0.0166346
630.457	0.0165079
630.535	0.0166798
630.613	0.0167281
630.692	0.0165954
630.770	0.0166642
630.848	0.0168117
630.926	0.0166409
631.004	0.0165667
631.082	0.0167212
631.160	0.0166216
631.238	0.0166609
631.317	0.0166628
631.395	0.0166921
631.473	0.0166077
631.551	0.0165743
631.629	0.0166745
631.707	0.0166073
631.785	0.0166498
631.863	0.0165990
631.942	0.0166193
632.020	0.0166091
632.098	0.0167004
632.176	0.0166862
632.254	0.0165890
632.332	0.0167117
632.410	0.0165966
632.488	0.0166700
632.567	0.0164941
632.645	0.0166519
632.723	0.0165348
632.801	0.0165273
632.879	0.0166504
632.957	0.0167351
633.035	0.0166400
633.113	0.0166469
633.192	0.0167136
633.270	0.0166819
633.348	0.0165755
633.426	0.0167086
633.504	0.0165884
633.582	0.0165836
633.660	0.0166715
633.738	0.0167157
633.817	0.0166488
633.895	0.0166879
633.973	0.0167092
634.051	0.0166871
634.129	0.0166647
634.207	0.0166456
634.285	0.0166434
634.363	0.0165943
634.442	0.0166650
634.520	0.0165923
634.598	0.0166212
634.676	0.0165483
634.754	0.0167442
634.832	0.0166351
634.910	0.0165937
634.988	0.0165979
635.067	0.0165596
635.145	0.0165839
635.223	0.0165731
635.301	0.0166631
635.379	0.0167003
635.457	0.0167099
635.535	0.0166397
635.613	0.0166531
635.692	0.0167215
635.770	0.0167068
635.848	0.0167050
635.926	0.0168349
636.004	0.0167268
636.082	0.0165497
636.160	0.0166333
636.238	0.0167090
636.317	0.0167094
636.395	0.0165992
636.473	0.0166515
636.551	0.0166923
636.629	0.0165130
636.707	0.0166694
636.785	0.0165804
636.863	0.0166352
636.942	0.0166411
637.020	0.0167212
637.098	0.0166551
637.176	0.0166246
637.254	0.0166352
637.332	0.0166353
637.410	0.0167570
637.488	0.0166965
637.567	0.0166144
637.645	0.0166301
637.723	0.0167282
637.801	0.0166566
637.879	0.0168221
637.957	0.0166935
638.035	0.0166202
638.113	0.0165145
638.192	0.0165027
638.270	0.0166059
638.348	0.0165819
638.426	0.0167595
638.504	0.0166376
638.582	0.0166196
638.660	0.0166998
638.738	0.0165647
638.817	0.0166396
638.895	0.0167287
638.973	0.0165873
639.051	0.0165526
639.129	0.0166081
639.207	0.0167870
639.285	0.0166373
639.363	0.0164897
639.442	0.0166070
639.520	0.0165894
639.598	0.0167327
639.676	0.0167525
639.754	0.0167194
639.832	0.0166673
639.910	0.0166426
639.988	0.0167055
640.067	0.0167460
640.145	0.0166981
640.223	0.0165598
640.301	0.0167621
640.379	0.0166199
640.457	0.0166591
640.535	0.0165810
640.613	0.0167475
640.692	0.0167150
640.770	0.0166654
640.848	0.0165012
640.926	0.0165440
641.004	0.0166730
641.082	0.0168134
641.160	0.0166643
641.238	0.0166412
641.317	0.0165728
641.395	0.0166051
641.473	0.0166148
641.551	0.0167348
641.629	0.0166361
641.707	0.0166169
641.785	0.0166299
641.863	0.0166426
641.942	0.0166763
642.020	0.0165661
642.098	0.0165578
642.176	0.0168285
642.254	0.0168409
642.332	0.0165795
642.410	0.0165622
642.488	0.0166850
642.567	0.0167201
642.645	0.0165530
642.723	0.0166248
642.801	0.0166811
642.879	0.0165685
642.957	0.0166382
643.035	0.0168002
643.113	0.0166437
643.192	0.0166944
643.270	0.0167496
643.348	0.0166019
643.426	0.0166934
643.504	0.0165542
643.582	0.0165866
643.660	0.0166591
643.738	0.0166882
643.817	0.0167014
643.895	0.0166797
643.973	0.0167775
644.051	0.0166406
644.129	0.0165764
644.207	0.0167259
644.285	0.0166710
644.363	0.0166652
644.442	0.0165940
644.520	0.0164957
644.598	0.0166171
644.676	0.0165863
644.754	0.0166420
644.832	0.0167006
644.910	0.0166499
644.988	0.0165430
645.067	0.0166489
645.145	0.0168038
645.223	0.0166062
645.301	0.0165743
645.379	0.0165652
645.457	0.0164953
645.535	0.0166608
645.613	0.0167108
645.692	0.0166289
645.770	0.0165298
645.848	0.0167648
645.926	0.0167056
646.004	0.0163394
646.082	0.0165819
646.160	0.0165543
646.238	0.0165241
646.317	0.0166487
646.395	0.0165579
646.473	0.0167081
646.551	0.0167154
646.629	0.0165031
646.707	0.0166342
646.785	0.0166671
646.863	0.0166631
646.942	0.0165681
647.020	0.0166902
647.098	0.0166396
647.176	0.0167163
647.254	0.0166348
647.332	0.0165955
647.410	0.0165198
647.488	0.0166994
647.567	0.0167027
647.645	0.0166088
647.723	0.0165901
647.801	0.0166246
647.879	0.0165549
647.957	0.0165568
648.035	0.0166988
648.113	0.0166914
648.192	0.0165569
648.270	0.0166103
648.348	0.0166314
648.426	0.0167346
648.504	0.0167321
648.582	0.0166269
648.660	0.0166956
648.738	0.0167801
648.817	0.0167211
648.895	0.0166447
648.973	0.0165973
649.051	0.0165769
649.129	0.0166722
649.207	0.0166846
649.285	0.0167281
649.363	0.0165220
649.442	0.0167550
649.520	0.0166482
649.598	0.0168135
649.676	0.0166080
649.754	0.0167404
649.832	0.0165688
649.910	0.0166402
649.988	0.0166637
650.067	0.0166410
650.145	0.0167128
650.223	0.0166290
650.301	0.0166422
650.379	0.0165390
650.457	0.0165259
650.535	0.0166505
650.613	0.0167567
650.692	0.0165702
650.770	0.0165601
650.848	0.0167583
650.926	0.0167744
651.004	0.0166939
651.082	0.0167471
651.160	0.0167035
651.238	0.0167701
651.317	0.0166273
651.395	0.0166470
651.473	0.0166055
651.551	0.0168559
651.629	0.0168970
651.707	0.0165321
651.785	0.0166929
651.863	0.0166943
651.942	0.0166898
652.020	0.0168470
652.098	0.0166838
652.176	0.0166106
652.254	0.0166968
652.332	0.0165923
652.410	0.0166653
652.488	0.0167561
652.567	0.0167973
652.645	0.0166721
652.723	0.0165820
652.801	0.0165741
652.879	0.0167068
652.957	0.0168230
653.035	0.0167412
653.113	0.0166051
653.192	0.0165413
653.270	0.0165842
653.348	0.0165764
653.426	0.0165867
653.504	0.0166145
653.582	0.0166294
653.660	0.0167848
653.738	0.0166319
653.817	0.0167362
653.895	0.0166053
653.973	0.0167410
654.051	0.0167965
654.129	0.0166920
654.207	0.0165785
654.285	0.0165017
654.363	0.0165067
654.442	0.0166419
654.520	0.0167818
654.598	0.0166200
654.676	0.0165417
654.754	0.0166544
654.832	0.0166448
654.910	0.0166232
654.988	0.0166807
655.067	0.0167215
655.145	0.0166273
655.223	0.0166340
655.301	0.0166457
655.379	0.0166849
655.457	0.0166716
655.535	0.0166068
655.613	0.0166019
655.692	0.0165077
655.770	0.0166985
655.848	0.0167768
655.926	0.0167033
656.004	0.0165965
656.082	0.0166206
656.160	0.0167149
656.238	0.0166621
656.317	0.0167266
656.395	0.0166682
656.473	0.0166743
656.551	0.0166873
656.629	0.0166354
656.707	0.0165502
656.785	0.0167325
656.863	0.0166969
656.942	0.0165620
657.020	0.0167177
657.098	0.0167611
657.176	0.0166738
657.254	0.0166825
657.332	0.0166850
657.410	0.0165992
657.488	0.0167280
657.567	0.0167202
657.645	0.0165432
657.723	0.0167394
657.801	0.0166472
657.879	0.0165985
657.957	0.0166766
658.035	0.0167593
658.113	0.0166352
658.192	0.0165079
658.270	0.0165989
658.348	0.0167169
658.426	0.0167367
658.504	0.0167139
658.582	0.0166081
658.660	0.0166499
658.738	0.0166068
658.817	0.0165660
658.895	0.0166048
658.973	0.0166849
659.051	0.0166811
659.129	0.0165705
659.207	0.0165498
659.285	0.0167321
659.363	0.0166976
659.442	0.0166340
659.520	0.0166662
659.598	0.0165621
659.676	0.0166331
659.754	0.0167896
659.832	0.0167735
659.910	0.0165947
659.988	0.0168113
660.067	0.0166294
660.145	0.0167711
660.223	0.0166702
660.301	0.0166539
660.379	0.0167834
660.457	0.0167679
660.535	0.0165848
660.613	0.0166685
660.692	0.0166635
660.770	0.0166166
660.848	0.0167090
660.926	0.0165003
661.004	0.0165562
661.082	0.0165179
661.160	0.0166882
661.238	0.0167139
661.317	0.0165415
661.395	0.0166286
661.473	0.0166825
661.551	0.0167518
661.629	0.0166504
661.707	0.0165231
661.785	0.0167226
661.863	0.0167051
661.942	0.0166290
662.020	0.0166143
662.098	0.0167406
662.176	0.0168250
662.254	0.0166853
662.332	0.0166141
662.410	0.0166265
662.488	0.0166749
662.567	0.0167069
662.645	0.0167181
662.723	0.0165859
662.801	0.0165933
662.879	0.0166753
662.957	0.0167158
663.035	0.0166735
663.113	0.0165778
663.192	0.0167359
663.270	0.0166392
663.348	0.0167442
663.426	0.0166879
663.504	0.0167507
663.582	0.0167206
663.660	0.0166003
663.738	0.0166135
663.817	0.0167430
663.895	0.0165818
663.973	0.0166914
664.051	0.0165953
664.129	0.0166097
664.207	0.0165971
664.285	0.0166550
664.363	0.0166856
664.442	0.0166418
664.520	0.0166892
664.598	0.0165723
664.676	0.0165910
664.754	0.0167294
664.832	0.0167190
664.910	0.0165916
664.988	0.0165930
665.067	0.0166369
665.145	0.0165611
665.223	0.0166509
665.301	0.0164767
665.379	0.0166554
665.457	0.0165440
665.535	0.0165165
665.613	0.0165749
665.692	0.0166122
665.770	0.0165585
665.848	0.0166023
665.926	0.0166564
666.004	0.0166133
666.082	0.0165355
666.160	0.0167229
666.238	0.0167480
666.317	0.0166843
666.395	0.0166280
666.473	0.0165189
666.551	0.0166942
666.629	0.0167235
666.707	0.0166447
666.785	0.0167184
666.863	0.0166578
666.942	0.0166598
667.020	0.0166921
667.098	0.0165251
667.176	0.0166797
667.254	0.0166486
667.332	0.0166054
667.410	0.0165814
667.488	0.0165478
667.567	0.0166066
667.645	0.0166337
667.723	0.0165604
667.801	0.0167329
667.879	0.0167268
667.957	0.0166443
668.035	0.0165990
668.113	0.0164947
668.192	0.0165926
668.270	0.0166082
668.348	0.0166409
668.426	0.0165562
668.504	0.0166782
668.582	0.0165752
668.660	0.0165224
668.738	0.0166946
668.817	0.0165710
668.895	0.0165324
668.973	0.0166745
669.051	0.0166943
669.129	0.0165761
669.207	0.0166574
669.285	0.0164999
669.363	0.0165907
669.442	0.0165786
669.520	0.0165640
669.598	0.0166161
669.676	0.0165993
669.754	0.0166433
669.832	0.0166022
669.910	0.0165284
669.988	0.0165146
670.067	0.0164900
670.145	0.0166138
670.223	0.0165183
670.301	0.0166163
670.379	0.0166708
670.457	0.0166254
670.535	0.0165473
670.613	0.0165030
670.692	0.0167834
670.770	0.0165668
670.848	0.0166454
670.926	0.0167562
671.004	0.0166756
671.082	0.0166329
671.160	0.0165693
671.238	0.0167122
671.317	0.0166980
671.395	0.0165970
671.473	0.0166717
671.551	0.0166373
671.629	0.0166305
671.707	0.0167409
671.785	0.0166626
671.863	0.0167471
671.942	0.0165510
672.020	0.0167725
672.098	0.0167421
672.176	0.0166211
672.254	0.0167776
672.332	0.0166361
672.410	0.0166227
672.488	0.0167354
672.567	0.0166976
672.645	0.0166928
672.723	0.0165938
672.801	0.0166422
672.879	0.0166186
672.957	0.0168559
673.035	0.0167583
673.113	0.0166553
673.192	0.0166437
673.270	0.0165652
673.348	0.0166782
673.426	0.0166783
673.504	0.0167996
673.582	0.0166682
673.660	0.0166674
673.738	0.0166221
673.817	0.0169538
673.895	0.0168712
673.973	0.0167595
674.051	0.0167273
674.129	0.0168336
674.207	0.0167283
674.285	0.0167021
674.363	0.0167796
674.442	0.0168265
674.520	0.0167579
674.598	0.0167862
674.676	0.0167664
674.754	0.0168031
674.832	0.0168073
674.910	0.0167073
674.988	0.0166714
675.067	0.0167064
675.145	0.0167426
675.223	0.0167608
675.301	0.0167717
675.379	0.0167950
675.457	0.0167329
675.535	0.0166428
675.613	0.0168408
675.692	0.0166911
675.770	0.0167059
675.848	0.0167758
675.926	0.0167590
676.004	0.0166396
676.082	0.0167899
676.160	0.0166886
676.238	0.0166897
676.317	0.0166008
676.395	0.0168415
676.473	0.0167837
676.551	0.0167445
676.629	0.0167765
676.707	0.0167220
676.785	0.0168399
676.863	0.0166857
676.942	0.0168120
677.020	0.0167739
677.098	0.0167280
677.176	0.0167435
677.254	0.0166521
677.332	0.0165313
677.410	0.0166201
677.488	0.0167269
677.567	0.0166357
677.645	0.0167651
677.723	0.0167471
677.801	0.0166502
677.879	0.0167015
677.957	0.0166960
678.035	0.0167157
678.113	0.0166670
678.192	0.0167391
678.270	0.0166428
678.348	0.0167887
678.426	0.0167870
678.504	0.0166632
678.582	0.0165471
678.660	0.0168014
678.738	0.0166364
678.817	0.0166812
678.895	0.0166750
678.973	0.0167593
679.051	0.0167561
679.129	0.0165945
679.207	0.0165831
679.285	0.0166503
679.363	0.0165496
679.442	0.0167140
679.520	0.0165710
679.598	0.0165775
679.676	0.0167600
679.754	0.0166888
679.832	0.0165765
679.910	0.0167315
679.988	0.0166748
680.067	0.0166257
680.145	0.0165232
680.223	0.0167357
680.301	0.0166888
680.379	0.0167007
680.457	0.0167439
680.535	0.0165987
680.613	0.0165943
680.692	0.0166763
680.770	0.0165374
680.848	0.0165774
680.926	0.0167567
681.004	0.0166137
681.082	0.0165546
681.160	0.0166934
681.238	0.0166027
681.317	0.0166613
681.395	0.0166365
681.473	0.0166332
681.551	0.0164915
681.629	0.0165246
681.707	0.0166824
681.785	0.0167425
681.863	0.0165668
681.942	0.0166389
682.020	0.0166065
682.098	0.0167101
682.176	0.0166699
682.254	0.0166238
682.332	0.0164978
682.410	0.0165845
682.488	0.0166969
682.567	0.0166547
682.645	0.0165923
682.723	0.0165051
682.801	0.0165752
682.879	0.0165965
682.957	0.0167052
683.035	0.0166444
683.113	0.0165871
683.192	0.0166012
683.270	0.0166562
683.348	0.0167028
683.426	0.0166361
683.504	0.0165979
683.582	0.0168425
683.660	0.0166817
683.738	0.0165475
683.817	0.0166165
683.895	0.0166174
683.973	0.0167941
684.051	0.0166746
684.129	0.0167245
684.207	0.0165794
684.285	0.0167404
684.363	0.0166232
684.442	0.0167717
684.520	0.0167355
684.598	0.0166917
684.676	0.0166437
684.754	0.0167024
684.832	0.0166491
684.910	0.0165307
684.988	0.0166254
685.067	0.0164943
685.145	0.0164918
685.223	0.0166019
685.301	0.0166689
685.379	0.0166321
685.457	0.0167188
685.535	0.0167489
685.613	0.0166528
685.692	0.0168343
685.770	0.0168286
685.848	0.0169968
685.926	0.0168703
686.004	0.0168718
686.082	0.0169750
686.160	0.0169264
686.238	0.0169098
686.317	0.0169308
686.395	0.0167659
686.473	0.0167622
686.551	0.0167451
686.629	0.0167432
686.707	0.0165916
686.785	0.0166307
686.863	0.0164154
686.942	0.0163673
687.020	0.0161260
687.098	0.0160043
687.176	0.0156265
687.254	0.0153273
687.332	0.0150745
687.410	0.0150986
687.488	0.0150060
687.567	0.0152494
687.645	0.0156065
687.723	0.0161683
687.801	0.0168543
687.879	0.0178501
687.957	0.0187758
688.035	0.0198207
688.113	0.0205132
688.192	0.0211358
688.270	0.0213672
688.348	0.0212407
688.426	0.0208337
688.504	0.0198234
688.582	0.0186707
688.660	0.0174757
688.738	0.0160540
688.817	0.0146352
688.895	0.0133214
688.973	0.0121962
689.051	0.0111365
689.129	0.0106295
689.207	0.0104762
689.285	0.0103401
689.363	0.0105640
689.442	0.0112746
689.520	0.0121406
689.598	0.0132809
689.676	0.0147587
689.754	0.0165251
689.832	0.0182069
689.910	0.0200236
689.988	0.0217309
690.067	0.0234090
690.145	0.0247489
690.223	0.0255129
690.301	0.0259517
690.379	0.0256394
690.457	0.0248815
690.535	0.0235519
690.613	0.0215508
690.692	0.0193899
690.770	0.0169299
690.848	0.0147345
690.926	0.0125028
691.004	0.0107268
691.082	0.00926285
691.160	0.00839233
691.238	0.00789162
691.317	0.00795464
691.395	0.00846695
691.473	0.00913643
691.551	0.0101615
691.629	0.0113849
691.707	0.0130202
691.785	0.0144461
691.863	0.0161404
691.942	0.0178932
692.020	0.0196671
692.098	0.0211747
692.176	0.0222913
692.254	0.0235448
692.332	0.0243072
692.410	0.0246141
692.488	0.0245768
692.567	0.0242367
692.645	0.0233273
692.723	0.0220930
692.801	0.0205037
692.879	0.0190301
692.957	0.0172042
693.035	0.0154854
693.113	0.0139834
693.192	0.0126655
693.270	0.0112983
693.348	0.0105449
693.426	0.0101708
693.504	0.0102306
693.582	0.0101541
693.660	0.0106047
693.738	0.0111072
693.817	0.0120533
693.895	0.0130651
693.973	0.0144137
694.051	0.0155608
694.129	0.0169873
694.207	0.0182987
694.285	0.0195469
694.363	0.0204712
694.442	0.0210898
694.520	0.0215903
694.598	0.0217378
694.676	0.0217418
694.754	0.0213318
694.832	0.0204827
694.910	0.0197484
694.988	0.0188715
695.067	0.0176845
695.145	0.0167547
695.223	0.0159715
695.301	0.0150668
695.379	0.0144223
695.457	0.0138914
695.535	0.0135696
695.613	0.0135161
695.692	0.0137491
695.770	0.0139476
695.848	0.0144336
695.926	0.0147603
696.004	0.0153648
696.082	0.0158967
696.160	0.0164938
696.238	0.0170625
696.317	0.0176788
696.395	0.0182298
696.473	0.0186996
696.551	0.0191716
696.629	0.0193906
696.707	0.0192796
696.785	0.0192036
696.863	0.0189010
696.942	0.0185836
697.020	0.0180617
697.098	0.0177914
697.176	0.0170821
697.254	0.0164528
697.332	0.0157442
697.410	0.0151051
697.488	0.0147434
697.567	0.0142413
697.645	0.0141781
697.723	0.0140503
697.801	0.0141457
697.879	0.0142120
697.957	0.0144209
698.035	0.0148881
698.113	0.0152168
698.192	0.0154447
698.270	0.0159172
698.348	0.0163835
698.426	0.0167551
698.504	0.0168995
698.582	0.0171976
698.660	0.0172744
698.738	0.0176125
698.817	0.0177316
698.895	0.0179220
698.973	0.0179852
699.051	0.0180399
699.129	0.0180706
699.207	0.0180138
699.285	0.0179883
699.363	0.0179027
699.442	0.0177595
699.520	0.0178857
699.598	0.0176818
699.676	0.0174253
699.754	0.0173335
699.832	0.0174033
699.910	0.0173183
699.988	0.0170208
700.067	0.0170145
700.145	0.0168765
700.223	0.0165949
700.301	0.0165466
700.379	0.0164027
700.457	0.0161528
700.535	0.0160081
700.613	0.0159801
700.692	0.0158719
700.770	0.0157578
700.848	0.0156992
700.926	0.0156901
701.004	0.0157425
701.082	0.0157884
701.160	0.0156947
701.238	0.0158666
701.317	0.0159385
701.395	0.0160747
701.473	0.0161707
701.551	0.0163129
701.629	0.0164950
701.707	0.0166010
701.785	0.0167134
701.863	0.0168301
701.942	0.0170340
702.020	0.0169675
702.098	0.0172605
702.176	0.0172401
702.254	0.0170251
702.332	0.0172226
702.410	0.0172475
702.488	0.0172135
702.567	0.0173588
702.645	0.0172966
702.723	0.0173228
702.801	0.0173317
702.879	0.0172866
702.957	0.0174516
703.035	0.0172280
703.113	0.0170445
703.192	0.0170945
703.270	0.0169788
703.348	0.0169973
703.426	0.0169252
703.504	0.0166718
703.582	0.0167451
703.660	0.0168464
703.738	0.0168572
703.817	0.0167863
703.895	0.0168616
703.973	0.0170032
704.051	0.0170393
704.129	0.0168050
704.207	0.0170065
704.285	0.0168652
704.363	0.0166595
704.442	0.0165278
704.520	0.0163533
704.598	0.0161582
704.676	0.0159165
704.754	0.0159907
704.832	0.0159000
704.910	0.0159146
704.988	0.0160316
705.067	0.0159776
705.145	0.0161505
705.223	0.0162110
705.301	0.0162797
705.379	0.0165619
705.457	0.0166010
705.535	0.0165418
705.613	0.0166632
705.692	0.0167258
705.770	0.0165746
705.848	0.0164417
705.926	0.0162644
706.004	0.0161711
706.082	0.0159653
706.160	0.0159368
706.238	0.0156937
706.317	0.0155527
706.395	0.0156219
706.473	0.0157187
706.551	0.0158472
706.629	0.0158725
706.707	0.0161865
706.785	0.0164872
706.863	0.0167020
706.942	0.0170661
707.020	0.0174084
707.098	0.0176986
707.176	0.0178990
707.254	0.0181059
707.332	0.0182891
707.410	0.0181882
707.488	0.0180985
707.567	0.0180619
707.645	0.0179654
707.723	0.0176031
707.801	0.0175243
707.879	0.0172332
707.957	0.0170699
708.035	0.0168087
708.113	0.0166052
708.192	0.0164172
708.270	0.0164376
708.348	0.0163684
708.426	0.0162679
708.504	0.0160985
708.582	0.0162816
708.660	0.0163445
708.738	0.0164158
708.817	0.0165232
708.895	0.0165988
708.973	0.0165829
709.051	0.0167709
709.129	0.0167166
709.207	0.0165492
709.285	0.0164964
709.363	0.0163895
709.442	0.0163438
709.520	0.0160523
709.598	0.0160171
709.676	0.0160975
709.754	0.0159546
709.832	0.0158556
709.910	0.0156924
709.988	0.0158106
710.067	0.0158395
710.145	0.0157733
710.223	0.0157956
710.301	0.0159075
710.379	0.0159936
710.457	0.0160744
710.535	0.0160477
710.613	0.0163940
710.692	0.0165776
710.770	0.0165328
710.848	0.0166258
710.926	0.0167208
711.004	0.0166712
711.082	0.0167180
711.160	0.0167728
711.238	0.0167590
711.317	0.0167329
711.395	0.0165933
711.473	0.0165855
711.551	0.0166483
711.629	0.0165300
711.707	0.0166431
711.785	0.0165997
711.863	0.0166734
711.942	0.0166796
712.020	0.0166407
712.098	0.0167727
712.176	0.0169047
712.254	0.0170050
712.332	0.0169470
712.410	0.0172172
712.488	0.0172260
712.567	0.0172293
712.645	0.0172046
712.723	0.0173072
712.801	0.0173299
712.879	0.0172160
712.957	0.0172238
713.035	0.0172035
713.113	0.0172203
713.192	0.0171678
713.270	0.0170766
713.348	0.0170907
713.426	0.0169625
713.504	0.0169473
713.582	0.0170374
713.660	0.0169012
713.738	0.0170716
713.817	0.0170349
713.895	0.0169158
713.973	0.0168198
714.051	0.0170005
714.129	0.0169135
714.207	0.0168658
714.285	0.0169491
714.363	0.0166577
714.442	0.0167365
714.520	0.0166408
714.598	0.0164319
714.676	0.0164252
714.754	0.0163259
714.832	0.0162016
714.910	0.0161021
714.988	0.0160661
715.067	0.0159547
715.145	0.0158104
715.223	0.0157867
715.301	0.0157867
715.379	0.0156962
715.457	0.0155298
715.535	0.0155600
715.613	0.0156313
715.692	0.0158369
715.770	0.0157516
715.848	0.0159306
715.926	0.0160334
716.004	0.0163840
716.082	0.0165179
716.160	0.0165797
716.238	0.0168242
716.317	0.0169744
716.395	0.0170432
716.473	0.0170718
716.551	0.0173979
716.629	0.0173248
716.707	0.0171625
716.785	0.0172806
716.863	0.0171098
716.942	0.0171188
717.020	0.0169965
717.098	0.0169449
717.176	0.0168407
717.254	0.0166687
717.332	0.0168503
717.410	0.0166534
717.488	0.0167053
717.567	0.0167619
717.645	0.0168164
717.723	0.0169639
717.801	0.0171445
717.879	0.0172272
717.957	0.0173927
718.035	0.0174723
718.113	0.0175480
718.192	0.0175648
718.270	0.0175037
718.348	0.0174713
718.426	0.0172660
718.504	0.0171198
718.582	0.0170615
718.660	0.0166732
718.738	0.0165379
718.817	0.0163139
718.895	0.0161702
718.973	0.0160381
719.051	0.0158416
719.129	0.0156585
719.207	0.0156770
719.285	0.0158447
719.363	0.0157421
719.442	0.0158295
719.520	0.0159047
719.598	0.0161256
719.676	0.0162415
719.754	0.0161998
719.832	0.0164475
719.910	0.0166373
719.988	0.0166566
720.067	0.0164680
720.145	0.0165896
720.223	0.0167318
720.301	0.0165475
720.379	0.0165693
720.457	0.0165429
720.535	0.0165000
720.613	0.0164581
720.692	0.0164194
720.770	0.0164320
720.848	0.0165186
720.926	0.0164410
721.004	0.0165417
721.082	0.0166468
721.160	0.0166423
721.238	0.0167368
721.317	0.0167113
721.395	0.0167886
721.473	0.0169008
721.551	0.0168661
721.629	0.0169802
721.707	0.0169708
721.785	0.0169739
721.863	0.0170545
721.942	0.0170296
722.020	0.0169786
722.098	0.0170564
722.176	0.0169453
722.254	0.0168290
722.332	0.0167854
722.410	0.0167508
722.488	0.0165749
722.567	0.0165027
722.645	0.0166403
722.723	0.0166574
722.801	0.0164242
722.879	0.0166071
722.957	0.0165388
723.035	0.0166323
723.113	0.0166273
723.192	0.0168587
723.270	0.0167210
723.348	0.0168207
723.426	0.0168051
723.504	0.0170258
723.582	0.0167609
723.660	0.0168598
723.738	0.0168615
723.817	0.0167082
723.895	0.0166963
723.973	0.0165172
724.051	0.0164425
724.129	0.0162957
724.207	0.0162634
724.285	0.0161732
724.363	0.0161374
724.442	0.0161984
724.520	0.0160491
724.598	0.0159074
724.676	0.0158932
724.754	0.0159086
724.832	0.0161525
724.910	0.0161961
724.988	0.0162298
725.067	0.0163678
725.145	0.0165120
725.223	0.0165605
725.301	0.0167867
725.379	0.0168190
725.457	0.0167645
725.535	0.0166818
725.613	0.0168352
725.692	0.0168630
725.770	0.0167601
725.848	0.0167075
725.926	0.0167713
726.004	0.0167032
726.082	0.0165357
726.160	0.0164225
726.238	0.0165162
726.317	0.0163911
726.395	0.0164221
726.473	0.0164851
726.551	0.0165231
726.629	0.0165517
726.707	0.0167561
726.785	0.0167421
726.863	0.0167437
726.942	0.0169039
727.020	0.0171609
727.098	0.0170699
727.176	0.0172049
727.254	0.0172182
727.332	0.0171755
727.410	0.0172960
727.488	0.0171645
727.567	0.0170544
727.645	0.0170747
727.723	0.0170234
727.801	0.0170695
727.879	0.0169067
727.957	0.0168044
728.035	0.0166905
728.113	0.0166682
728.192	0.0168238
728.270	0.0167272
728.348	0.0167651
728.426	0.0167856
728.504	0.0166360
728.582	0.0167044
728.660	0.0167384
728.738	0.0167554
728.817	0.0167691
728.895	0.0169107
728.973	0.0168716
729.051	0.0168815
729.129	0.0166988
729.207	0.0167615
729.285	0.0167707
729.363	0.0167114
729.442	0.0166143
729.520	0.0164766
729.598	0.0163833
729.676	0.0163196
729.754	0.0162908
729.832	0.0162932
729.910	0.0162262
729.988	0.0162139
730.067	0.0162579
730.145	0.0164153
730.223	0.0162726
730.301	0.0163665
730.379	0.0165153
730.457	0.0165325
730.535	0.0167225
730.613	0.0165657
730.692	0.0167702
730.770	0.0169508
730.848	0.0166984
730.926	0.0168993
731.004	0.0168653
731.082	0.0168113
731.160	0.0168715
731.238	0.0167221
731.317	0.0165005
731.395	0.0164922
731.473	0.0166074
731.551	0.0164322
731.629	0.0164401
731.707	0.0163781
731.785	0.0163609
731.863	0.0163617
731.942	0.0163443
732.020	0.0165060
732.098	0.0166246
732.176	0.0165083
732.254	0.0166064
732.332	0.0164809
732.410	0.0167374
732.488	0.0168314
732.567	0.0168441
732.645	0.0169017
732.723	0.0169096
732.801	0.0168350
732.879	0.0169053
732.957	0.0170470
733.035	0.0170036
733.113	0.0167765
733.192	0.0167690
733.270	0.0168162
733.348	0.0164692
733.426	0.0166151
733.504	0.0166215
733.582	0.0165279
733.660	0.0164430
733.738	0.0165028
733.817	0.0164721
733.895	0.0164964
733.973	0.0164778
734.051	0.0165429
734.129	0.0165380
734.207	0.0166212
734.285	0.0166148
734.363	0.0166810
734.442	0.0168159
734.520	0.0168183
734.598	0.0167705
734.676	0.0167635
734.754	0.0168062
734.832	0.0169051
734.910	0.0168750
734.988	0.0169003
735.067	0.0166101
735.145	0.0168129
735.223	0.0167965
735.301	0.0168291
735.379	0.0167963
735.457	0.0167000
735.535	0.0166135
735.613	0.0166981
735.692	0.0168696
735.770	0.0166428
735.848	0.0166079
735.926	0.0167598
736.004	0.0166818
736.082	0.0166217
736.160	0.0166222
736.238	0.0166060
736.317	0.0165405
736.395	0.0166045
736.473	0.0165584
736.551	0.0164029
736.629	0.0164401
736.707	0.0164793
736.785	0.0164058
736.863	0.0164404
736.942	0.0163864
737.020	0.0163944
737.098	0.0163558
737.176	0.0164266
737.254	0.0163763
737.332	0.0165710
737.410	0.0166280
737.488	0.0166248
737.567	0.0165667
737.645	0.0166018
737.723	0.0167253
737.801	0.0166737
737.879	0.0165455
737.957	0.0164841
738.035	0.0166659
738.113	0.0165233
738.192	0.0165265
738.270	0.0165952
738.348	0.0165311
738.426	0.0166627
738.504	0.0165803
738.582	0.0166064
738.660	0.0166451
738.738	0.0166714
738.817	0.0165565
738.895	0.0166006
738.973	0.0167426
739.051	0.0166531
739.129	0.0167663
739.207	0.0168028
739.285	0.0168031
739.363	0.0169074
739.442	0.0169548
739.520	0.0171588
739.598	0.0171273
739.676	0.0172800
739.754	0.0171395
739.832	0.0169238
739.910	0.0172272
739.988	0.0171526
740.067	0.0169028
740.145	0.0168603
740.223	0.0170937
740.301	0.0169672
740.379	0.0168784
740.457	0.0168542
740.535	0.0166930
740.613	0.0165360
740.692	0.0165860
740.770	0.0165038
740.848	0.0164816
740.926	0.0162984
741.004	0.0163940
741.082	0.0162395
741.160	0.0164254
741.238	0.0164353
741.317	0.0164676
741.395	0.0165254
741.473	0.0164542
741.551	0.0165725
741.629	0.0166425
741.707	0.0166946
741.785	0.0166903
741.863	0.0166059
741.942	0.0166726
742.020	0.0166110
742.098	0.0166469
742.176	0.0164774
742.254	0.0164414
742.332	0.0166666
742.410	0.0165801
742.488	0.0166106
742.567	0.0165034
742.645	0.0166246
742.723	0.0165966
742.801	0.0165396
742.879	0.0166130
742.957	0.0166866
743.035	0.0168040
743.113	0.0167968
743.192	0.0168200
743.270	0.0167207
743.348	0.0168173
743.426	0.0169397
743.504	0.0167625
743.582	0.0167040
743.660	0.0167157
743.738	0.0167714
743.817	0.0167157
743.895	0.0165491
743.973	0.0165045
744.051	0.0163431
744.129	0.0164479
744.207	0.0164957
744.285	0.0166463
744.363	0.0165681
744.442	0.0164873
744.520	0.0165628
744.598	0.0167046
744.676	0.0166722
744.754	0.0166161
744.832	0.0167406
744.910	0.0168684
744.988	0.0168878
745.067	0.0167828
745.145	0.0168470
745.223	0.0168881
745.301	0.0168456
745.379	0.0166766
745.457	0.0168886
745.535	0.0168102
745.613	0.0167787
745.692	0.0166810
745.770	0.0166854
745.848	0.0166234
745.926	0.0164549
746.004	0.0165557
746.082	0.0165025
746.160	0.0163942
746.238	0.0165340
746.317	0.0164697
746.395	0.0165682
746.473	0.0164558
746.551	0.0163426
746.629	0.0165716
746.707	0.0166422
746.785	0.0165091
746.863	0.0165196
746.942	0.0167324
747.020	0.0166219
747.098	0.0166940
747.176	0.0168076
747.254	0.0168349
747.332	0.0168671
747.410	0.0166962
747.488	0.0167597
747.567	0.0167474
747.645	0.0168228
747.723	0.0166441
747.801	0.0166737
747.879	0.0166649
747.957	0.0166098
748.035	0.0164471
748.113	0.0165961
748.192	0.0164362
748.270	0.0165842
748.348	0.0165637
748.426	0.0165820
748.504	0.0165713
748.582	0.0165621
748.660	0.0165246
748.738	0.0166322
748.817	0.0166772
748.895	0.0166728
748.973	0.0167505
749.051	0.0167783
749.129	0.0168710
749.207	0.0166683
749.285	0.0166482
749.363	0.0168467
749.442	0.0167665
749.520	0.0168235
749.598	0.0169541
749.676	0.0168185
749.754	0.0167423
749.832	0.0166990
749.910	0.0166434
749.988	0.0166132
750.067	0.0165958
750.145	0.0166534
750.223	0.0166315
750.301	0.0166632
750.379	0.0166331
750.457	0.0167673
750.535	0.0165701
750.613	0.0166224
750.692	0.0166863
750.770	0.0168086
750.848	0.0166161
750.926	0.0167555
751.004	0.0167142
751.082	0.0165901
751.160	0.0167760
751.238	0.0166228
751.317	0.0167082
751.395	0.0166271
751.473	0.0167152
751.551	0.0166998
751.629	0.0165292
751.707	0.0166912
751.785	0.0166515
751.863	0.0166262
751.942	0.0166515
752.020	0.0166284
752.098	0.0166193
752.176	0.0166522
752.254	0.0166954
752.332	0.0166788
752.410	0.0166111
752.488	0.0165907
752.567	0.0167197
752.645	0.0167093
752.723	0.0167525
752.801	0.0168162
752.879	0.0166054
752.957	0.0167957
753.035	0.0168566
753.113	0.0166947
753.192	0.0167309
753.270	0.0167744
753.348	0.0166946
753.426	0.0166715
753.504	0.0166470
753.582	0.0166572
753.660	0.0166969
753.738	0.0167098
753.817	0.0165673
753.895	0.0165503
753.973	0.0166271
754.051	0.0166781
754.129	0.0164796
754.207	0.0165158
754.285	0.0165125
754.363	0.0166484
754.442	0.0166518
754.520	0.0166734
754.598	0.0165361
754.676	0.0163291
754.754	0.0164960
754.832	0.0165471
754.910	0.0165224
754.988	0.0164862
755.067	0.0165299
755.145	0.0165233
755.223	0.0165256
755.301	0.0164471
755.379	0.0165627
755.457	0.0167102
755.535	0.0165779
755.613	0.0167111
755.692	0.0167258
755.770	0.0166820
755.848	0.0165916
755.926	0.0168172
756.004	0.0168851
756.082	0.0166997
756.160	0.0167450
756.238	0.0168430
756.317	0.0167584
756.395	0.0167589
756.473	0.0166898
756.551	0.0167135
756.629	0.0166570
756.707	0.0166795
756.785	0.0167059
756.863	0.0167120
756.942	0.0165508
757.020	0.0166669
757.098	0.0166900
757.176	0.0166176
757.254	0.0164975
757.332	0.0167533
757.410	0.0166047
757.488	0.0166552
757.567	0.0168195
757.645	0.0167282
757.723	0.0167014
757.801	0.0167885
757.879	0.0167005
757.957	0.0167677
758.035	0.0166383
758.113	0.0168494
758.192	0.0167727
758.270	0.0166839
758.348	0.0167184
758.426	0.0166343
758.504	0.0166512
758.582	0.0165525
758.660	0.0166655
758.738	0.0164633
758.817	0.0164474
758.895	0.0166024
758.973	0.0165175
759.051	0.0165514
759.129	0.0165349
759.207	0.0165624
759.285	0.0166210
759.363	0.0165172
759.442	0.0166190
759.520	0.0165423
759.598	0.0167032
759.676	0.0166532
759.754	0.0165021
759.832	0.0166880
759.910	0.0166535
759.988	0.0166422
760.067	0.0165938
760.145	0.0166695
760.223	0.0166305
760.301	0.0165839
760.379	0.0165845
760.457	0.0164928
760.535	0.0166061
760.613	0.0166597
760.692	0.0165279
760.770	0.0166381
760.848	0.0166193
760.926	0.0166541
761.004	0.0165927
761.082	0.0166170
761.160	0.0166130
761.238	0.0166943
761.317	0.0166930
761.395	0.0165647
761.473	0.0165536
761.551	0.0166328
761.629	0.0166420
761.707	0.0168829
761.785	0.0166676
761.863	0.0166354
761.942	0.0168337
762.020	0.0167430
762.098	0.0167911
762.176	0.0167495
762.254	0.0166281
762.332	0.0167809
762.410	0.0166730
762.488	0.0167216
762.567	0.0168769
762.645	0.0166755
762.723	0.0167322
762.801	0.0166193
762.879	0.0167106
762.957	0.0166837
763.035	0.0166538
763.113	0.0165395
763.192	0.0166250
763.270	0.0166055
763.348	0.0167992
763.426	0.0166780
763.504	0.0165210
763.582	0.0165758
763.660	0.0165792
763.738	0.0166018
763.817	0.0165829
763.895	0.0166015
763.973	0.0165973
764.051	0.0166232
764.129	0.0164616
764.207	0.0166700
764.285	0.0168292
764.363	0.0166216
764.442	0.0167252
764.520	0.0166286
764.598	0.0166280
764.676	0.0166298
764.754	0.0166277
764.832	0.0166265
764.910	0.0165671
764.988	0.0165449
765.067	0.0166875
765.145	0.0166499
765.223	0.0167156
765.301	0.0165983
765.379	0.0165663
765.457	0.0166494
765.535	0.0165212
765.613	0.0167673
765.692	0.0167573
765.770	0.0166505
765.848	0.0166241
765.926	0.0166273
766.004	0.0166500
766.082	0.0167558
766.160	0.0166944
766.238	0.0167094
766.317	0.0166511
766.395	0.0166189
766.473	0.0165729
766.551	0.0166901
766.629	0.0166453
766.707	0.0166747
766.785	0.0165316
766.863	0.0165394
766.942	0.0165466
767.020	0.0165913
767.098	0.0165419
767.176	0.0164694
767.254	0.0166344
767.332	0.0166206
767.410	0.0165690
767.488	0.0166689
767.567	0.0167577
767.645	0.0168219
767.723	0.0167923
767.801	0.0167861
767.879	0.0167503
767.957	0.0167506
768.035	0.0168368
768.113	0.0167271
768.192	0.0166813
768.270	0.0167491
768.348	0.0165977
768.426	0.0165172
768.504	0.0165504
768.582	0.0165540
768.660	0.0165598
768.738	0.0165879
768.817	0.0163777
768.895	0.0164327
768.973	0.0164549
769.051	0.0164645
769.129	0.0164425
769.207	0.0165234
769.285	0.0166218
769.363	0.0165208
769.442	0.0165466
769.520	0.0167238
769.598	0.0167645
769.676	0.0167504
769.754	0.0168343
769.832	0.0170030
769.910	0.0167854
769.988	0.0167441
770.067	0.0168014
770.145	0.0169238
770.223	0.0166936
770.301	0.0168253
770.379	0.0168802
770.457	0.0167724
770.535	0.0166502
770.613	0.0166377
770.692	0.0165854
770.770	0.0166092
770.848	0.0165236
770.926	0.0165881
771.004	0.0166166
771.082	0.0165924
771.160	0.0164999
771.238	0.0165874
771.317	0.0165215
771.395	0.0166208
771.473	0.0165010
771.551	0.0165908
771.629	0.0166022
771.707	0.0166879
771.785	0.0167890
771.863	0.0166840
771.942	0.0167426
772.020	0.0167281
772.098	0.0167519
772.176	0.0168902
772.254	0.0166830
772.332	0.0166550
772.410	0.0167472
772.488	0.0168578
772.567	0.0168185
772.645	0.0166386
772.723	0.0166801
772.801	0.0168351
772.879	0.0167271
772.957	0.0166807
773.035	0.0166309
773.113	0.0166766
773.192	0.0166357
773.270	0.0165076
773.348	0.0166660
773.426	0.0167056
773.504	0.0166728
773.582	0.0166975
773.660	0.0166439
773.738	0.0164151
773.817	0.0165072
773.895	0.0166978
773.973	0.0167170
774.051	0.0166734
774.129	0.0166676
774.207	0.0166985
774.285	0.0168276
774.363	0.0168423
774.442	0.0167150
774.520	0.0166843
774.598	0.0167049
774.676	0.0167146
774.754	0.0167261
774.832	0.0168253
774.910	0.0168528
774.988	0.0166155
775.067	0.0166134
775.145	0.0165708
775.223	0.0165872
775.301	0.0165327
775.379	0.0164702
775.457	0.0164320
775.535	0.0165601
775.613	0.0165915
775.692	0.0165691
775.770	0.0164983
775.848	0.0164691
775.926	0.0165723
776.004	0.0165942
776.082	0.0166840
776.160	0.0166673
776.238	0.0167406
776.317	0.0165929
776.395	0.0166902
776.473	0.0168419
776.551	0.0168963
776.629	0.0166994
776.707	0.0167447
776.785	0.0167514
776.863	0.0167866
776.942	0.0167670
777.020	0.0166382
777.098	0.0168188
777.176	0.0166599
777.254	0.0167721
777.332	0.0166923
777.410	0.0167242
777.488	0.0166467
777.567	0.0166142
777.645	0.0166161
777.723	0.0167464
777.801	0.0165994
777.879	0.0166019
777.957	0.0166283
778.035	0.0165656
778.113	0.0165664
778.192	0.0164853
778.270	0.0166689
778.348	0.0165581
778.426	0.0164925
778.504	0.0166129
778.582	0.0166697
778.660	0.0168355
778.738	0.0166649
778.817	0.0165825
778.895	0.0167070
778.973	0.0167834
779.051	0.0168542
779.129	0.0169969
779.207	0.0168800
779.285	0.0167146
779.363	0.0168865
779.442	0.0166956
779.520	0.0167036
779.598	0.0168032
779.676	0.0165833
779.754	0.0167184
779.832	0.0167718
779.910	0.0166628
779.988	0.0166716
780.067	0.0166641
780.145	0.0167079
780.223	0.0166376
780.301	0.0164848
780.379	0.0165948
780.457	0.0165159
780.535	0.0166724
780.613	0.0165676
780.692	0.0165836
780.770	0.0166869
780.848	0.0166104
780.926	0.0166943
781.004	0.0167344
781.082	0.0167903
781.160	0.0167783
781.238	0.0167815
781.317	0.0166372
781.395	0.0165811
781.473	0.0167704
781.551	0.0168867
781.629	0.0168584
781.707	0.0166980
781.785	0.0166605
781.863	0.0166408
781.942	0.0166757
782.020	0.0167084
782.098	0.0165721
782.176	0.0166680
782.254	0.0165990
782.332	0.0166850
782.410	0.0165614
782.488	0.0165246
782.567	0.0168016
782.645	0.0166663
782.723	0.0164986
782.801	0.0167357
782.879	0.0166949
782.957	0.0166872
783.035	0.0166146
783.113	0.0167361
783.192	0.0166775
783.270	0.0167211
783.348	0.0167730
783.426	0.0166904
783.504	0.0167818
783.582	0.0167142
783.660	0.0168565
783.738	0.0168642
783.817	0.0167807
783.895	0.0166974
783.973	0.0167516
784.051	0.0168098
784.129	0.0167708
784.207	0.0167738
784.285	0.0166870
784.363	0.0167353
784.442	0.0166931
784.520	0.0167575
784.598	0.0165580
784.676	0.0163045
784.754	0.0164303
784.832	0.0163300
784.910	0.0163004
784.988	0.0164313
785.067	0.0165036
785.145	0.0165031
785.223	0.0164069
785.301	0.0165031
785.379	0.0166185
785.457	0.0167374
785.535	0.0167580
785.613	0.0167148
785.692	0.0169171
785.770	0.0168601
785.848	0.0168622
785.926	0.0168956
786.004	0.0169061
786.082	0.0169434
786.160	0.0168173
786.238	0.0168661
786.317	0.0168946
786.395	0.0168691
786.473	0.0169594
786.551	0.0166413
786.629	0.0165880
786.707	0.0166904
786.785	0.0164542
786.863	0.0164581
786.942	0.0163691
787.020	0.0163454
787.098	0.0163898
787.176	0.0163125
787.254	0.0163079
787.332	0.0164403
787.410	0.0163310
787.488	0.0164552
787.567	0.0164663
787.645	0.0167242
787.723	0.0165646
787.801	0.0166602
787.879	0.0165895
787.957	0.0167652
788.035	0.0168222
788.113	0.0168758
788.192	0.0170893
788.270	0.0170006
788.348	0.0169640
788.426	0.0169238
788.504	0.0169733
788.582	0.0169528
788.660	0.0170570
788.738	0.0168233
788.817	0.0168743
788.895	0.0168677
788.973	0.0166309
789.051	0.0165686
789.129	0.0166620
789.207	0.0166077
789.285	0.0164077
789.363	0.0162525
789.442	0.0162714
789.520	0.0163786
789.598	0.0163662
789.676	0.0164047
789.754	0.0164092
789.832	0.0164870
789.910	0.0165242
789.988	0.0165738
790.067	0.0166029
790.145	0.0167017
790.223	0.0167608
790.301	0.0167888
790.379	0.0168358
790.457	0.0168800
790.535	0.0169405
790.613	0.0168375
790.692	0.0169528
790.770	0.0168906
790.848	0.0168089
790.926	0.0166322
791.004	0.0167204
791.082	0.0167525
791.160	0.0167054
791.238	0.0167271
791.317	0.0165807
791.395	0.0164941
791.473	0.0164872
791.551	0.0164097
791.629	0.0164140
791.707	0.0163682
791.785	0.0163666
791.863	0.0163933
791.942	0.0163301
792.020	0.0164922
792.098	0.0164247
792.176	0.0165208
792.254	0.0166110
792.332	0.0165345
792.410	0.0166267
792.488	0.0167435
792.567	0.0168102
792.645	0.0167516
792.723	0.0167921
792.801	0.0169389
792.879	0.0168089
792.957	0.0168322
793.035	0.0168444
793.113	0.0169036
793.192	0.0168801
793.270	0.0168211
793.348	0.0166539
793.426	0.0168517
793.504	0.0166869
793.582	0.0166719
793.660	0.0166523
793.738	0.0166060
793.817	0.0166512
793.895	0.0166617
793.973	0.0166019
794.051	0.0165907
794.129	0.0166074
794.207	0.0164124
794.285	0.0165086
794.363	0.0166027
794.442	0.0165613
794.520	0.0166879
794.598	0.0166145
794.676	0.0165829
794.754	0.0166614
794.832	0.0167864
794.910	0.0167242
794.988	0.0167156
795.067	0.0167213
795.145	0.0166938
795.223	0.0167519
795.301	0.0166756
795.379	0.0168002
795.457	0.0167944
795.535	0.0167906
795.613	0.0167027
795.692	0.0167003
795.770	0.0166805
795.848	0.0167165
795.926	0.0167204
796.004	0.0166745
796.082	0.0166064
796.160	0.0166130
796.238	0.0166440
796.317	0.0165022
796.395	0.0166674
796.473	0.0167359
796.551	0.0168662
796.629	0.0167039
796.707	0.0164984
796.785	0.0168172
796.863	0.0168121
796.942	0.0167099
797.020	0.0169261
797.098	0.0166573
797.176	0.0168237
797.254	0.0167618
797.332	0.0167817
797.410	0.0168361
797.488	0.0168523
797.567	0.0167742
797.645	0.0168134
797.723	0.0166772
797.801	0.0167319
797.879	0.0166364
797.957	0.0167161
798.035	0.0167284
798.113	0.0166292
798.192	0.0165263
798.270	0.0165718
798.348	0.0166247
798.426	0.0164881
798.504	0.0166589
798.582	0.0166110
798.660	0.0166727
798.738	0.0167063
798.817	0.0166045
798.895	0.0166157
798.973	0.0165781
799.051	0.0166344
799.129	0.0166692
799.207	0.0166588
799.285	0.0167365
799.363	0.0167810
799.442	0.0166478
799.520	0.0166988
799.598	0.0167322
799.676	0.0166768
799.754	0.0166202
799.832	0.0165804
799.910	0.0164780
799.988	0.0164426
800.067	0.0165578
800.145	0.0164423
800.223	0.0165152
800.301	0.0163954
800.379	0.0164614
800.457	0.0166109
800.535	0.0165881
800.613	0.0164710
800.692	0.0165405
800.770	0.0165822
800.848	0.0165313
800.926	0.0166318
801.004	0.0168555
801.082	0.0168026
801.160	0.0167366
801.238	0.0167084
801.317	0.0168124
801.395	0.0168459
801.473	0.0168317
801.551	0.0167813
801.629	0.0168465
801.707	0.0167467
801.785	0.0167639
801.863	0.0167734
801.942	0.0167353
802.020	0.0166910
802.098	0.0166204
802.176	0.0165565
802.254	0.0167005
802.332	0.0166390
802.410	0.0165475
802.488	0.0165160
802.567	0.0163701
802.645	0.0165601
802.723	0.0164939
802.801	0.0164689
802.879	0.0164950
802.957	0.0166062
803.035	0.0166196
803.113	0.0165830
803.192	0.0165847
803.270	0.0166898
803.348	0.0165806
803.426	0.0168240
803.504	0.0167660
803.582	0.0167190
803.660	0.0167658
803.738	0.0167323
803.817	0.0166701
803.895	0.0167540
803.973	0.0167293
804.051	0.0168547
804.129	0.0167081
804.207	0.0166724
804.285	0.0167992
804.363	0.0166254
804.442	0.0165883
804.520	0.0167064
804.598	0.0166018
804.676	0.0164714
804.754	0.0166322
804.832	0.0166787
804.910	0.0166077
804.988	0.0165607
805.067	0.0166254
805.145	0.0165830
805.223	0.0165478
805.301	0.0167297
805.379	0.0168431
805.457	0.0167726
805.535	0.0167124
805.613	0.0168617
805.692	0.0168052
805.770	0.0166083
805.848	0.0168410
805.926	0.0167548
806.004	0.0167088
806.082	0.0166431
806.160	0.0166848
806.238	0.0167010
806.317	0.0165781
806.395	0.0164387
806.473	0.0164916
806.551	0.0164812
806.629	0.0164868
806.707	0.0165475
806.785	0.0165948
806.863	0.0165792
806.942	0.0164972
807.020	0.0165826
807.098	0.0165386
807.176	0.0167191
807.254	0.0166586
807.332	0.0167756
807.410	0.0166143
807.488	0.0165675
807.567	0.0168475
807.645	0.0166707
807.723	0.0165405
807.801	0.0167014
807.879	0.0166311
807.957	0.0165810
808.035	0.0165217
808.113	0.0164505
808.192	0.0165761
808.270	0.0164355
808.348	0.0165943
808.426	0.0163966
808.504	0.0164924
808.582	0.0166493
808.660	0.0165543
808.738	0.0166798
808.817	0.0167175
808.895	0.0167423
808.973	0.0166468
809.051	0.0169735
809.129	0.0168596
809.207	0.0168526
809.285	0.0168545
809.363	0.0169859
809.442	0.0170318
809.520	0.0169066
809.598	0.0169553
809.676	0.0167596
809.754	0.0168143
809.832	0.0167474
809.910	0.0166113
809.988	0.0166550
810.067	0.0167394
810.145	0.0166313
810.223	0.0166061
810.301	0.0167863
810.379	0.0166327
810.457	0.0166801
810.535	0.0166454
810.613	0.0166006
810.692	0.0166100
810.770	0.0167632
810.848	0.0166953
810.926	0.0166795
811.004	0.0167272
811.082	0.0165523
811.160	0.0164487
811.238	0.0166477
811.317	0.0165257
811.395	0.0164629
811.473	0.0165189
811.551	0.0164848
811.629	0.0165547
811.707	0.0163375
811.785	0.0163602
811.863	0.0165749
811.942	0.0163531
812.020	0.0162649
812.098	0.0163367
812.176	0.0164487
812.254	0.0163104
812.332	0.0165125
812.410	0.0165649
812.488	0.0165573
812.567	0.0166594
812.645	0.0165863
812.723	0.0167169
812.801	0.0168638
812.879	0.0167699
812.957	0.0168450
813.035	0.0168568
813.113	0.0168958
813.192	0.0168746
813.270	0.0168461
813.348	0.0168900
813.426	0.0168172
813.504	0.0169296
813.582	0.0169224
813.660	0.0167820
813.738	0.0167191
813.817	0.0167905
813.895	0.0166700
813.973	0.0167180
814.051	0.0166756
814.129	0.0165607
814.207	0.0165760
814.285	0.0164610
814.363	0.0165128
814.442	0.0164713
814.520	0.0165700
814.598	0.0167038
814.676	0.0165846
814.754	0.0166142
814.832	0.0167088
814.910	0.0166441
814.988	0.0167311
815.067	0.0167422
815.145	0.0166518
815.223	0.0167686
815.301	0.0166692
815.379	0.0167410
815.457	0.0166144
815.535	0.0164989
815.613	0.0165916
815.692	0.0165820
815.770	0.0165621
815.848	0.0165287
815.926	0.0165448
816.004	0.0165734
816.082	0.0165258
816.160	0.0163239
816.238	0.0165099
816.317	0.0163206
816.395	0.0164194
816.473	0.0163842
816.551	0.0163521
816.629	0.0164758
816.707	0.0165549
816.785	0.0165627
816.863	0.0166099
816.942	0.0167208
817.020	0.0166598
817.098	0.0165589
817.176	0.0166823
817.254	0.0167744
817.332	0.0168068
817.410	0.0168121
817.488	0.0167097
817.567	0.0167973
817.645	0.0167811
817.723	0.0166258
817.801	0.0167635
817.879	0.0166158
817.957	0.0166092
818.035	0.0166357
818.113	0.0166836
818.192	0.0165660
818.270	0.0166595
818.348	0.0166233
818.426	0.0165720
818.504	0.0165578
818.582	0.0165432
818.660	0.0164881
818.738	0.0166492
818.817	0.0166302
818.895	0.0166672
818.973	0.0165066
819.051	0.0166003
819.129	0.0165496
819.207	0.0166102
819.285	0.0166684
819.363	0.0165650
819.442	0.0166091
819.520	0.0166406
819.598	0.0166199
819.676	0.0167927
819.754	0.0166337
819.832	0.0165804
819.910	0.0167704
819.988	0.0166766
820.067	0.0166436
820.145	0.0166673
820.223	0.0165931
820.301	0.0166509
820.379	0.0166005
820.457	0.0165381
820.535	0.0166761
820.613	0.0166241
820.692	0.0166285
820.770	0.0166824
820.848	0.0166463
820.926	0.0166522
821.004	0.0166894
821.082	0.0165927
821.160	0.0166669
821.238	0.0164980
821.317	0.0165167
821.395	0.0166392
821.473	0.0166055
821.551	0.0165446
821.629	0.0165922
821.707	0.0166586
821.785	0.0167453
821.863	0.0164696
821.942	0.0166267
822.020	0.0166749
822.098	0.0167242
822.176	0.0164925
822.254	0.0167606
822.332	0.0168732
822.410	0.0167215
822.488	0.0166846
822.567	0.0166191
822.645	0.0167142
822.723	0.0167059
822.801	0.0166570
822.879	0.0166029
822.957	0.0166047
823.035	0.0166015
823.113	0.0165058
823.192	0.0165828
823.270	0.0164851
823.348	0.0166810
823.426	0.0165494
823.504	0.0165237
823.582	0.0166371
823.660	0.0165855
823.738	0.0165338
823.817	0.0165907
823.895	0.0165614
823.973	0.0165491
824.051	0.0166798
824.129	0.0167220
824.207	0.0166179
824.285	0.0166116
824.363	0.0167237
824.442	0.0166315
824.520	0.0166766
824.598	0.0166365
824.676	0.0166879
824.754	0.0166370
824.832	0.0166191
824.910	0.0166733
824.988	0.0166644
825.067	0.0166003
825.145	0.0167738
825.223	0.0166129
825.301	0.0166123
825.379	0.0165416
825.457	0.0165451
825.535	0.0165234
825.613	0.0167390
825.692	0.0167442
825.770	0.0166548
825.848	0.0165407
825.926	0.0165305
826.004	0.0166769
826.082	0.0166513
826.160	0.0168700
826.238	0.0166895
826.317	0.0167356
826.395	0.0166247
826.473	0.0165471
826.551	0.0166159
826.629	0.0165567
826.707	0.0166164
826.785	0.0166164
826.863	0.0166708
826.942	0.0166716
827.020	0.0165578
827.098	0.0165669
827.176	0.0166776
827.254	0.0165124
827.332	0.0166745
827.410	0.0165906
827.488	0.0166956
827.567	0.0165086
827.645	0.0166038
827.723	0.0166617
827.801	0.0166201
827.879	0.0165550
827.957	0.0166622
828.035	0.0167114
828.113	0.0167607
828.192	0.0167284
828.270	0.0166419
828.348	0.0166191
828.426	0.0166300
828.504	0.0167205
828.582	0.0166266
828.660	0.0166660
828.738	0.0166998
828.817	0.0167010
828.895	0.0164876
828.973	0.0166688
829.051	0.0167755
829.129	0.0166605
829.207	0.0166496
829.285	0.0166960
829.363	0.0166493
829.442	0.0167507
829.520	0.0168109
829.598	0.0167207
829.676	0.0168075
829.754	0.0166335
829.832	0.0166981
829.910	0.0165929
829.988	0.0166666
830.067	0.0166364
830.145	0.0165723
830.223	0.0166425
830.301	0.0166565
830.379	0.0166662
830.457	0.0164574
830.535	0.0165841
830.613	0.0166421
830.692	0.0168093
830.770	0.0165022
830.848	0.0166126
830.926	0.0166832
831.004	0.0167104
831.082	0.0165162
831.160	0.0167625
831.238	0.0167298
831.317	0.0167784
831.395	0.0166982
831.473	0.0167835
831.551	0.0167525
831.629	0.0166845
831.707	0.0167473
831.785	0.0166051
831.863	0.0168702
831.942	0.0168267
832.020	0.0166978
832.098	0.0166564
832.176	0.0167559
832.254	0.0166592
832.332	0.0166172
832.410	0.0166068
832.488	0.0166099
832.567	0.0166335
832.645	0.0166214
832.723	0.0165997
832.801	0.0164079
832.879	0.0164700
832.957	0.0165929
833.035	0.0165633
833.113	0.0166917
833.192	0.0165585
833.270	0.0164400
833.348	0.0166666
833.426	0.0166555
833.504	0.0165737
833.582	0.0167489
833.660	0.0167046
833.738	0.0167239
833.817	0.0166491
833.895	0.0166654
833.973	0.0168020
834.051	0.0168824
834.129	0.0167648
834.207	0.0168165
834.285	0.0169267
834.363	0.0166349
834.442	0.0168126
834.520	0.0167016
834.598	0.0166766
834.676	0.0167689
834.754	0.0165002
834.832	0.0165237
834.910	0.0166497
834.988	0.0166873
835.067	0.0164987
835.145	0.0165364
835.223	0.0166083
835.301	0.0165938
835.379	0.0165215
835.457	0.0164992
835.535	0.0165179
835.613	0.0166368
835.692	0.0167348
835.770	0.0166292
835.848	0.0166312
835.926	0.0167975
836.004	0.0166779
836.082	0.0166685
836.160	0.0167321
836.238	0.0167014
836.317	0.0167624
836.395	0.0166115
836.473	0.0167226
836.551	0.0167975
836.629	0.0169823
836.707	0.0166919
836.785	0.0167205
836.863	0.0168764
836.942	0.0168102
837.020	0.0169070
837.098	0.0167229
837.176	0.0166936
837.254	0.0168027
837.332	0.0166896
837.410	0.0166622
837.488	0.0165193
837.567	0.0165971
837.645	0.0166329
837.723	0.0165831
837.801	0.0165141
837.879	0.0165607
837.957	0.0164771
838.035	0.0165744
838.113	0.0165045
838.192	0.0165105
838.270	0.0165879
838.348	0.0166375
838.426	0.0166713
838.504	0.0168073
838.582	0.0167133
838.660	0.0166984
838.738	0.0166403
838.817	0.0165926
838.895	0.0165991
838.973	0.0166088
839.051	0.0167467
839.129	0.0165525
839.207	0.0165380
839.285	0.0166212
839.363	0.0166633
839.442	0.0165574
839.520	0.0165725
839.598	0.0165742
839.676	0.0165646
839.754	0.0164322
839.832	0.0164598
839.910	0.0166149
839.988	0.0166066
840.067	0.0164825
840.145	0.0165394
840.223	0.0164389
840.301	0.0165082
840.379	0.0166677
840.457	0.0166636
840.535	0.0165759
840.613	0.0166003
840.692	0.0168011
840.770	0.0166460
840.848	0.0165619
840.926	0.0165620
841.004	0.0167314
841.082	0.0165388
841.160	0.0166998
841.238	0.0167008
841.317	0.0167173
841.395	0.0166286
841.473	0.0167234
841.551	0.0166132
841.629	0.0165790
841.707	0.0167291
841.785	0.0167204
841.863	0.0166504
841.942	0.0166609
842.020	0.0166580
842.098	0.0165820
842.176	0.0165264
842.254	0.0165825
842.332	0.0165321
842.410	0.0166879
842.488	0.0166890
842.567	0.0166834
842.645	0.0166544
842.723	0.0167246
842.801	0.0166658
842.879	0.0167256
842.957	0.0167854
843.035	0.0166770
843.113	0.0167777
843.192	0.0166903
843.270	0.0168546
843.348	0.0165649
843.426	0.0167451
843.504	0.0166330
843.582	0.0168206
843.660	0.0167704
843.738	0.0166034
843.817	0.0168130
843.895	0.0165878
843.973	0.0166953
844.051	0.0166992
844.129	0.0167989
844.207	0.0165841
844.285	0.0166772
844.363	0.0167705
844.442	0.0167467
844.520	0.0166744
844.598	0.0167538
844.676	0.0165326
844.754	0.0165837
844.832	0.0167712
844.910	0.0166884
844.988	0.0166502
845.067	0.0166737
845.145	0.0167113
845.223	0.0166726
845.301	0.0165980
845.379	0.0167713
845.457	0.0165839
845.535	0.0166135
845.613	0.0167348
845.692	0.0167896
845.770	0.0166818
845.848	0.0167567
845.926	0.0166069
846.004	0.0166923
846.082	0.0167669
846.160	0.0167507
846.238	0.0166880
846.317	0.0167757
846.395	0.0167751
846.473	0.0166872
846.551	0.0165369
846.629	0.0166591
846.707	0.0167735
846.785	0.0165865
846.863	0.0166017
846.942	0.0166983
847.020	0.0166344
847.098	0.0166265
847.176	0.0164689
847.254	0.0164943
847.332	0.0163765
847.410	0.0164925
847.488	0.0165477
847.567	0.0163512
847.645	0.0165503
847.723	0.0163889
847.801	0.0164811
847.879	0.0165939
847.957	0.0166535
848.035	0.0166848
848.113	0.0166627
848.192	0.0168448
848.270	0.0166964
848.348	0.0167464
848.426	0.0168153
848.504	0.0167883
848.582	0.0167477
848.660	0.0167522
848.738	0.0167368
848.817	0.0166271
848.895	0.0166392
848.973	0.0165884
849.051	0.0167561
849.129	0.0165598
849.207	0.0164490
849.285	0.0165215
849.363	0.0167020
849.442	0.0166692
849.520	0.0166684
849.598	0.0166494
849.676	0.0167719
849.754	0.0168211
849.832	0.0168511
849.910	0.0169984
849.988	0.0168804
850.067	0.0167388
850.145	0.0169253
850.223	0.0170050
850.301	0.0170253
850.379	0.0169343
850.457	0.0167934
850.535	0.0168979
850.613	0.0166700
850.692	0.0167039
850.770	0.0166530
850.848	0.0166104
850.926	0.0165253
851.004	0.0165065
851.082	0.0164253
851.160	0.0164198
851.238	0.0163978
851.317	0.0164780
851.395	0.0164218
851.473	0.0165258
851.551	0.0165516
851.629	0.0165839
851.707	0.0166821
851.785	0.0166101
851.863	0.0166054
851.942	0.0167850
852.020	0.0168286
852.098	0.0168227
852.176	0.0169061
852.254	0.0169101
852.332	0.0170176
852.410	0.0168955
852.488	0.0168472
852.567	0.0168446
852.645	0.0168336
852.723	0.0167336
852.801	0.0168132
852.879	0.0166873
852.957	0.0167151
853.035	0.0165673
853.113	0.0164786
853.192	0.0165205
853.270	0.0165215
853.348	0.0164764
853.426	0.0163702
853.504	0.0164464
853.582	0.0164583
853.660	0.0166725
853.738	0.0166734
853.817	0.0164959
853.895	0.0166599
853.973	0.0167651
854.051	0.0167600
854.129	0.0168388
854.207	0.0167809
854.285	0.0168856
854.363	0.0167674
854.442	0.0167776
854.520	0.0170116
854.598	0.0168540
854.676	0.0166821
854.754	0.0167554
854.832	0.0167712
854.910	0.0166651
854.988	0.0167576
855.067	0.0164802
855.145	0.0165766
855.223	0.0165436
855.301	0.0164572
855.379	0.0166074
855.457	0.0164694
855.535	0.0164042
855.613	0.0164801
855.692	0.0165094
855.770	0.0165092
855.848	0.0164897
855.926	0.0166156
856.004	0.0166631
856.082	0.0166177
856.160	0.0166912
856.238	0.0167572
856.317	0.0167899
856.395	0.0167724
856.473	0.0169788
856.551	0.0168296
856.629	0.0166977
856.707	0.0167170
856.785	0.0168283
856.863	0.0168282
856.942	0.0166908
857.020	0.0167276
857.098	0.0167262
857.176	0.0167260
857.254	0.0166353
857.332	0.0165571
857.410	0.0166266
857.488	0.0165541
857.567	0.0166657
857.645	0.0165944
857.723	0.0165145
857.801	0.0166069
857.879	0.0165128
857.957	0.0166397
858.035	0.0166760
858.113	0.0165524
858.192	0.0166785
858.270	0.0167272
858.348	0.0165971
858.426	0.0166858
858.504	0.0167152
858.582	0.0167670
858.660	0.0168096
858.738	0.0168382
858.817	0.0166083
858.895	0.0167828
858.973	0.0168131
859.051	0.0168850
859.129	0.0168871
859.207	0.0169554
859.285	0.0167552
859.363	0.0167220
859.442	0.0168599
859.520	0.0167619
859.598	0.0167499
859.676	0.0166817
859.754	0.0165749
859.832	0.0166476
859.910	0.0166278
859.988	0.0165822
860.067	0.0166593
860.145	0.0165072
860.223	0.0165665
860.301	0.0165208
860.379	0.0164789
860.457	0.0165368
860.535	0.0166368
860.613	0.0166074
860.692	0.0166068
860.770	0.0166019
860.848	0.0167064
860.926	0.0167595
861.004	0.0167010
861.082	0.0166031
861.160	0.0168262
861.238	0.0168243
861.317	0.0168525
861.395	0.0166135
861.473	0.0166683
861.551	0.0168710
861.629	0.0166532
861.707	0.0165989
861.785	0.0165508
861.863	0.0165556
861.942	0.0164156
862.020	0.0165910
862.098	0.0165002
862.176	0.0165314
862.254	0.0166434
862.332	0.0164107
862.410	0.0163985
862.488	0.0165095
862.567	0.0164942
862.645	0.0165188
862.723	0.0165361
862.801	0.0166235
862.879	0.0166982
862.957	0.0165815
863.035	0.0165840
863.113	0.0167623
863.192	0.0166119
863.270	0.0167509
863.348	0.0167448
863.426	0.0167060
863.504	0.0167353
863.582	0.0167758
863.660	0.0167231
863.738	0.0167233
863.817	0.0167282
863.895	0.0166151
863.973	0.0166627
864.051	0.0165753
864.129	0.0166323
864.207	0.0166149
864.285	0.0165520
864.363	0.0165083
864.442	0.0166109
864.520	0.0164725
864.598	0.0165070
864.676	0.0167368
864.754	0.0166788
864.832	0.0166413
864.910	0.0167746
864.988	0.0168424
865.067	0.0167046
865.145	0.0166460
865.223	0.0166212
865.301	0.0166668
865.379	0.0166651
865.457	0.0166769
865.535	0.0166157
865.613	0.0166515
865.692	0.0168816
865.770	0.0167098
865.848	0.0167467
865.926	0.0167196
866.004	0.0166301
866.082	0.0166274
866.160	0.0166454
866.238	0.0167212
866.317	0.0166747
866.395	0.0166932
866.473	0.0167133
866.551	0.0166662
866.629	0.0166044
866.707	0.0167908
866.785	0.0167012
866.863	0.0165857
866.942	0.0168199
867.020	0.0166496
867.098	0.0165927
867.176	0.0166929
867.254	0.0166639
867.332	0.0167198
867.410	0.0167148
867.488	0.0167197
867.567	0.0165044
867.645	0.0164988
867.723	0.0166772
867.801	0.0166628
867.879	0.0166086
867.957	0.0166877
868.035	0.0165896
868.113	0.0165166
868.192	0.0167060
868.270	0.0165604
868.348	0.0165459
868.426	0.0165398
868.504	0.0164999
868.582	0.0166257
868.660	0.0165785
868.738	0.0164523
868.817	0.0165341
868.895	0.0165441
868.973	0.0165555
869.051	0.0165408
869.129	0.0165495
869.207	0.0167049
869.285	0.0166039
869.363	0.0167918
869.442	0.0166668
869.520	0.0167135
869.598	0.0165723
869.676	0.0166333
869.754	0.0167772
869.832	0.0167201
869.910	0.0167912
869.988	0.0167296
870.067	0.0167655
870.145	0.0167214
870.223	0.0166944
870.301	0.0167570
870.379	0.0166524
870.457	0.0166088
870.535	0.0166295
870.613	0.0166176
870.692	0.0167397
870.770	0.0168221
870.848	0.0168122
870.926	0.0166728
871.004	0.0167562
871.082	0.0167300
871.160	0.0167739
871.238	0.0167084
871.317	0.0168451
871.395	0.0167590
871.473	0.0168608
871.551	0.0168372
871.629	0.0167546
871.707	0.0167928
871.785	0.0167320
871.863	0.0167159
871.942	0.0167603
872.020	0.0166650
872.098	0.0167002
872.176	0.0167371
872.254	0.0166681
872.332	0.0167123
872.410	0.0166782
872.488	0.0167490
872.567	0.0166470
872.645	0.0166348
872.723	0.0167589
872.801	0.0166893
872.879	0.0166329
872.957	0.0167342
873.035	0.0166331
873.113	0.0165946
873.192	0.0167592
873.270	0.0165947
873.348	0.0166640
873.426	0.0165685
873.504	0.0166661
873.582	0.0165662
873.660	0.0166824
873.738	0.0165778
873.817	0.0165773
873.895	0.0165377
873.973	0.0166225
874.051	0.0166647
874.129	0.0167752
874.207	0.0167105
874.285	0.0168072
874.363	0.0168487
874.442	0.0167103
874.520	0.0167545
874.598	0.0168032
874.676	0.0167432
874.754	0.0167030
874.832	0.0167841
874.910	0.0167002
874.988	0.0165850
875.067	0.0166265
875.145	0.0167273
875.223	0.0166810
875.301	0.0166486
875.379	0.0164957
875.457	0.0166259
875.535	0.0165780
875.613	0.0164711
875.692	0.0166156
875.770	0.0165743
875.848	0.0166885
875.926	0.0166615
876.004	0.0165154
876.082	0.0167039
876.160	0.0165189
876.238	0.0165688
876.317	0.0166011
876.395	0.0166237
876.473	0.0164895
876.551	0.0164476
876.629	0.0165529
876.707	0.0165422
876.785	0.0166920
876.863	0.0164382
876.942	0.0164587
877.020	0.0165314
877.098	0.0165862
877.176	0.0166280
877.254	0.0167848
877.332	0.0166797
877.410	0.0167023
877.488	0.0166973
877.567	0.0167262
877.645	0.0166891
877.723	0.0167004
877.801	0.0166881
877.879	0.0167999
877.957	0.0167295
878.035	0.0168410
878.113	0.0166221
878.192	0.0166868
878.270	0.0165588
878.348	0.0165949
878.426	0.0166643
878.504	0.0165727
878.582	0.0165844
878.660	0.0163732
878.738	0.0166051
878.817	0.0166376
878.895	0.0164391
878.973	0.0165232
879.051	0.0166441
879.129	0.0163950
879.207	0.0163946
879.285	0.0165112
879.363	0.0166619
879.442	0.0166888
879.520	0.0168497
879.598	0.0168166
879.676	0.0167933
879.754	0.0167358
879.832	0.0169595
879.910	0.0169896
879.988	0.0169044
880.067	0.0168379
880.145	0.0167316
880.223	0.0168172
880.301	0.0166306
880.379	0.0163873
880.457	0.0163304
880.535	0.0162875
880.613	0.0163593
880.692	0.0161581
880.770	0.0162567
880.848	0.0163820
880.926	0.0164010
881.004	0.0164410
881.082	0.0164954
881.160	0.0165905
881.238	0.0166730
881.317	0.0168527
881.395	0.0168375
881.473	0.0169781
881.551	0.0170172
881.629	0.0169914
881.707	0.0170673
881.785	0.0168701
881.863	0.0169032
881.942	0.0169124
882.020	0.0168403
882.098	0.0168034
882.176	0.0168056
882.254	0.0164439
882.332	0.0163098
882.410	0.0163536
882.488	0.0163020
882.567	0.0160273
882.645	0.0160931
882.723	0.0159529
882.801	0.0158680
882.879	0.0161406
882.957	0.0163218
883.035	0.0164513
883.113	0.0165546
883.192	0.0168611
883.270	0.0169517
883.348	0.0173045
883.426	0.0173904
883.504	0.0174975
883.582	0.0173926
883.660	0.0173660
883.738	0.0171828
883.817	0.0172870
883.895	0.0171906
883.973	0.0170057
884.051	0.0170955
884.129	0.0168555
884.207	0.0166952
884.285	0.0166575
884.363	0.0166608
884.442	0.0160909
884.520	0.0161572
884.598	0.0160793
884.676	0.0160062
884.754	0.0159286
884.832	0.0158900
884.910	0.0160612
884.988	0.0161525
885.067	0.0162270
885.145	0.0162717
885.223	0.0164175
885.301	0.0164634
885.379	0.0167205
885.457	0.0169910
885.535	0.0170815
885.613	0.0171358
885.692	0.0172186
885.770	0.0172602
885.848	0.0171352
885.926	0.0171920
886.004	0.0171082
886.082	0.0170452
886.160	0.0168855
886.238	0.0169631
886.317	0.0168725
886.395	0.0166339
886.473	0.0165544
886.551	0.0163799
886.629	0.0163848
886.707	0.0162751
886.785	0.0163223
886.863	0.0161977
886.942	0.0160666
887.020	0.0161855
887.098	0.0161716
887.176	0.0160117
887.254	0.0162849
887.332	0.0163843
887.410	0.0163392
887.488	0.0164884
887.567	0.0165640
887.645	0.0167045
887.723	0.0168182
887.801	0.0168591
887.879	0.0167371
887.957	0.0166914
888.035	0.0168310
888.113	0.0167668
888.192	0.0169942
888.270	0.0170299
888.348	0.0168951
888.426	0.0169948
888.504	0.0170059
888.582	0.0168791
888.660	0.0169839
888.738	0.0168517
888.817	0.0168628
888.895	0.0169124
888.973	0.0165679
889.051	0.0165397
889.129	0.0167477
889.207	0.0166722
889.285	0.0165388
889.363	0.0163483
889.442	0.0163721
889.520	0.0164230
889.598	0.0164619
889.676	0.0164536
889.754	0.0164833
889.832	0.0163443
889.910	0.0162971
889.988	0.0163034
890.067	0.0164521
890.145	0.0164061
890.223	0.0164716
890.301	0.0162991
890.379	0.0163297
890.457	0.0164201
890.535	0.0163578
890.613	0.0165382
890.692	0.0165977
890.770	0.0164605
890.848	0.0165243
890.926	0.0166659
891.004	0.0167864
891.082	0.0167178
891.160	0.0168221
891.238	0.0168681
891.317	0.0168295
891.395	0.0169297
891.473	0.0169455
891.551	0.0169756
891.629	0.0169706
891.707	0.0170119
891.785	0.0169456
891.863	0.0168115
891.942	0.0167647
892.020	0.0167077
892.098	0.0167809
892.176	0.0166569
892.254	0.0165477
892.332	0.0164487
892.410	0.0164697
892.488	0.0166119
892.567	0.0164225
892.645	0.0163306
892.723	0.0163130
892.801	0.0163803
892.879	0.0165237
892.957	0.0165572
893.035	0.0165642
893.113	0.0164199
893.192	0.0166871
893.270	0.0166348
893.348	0.0166273
893.426	0.0165967
893.504	0.0165768
893.582	0.0166853
893.660	0.0165870
893.738	0.0166862
893.817	0.0166061
893.895	0.0165316
893.973	0.0167492
894.051	0.0166740
894.129	0.0165929
894.207	0.0164910
894.285	0.0165836
894.363	0.0167044
894.442	0.0164861
894.520	0.0164167
894.598	0.0165527
894.676	0.0166512
894.754	0.0165697
894.832	0.0166536
894.910	0.0166137
894.988	0.0166466
895.067	0.0167494
895.145	0.0164572
895.223	0.0167347
895.301	0.0166876
895.379	0.0166505
895.457	0.0166402
895.535	0.0167702
895.613	0.0167034
895.692	0.0166996
895.770	0.0167136
895.848	0.0166154
895.926	0.0165569
896.004	0.0165818
896.082	0.0166398
896.160	0.0166390
896.238	0.0164715
896.317	0.0164855
896.395	0.0168177
896.473	0.0165917
896.551	0.0164671
896.629	0.0166541
896.707	0.0166936
896.785	0.0165869
896.863	0.0166386
896.942	0.0167357
897.020	0.0167673
897.098	0.0168212
897.176	0.0167365
897.254	0.0167389
897.332	0.0167889
897.410	0.0167373
897.488	0.0169545
897.567	0.0167019
897.645	0.0165982
897.723	0.0165950
897.801	0.0164694
897.879	0.0164526
897.957	0.0165163
898.035	0.0163485
898.113	0.0164667
898.192	0.0163948
898.270	0.0164133
898.348	0.0164641
898.426	0.0163703
898.504	0.0165643
898.582	0.0165215
898.660	0.0166382
898.738	0.0165881
898.817	0.0166656
898.895	0.0167143
898.973	0.0167838
899.051	0.0166644
899.129	0.0167355
899.207	0.0167435
899.285	0.0166295
899.363	0.0166193
899.442	0.0167296
899.520	0.0166509
899.598	0.0166495
899.676	0.0167593
899.754	0.0166817
899.832	0.0165863
899.910	0.0167421
899.988	0.0167007
900.067	0.0166234
900.145	0.0167706
900.223	0.0167215
900.301	0.0167725
900.379	0.0166644
900.457	0.0167052
900.535	0.0166694
900.613	0.0165900
900.692	0.0164852
900.770	0.0165745
900.848	0.0165355
900.926	0.0164165
901.004	0.0162559
901.082	0.0163910
901.160	0.0163586
901.238	0.0163071
901.317	0.0162925
901.395	0.0162640
901.473	0.0164277
901.551	0.0165292
901.629	0.0164097
901.707	0.0165654
901.785	0.0165215
901.863	0.0165927
901.942	0.0168079
902.020	0.0166589
902.098	0.0167046
902.176	0.0167191
902.254	0.0167673
902.332	0.0166967
902.410	0.0166288
902.488	0.0167163
902.567	0.0166993
902.645	0.0166338
902.723	0.0166425
902.801	0.0166297
902.879	0.0166462
902.957	0.0165595
903.035	0.0165086
903.113	0.0166415
903.192	0.0165371
903.270	0.0164376
903.348	0.0164413
903.426	0.0165556
903.504	0.0164689
903.582	0.0164896
903.660	0.0164463
903.738	0.0164902
903.817	0.0166365
903.895	0.0167216
903.973	0.0167802
904.051	0.0167719
904.129	0.0167384
904.207	0.0167468
904.285	0.0168149
904.363	0.0169139
904.442	0.0167184
904.520	0.0168598
904.598	0.0168572
904.676	0.0168754
904.754	0.0167718
904.832	0.0168238
904.910	0.0167395
904.988	0.0169021
905.067	0.0166389
905.145	0.0166409
905.223	0.0166680
905.301	0.0166560
905.379	0.0165759
905.457	0.0164722
905.535	0.0164301
905.613	0.0164088
905.692	0.0164702
905.770	0.0165275
905.848	0.0166350
905.926	0.0166796
906.004	0.0165289
906.082	0.0165184
906.160	0.0163711
906.238	0.0164100
906.317	0.0165496
906.395	0.0166669
906.473	0.0165739
906.551	0.0165288
906.629	0.0166345
906.707	0.0167850
906.785	0.0166794
906.863	0.0167264
906.942	0.0167127
907.020	0.0166259
907.098	0.0167910
907.176	0.0169018
907.254	0.0168955
907.332	0.0167190
907.410	0.0167204
907.488	0.0167664
907.567	0.0168028
907.645	0.0166154
907.723	0.0166854
907.801	0.0166144
907.879	0.0167461
907.957	0.0167398
908.035	0.0164964
908.113	0.0165781
908.192	0.0166351
908.270	0.0164980
908.348	0.0166382
908.426	0.0166529
908.504	0.0166411
908.582	0.0166383
908.660	0.0166809
908.738	0.0166481
908.817	0.0167188
908.895	0.0167023
908.973	0.0167566
909.051	0.0167122
909.129	0.0166847
909.207	0.0166741
909.285	0.0167412
909.363	0.0167822
909.442	0.0169213
909.520	0.0169019
909.598	0.0169383
909.676	0.0168676
909.754	0.0168179
909.832	0.0167514
909.910	0.0167807
909.988	0.0167751
910.067	0.0167038
910.145	0.0166618
910.223	0.0166519
910.301	0.0168640
910.379	0.0166691
910.457	0.0165941
910.535	0.0164885
910.613	0.0166052
910.692	0.0165488
910.770	0.0165549
910.848	0.0165314
910.926	0.0165684
911.004	0.0165876
911.082	0.0165400
911.160	0.0166544
911.238	0.0166570
911.317	0.0166479
911.395	0.0167722
911.473	0.0166680
911.551	0.0165284
911.629	0.0167672
911.707	0.0165845
911.785	0.0166222
911.863	0.0167405
911.942	0.0164935
912.020	0.0165746
912.098	0.0166628
912.176	0.0166978
912.254	0.0165355
912.332	0.0165228
912.410	0.0165358
912.488	0.0166718
912.567	0.0166614
912.645	0.0166197
912.723	0.0165826
912.801	0.0166240
912.879	0.0167010
912.957	0.0165785
913.035	0.0166432
913.113	0.0166040
913.192	0.0166139
913.270	0.0165305
913.348	0.0164245
913.426	0.0165450
913.504	0.0164539
913.582	0.0164446
913.660	0.0166288
913.738	0.0166482
913.817	0.0166217
913.895	0.0165981
913.973	0.0167014
914.051	0.0166209
914.129	0.0167057
914.207	0.0166999
914.285	0.0167244
914.363	0.0167852
914.442	0.0169140
914.520	0.0168346
914.598	0.0166432
914.676	0.0166867
914.754	0.0167171
914.832	0.0165862
914.910	0.0165750
914.988	0.0166058
915.067	0.0166609
915.145	0.0165414
915.223	0.0166051
915.301	0.0163847
915.379	0.0164852
915.457	0.0167232
915.535	0.0164937
915.613	0.0164355
915.692	0.0164081
915.770	0.0164994
915.848	0.0165840
915.926	0.0164648
916.004	0.0166114
916.082	0.0165040
916.160	0.0165067
916.238	0.0166512
916.317	0.0166692
916.395	0.0166436
916.473	0.0166505
916.551	0.0167484
916.629	0.0166586
916.707	0.0165100
916.785	0.0167104
916.863	0.0167484
916.942	0.0166357
917.020	0.0166011
917.098	0.0165311
917.176	0.0166382
917.254	0.0166656
917.332	0.0166250
917.410	0.0165481
917.488	0.0166016
917.567	0.0164590
917.645	0.0166325
917.723	0.0164567
917.801	0.0164590
917.879	0.0165331
917.957	0.0164111
918.035	0.0165375
918.113	0.0166077
918.192	0.0164959
918.270	0.0165260
918.348	0.0166106
918.426	0.0166019
918.504	0.0165736
918.582	0.0166710
918.660	0.0167821
918.738	0.0167870
918.817	0.0166488
918.895	0.0167439
918.973	0.0167412
919.051	0.0167494
919.129	0.0167623
919.207	0.0168096
919.285	0.0167870
919.363	0.0167526
919.442	0.0167872
919.520	0.0166012
919.598	0.0168639
919.676	0.0167714
919.754	0.0168123
919.832	0.0165925
919.910	0.0166335
