06/03/2022	13:58:25	Ver.	4.1	UNKNOWN
Optical Delay	599.981738	Delta X		0.078125	Sweeps	1	Scan Rate	0/0
Coordinates	Axis 1	NaN	Axis 2	NaN	Axis 3	NaN	Axis 4	NaN	Axis 5	NaN	Axis 6	0.000000
TX Power	0.000000	RX Power	0.000000

599.982	0.0167262
600.060	0.0166206
600.138	0.0167343
600.216	0.0166911
600.294	0.0167758
600.372	0.0167873
600.450	0.0167666
600.529	0.0167574
600.607	0.0168390
600.685	0.0167815
600.763	0.0167714
600.841	0.0167888
600.919	0.0167212
600.997	0.0167979
601.075	0.0168699
601.154	0.0167670
601.232	0.0166705
601.310	0.0167553
601.388	0.0167310
601.466	0.0167392
601.544	0.0167273
601.622	0.0167851
601.700	0.0167568
601.779	0.0167756
601.857	0.0168800
601.935	0.0167547
602.013	0.0167474
602.091	0.0167432
602.169	0.0168732
602.247	0.0168079
602.325	0.0167674
602.404	0.0166356
602.482	0.0167722
602.560	0.0167589
602.638	0.0166551
602.716	0.0167937
602.794	0.0169276
602.872	0.0168076
602.950	0.0166035
603.029	0.0167926
603.107	0.0166884
603.185	0.0167221
603.263	0.0166884
603.341	0.0167229
603.419	0.0167716
603.497	0.0166843
603.575	0.0167867
603.654	0.0168291
603.732	0.0168853
603.810	0.0167726
603.888	0.0166863
603.966	0.0168906
604.044	0.0166569
604.122	0.0166511
604.200	0.0168075
604.279	0.0168217
604.357	0.0168053
604.435	0.0167569
604.513	0.0168030
604.591	0.0167058
604.669	0.0167188
604.747	0.0167030
604.825	0.0167335
604.904	0.0167302
604.982	0.0167916
605.060	0.0168256
605.138	0.0166461
605.216	0.0166136
605.294	0.0167799
605.372	0.0167560
605.450	0.0167520
605.529	0.0167857
605.607	0.0167203
605.685	0.0167093
605.763	0.0168207
605.841	0.0167666
605.919	0.0167702
605.997	0.0168742
606.075	0.0166710
606.154	0.0167355
606.232	0.0166589
606.310	0.0168047
606.388	0.0167976
606.466	0.0167407
606.544	0.0168608
606.622	0.0168574
606.700	0.0167899
606.779	0.0166998
606.857	0.0167139
606.935	0.0168202
607.013	0.0167506
607.091	0.0167999
607.169	0.0169503
607.247	0.0166540
607.325	0.0167210
607.404	0.0168037
607.482	0.0167052
607.560	0.0167455
607.638	0.0166722
607.716	0.0167599
607.794	0.0168045
607.872	0.0167155
607.950	0.0166995
608.029	0.0167597
608.107	0.0166245
608.185	0.0166875
608.263	0.0166911
608.341	0.0167121
608.419	0.0167161
608.497	0.0167341
608.575	0.0167352
608.654	0.0167997
608.732	0.0168504
608.810	0.0167019
608.888	0.0168007
608.966	0.0167319
609.044	0.0168254
609.122	0.0166769
609.200	0.0166464
609.279	0.0167305
609.357	0.0167346
609.435	0.0168392
609.513	0.0168449
609.591	0.0168672
609.669	0.0167801
609.747	0.0168104
609.825	0.0166343
609.904	0.0167892
609.982	0.0167347
610.060	0.0167336
610.138	0.0166437
610.216	0.0166162
610.294	0.0168661
610.372	0.0166893
610.450	0.0166209
610.529	0.0167794
610.607	0.0167195
610.685	0.0167970
610.763	0.0167815
610.841	0.0166611
610.919	0.0167779
610.997	0.0167869
611.075	0.0168987
611.154	0.0167300
611.232	0.0167366
611.310	0.0168545
611.388	0.0167463
611.466	0.0167244
611.544	0.0167479
611.622	0.0168585
611.700	0.0168702
611.779	0.0167570
611.857	0.0168530
611.935	0.0168462
612.013	0.0168877
612.091	0.0168066
612.169	0.0167344
612.247	0.0169137
612.325	0.0169114
612.404	0.0165958
612.482	0.0167328
612.560	0.0165935
612.638	0.0166825
612.716	0.0167414
612.794	0.0165886
612.872	0.0167104
612.950	0.0167041
613.029	0.0167437
613.107	0.0166895
613.185	0.0166243
613.263	0.0167350
613.341	0.0167630
613.419	0.0166538
613.497	0.0167417
613.575	0.0167362
613.654	0.0166182
613.732	0.0167432
613.810	0.0166911
613.888	0.0167693
613.966	0.0168607
614.044	0.0167705
614.122	0.0166560
614.200	0.0167587
614.279	0.0167476
614.357	0.0167110
614.435	0.0168887
614.513	0.0167622
614.591	0.0167767
614.669	0.0166872
614.747	0.0168198
614.825	0.0167394
614.904	0.0168405
614.982	0.0167152
615.060	0.0168128
615.138	0.0166817
615.216	0.0167570
615.294	0.0167435
615.372	0.0165997
615.450	0.0167384
615.529	0.0167350
615.607	0.0167483
615.685	0.0167076
615.763	0.0167866
615.841	0.0166714
615.919	0.0166489
615.997	0.0167641
616.075	0.0167477
616.154	0.0166197
616.232	0.0168134
616.310	0.0166692
616.388	0.0168240
616.466	0.0167211
616.544	0.0167484
616.622	0.0168067
616.700	0.0168007
616.779	0.0166752
616.857	0.0166989
616.935	0.0168817
617.013	0.0168472
617.091	0.0166467
617.169	0.0166354
617.247	0.0167848
617.325	0.0167683
617.404	0.0167997
617.482	0.0166647
617.560	0.0167248
617.638	0.0168044
617.716	0.0166964
617.794	0.0166276
617.872	0.0166692
617.950	0.0167947
618.029	0.0166908
618.107	0.0168712
618.185	0.0166378
618.263	0.0167530
618.341	0.0167616
618.419	0.0166830
618.497	0.0166417
618.575	0.0168600
618.654	0.0167952
618.732	0.0167573
618.810	0.0166536
618.888	0.0167746
618.966	0.0168427
619.044	0.0167185
619.122	0.0167792
619.200	0.0166740
619.279	0.0168454
619.357	0.0168064
619.435	0.0166033
619.513	0.0166964
619.591	0.0166799
619.669	0.0168037
619.747	0.0166929
619.825	0.0166872
619.904	0.0167953
619.982	0.0167849
620.060	0.0166339
620.138	0.0164802
620.216	0.0167324
620.294	0.0167980
620.372	0.0166184
620.450	0.0167045
620.529	0.0166788
620.607	0.0166711
620.685	0.0168322
620.763	0.0167641
620.841	0.0167236
620.919	0.0166127
620.997	0.0167191
621.075	0.0167521
621.154	0.0167155
621.232	0.0166743
621.310	0.0166509
621.388	0.0168571
621.466	0.0167672
621.544	0.0166285
621.622	0.0167242
621.700	0.0168011
621.779	0.0168468
621.857	0.0166099
621.935	0.0167972
622.013	0.0167647
622.091	0.0167799
622.169	0.0165398
622.247	0.0168024
622.325	0.0167632
622.404	0.0166473
622.482	0.0166929
622.560	0.0167717
622.638	0.0168695
622.716	0.0167597
622.794	0.0166309
622.872	0.0166801
622.950	0.0168324
623.029	0.0167645
623.107	0.0166863
623.185	0.0166444
623.263	0.0167348
623.341	0.0168507
623.419	0.0167010
623.497	0.0168053
623.575	0.0165797
623.654	0.0165597
623.732	0.0168078
623.810	0.0166495
623.888	0.0166049
623.966	0.0167844
624.044	0.0167787
624.122	0.0167633
624.200	0.0167725
624.279	0.0167285
624.357	0.0167633
624.435	0.0167261
624.513	0.0167350
624.591	0.0167796
624.669	0.0167422
624.747	0.0168236
624.825	0.0167761
624.904	0.0167114
624.982	0.0167843
625.060	0.0167751
625.138	0.0167982
625.216	0.0168172
625.294	0.0167429
625.372	0.0167243
625.450	0.0166602
625.529	0.0166351
625.607	0.0168707
625.685	0.0169273
625.763	0.0167964
625.841	0.0166385
625.919	0.0167535
625.997	0.0167331
626.075	0.0167081
626.154	0.0167802
626.232	0.0167582
626.310	0.0166203
626.388	0.0168578
626.466	0.0166928
626.544	0.0166502
626.622	0.0167644
626.700	0.0168307
626.779	0.0166897
626.857	0.0166118
626.935	0.0166016
627.013	0.0167910
627.091	0.0167223
627.169	0.0167005
627.247	0.0166315
627.325	0.0167534
627.404	0.0167762
627.482	0.0167651
627.560	0.0166727
627.638	0.0166727
627.716	0.0167213
627.794	0.0167529
627.872	0.0167472
627.950	0.0167372
628.029	0.0167985
628.107	0.0167891
628.185	0.0167550
628.263	0.0166592
628.341	0.0167813
628.419	0.0166357
628.497	0.0167128
628.575	0.0167758
628.654	0.0167365
628.732	0.0166580
628.810	0.0166699
628.888	0.0165966
628.966	0.0168176
629.044	0.0168352
629.122	0.0168861
629.200	0.0167929
629.279	0.0167961
629.357	0.0167307
629.435	0.0168116
629.513	0.0168484
629.591	0.0168253
629.669	0.0167610
629.747	0.0168204
629.825	0.0166856
629.904	0.0166398
629.982	0.0166873
630.060	0.0167759
630.138	0.0167838
630.216	0.0167846
630.294	0.0167675
630.372	0.0166640
630.450	0.0166176
630.529	0.0168013
630.607	0.0168228
630.685	0.0168168
630.763	0.0167870
630.841	0.0167649
630.919	0.0167962
630.997	0.0167593
631.075	0.0167270
631.154	0.0165433
631.232	0.0168208
631.310	0.0168211
631.388	0.0168356
631.466	0.0167099
631.544	0.0167033
631.622	0.0167125
631.700	0.0168665
631.779	0.0166637
631.857	0.0167442
631.935	0.0166756
632.013	0.0166266
632.091	0.0166308
632.169	0.0168140
632.247	0.0166618
632.325	0.0166708
632.404	0.0166579
632.482	0.0168397
632.560	0.0167828
632.638	0.0166669
632.716	0.0168027
632.794	0.0168182
632.872	0.0165898
632.950	0.0165988
633.029	0.0167858
633.107	0.0168317
633.185	0.0168165
633.263	0.0168512
633.341	0.0167476
633.419	0.0167018
633.497	0.0168111
633.575	0.0166068
633.654	0.0166264
633.732	0.0166160
633.810	0.0167623
633.888	0.0167113
633.966	0.0167751
634.044	0.0166981
634.122	0.0167338
634.200	0.0167115
634.279	0.0167106
634.357	0.0168070
634.435	0.0167210
634.513	0.0167899
634.591	0.0168035
634.669	0.0165998
634.747	0.0166981
634.825	0.0167609
634.904	0.0167207
634.982	0.0166144
635.060	0.0167106
635.138	0.0167199
635.216	0.0167940
635.294	0.0167465
635.372	0.0167302
635.450	0.0168383
635.529	0.0167805
635.607	0.0167377
635.685	0.0167570
635.763	0.0166937
635.841	0.0167104
635.919	0.0167159
635.997	0.0168951
636.075	0.0167575
636.154	0.0167582
636.232	0.0167554
636.310	0.0167764
636.388	0.0167100
636.466	0.0167195
636.544	0.0168445
636.622	0.0167399
636.700	0.0166663
636.779	0.0168123
636.857	0.0168121
636.935	0.0167189
637.013	0.0166298
637.091	0.0167317
637.169	0.0167809
637.247	0.0167890
637.325	0.0168023
637.404	0.0168138
637.482	0.0168383
637.560	0.0168418
637.638	0.0167093
637.716	0.0167387
637.794	0.0168449
637.872	0.0167036
637.950	0.0167129
638.029	0.0167979
638.107	0.0167979
638.185	0.0166499
638.263	0.0167044
638.341	0.0166551
638.419	0.0166522
638.497	0.0167197
638.575	0.0167793
638.654	0.0168023
638.732	0.0167695
638.810	0.0167431
638.888	0.0166325
638.966	0.0166939
639.044	0.0168421
639.122	0.0167010
639.200	0.0166329
639.279	0.0167618
639.357	0.0165755
639.435	0.0167350
639.513	0.0167692
639.591	0.0166393
639.669	0.0167010
639.747	0.0167174
639.825	0.0167954
639.904	0.0167091
639.982	0.0168154
640.060	0.0169144
640.138	0.0167587
640.216	0.0166328
640.294	0.0167495
640.372	0.0167561
640.450	0.0167221
640.529	0.0168211
640.607	0.0167973
640.685	0.0168131
640.763	0.0168482
640.841	0.0167324
640.919	0.0167035
640.997	0.0167719
641.075	0.0167151
641.154	0.0168208
641.232	0.0167609
641.310	0.0167403
641.388	0.0165894
641.466	0.0167199
641.544	0.0167055
641.622	0.0165714
641.700	0.0167979
641.779	0.0168176
641.857	0.0167797
641.935	0.0166945
642.013	0.0167757
642.091	0.0167107
642.169	0.0167056
642.247	0.0168877
642.325	0.0167188
642.404	0.0167309
642.482	0.0166971
642.560	0.0167139
642.638	0.0167661
642.716	0.0167856
642.794	0.0168008
642.872	0.0167445
642.950	0.0168690
643.029	0.0167350
643.107	0.0166610
643.185	0.0166808
643.263	0.0166843
643.341	0.0167220
643.419	0.0167001
643.497	0.0167088
643.575	0.0166363
643.654	0.0167665
643.732	0.0166175
643.810	0.0167677
643.888	0.0166614
643.966	0.0167313
644.044	0.0165715
644.122	0.0166386
644.200	0.0167797
644.279	0.0167719
644.357	0.0168020
644.435	0.0167381
644.513	0.0167342
644.591	0.0166250
644.669	0.0167842
644.747	0.0167069
644.825	0.0168118
644.904	0.0167397
644.982	0.0167307
645.060	0.0166253
645.138	0.0167286
645.216	0.0166917
645.294	0.0167305
645.372	0.0167544
645.450	0.0167344
645.529	0.0168096
645.607	0.0168015
645.685	0.0167240
645.763	0.0166676
645.841	0.0168029
645.919	0.0167438
645.997	0.0167623
646.075	0.0166915
646.154	0.0166588
646.232	0.0167031
646.310	0.0167078
646.388	0.0166860
646.466	0.0168289
646.544	0.0166805
646.622	0.0165303
646.700	0.0166865
646.779	0.0166306
646.857	0.0166174
646.935	0.0167974
647.013	0.0166615
647.091	0.0167802
647.169	0.0168124
647.247	0.0166593
647.325	0.0166859
647.404	0.0167397
647.482	0.0167049
647.560	0.0167524
647.638	0.0167763
647.716	0.0167924
647.794	0.0167399
647.872	0.0167489
647.950	0.0165730
648.029	0.0166135
648.107	0.0167393
648.185	0.0167562
648.263	0.0167575
648.341	0.0166340
648.419	0.0166663
648.497	0.0166956
648.575	0.0166224
648.654	0.0167572
648.732	0.0167655
648.810	0.0168301
648.888	0.0168145
648.966	0.0168230
649.044	0.0167000
649.122	0.0166969
649.200	0.0167211
649.279	0.0167616
649.357	0.0166700
649.435	0.0167595
649.513	0.0167788
649.591	0.0166837
649.669	0.0167356
649.747	0.0167548
649.825	0.0167360
649.904	0.0167362
649.982	0.0166513
650.060	0.0168162
650.138	0.0167198
650.216	0.0167835
650.294	0.0167840
650.372	0.0167290
650.450	0.0167319
650.529	0.0167874
650.607	0.0166998
650.685	0.0167300
650.763	0.0167705
650.841	0.0167815
650.919	0.0166261
650.997	0.0168130
651.075	0.0167714
651.154	0.0167628
651.232	0.0168034
651.310	0.0166568
651.388	0.0167526
651.466	0.0167547
651.544	0.0167145
651.622	0.0167388
651.700	0.0168163
651.779	0.0167835
651.857	0.0168124
651.935	0.0166852
652.013	0.0167811
652.091	0.0166132
652.169	0.0168134
652.247	0.0167524
652.325	0.0168497
652.404	0.0166705
652.482	0.0168632
652.560	0.0166220
652.638	0.0166826
652.716	0.0167569
652.794	0.0167527
652.872	0.0167862
652.950	0.0166225
653.029	0.0166653
653.107	0.0167776
653.185	0.0167286
653.263	0.0167908
653.341	0.0167058
653.419	0.0166782
653.497	0.0167048
653.575	0.0166248
653.654	0.0167724
653.732	0.0167226
653.810	0.0166100
653.888	0.0168587
653.966	0.0168731
654.044	0.0166702
654.122	0.0168182
654.200	0.0166845
654.279	0.0168107
654.357	0.0167650
654.435	0.0165545
654.513	0.0167471
654.591	0.0167160
654.669	0.0169135
654.747	0.0166708
654.825	0.0167336
654.904	0.0167336
654.982	0.0167503
655.060	0.0167506
655.138	0.0166348
655.216	0.0167307
655.294	0.0168378
655.372	0.0166914
655.450	0.0166710
655.529	0.0167744
655.607	0.0167155
655.685	0.0167117
655.763	0.0167258
655.841	0.0167725
655.919	0.0167010
655.997	0.0166594
656.075	0.0165738
656.154	0.0167437
656.232	0.0166745
656.310	0.0165512
656.388	0.0167458
656.466	0.0166505
656.544	0.0166963
656.622	0.0166888
656.700	0.0168285
656.779	0.0166720
656.857	0.0165748
656.935	0.0166766
657.013	0.0166403
657.091	0.0167636
657.169	0.0166595
657.247	0.0165475
657.325	0.0166849
657.404	0.0166314
657.482	0.0168047
657.560	0.0167491
657.638	0.0167146
657.716	0.0165989
657.794	0.0167242
657.872	0.0166866
657.950	0.0166463
658.029	0.0167188
658.107	0.0167352
658.185	0.0167969
658.263	0.0167286
658.341	0.0167339
658.419	0.0166967
658.497	0.0168240
658.575	0.0167639
658.654	0.0167008
658.732	0.0167462
658.810	0.0167439
658.888	0.0166740
658.966	0.0166837
659.044	0.0166380
659.122	0.0166943
659.200	0.0167397
659.279	0.0167647
659.357	0.0167946
659.435	0.0166325
659.513	0.0167296
659.591	0.0168361
659.669	0.0167526
659.747	0.0167992
659.825	0.0166691
659.904	0.0166856
659.982	0.0167884
660.060	0.0168338
660.138	0.0166895
660.216	0.0167020
660.294	0.0168112
660.372	0.0166801
660.450	0.0167657
660.529	0.0167310
660.607	0.0167913
660.685	0.0167767
660.763	0.0166873
660.841	0.0166273
660.919	0.0167149
660.997	0.0167553
661.075	0.0167216
661.154	0.0166360
661.232	0.0166871
661.310	0.0168620
661.388	0.0167236
661.466	0.0166470
661.544	0.0167615
661.622	0.0167441
661.700	0.0167067
661.779	0.0168456
661.857	0.0166094
661.935	0.0166869
662.013	0.0166617
662.091	0.0167250
662.169	0.0167358
662.247	0.0167860
662.325	0.0166676
662.404	0.0167646
662.482	0.0168631
662.560	0.0168239
662.638	0.0166420
662.716	0.0167201
662.794	0.0166738
662.872	0.0167422
662.950	0.0168794
663.029	0.0166795
663.107	0.0167364
663.185	0.0167596
663.263	0.0166888
663.341	0.0167189
663.419	0.0167564
663.497	0.0168790
663.575	0.0166386
663.654	0.0167142
663.732	0.0166763
663.810	0.0166947
663.888	0.0167859
663.966	0.0167841
664.044	0.0167746
664.122	0.0165978
664.200	0.0167292
664.279	0.0167475
664.357	0.0166488
664.435	0.0166865
664.513	0.0167097
664.591	0.0166759
664.669	0.0165441
664.747	0.0166328
664.825	0.0167758
664.904	0.0167909
664.982	0.0166920
665.060	0.0166779
665.138	0.0166955
665.216	0.0167393
665.294	0.0167023
665.372	0.0166994
665.450	0.0167154
665.529	0.0165884
665.607	0.0167120
665.685	0.0167377
665.763	0.0166574
665.841	0.0167052
665.919	0.0167785
665.997	0.0166918
666.075	0.0167455
666.154	0.0167279
666.232	0.0165755
666.310	0.0167471
666.388	0.0168040
666.466	0.0167671
666.544	0.0166776
666.622	0.0167952
666.700	0.0168140
666.779	0.0166807
666.857	0.0167189
666.935	0.0167123
667.013	0.0167513
667.091	0.0168178
667.169	0.0166306
667.247	0.0166000
667.325	0.0169267
667.404	0.0166805
667.482	0.0166305
667.560	0.0166222
667.638	0.0166064
667.716	0.0167442
667.794	0.0168428
667.872	0.0167190
667.950	0.0167030
668.029	0.0168382
668.107	0.0165830
668.185	0.0168293
668.263	0.0166766
668.341	0.0167078
668.419	0.0166994
668.497	0.0166843
668.575	0.0167878
668.654	0.0166409
668.732	0.0167920
668.810	0.0167311
668.888	0.0166144
668.966	0.0167566
669.044	0.0167471
669.122	0.0168058
669.200	0.0166431
669.279	0.0166930
669.357	0.0168278
669.435	0.0167476
669.513	0.0168040
669.591	0.0167144
669.669	0.0166674
669.747	0.0167468
669.825	0.0169115
669.904	0.0167985
669.982	0.0168191
670.060	0.0167453
670.138	0.0166320
670.216	0.0166840
670.294	0.0168252
670.372	0.0168118
670.450	0.0166779
670.529	0.0168954
670.607	0.0168626
670.685	0.0168703
670.763	0.0168353
670.841	0.0167842
670.919	0.0168718
670.997	0.0167065
671.075	0.0167284
671.154	0.0167126
671.232	0.0168036
671.310	0.0168229
671.388	0.0167552
671.466	0.0168813
671.544	0.0168540
671.622	0.0167944
671.700	0.0168867
671.779	0.0168299
671.857	0.0168034
671.935	0.0166428
672.013	0.0168230
672.091	0.0169459
672.169	0.0168787
672.247	0.0167296
672.325	0.0168378
672.404	0.0166642
672.482	0.0169743
672.560	0.0168816
672.638	0.0168464
672.716	0.0167393
672.794	0.0167991
672.872	0.0168368
672.950	0.0168652
673.029	0.0167559
673.107	0.0168602
673.185	0.0165945
673.263	0.0168728
673.341	0.0169102
673.419	0.0168123
673.497	0.0166244
673.575	0.0167697
673.654	0.0166956
673.732	0.0168116
673.810	0.0166636
673.888	0.0166604
673.966	0.0167306
674.044	0.0167961
674.122	0.0167538
674.200	0.0166691
674.279	0.0167950
674.357	0.0168494
674.435	0.0168427
674.513	0.0168208
674.591	0.0167614
674.669	0.0168229
674.747	0.0167542
674.825	0.0167485
674.904	0.0168748
674.982	0.0167759
675.060	0.0167624
675.138	0.0167077
675.216	0.0167520
675.294	0.0167880
675.372	0.0167680
675.450	0.0167147
675.529	0.0167727
675.607	0.0168350
675.685	0.0167953
675.763	0.0167668
675.841	0.0168190
675.919	0.0168137
675.997	0.0167136
676.075	0.0167090
676.154	0.0167422
676.232	0.0167389
676.310	0.0167549
676.388	0.0166282
676.466	0.0166930
676.544	0.0167044
676.622	0.0167439
676.700	0.0168133
676.779	0.0165906
676.857	0.0166571
676.935	0.0167619
677.013	0.0167126
677.091	0.0166384
677.169	0.0168031
677.247	0.0168097
677.325	0.0167430
677.404	0.0165516
677.482	0.0167361
677.560	0.0167520
677.638	0.0167154
677.716	0.0167992
677.794	0.0167008
677.872	0.0166653
677.950	0.0167725
678.029	0.0167908
678.107	0.0167340
678.185	0.0167567
678.263	0.0167546
678.341	0.0167031
678.419	0.0167461
678.497	0.0168240
678.575	0.0169094
678.654	0.0167137
678.732	0.0166753
678.810	0.0167749
678.888	0.0167929
678.966	0.0166505
679.044	0.0166325
679.122	0.0167284
679.200	0.0166633
679.279	0.0168122
679.357	0.0167228
679.435	0.0168774
679.513	0.0167271
679.591	0.0168383
679.669	0.0167157
679.747	0.0167513
679.825	0.0167185
679.904	0.0167735
679.982	0.0167424
680.060	0.0168304
680.138	0.0166416
680.216	0.0167521
680.294	0.0168345
680.372	0.0166322
680.450	0.0167381
680.529	0.0166859
680.607	0.0167632
680.685	0.0166704
680.763	0.0166872
680.841	0.0166566
680.919	0.0166463
680.997	0.0166481
681.075	0.0167978
681.154	0.0166168
681.232	0.0165577
681.310	0.0167812
681.388	0.0168232
681.466	0.0167627
681.544	0.0167220
681.622	0.0167498
681.700	0.0167429
681.779	0.0166587
681.857	0.0166396
681.935	0.0167995
682.013	0.0167223
682.091	0.0166815
682.169	0.0168140
682.247	0.0168181
682.325	0.0167776
682.404	0.0167439
682.482	0.0166109
682.560	0.0167300
682.638	0.0167574
682.716	0.0165455
682.794	0.0167445
682.872	0.0165788
682.950	0.0166520
683.029	0.0166711
683.107	0.0167034
683.185	0.0168258
683.263	0.0168343
683.341	0.0167999
683.419	0.0170052
683.497	0.0169139
683.575	0.0167934
683.654	0.0169786
683.732	0.0168000
683.810	0.0168913
683.888	0.0168101
683.966	0.0166302
684.044	0.0167030
684.122	0.0166175
684.200	0.0165508
684.279	0.0163785
684.357	0.0163476
684.435	0.0163087
684.513	0.0162074
684.591	0.0163142
684.669	0.0163087
684.747	0.0164372
684.825	0.0163696
684.904	0.0163982
684.982	0.0166458
685.060	0.0167309
685.138	0.0168963
685.216	0.0169085
685.294	0.0168502
685.372	0.0168073
685.450	0.0166779
685.529	0.0165457
685.607	0.0165660
685.685	0.0165108
685.763	0.0164291
685.841	0.0166902
685.919	0.0167850
685.997	0.0173322
686.075	0.0177364
686.154	0.0182352
686.232	0.0185956
686.310	0.0190982
686.388	0.0194259
686.466	0.0193121
686.544	0.0192854
686.622	0.0188422
686.700	0.0182741
686.779	0.0172265
686.857	0.0164191
686.935	0.0153226
687.013	0.0143556
687.091	0.0136407
687.169	0.0129247
687.247	0.0123317
687.325	0.0124091
687.404	0.0122488
687.482	0.0122971
687.560	0.0126912
687.638	0.0135221
687.716	0.0141481
687.794	0.0149760
687.872	0.0157984
687.950	0.0166847
688.029	0.0177825
688.107	0.0186768
688.185	0.0196452
688.263	0.0206893
688.341	0.0215009
688.419	0.0224200
688.497	0.0229379
688.575	0.0233158
688.654	0.0235684
688.732	0.0233724
688.810	0.0226722
688.888	0.0218586
688.966	0.0206328
689.044	0.0190093
689.122	0.0172923
689.200	0.0152879
689.279	0.0136132
689.357	0.0120589
689.435	0.0110720
689.513	0.00991150
689.591	0.00941849
689.669	0.00934494
689.747	0.00945824
689.825	0.00966293
689.904	0.0103886
689.982	0.0109538
690.060	0.0118423
690.138	0.0128294
690.216	0.0134792
690.294	0.0145675
690.372	0.0156501
690.450	0.0164851
690.529	0.0175715
690.607	0.0186829
690.685	0.0197632
690.763	0.0209639
690.841	0.0222738
690.919	0.0231367
690.997	0.0241252
691.075	0.0248105
691.154	0.0253505
691.232	0.0255664
691.310	0.0250907
691.388	0.0243898
691.466	0.0234102
691.544	0.0216814
691.622	0.0199305
691.700	0.0177061
691.779	0.0156501
691.857	0.0134236
691.935	0.0115054
692.013	0.00981133
692.091	0.00848686
692.169	0.00756996
692.247	0.00700508
692.325	0.00691673
692.404	0.00726135
692.482	0.00769524
692.560	0.00900154
692.638	0.0103838
692.716	0.0119244
692.794	0.0136456
692.872	0.0155063
692.950	0.0171538
693.029	0.0188119
693.107	0.0202477
693.185	0.0215974
693.263	0.0224911
693.341	0.0232388
693.419	0.0237230
693.497	0.0240059
693.575	0.0242291
693.654	0.0237868
693.732	0.0233418
693.810	0.0226161
693.888	0.0219455
693.966	0.0209068
694.044	0.0201567
694.122	0.0193311
694.200	0.0181626
694.279	0.0170876
694.357	0.0160976
694.435	0.0150262
694.513	0.0138969
694.591	0.0131946
694.669	0.0124205
694.747	0.0118320
694.825	0.0112820
694.904	0.0110748
694.982	0.0111241
695.060	0.0112996
695.138	0.0116738
695.216	0.0122630
695.294	0.0128542
695.372	0.0134939
695.450	0.0143542
695.529	0.0151905
695.607	0.0159854
695.685	0.0168762
695.763	0.0176812
695.841	0.0185152
695.919	0.0191756
695.997	0.0196838
696.075	0.0201830
696.154	0.0206583
696.232	0.0209645
696.310	0.0209219
696.388	0.0207789
696.466	0.0206364
696.544	0.0202099
696.622	0.0196629
696.700	0.0192448
696.779	0.0184251
696.857	0.0175708
696.935	0.0169572
697.013	0.0161399
697.091	0.0154869
697.169	0.0148109
697.247	0.0143662
697.325	0.0138845
697.404	0.0137035
697.482	0.0136317
697.560	0.0136877
697.638	0.0138422
697.716	0.0139119
697.794	0.0142021
697.872	0.0146824
697.950	0.0152086
698.029	0.0155422
698.107	0.0162151
698.185	0.0168364
698.263	0.0173713
698.341	0.0179361
698.419	0.0184103
698.497	0.0187717
698.575	0.0191816
698.654	0.0196684
698.732	0.0199831
698.810	0.0201114
698.888	0.0201682
698.966	0.0202109
699.044	0.0199910
699.122	0.0197475
699.200	0.0194098
699.279	0.0187216
699.357	0.0178905
699.435	0.0171925
699.513	0.0164033
699.591	0.0157391
699.669	0.0148006
699.747	0.0141214
699.825	0.0136102
699.904	0.0131213
699.982	0.0129282
700.060	0.0128415
700.138	0.0127811
700.216	0.0129059
700.294	0.0131924
700.372	0.0136329
700.450	0.0140401
700.529	0.0146307
700.607	0.0152827
700.685	0.0156931
700.763	0.0164267
700.841	0.0170655
700.919	0.0176488
700.997	0.0181847
701.075	0.0185481
701.154	0.0191890
701.232	0.0195240
701.310	0.0197942
701.388	0.0200632
701.466	0.0199702
701.544	0.0199915
701.622	0.0200715
701.700	0.0197076
701.779	0.0193118
701.857	0.0191799
701.935	0.0187836
702.013	0.0182755
702.091	0.0179087
702.169	0.0173742
702.247	0.0171091
702.325	0.0165978
702.404	0.0160896
702.482	0.0157182
702.560	0.0154039
702.638	0.0149477
702.716	0.0146968
702.794	0.0145065
702.872	0.0143587
702.950	0.0140771
703.029	0.0141478
703.107	0.0141829
703.185	0.0144035
703.263	0.0145856
703.341	0.0147652
703.419	0.0152006
703.497	0.0155597
703.575	0.0159047
703.654	0.0161786
703.732	0.0166953
703.810	0.0171001
703.888	0.0174430
703.966	0.0177502
704.044	0.0180433
704.122	0.0181008
704.200	0.0181982
704.279	0.0180795
704.357	0.0180714
704.435	0.0176749
704.513	0.0176720
704.591	0.0175233
704.669	0.0172662
704.747	0.0170911
704.825	0.0169489
704.904	0.0168471
704.982	0.0166599
705.060	0.0165518
705.138	0.0166990
705.216	0.0165572
705.294	0.0165069
705.372	0.0166544
705.450	0.0165477
705.529	0.0166580
705.607	0.0166536
705.685	0.0166650
705.763	0.0166722
705.841	0.0164749
705.919	0.0165743
705.997	0.0162851
706.075	0.0164318
706.154	0.0165472
706.232	0.0165581
706.310	0.0165935
706.388	0.0167228
706.466	0.0169387
706.544	0.0170911
706.622	0.0172373
706.700	0.0172932
706.779	0.0175661
706.857	0.0175777
706.935	0.0178251
707.013	0.0178677
707.091	0.0176916
707.169	0.0177030
707.247	0.0177409
707.325	0.0175633
707.404	0.0171638
707.482	0.0168052
707.560	0.0165511
707.638	0.0163427
707.716	0.0159155
707.794	0.0159059
707.872	0.0158296
707.950	0.0154773
708.029	0.0155761
708.107	0.0155682
708.185	0.0155064
708.263	0.0156245
708.341	0.0156332
708.419	0.0158397
708.497	0.0159283
708.575	0.0160165
708.654	0.0161882
708.732	0.0163774
708.810	0.0162985
708.888	0.0164123
708.966	0.0165896
709.044	0.0166051
709.122	0.0167241
709.200	0.0168654
709.279	0.0169939
709.357	0.0170007
709.435	0.0169750
709.513	0.0172875
709.591	0.0173360
709.669	0.0174618
709.747	0.0175238
709.825	0.0174351
709.904	0.0176933
709.982	0.0177153
710.060	0.0176186
710.138	0.0176717
710.216	0.0175829
710.294	0.0176336
710.372	0.0174229
710.450	0.0175095
710.529	0.0172741
710.607	0.0172733
710.685	0.0171645
710.763	0.0169653
710.841	0.0169359
710.919	0.0166183
710.997	0.0162949
711.075	0.0163882
711.154	0.0162019
711.232	0.0161111
711.310	0.0158519
711.388	0.0158915
711.466	0.0158867
711.544	0.0158849
711.622	0.0160711
711.700	0.0161485
711.779	0.0163622
711.857	0.0165218
711.935	0.0167951
712.013	0.0170340
712.091	0.0171696
712.169	0.0173895
712.247	0.0176158
712.325	0.0175389
712.404	0.0177105
712.482	0.0176053
712.560	0.0177040
712.638	0.0176879
712.716	0.0175248
712.794	0.0173219
712.872	0.0173553
712.950	0.0171372
713.029	0.0171764
713.107	0.0168476
713.185	0.0167944
713.263	0.0167031
713.341	0.0162952
713.419	0.0163017
713.497	0.0162896
713.575	0.0161682
713.654	0.0159350
713.732	0.0159147
713.810	0.0158754
713.888	0.0156085
713.966	0.0157483
714.044	0.0158421
714.122	0.0157191
714.200	0.0158708
714.279	0.0159750
714.357	0.0158453
714.435	0.0160583
714.513	0.0161314
714.591	0.0162411
714.669	0.0163003
714.747	0.0163504
714.825	0.0165497
714.904	0.0165535
714.982	0.0167053
715.060	0.0166786
715.138	0.0167384
715.216	0.0167513
715.294	0.0168496
715.372	0.0168551
715.450	0.0169087
715.529	0.0168092
715.607	0.0169393
715.685	0.0170818
715.763	0.0169878
715.841	0.0170839
715.919	0.0171149
715.997	0.0171818
716.075	0.0174718
716.154	0.0174889
716.232	0.0175863
716.310	0.0175416
716.388	0.0177190
716.466	0.0177241
716.544	0.0176577
716.622	0.0176028
716.700	0.0176079
716.779	0.0175391
716.857	0.0175245
716.935	0.0174337
717.013	0.0173386
717.091	0.0171778
717.169	0.0171956
717.247	0.0170179
717.325	0.0169299
717.404	0.0170156
717.482	0.0168576
717.560	0.0166920
717.638	0.0164880
717.716	0.0165375
717.794	0.0164430
717.872	0.0162609
717.950	0.0160899
718.029	0.0158845
718.107	0.0158186
718.185	0.0158089
718.263	0.0155630
718.341	0.0156409
718.419	0.0154785
718.497	0.0153857
718.575	0.0154788
718.654	0.0155251
718.732	0.0155242
718.810	0.0154926
718.888	0.0156074
718.966	0.0157378
719.044	0.0159689
719.122	0.0162258
719.200	0.0163461
719.279	0.0165182
719.357	0.0168091
719.435	0.0168805
719.513	0.0170796
719.591	0.0173005
719.669	0.0174210
719.747	0.0175423
719.825	0.0175719
719.904	0.0175368
719.982	0.0175447
720.060	0.0175126
720.138	0.0176499
720.216	0.0176389
720.294	0.0174928
720.372	0.0174321
720.450	0.0173570
720.529	0.0170464
720.607	0.0171085
720.685	0.0169683
720.763	0.0168117
720.841	0.0167866
720.919	0.0167922
720.997	0.0167999
721.075	0.0167767
721.154	0.0168106
721.232	0.0168111
721.310	0.0168599
721.388	0.0169948
721.466	0.0171879
721.544	0.0169997
721.622	0.0169003
721.700	0.0169383
721.779	0.0170732
721.857	0.0171198
721.935	0.0170002
722.013	0.0169337
722.091	0.0168004
722.169	0.0167229
722.247	0.0167329
722.325	0.0165071
722.404	0.0164635
722.482	0.0165248
722.560	0.0162173
722.638	0.0161064
722.716	0.0161205
722.794	0.0159943
722.872	0.0160225
722.950	0.0159587
723.029	0.0159715
723.107	0.0160075
723.185	0.0160435
723.263	0.0162358
723.341	0.0162310
723.419	0.0164185
723.497	0.0163638
723.575	0.0164734
723.654	0.0166759
723.732	0.0168100
723.810	0.0168293
723.888	0.0169353
723.966	0.0170764
724.044	0.0172252
724.122	0.0173582
724.200	0.0172550
724.279	0.0173743
724.357	0.0172852
724.435	0.0171605
724.513	0.0171309
724.591	0.0172870
724.669	0.0172829
724.747	0.0169260
724.825	0.0170866
724.904	0.0169832
724.982	0.0170303
725.060	0.0170627
725.138	0.0169213
725.216	0.0168370
725.294	0.0167315
725.372	0.0167474
725.450	0.0166854
725.529	0.0165510
725.607	0.0164555
725.685	0.0166188
725.763	0.0163441
725.841	0.0162979
725.919	0.0163308
725.997	0.0165179
726.075	0.0165366
726.154	0.0164587
726.232	0.0165881
726.310	0.0165368
726.388	0.0165981
726.466	0.0167216
726.544	0.0167125
726.622	0.0167155
726.700	0.0168668
726.779	0.0167665
726.857	0.0168237
726.935	0.0168481
727.013	0.0169009
727.091	0.0169017
727.169	0.0167950
727.247	0.0169405
727.325	0.0170101
727.404	0.0169622
727.482	0.0169932
727.560	0.0171257
727.638	0.0171346
727.716	0.0172066
727.794	0.0170885
727.872	0.0170978
727.950	0.0169701
728.029	0.0170528
728.107	0.0169365
728.185	0.0171526
728.263	0.0168223
728.341	0.0167886
728.419	0.0166491
728.497	0.0165956
728.575	0.0164391
728.654	0.0163665
728.732	0.0164538
728.810	0.0164838
728.888	0.0165431
728.966	0.0164965
729.044	0.0167054
729.122	0.0165643
729.200	0.0166870
729.279	0.0168172
729.357	0.0166293
729.435	0.0166003
729.513	0.0166756
729.591	0.0168243
729.669	0.0167876
729.747	0.0166673
729.825	0.0165950
729.904	0.0166266
729.982	0.0165168
730.060	0.0165505
730.138	0.0164577
730.216	0.0164501
730.294	0.0165466
730.372	0.0165199
730.450	0.0165953
730.529	0.0165227
730.607	0.0163970
730.685	0.0163793
730.763	0.0165267
730.841	0.0165969
730.919	0.0165409
730.997	0.0165417
731.075	0.0165437
731.154	0.0166134
731.232	0.0167343
731.310	0.0168343
731.388	0.0168494
731.466	0.0168304
731.544	0.0168980
731.622	0.0169407
731.700	0.0170650
731.779	0.0170605
731.857	0.0171323
731.935	0.0170975
732.013	0.0170860
732.091	0.0171765
732.169	0.0171021
732.247	0.0170064
732.325	0.0169759
732.404	0.0169691
732.482	0.0168859
732.560	0.0167812
732.638	0.0167012
732.716	0.0166221
732.794	0.0167062
732.872	0.0165942
732.950	0.0165959
733.029	0.0165747
733.107	0.0166113
733.185	0.0165473
733.263	0.0165366
733.341	0.0166548
733.419	0.0165881
733.497	0.0167581
733.575	0.0166057
733.654	0.0167579
733.732	0.0166484
733.810	0.0165383
733.888	0.0165508
733.966	0.0166811
734.044	0.0167858
734.122	0.0168502
734.200	0.0166599
734.279	0.0167596
734.357	0.0168841
734.435	0.0168343
734.513	0.0165986
734.591	0.0167116
734.669	0.0167164
734.747	0.0166754
734.825	0.0167490
734.904	0.0166306
734.982	0.0166079
735.060	0.0166752
735.138	0.0164658
735.216	0.0166418
735.294	0.0166062
735.372	0.0166587
735.450	0.0167052
735.529	0.0167834
735.607	0.0168025
735.685	0.0166483
735.763	0.0167268
735.841	0.0167352
735.919	0.0167190
735.997	0.0168934
736.075	0.0168456
736.154	0.0167281
736.232	0.0168076
736.310	0.0167500
736.388	0.0167552
736.466	0.0167071
736.544	0.0167415
736.622	0.0165719
736.700	0.0165842
736.779	0.0167416
736.857	0.0167664
736.935	0.0166839
737.013	0.0165543
737.091	0.0166868
737.169	0.0169136
737.247	0.0168610
737.325	0.0167260
737.404	0.0167654
737.482	0.0168096
737.560	0.0167576
737.638	0.0169381
737.716	0.0168778
737.794	0.0168759
737.872	0.0169060
737.950	0.0169337
738.029	0.0171513
738.107	0.0170657
738.185	0.0170415
738.263	0.0170771
738.341	0.0171383
738.419	0.0171575
738.497	0.0172186
738.575	0.0171343
738.654	0.0170944
738.732	0.0169907
738.810	0.0169655
738.888	0.0168822
738.966	0.0168297
739.044	0.0167010
739.122	0.0166245
739.200	0.0166773
739.279	0.0166006
739.357	0.0164787
739.435	0.0164130
739.513	0.0164623
739.591	0.0165860
739.669	0.0164882
739.747	0.0166029
739.825	0.0166244
739.904	0.0166669
739.982	0.0165904
740.060	0.0168028
740.138	0.0169926
740.216	0.0167782
740.294	0.0168436
740.372	0.0170118
740.450	0.0167776
740.529	0.0167843
740.607	0.0168436
740.685	0.0167415
740.763	0.0168185
740.841	0.0168240
740.919	0.0167578
740.997	0.0167733
741.075	0.0166475
741.154	0.0165114
741.232	0.0165957
741.310	0.0166504
741.388	0.0165888
741.466	0.0163435
741.544	0.0163569
741.622	0.0163143
741.700	0.0163081
741.779	0.0163300
741.857	0.0163605
741.935	0.0164037
742.013	0.0163370
742.091	0.0161529
742.169	0.0163368
742.247	0.0165302
742.325	0.0165358
742.404	0.0166504
742.482	0.0168545
742.560	0.0167864
742.638	0.0168712
742.716	0.0170463
742.794	0.0171130
742.872	0.0171002
742.950	0.0171317
743.029	0.0171746
743.107	0.0173548
743.185	0.0173114
743.263	0.0172118
743.341	0.0173073
743.419	0.0172620
743.497	0.0172719
743.575	0.0171989
743.654	0.0171729
743.732	0.0170085
743.810	0.0170093
743.888	0.0168835
743.966	0.0168752
744.044	0.0167664
744.122	0.0165816
744.200	0.0165480
744.279	0.0164061
744.357	0.0164120
744.435	0.0164098
744.513	0.0163709
744.591	0.0164137
744.669	0.0163436
744.747	0.0163799
744.825	0.0164246
744.904	0.0163600
744.982	0.0163360
745.060	0.0164012
745.138	0.0166644
745.216	0.0166633
745.294	0.0166961
745.372	0.0166715
745.450	0.0168671
745.529	0.0168328
745.607	0.0169098
745.685	0.0169320
745.763	0.0170406
745.841	0.0170989
745.919	0.0167881
745.997	0.0169361
746.075	0.0170335
746.154	0.0167300
746.232	0.0168641
746.310	0.0169617
746.388	0.0167927
746.466	0.0168098
746.544	0.0167574
746.622	0.0166648
746.700	0.0167075
746.779	0.0164146
746.857	0.0166009
746.935	0.0164639
747.013	0.0164743
747.091	0.0164217
747.169	0.0164981
747.247	0.0165209
747.325	0.0165200
747.404	0.0165825
747.482	0.0165682
747.560	0.0166649
747.638	0.0167202
747.716	0.0167076
747.794	0.0168888
747.872	0.0168967
747.950	0.0170031
748.029	0.0169099
748.107	0.0169606
748.185	0.0169191
748.263	0.0170182
748.341	0.0169600
748.419	0.0168260
748.497	0.0168982
748.575	0.0166344
748.654	0.0166705
748.732	0.0167335
748.810	0.0166121
748.888	0.0164818
748.966	0.0166119
749.044	0.0166503
749.122	0.0167647
749.200	0.0166103
749.279	0.0165186
749.357	0.0165920
749.435	0.0165015
749.513	0.0164839
749.591	0.0165577
749.669	0.0166403
749.747	0.0164536
749.825	0.0166300
749.904	0.0166514
749.982	0.0167419
750.060	0.0166733
750.138	0.0166695
750.216	0.0166269
750.294	0.0167235
750.372	0.0167131
750.450	0.0167982
750.529	0.0167784
750.607	0.0166826
750.685	0.0169276
750.763	0.0168996
750.841	0.0168213
750.919	0.0169695
750.997	0.0170335
751.075	0.0169862
751.154	0.0171293
751.232	0.0171185
751.310	0.0170668
751.388	0.0170363
751.466	0.0170878
751.544	0.0170277
751.622	0.0170136
751.700	0.0169286
751.779	0.0169258
751.857	0.0168605
751.935	0.0167414
752.013	0.0166840
752.091	0.0167297
752.169	0.0165012
752.247	0.0166571
752.325	0.0164502
752.404	0.0163721
752.482	0.0165427
752.560	0.0164208
752.638	0.0165469
752.716	0.0163707
752.794	0.0164524
752.872	0.0164680
752.950	0.0164925
753.029	0.0166822
753.107	0.0167733
753.185	0.0168803
753.263	0.0168182
753.341	0.0169091
753.419	0.0168433
753.497	0.0168839
753.575	0.0168027
753.654	0.0168751
753.732	0.0169193
753.810	0.0169142
753.888	0.0168252
753.966	0.0167030
754.044	0.0168987
754.122	0.0169468
754.200	0.0168722
754.279	0.0168364
754.357	0.0167609
754.435	0.0167282
754.513	0.0166692
754.591	0.0167281
754.669	0.0168343
754.747	0.0165898
754.825	0.0165476
754.904	0.0166164
754.982	0.0165280
755.060	0.0165520
755.138	0.0167706
755.216	0.0165821
755.294	0.0166245
755.372	0.0165736
755.450	0.0167134
755.529	0.0168524
755.607	0.0168308
755.685	0.0167124
755.763	0.0167376
755.841	0.0168598
755.919	0.0167277
755.997	0.0167424
756.075	0.0169449
756.154	0.0169081
756.232	0.0169463
756.310	0.0169434
756.388	0.0170244
756.466	0.0170187
756.544	0.0169130
756.622	0.0169488
756.700	0.0168966
756.779	0.0168298
756.857	0.0168881
756.935	0.0167973
757.013	0.0168158
757.091	0.0167824
757.169	0.0167101
757.247	0.0167883
757.325	0.0167294
757.404	0.0166899
757.482	0.0166573
757.560	0.0167104
757.638	0.0166216
757.716	0.0164900
757.794	0.0165089
757.872	0.0165080
757.950	0.0166214
758.029	0.0166644
758.107	0.0166299
758.185	0.0166279
758.263	0.0166695
758.341	0.0166788
758.419	0.0166922
758.497	0.0168555
758.575	0.0167793
758.654	0.0168612
758.732	0.0166759
758.810	0.0168520
758.888	0.0166964
758.966	0.0168394
759.044	0.0170027
759.122	0.0168539
759.200	0.0168679
759.279	0.0168244
759.357	0.0167641
759.435	0.0167220
759.513	0.0166930
759.591	0.0167409
759.669	0.0168361
759.747	0.0167610
759.825	0.0166750
759.904	0.0167638
759.982	0.0166810
760.060	0.0166790
760.138	0.0168359
760.216	0.0166712
760.294	0.0167351
760.372	0.0167983
760.450	0.0168394
760.529	0.0168623
760.607	0.0168742
760.685	0.0168842
760.763	0.0170477
760.841	0.0168632
760.919	0.0167445
760.997	0.0168749
761.075	0.0168139
761.154	0.0167529
761.232	0.0168869
761.310	0.0168498
761.388	0.0166698
761.466	0.0165771
761.544	0.0165677
761.622	0.0164692
761.700	0.0166425
761.779	0.0166283
761.857	0.0166063
761.935	0.0166963
762.013	0.0166860
762.091	0.0166120
762.169	0.0165771
762.247	0.0166850
762.325	0.0169753
762.404	0.0169218
762.482	0.0169347
762.560	0.0168372
762.638	0.0169344
762.716	0.0169447
762.794	0.0168067
762.872	0.0166838
762.950	0.0168431
763.029	0.0167567
763.107	0.0168143
763.185	0.0168719
763.263	0.0166319
763.341	0.0166371
763.419	0.0166296
763.497	0.0166388
763.575	0.0166215
763.654	0.0166526
763.732	0.0167780
763.810	0.0168507
763.888	0.0167413
763.966	0.0168233
764.044	0.0167553
764.122	0.0165831
764.200	0.0168876
764.279	0.0169093
764.357	0.0168765
764.435	0.0169159
764.513	0.0168060
764.591	0.0168188
764.669	0.0166792
764.747	0.0166894
764.825	0.0167532
764.904	0.0166351
764.982	0.0165366
765.060	0.0165859
765.138	0.0166065
765.216	0.0166420
765.294	0.0166630
765.372	0.0166265
765.450	0.0166572
765.529	0.0166877
765.607	0.0167921
765.685	0.0168278
765.763	0.0168642
765.841	0.0169485
765.919	0.0170911
765.997	0.0169713
766.075	0.0170409
766.154	0.0171516
766.232	0.0170208
766.310	0.0170129
766.388	0.0171109
766.466	0.0169623
766.544	0.0170985
766.622	0.0170464
766.700	0.0167159
766.779	0.0167551
766.857	0.0166811
766.935	0.0166115
767.013	0.0166751
767.091	0.0164627
767.169	0.0165417
767.247	0.0166332
767.325	0.0163958
767.404	0.0163235
767.482	0.0164587
767.560	0.0164777
767.638	0.0164678
767.716	0.0164906
767.794	0.0164905
767.872	0.0165717
767.950	0.0165868
768.029	0.0166300
768.107	0.0166047
768.185	0.0167015
768.263	0.0165939
768.341	0.0166562
768.419	0.0168103
768.497	0.0168534
768.575	0.0167979
768.654	0.0168190
768.732	0.0167551
768.810	0.0168264
768.888	0.0169728
768.966	0.0169849
769.044	0.0169804
769.122	0.0169775
769.200	0.0169338
769.279	0.0169245
769.357	0.0169783
769.435	0.0169057
769.513	0.0169414
769.591	0.0169697
769.669	0.0167876
769.747	0.0167964
769.825	0.0167001
769.904	0.0167949
769.982	0.0167762
770.060	0.0166702
770.138	0.0167548
770.216	0.0166584
770.294	0.0166190
770.372	0.0167256
770.450	0.0167982
770.529	0.0167065
770.607	0.0166570
770.685	0.0167197
770.763	0.0167410
770.841	0.0167933
770.919	0.0167344
770.997	0.0167907
771.075	0.0167159
771.154	0.0168062
771.232	0.0166563
771.310	0.0167691
771.388	0.0167897
771.466	0.0169556
771.544	0.0168072
771.622	0.0167906
771.700	0.0168752
771.779	0.0167692
771.857	0.0168238
771.935	0.0167832
772.013	0.0168728
772.091	0.0167029
772.169	0.0166664
772.247	0.0166623
772.325	0.0167918
772.404	0.0165843
772.482	0.0166001
772.560	0.0165993
772.638	0.0165228
772.716	0.0165305
772.794	0.0166650
772.872	0.0166606
772.950	0.0164072
773.029	0.0164848
773.107	0.0166560
773.185	0.0165931
773.263	0.0165873
773.341	0.0167070
773.419	0.0166169
773.497	0.0165381
773.575	0.0165977
773.654	0.0167213
773.732	0.0165375
773.810	0.0167262
773.888	0.0167915
773.966	0.0166996
774.044	0.0167227
774.122	0.0167674
774.200	0.0168404
774.279	0.0169314
774.357	0.0168634
774.435	0.0167999
774.513	0.0169759
774.591	0.0169781
774.669	0.0168810
774.747	0.0169654
774.825	0.0167890
774.904	0.0168029
774.982	0.0168207
775.060	0.0168080
775.138	0.0166950
775.216	0.0165968
775.294	0.0167018
775.372	0.0166063
775.450	0.0167770
775.529	0.0167072
775.607	0.0165298
775.685	0.0165351
775.763	0.0165459
775.841	0.0167496
775.919	0.0166732
775.997	0.0166308
776.075	0.0165429
776.154	0.0165856
776.232	0.0165981
776.310	0.0166997
776.388	0.0166427
776.466	0.0166131
776.544	0.0166957
776.622	0.0167475
776.700	0.0167175
776.779	0.0167940
776.857	0.0168430
776.935	0.0166640
777.013	0.0167432
777.091	0.0168823
777.169	0.0168390
777.247	0.0168198
777.325	0.0168085
777.404	0.0168961
777.482	0.0169176
777.560	0.0168329
777.638	0.0169671
777.716	0.0167355
777.794	0.0168764
777.872	0.0169576
777.950	0.0167236
778.029	0.0166975
778.107	0.0167266
778.185	0.0167700
778.263	0.0166940
778.341	0.0166122
778.419	0.0167729
778.497	0.0166750
778.575	0.0167914
778.654	0.0166989
778.732	0.0165929
778.810	0.0166691
778.888	0.0165652
778.966	0.0165871
779.044	0.0165448
779.122	0.0164994
779.200	0.0166373
779.279	0.0165943
779.357	0.0166134
779.435	0.0165540
779.513	0.0166514
779.591	0.0166574
779.669	0.0166076
779.747	0.0167831
779.825	0.0168065
779.904	0.0167178
779.982	0.0168364
780.060	0.0167654
780.138	0.0167543
780.216	0.0166931
780.294	0.0167083
780.372	0.0168438
780.450	0.0166721
780.529	0.0166763
780.607	0.0167942
780.685	0.0166824
780.763	0.0166675
780.841	0.0167534
780.919	0.0166080
780.997	0.0166715
781.075	0.0166221
781.154	0.0167276
781.232	0.0167447
781.310	0.0166837
781.388	0.0167149
781.466	0.0166637
781.544	0.0166734
781.622	0.0167439
781.700	0.0167065
781.779	0.0166913
781.857	0.0167608
781.935	0.0168096
782.013	0.0168439
782.091	0.0169634
782.169	0.0169012
782.247	0.0167969
782.325	0.0170078
782.404	0.0169606
782.482	0.0168069
782.560	0.0168950
782.638	0.0167786
782.716	0.0167385
782.794	0.0168068
782.872	0.0166428
782.950	0.0166389
783.029	0.0164514
783.107	0.0165607
783.185	0.0164506
783.263	0.0165038
783.341	0.0165685
783.419	0.0165433
783.497	0.0163954
783.575	0.0165207
783.654	0.0166063
783.732	0.0167828
783.810	0.0167132
783.888	0.0166387
783.966	0.0167692
784.044	0.0167569
784.122	0.0169350
784.200	0.0170047
784.279	0.0170052
784.357	0.0170007
784.435	0.0170390
784.513	0.0170421
784.591	0.0169024
784.669	0.0170667
784.747	0.0168732
784.825	0.0169849
784.904	0.0169118
784.982	0.0169052
785.060	0.0169108
785.138	0.0166960
785.216	0.0167215
785.294	0.0167792
785.372	0.0166904
785.450	0.0165961
785.529	0.0165097
785.607	0.0163266
785.685	0.0163654
785.763	0.0164523
785.841	0.0163911
785.919	0.0163531
785.997	0.0163884
786.075	0.0164887
786.154	0.0165437
786.232	0.0164423
786.310	0.0164600
786.388	0.0165300
786.466	0.0167733
786.544	0.0166850
786.622	0.0168333
786.700	0.0169071
786.779	0.0168053
786.857	0.0169424
786.935	0.0170332
787.013	0.0171779
787.091	0.0171407
787.169	0.0171978
787.247	0.0172438
787.325	0.0171170
787.404	0.0172346
787.482	0.0170162
787.560	0.0168441
787.638	0.0170045
787.716	0.0169061
787.794	0.0168434
787.872	0.0167923
787.950	0.0167584
788.029	0.0166708
788.107	0.0165158
788.185	0.0165332
788.263	0.0164265
788.341	0.0163734
788.419	0.0164785
788.497	0.0164320
788.575	0.0163912
788.654	0.0163760
788.732	0.0162321
788.810	0.0164966
788.888	0.0166713
788.966	0.0165471
789.044	0.0166817
789.122	0.0166871
789.200	0.0165823
789.279	0.0169152
789.357	0.0169050
789.435	0.0170007
789.513	0.0169196
789.591	0.0169782
789.669	0.0170084
789.747	0.0170047
789.825	0.0170032
789.904	0.0169786
789.982	0.0168842
790.060	0.0169860
790.138	0.0169583
790.216	0.0168011
790.294	0.0166973
790.372	0.0168730
790.450	0.0168456
790.529	0.0166611
790.607	0.0167128
790.685	0.0166099
790.763	0.0165591
790.841	0.0165772
790.919	0.0164450
790.997	0.0164197
791.075	0.0164342
791.154	0.0164767
791.232	0.0165816
791.310	0.0164331
791.388	0.0164910
791.466	0.0166814
791.544	0.0166060
791.622	0.0163686
791.700	0.0166222
791.779	0.0166676
791.857	0.0166046
791.935	0.0167902
792.013	0.0166850
792.091	0.0167337
792.169	0.0167298
792.247	0.0169146
792.325	0.0169770
792.404	0.0168780
792.482	0.0169528
792.560	0.0170316
792.638	0.0169853
792.716	0.0170240
792.794	0.0169518
792.872	0.0169826
792.950	0.0167963
793.029	0.0169016
793.107	0.0168024
793.185	0.0167538
793.263	0.0165865
793.341	0.0166462
793.419	0.0166480
793.497	0.0164811
793.575	0.0164626
793.654	0.0166325
793.732	0.0163714
793.810	0.0163065
793.888	0.0164487
793.966	0.0164458
794.044	0.0163437
794.122	0.0165758
794.200	0.0164149
794.279	0.0165462
794.357	0.0165877
794.435	0.0166862
794.513	0.0167699
794.591	0.0167798
794.669	0.0168360
794.747	0.0168653
794.825	0.0168397
794.904	0.0167400
794.982	0.0169244
795.060	0.0170289
795.138	0.0170189
795.216	0.0170234
795.294	0.0169649
795.372	0.0169125
795.450	0.0168922
795.529	0.0169632
795.607	0.0168325
795.685	0.0168062
795.763	0.0166859
795.841	0.0166658
795.919	0.0166481
795.997	0.0166434
796.075	0.0165879
796.154	0.0164883
796.232	0.0165425
796.310	0.0163552
796.388	0.0164442
796.466	0.0163840
796.544	0.0163242
796.622	0.0162758
796.700	0.0163736
796.779	0.0163269
796.857	0.0164492
796.935	0.0164103
797.013	0.0164489
797.091	0.0165752
797.169	0.0164920
797.247	0.0165038
797.325	0.0165919
797.404	0.0166341
797.482	0.0166306
797.560	0.0167220
797.638	0.0167326
797.716	0.0167980
797.794	0.0169252
797.872	0.0168623
797.950	0.0166783
798.029	0.0168371
798.107	0.0167765
798.185	0.0167096
798.263	0.0168887
798.341	0.0166858
798.419	0.0168150
798.497	0.0167303
798.575	0.0166202
798.654	0.0164902
798.732	0.0165254
798.810	0.0165068
798.888	0.0166466
798.966	0.0166018
799.044	0.0165302
799.122	0.0164954
799.200	0.0164322
799.279	0.0165459
799.357	0.0166052
799.435	0.0166484
799.513	0.0165205
799.591	0.0165668
799.669	0.0167085
799.747	0.0166708
799.825	0.0168122
799.904	0.0169344
799.982	0.0168290
800.060	0.0169042
800.138	0.0170186
800.216	0.0170174
800.294	0.0169496
800.372	0.0168678
800.450	0.0168417
800.529	0.0168656
800.607	0.0168062
800.685	0.0167268
800.763	0.0167475
800.841	0.0166502
800.919	0.0167462
800.997	0.0166130
801.075	0.0165202
801.154	0.0165564
801.232	0.0165872
801.310	0.0166386
801.388	0.0165743
801.466	0.0165654
801.544	0.0165382
801.622	0.0165646
801.700	0.0165073
801.779	0.0166451
801.857	0.0167114
801.935	0.0166905
802.013	0.0166307
802.091	0.0166776
802.169	0.0166058
802.247	0.0166212
802.325	0.0167065
802.404	0.0167980
802.482	0.0167781
802.560	0.0168220
802.638	0.0167799
802.716	0.0167689
802.794	0.0166434
802.872	0.0169952
802.950	0.0167434
803.029	0.0167528
803.107	0.0167715
803.185	0.0166517
803.263	0.0166959
803.341	0.0166806
803.419	0.0166506
803.497	0.0168248
803.575	0.0167152
803.654	0.0167242
803.732	0.0165355
803.810	0.0167837
803.888	0.0167352
803.966	0.0165910
804.044	0.0166895
804.122	0.0167066
804.200	0.0167421
804.279	0.0167551
804.357	0.0166904
804.435	0.0167670
804.513	0.0167111
804.591	0.0168886
804.669	0.0166322
804.747	0.0166460
804.825	0.0166489
804.904	0.0166514
804.982	0.0165945
805.060	0.0166850
805.138	0.0166577
805.216	0.0167072
805.294	0.0166590
805.372	0.0167943
805.450	0.0165974
805.529	0.0167298
805.607	0.0167979
805.685	0.0167193
805.763	0.0167594
805.841	0.0167935
805.919	0.0168840
805.997	0.0167641
806.075	0.0168994
806.154	0.0168328
806.232	0.0168345
806.310	0.0166948
806.388	0.0167780
806.466	0.0168044
806.544	0.0168480
806.622	0.0168356
806.700	0.0169304
806.779	0.0167088
806.857	0.0168003
806.935	0.0168062
807.013	0.0168940
807.091	0.0167639
807.169	0.0168473
807.247	0.0168687
807.325	0.0167194
807.404	0.0168166
807.482	0.0167973
807.560	0.0167661
807.638	0.0167751
807.716	0.0166470
807.794	0.0166409
807.872	0.0167318
807.950	0.0167534
808.029	0.0168052
808.107	0.0167160
808.185	0.0167852
808.263	0.0166918
808.341	0.0166218
808.419	0.0167390
808.497	0.0167707
808.575	0.0167448
808.654	0.0167789
808.732	0.0167500
808.810	0.0168034
808.888	0.0167905
808.966	0.0168774
809.044	0.0168404
809.122	0.0167990
809.200	0.0168476
809.279	0.0168533
809.357	0.0168235
809.435	0.0168148
809.513	0.0167547
809.591	0.0167518
809.669	0.0167838
809.747	0.0168507
809.825	0.0167216
809.904	0.0166932
809.982	0.0166843
810.060	0.0165749
810.138	0.0166193
810.216	0.0165995
810.294	0.0166256
810.372	0.0165668
810.450	0.0166815
810.529	0.0166258
810.607	0.0166015
810.685	0.0166299
810.763	0.0165141
810.841	0.0165661
810.919	0.0166999
810.997	0.0166576
811.075	0.0165508
811.154	0.0165557
811.232	0.0166880
811.310	0.0166101
811.388	0.0167042
811.466	0.0166125
811.544	0.0166528
811.622	0.0167632
811.700	0.0169079
811.779	0.0167946
811.857	0.0167748
811.935	0.0168012
812.013	0.0168019
812.091	0.0167581
812.169	0.0167874
812.247	0.0168515
812.325	0.0167179
812.404	0.0168406
812.482	0.0167309
812.560	0.0167989
812.638	0.0166862
812.716	0.0166904
812.794	0.0166683
812.872	0.0165948
812.950	0.0166982
813.029	0.0167339
813.107	0.0167287
813.185	0.0166455
813.263	0.0166814
813.341	0.0167409
813.419	0.0168587
813.497	0.0166788
813.575	0.0166190
813.654	0.0166908
813.732	0.0168059
813.810	0.0166541
813.888	0.0167772
813.966	0.0167910
814.044	0.0168401
814.122	0.0167088
814.200	0.0167847
814.279	0.0166675
814.357	0.0167816
814.435	0.0166781
814.513	0.0166556
814.591	0.0166381
814.669	0.0164839
814.747	0.0165372
814.825	0.0165672
814.904	0.0165966
814.982	0.0165978
815.060	0.0165352
815.138	0.0166006
815.216	0.0165134
815.294	0.0166927
815.372	0.0164802
815.450	0.0164837
815.529	0.0166090
815.607	0.0164978
815.685	0.0166742
815.763	0.0166756
815.841	0.0165805
815.919	0.0167903
815.997	0.0166694
816.075	0.0166778
816.154	0.0166634
816.232	0.0166338
816.310	0.0168401
816.388	0.0165844
816.466	0.0167005
816.544	0.0166879
816.622	0.0168856
816.700	0.0169061
816.779	0.0166685
816.857	0.0167616
816.935	0.0167923
817.013	0.0168475
817.091	0.0167453
817.169	0.0166221
817.247	0.0167226
817.325	0.0166558
817.404	0.0166172
817.482	0.0167900
817.560	0.0167068
817.638	0.0167631
817.716	0.0167078
817.794	0.0168198
817.872	0.0168128
817.950	0.0168084
818.029	0.0166870
818.107	0.0167617
818.185	0.0168236
818.263	0.0168108
818.341	0.0167908
818.419	0.0167570
818.497	0.0167352
818.575	0.0168239
818.654	0.0167606
818.732	0.0166942
818.810	0.0168235
818.888	0.0168032
818.966	0.0165637
819.044	0.0165667
819.122	0.0165234
819.200	0.0165496
819.279	0.0165665
819.357	0.0165791
819.435	0.0166454
819.513	0.0165003
819.591	0.0164906
819.669	0.0165417
819.747	0.0165302
819.825	0.0165873
819.904	0.0165529
819.982	0.0165879
820.060	0.0167513
820.138	0.0166460
820.216	0.0166244
820.294	0.0167837
820.372	0.0167419
820.450	0.0167426
820.529	0.0168250
820.607	0.0168859
820.685	0.0168636
820.763	0.0168378
820.841	0.0170089
820.919	0.0169386
820.997	0.0169068
821.075	0.0169117
821.154	0.0168378
821.232	0.0167554
821.310	0.0168318
821.388	0.0168614
821.466	0.0167185
821.544	0.0166024
821.622	0.0166242
821.700	0.0166212
821.779	0.0165426
821.857	0.0165437
821.935	0.0165338
822.013	0.0167418
822.091	0.0166728
822.169	0.0165353
822.247	0.0167195
822.325	0.0166286
822.404	0.0165981
822.482	0.0167069
822.560	0.0167387
822.638	0.0167304
822.716	0.0167843
822.794	0.0168361
822.872	0.0168837
822.950	0.0169632
823.029	0.0168727
823.107	0.0168575
823.185	0.0169020
823.263	0.0169418
823.341	0.0168019
823.419	0.0167603
823.497	0.0168410
823.575	0.0168933
823.654	0.0167961
823.732	0.0169128
823.810	0.0169585
823.888	0.0168348
823.966	0.0167818
824.044	0.0168018
824.122	0.0168058
824.200	0.0167617
824.279	0.0167929
824.357	0.0167867
824.435	0.0166166
824.513	0.0167467
824.591	0.0166317
824.669	0.0164372
824.747	0.0165866
824.825	0.0165835
824.904	0.0166234
824.982	0.0166326
825.060	0.0166656
825.138	0.0166077
825.216	0.0167227
825.294	0.0167164
825.372	0.0167191
825.450	0.0167370
825.529	0.0168495
825.607	0.0167760
825.685	0.0167744
825.763	0.0167963
825.841	0.0167097
825.919	0.0168373
825.997	0.0169000
826.075	0.0168429
826.154	0.0168777
826.232	0.0168277
826.310	0.0168429
826.388	0.0168997
826.466	0.0168086
826.544	0.0168562
826.622	0.0167197
826.700	0.0167999
826.779	0.0167599
826.857	0.0167811
826.935	0.0167284
827.013	0.0167942
827.091	0.0165834
827.169	0.0165508
827.247	0.0166885
827.325	0.0166542
827.404	0.0167013
827.482	0.0166397
827.560	0.0166490
827.638	0.0167558
827.716	0.0168378
827.794	0.0168184
827.872	0.0167413
827.950	0.0165601
828.029	0.0166801
828.107	0.0166827
828.185	0.0167028
828.263	0.0166949
828.341	0.0168074
828.419	0.0168161
828.497	0.0167447
828.575	0.0168021
828.654	0.0167646
828.732	0.0168120
828.810	0.0166916
828.888	0.0168945
828.966	0.0169016
829.044	0.0167126
829.122	0.0168417
829.200	0.0167200
829.279	0.0169540
829.357	0.0168571
829.435	0.0169177
829.513	0.0169716
829.591	0.0168903
829.669	0.0169185
829.747	0.0169148
829.825	0.0168554
829.904	0.0167814
829.982	0.0168843
830.060	0.0168201
830.138	0.0169372
830.216	0.0167142
830.294	0.0167389
830.372	0.0167368
830.450	0.0166921
830.529	0.0166654
830.607	0.0167457
830.685	0.0166024
830.763	0.0166655
830.841	0.0168678
830.919	0.0167650
830.997	0.0167624
831.075	0.0166585
831.154	0.0166585
831.232	0.0166903
831.310	0.0165999
831.388	0.0166983
831.466	0.0168276
831.544	0.0167761
831.622	0.0168105
831.700	0.0167271
831.779	0.0167180
831.857	0.0168684
831.935	0.0168434
832.013	0.0169004
832.091	0.0169274
832.169	0.0168212
832.247	0.0169711
832.325	0.0169259
832.404	0.0170602
832.482	0.0168675
832.560	0.0168747
832.638	0.0168821
832.716	0.0170399
832.794	0.0171307
832.872	0.0169454
832.950	0.0169836
833.029	0.0169320
833.107	0.0168935
833.185	0.0167100
833.263	0.0167677
833.341	0.0168279
833.419	0.0167907
833.497	0.0165902
833.575	0.0167963
833.654	0.0166656
833.732	0.0166418
833.810	0.0166349
833.888	0.0166711
833.966	0.0168468
834.044	0.0166823
834.122	0.0166270
834.200	0.0166592
834.279	0.0167851
834.357	0.0168256
834.435	0.0168267
834.513	0.0168263
834.591	0.0167859
834.669	0.0169245
834.747	0.0169297
834.825	0.0169060
834.904	0.0169680
834.982	0.0168871
835.060	0.0169126
835.138	0.0170029
835.216	0.0169395
835.294	0.0169127
835.372	0.0168381
835.450	0.0168362
835.529	0.0168761
835.607	0.0168391
835.685	0.0167873
835.763	0.0167377
835.841	0.0166531
835.919	0.0166861
835.997	0.0167396
836.075	0.0167854
836.154	0.0166550
836.232	0.0168349
836.310	0.0167091
836.388	0.0166333
836.466	0.0167559
836.544	0.0168535
836.622	0.0167684
836.700	0.0168639
836.779	0.0168974
836.857	0.0168818
836.935	0.0168639
837.013	0.0169835
837.091	0.0168233
837.169	0.0169838
837.247	0.0168208
837.325	0.0169678
837.404	0.0169300
837.482	0.0168459
837.560	0.0167603
837.638	0.0167351
837.716	0.0167864
837.794	0.0167354
837.872	0.0167957
837.950	0.0167650
838.029	0.0165961
838.107	0.0166992
838.185	0.0166887
838.263	0.0166539
838.341	0.0165839
838.419	0.0167318
838.497	0.0166805
838.575	0.0167168
838.654	0.0166714
838.732	0.0166739
838.810	0.0167139
838.888	0.0166947
838.966	0.0167086
839.044	0.0166610
839.122	0.0167223
839.200	0.0168525
839.279	0.0167844
839.357	0.0167894
839.435	0.0167021
839.513	0.0169070
839.591	0.0169849
839.669	0.0169051
839.747	0.0167780
839.825	0.0167905
839.904	0.0167431
839.982	0.0168746
840.060	0.0168643
840.138	0.0168506
840.216	0.0168185
840.294	0.0167462
840.372	0.0168214
840.450	0.0168520
840.529	0.0166254
840.607	0.0167345
840.685	0.0167428
840.763	0.0167553
840.841	0.0168214
840.919	0.0166199
840.997	0.0167227
841.075	0.0168728
841.154	0.0167677
841.232	0.0166666
841.310	0.0167896
841.388	0.0167274
841.466	0.0167226
841.544	0.0167284
841.622	0.0167963
841.700	0.0167540
841.779	0.0167054
841.857	0.0168718
841.935	0.0167087
842.013	0.0168130
842.091	0.0169083
842.169	0.0167332
842.247	0.0167770
842.325	0.0168002
842.404	0.0167543
842.482	0.0167733
842.560	0.0166565
842.638	0.0167590
842.716	0.0166965
842.794	0.0168380
842.872	0.0167614
842.950	0.0167792
843.029	0.0166318
843.107	0.0167043
843.185	0.0167802
843.263	0.0165075
843.341	0.0166593
843.419	0.0168047
843.497	0.0166504
843.575	0.0167397
843.654	0.0165895
843.732	0.0167596
843.810	0.0166978
843.888	0.0167527
843.966	0.0166541
844.044	0.0166914
844.122	0.0166750
844.200	0.0166818
844.279	0.0168606
844.357	0.0167130
844.435	0.0167887
844.513	0.0168262
844.591	0.0168698
844.669	0.0167224
844.747	0.0168163
844.825	0.0168739
844.904	0.0169180
844.982	0.0168916
845.060	0.0168195
845.138	0.0167266
845.216	0.0167632
845.294	0.0166879
845.372	0.0167358
845.450	0.0166808
845.529	0.0166941
845.607	0.0166606
845.685	0.0166370
845.763	0.0166178
845.841	0.0166881
845.919	0.0166243
845.997	0.0166570
846.075	0.0165717
846.154	0.0167073
846.232	0.0166393
846.310	0.0168178
846.388	0.0168037
846.466	0.0168147
846.544	0.0166492
846.622	0.0166940
846.700	0.0167673
846.779	0.0167917
846.857	0.0168063
846.935	0.0168394
847.013	0.0168121
847.091	0.0167938
847.169	0.0167387
847.247	0.0167738
847.325	0.0166965
847.404	0.0166446
847.482	0.0166292
847.560	0.0165648
847.638	0.0165595
847.716	0.0165336
847.794	0.0165281
847.872	0.0165261
847.950	0.0165952
848.029	0.0165510
848.107	0.0167616
848.185	0.0167220
848.263	0.0168943
848.341	0.0167439
848.419	0.0169716
848.497	0.0170325
848.575	0.0169526
848.654	0.0169496
848.732	0.0169472
848.810	0.0170452
848.888	0.0169971
848.966	0.0170123
849.044	0.0168273
849.122	0.0168577
849.200	0.0167587
849.279	0.0167749
849.357	0.0167120
849.435	0.0166284
849.513	0.0166051
849.591	0.0166598
849.669	0.0166190
849.747	0.0166640
849.825	0.0166041
849.904	0.0165749
849.982	0.0165643
850.060	0.0165105
850.138	0.0165780
850.216	0.0167900
850.294	0.0167393
850.372	0.0167682
850.450	0.0168710
850.529	0.0169613
850.607	0.0170961
850.685	0.0170236
850.763	0.0170119
850.841	0.0170012
850.919	0.0171404
850.997	0.0171005
851.075	0.0169444
851.154	0.0170274
851.232	0.0169431
851.310	0.0169578
851.388	0.0168897
851.466	0.0168214
851.544	0.0167656
851.622	0.0166615
851.700	0.0166148
851.779	0.0165683
851.857	0.0166126
851.935	0.0164784
852.013	0.0165215
852.091	0.0164478
852.169	0.0163717
852.247	0.0164261
852.325	0.0164851
852.404	0.0165543
852.482	0.0167030
852.560	0.0166975
852.638	0.0167196
852.716	0.0169564
852.794	0.0170300
852.872	0.0170498
852.950	0.0170538
853.029	0.0171596
853.107	0.0171096
853.185	0.0171438
853.263	0.0170032
853.341	0.0170226
853.419	0.0170148
853.497	0.0170083
853.575	0.0170673
853.654	0.0169008
853.732	0.0168327
853.810	0.0168042
853.888	0.0167533
853.966	0.0166393
854.044	0.0167194
854.122	0.0165538
854.200	0.0165245
854.279	0.0165885
854.357	0.0166118
854.435	0.0164659
854.513	0.0164953
854.591	0.0164557
854.669	0.0164819
854.747	0.0167258
854.825	0.0166481
854.904	0.0165688
854.982	0.0167473
855.060	0.0169190
855.138	0.0169557
855.216	0.0168076
855.294	0.0168262
855.372	0.0167937
855.450	0.0169109
855.529	0.0169172
855.607	0.0168813
855.685	0.0168513
855.763	0.0168675
855.841	0.0168886
855.919	0.0168237
855.997	0.0168961
856.075	0.0167753
856.154	0.0166977
856.232	0.0167725
856.310	0.0167052
856.388	0.0167525
856.466	0.0166919
856.544	0.0168786
856.622	0.0167367
856.700	0.0167560
856.779	0.0168155
856.857	0.0165997
856.935	0.0167698
857.013	0.0168172
857.091	0.0167543
857.169	0.0167073
857.247	0.0168970
857.325	0.0168990
857.404	0.0169314
857.482	0.0167632
857.560	0.0170003
857.638	0.0170510
857.716	0.0169382
857.794	0.0168982
857.872	0.0168977
857.950	0.0169083
858.029	0.0169336
858.107	0.0168834
858.185	0.0167429
858.263	0.0167471
858.341	0.0167870
858.419	0.0167741
858.497	0.0168902
858.575	0.0167385
858.654	0.0167823
858.732	0.0165963
858.810	0.0167494
858.888	0.0168437
858.966	0.0168525
859.044	0.0168224
859.122	0.0167885
859.200	0.0167757
859.279	0.0166572
859.357	0.0169128
859.435	0.0169142
859.513	0.0169373
859.591	0.0167990
859.669	0.0169604
859.747	0.0170382
859.825	0.0170625
859.904	0.0170393
859.982	0.0169567
860.060	0.0169209
860.138	0.0170805
860.216	0.0168645
860.294	0.0168423
860.372	0.0169852
860.450	0.0168719
860.529	0.0167159
860.607	0.0166927
860.685	0.0167533
860.763	0.0169117
860.841	0.0168215
860.919	0.0164697
860.997	0.0166320
861.075	0.0166121
861.154	0.0167500
861.232	0.0168575
861.310	0.0165965
861.388	0.0167708
861.466	0.0167146
861.544	0.0167111
861.622	0.0167619
861.700	0.0166789
861.779	0.0167397
861.857	0.0167616
861.935	0.0169777
862.013	0.0169377
862.091	0.0167188
862.169	0.0169038
862.247	0.0168211
862.325	0.0168897
862.404	0.0167636
862.482	0.0168640
862.560	0.0168927
862.638	0.0168230
862.716	0.0168211
862.794	0.0169138
862.872	0.0168552
862.950	0.0166724
863.029	0.0167963
863.107	0.0168577
863.185	0.0167030
863.263	0.0167993
863.341	0.0168217
863.419	0.0167091
863.497	0.0168347
863.575	0.0168553
863.654	0.0167523
863.732	0.0168327
863.810	0.0167218
863.888	0.0167814
863.966	0.0169081
864.044	0.0169346
864.122	0.0167618
864.200	0.0167896
864.279	0.0169382
864.357	0.0168251
864.435	0.0169482
864.513	0.0168835
864.591	0.0169081
864.669	0.0168078
864.747	0.0167938
864.825	0.0168719
864.904	0.0168525
864.982	0.0168185
865.060	0.0168650
865.138	0.0167925
865.216	0.0168198
865.294	0.0167754
865.372	0.0167555
865.450	0.0167538
865.529	0.0168168
865.607	0.0167509
865.685	0.0167310
865.763	0.0167637
865.841	0.0168998
865.919	0.0166240
865.997	0.0167688
866.075	0.0165102
866.154	0.0167194
866.232	0.0165291
866.310	0.0166705
866.388	0.0166565
866.466	0.0166363
866.544	0.0166049
866.622	0.0166632
866.700	0.0167542
866.779	0.0166809
866.857	0.0166154
866.935	0.0166649
867.013	0.0168943
867.091	0.0166905
867.169	0.0166981
867.247	0.0166573
867.325	0.0166784
867.404	0.0167794
867.482	0.0166926
867.560	0.0167258
867.638	0.0167771
867.716	0.0168895
867.794	0.0168130
867.872	0.0167841
867.950	0.0167706
868.029	0.0168148
868.107	0.0168053
868.185	0.0168677
868.263	0.0168060
868.341	0.0166800
868.419	0.0166605
868.497	0.0167150
868.575	0.0167873
868.654	0.0166811
868.732	0.0166985
868.810	0.0167709
868.888	0.0167739
868.966	0.0166176
869.044	0.0167271
869.122	0.0166910
869.200	0.0167083
869.279	0.0167799
869.357	0.0167212
869.435	0.0166445
869.513	0.0167282
869.591	0.0167496
869.669	0.0166302
869.747	0.0167204
869.825	0.0168179
869.904	0.0168839
869.982	0.0166959
870.060	0.0168130
870.138	0.0168266
870.216	0.0167352
870.294	0.0168782
870.372	0.0165878
870.450	0.0166486
870.529	0.0166492
870.607	0.0167666
870.685	0.0168034
870.763	0.0167979
870.841	0.0167947
870.919	0.0168066
870.997	0.0167782
871.075	0.0168526
871.154	0.0169257
871.232	0.0169180
871.310	0.0168359
871.388	0.0167283
871.466	0.0167338
871.544	0.0169014
871.622	0.0168604
871.700	0.0167858
871.779	0.0167188
871.857	0.0168980
871.935	0.0168630
872.013	0.0168553
872.091	0.0168291
872.169	0.0166814
872.247	0.0167225
872.325	0.0167657
872.404	0.0168995
872.482	0.0166959
872.560	0.0167461
872.638	0.0168307
872.716	0.0166767
872.794	0.0168703
872.872	0.0168031
872.950	0.0166866
873.029	0.0167413
873.107	0.0167890
873.185	0.0168553
873.263	0.0167188
873.341	0.0166092
873.419	0.0167385
873.497	0.0166844
873.575	0.0167798
873.654	0.0168636
873.732	0.0167667
873.810	0.0167709
873.888	0.0167776
873.966	0.0168108
874.044	0.0166875
874.122	0.0166955
874.200	0.0166988
874.279	0.0167702
874.357	0.0167991
874.435	0.0166591
874.513	0.0166500
874.591	0.0167477
874.669	0.0165935
874.747	0.0165520
874.825	0.0166125
874.904	0.0166980
874.982	0.0166788
875.060	0.0165556
875.138	0.0167507
875.216	0.0167442
875.294	0.0166921
875.372	0.0166303
875.450	0.0166449
875.529	0.0167964
875.607	0.0167944
875.685	0.0167312
875.763	0.0166513
875.841	0.0167459
875.919	0.0168072
875.997	0.0168300
876.075	0.0166830
876.154	0.0169620
876.232	0.0168642
876.310	0.0166701
876.388	0.0167928
876.466	0.0166769
876.544	0.0166476
876.622	0.0168414
876.700	0.0167358
876.779	0.0168298
876.857	0.0166894
876.935	0.0165434
877.013	0.0165113
877.091	0.0166265
877.169	0.0167216
877.247	0.0164946
877.325	0.0167157
877.404	0.0165588
877.482	0.0165836
877.560	0.0166778
877.638	0.0166999
877.716	0.0165660
877.794	0.0166704
877.872	0.0168719
877.950	0.0167980
878.029	0.0168051
878.107	0.0169017
878.185	0.0169740
878.263	0.0169410
878.341	0.0168570
878.419	0.0168091
878.497	0.0167426
878.575	0.0167266
878.654	0.0167209
878.732	0.0164590
878.810	0.0165022
878.888	0.0165661
878.966	0.0166250
879.044	0.0167509
879.122	0.0167666
879.200	0.0166935
879.279	0.0168327
879.357	0.0168841
879.435	0.0170116
879.513	0.0170437
879.591	0.0170002
879.669	0.0169720
879.747	0.0169111
879.825	0.0168430
879.904	0.0168204
879.982	0.0167419
880.060	0.0166756
880.138	0.0166316
880.216	0.0166589
880.294	0.0166125
880.372	0.0166725
880.450	0.0165687
880.529	0.0165114
880.607	0.0164590
880.685	0.0164306
880.763	0.0164816
880.841	0.0164042
880.919	0.0162643
880.997	0.0163268
881.075	0.0164408
881.154	0.0164593
881.232	0.0163051
881.310	0.0164971
881.388	0.0168539
881.466	0.0169306
881.544	0.0169681
881.622	0.0171590
881.700	0.0174544
881.779	0.0175368
881.857	0.0175781
881.935	0.0173527
882.013	0.0173144
882.091	0.0172875
882.169	0.0172208
882.247	0.0169579
882.325	0.0168445
882.404	0.0167242
882.482	0.0166382
882.560	0.0165830
882.638	0.0164171
882.716	0.0165618
882.794	0.0164906
882.872	0.0164410
882.950	0.0163640
883.029	0.0163958
883.107	0.0164413
883.185	0.0164211
883.263	0.0164506
883.341	0.0164324
883.419	0.0165013
883.497	0.0164510
883.575	0.0164542
883.654	0.0164912
883.732	0.0165169
883.810	0.0165063
883.888	0.0166686
883.966	0.0167481
884.044	0.0169460
884.122	0.0170048
884.200	0.0170358
884.279	0.0170323
884.357	0.0172565
884.435	0.0172470
884.513	0.0171542
884.591	0.0172044
884.669	0.0171470
884.747	0.0172285
884.825	0.0171292
884.904	0.0169064
884.982	0.0168114
885.060	0.0168290
885.138	0.0168444
885.216	0.0166290
885.294	0.0165901
885.372	0.0163481
885.450	0.0164321
885.529	0.0164423
885.607	0.0165137
885.685	0.0166912
885.763	0.0166086
885.841	0.0165847
885.919	0.0165739
885.997	0.0167915
886.075	0.0167816
886.154	0.0168491
886.232	0.0168208
886.310	0.0167194
886.388	0.0168710
886.466	0.0168442
886.544	0.0170488
886.622	0.0168747
886.700	0.0168256
886.779	0.0167530
886.857	0.0168252
886.935	0.0167928
887.013	0.0167704
887.091	0.0168227
887.169	0.0169508
887.247	0.0167916
887.325	0.0167504
887.404	0.0168105
887.482	0.0168279
887.560	0.0169227
887.638	0.0167912
887.716	0.0167178
887.794	0.0166171
887.872	0.0168333
887.950	0.0168333
888.029	0.0167541
888.107	0.0166924
888.185	0.0168572
888.263	0.0166947
888.341	0.0166209
888.419	0.0165919
888.497	0.0165052
888.575	0.0163692
888.654	0.0163764
888.732	0.0163889
888.810	0.0163365
888.888	0.0162643
888.966	0.0161427
889.044	0.0162134
889.122	0.0161862
889.200	0.0162763
889.279	0.0161154
889.357	0.0164929
889.435	0.0164902
889.513	0.0165889
889.591	0.0166392
889.669	0.0166902
889.747	0.0169426
889.825	0.0170654
889.904	0.0171198
889.982	0.0174258
890.060	0.0174823
890.138	0.0175532
890.216	0.0174363
890.294	0.0175018
890.372	0.0175114
890.450	0.0172591
890.529	0.0172255
890.607	0.0171550
890.685	0.0171436
890.763	0.0170254
890.841	0.0167698
890.919	0.0167023
890.997	0.0164287
891.075	0.0162574
891.154	0.0161988
891.232	0.0162392
891.310	0.0161072
891.388	0.0160313
891.466	0.0160860
891.544	0.0159633
891.622	0.0160338
891.700	0.0160453
891.779	0.0161017
891.857	0.0160080
891.935	0.0161341
892.013	0.0162434
892.091	0.0164078
892.169	0.0166071
892.247	0.0166273
892.325	0.0166893
892.404	0.0169011
892.482	0.0169160
892.560	0.0172526
892.638	0.0171149
892.716	0.0171018
892.794	0.0172662
892.872	0.0172093
892.950	0.0172279
893.029	0.0173956
893.107	0.0172164
893.185	0.0171619
893.263	0.0171307
893.341	0.0171218
893.419	0.0168646
893.497	0.0168819
893.575	0.0169120
893.654	0.0166790
893.732	0.0165935
893.810	0.0165909
893.888	0.0164338
893.966	0.0163441
894.044	0.0162251
894.122	0.0162695
894.200	0.0162334
894.279	0.0161961
894.357	0.0162843
894.435	0.0162164
894.513	0.0163528
894.591	0.0162734
894.669	0.0162859
894.747	0.0163666
894.825	0.0164640
894.904	0.0166235
894.982	0.0167387
895.060	0.0168684
895.138	0.0169396
895.216	0.0168908
895.294	0.0169759
895.372	0.0171875
895.450	0.0171455
895.529	0.0172646
895.607	0.0172785
895.685	0.0171226
895.763	0.0171037
895.841	0.0172231
895.919	0.0170510
895.997	0.0168450
896.075	0.0169311
896.154	0.0167191
896.232	0.0167233
896.310	0.0165324
896.388	0.0164642
896.466	0.0165500
896.544	0.0164759
896.622	0.0164950
896.700	0.0164463
896.779	0.0164458
896.857	0.0165342
896.935	0.0166100
897.013	0.0163874
897.091	0.0164517
897.169	0.0164582
897.247	0.0165621
897.325	0.0165075
897.404	0.0165887
897.482	0.0166792
897.560	0.0167283
897.638	0.0167433
897.716	0.0167729
897.794	0.0167139
897.872	0.0166582
897.950	0.0168211
898.029	0.0167786
898.107	0.0169336
898.185	0.0168562
898.263	0.0169832
898.341	0.0168779
898.419	0.0168730
898.497	0.0170950
898.575	0.0170128
898.654	0.0168526
898.732	0.0171011
898.810	0.0170472
898.888	0.0168903
898.966	0.0169497
899.044	0.0167837
899.122	0.0167164
899.200	0.0166219
899.279	0.0166542
899.357	0.0165990
899.435	0.0164178
899.513	0.0164847
899.591	0.0164651
899.669	0.0163730
899.747	0.0164389
899.825	0.0162553
899.904	0.0165472
899.982	0.0164251
900.060	0.0165646
900.138	0.0166196
900.216	0.0165954
900.294	0.0165736
900.372	0.0165753
900.450	0.0166588
900.529	0.0167084
900.607	0.0167590
900.685	0.0167441
900.763	0.0166309
900.841	0.0167381
900.919	0.0167574
900.997	0.0167899
901.075	0.0168349
901.154	0.0167982
901.232	0.0169594
901.310	0.0168829
901.388	0.0168342
901.466	0.0168635
901.544	0.0169617
901.622	0.0168939
901.700	0.0169083
901.779	0.0168123
901.857	0.0166650
901.935	0.0169038
902.013	0.0167842
902.091	0.0168260
902.169	0.0167036
902.247	0.0166193
902.325	0.0166495
902.404	0.0166328
902.482	0.0167148
902.560	0.0165983
902.638	0.0166891
902.716	0.0167294
902.794	0.0166846
902.872	0.0168433
902.950	0.0168438
903.029	0.0168407
903.107	0.0168163
903.185	0.0168947
903.263	0.0167619
903.341	0.0168667
903.419	0.0168623
903.497	0.0169923
903.575	0.0169399
903.654	0.0170095
903.732	0.0169621
903.810	0.0169665
903.888	0.0167755
903.966	0.0168375
904.044	0.0169465
904.122	0.0167590
904.200	0.0167253
904.279	0.0165800
904.357	0.0164558
904.435	0.0165778
904.513	0.0165620
904.591	0.0165053
904.669	0.0166185
904.747	0.0165471
904.825	0.0163993
904.904	0.0165586
904.982	0.0166376
905.060	0.0165868
905.138	0.0166765
905.216	0.0166458
905.294	0.0168220
905.372	0.0167772
905.450	0.0168385
905.529	0.0169664
905.607	0.0170762
905.685	0.0168517
905.763	0.0168819
905.841	0.0170218
905.919	0.0170479
905.997	0.0169817
906.075	0.0170267
906.154	0.0169218
906.232	0.0169572
906.310	0.0168935
906.388	0.0169985
906.466	0.0169183
906.544	0.0167924
906.622	0.0167879
906.700	0.0167332
906.779	0.0166226
906.857	0.0166296
906.935	0.0166171
907.013	0.0166043
907.091	0.0164678
907.169	0.0164575
907.247	0.0164732
907.325	0.0165753
907.404	0.0165926
907.482	0.0166508
907.560	0.0165337
907.638	0.0166364
907.716	0.0165720
907.794	0.0168621
907.872	0.0168338
907.950	0.0167567
908.029	0.0168905
908.107	0.0169746
908.185	0.0169092
908.263	0.0168170
908.341	0.0169930
908.419	0.0170004
908.497	0.0169048
908.575	0.0169140
908.654	0.0170235
908.732	0.0168437
908.810	0.0169199
908.888	0.0168985
908.966	0.0168748
909.044	0.0168223
909.122	0.0169003
909.200	0.0168735
909.279	0.0167656
909.357	0.0168123
909.435	0.0166537
909.513	0.0167284
909.591	0.0167690
909.669	0.0164800
909.747	0.0166401
909.825	0.0166184
909.904	0.0165267
909.982	0.0166669
910.060	0.0165123
910.138	0.0164844
910.216	0.0165971
910.294	0.0167495
910.372	0.0165804
910.450	0.0166661
910.529	0.0167272
910.607	0.0165370
910.685	0.0167601
910.763	0.0166491
910.841	0.0169530
910.919	0.0169349
910.997	0.0167717
911.075	0.0168324
911.154	0.0168653
911.232	0.0168227
911.310	0.0169914
911.388	0.0168230
911.466	0.0168221
911.544	0.0168459
911.622	0.0167447
911.700	0.0167174
911.779	0.0168000
911.857	0.0167465
911.935	0.0166959
912.013	0.0167419
912.091	0.0167635
912.169	0.0167742
912.247	0.0166693
912.325	0.0167573
912.404	0.0167196
912.482	0.0167687
912.560	0.0167168
912.638	0.0167705
912.716	0.0166768
912.794	0.0169144
912.872	0.0167822
912.950	0.0167096
913.029	0.0167683
913.107	0.0167760
913.185	0.0166562
913.263	0.0166393
913.341	0.0167241
913.419	0.0167095
913.497	0.0167117
913.575	0.0167456
913.654	0.0166081
913.732	0.0165923
913.810	0.0166602
913.888	0.0166800
913.966	0.0167612
914.044	0.0166673
914.122	0.0166329
914.200	0.0166092
914.279	0.0167265
914.357	0.0167084
914.435	0.0166696
914.513	0.0167179
914.591	0.0166238
914.669	0.0167603
914.747	0.0167351
914.825	0.0167100
914.904	0.0167349
914.982	0.0166605
915.060	0.0167992
915.138	0.0167046
915.216	0.0166998
915.294	0.0167794
915.372	0.0167708
915.450	0.0167329
915.529	0.0167619
915.607	0.0167763
915.685	0.0166013
915.763	0.0167480
915.841	0.0167779
915.919	0.0166831
915.997	0.0165218
916.075	0.0166057
916.154	0.0166699
916.232	0.0166042
916.310	0.0164416
916.388	0.0166579
916.466	0.0165801
916.544	0.0165147
916.622	0.0166334
916.700	0.0166369
916.779	0.0167506
916.857	0.0167113
916.935	0.0167881
917.013	0.0168812
917.091	0.0168172
917.169	0.0168492
917.247	0.0168343
917.325	0.0168429
917.404	0.0168818
917.482	0.0168846
917.560	0.0170036
917.638	0.0169122
917.716	0.0169983
917.794	0.0169421
917.872	0.0168996
917.950	0.0168707
918.029	0.0167405
918.107	0.0169828
918.185	0.0166622
918.263	0.0167362
918.341	0.0166650
918.419	0.0167133
918.497	0.0167807
918.575	0.0165736
918.654	0.0167033
918.732	0.0167000
918.810	0.0165544
918.888	0.0167458
918.966	0.0166351
919.044	0.0165509
919.122	0.0166910
919.200	0.0167168
919.279	0.0167461
919.357	0.0168249
919.435	0.0167213
919.513	0.0169897
919.591	0.0166969
919.669	0.0167104
919.747	0.0168961
919.825	0.0168222
919.904	0.0168800
