06/03/2022	14:00:25	Ver.	4.1	UNKNOWN
Optical Delay	599.981738	Delta X		0.078125	Sweeps	1	Scan Rate	0/0
Coordinates	Axis 1	NaN	Axis 2	NaN	Axis 3	NaN	Axis 4	NaN	Axis 5	NaN	Axis 6	0.000000
TX Power	0.000000	RX Power	0.000000

599.982	0.0168173
600.060	0.0168170
600.138	0.0168919
600.216	0.0168075
600.294	0.0168125
600.372	0.0167158
600.450	0.0166624
600.529	0.0168063
600.607	0.0166973
600.685	0.0166865
600.763	0.0168950
600.841	0.0167416
600.919	0.0168231
600.997	0.0167632
601.075	0.0168079
601.154	0.0168603
601.232	0.0169058
601.310	0.0168034
601.388	0.0167303
601.466	0.0168690
601.544	0.0167665
601.622	0.0168048
601.700	0.0168738
601.779	0.0167287
601.857	0.0168084
601.935	0.0168185
602.013	0.0167299
602.091	0.0167412
602.169	0.0167744
602.247	0.0168217
602.325	0.0169333
602.404	0.0169350
602.482	0.0167421
602.560	0.0167299
602.638	0.0168580
602.716	0.0168820
602.794	0.0168900
602.872	0.0168484
602.950	0.0167149
603.029	0.0168618
603.107	0.0167580
603.185	0.0167387
603.263	0.0168716
603.341	0.0168066
603.419	0.0169151
603.497	0.0168372
603.575	0.0168832
603.654	0.0168360
603.732	0.0167185
603.810	0.0167000
603.888	0.0169176
603.966	0.0167613
604.044	0.0169112
604.122	0.0169241
604.200	0.0168150
604.279	0.0167799
604.357	0.0168626
604.435	0.0167889
604.513	0.0167899
604.591	0.0168137
604.669	0.0168938
604.747	0.0167841
604.825	0.0168730
604.904	0.0169201
604.982	0.0167618
605.060	0.0168591
605.138	0.0168107
605.216	0.0167722
605.294	0.0168594
605.372	0.0168995
605.450	0.0169370
605.529	0.0168813
605.607	0.0168537
605.685	0.0169390
605.763	0.0167397
605.841	0.0168421
605.919	0.0168002
605.997	0.0169061
606.075	0.0167628
606.154	0.0167036
606.232	0.0168980
606.310	0.0169651
606.388	0.0167922
606.466	0.0167680
606.544	0.0168532
606.622	0.0169537
606.700	0.0169760
606.779	0.0169083
606.857	0.0167765
606.935	0.0168151
607.013	0.0169054
607.091	0.0168649
607.169	0.0168878
607.247	0.0167764
607.325	0.0167892
607.404	0.0168814
607.482	0.0167058
607.560	0.0169453
607.638	0.0168206
607.716	0.0167567
607.794	0.0167506
607.872	0.0168066
607.950	0.0169463
608.029	0.0168311
608.107	0.0167030
608.185	0.0167493
608.263	0.0168227
608.341	0.0168800
608.419	0.0168253
608.497	0.0168967
608.575	0.0167040
608.654	0.0168210
608.732	0.0168063
608.810	0.0168282
608.888	0.0167633
608.966	0.0170271
609.044	0.0167532
609.122	0.0168669
609.200	0.0169849
609.279	0.0169666
609.357	0.0169227
609.435	0.0168354
609.513	0.0170079
609.591	0.0168431
609.669	0.0167767
609.747	0.0168019
609.825	0.0169517
609.904	0.0168732
609.982	0.0168208
610.060	0.0167529
610.138	0.0169005
610.216	0.0168536
610.294	0.0168713
610.372	0.0167819
610.450	0.0167581
610.529	0.0166315
610.607	0.0169003
610.685	0.0169704
610.763	0.0167100
610.841	0.0168373
610.919	0.0168559
610.997	0.0167837
611.075	0.0168317
611.154	0.0168163
611.232	0.0167622
611.310	0.0168736
611.388	0.0167892
611.466	0.0168675
611.544	0.0167986
611.622	0.0169147
611.700	0.0167332
611.779	0.0167979
611.857	0.0169338
611.935	0.0168748
612.013	0.0166759
612.091	0.0167871
612.169	0.0167940
612.247	0.0167032
612.325	0.0168754
612.404	0.0168285
612.482	0.0167992
612.560	0.0168863
612.638	0.0167183
612.716	0.0170091
612.794	0.0169928
612.872	0.0168282
612.950	0.0166538
613.029	0.0168815
613.107	0.0169014
613.185	0.0169546
613.263	0.0168983
613.341	0.0169052
613.419	0.0169205
613.497	0.0169613
613.575	0.0168822
613.654	0.0169363
613.732	0.0167692
613.810	0.0168758
613.888	0.0167432
613.966	0.0167668
614.044	0.0168054
614.122	0.0167830
614.200	0.0168527
614.279	0.0167619
614.357	0.0166809
614.435	0.0168455
614.513	0.0168542
614.591	0.0167414
614.669	0.0167337
614.747	0.0166933
614.825	0.0167709
614.904	0.0169165
614.982	0.0168935
615.060	0.0167313
615.138	0.0168322
615.216	0.0167828
615.294	0.0168596
615.372	0.0167649
615.450	0.0170093
615.529	0.0168274
615.607	0.0168364
615.685	0.0168674
615.763	0.0168839
615.841	0.0168764
615.919	0.0168571
615.997	0.0169002
616.075	0.0168807
616.154	0.0169579
616.232	0.0168200
616.310	0.0168552
616.388	0.0167552
616.466	0.0168900
616.544	0.0169322
616.622	0.0169019
616.700	0.0168303
616.779	0.0167625
616.857	0.0168374
616.935	0.0169077
617.013	0.0167799
617.091	0.0168533
617.169	0.0168504
617.247	0.0168029
617.325	0.0168160
617.404	0.0167608
617.482	0.0167225
617.560	0.0167738
617.638	0.0167630
617.716	0.0166261
617.794	0.0167895
617.872	0.0167873
617.950	0.0167564
618.029	0.0167814
618.107	0.0168790
618.185	0.0167679
618.263	0.0167620
618.341	0.0167988
618.419	0.0168000
618.497	0.0169223
618.575	0.0168137
618.654	0.0168456
618.732	0.0169478
618.810	0.0168383
618.888	0.0168642
618.966	0.0169186
619.044	0.0168728
619.122	0.0167743
619.200	0.0168802
619.279	0.0168605
619.357	0.0169454
619.435	0.0169129
619.513	0.0168748
619.591	0.0169101
619.669	0.0169398
619.747	0.0168492
619.825	0.0167866
619.904	0.0169112
619.982	0.0169131
620.060	0.0167605
620.138	0.0168491
620.216	0.0169154
620.294	0.0168095
620.372	0.0168797
620.450	0.0167725
620.529	0.0168505
620.607	0.0168658
620.685	0.0168846
620.763	0.0167322
620.841	0.0167703
620.919	0.0168737
620.997	0.0167861
621.075	0.0168102
621.154	0.0168667
621.232	0.0168243
621.310	0.0167787
621.388	0.0168240
621.466	0.0168679
621.544	0.0167805
621.622	0.0168614
621.700	0.0168856
621.779	0.0169084
621.857	0.0168159
621.935	0.0168590
622.013	0.0168582
622.091	0.0169081
622.169	0.0167299
622.247	0.0168127
622.325	0.0167300
622.404	0.0170367
622.482	0.0168851
622.560	0.0168826
622.638	0.0168222
622.716	0.0168414
622.794	0.0167883
622.872	0.0167423
622.950	0.0169558
623.029	0.0168208
623.107	0.0168322
623.185	0.0166732
623.263	0.0167392
623.341	0.0168104
623.419	0.0167664
623.497	0.0166814
623.575	0.0168306
623.654	0.0170406
623.732	0.0168732
623.810	0.0167335
623.888	0.0167710
623.966	0.0167917
624.044	0.0168529
624.122	0.0168407
624.200	0.0168221
624.279	0.0168710
624.357	0.0168876
624.435	0.0167451
624.513	0.0167776
624.591	0.0168715
624.669	0.0167480
624.747	0.0168417
624.825	0.0167939
624.904	0.0168941
624.982	0.0168213
625.060	0.0167969
625.138	0.0168649
625.216	0.0167884
625.294	0.0167268
625.372	0.0168839
625.450	0.0168186
625.529	0.0167287
625.607	0.0168822
625.685	0.0168381
625.763	0.0167413
625.841	0.0166587
625.919	0.0167490
625.997	0.0167993
626.075	0.0167775
626.154	0.0167938
626.232	0.0167970
626.310	0.0168251
626.388	0.0167647
626.466	0.0167493
626.544	0.0166769
626.622	0.0168520
626.700	0.0169336
626.779	0.0166650
626.857	0.0168225
626.935	0.0168496
627.013	0.0168708
627.091	0.0169096
627.169	0.0168613
627.247	0.0169008
627.325	0.0167993
627.404	0.0168554
627.482	0.0169562
627.560	0.0168001
627.638	0.0167408
627.716	0.0167500
627.794	0.0169141
627.872	0.0169553
627.950	0.0169313
628.029	0.0168280
628.107	0.0167907
628.185	0.0167017
628.263	0.0168279
628.341	0.0168972
628.419	0.0168896
628.497	0.0167406
628.575	0.0168784
628.654	0.0169855
628.732	0.0167511
628.810	0.0167245
628.888	0.0169271
628.966	0.0168063
629.044	0.0168465
629.122	0.0169958
629.200	0.0169344
629.279	0.0168462
629.357	0.0169178
629.435	0.0168753
629.513	0.0169292
629.591	0.0168409
629.669	0.0167619
629.747	0.0167916
629.825	0.0169125
629.904	0.0167515
629.982	0.0169444
630.060	0.0169077
630.138	0.0168238
630.216	0.0168742
630.294	0.0169149
630.372	0.0168610
630.450	0.0168441
630.529	0.0167992
630.607	0.0169226
630.685	0.0169055
630.763	0.0167959
630.841	0.0168143
630.919	0.0168266
630.997	0.0167918
631.075	0.0168500
631.154	0.0169127
631.232	0.0168166
631.310	0.0168710
631.388	0.0167657
631.466	0.0166396
631.544	0.0167992
631.622	0.0168681
631.700	0.0169559
631.779	0.0168491
631.857	0.0168466
631.935	0.0168961
632.013	0.0168365
632.091	0.0167578
632.169	0.0168428
632.247	0.0168445
632.325	0.0168436
632.404	0.0167667
632.482	0.0168163
632.560	0.0168204
632.638	0.0168926
632.716	0.0168008
632.794	0.0167712
632.872	0.0169125
632.950	0.0167263
633.029	0.0168358
633.107	0.0168552
633.185	0.0167570
633.263	0.0167809
633.341	0.0168478
633.419	0.0167171
633.497	0.0167278
633.575	0.0167607
633.654	0.0167971
633.732	0.0168044
633.810	0.0167963
633.888	0.0169227
633.966	0.0168579
634.044	0.0167174
634.122	0.0168753
634.200	0.0168002
634.279	0.0167330
634.357	0.0167441
634.435	0.0168913
634.513	0.0167699
634.591	0.0167675
634.669	0.0169017
634.747	0.0168316
634.825	0.0167143
634.904	0.0167310
634.982	0.0168738
635.060	0.0168945
635.138	0.0166647
635.216	0.0167453
635.294	0.0168848
635.372	0.0168188
635.450	0.0168809
635.529	0.0167452
635.607	0.0168301
635.685	0.0167120
635.763	0.0168201
635.841	0.0167616
635.919	0.0166689
635.997	0.0167458
636.075	0.0167552
636.154	0.0168135
636.232	0.0166264
636.310	0.0168427
636.388	0.0167570
636.466	0.0169057
636.544	0.0167340
636.622	0.0167234
636.700	0.0167998
636.779	0.0167365
636.857	0.0167331
636.935	0.0166047
637.013	0.0168291
637.091	0.0167870
637.169	0.0167700
637.247	0.0167741
637.325	0.0167980
637.404	0.0168635
637.482	0.0167455
637.560	0.0167715
637.638	0.0167625
637.716	0.0169024
637.794	0.0168451
637.872	0.0167944
637.950	0.0167204
638.029	0.0167849
638.107	0.0168629
638.185	0.0167952
638.263	0.0167567
638.341	0.0167674
638.419	0.0169166
638.497	0.0168823
638.575	0.0166936
638.654	0.0169746
638.732	0.0167795
638.810	0.0167338
638.888	0.0167189
638.966	0.0166780
639.044	0.0168269
639.122	0.0169651
639.200	0.0166947
639.279	0.0167782
639.357	0.0166911
639.435	0.0168571
639.513	0.0170386
639.591	0.0168785
639.669	0.0168177
639.747	0.0168275
639.825	0.0168099
639.904	0.0168235
639.982	0.0167688
640.060	0.0168258
640.138	0.0167470
640.216	0.0168916
640.294	0.0167439
640.372	0.0170181
640.450	0.0169186
640.529	0.0168262
640.607	0.0167731
640.685	0.0168902
640.763	0.0168653
640.841	0.0168474
640.919	0.0167507
640.997	0.0168108
641.075	0.0168456
641.154	0.0168226
641.232	0.0167670
641.310	0.0167899
641.388	0.0167460
641.466	0.0168181
641.544	0.0167822
641.622	0.0167966
641.700	0.0168594
641.779	0.0167033
641.857	0.0167673
641.935	0.0168073
642.013	0.0167538
642.091	0.0167183
642.169	0.0168076
642.247	0.0168475
642.325	0.0167062
642.404	0.0167162
642.482	0.0167857
642.560	0.0167660
642.638	0.0167616
642.716	0.0168098
642.794	0.0169443
642.872	0.0169035
642.950	0.0168764
643.029	0.0167406
643.107	0.0168664
643.185	0.0168162
643.263	0.0168526
643.341	0.0168361
643.419	0.0168803
643.497	0.0169450
643.575	0.0167378
643.654	0.0168584
643.732	0.0168410
643.810	0.0167222
643.888	0.0169218
643.966	0.0167992
644.044	0.0167888
644.122	0.0169404
644.200	0.0169005
644.279	0.0168044
644.357	0.0168375
644.435	0.0166689
644.513	0.0167263
644.591	0.0168053
644.669	0.0167223
644.747	0.0168802
644.825	0.0168978
644.904	0.0167426
644.982	0.0168034
645.060	0.0167934
645.138	0.0167944
645.216	0.0169144
645.294	0.0168546
645.372	0.0168157
645.450	0.0169207
645.529	0.0169002
645.607	0.0167847
645.685	0.0168535
645.763	0.0168551
645.841	0.0168613
645.919	0.0168199
645.997	0.0167371
646.075	0.0168326
646.154	0.0167895
646.232	0.0167802
646.310	0.0168076
646.388	0.0167315
646.466	0.0167189
646.544	0.0169128
646.622	0.0167976
646.700	0.0166685
646.779	0.0168168
646.857	0.0169217
646.935	0.0167873
647.013	0.0168935
647.091	0.0169127
647.169	0.0167995
647.247	0.0167661
647.325	0.0168207
647.404	0.0169407
647.482	0.0168533
647.560	0.0167171
647.638	0.0169363
647.716	0.0168124
647.794	0.0167868
647.872	0.0169289
647.950	0.0168677
648.029	0.0168273
648.107	0.0168984
648.185	0.0168620
648.263	0.0169344
648.341	0.0168941
648.419	0.0168626
648.497	0.0168325
648.575	0.0169282
648.654	0.0168514
648.732	0.0169337
648.810	0.0168456
648.888	0.0167235
648.966	0.0167422
649.044	0.0167931
649.122	0.0168457
649.200	0.0167561
649.279	0.0168179
649.357	0.0168966
649.435	0.0169128
649.513	0.0167386
649.591	0.0167929
649.669	0.0169035
649.747	0.0167729
649.825	0.0167728
649.904	0.0168236
649.982	0.0169100
650.060	0.0167569
650.138	0.0168120
650.216	0.0168608
650.294	0.0168855
650.372	0.0168422
650.450	0.0167794
650.529	0.0168047
650.607	0.0167326
650.685	0.0168532
650.763	0.0167598
650.841	0.0168003
650.919	0.0168968
650.997	0.0166597
651.075	0.0167921
651.154	0.0167876
651.232	0.0168974
651.310	0.0169142
651.388	0.0168581
651.466	0.0169383
651.544	0.0168050
651.622	0.0168008
651.700	0.0168509
651.779	0.0169766
651.857	0.0168217
651.935	0.0167535
652.013	0.0167981
652.091	0.0167205
652.169	0.0167858
652.247	0.0168391
652.325	0.0168528
652.404	0.0167683
652.482	0.0168885
652.560	0.0169434
652.638	0.0168233
652.716	0.0168351
652.794	0.0168842
652.872	0.0168866
652.950	0.0167464
653.029	0.0167039
653.107	0.0167930
653.185	0.0168058
653.263	0.0167746
653.341	0.0168642
653.419	0.0168590
653.497	0.0168452
653.575	0.0168737
653.654	0.0168238
653.732	0.0168763
653.810	0.0167943
653.888	0.0166996
653.966	0.0167789
654.044	0.0167513
654.122	0.0166970
654.200	0.0167831
654.279	0.0168064
654.357	0.0167778
654.435	0.0168219
654.513	0.0166792
654.591	0.0168340
654.669	0.0168340
654.747	0.0167694
654.825	0.0166593
654.904	0.0167866
654.982	0.0168098
655.060	0.0167461
655.138	0.0166965
655.216	0.0167319
655.294	0.0168952
655.372	0.0166610
655.450	0.0169234
655.529	0.0168486
655.607	0.0167804
655.685	0.0168136
655.763	0.0168602
655.841	0.0168680
655.919	0.0168364
655.997	0.0167622
656.075	0.0165995
656.154	0.0168188
656.232	0.0167477
656.310	0.0167176
656.388	0.0168264
656.466	0.0168043
656.544	0.0168862
656.622	0.0167830
656.700	0.0168429
656.779	0.0167308
656.857	0.0167493
656.935	0.0168769
657.013	0.0168060
657.091	0.0168250
657.169	0.0169308
657.247	0.0168514
657.325	0.0168304
657.404	0.0167816
657.482	0.0168613
657.560	0.0168580
657.638	0.0167803
657.716	0.0168686
657.794	0.0168090
657.872	0.0167703
657.950	0.0168349
658.029	0.0167251
658.107	0.0167094
658.185	0.0167799
658.263	0.0168018
658.341	0.0169582
658.419	0.0167204
658.497	0.0167831
658.575	0.0167912
658.654	0.0168071
658.732	0.0168301
658.810	0.0167876
658.888	0.0168041
658.966	0.0166409
659.044	0.0168333
659.122	0.0169288
659.200	0.0167965
659.279	0.0168385
659.357	0.0168587
659.435	0.0168093
659.513	0.0167689
659.591	0.0167400
659.669	0.0168924
659.747	0.0170327
659.825	0.0166864
659.904	0.0168366
659.982	0.0168157
660.060	0.0168429
660.138	0.0167844
660.216	0.0168320
660.294	0.0167466
660.372	0.0169061
660.450	0.0167684
660.529	0.0169844
660.607	0.0167606
660.685	0.0167010
660.763	0.0168719
660.841	0.0168190
660.919	0.0169318
660.997	0.0168701
661.075	0.0167975
661.154	0.0167822
661.232	0.0168719
661.310	0.0169373
661.388	0.0167804
661.466	0.0168912
661.544	0.0169473
661.622	0.0168839
661.700	0.0169360
661.779	0.0169256
661.857	0.0168636
661.935	0.0168428
662.013	0.0168981
662.091	0.0168613
662.169	0.0168639
662.247	0.0168247
662.325	0.0168204
662.404	0.0167578
662.482	0.0168083
662.560	0.0167699
662.638	0.0168371
662.716	0.0168067
662.794	0.0168315
662.872	0.0169448
662.950	0.0167542
663.029	0.0168850
663.107	0.0168622
663.185	0.0167548
663.263	0.0169127
663.341	0.0168661
663.419	0.0168848
663.497	0.0167585
663.575	0.0168511
663.654	0.0169341
663.732	0.0168277
663.810	0.0168442
663.888	0.0169550
663.966	0.0167960
664.044	0.0168295
664.122	0.0168392
664.200	0.0168837
664.279	0.0168505
664.357	0.0168482
664.435	0.0169833
664.513	0.0168517
664.591	0.0168556
664.669	0.0168557
664.747	0.0169222
664.825	0.0169498
664.904	0.0168151
664.982	0.0168812
665.060	0.0168488
665.138	0.0167533
665.216	0.0168701
665.294	0.0168922
665.372	0.0168065
665.450	0.0169243
665.529	0.0168375
665.607	0.0169059
665.685	0.0168583
665.763	0.0168338
665.841	0.0169041
665.919	0.0168964
665.997	0.0169080
666.075	0.0169516
666.154	0.0169352
666.232	0.0169226
666.310	0.0168394
666.388	0.0168053
666.466	0.0168186
666.544	0.0168623
666.622	0.0168922
666.700	0.0167973
666.779	0.0167886
666.857	0.0169484
666.935	0.0168398
667.013	0.0167618
667.091	0.0169236
667.169	0.0169917
667.247	0.0169087
667.325	0.0168163
667.404	0.0168156
667.482	0.0169977
667.560	0.0169396
667.638	0.0166941
667.716	0.0169205
667.794	0.0168878
667.872	0.0168680
667.950	0.0169310
668.029	0.0168817
668.107	0.0169626
668.185	0.0168563
668.263	0.0168825
668.341	0.0168473
668.419	0.0168302
668.497	0.0168555
668.575	0.0168196
668.654	0.0168704
668.732	0.0169399
668.810	0.0169423
668.888	0.0169147
668.966	0.0168587
669.044	0.0169494
669.122	0.0169286
669.200	0.0168750
669.279	0.0169135
669.357	0.0169224
669.435	0.0169647
669.513	0.0169931
669.591	0.0169059
669.669	0.0167973
669.747	0.0167794
669.825	0.0168339
669.904	0.0169002
669.982	0.0169072
670.060	0.0168715
670.138	0.0168791
670.216	0.0168113
670.294	0.0166629
670.372	0.0167520
670.450	0.0170308
670.529	0.0169080
670.607	0.0168750
670.685	0.0166922
670.763	0.0168830
670.841	0.0169904
670.919	0.0168824
670.997	0.0168462
671.075	0.0168336
671.154	0.0169651
671.232	0.0168285
671.310	0.0167776
671.388	0.0168984
671.466	0.0167020
671.544	0.0168581
671.622	0.0167713
671.700	0.0167143
671.779	0.0168526
671.857	0.0168110
671.935	0.0167815
672.013	0.0168340
672.091	0.0168729
672.169	0.0168620
672.247	0.0167018
672.325	0.0168116
672.404	0.0167750
672.482	0.0168974
672.560	0.0167173
672.638	0.0166466
672.716	0.0168880
672.794	0.0168226
672.872	0.0167966
672.950	0.0168407
673.029	0.0168742
673.107	0.0167563
673.185	0.0167486
673.263	0.0167883
673.341	0.0167992
673.419	0.0168394
673.497	0.0168761
673.575	0.0168968
673.654	0.0169107
673.732	0.0169168
673.810	0.0167840
673.888	0.0169070
673.966	0.0168317
674.044	0.0168413
674.122	0.0170084
674.200	0.0167318
674.279	0.0168517
674.357	0.0169920
674.435	0.0168903
674.513	0.0166933
674.591	0.0167374
674.669	0.0169234
674.747	0.0168719
674.825	0.0167988
674.904	0.0169228
674.982	0.0166720
675.060	0.0167210
675.138	0.0168373
675.216	0.0168051
675.294	0.0167462
675.372	0.0169371
675.450	0.0169035
675.529	0.0167700
675.607	0.0168735
675.685	0.0169118
675.763	0.0168787
675.841	0.0167639
675.919	0.0170143
675.997	0.0169455
676.075	0.0169489
676.154	0.0170228
676.232	0.0167677
676.310	0.0168182
676.388	0.0167921
676.466	0.0168606
676.544	0.0167275
676.622	0.0169353
676.700	0.0167601
676.779	0.0168175
676.857	0.0169518
676.935	0.0168984
677.013	0.0168590
677.091	0.0169466
677.169	0.0168407
677.247	0.0167567
677.325	0.0168807
677.404	0.0168897
677.482	0.0168701
677.560	0.0167915
677.638	0.0168662
677.716	0.0168775
677.794	0.0168713
677.872	0.0167963
677.950	0.0167992
678.029	0.0167207
678.107	0.0168706
678.185	0.0168041
678.263	0.0167597
678.341	0.0167322
678.419	0.0167776
678.497	0.0167687
678.575	0.0167519
678.654	0.0167622
678.732	0.0169199
678.810	0.0169492
678.888	0.0170934
678.966	0.0169230
679.044	0.0168570
679.122	0.0169083
679.200	0.0169360
679.279	0.0168475
679.357	0.0169228
679.435	0.0169921
679.513	0.0166672
679.591	0.0167986
679.669	0.0168229
679.747	0.0167034
679.825	0.0167434
679.904	0.0167182
679.982	0.0166043
680.060	0.0166124
680.138	0.0166930
680.216	0.0167620
680.294	0.0167123
680.372	0.0166849
680.450	0.0167470
680.529	0.0168585
680.607	0.0168688
680.685	0.0169166
680.763	0.0168662
680.841	0.0167551
680.919	0.0169456
680.997	0.0169632
681.075	0.0169530
681.154	0.0169614
681.232	0.0170583
681.310	0.0170568
681.388	0.0169155
681.466	0.0169098
681.544	0.0167953
681.622	0.0168925
681.700	0.0169551
681.779	0.0168340
681.857	0.0168806
681.935	0.0168687
682.013	0.0170337
682.091	0.0169263
682.169	0.0169623
682.247	0.0169673
682.325	0.0169166
682.404	0.0169328
682.482	0.0169737
682.560	0.0170440
682.638	0.0168393
682.716	0.0169336
682.794	0.0168294
682.872	0.0167247
682.950	0.0167287
683.029	0.0166777
683.107	0.0163299
683.185	0.0162354
683.263	0.0160182
683.341	0.0157772
683.419	0.0158289
683.497	0.0157595
683.575	0.0157233
683.654	0.0158746
683.732	0.0161543
683.810	0.0163599
683.888	0.0167278
683.966	0.0171049
684.044	0.0175546
684.122	0.0176992
684.200	0.0179678
684.279	0.0181409
684.357	0.0178580
684.435	0.0176929
684.513	0.0171073
684.591	0.0168977
684.669	0.0164962
684.747	0.0162759
684.825	0.0161790
684.904	0.0161296
684.982	0.0160714
685.060	0.0162526
685.138	0.0165259
685.216	0.0167625
685.294	0.0170958
685.372	0.0172733
685.450	0.0172447
685.529	0.0174540
685.607	0.0176952
685.685	0.0177546
685.763	0.0177328
685.841	0.0179581
685.919	0.0181911
685.997	0.0183373
686.075	0.0185287
686.154	0.0188116
686.232	0.0189483
686.310	0.0188995
686.388	0.0188282
686.466	0.0186053
686.544	0.0180309
686.622	0.0173342
686.700	0.0165311
686.779	0.0156274
686.857	0.0145239
686.935	0.0136247
687.013	0.0129224
687.091	0.0122900
687.169	0.0118591
687.247	0.0117229
687.325	0.0120589
687.404	0.0124975
687.482	0.0131813
687.560	0.0138201
687.638	0.0148399
687.716	0.0155578
687.794	0.0165122
687.872	0.0172174
687.950	0.0176447
688.029	0.0182574
688.107	0.0184514
688.185	0.0186332
688.263	0.0186561
688.341	0.0188078
688.419	0.0188010
688.497	0.0190030
688.575	0.0191442
688.654	0.0193391
688.732	0.0197977
688.810	0.0202140
688.888	0.0205556
688.966	0.0209013
689.044	0.0212515
689.122	0.0212954
689.200	0.0214079
689.279	0.0212443
689.357	0.0208698
689.435	0.0205882
689.513	0.0198648
689.591	0.0190997
689.669	0.0182700
689.747	0.0172608
689.825	0.0161260
689.904	0.0149417
689.982	0.0138998
690.060	0.0127026
690.138	0.0114510
690.216	0.0106631
690.294	0.00970261
690.372	0.00926643
690.450	0.00912285
690.529	0.00926880
690.607	0.00972778
690.685	0.0103349
690.763	0.0114223
690.841	0.0123055
690.919	0.0135908
690.997	0.0146491
691.075	0.0156235
691.154	0.0165400
691.232	0.0172647
691.310	0.0179976
691.388	0.0187547
691.466	0.0191840
691.544	0.0197108
691.622	0.0203025
691.700	0.0208520
691.779	0.0211766
691.857	0.0217109
691.935	0.0220094
692.013	0.0223692
692.091	0.0226364
692.169	0.0229353
692.247	0.0230054
692.325	0.0231477
692.404	0.0230835
692.482	0.0229221
692.560	0.0225179
692.638	0.0221523
692.716	0.0214616
692.794	0.0206409
692.872	0.0197240
692.950	0.0183358
693.029	0.0170726
693.107	0.0156476
693.185	0.0141298
693.263	0.0122754
693.341	0.0107983
693.419	0.00926353
693.497	0.00787331
693.575	0.00697266
693.654	0.00633858
693.732	0.00613838
693.810	0.00648972
693.888	0.00696907
693.966	0.00804695
694.044	0.00933846
694.122	0.0107011
694.200	0.0122692
694.279	0.0139731
694.357	0.0155043
694.435	0.0169745
694.513	0.0185589
694.591	0.0199211
694.669	0.0209751
694.747	0.0220100
694.825	0.0229240
694.904	0.0234602
694.982	0.0241030
695.060	0.0244912
695.138	0.0247195
695.216	0.0247842
695.294	0.0248404
695.372	0.0248202
695.450	0.0245823
695.529	0.0243723
695.607	0.0237821
695.685	0.0230938
695.763	0.0219871
695.841	0.0209754
695.919	0.0197665
695.997	0.0185417
696.075	0.0171186
696.154	0.0157467
696.232	0.0144698
696.310	0.0132333
696.388	0.0119788
696.466	0.0109385
696.544	0.00990898
696.622	0.00912987
696.700	0.00856239
696.779	0.00821823
696.857	0.00816719
696.935	0.00850349
697.013	0.00880089
697.091	0.00950745
697.169	0.0104645
697.247	0.0115949
697.325	0.0126389
697.404	0.0139352
697.482	0.0152180
697.560	0.0160968
697.638	0.0174154
697.716	0.0184755
697.794	0.0193053
697.872	0.0199672
697.950	0.0204735
698.029	0.0208645
698.107	0.0210720
698.185	0.0211772
698.263	0.0211112
698.341	0.0210754
698.419	0.0212012
698.497	0.0210089
698.575	0.0209277
698.654	0.0210786
698.732	0.0209137
698.810	0.0207556
698.888	0.0206215
698.966	0.0202343
699.044	0.0199116
699.122	0.0194804
699.200	0.0189170
699.279	0.0180497
699.357	0.0170641
699.435	0.0163231
699.513	0.0154328
699.591	0.0146715
699.669	0.0138535
699.747	0.0133714
699.825	0.0127701
699.904	0.0125105
699.982	0.0124528
700.060	0.0127083
700.138	0.0129878
700.216	0.0134644
700.294	0.0139582
700.372	0.0145037
700.450	0.0151454
700.529	0.0158253
700.607	0.0163850
700.685	0.0168905
700.763	0.0173802
700.841	0.0179202
700.919	0.0184575
700.997	0.0185941
701.075	0.0190878
701.154	0.0192825
701.232	0.0193983
701.310	0.0195307
701.388	0.0193422
701.466	0.0189697
701.544	0.0188241
701.622	0.0185216
701.700	0.0179745
701.779	0.0173251
701.857	0.0170352
701.935	0.0167413
702.013	0.0160693
702.091	0.0155708
702.169	0.0150986
702.247	0.0148521
702.325	0.0147676
702.404	0.0145866
702.482	0.0145767
702.560	0.0145918
702.638	0.0148112
702.716	0.0148920
702.794	0.0150645
702.872	0.0152917
702.950	0.0156210
703.029	0.0160274
703.107	0.0164109
703.185	0.0166909
703.263	0.0169347
703.341	0.0172991
703.419	0.0174551
703.497	0.0175906
703.575	0.0178078
703.654	0.0179783
703.732	0.0180972
703.810	0.0181754
703.888	0.0183001
703.966	0.0185406
704.044	0.0185163
704.122	0.0188007
704.200	0.0187412
704.279	0.0187034
704.357	0.0187436
704.435	0.0188277
704.513	0.0187591
704.591	0.0186112
704.669	0.0184624
704.747	0.0181192
704.825	0.0179195
704.904	0.0175996
704.982	0.0172311
705.060	0.0170269
705.138	0.0165257
705.216	0.0161287
705.294	0.0157737
705.372	0.0152926
705.450	0.0150215
705.529	0.0148119
705.607	0.0146554
705.685	0.0145201
705.763	0.0144873
705.841	0.0145398
705.919	0.0146975
705.997	0.0148105
706.075	0.0148723
706.154	0.0151515
706.232	0.0154831
706.310	0.0156900
706.388	0.0158920
706.466	0.0164396
706.544	0.0164632
706.622	0.0167362
706.700	0.0169371
706.779	0.0170587
706.857	0.0171675
706.935	0.0171233
707.013	0.0171148
707.091	0.0170901
707.169	0.0171239
707.247	0.0171954
707.325	0.0172091
707.404	0.0170982
707.482	0.0171861
707.560	0.0173058
707.638	0.0174481
707.716	0.0175130
707.794	0.0177577
707.872	0.0178831
707.950	0.0178938
708.029	0.0179669
708.107	0.0179948
708.185	0.0183088
708.263	0.0180918
708.341	0.0179598
708.419	0.0177166
708.497	0.0175348
708.575	0.0172350
708.654	0.0169929
708.732	0.0166740
708.810	0.0163368
708.888	0.0160718
708.966	0.0157828
709.044	0.0156735
709.122	0.0155626
709.200	0.0155968
709.279	0.0156060
709.357	0.0157158
709.435	0.0160041
709.513	0.0163081
709.591	0.0165459
709.669	0.0165611
709.747	0.0168046
709.825	0.0170216
709.904	0.0172217
709.982	0.0172600
710.060	0.0172560
710.138	0.0172716
710.216	0.0171608
710.294	0.0170007
710.372	0.0169285
710.450	0.0166523
710.529	0.0164967
710.607	0.0163512
710.685	0.0164742
710.763	0.0162426
710.841	0.0161646
710.919	0.0163086
710.997	0.0160988
711.075	0.0163199
711.154	0.0164665
711.232	0.0165928
711.310	0.0168637
711.388	0.0169793
711.466	0.0169855
711.544	0.0171187
711.622	0.0172414
711.700	0.0171922
711.779	0.0171154
711.857	0.0171364
711.935	0.0170576
712.013	0.0169987
712.091	0.0167046
712.169	0.0165248
712.247	0.0162910
712.325	0.0160647
712.404	0.0160133
712.482	0.0158397
712.560	0.0160556
712.638	0.0158673
712.716	0.0160535
712.794	0.0162467
712.872	0.0163809
712.950	0.0165298
713.029	0.0165131
713.107	0.0168723
713.185	0.0172479
713.263	0.0173505
713.341	0.0176260
713.419	0.0176403
713.497	0.0179322
713.575	0.0179401
713.654	0.0179499
713.732	0.0181176
713.810	0.0180621
713.888	0.0179941
713.966	0.0178030
714.044	0.0175669
714.122	0.0173895
714.200	0.0171074
714.279	0.0169402
714.357	0.0168910
714.435	0.0166959
714.513	0.0166138
714.591	0.0166242
714.669	0.0166538
714.747	0.0165698
714.825	0.0166980
714.904	0.0166264
714.982	0.0168476
715.060	0.0169352
715.138	0.0169311
715.216	0.0169164
715.294	0.0169816
715.372	0.0170010
715.450	0.0168211
715.529	0.0167384
715.607	0.0167184
715.685	0.0166846
715.763	0.0164011
715.841	0.0163937
715.919	0.0163994
715.997	0.0163456
716.075	0.0163146
716.154	0.0162658
716.232	0.0162246
716.310	0.0162637
716.388	0.0161942
716.466	0.0161507
716.544	0.0163055
716.622	0.0162933
716.700	0.0164252
716.779	0.0164687
716.857	0.0165182
716.935	0.0165521
717.013	0.0165617
717.091	0.0164651
717.169	0.0166125
717.247	0.0166351
717.325	0.0165185
717.404	0.0165859
717.482	0.0165891
717.560	0.0166524
717.638	0.0166631
717.716	0.0166940
717.794	0.0168348
717.872	0.0168919
717.950	0.0168897
718.029	0.0171535
718.107	0.0170864
718.185	0.0171342
718.263	0.0172176
718.341	0.0172129
718.419	0.0174284
718.497	0.0173799
718.575	0.0175119
718.654	0.0176898
718.732	0.0177343
718.810	0.0177306
718.888	0.0177894
718.966	0.0179956
719.044	0.0176836
719.122	0.0178025
719.200	0.0176949
719.279	0.0177654
719.357	0.0176733
719.435	0.0174940
719.513	0.0177235
719.591	0.0174178
719.669	0.0173350
719.747	0.0171442
719.825	0.0169036
719.904	0.0168400
719.982	0.0166284
720.060	0.0166791
720.138	0.0164819
720.216	0.0164725
720.294	0.0164513
720.372	0.0165242
720.450	0.0165228
720.529	0.0165690
720.607	0.0163670
720.685	0.0164392
720.763	0.0164877
720.841	0.0165967
720.919	0.0164998
720.997	0.0163208
721.075	0.0161726
721.154	0.0162711
721.232	0.0160224
721.310	0.0160912
721.388	0.0161349
721.466	0.0159932
721.544	0.0159194
721.622	0.0158509
721.700	0.0157201
721.779	0.0156911
721.857	0.0159191
721.935	0.0161044
722.013	0.0162486
722.091	0.0162768
722.169	0.0165195
722.247	0.0167492
722.325	0.0169318
722.404	0.0169973
722.482	0.0171928
722.560	0.0175446
722.638	0.0175175
722.716	0.0175451
722.794	0.0178235
722.872	0.0176832
722.950	0.0177658
723.029	0.0177395
723.107	0.0178142
723.185	0.0179132
723.263	0.0177571
723.341	0.0176604
723.419	0.0176615
723.497	0.0175996
723.575	0.0175915
723.654	0.0175169
723.732	0.0174935
723.810	0.0175345
723.888	0.0174194
723.966	0.0172450
724.044	0.0171816
724.122	0.0169290
724.200	0.0168166
724.279	0.0167576
724.357	0.0165564
724.435	0.0165012
724.513	0.0162275
724.591	0.0162125
724.669	0.0159562
724.747	0.0157694
724.825	0.0157546
724.904	0.0159048
724.982	0.0158059
725.060	0.0159431
725.138	0.0160563
725.216	0.0160203
725.294	0.0163207
725.372	0.0164365
725.450	0.0165765
725.529	0.0167377
725.607	0.0168370
725.685	0.0168862
725.763	0.0170644
725.841	0.0171115
725.919	0.0170996
725.997	0.0173421
726.075	0.0173918
726.154	0.0172935
726.232	0.0173705
726.310	0.0173933
726.388	0.0173936
726.466	0.0172708
726.544	0.0172143
726.622	0.0173089
726.700	0.0172305
726.779	0.0170443
726.857	0.0170431
726.935	0.0171258
727.013	0.0172256
727.091	0.0170782
727.169	0.0170892
727.247	0.0172626
727.325	0.0169814
727.404	0.0169148
727.482	0.0169612
727.560	0.0169260
727.638	0.0166960
727.716	0.0167783
727.794	0.0166204
727.872	0.0165994
727.950	0.0166558
728.029	0.0163789
728.107	0.0163909
728.185	0.0162740
728.263	0.0163525
728.341	0.0161938
728.419	0.0162288
728.497	0.0161444
728.575	0.0161256
728.654	0.0160931
728.732	0.0162718
728.810	0.0162010
728.888	0.0163221
728.966	0.0165096
729.044	0.0165200
729.122	0.0164929
729.200	0.0166982
729.279	0.0167048
729.357	0.0167753
729.435	0.0168954
729.513	0.0170041
729.591	0.0171280
729.669	0.0173029
729.747	0.0171976
729.825	0.0173225
729.904	0.0174378
729.982	0.0174583
730.060	0.0173586
730.138	0.0174216
730.216	0.0174566
730.294	0.0174411
730.372	0.0172797
730.450	0.0173231
730.529	0.0173937
730.607	0.0170928
730.685	0.0171312
730.763	0.0172143
730.841	0.0170163
730.919	0.0168941
730.997	0.0170312
731.075	0.0168881
731.154	0.0169141
731.232	0.0167587
731.310	0.0166981
731.388	0.0167030
731.466	0.0167954
731.544	0.0167375
731.622	0.0166080
731.700	0.0165792
731.779	0.0166460
731.857	0.0166653
731.935	0.0165623
732.013	0.0166348
732.091	0.0165712
732.169	0.0165356
732.247	0.0166794
732.325	0.0166869
732.404	0.0165937
732.482	0.0165132
732.560	0.0165804
732.638	0.0164143
732.716	0.0163689
732.794	0.0162975
732.872	0.0162946
732.950	0.0164118
733.029	0.0162737
733.107	0.0163965
733.185	0.0165250
733.263	0.0163599
733.341	0.0165433
733.419	0.0167443
733.497	0.0168076
733.575	0.0168290
733.654	0.0168372
733.732	0.0168806
733.810	0.0171157
733.888	0.0172765
733.966	0.0172554
734.044	0.0171417
734.122	0.0174166
734.200	0.0171690
734.279	0.0171031
734.357	0.0171973
734.435	0.0171697
734.513	0.0170967
734.591	0.0169598
734.669	0.0171236
734.747	0.0169978
734.825	0.0168329
734.904	0.0169672
734.982	0.0169308
735.060	0.0169487
735.138	0.0171430
735.216	0.0169391
735.294	0.0169278
735.372	0.0170035
735.450	0.0169894
735.529	0.0168997
735.607	0.0167977
735.685	0.0166574
735.763	0.0167281
735.841	0.0166809
735.919	0.0166049
735.997	0.0166641
736.075	0.0164735
736.154	0.0163717
736.232	0.0166958
736.310	0.0165182
736.388	0.0163918
736.466	0.0164431
736.544	0.0164471
736.622	0.0163396
736.700	0.0163753
736.779	0.0162728
736.857	0.0163652
736.935	0.0163243
737.013	0.0163483
737.091	0.0164855
737.169	0.0166507
737.247	0.0166436
737.325	0.0166602
737.404	0.0167294
737.482	0.0169588
737.560	0.0169493
737.638	0.0171494
737.716	0.0171294
737.794	0.0171340
737.872	0.0171278
737.950	0.0172331
738.029	0.0171474
738.107	0.0171783
738.185	0.0173164
738.263	0.0172485
738.341	0.0171256
738.419	0.0172042
738.497	0.0173278
738.575	0.0171499
738.654	0.0170174
738.732	0.0169821
738.810	0.0170705
738.888	0.0168835
738.966	0.0168110
739.044	0.0167336
739.122	0.0165674
739.200	0.0165283
739.279	0.0166844
739.357	0.0164898
739.435	0.0165644
739.513	0.0163455
739.591	0.0165502
739.669	0.0164008
739.747	0.0165680
739.825	0.0164985
739.904	0.0164246
739.982	0.0163776
740.060	0.0163675
740.138	0.0165556
740.216	0.0166393
740.294	0.0166954
740.372	0.0166789
740.450	0.0166689
740.529	0.0167967
740.607	0.0168520
740.685	0.0167792
740.763	0.0168311
740.841	0.0168954
740.919	0.0169174
740.997	0.0168916
741.075	0.0168703
741.154	0.0169842
741.232	0.0170450
741.310	0.0171938
741.388	0.0171722
741.466	0.0171288
741.544	0.0172168
741.622	0.0173016
741.700	0.0171294
741.779	0.0170486
741.857	0.0171219
741.935	0.0171569
742.013	0.0170378
742.091	0.0169739
742.169	0.0170943
742.247	0.0169368
742.325	0.0169188
742.404	0.0168005
742.482	0.0167440
742.560	0.0167474
742.638	0.0167580
742.716	0.0167142
742.794	0.0166425
742.872	0.0165141
742.950	0.0166508
743.029	0.0166757
743.107	0.0166853
743.185	0.0164103
743.263	0.0166125
743.341	0.0167133
743.419	0.0165990
743.497	0.0167516
743.575	0.0166586
743.654	0.0165604
743.732	0.0167162
743.810	0.0166253
743.888	0.0165524
743.966	0.0167527
744.044	0.0167666
744.122	0.0167845
744.200	0.0168685
744.279	0.0169313
744.357	0.0168810
744.435	0.0167847
744.513	0.0168995
744.591	0.0169788
744.669	0.0170034
744.747	0.0170728
744.825	0.0170354
744.904	0.0169096
744.982	0.0170078
745.060	0.0170025
745.138	0.0168719
745.216	0.0168111
745.294	0.0168124
745.372	0.0168248
745.450	0.0168210
745.529	0.0167262
745.607	0.0165851
745.685	0.0165931
745.763	0.0165990
745.841	0.0166090
745.919	0.0165271
745.997	0.0166345
746.075	0.0166823
746.154	0.0166730
746.232	0.0166644
746.310	0.0167357
746.388	0.0167260
746.466	0.0167884
746.544	0.0167953
746.622	0.0168065
746.700	0.0168084
746.779	0.0167780
746.857	0.0169473
746.935	0.0167906
747.013	0.0168378
747.091	0.0167773
747.169	0.0168491
747.247	0.0166376
747.325	0.0165848
747.404	0.0166875
747.482	0.0167176
747.560	0.0168132
747.638	0.0167319
747.716	0.0168436
747.794	0.0168736
747.872	0.0168394
747.950	0.0167467
748.029	0.0168291
748.107	0.0169196
748.185	0.0168381
748.263	0.0168955
748.341	0.0170522
748.419	0.0170605
748.497	0.0169495
748.575	0.0171349
748.654	0.0170483
748.732	0.0170551
748.810	0.0170040
748.888	0.0169512
748.966	0.0170473
749.044	0.0170723
749.122	0.0169445
749.200	0.0169810
749.279	0.0168000
749.357	0.0169733
749.435	0.0168600
749.513	0.0168881
749.591	0.0168204
749.669	0.0167139
749.747	0.0168403
749.825	0.0168542
749.904	0.0167768
749.982	0.0167416
750.060	0.0167878
750.138	0.0166616
750.216	0.0166924
750.294	0.0165599
750.372	0.0166711
750.450	0.0166441
750.529	0.0166318
750.607	0.0167233
750.685	0.0165719
750.763	0.0165946
750.841	0.0165602
750.919	0.0166437
750.997	0.0165612
751.075	0.0166582
751.154	0.0167542
751.232	0.0167879
751.310	0.0166866
751.388	0.0167491
751.466	0.0168151
751.544	0.0167957
751.622	0.0167726
751.700	0.0167051
751.779	0.0168333
751.857	0.0168880
751.935	0.0169048
752.013	0.0169151
752.091	0.0168923
752.169	0.0170647
752.247	0.0169694
752.325	0.0169487
752.404	0.0170129
752.482	0.0169263
752.560	0.0169182
752.638	0.0169456
752.716	0.0168841
752.794	0.0169708
752.872	0.0169614
752.950	0.0169306
753.029	0.0168665
753.107	0.0168201
753.185	0.0168102
753.263	0.0168145
753.341	0.0166285
753.419	0.0167323
753.497	0.0166390
753.575	0.0166135
753.654	0.0166710
753.732	0.0166789
753.810	0.0167096
753.888	0.0166374
753.966	0.0165888
754.044	0.0167130
754.122	0.0166411
754.200	0.0166920
754.279	0.0167274
754.357	0.0167071
754.435	0.0165449
754.513	0.0167017
754.591	0.0165614
754.669	0.0166637
754.747	0.0168367
754.825	0.0168503
754.904	0.0167577
754.982	0.0168365
755.060	0.0169202
755.138	0.0171482
755.216	0.0170767
755.294	0.0171089
755.372	0.0171162
755.450	0.0172827
755.529	0.0172047
755.607	0.0170905
755.685	0.0172672
755.763	0.0172507
755.841	0.0171349
755.919	0.0168862
755.997	0.0169909
756.075	0.0168913
756.154	0.0168253
756.232	0.0166834
756.310	0.0164660
756.388	0.0165634
756.466	0.0165968
756.544	0.0163544
756.622	0.0165212
756.700	0.0164713
756.779	0.0163083
756.857	0.0164862
756.935	0.0166679
757.013	0.0165853
757.091	0.0167069
757.169	0.0169344
757.247	0.0169931
757.325	0.0169118
757.404	0.0169405
757.482	0.0170116
757.560	0.0168790
757.638	0.0170480
757.716	0.0169515
757.794	0.0169915
757.872	0.0169448
757.950	0.0168009
758.029	0.0168524
758.107	0.0169193
758.185	0.0167108
758.263	0.0166031
758.341	0.0168241
758.419	0.0166399
758.497	0.0166631
758.575	0.0166816
758.654	0.0166086
758.732	0.0166522
758.810	0.0166806
758.888	0.0166748
758.966	0.0167274
759.044	0.0168839
759.122	0.0168755
759.200	0.0167224
759.279	0.0167654
759.357	0.0168439
759.435	0.0167899
759.513	0.0166885
759.591	0.0166796
759.669	0.0167281
759.747	0.0165764
759.825	0.0167670
759.904	0.0168412
759.982	0.0168781
760.060	0.0167387
760.138	0.0167392
760.216	0.0167416
760.294	0.0169099
760.372	0.0169466
760.450	0.0168726
760.529	0.0170150
760.607	0.0170577
760.685	0.0171090
760.763	0.0170446
760.841	0.0170816
760.919	0.0170064
760.997	0.0170707
761.075	0.0172585
761.154	0.0171466
761.232	0.0170305
761.310	0.0170193
761.388	0.0171395
761.466	0.0169798
761.544	0.0170924
761.622	0.0169145
761.700	0.0168095
761.779	0.0168895
761.857	0.0169873
761.935	0.0168209
762.013	0.0168001
762.091	0.0167140
762.169	0.0167760
762.247	0.0167168
762.325	0.0169336
762.404	0.0168494
762.482	0.0165746
762.560	0.0166556
762.638	0.0166080
762.716	0.0166264
762.794	0.0166370
762.872	0.0166581
762.950	0.0165302
763.029	0.0165867
763.107	0.0166370
763.185	0.0166112
763.263	0.0166682
763.341	0.0167857
763.419	0.0168261
763.497	0.0169642
763.575	0.0169432
763.654	0.0170076
763.732	0.0170208
763.810	0.0172450
763.888	0.0171596
763.966	0.0173022
764.044	0.0174348
764.122	0.0172717
764.200	0.0170721
764.279	0.0171885
764.357	0.0171323
764.435	0.0169466
764.513	0.0170824
764.591	0.0170195
764.669	0.0169013
764.747	0.0168065
764.825	0.0168008
764.904	0.0167307
764.982	0.0166551
765.060	0.0165524
765.138	0.0164766
765.216	0.0165108
765.294	0.0166048
765.372	0.0165277
765.450	0.0165817
765.529	0.0166505
765.607	0.0167670
765.685	0.0168517
765.763	0.0166833
765.841	0.0167955
765.919	0.0168566
765.997	0.0168061
766.075	0.0166887
766.154	0.0167680
766.232	0.0168791
766.310	0.0167557
766.388	0.0167354
766.466	0.0167493
766.544	0.0168400
766.622	0.0168471
766.700	0.0168187
766.779	0.0167757
766.857	0.0168354
766.935	0.0169405
767.013	0.0169405
767.091	0.0170886
767.169	0.0172015
767.247	0.0171526
767.325	0.0171345
767.404	0.0170354
767.482	0.0168823
767.560	0.0169908
767.638	0.0170506
767.716	0.0169446
767.794	0.0168874
767.872	0.0168072
767.950	0.0166853
768.029	0.0168240
768.107	0.0166801
768.185	0.0166203
768.263	0.0165572
768.341	0.0166009
768.419	0.0165971
768.497	0.0165352
768.575	0.0164719
768.654	0.0164616
768.732	0.0164555
768.810	0.0164005
768.888	0.0165714
768.966	0.0165388
769.044	0.0165052
769.122	0.0165610
769.200	0.0165373
769.279	0.0166079
769.357	0.0167269
769.435	0.0166813
769.513	0.0166646
769.591	0.0168156
769.669	0.0168450
769.747	0.0168643
769.825	0.0167376
769.904	0.0168524
769.982	0.0169051
770.060	0.0169524
770.138	0.0167583
770.216	0.0168459
770.294	0.0169552
770.372	0.0168757
770.450	0.0168992
770.529	0.0168411
770.607	0.0167135
770.685	0.0165488
770.763	0.0166239
770.841	0.0165996
770.919	0.0165009
770.997	0.0164352
771.075	0.0164542
771.154	0.0164956
771.232	0.0164706
771.310	0.0165413
771.388	0.0165359
771.466	0.0163657
771.544	0.0164560
771.622	0.0165311
771.700	0.0166581
771.779	0.0165925
771.857	0.0167434
771.935	0.0167869
772.013	0.0168871
772.091	0.0169435
772.169	0.0170799
772.247	0.0171281
772.325	0.0170370
772.404	0.0171503
772.482	0.0171698
772.560	0.0171898
772.638	0.0170402
772.716	0.0171004
772.794	0.0169836
772.872	0.0168391
772.950	0.0170486
773.029	0.0169942
773.107	0.0168960
773.185	0.0168893
773.263	0.0169499
773.341	0.0169807
773.419	0.0168840
773.497	0.0167893
773.575	0.0166479
773.654	0.0167032
773.732	0.0166614
773.810	0.0166152
773.888	0.0167210
773.966	0.0166892
774.044	0.0165635
774.122	0.0165849
774.200	0.0164381
774.279	0.0164746
774.357	0.0163979
774.435	0.0164999
774.513	0.0164678
774.591	0.0163178
774.669	0.0163573
774.747	0.0165457
774.825	0.0165893
774.904	0.0165469
774.982	0.0167433
775.060	0.0167643
775.138	0.0169288
775.216	0.0169270
775.294	0.0167961
775.372	0.0170545
775.450	0.0170657
775.529	0.0171448
775.607	0.0170632
775.685	0.0171664
775.763	0.0172871
775.841	0.0171447
775.919	0.0170043
775.997	0.0169005
776.075	0.0168840
776.154	0.0168714
776.232	0.0168182
776.310	0.0169066
776.388	0.0167579
776.466	0.0166850
776.544	0.0165778
776.622	0.0165323
776.700	0.0164259
776.779	0.0164614
776.857	0.0164939
776.935	0.0163757
777.013	0.0164350
777.091	0.0164568
777.169	0.0163874
777.247	0.0164527
777.325	0.0164982
777.404	0.0166045
777.482	0.0164578
777.560	0.0166776
777.638	0.0166431
777.716	0.0166091
777.794	0.0166427
777.872	0.0166364
777.950	0.0167614
778.029	0.0168295
778.107	0.0168185
778.185	0.0168692
778.263	0.0169157
778.341	0.0169228
778.419	0.0169769
778.497	0.0171125
778.575	0.0170744
778.654	0.0170503
778.732	0.0171545
778.810	0.0170064
778.888	0.0170374
778.966	0.0170119
779.044	0.0169869
779.122	0.0169939
779.200	0.0170400
779.279	0.0168343
779.357	0.0167755
779.435	0.0169246
779.513	0.0168137
779.591	0.0168250
779.669	0.0167002
779.747	0.0166906
779.825	0.0166713
779.904	0.0166846
779.982	0.0165372
780.060	0.0166914
780.138	0.0167923
780.216	0.0165707
780.294	0.0165781
780.372	0.0166467
780.450	0.0166126
780.529	0.0168202
780.607	0.0166446
780.685	0.0167077
780.763	0.0167588
780.841	0.0167918
780.919	0.0167931
780.997	0.0168707
781.075	0.0168688
781.154	0.0169833
781.232	0.0170188
781.310	0.0170394
781.388	0.0170380
781.466	0.0170299
781.544	0.0170023
781.622	0.0170962
781.700	0.0169144
781.779	0.0169542
781.857	0.0169699
781.935	0.0169514
782.013	0.0170300
782.091	0.0169771
782.169	0.0168065
782.247	0.0170905
782.325	0.0169365
782.404	0.0167429
782.482	0.0167129
782.560	0.0167340
782.638	0.0167474
782.716	0.0166518
782.794	0.0166130
782.872	0.0164331
782.950	0.0163942
783.029	0.0163755
783.107	0.0165141
783.185	0.0163670
783.263	0.0165208
783.341	0.0164911
783.419	0.0165268
783.497	0.0166021
783.575	0.0166421
783.654	0.0166096
783.732	0.0167289
783.810	0.0167892
783.888	0.0169027
783.966	0.0169189
784.044	0.0169796
784.122	0.0170337
784.200	0.0172137
784.279	0.0171077
784.357	0.0171940
784.435	0.0172061
784.513	0.0173093
784.591	0.0171714
784.669	0.0172519
784.747	0.0173596
784.825	0.0172620
784.904	0.0172475
784.982	0.0171754
785.060	0.0171634
785.138	0.0172564
785.216	0.0170679
785.294	0.0171956
785.372	0.0170148
785.450	0.0170096
785.529	0.0169012
785.607	0.0168766
785.685	0.0167135
785.763	0.0166235
785.841	0.0165317
785.919	0.0165923
785.997	0.0165711
786.075	0.0165098
786.154	0.0164164
786.232	0.0166042
786.310	0.0164993
786.388	0.0162324
786.466	0.0163398
786.544	0.0161106
786.622	0.0162026
786.700	0.0163321
786.779	0.0162064
786.857	0.0163145
786.935	0.0164297
787.013	0.0165487
787.091	0.0166536
787.169	0.0165779
787.247	0.0168070
787.325	0.0168297
787.404	0.0169302
787.482	0.0169421
787.560	0.0170029
787.638	0.0171324
787.716	0.0171032
787.794	0.0172129
787.872	0.0172549
787.950	0.0171947
788.029	0.0173421
788.107	0.0173203
788.185	0.0173092
788.263	0.0172894
788.341	0.0174179
788.419	0.0172873
788.497	0.0172572
788.575	0.0172167
788.654	0.0170984
788.732	0.0169916
788.810	0.0170089
788.888	0.0169870
788.966	0.0170087
789.044	0.0169245
789.122	0.0167695
789.200	0.0166652
789.279	0.0167350
789.357	0.0165768
789.435	0.0164487
789.513	0.0165611
789.591	0.0165502
789.669	0.0164169
789.747	0.0165656
789.825	0.0164235
789.904	0.0164132
789.982	0.0162754
790.060	0.0163218
790.138	0.0163993
790.216	0.0164795
790.294	0.0165195
790.372	0.0164917
790.450	0.0166485
790.529	0.0165697
790.607	0.0166230
790.685	0.0167619
790.763	0.0166920
790.841	0.0167416
790.919	0.0167118
790.997	0.0168583
791.075	0.0169489
791.154	0.0169113
791.232	0.0171037
791.310	0.0169930
791.388	0.0170357
791.466	0.0171008
791.544	0.0171362
791.622	0.0171149
791.700	0.0171117
791.779	0.0169454
791.857	0.0171221
791.935	0.0171471
792.013	0.0171359
792.091	0.0169441
792.169	0.0170052
792.247	0.0170631
792.325	0.0169820
792.404	0.0169354
792.482	0.0168963
792.560	0.0166708
792.638	0.0167605
792.716	0.0167707
792.794	0.0166579
792.872	0.0166591
792.950	0.0165704
793.029	0.0165324
793.107	0.0164697
793.185	0.0165112
793.263	0.0163651
793.341	0.0164313
793.419	0.0165204
793.497	0.0165205
793.575	0.0165917
793.654	0.0166252
793.732	0.0166730
793.810	0.0166855
793.888	0.0166476
793.966	0.0166305
794.044	0.0166958
794.122	0.0168172
794.200	0.0167580
794.279	0.0169235
794.357	0.0168675
794.435	0.0170158
794.513	0.0170119
794.591	0.0170541
794.669	0.0170843
794.747	0.0170771
794.825	0.0169650
794.904	0.0170428
794.982	0.0169974
795.060	0.0170188
795.138	0.0168887
795.216	0.0169603
795.294	0.0169749
795.372	0.0169929
795.450	0.0169147
795.529	0.0167828
795.607	0.0168742
795.685	0.0167548
795.763	0.0166692
795.841	0.0166880
795.919	0.0166062
795.997	0.0166104
796.075	0.0165999
796.154	0.0166374
796.232	0.0165541
796.310	0.0166748
796.388	0.0167310
796.466	0.0167583
796.544	0.0167258
796.622	0.0167570
796.700	0.0167182
796.779	0.0166882
796.857	0.0168324
796.935	0.0169510
797.013	0.0169577
797.091	0.0168768
797.169	0.0168365
797.247	0.0169853
797.325	0.0168483
797.404	0.0168580
797.482	0.0169766
797.560	0.0169180
797.638	0.0169169
797.716	0.0169810
797.794	0.0168394
797.872	0.0168895
797.950	0.0168558
798.029	0.0168103
798.107	0.0167441
798.185	0.0167918
798.263	0.0167728
798.341	0.0166241
798.419	0.0168187
798.497	0.0167308
798.575	0.0166967
798.654	0.0166873
798.732	0.0168262
798.810	0.0167171
798.888	0.0166820
798.966	0.0168691
799.044	0.0167949
799.122	0.0166874
799.200	0.0168474
799.279	0.0167268
799.357	0.0168015
799.435	0.0167518
799.513	0.0167365
799.591	0.0166805
799.669	0.0166220
799.747	0.0165837
799.825	0.0167290
799.904	0.0166513
799.982	0.0166235
800.060	0.0166595
800.138	0.0165176
800.216	0.0164855
800.294	0.0167093
800.372	0.0166465
800.450	0.0166089
800.529	0.0166132
800.607	0.0166962
800.685	0.0167593
800.763	0.0167361
800.841	0.0168227
800.919	0.0166470
800.997	0.0168617
801.075	0.0167921
801.154	0.0169686
801.232	0.0171215
801.310	0.0168963
801.388	0.0169431
801.466	0.0171033
801.544	0.0169909
801.622	0.0168184
801.700	0.0170300
801.779	0.0171030
801.857	0.0169393
801.935	0.0169477
802.013	0.0170677
802.091	0.0171319
802.169	0.0168652
802.247	0.0168564
802.325	0.0168565
802.404	0.0168350
802.482	0.0167788
802.560	0.0167339
802.638	0.0167368
802.716	0.0167614
802.794	0.0166425
802.872	0.0166931
802.950	0.0167191
803.029	0.0167914
803.107	0.0167534
803.185	0.0167725
803.263	0.0167726
803.341	0.0167067
803.419	0.0167084
803.497	0.0166855
803.575	0.0166996
803.654	0.0166014
803.732	0.0166308
803.810	0.0166970
803.888	0.0167969
803.966	0.0167917
804.044	0.0168052
804.122	0.0168531
804.200	0.0169146
804.279	0.0169766
804.357	0.0168684
804.435	0.0168098
804.513	0.0168960
804.591	0.0168500
804.669	0.0169016
804.747	0.0169213
804.825	0.0168386
804.904	0.0168771
804.982	0.0169563
805.060	0.0169295
805.138	0.0170193
805.216	0.0169326
805.294	0.0168819
805.372	0.0168077
805.450	0.0168536
805.529	0.0168796
805.607	0.0169962
805.685	0.0168086
805.763	0.0168022
805.841	0.0169323
805.919	0.0169286
805.997	0.0169283
806.075	0.0169185
806.154	0.0169370
806.232	0.0167398
806.310	0.0168385
806.388	0.0168809
806.466	0.0168188
806.544	0.0168652
806.622	0.0168240
806.700	0.0169365
806.779	0.0169207
806.857	0.0167028
806.935	0.0169504
807.013	0.0169001
807.091	0.0167635
807.169	0.0168388
807.247	0.0168703
807.325	0.0166701
807.404	0.0168484
807.482	0.0166794
807.560	0.0167421
807.638	0.0164782
807.716	0.0166385
807.794	0.0167657
807.872	0.0167469
807.950	0.0168166
808.029	0.0168942
808.107	0.0168574
808.185	0.0165762
808.263	0.0167803
808.341	0.0168008
808.419	0.0167175
808.497	0.0166420
808.575	0.0166940
808.654	0.0167544
808.732	0.0168912
808.810	0.0166825
808.888	0.0167654
808.966	0.0168432
809.044	0.0169067
809.122	0.0169141
809.200	0.0168327
809.279	0.0168949
809.357	0.0169489
809.435	0.0171011
809.513	0.0171576
809.591	0.0171089
809.669	0.0170853
809.747	0.0171545
809.825	0.0172890
809.904	0.0171938
809.982	0.0172298
810.060	0.0170679
810.138	0.0172961
810.216	0.0170844
810.294	0.0171433
810.372	0.0169537
810.450	0.0169787
810.529	0.0170566
810.607	0.0168298
810.685	0.0168784
810.763	0.0169731
810.841	0.0168528
810.919	0.0169182
810.997	0.0169151
811.075	0.0167126
811.154	0.0167346
811.232	0.0167776
811.310	0.0167789
811.388	0.0167746
811.466	0.0166251
811.544	0.0166575
811.622	0.0166184
811.700	0.0166502
811.779	0.0165525
811.857	0.0165862
811.935	0.0167053
812.013	0.0167333
812.091	0.0166967
812.169	0.0167888
812.247	0.0166924
812.325	0.0166824
812.404	0.0164523
812.482	0.0166743
812.560	0.0168224
812.638	0.0168159
812.716	0.0167709
812.794	0.0166888
812.872	0.0168501
812.950	0.0169180
813.029	0.0170588
813.107	0.0169626
813.185	0.0169310
813.263	0.0170704
813.341	0.0169946
813.419	0.0171187
813.497	0.0171249
813.575	0.0170685
813.654	0.0170397
813.732	0.0170827
813.810	0.0169888
813.888	0.0170822
813.966	0.0170572
814.044	0.0171089
814.122	0.0169294
814.200	0.0170158
814.279	0.0169645
814.357	0.0169883
814.435	0.0170211
814.513	0.0169800
814.591	0.0169834
814.669	0.0170073
814.747	0.0168163
814.825	0.0169142
814.904	0.0168473
814.982	0.0168759
815.060	0.0167445
815.138	0.0168037
815.216	0.0167960
815.294	0.0167323
815.372	0.0166042
815.450	0.0166875
815.529	0.0166723
815.607	0.0165240
815.685	0.0166302
815.763	0.0166907
815.841	0.0165614
815.919	0.0165885
815.997	0.0166225
816.075	0.0166633
816.154	0.0167204
816.232	0.0167335
816.310	0.0165820
816.388	0.0166914
816.466	0.0167504
816.544	0.0167544
816.622	0.0167433
816.700	0.0168216
816.779	0.0168691
816.857	0.0169528
816.935	0.0169197
817.013	0.0169718
817.091	0.0168062
817.169	0.0168401
817.247	0.0169008
817.325	0.0168349
817.404	0.0169217
817.482	0.0168439
817.560	0.0168957
817.638	0.0170869
817.716	0.0169726
817.794	0.0169550
817.872	0.0170040
817.950	0.0168436
818.029	0.0169155
818.107	0.0168758
818.185	0.0167520
818.263	0.0168627
818.341	0.0167432
818.419	0.0166985
818.497	0.0167611
818.575	0.0167358
818.654	0.0166193
818.732	0.0167727
818.810	0.0167795
818.888	0.0167652
818.966	0.0165356
819.044	0.0166731
819.122	0.0166050
819.200	0.0167873
819.279	0.0168899
819.357	0.0167098
819.435	0.0168228
819.513	0.0169263
819.591	0.0167168
819.669	0.0167061
819.747	0.0168963
819.825	0.0168741
819.904	0.0169127
819.982	0.0167892
820.060	0.0167944
820.138	0.0169650
820.216	0.0169127
820.294	0.0168920
820.372	0.0169528
820.450	0.0170134
820.529	0.0169903
820.607	0.0169637
820.685	0.0170026
820.763	0.0169107
820.841	0.0170643
820.919	0.0170113
820.997	0.0169615
821.075	0.0170603
821.154	0.0169395
821.232	0.0171226
821.310	0.0169666
821.388	0.0168748
821.466	0.0170983
821.544	0.0170351
821.622	0.0169692
821.700	0.0169659
821.779	0.0168028
821.857	0.0169421
821.935	0.0170372
822.013	0.0169415
822.091	0.0167959
822.169	0.0167746
822.247	0.0167018
822.325	0.0166834
822.404	0.0166772
822.482	0.0166898
822.560	0.0166457
822.638	0.0165221
822.716	0.0165736
822.794	0.0165220
822.872	0.0166199
822.950	0.0166312
823.029	0.0165910
823.107	0.0166045
823.185	0.0165781
823.263	0.0165320
823.341	0.0167229
823.419	0.0166202
823.497	0.0167582
823.575	0.0167272
823.654	0.0169290
823.732	0.0168226
823.810	0.0168956
823.888	0.0168801
823.966	0.0170303
824.044	0.0171084
824.122	0.0169796
824.200	0.0169978
824.279	0.0169981
824.357	0.0170512
824.435	0.0168970
824.513	0.0170083
824.591	0.0169300
824.669	0.0168844
824.747	0.0168726
824.825	0.0167894
824.904	0.0169376
824.982	0.0169585
825.060	0.0168560
825.138	0.0167612
825.216	0.0168765
825.294	0.0168536
825.372	0.0168214
825.450	0.0168341
825.529	0.0168796
825.607	0.0167860
825.685	0.0166689
825.763	0.0168289
825.841	0.0168312
825.919	0.0167799
825.997	0.0168893
826.075	0.0167378
826.154	0.0168559
826.232	0.0166966
826.310	0.0169099
826.388	0.0167117
826.466	0.0167535
826.544	0.0167377
826.622	0.0168555
826.700	0.0168167
826.779	0.0167242
826.857	0.0167294
826.935	0.0168758
827.013	0.0169471
827.091	0.0168589
827.169	0.0169137
827.247	0.0169483
827.325	0.0168848
827.404	0.0170276
827.482	0.0169149
827.560	0.0169723
827.638	0.0170286
827.716	0.0168753
827.794	0.0169183
827.872	0.0168427
827.950	0.0168159
828.029	0.0168803
828.107	0.0168260
828.185	0.0167947
828.263	0.0168389
828.341	0.0167263
828.419	0.0167063
828.497	0.0169991
828.575	0.0168867
828.654	0.0168571
828.732	0.0167940
828.810	0.0167108
828.888	0.0169774
828.966	0.0167625
829.044	0.0168195
829.122	0.0167564
829.200	0.0166988
829.279	0.0167463
829.357	0.0169486
829.435	0.0167544
829.513	0.0168382
829.591	0.0168839
829.669	0.0167823
829.747	0.0167688
829.825	0.0167667
829.904	0.0169048
829.982	0.0167128
830.060	0.0168932
830.138	0.0168498
830.216	0.0168775
830.294	0.0170208
830.372	0.0170165
830.450	0.0170269
830.529	0.0169781
830.607	0.0170006
830.685	0.0167719
830.763	0.0168147
830.841	0.0169292
830.919	0.0167912
830.997	0.0168539
831.075	0.0168163
831.154	0.0167359
831.232	0.0167725
831.310	0.0168222
831.388	0.0168978
831.466	0.0168250
831.544	0.0167999
831.622	0.0168689
831.700	0.0168073
831.779	0.0169051
831.857	0.0169046
831.935	0.0169875
832.013	0.0168287
832.091	0.0169664
832.169	0.0169196
832.247	0.0168293
832.325	0.0169757
832.404	0.0169791
832.482	0.0168852
832.560	0.0168727
832.638	0.0167661
832.716	0.0169119
832.794	0.0168251
832.872	0.0167918
832.950	0.0168179
833.029	0.0167045
833.107	0.0166260
833.185	0.0166695
833.263	0.0166946
833.341	0.0167072
833.419	0.0166540
833.497	0.0167681
833.575	0.0167289
833.654	0.0166650
833.732	0.0168208
833.810	0.0168864
833.888	0.0168483
833.966	0.0168922
834.044	0.0168953
834.122	0.0170010
834.200	0.0169286
834.279	0.0169896
834.357	0.0169271
834.435	0.0168643
834.513	0.0168793
834.591	0.0170099
834.669	0.0170078
834.747	0.0169066
834.825	0.0170300
834.904	0.0170030
834.982	0.0169511
835.060	0.0169664
835.138	0.0168763
835.216	0.0169234
835.294	0.0167645
835.372	0.0168581
835.450	0.0169376
835.529	0.0167840
835.607	0.0167746
835.685	0.0166817
835.763	0.0167384
835.841	0.0166700
835.919	0.0167850
835.997	0.0168298
836.075	0.0167665
836.154	0.0167591
836.232	0.0167289
836.310	0.0166765
836.388	0.0167731
836.466	0.0168816
836.544	0.0169063
836.622	0.0167257
836.700	0.0168121
836.779	0.0167283
836.857	0.0168378
836.935	0.0168867
837.013	0.0167168
837.091	0.0168417
837.169	0.0168055
837.247	0.0167760
837.325	0.0166601
837.404	0.0167674
837.482	0.0168418
837.560	0.0169144
837.638	0.0166406
837.716	0.0167527
837.794	0.0167219
837.872	0.0167980
837.950	0.0168830
838.029	0.0169523
838.107	0.0169002
838.185	0.0167879
838.263	0.0169064
838.341	0.0168241
838.419	0.0169785
838.497	0.0168282
838.575	0.0170631
838.654	0.0169240
838.732	0.0168606
838.810	0.0169321
838.888	0.0169530
838.966	0.0168471
839.044	0.0167619
839.122	0.0167796
839.200	0.0169285
839.279	0.0168423
839.357	0.0167776
839.435	0.0167091
839.513	0.0166218
839.591	0.0167606
839.669	0.0167636
839.747	0.0167658
839.825	0.0168683
839.904	0.0168114
839.982	0.0169231
840.060	0.0167844
840.138	0.0167302
840.216	0.0168394
840.294	0.0167832
840.372	0.0169722
840.450	0.0168471
840.529	0.0167019
840.607	0.0168900
840.685	0.0169531
840.763	0.0167652
840.841	0.0168320
840.919	0.0169106
840.997	0.0169511
841.075	0.0169254
841.154	0.0170121
841.232	0.0168981
841.310	0.0167849
841.388	0.0169796
841.466	0.0167235
841.544	0.0169408
841.622	0.0167263
841.700	0.0169494
841.779	0.0168155
841.857	0.0169100
841.935	0.0169067
842.013	0.0168548
842.091	0.0167289
842.169	0.0168263
842.247	0.0168661
842.325	0.0166126
842.404	0.0168446
842.482	0.0169389
842.560	0.0169364
842.638	0.0169256
842.716	0.0168737
842.794	0.0167466
842.872	0.0167950
842.950	0.0168369
843.029	0.0167943
843.107	0.0167000
843.185	0.0166977
843.263	0.0167982
843.341	0.0167029
843.419	0.0166901
843.497	0.0167840
843.575	0.0166862
843.654	0.0167239
843.732	0.0167832
843.810	0.0166563
843.888	0.0166566
843.966	0.0166574
844.044	0.0166216
844.122	0.0167818
844.200	0.0166935
844.279	0.0167155
844.357	0.0167084
844.435	0.0167784
844.513	0.0167842
844.591	0.0167883
844.669	0.0167268
844.747	0.0167776
844.825	0.0168063
844.904	0.0168836
844.982	0.0167868
845.060	0.0167991
845.138	0.0169090
845.216	0.0169474
845.294	0.0170131
845.372	0.0169222
845.450	0.0169143
845.529	0.0169661
845.607	0.0170148
845.685	0.0170163
845.763	0.0171043
845.841	0.0169488
845.919	0.0170659
845.997	0.0170572
846.075	0.0169763
846.154	0.0169824
846.232	0.0170135
846.310	0.0171899
846.388	0.0170444
846.466	0.0169895
846.544	0.0168890
846.622	0.0167816
846.700	0.0167809
846.779	0.0166965
846.857	0.0167593
846.935	0.0167255
847.013	0.0167515
847.091	0.0166952
847.169	0.0167049
847.247	0.0167836
847.325	0.0166525
847.404	0.0166898
847.482	0.0167045
847.560	0.0165461
847.638	0.0167464
847.716	0.0165893
847.794	0.0167080
847.872	0.0166568
847.950	0.0166430
848.029	0.0168382
848.107	0.0168942
848.185	0.0167847
848.263	0.0168118
848.341	0.0168729
848.419	0.0168790
848.497	0.0168726
848.575	0.0169222
848.654	0.0169208
848.732	0.0169939
848.810	0.0168382
848.888	0.0170251
848.966	0.0170938
849.044	0.0169659
849.122	0.0170169
849.200	0.0170304
849.279	0.0169847
849.357	0.0169754
849.435	0.0170982
849.513	0.0169676
849.591	0.0167146
849.669	0.0167258
849.747	0.0166267
849.825	0.0167395
849.904	0.0167181
849.982	0.0165863
850.060	0.0165665
850.138	0.0163892
850.216	0.0164930
850.294	0.0165838
850.372	0.0166653
850.450	0.0165688
850.529	0.0166957
850.607	0.0166719
850.685	0.0167719
850.763	0.0168063
850.841	0.0168531
850.919	0.0169106
850.997	0.0169435
851.075	0.0169520
851.154	0.0169896
851.232	0.0170174
851.310	0.0169889
851.388	0.0169329
851.466	0.0170446
851.544	0.0169959
851.622	0.0169749
851.700	0.0169294
851.779	0.0170081
851.857	0.0169411
851.935	0.0170005
852.013	0.0168752
852.091	0.0168789
852.169	0.0169656
852.247	0.0169265
852.325	0.0168476
852.404	0.0169537
852.482	0.0168784
852.560	0.0167426
852.638	0.0167916
852.716	0.0167787
852.794	0.0166759
852.872	0.0167480
852.950	0.0166522
853.029	0.0166238
853.107	0.0166173
853.185	0.0167925
853.263	0.0166536
853.341	0.0165604
853.419	0.0166524
853.497	0.0165961
853.575	0.0165996
853.654	0.0165903
853.732	0.0166025
853.810	0.0168304
853.888	0.0168600
853.966	0.0168387
854.044	0.0168176
854.122	0.0168227
854.200	0.0168144
854.279	0.0169938
854.357	0.0169218
854.435	0.0171009
854.513	0.0168948
854.591	0.0170058
854.669	0.0169067
854.747	0.0170543
854.825	0.0169879
854.904	0.0170120
854.982	0.0169437
855.060	0.0169694
855.138	0.0169755
855.216	0.0169997
855.294	0.0168665
855.372	0.0168913
855.450	0.0169204
855.529	0.0168237
855.607	0.0167416
855.685	0.0168475
855.763	0.0169341
855.841	0.0168832
855.919	0.0167797
855.997	0.0168647
856.075	0.0168291
856.154	0.0168436
856.232	0.0167021
856.310	0.0166858
856.388	0.0167616
856.466	0.0167480
856.544	0.0167541
856.622	0.0167246
856.700	0.0166950
856.779	0.0166956
856.857	0.0167509
856.935	0.0168573
857.013	0.0168168
857.091	0.0167792
857.169	0.0168724
857.247	0.0167905
857.325	0.0168028
857.404	0.0169563
857.482	0.0169086
857.560	0.0169033
857.638	0.0167448
857.716	0.0171881
857.794	0.0168975
857.872	0.0169286
857.950	0.0168678
858.029	0.0168346
858.107	0.0169907
858.185	0.0169506
858.263	0.0169168
858.341	0.0168935
858.419	0.0169215
858.497	0.0168775
858.575	0.0167686
858.654	0.0167940
858.732	0.0169091
858.810	0.0168098
858.888	0.0168749
858.966	0.0167869
859.044	0.0166644
859.122	0.0166698
859.200	0.0167998
859.279	0.0168307
859.357	0.0168391
859.435	0.0166486
859.513	0.0167096
859.591	0.0167492
859.669	0.0168546
859.747	0.0168752
859.825	0.0167691
859.904	0.0169177
859.982	0.0169263
860.060	0.0168512
860.138	0.0169414
860.216	0.0168539
860.294	0.0168251
860.372	0.0168476
860.450	0.0168876
860.529	0.0168846
860.607	0.0169142
860.685	0.0167794
860.763	0.0168282
860.841	0.0168501
860.919	0.0167525
860.997	0.0169359
861.075	0.0168748
861.154	0.0167978
861.232	0.0168999
861.310	0.0167899
861.388	0.0168636
861.466	0.0167710
861.544	0.0168885
861.622	0.0169687
861.700	0.0168058
861.779	0.0168806
861.857	0.0169209
861.935	0.0169555
862.013	0.0168456
862.091	0.0168327
862.169	0.0168788
862.247	0.0167506
862.325	0.0168652
862.404	0.0168163
862.482	0.0167028
862.560	0.0167768
862.638	0.0168295
862.716	0.0167101
862.794	0.0167648
862.872	0.0168789
862.950	0.0167820
863.029	0.0167633
863.107	0.0169405
863.185	0.0167995
863.263	0.0167317
863.341	0.0169118
863.419	0.0168309
863.497	0.0169379
863.575	0.0169244
863.654	0.0168589
863.732	0.0169069
863.810	0.0168116
863.888	0.0168244
863.966	0.0168781
864.044	0.0168503
864.122	0.0168403
864.200	0.0167960
864.279	0.0169232
864.357	0.0168774
864.435	0.0168526
864.513	0.0167735
864.591	0.0167585
864.669	0.0167164
864.747	0.0166195
864.825	0.0167373
864.904	0.0166708
864.982	0.0165909
865.060	0.0165483
865.138	0.0166489
865.216	0.0165639
865.294	0.0166238
865.372	0.0166481
865.450	0.0167188
865.529	0.0166312
865.607	0.0166179
865.685	0.0166093
865.763	0.0166409
865.841	0.0167355
865.919	0.0168460
865.997	0.0168948
866.075	0.0167753
866.154	0.0167849
866.232	0.0168199
866.310	0.0168441
866.388	0.0168737
866.466	0.0168819
866.544	0.0169241
866.622	0.0169119
866.700	0.0168696
866.779	0.0168803
866.857	0.0169312
866.935	0.0170021
867.013	0.0167655
867.091	0.0167218
867.169	0.0167020
867.247	0.0168319
867.325	0.0167142
867.404	0.0168337
867.482	0.0167484
867.560	0.0167255
867.638	0.0168001
867.716	0.0166993
867.794	0.0164553
867.872	0.0166576
867.950	0.0166872
868.029	0.0166579
868.107	0.0167577
868.185	0.0166415
868.263	0.0166019
868.341	0.0166627
868.419	0.0166083
868.497	0.0166728
868.575	0.0167556
868.654	0.0167926
868.732	0.0167871
868.810	0.0167625
868.888	0.0168235
868.966	0.0168792
869.044	0.0168711
869.122	0.0169034
869.200	0.0168134
869.279	0.0169873
869.357	0.0169137
869.435	0.0169541
869.513	0.0167562
869.591	0.0167902
869.669	0.0168141
869.747	0.0167570
869.825	0.0167434
869.904	0.0167638
869.982	0.0168330
870.060	0.0167418
870.138	0.0167622
870.216	0.0167406
870.294	0.0168625
870.372	0.0167124
870.450	0.0167466
870.529	0.0168135
870.607	0.0166213
870.685	0.0165142
870.763	0.0166941
870.841	0.0167461
870.919	0.0166687
870.997	0.0166746
871.075	0.0167582
871.154	0.0166667
871.232	0.0166463
871.310	0.0166811
871.388	0.0166548
871.466	0.0167520
871.544	0.0167234
871.622	0.0167886
871.700	0.0168041
871.779	0.0167843
871.857	0.0168343
871.935	0.0169995
872.013	0.0168160
872.091	0.0167941
872.169	0.0168429
872.247	0.0168932
872.325	0.0168262
872.404	0.0168766
872.482	0.0168593
872.560	0.0167345
872.638	0.0168987
872.716	0.0168874
872.794	0.0168079
872.872	0.0166692
872.950	0.0168121
873.029	0.0167274
873.107	0.0167940
873.185	0.0168092
873.263	0.0168127
873.341	0.0167467
873.419	0.0168517
873.497	0.0167350
873.575	0.0167120
873.654	0.0168595
873.732	0.0166775
873.810	0.0167319
873.888	0.0167631
873.966	0.0166899
874.044	0.0168259
874.122	0.0168030
874.200	0.0167785
874.279	0.0169105
874.357	0.0166625
874.435	0.0167474
874.513	0.0169273
874.591	0.0168438
874.669	0.0168015
874.747	0.0168134
874.825	0.0169375
874.904	0.0168934
874.982	0.0167366
875.060	0.0169000
875.138	0.0168125
875.216	0.0168365
875.294	0.0167936
875.372	0.0168636
875.450	0.0168704
875.529	0.0169614
875.607	0.0169743
875.685	0.0168394
875.763	0.0168391
875.841	0.0167870
875.919	0.0168944
875.997	0.0167883
876.075	0.0166964
876.154	0.0168177
876.232	0.0166362
876.310	0.0165285
876.388	0.0165015
876.466	0.0166435
876.544	0.0164503
876.622	0.0166003
876.700	0.0167352
876.779	0.0166847
876.857	0.0167590
876.935	0.0169347
877.013	0.0168885
877.091	0.0169537
877.169	0.0169189
877.247	0.0169368
877.325	0.0169936
877.404	0.0170326
877.482	0.0170887
877.560	0.0170443
877.638	0.0169738
877.716	0.0169656
877.794	0.0170647
877.872	0.0169189
877.950	0.0170718
878.029	0.0172202
878.107	0.0170807
878.185	0.0169309
878.263	0.0169118
878.341	0.0167679
878.419	0.0168206
878.497	0.0167596
878.575	0.0167771
878.654	0.0167329
878.732	0.0164368
878.810	0.0164867
878.888	0.0164395
878.966	0.0164513
879.044	0.0163890
879.122	0.0163432
879.200	0.0167006
879.279	0.0166556
879.357	0.0166502
879.435	0.0167724
879.513	0.0167463
879.591	0.0165784
879.669	0.0168127
879.747	0.0167943
879.825	0.0167525
879.904	0.0164643
879.982	0.0164068
880.060	0.0164627
880.138	0.0164079
880.216	0.0165643
880.294	0.0165915
880.372	0.0165757
880.450	0.0166183
880.529	0.0167315
880.607	0.0169785
880.685	0.0170755
880.763	0.0171700
880.841	0.0172934
880.919	0.0175435
880.997	0.0175558
881.075	0.0173302
881.154	0.0175220
881.232	0.0176711
881.310	0.0174611
881.388	0.0173232
881.466	0.0173840
881.544	0.0173735
881.622	0.0171651
881.700	0.0170668
881.779	0.0170579
881.857	0.0168897
881.935	0.0167666
882.013	0.0165946
882.091	0.0166795
882.169	0.0164970
882.247	0.0164226
882.325	0.0165106
882.404	0.0166164
882.482	0.0164937
882.560	0.0165447
882.638	0.0165965
882.716	0.0165577
882.794	0.0164663
882.872	0.0165707
882.950	0.0164772
883.029	0.0164526
883.107	0.0163682
883.185	0.0162849
883.263	0.0161781
883.341	0.0162593
883.419	0.0164503
883.497	0.0163435
883.575	0.0164370
883.654	0.0166077
883.732	0.0165713
883.810	0.0168360
883.888	0.0169093
883.966	0.0170915
884.044	0.0171998
884.122	0.0173384
884.200	0.0173627
884.279	0.0173874
884.357	0.0173435
884.435	0.0173069
884.513	0.0175158
884.591	0.0173573
884.669	0.0171349
884.747	0.0172835
884.825	0.0171212
884.904	0.0169162
884.982	0.0168170
885.060	0.0166298
885.138	0.0165860
885.216	0.0165730
885.294	0.0163782
885.372	0.0165505
885.450	0.0165306
885.529	0.0166208
885.607	0.0167142
885.685	0.0166883
885.763	0.0166897
885.841	0.0168645
885.919	0.0168288
885.997	0.0168415
886.075	0.0168761
886.154	0.0168810
886.232	0.0167339
886.310	0.0168363
886.388	0.0166228
886.466	0.0165720
886.544	0.0165041
886.622	0.0164886
886.700	0.0164209
886.779	0.0165679
886.857	0.0164708
886.935	0.0165250
887.013	0.0166813
887.091	0.0168130
887.169	0.0168925
887.247	0.0170000
887.325	0.0171806
887.404	0.0171422
887.482	0.0172899
887.560	0.0173632
887.638	0.0172878
887.716	0.0174578
887.794	0.0172874
887.872	0.0170702
887.950	0.0169888
888.029	0.0169948
888.107	0.0168340
888.185	0.0166650
888.263	0.0165634
888.341	0.0164698
888.419	0.0164535
888.497	0.0163859
888.575	0.0163407
888.654	0.0163106
888.732	0.0163634
888.810	0.0164085
888.888	0.0163536
888.966	0.0164973
889.044	0.0165337
889.122	0.0167205
889.200	0.0167738
889.279	0.0168810
889.357	0.0168865
889.435	0.0169311
889.513	0.0171030
889.591	0.0170608
889.669	0.0169990
889.747	0.0170014
889.825	0.0171702
889.904	0.0168881
889.982	0.0168950
890.060	0.0168770
890.138	0.0169478
890.216	0.0169176
890.294	0.0169372
890.372	0.0168921
890.450	0.0168580
890.529	0.0169022
890.607	0.0169329
890.685	0.0167860
890.763	0.0167958
890.841	0.0169953
890.919	0.0168832
890.997	0.0166771
891.075	0.0165037
891.154	0.0164590
891.232	0.0164356
891.310	0.0163331
891.388	0.0164115
891.466	0.0163598
891.544	0.0161869
891.622	0.0162060
891.700	0.0163987
891.779	0.0163976
891.857	0.0166122
891.935	0.0167094
892.013	0.0167898
892.091	0.0169927
892.169	0.0170225
892.247	0.0169984
892.325	0.0171295
892.404	0.0171470
892.482	0.0172070
892.560	0.0171709
892.638	0.0170207
892.716	0.0172439
892.794	0.0171014
892.872	0.0170966
892.950	0.0170266
893.029	0.0169615
893.107	0.0168572
893.185	0.0168239
893.263	0.0168803
893.341	0.0168466
893.419	0.0168738
893.497	0.0167760
893.575	0.0167105
893.654	0.0166026
893.732	0.0164679
893.810	0.0167072
893.888	0.0167452
893.966	0.0165377
894.044	0.0166254
894.122	0.0167004
894.200	0.0166666
894.279	0.0165953
894.357	0.0166103
894.435	0.0165392
894.513	0.0166042
894.591	0.0166593
894.669	0.0164914
894.747	0.0165311
894.825	0.0166156
894.904	0.0164821
894.982	0.0164774
895.060	0.0165443
895.138	0.0164785
895.216	0.0166425
895.294	0.0165434
895.372	0.0165271
895.450	0.0165794
895.529	0.0166497
895.607	0.0168524
895.685	0.0168394
895.763	0.0168768
895.841	0.0168606
895.919	0.0169256
895.997	0.0172564
896.075	0.0172430
896.154	0.0171972
896.232	0.0172714
896.310	0.0172524
896.388	0.0172987
896.466	0.0172737
896.544	0.0172529
896.622	0.0172012
896.700	0.0171715
896.779	0.0171600
896.857	0.0170788
896.935	0.0170050
897.013	0.0167779
897.091	0.0170124
897.169	0.0167622
897.247	0.0166709
897.325	0.0167433
897.404	0.0167178
897.482	0.0166458
897.560	0.0166830
897.638	0.0167077
897.716	0.0164829
897.794	0.0164891
897.872	0.0165268
897.950	0.0165644
898.029	0.0165398
898.107	0.0164705
898.185	0.0164135
898.263	0.0164327
898.341	0.0164680
898.419	0.0164307
898.497	0.0164343
898.575	0.0165495
898.654	0.0166218
898.732	0.0165178
898.810	0.0166014
898.888	0.0167812
898.966	0.0167418
899.044	0.0168244
899.122	0.0168971
899.200	0.0170025
899.279	0.0169256
899.357	0.0170413
899.435	0.0170053
899.513	0.0171436
899.591	0.0171609
899.669	0.0172258
899.747	0.0172204
899.825	0.0172720
899.904	0.0172298
899.982	0.0171197
900.060	0.0171239
900.138	0.0171436
900.216	0.0170791
900.294	0.0169576
900.372	0.0169394
900.450	0.0169349
900.529	0.0169351
900.607	0.0168244
900.685	0.0167978
900.763	0.0167206
900.841	0.0166707
900.919	0.0168501
900.997	0.0168575
901.075	0.0166956
901.154	0.0167083
901.232	0.0167279
901.310	0.0168865
901.388	0.0167850
901.466	0.0166496
901.544	0.0168973
901.622	0.0167270
901.700	0.0168073
901.779	0.0166705
901.857	0.0167754
901.935	0.0167351
902.013	0.0166330
902.091	0.0167742
902.169	0.0168719
902.247	0.0166737
902.325	0.0167522
902.404	0.0167068
902.482	0.0167014
902.560	0.0167805
902.638	0.0167775
902.716	0.0168650
902.794	0.0168043
902.872	0.0168538
902.950	0.0169465
903.029	0.0170034
903.107	0.0169406
903.185	0.0170927
903.263	0.0169348
903.341	0.0169954
903.419	0.0166821
903.497	0.0169355
903.575	0.0170390
903.654	0.0168661
903.732	0.0168160
903.810	0.0168036
903.888	0.0168719
903.966	0.0167639
904.044	0.0167323
904.122	0.0167168
904.200	0.0166958
904.279	0.0167307
904.357	0.0167332
904.435	0.0168745
904.513	0.0169147
904.591	0.0167612
904.669	0.0166608
904.747	0.0168656
904.825	0.0168826
904.904	0.0168758
904.982	0.0169884
905.060	0.0168704
905.138	0.0169086
905.216	0.0169673
905.294	0.0168907
905.372	0.0167973
905.450	0.0170261
905.529	0.0169678
905.607	0.0168494
905.685	0.0169639
905.763	0.0168916
905.841	0.0169643
905.919	0.0170379
905.997	0.0169041
906.075	0.0168226
906.154	0.0168391
906.232	0.0168135
906.310	0.0168240
906.388	0.0168233
906.466	0.0168676
906.544	0.0168517
906.622	0.0169497
906.700	0.0167982
906.779	0.0166492
906.857	0.0167228
906.935	0.0166408
907.013	0.0167475
907.091	0.0166866
907.169	0.0166034
907.247	0.0165536
907.325	0.0165873
907.404	0.0165796
907.482	0.0164762
907.560	0.0166025
907.638	0.0165504
907.716	0.0167522
907.794	0.0167421
907.872	0.0168102
907.950	0.0168124
908.029	0.0169223
908.107	0.0169595
908.185	0.0169028
908.263	0.0170733
908.341	0.0169840
908.419	0.0172208
908.497	0.0171445
908.575	0.0170223
908.654	0.0170619
908.732	0.0171307
908.810	0.0171328
908.888	0.0170821
908.966	0.0170377
909.044	0.0170454
909.122	0.0169291
909.200	0.0168819
909.279	0.0168397
909.357	0.0168370
909.435	0.0169156
909.513	0.0168182
909.591	0.0168577
909.669	0.0168922
909.747	0.0166006
909.825	0.0166622
909.904	0.0166749
909.982	0.0164944
910.060	0.0164761
910.138	0.0165829
910.216	0.0165718
910.294	0.0165173
910.372	0.0165910
910.450	0.0165953
910.529	0.0166149
910.607	0.0166435
910.685	0.0165784
910.763	0.0167590
910.841	0.0167752
910.919	0.0168842
910.997	0.0168681
911.075	0.0169063
911.154	0.0168982
911.232	0.0168629
911.310	0.0170121
911.388	0.0170458
911.466	0.0171035
911.544	0.0171590
911.622	0.0170448
911.700	0.0171368
911.779	0.0171530
911.857	0.0171423
911.935	0.0170661
912.013	0.0170818
912.091	0.0170130
912.169	0.0170992
912.247	0.0171015
912.325	0.0168156
912.404	0.0167888
912.482	0.0168622
912.560	0.0168592
912.638	0.0166830
912.716	0.0166061
912.794	0.0167177
912.872	0.0166153
912.950	0.0166651
913.029	0.0164745
913.107	0.0165596
913.185	0.0164368
913.263	0.0165591
913.341	0.0165926
913.419	0.0166575
913.497	0.0166742
913.575	0.0165788
913.654	0.0165038
913.732	0.0165868
913.810	0.0165940
913.888	0.0166602
913.966	0.0166866
914.044	0.0167074
914.122	0.0168065
914.200	0.0167944
914.279	0.0168237
914.357	0.0168900
914.435	0.0169663
914.513	0.0170744
914.591	0.0170497
914.669	0.0170327
914.747	0.0169671
914.825	0.0170846
914.904	0.0170629
914.982	0.0171821
915.060	0.0171382
915.138	0.0171207
915.216	0.0171032
915.294	0.0172004
915.372	0.0171230
915.450	0.0171531
915.529	0.0170852
915.607	0.0169905
915.685	0.0170361
915.763	0.0168159
915.841	0.0170065
915.919	0.0168394
915.997	0.0167870
916.075	0.0167471
916.154	0.0166964
916.232	0.0165207
916.310	0.0165945
916.388	0.0165529
916.466	0.0165302
916.544	0.0164301
916.622	0.0165922
916.700	0.0165347
916.779	0.0167615
916.857	0.0166654
916.935	0.0166549
917.013	0.0166468
917.091	0.0167507
917.169	0.0168180
917.247	0.0168008
917.325	0.0168781
917.404	0.0168796
917.482	0.0169835
917.560	0.0169893
917.638	0.0168941
917.716	0.0166726
917.794	0.0167869
917.872	0.0169237
917.950	0.0168515
918.029	0.0169701
918.107	0.0168805
918.185	0.0168799
918.263	0.0169596
918.341	0.0167451
918.419	0.0168502
918.497	0.0168488
918.575	0.0171510
918.654	0.0170859
918.732	0.0169595
918.810	0.0169678
918.888	0.0169401
918.966	0.0169410
919.044	0.0169401
919.122	0.0169846
919.200	0.0170050
919.279	0.0169354
919.357	0.0169524
919.435	0.0169351
919.513	0.0169538
919.591	0.0169710
919.669	0.0168725
919.747	0.0169221
919.825	0.0169243
919.904	0.0168565
