06/03/2022	14:00:45	Ver.	4.1	UNKNOWN
Optical Delay	599.981738	Delta X		0.078125	Sweeps	1	Scan Rate	0/0
Coordinates	Axis 1	NaN	Axis 2	NaN	Axis 3	NaN	Axis 4	NaN	Axis 5	NaN	Axis 6	0.000000
TX Power	0.000000	RX Power	0.000000

599.982	0.0168198
600.060	0.0167660
600.138	0.0168177
600.216	0.0168967
600.294	0.0168055
600.372	0.0167412
600.450	0.0168018
600.529	0.0167673
600.607	0.0168077
600.685	0.0168455
600.763	0.0170415
600.841	0.0168560
600.919	0.0167456
600.997	0.0167535
601.075	0.0166698
601.154	0.0168192
601.232	0.0169260
601.310	0.0168307
601.388	0.0169126
601.466	0.0167912
601.544	0.0167805
601.622	0.0168652
601.700	0.0169519
601.779	0.0167838
601.857	0.0168853
601.935	0.0169104
602.013	0.0167566
602.091	0.0167503
602.169	0.0167829
602.247	0.0168277
602.325	0.0169880
602.404	0.0167849
602.482	0.0168382
602.560	0.0168454
602.638	0.0168903
602.716	0.0167521
602.794	0.0169356
602.872	0.0169440
602.950	0.0168551
603.029	0.0168948
603.107	0.0168127
603.185	0.0168018
603.263	0.0168734
603.341	0.0168305
603.419	0.0169497
603.497	0.0169470
603.575	0.0169176
603.654	0.0169006
603.732	0.0168269
603.810	0.0167271
603.888	0.0167103
603.966	0.0168620
604.044	0.0168406
604.122	0.0168431
604.200	0.0169061
604.279	0.0168369
604.357	0.0167548
604.435	0.0167830
604.513	0.0169153
604.591	0.0169994
604.669	0.0168830
604.747	0.0167945
604.825	0.0168994
604.904	0.0167566
604.982	0.0168332
605.060	0.0168366
605.138	0.0166835
605.216	0.0167996
605.294	0.0167739
605.372	0.0168378
605.450	0.0166624
605.529	0.0168734
605.607	0.0167400
605.685	0.0168090
605.763	0.0167941
605.841	0.0168549
605.919	0.0167496
605.997	0.0167911
606.075	0.0167454
606.154	0.0167966
606.232	0.0167506
606.310	0.0168552
606.388	0.0167685
606.466	0.0166998
606.544	0.0168303
606.622	0.0168666
606.700	0.0168528
606.779	0.0168692
606.857	0.0168151
606.935	0.0167216
607.013	0.0166761
607.091	0.0168864
607.169	0.0167346
607.247	0.0166648
607.325	0.0167580
607.404	0.0169117
607.482	0.0169007
607.560	0.0167617
607.638	0.0167527
607.716	0.0168690
607.794	0.0168719
607.872	0.0167144
607.950	0.0168281
608.029	0.0168274
608.107	0.0168478
608.185	0.0169016
608.263	0.0167928
608.341	0.0168686
608.419	0.0168130
608.497	0.0168407
608.575	0.0168817
608.654	0.0168065
608.732	0.0168155
608.810	0.0167782
608.888	0.0169197
608.966	0.0167574
609.044	0.0166689
609.122	0.0168514
609.200	0.0168404
609.279	0.0168481
609.357	0.0167244
609.435	0.0168399
609.513	0.0169304
609.591	0.0168508
609.669	0.0168926
609.747	0.0168755
609.825	0.0167944
609.904	0.0167233
609.982	0.0168896
610.060	0.0168295
610.138	0.0169878
610.216	0.0168460
610.294	0.0169392
610.372	0.0168700
610.450	0.0168165
610.529	0.0167042
610.607	0.0167199
610.685	0.0168218
610.763	0.0167201
610.841	0.0168461
610.919	0.0168544
610.997	0.0168302
611.075	0.0169730
611.154	0.0169465
611.232	0.0168022
611.310	0.0169121
611.388	0.0169582
611.466	0.0167252
611.544	0.0169198
611.622	0.0169165
611.700	0.0168848
611.779	0.0168665
611.857	0.0169133
611.935	0.0167209
612.013	0.0170171
612.091	0.0169263
612.169	0.0169809
612.247	0.0168888
612.325	0.0168230
612.404	0.0167970
612.482	0.0169308
612.560	0.0167478
612.638	0.0169368
612.716	0.0169282
612.794	0.0169442
612.872	0.0167661
612.950	0.0168797
613.029	0.0168239
613.107	0.0168319
613.185	0.0168859
613.263	0.0168549
613.341	0.0168360
613.419	0.0168080
613.497	0.0168642
613.575	0.0168145
613.654	0.0167133
613.732	0.0168425
613.810	0.0167225
613.888	0.0167772
613.966	0.0168398
614.044	0.0168753
614.122	0.0167611
614.200	0.0167789
614.279	0.0168643
614.357	0.0169080
614.435	0.0168041
614.513	0.0168468
614.591	0.0167699
614.669	0.0167668
614.747	0.0168505
614.825	0.0169418
614.904	0.0168180
614.982	0.0168417
615.060	0.0168958
615.138	0.0169144
615.216	0.0167799
615.294	0.0170356
615.372	0.0169158
615.450	0.0168583
615.529	0.0168459
615.607	0.0169104
615.685	0.0168945
615.763	0.0168624
615.841	0.0168515
615.919	0.0169059
615.997	0.0169464
616.075	0.0168916
616.154	0.0168433
616.232	0.0168583
616.310	0.0169402
616.388	0.0168816
616.466	0.0168348
616.544	0.0167725
616.622	0.0168230
616.700	0.0168746
616.779	0.0167778
616.857	0.0167352
616.935	0.0168359
617.013	0.0168259
617.091	0.0167030
617.169	0.0167740
617.247	0.0167680
617.325	0.0168622
617.404	0.0167874
617.482	0.0168385
617.560	0.0168567
617.638	0.0167498
617.716	0.0167730
617.794	0.0168224
617.872	0.0167899
617.950	0.0169006
618.029	0.0168520
618.107	0.0167523
618.185	0.0168286
618.263	0.0167434
618.341	0.0168613
618.419	0.0168944
618.497	0.0167955
618.575	0.0169567
618.654	0.0168008
618.732	0.0168298
618.810	0.0167945
618.888	0.0169310
618.966	0.0169662
619.044	0.0169802
619.122	0.0168249
619.200	0.0168690
619.279	0.0168036
619.357	0.0168292
619.435	0.0169500
619.513	0.0167952
619.591	0.0167963
619.669	0.0167370
619.747	0.0169884
619.825	0.0168890
619.904	0.0168365
619.982	0.0169037
620.060	0.0168834
620.138	0.0167220
620.216	0.0166738
620.294	0.0167200
620.372	0.0168568
620.450	0.0168249
620.529	0.0167797
620.607	0.0167341
620.685	0.0168798
620.763	0.0168445
620.841	0.0168196
620.919	0.0167172
620.997	0.0169474
621.075	0.0169519
621.154	0.0169445
621.232	0.0168910
621.310	0.0168320
621.388	0.0168446
621.466	0.0169386
621.544	0.0168194
621.622	0.0167984
621.700	0.0169131
621.779	0.0169551
621.857	0.0168356
621.935	0.0168990
622.013	0.0168478
622.091	0.0168256
622.169	0.0168036
622.247	0.0168089
622.325	0.0169955
622.404	0.0168072
622.482	0.0168502
622.560	0.0168973
622.638	0.0167393
622.716	0.0167715
622.794	0.0168805
622.872	0.0168713
622.950	0.0166976
623.029	0.0166509
623.107	0.0168023
623.185	0.0168437
623.263	0.0168811
623.341	0.0169453
623.419	0.0167205
623.497	0.0167839
623.575	0.0166855
623.654	0.0168572
623.732	0.0168244
623.810	0.0168361
623.888	0.0169292
623.966	0.0167996
624.044	0.0167340
624.122	0.0168663
624.200	0.0167468
624.279	0.0168600
624.357	0.0168216
624.435	0.0167376
624.513	0.0169173
624.591	0.0167609
624.669	0.0168100
624.747	0.0167812
624.825	0.0167575
624.904	0.0168923
624.982	0.0168898
625.060	0.0167924
625.138	0.0166879
625.216	0.0169199
625.294	0.0168707
625.372	0.0167777
625.450	0.0167702
625.529	0.0168889
625.607	0.0167169
625.685	0.0167605
625.763	0.0167242
625.841	0.0169107
625.919	0.0167789
625.997	0.0166837
626.075	0.0167677
626.154	0.0169328
626.232	0.0168519
626.310	0.0167589
626.388	0.0168423
626.466	0.0169248
626.544	0.0167912
626.622	0.0168358
626.700	0.0168697
626.779	0.0168662
626.857	0.0168967
626.935	0.0168692
627.013	0.0168484
627.091	0.0168041
627.169	0.0168096
627.247	0.0168991
627.325	0.0168087
627.404	0.0168842
627.482	0.0168767
627.560	0.0169200
627.638	0.0168655
627.716	0.0169136
627.794	0.0168602
627.872	0.0168475
627.950	0.0167165
628.029	0.0167975
628.107	0.0168339
628.185	0.0170148
628.263	0.0168796
628.341	0.0168655
628.419	0.0168587
628.497	0.0168382
628.575	0.0168753
628.654	0.0166840
628.732	0.0168483
628.810	0.0168025
628.888	0.0167503
628.966	0.0168849
629.044	0.0168858
629.122	0.0168780
629.200	0.0168938
629.279	0.0168797
629.357	0.0167969
629.435	0.0168731
629.513	0.0167696
629.591	0.0168037
629.669	0.0168199
629.747	0.0167855
629.825	0.0168095
629.904	0.0168655
629.982	0.0167941
630.060	0.0168597
630.138	0.0168370
630.216	0.0167752
630.294	0.0167722
630.372	0.0167888
630.450	0.0167878
630.529	0.0168591
630.607	0.0168520
630.685	0.0166601
630.763	0.0167219
630.841	0.0169458
630.919	0.0168745
630.997	0.0168729
631.075	0.0166692
631.154	0.0169431
631.232	0.0166840
631.310	0.0169132
631.388	0.0168855
631.466	0.0168510
631.544	0.0168175
631.622	0.0168441
631.700	0.0169408
631.779	0.0166629
631.857	0.0168486
631.935	0.0168949
632.013	0.0168194
632.091	0.0169211
632.169	0.0167697
632.247	0.0168368
632.325	0.0167846
632.404	0.0168574
632.482	0.0168697
632.560	0.0167327
632.638	0.0169631
632.716	0.0169781
632.794	0.0168097
632.872	0.0168852
632.950	0.0168684
633.029	0.0167270
633.107	0.0167562
633.185	0.0168868
633.263	0.0169308
633.341	0.0168732
633.419	0.0169034
633.497	0.0168584
633.575	0.0168687
633.654	0.0168382
633.732	0.0168671
633.810	0.0168295
633.888	0.0167296
633.966	0.0168361
634.044	0.0169748
634.122	0.0169411
634.200	0.0168309
634.279	0.0169019
634.357	0.0167474
634.435	0.0168369
634.513	0.0169173
634.591	0.0168275
634.669	0.0167652
634.747	0.0167497
634.825	0.0167129
634.904	0.0167590
634.982	0.0168124
635.060	0.0168443
635.138	0.0168551
635.216	0.0169087
635.294	0.0169378
635.372	0.0168807
635.450	0.0166870
635.529	0.0168733
635.607	0.0168740
635.685	0.0167744
635.763	0.0167659
635.841	0.0168290
635.919	0.0168151
635.997	0.0168445
636.075	0.0167953
636.154	0.0167049
636.232	0.0168507
636.310	0.0168772
636.388	0.0167794
636.466	0.0168101
636.544	0.0168102
636.622	0.0169053
636.700	0.0168751
636.779	0.0168761
636.857	0.0167753
636.935	0.0168534
637.013	0.0169680
637.091	0.0167039
637.169	0.0168040
637.247	0.0168949
637.325	0.0168182
637.404	0.0168578
637.482	0.0169413
637.560	0.0167859
637.638	0.0168931
637.716	0.0168218
637.794	0.0168269
637.872	0.0167580
637.950	0.0167973
638.029	0.0168185
638.107	0.0168299
638.185	0.0169513
638.263	0.0170027
638.341	0.0169412
638.419	0.0169257
638.497	0.0167427
638.575	0.0168533
638.654	0.0167493
638.732	0.0169253
638.810	0.0169870
638.888	0.0167046
638.966	0.0169120
639.044	0.0168178
639.122	0.0168323
639.200	0.0169678
639.279	0.0169389
639.357	0.0168782
639.435	0.0168409
639.513	0.0167793
639.591	0.0168937
639.669	0.0168604
639.747	0.0167777
639.825	0.0168547
639.904	0.0168830
639.982	0.0169145
640.060	0.0168468
640.138	0.0168993
640.216	0.0168005
640.294	0.0168633
640.372	0.0168316
640.450	0.0168190
640.529	0.0168634
640.607	0.0168032
640.685	0.0169186
640.763	0.0168008
640.841	0.0168436
640.919	0.0169528
640.997	0.0168089
641.075	0.0169200
641.154	0.0169549
641.232	0.0168078
641.310	0.0168878
641.388	0.0169296
641.466	0.0169443
641.544	0.0169669
641.622	0.0169123
641.700	0.0169775
641.779	0.0168513
641.857	0.0168144
641.935	0.0167207
642.013	0.0168749
642.091	0.0168300
642.169	0.0168202
642.247	0.0169516
642.325	0.0169234
642.404	0.0166894
642.482	0.0167668
642.560	0.0169292
642.638	0.0168698
642.716	0.0170217
642.794	0.0168605
642.872	0.0168392
642.950	0.0168428
643.029	0.0169164
643.107	0.0168010
643.185	0.0169102
643.263	0.0169228
643.341	0.0168622
643.419	0.0169859
643.497	0.0168491
643.575	0.0166717
643.654	0.0169205
643.732	0.0168610
643.810	0.0167229
643.888	0.0167175
643.966	0.0168081
644.044	0.0169090
644.122	0.0169703
644.200	0.0169128
644.279	0.0168471
644.357	0.0168646
644.435	0.0169384
644.513	0.0167959
644.591	0.0166788
644.669	0.0168056
644.747	0.0169077
644.825	0.0169514
644.904	0.0168526
644.982	0.0168337
645.060	0.0168619
645.138	0.0169363
645.216	0.0169656
645.294	0.0169566
645.372	0.0168970
645.450	0.0167648
645.529	0.0168903
645.607	0.0168259
645.685	0.0167870
645.763	0.0168174
645.841	0.0167731
645.919	0.0168192
645.997	0.0167354
646.075	0.0170279
646.154	0.0169462
646.232	0.0167522
646.310	0.0168179
646.388	0.0167369
646.466	0.0168701
646.544	0.0168895
646.622	0.0168163
646.700	0.0168125
646.779	0.0168452
646.857	0.0168719
646.935	0.0167961
647.013	0.0168853
647.091	0.0168730
647.169	0.0168214
647.247	0.0168244
647.325	0.0169428
647.404	0.0168244
647.482	0.0167782
647.560	0.0168346
647.638	0.0170953
647.716	0.0169237
647.794	0.0167998
647.872	0.0168468
647.950	0.0169226
648.029	0.0167240
648.107	0.0169553
648.185	0.0168875
648.263	0.0167619
648.341	0.0167593
648.419	0.0168341
648.497	0.0168138
648.575	0.0168294
648.654	0.0169138
648.732	0.0168164
648.810	0.0168506
648.888	0.0167856
648.966	0.0168446
649.044	0.0168042
649.122	0.0168674
649.200	0.0168449
649.279	0.0168565
649.357	0.0168447
649.435	0.0168803
649.513	0.0168146
649.591	0.0168359
649.669	0.0168015
649.747	0.0168307
649.825	0.0166489
649.904	0.0168571
649.982	0.0167787
650.060	0.0168671
650.138	0.0170033
650.216	0.0168425
650.294	0.0168603
650.372	0.0168151
650.450	0.0167361
650.529	0.0168970
650.607	0.0168341
650.685	0.0169266
650.763	0.0168152
650.841	0.0168715
650.919	0.0168004
650.997	0.0167789
651.075	0.0166589
651.154	0.0167447
651.232	0.0169469
651.310	0.0167156
651.388	0.0168314
651.466	0.0168545
651.544	0.0168011
651.622	0.0166856
651.700	0.0167476
651.779	0.0168219
651.857	0.0167947
651.935	0.0168931
652.013	0.0167930
652.091	0.0168942
652.169	0.0167460
652.247	0.0168154
652.325	0.0169720
652.404	0.0168424
652.482	0.0168559
652.560	0.0167480
652.638	0.0167844
652.716	0.0165875
652.794	0.0168201
652.872	0.0168822
652.950	0.0168494
653.029	0.0168893
653.107	0.0168530
653.185	0.0168526
653.263	0.0168851
653.341	0.0167763
653.419	0.0167528
653.497	0.0168289
653.575	0.0169830
653.654	0.0168204
653.732	0.0168885
653.810	0.0168682
653.888	0.0167931
653.966	0.0167694
654.044	0.0167652
654.122	0.0168253
654.200	0.0168735
654.279	0.0168890
654.357	0.0168102
654.435	0.0168237
654.513	0.0168303
654.591	0.0168724
654.669	0.0168984
654.747	0.0167629
654.825	0.0168427
654.904	0.0169460
654.982	0.0168441
655.060	0.0168268
655.138	0.0167609
655.216	0.0168132
655.294	0.0167986
655.372	0.0169200
655.450	0.0169407
655.529	0.0169074
655.607	0.0168573
655.685	0.0169590
655.763	0.0168967
655.841	0.0168744
655.919	0.0168924
655.997	0.0167224
656.075	0.0168937
656.154	0.0168732
656.232	0.0169369
656.310	0.0168723
656.388	0.0168394
656.466	0.0168531
656.544	0.0169341
656.622	0.0167796
656.700	0.0167748
656.779	0.0169266
656.857	0.0168480
656.935	0.0168027
657.013	0.0168913
657.091	0.0168252
657.169	0.0168370
657.247	0.0168005
657.325	0.0168244
657.404	0.0168685
657.482	0.0169035
657.560	0.0169510
657.638	0.0169327
657.716	0.0168695
657.794	0.0167821
657.872	0.0168111
657.950	0.0168941
658.029	0.0169073
658.107	0.0168401
658.185	0.0169946
658.263	0.0167719
658.341	0.0169359
658.419	0.0169046
658.497	0.0169260
658.575	0.0169980
658.654	0.0168580
658.732	0.0169149
658.810	0.0169436
658.888	0.0168847
658.966	0.0168378
659.044	0.0169051
659.122	0.0169798
659.200	0.0169671
659.279	0.0167745
659.357	0.0168783
659.435	0.0168169
659.513	0.0170117
659.591	0.0168950
659.669	0.0168184
659.747	0.0168783
659.825	0.0168777
659.904	0.0167422
659.982	0.0169685
660.060	0.0168394
660.138	0.0168263
660.216	0.0169310
660.294	0.0168318
660.372	0.0168629
660.450	0.0169765
660.529	0.0168829
660.607	0.0167579
660.685	0.0170236
660.763	0.0168085
660.841	0.0169254
660.919	0.0168835
660.997	0.0168766
661.075	0.0169113
661.154	0.0169420
661.232	0.0169742
661.310	0.0169222
661.388	0.0168832
661.466	0.0169152
661.544	0.0169053
661.622	0.0168559
661.700	0.0168522
661.779	0.0168806
661.857	0.0169624
661.935	0.0168491
662.013	0.0167831
662.091	0.0168496
662.169	0.0168924
662.247	0.0169707
662.325	0.0168060
662.404	0.0168748
662.482	0.0169458
662.560	0.0168118
662.638	0.0169913
662.716	0.0170341
662.794	0.0167679
662.872	0.0169717
662.950	0.0170763
663.029	0.0169350
663.107	0.0168240
663.185	0.0170507
663.263	0.0170835
663.341	0.0168855
663.419	0.0169817
663.497	0.0167962
663.575	0.0168191
663.654	0.0168172
663.732	0.0169162
663.810	0.0169765
663.888	0.0170586
663.966	0.0170300
664.044	0.0170273
664.122	0.0169672
664.200	0.0169211
664.279	0.0168446
664.357	0.0169084
664.435	0.0168118
664.513	0.0169651
664.591	0.0169902
664.669	0.0169215
664.747	0.0169838
664.825	0.0167810
664.904	0.0168510
664.982	0.0169265
665.060	0.0168089
665.138	0.0169298
665.216	0.0169377
665.294	0.0168223
665.372	0.0168665
665.450	0.0169529
665.529	0.0169286
665.607	0.0169007
665.685	0.0168200
665.763	0.0168816
665.841	0.0169017
665.919	0.0167739
665.997	0.0169193
666.075	0.0168357
666.154	0.0168675
666.232	0.0168816
666.310	0.0168586
666.388	0.0167832
666.466	0.0168262
666.544	0.0170126
666.622	0.0169715
666.700	0.0168095
666.779	0.0168186
666.857	0.0168967
666.935	0.0169622
667.013	0.0169018
667.091	0.0167765
667.169	0.0168783
667.247	0.0167834
667.325	0.0169646
667.404	0.0169876
667.482	0.0168948
667.560	0.0169056
667.638	0.0168399
667.716	0.0167928
667.794	0.0168771
667.872	0.0169921
667.950	0.0168455
668.029	0.0168460
668.107	0.0168518
668.185	0.0169557
668.263	0.0169096
668.341	0.0167797
668.419	0.0167860
668.497	0.0167337
668.575	0.0169473
668.654	0.0167656
668.732	0.0169324
668.810	0.0168712
668.888	0.0168657
668.966	0.0169263
669.044	0.0167199
669.122	0.0167957
669.200	0.0169985
669.279	0.0168724
669.357	0.0167592
669.435	0.0168226
669.513	0.0169705
669.591	0.0167960
669.669	0.0168452
669.747	0.0168433
669.825	0.0169392
669.904	0.0169277
669.982	0.0167132
670.060	0.0168007
670.138	0.0168721
670.216	0.0169604
670.294	0.0167935
670.372	0.0168196
670.450	0.0168526
670.529	0.0168338
670.607	0.0168117
670.685	0.0168909
670.763	0.0167398
670.841	0.0167578
670.919	0.0169865
670.997	0.0167414
671.075	0.0167269
671.154	0.0167741
671.232	0.0168341
671.310	0.0169031
671.388	0.0168619
671.466	0.0169074
671.544	0.0169543
671.622	0.0167562
671.700	0.0168580
671.779	0.0168591
671.857	0.0170493
671.935	0.0168360
672.013	0.0167908
672.091	0.0168825
672.169	0.0169057
672.247	0.0169454
672.325	0.0168356
672.404	0.0169450
672.482	0.0169446
672.560	0.0168700
672.638	0.0170165
672.716	0.0168050
672.794	0.0169116
672.872	0.0168099
672.950	0.0169006
673.029	0.0168066
673.107	0.0168002
673.185	0.0167930
673.263	0.0168198
673.341	0.0169105
673.419	0.0168785
673.497	0.0168897
673.575	0.0169296
673.654	0.0168594
673.732	0.0167993
673.810	0.0167452
673.888	0.0168666
673.966	0.0169341
674.044	0.0168389
674.122	0.0170029
674.200	0.0169498
674.279	0.0168491
674.357	0.0168459
674.435	0.0168094
674.513	0.0168017
674.591	0.0168880
674.669	0.0168443
674.747	0.0167484
674.825	0.0168243
674.904	0.0167988
674.982	0.0169176
675.060	0.0167090
675.138	0.0168367
675.216	0.0167700
675.294	0.0168260
675.372	0.0167193
675.450	0.0168089
675.529	0.0168572
675.607	0.0169388
675.685	0.0169428
675.763	0.0168488
675.841	0.0169636
675.919	0.0169564
675.997	0.0170286
676.075	0.0168832
676.154	0.0168514
676.232	0.0169220
676.310	0.0169003
676.388	0.0169002
676.466	0.0167694
676.544	0.0168202
676.622	0.0168741
676.700	0.0168121
676.779	0.0167779
676.857	0.0169040
676.935	0.0167344
677.013	0.0168653
677.091	0.0167605
677.169	0.0167813
677.247	0.0169917
677.325	0.0169384
677.404	0.0168903
677.482	0.0169977
677.560	0.0170449
677.638	0.0170480
677.716	0.0168987
677.794	0.0169736
677.872	0.0168227
677.950	0.0170911
678.029	0.0169631
678.107	0.0169613
678.185	0.0168256
678.263	0.0168484
678.341	0.0170045
678.419	0.0169676
678.497	0.0167474
678.575	0.0169034
678.654	0.0168314
678.732	0.0167373
678.810	0.0168018
678.888	0.0167826
678.966	0.0167493
679.044	0.0168132
679.122	0.0168774
679.200	0.0167185
679.279	0.0167226
679.357	0.0167263
679.435	0.0168442
679.513	0.0168276
679.591	0.0167046
679.669	0.0168894
679.747	0.0167992
679.825	0.0169496
679.904	0.0168114
679.982	0.0169141
680.060	0.0170615
680.138	0.0168456
680.216	0.0169043
680.294	0.0170291
680.372	0.0171152
680.450	0.0170699
680.529	0.0170723
680.607	0.0169478
680.685	0.0169867
680.763	0.0170879
680.841	0.0169584
680.919	0.0168938
680.997	0.0168548
681.075	0.0169498
681.154	0.0168462
681.232	0.0168338
681.310	0.0168087
681.388	0.0169312
681.466	0.0169508
681.544	0.0170534
681.622	0.0169157
681.700	0.0168736
681.779	0.0168756
681.857	0.0166200
681.935	0.0165713
682.013	0.0168233
682.091	0.0165894
682.169	0.0166544
682.247	0.0165060
682.325	0.0165002
682.404	0.0165372
682.482	0.0164913
682.560	0.0162237
682.638	0.0161745
682.716	0.0160780
682.794	0.0160510
682.872	0.0159090
682.950	0.0160193
683.029	0.0160651
683.107	0.0164310
683.185	0.0166327
683.263	0.0169527
683.341	0.0173717
683.419	0.0178352
683.497	0.0180384
683.575	0.0181797
683.654	0.0181245
683.732	0.0182195
683.810	0.0179194
683.888	0.0176278
683.966	0.0171561
684.044	0.0166376
684.122	0.0163502
684.200	0.0158090
684.279	0.0157678
684.357	0.0159111
684.435	0.0159833
684.513	0.0163773
684.591	0.0166579
684.669	0.0168556
684.747	0.0173201
684.825	0.0176139
684.904	0.0179218
684.982	0.0180017
685.060	0.0181060
685.138	0.0181346
685.216	0.0179897
685.294	0.0181283
685.372	0.0182440
685.450	0.0182610
685.529	0.0182207
685.607	0.0181101
685.685	0.0182809
685.763	0.0181150
685.841	0.0178258
685.919	0.0175011
685.997	0.0168211
686.075	0.0163127
686.154	0.0154000
686.232	0.0145863
686.310	0.0138522
686.388	0.0132090
686.466	0.0128371
686.544	0.0125705
686.622	0.0124758
686.700	0.0127525
686.779	0.0132053
686.857	0.0136056
686.935	0.0144383
687.013	0.0152359
687.091	0.0158892
687.169	0.0169189
687.247	0.0175601
687.325	0.0180363
687.404	0.0187839
687.482	0.0190607
687.560	0.0194056
687.638	0.0195454
687.716	0.0194711
687.794	0.0193367
687.872	0.0190034
687.950	0.0188062
688.029	0.0186142
688.107	0.0185823
688.185	0.0188203
688.263	0.0189618
688.341	0.0192684
688.419	0.0197164
688.497	0.0199917
688.575	0.0204383
688.654	0.0206744
688.732	0.0209488
688.810	0.0208764
688.888	0.0206475
688.966	0.0201968
689.044	0.0195177
689.122	0.0187682
689.200	0.0177356
689.279	0.0166228
689.357	0.0154147
689.435	0.0139803
689.513	0.0127183
689.591	0.0117112
689.669	0.0105877
689.747	0.00978416
689.825	0.00930344
689.904	0.00907997
689.982	0.00919006
690.060	0.00941162
690.138	0.0102386
690.216	0.0110529
690.294	0.0117926
690.372	0.0129294
690.450	0.0141492
690.529	0.0151907
690.607	0.0161735
690.685	0.0169201
690.763	0.0178467
690.841	0.0186031
690.919	0.0192535
690.997	0.0198731
691.075	0.0207108
691.154	0.0211878
691.232	0.0217798
691.310	0.0223868
691.388	0.0226953
691.466	0.0230852
691.544	0.0234180
691.622	0.0236770
691.700	0.0238457
691.779	0.0238013
691.857	0.0236692
691.935	0.0235161
692.013	0.0228701
692.091	0.0220943
692.169	0.0212950
692.247	0.0203081
692.325	0.0192657
692.404	0.0180643
692.482	0.0168433
692.560	0.0155012
692.638	0.0139032
692.716	0.0123574
692.794	0.0107653
692.872	0.00951309
692.950	0.00818123
693.029	0.00723465
693.107	0.00657410
693.185	0.00620865
693.263	0.00643799
693.341	0.00702568
693.419	0.00770592
693.497	0.00903847
693.575	0.0104475
693.654	0.0119018
693.732	0.0136415
693.810	0.0152385
693.888	0.0167821
693.966	0.0183228
694.044	0.0196978
694.122	0.0206123
694.200	0.0214848
694.279	0.0226250
694.357	0.0229814
694.435	0.0232895
694.513	0.0236164
694.591	0.0236779
694.669	0.0237930
694.747	0.0238903
694.825	0.0237952
694.904	0.0237347
694.982	0.0237114
695.060	0.0234010
695.138	0.0230795
695.216	0.0226037
695.294	0.0220160
695.372	0.0213396
695.450	0.0206548
695.529	0.0197572
695.607	0.0188797
695.685	0.0176051
695.763	0.0165123
695.841	0.0152212
695.919	0.0137859
695.997	0.0125037
696.075	0.0110698
696.154	0.00998703
696.232	0.00879395
696.310	0.00798309
696.388	0.00738029
696.466	0.00720055
696.544	0.00733284
696.622	0.00772057
696.700	0.00849182
696.779	0.00941536
696.857	0.0105295
696.935	0.0117845
697.013	0.0131570
697.091	0.0147432
697.169	0.0162507
697.247	0.0175913
697.325	0.0186961
697.404	0.0198148
697.482	0.0206354
697.560	0.0211906
697.638	0.0216196
697.716	0.0221496
697.794	0.0222189
697.872	0.0223667
697.950	0.0223804
698.029	0.0223341
698.107	0.0223783
698.185	0.0223573
698.263	0.0222639
698.341	0.0219622
698.419	0.0217466
698.497	0.0215195
698.575	0.0210872
698.654	0.0204385
698.732	0.0197216
698.810	0.0190166
698.888	0.0182648
698.966	0.0173803
699.044	0.0163956
699.122	0.0156417
699.200	0.0149358
699.279	0.0141375
699.357	0.0136042
699.435	0.0129543
699.513	0.0126234
699.591	0.0124840
699.669	0.0123676
699.747	0.0124181
699.825	0.0125504
699.904	0.0128536
699.982	0.0130826
700.060	0.0136588
700.138	0.0144785
700.216	0.0149396
700.294	0.0156231
700.372	0.0162363
700.450	0.0168216
700.529	0.0175133
700.607	0.0180478
700.685	0.0185135
700.763	0.0188893
700.841	0.0191564
700.919	0.0191744
700.997	0.0190777
701.075	0.0190224
701.154	0.0186641
701.232	0.0185300
701.310	0.0181770
701.388	0.0179371
701.466	0.0177872
701.544	0.0171490
701.622	0.0169770
701.700	0.0165641
701.779	0.0164297
701.857	0.0160694
701.935	0.0159541
702.013	0.0156618
702.091	0.0156567
702.169	0.0157236
702.247	0.0158213
702.325	0.0158747
702.404	0.0160966
702.482	0.0163385
702.560	0.0164333
702.638	0.0167050
702.716	0.0169172
702.794	0.0171717
702.872	0.0172176
702.950	0.0171163
703.029	0.0172389
703.107	0.0172944
703.185	0.0171085
703.263	0.0171476
703.341	0.0173133
703.419	0.0174017
703.497	0.0174860
703.575	0.0175622
703.654	0.0177736
703.732	0.0179681
703.810	0.0180026
703.888	0.0180382
703.966	0.0181314
704.044	0.0182795
704.122	0.0183281
704.200	0.0183073
704.279	0.0180396
704.357	0.0179095
704.435	0.0176266
704.513	0.0173984
704.591	0.0169170
704.669	0.0164182
704.747	0.0161540
704.825	0.0157407
704.904	0.0155428
704.982	0.0151965
705.060	0.0150147
705.138	0.0149936
705.216	0.0149007
705.294	0.0150576
705.372	0.0151937
705.450	0.0153258
705.529	0.0154989
705.607	0.0155872
705.685	0.0158430
705.763	0.0161053
705.841	0.0164687
705.919	0.0165796
705.997	0.0168479
706.075	0.0170775
706.154	0.0172099
706.232	0.0172186
706.310	0.0173259
706.388	0.0170695
706.466	0.0168888
706.544	0.0167768
706.622	0.0169368
706.700	0.0167556
706.779	0.0165667
706.857	0.0167146
706.935	0.0167155
707.013	0.0167838
707.091	0.0169350
707.169	0.0171535
707.247	0.0172878
707.325	0.0175227
707.404	0.0176584
707.482	0.0177498
707.560	0.0179590
707.638	0.0179659
707.716	0.0179756
707.794	0.0179816
707.872	0.0177444
707.950	0.0177178
708.029	0.0173150
708.107	0.0170303
708.185	0.0167731
708.263	0.0163727
708.341	0.0160706
708.419	0.0159476
708.497	0.0157874
708.575	0.0157127
708.654	0.0157644
708.732	0.0158723
708.810	0.0161244
708.888	0.0163438
708.966	0.0164636
709.044	0.0168272
709.122	0.0170628
709.200	0.0173369
709.279	0.0173297
709.357	0.0176869
709.435	0.0178657
709.513	0.0178497
709.591	0.0177029
709.669	0.0177996
709.747	0.0174582
709.825	0.0173428
709.904	0.0171504
709.982	0.0168459
710.060	0.0166050
710.138	0.0164594
710.216	0.0162049
710.294	0.0161194
710.372	0.0159238
710.450	0.0157926
710.529	0.0157101
710.607	0.0156714
710.685	0.0157808
710.763	0.0158858
710.841	0.0159393
710.919	0.0162127
710.997	0.0162744
711.075	0.0165266
711.154	0.0164885
711.232	0.0167193
711.310	0.0167831
711.388	0.0168520
711.466	0.0168665
711.544	0.0168190
711.622	0.0167647
711.700	0.0166131
711.779	0.0166495
711.857	0.0167197
711.935	0.0166322
712.013	0.0167429
712.091	0.0166818
712.169	0.0166755
712.247	0.0168367
712.325	0.0169862
712.404	0.0168027
712.482	0.0171130
712.560	0.0171578
712.638	0.0173642
712.716	0.0176338
712.794	0.0176828
712.872	0.0180032
712.950	0.0181689
713.029	0.0182339
713.107	0.0181009
713.185	0.0183726
713.263	0.0184398
713.341	0.0184087
713.419	0.0182709
713.497	0.0180399
713.575	0.0178020
713.654	0.0175011
713.732	0.0171475
713.810	0.0168984
713.888	0.0165179
713.966	0.0164203
714.044	0.0160176
714.122	0.0160687
714.200	0.0159245
714.279	0.0156655
714.357	0.0158786
714.435	0.0160010
714.513	0.0162481
714.591	0.0161182
714.669	0.0163123
714.747	0.0163554
714.825	0.0165884
714.904	0.0167422
714.982	0.0165751
715.060	0.0165320
715.138	0.0168049
715.216	0.0166593
715.294	0.0166704
715.372	0.0164159
715.450	0.0163153
715.529	0.0164111
715.607	0.0164236
715.685	0.0162798
715.763	0.0163804
715.841	0.0164310
715.919	0.0162901
715.997	0.0163304
716.075	0.0165414
716.154	0.0166769
716.232	0.0168698
716.310	0.0169366
716.388	0.0169770
716.466	0.0170140
716.544	0.0170589
716.622	0.0172263
716.700	0.0171382
716.779	0.0172502
716.857	0.0172081
716.935	0.0171397
717.013	0.0172951
717.091	0.0171310
717.169	0.0170892
717.247	0.0170372
717.325	0.0169820
717.404	0.0169479
717.482	0.0168778
717.560	0.0169422
717.638	0.0166635
717.716	0.0168449
717.794	0.0167300
717.872	0.0167252
717.950	0.0168815
718.029	0.0168486
718.107	0.0170242
718.185	0.0169869
718.263	0.0171531
718.341	0.0171587
718.419	0.0173772
718.497	0.0175287
718.575	0.0173879
718.654	0.0173103
718.732	0.0175304
718.810	0.0175850
718.888	0.0174371
718.966	0.0175346
719.044	0.0174271
719.122	0.0172413
719.200	0.0173164
719.279	0.0172269
719.357	0.0171320
719.435	0.0170918
719.513	0.0172624
719.591	0.0170941
719.669	0.0169839
719.747	0.0170235
719.825	0.0169873
719.904	0.0169733
719.982	0.0170599
720.060	0.0169243
720.138	0.0169068
720.216	0.0168587
720.294	0.0168037
720.372	0.0167490
720.450	0.0164914
720.529	0.0164793
720.607	0.0163696
720.685	0.0162762
720.763	0.0160968
720.841	0.0158566
720.919	0.0158984
720.997	0.0158177
721.075	0.0158112
721.154	0.0158064
721.232	0.0157427
721.310	0.0158305
721.388	0.0159477
721.466	0.0159238
721.544	0.0160562
721.622	0.0161176
721.700	0.0163191
721.779	0.0163660
721.857	0.0166445
721.935	0.0167971
722.013	0.0168009
722.091	0.0169124
722.169	0.0171549
722.247	0.0171803
722.325	0.0172680
722.404	0.0174421
722.482	0.0173593
722.560	0.0174536
722.638	0.0177639
722.716	0.0179078
722.794	0.0178757
722.872	0.0178893
722.950	0.0179040
723.029	0.0180335
723.107	0.0180894
723.185	0.0179684
723.263	0.0179927
723.341	0.0180708
723.419	0.0178985
723.497	0.0177715
723.575	0.0176910
723.654	0.0176356
723.732	0.0175673
723.810	0.0171355
723.888	0.0170767
723.966	0.0167906
724.044	0.0164007
724.122	0.0163936
724.200	0.0161175
724.279	0.0159684
724.357	0.0159433
724.435	0.0158978
724.513	0.0159075
724.591	0.0158749
724.669	0.0159222
724.747	0.0158562
724.825	0.0159931
724.904	0.0161945
724.982	0.0162353
725.060	0.0162051
725.138	0.0163381
725.216	0.0165176
725.294	0.0165285
725.372	0.0167485
725.450	0.0168813
725.529	0.0170166
725.607	0.0170541
725.685	0.0170531
725.763	0.0171226
725.841	0.0171576
725.919	0.0171935
725.997	0.0171556
726.075	0.0172212
726.154	0.0172297
726.232	0.0172766
726.310	0.0172611
726.388	0.0172147
726.466	0.0173515
726.544	0.0172852
726.622	0.0172060
726.700	0.0172453
726.779	0.0173792
726.857	0.0173849
726.935	0.0173080
727.013	0.0174249
727.091	0.0173237
727.169	0.0173408
727.247	0.0172190
727.325	0.0171135
727.404	0.0171866
727.482	0.0170334
727.560	0.0168068
727.638	0.0167902
727.716	0.0166043
727.794	0.0166239
727.872	0.0164500
727.950	0.0162426
728.029	0.0164069
728.107	0.0161423
728.185	0.0160874
728.263	0.0160872
728.341	0.0162078
728.419	0.0161153
728.497	0.0161037
728.575	0.0162888
728.654	0.0162452
728.732	0.0162894
728.810	0.0165125
728.888	0.0166059
728.966	0.0167140
729.044	0.0166289
729.122	0.0166150
729.200	0.0168317
729.279	0.0168135
729.357	0.0169087
729.435	0.0170119
729.513	0.0168878
729.591	0.0169112
729.669	0.0171259
729.747	0.0171441
729.825	0.0171353
729.904	0.0171636
729.982	0.0172618
730.060	0.0171859
730.138	0.0172686
730.216	0.0173280
730.294	0.0175523
730.372	0.0174458
730.450	0.0174403
730.529	0.0174101
730.607	0.0175076
730.685	0.0175070
730.763	0.0172525
730.841	0.0173264
730.919	0.0172511
730.997	0.0171539
731.075	0.0171019
731.154	0.0170026
731.232	0.0167799
731.310	0.0166795
731.388	0.0165663
731.466	0.0164835
731.544	0.0165131
731.622	0.0163777
731.700	0.0165056
731.779	0.0165291
731.857	0.0165183
731.935	0.0165054
732.013	0.0164483
732.091	0.0165323
732.169	0.0164996
732.247	0.0162708
732.325	0.0165074
732.404	0.0165310
732.482	0.0165421
732.560	0.0164315
732.638	0.0164847
732.716	0.0164264
732.794	0.0166560
732.872	0.0165133
732.950	0.0166054
733.029	0.0166878
733.107	0.0166213
733.185	0.0166708
733.263	0.0167253
733.341	0.0168560
733.419	0.0168657
733.497	0.0168900
733.575	0.0168784
733.654	0.0168159
733.732	0.0170085
733.810	0.0170119
733.888	0.0171289
733.966	0.0169518
734.044	0.0170223
734.122	0.0171857
734.200	0.0173043
734.279	0.0173469
734.357	0.0172439
734.435	0.0175151
734.513	0.0174739
734.591	0.0174670
734.669	0.0173951
734.747	0.0175808
734.825	0.0173479
734.904	0.0174092
734.982	0.0171140
735.060	0.0171581
735.138	0.0169711
735.216	0.0170290
735.294	0.0166688
735.372	0.0167742
735.450	0.0166121
735.529	0.0165442
735.607	0.0165937
735.685	0.0164867
735.763	0.0163751
735.841	0.0162094
735.919	0.0163621
735.997	0.0162483
736.075	0.0161567
736.154	0.0162721
736.232	0.0162254
736.310	0.0162030
736.388	0.0163371
736.466	0.0164140
736.544	0.0164198
736.622	0.0165053
736.700	0.0163970
736.779	0.0164892
736.857	0.0167325
736.935	0.0166951
737.013	0.0168269
737.091	0.0167587
737.169	0.0168796
737.247	0.0171156
737.325	0.0170440
737.404	0.0171200
737.482	0.0172606
737.560	0.0173208
737.638	0.0174038
737.716	0.0173441
737.794	0.0171883
737.872	0.0173090
737.950	0.0173833
738.029	0.0173245
738.107	0.0172884
738.185	0.0171364
738.263	0.0171550
738.341	0.0171017
738.419	0.0170967
738.497	0.0170402
738.575	0.0169054
738.654	0.0170023
738.732	0.0168985
738.810	0.0166397
738.888	0.0167928
738.966	0.0166921
739.044	0.0165276
739.122	0.0166080
739.200	0.0166353
739.279	0.0167122
739.357	0.0167572
739.435	0.0167942
739.513	0.0166367
739.591	0.0166753
739.669	0.0168087
739.747	0.0167117
739.825	0.0166338
739.904	0.0169052
739.982	0.0168726
740.060	0.0167162
740.138	0.0167432
740.216	0.0168530
740.294	0.0168536
740.372	0.0167209
740.450	0.0168159
740.529	0.0167960
740.607	0.0167721
740.685	0.0168340
740.763	0.0169236
740.841	0.0170754
740.919	0.0170454
740.997	0.0170447
741.075	0.0172487
741.154	0.0171958
741.232	0.0172466
741.310	0.0173394
741.388	0.0172704
741.466	0.0173698
741.544	0.0173935
741.622	0.0172572
741.700	0.0171827
741.779	0.0170648
741.857	0.0170113
741.935	0.0169508
742.013	0.0169166
742.091	0.0168064
742.169	0.0168100
742.247	0.0167292
742.325	0.0166749
742.404	0.0167461
742.482	0.0165443
742.560	0.0164857
742.638	0.0165779
742.716	0.0166211
742.794	0.0166127
742.872	0.0166720
742.950	0.0167438
743.029	0.0167463
743.107	0.0166154
743.185	0.0167881
743.263	0.0166152
743.341	0.0167298
743.419	0.0169186
743.497	0.0166628
743.575	0.0168752
743.654	0.0168900
743.732	0.0168472
743.810	0.0166848
743.888	0.0167541
743.966	0.0168421
744.044	0.0168494
744.122	0.0169034
744.200	0.0169022
744.279	0.0168203
744.357	0.0169061
744.435	0.0168360
744.513	0.0171073
744.591	0.0169849
744.669	0.0169421
744.747	0.0169204
744.825	0.0170551
744.904	0.0170619
744.982	0.0169295
745.060	0.0168198
745.138	0.0168681
745.216	0.0166777
745.294	0.0166092
745.372	0.0166447
745.450	0.0166326
745.529	0.0165214
745.607	0.0164573
745.685	0.0165539
745.763	0.0165856
745.841	0.0165881
745.919	0.0167395
745.997	0.0166531
746.075	0.0165342
746.154	0.0167570
746.232	0.0169431
746.310	0.0169241
746.388	0.0168525
746.466	0.0169702
746.544	0.0170043
746.622	0.0169881
746.700	0.0170476
746.779	0.0169759
746.857	0.0169639
746.935	0.0168948
747.013	0.0169823
747.091	0.0168745
747.169	0.0167223
747.247	0.0166739
747.325	0.0167487
747.404	0.0167995
747.482	0.0168167
747.560	0.0167039
747.638	0.0168971
747.716	0.0168884
747.794	0.0168531
747.872	0.0170071
747.950	0.0170373
748.029	0.0169370
748.107	0.0169319
748.185	0.0171012
748.263	0.0172015
748.341	0.0171988
748.419	0.0170354
748.497	0.0171684
748.575	0.0170316
748.654	0.0170770
748.732	0.0170934
748.810	0.0170219
748.888	0.0170668
748.966	0.0169791
749.044	0.0169710
749.122	0.0168163
749.200	0.0170918
749.279	0.0167899
749.357	0.0169977
749.435	0.0167789
749.513	0.0168114
749.591	0.0168220
749.669	0.0166785
749.747	0.0167357
749.825	0.0167747
749.904	0.0165894
749.982	0.0165063
750.060	0.0166070
750.138	0.0165828
750.216	0.0166391
750.294	0.0165917
750.372	0.0165987
750.450	0.0165440
750.529	0.0166262
750.607	0.0166088
750.685	0.0167039
750.763	0.0167560
750.841	0.0168185
750.919	0.0169658
750.997	0.0168599
751.075	0.0168474
751.154	0.0167933
751.232	0.0168974
751.310	0.0170416
751.388	0.0169042
751.466	0.0169651
751.544	0.0169608
751.622	0.0170192
751.700	0.0170981
751.779	0.0169114
751.857	0.0170918
751.935	0.0169965
752.013	0.0169293
752.091	0.0170955
752.169	0.0170517
752.247	0.0169227
752.325	0.0169875
752.404	0.0168459
752.482	0.0168763
752.560	0.0169435
752.638	0.0169424
752.716	0.0168690
752.794	0.0168378
752.872	0.0168669
752.950	0.0167557
753.029	0.0168775
753.107	0.0167554
753.185	0.0167651
753.263	0.0167608
753.341	0.0168069
753.419	0.0167877
753.497	0.0168747
753.575	0.0168369
753.654	0.0167870
753.732	0.0167774
753.810	0.0168375
753.888	0.0168447
753.966	0.0168905
754.044	0.0168359
754.122	0.0169366
754.200	0.0168934
754.279	0.0169068
754.357	0.0170932
754.435	0.0170921
754.513	0.0171549
754.591	0.0171038
754.669	0.0171565
754.747	0.0170482
754.825	0.0169157
754.904	0.0169439
754.982	0.0170777
755.060	0.0171869
755.138	0.0171224
755.216	0.0171286
755.294	0.0170869
755.372	0.0169759
755.450	0.0169501
755.529	0.0170726
755.607	0.0169437
755.685	0.0168753
755.763	0.0168443
755.841	0.0168283
755.919	0.0167270
755.997	0.0166710
756.075	0.0167018
756.154	0.0166840
756.232	0.0166700
756.310	0.0166444
756.388	0.0167523
756.466	0.0166397
756.544	0.0165997
756.622	0.0168582
756.700	0.0168523
756.779	0.0168282
756.857	0.0168465
756.935	0.0167764
757.013	0.0169891
757.091	0.0170791
757.169	0.0170287
757.247	0.0169348
757.325	0.0171898
757.404	0.0171280
757.482	0.0168852
757.560	0.0170305
757.638	0.0169206
757.716	0.0169627
757.794	0.0171056
757.872	0.0169185
757.950	0.0169467
758.029	0.0168519
758.107	0.0168098
758.185	0.0168081
758.263	0.0167988
758.341	0.0167934
758.419	0.0167113
758.497	0.0168980
758.575	0.0167132
758.654	0.0167103
758.732	0.0167339
758.810	0.0167377
758.888	0.0167866
758.966	0.0167630
759.044	0.0169073
759.122	0.0168443
759.200	0.0167700
759.279	0.0168970
759.357	0.0168305
759.435	0.0168385
759.513	0.0167251
759.591	0.0167077
759.669	0.0167950
759.747	0.0168744
759.825	0.0167673
759.904	0.0167540
759.982	0.0168195
760.060	0.0168549
760.138	0.0170167
760.216	0.0170116
760.294	0.0169703
760.372	0.0171656
760.450	0.0170339
760.529	0.0170380
760.607	0.0171574
760.685	0.0172366
760.763	0.0170037
760.841	0.0170892
760.919	0.0171169
760.997	0.0172338
761.075	0.0173472
761.154	0.0171194
761.232	0.0171328
761.310	0.0170969
761.388	0.0170213
761.466	0.0170307
761.544	0.0168842
761.622	0.0168723
761.700	0.0167963
761.779	0.0166676
761.857	0.0166802
761.935	0.0166366
762.013	0.0166447
762.091	0.0167603
762.169	0.0165450
762.247	0.0165990
762.325	0.0166004
762.404	0.0165798
762.482	0.0165953
762.560	0.0165830
762.638	0.0167366
762.716	0.0169044
762.794	0.0169035
762.872	0.0168998
762.950	0.0170854
763.029	0.0170695
763.107	0.0171003
763.185	0.0170842
763.263	0.0172334
763.341	0.0172698
763.419	0.0172956
763.497	0.0171554
763.575	0.0170672
763.654	0.0171072
763.732	0.0171445
763.810	0.0169080
763.888	0.0169842
763.966	0.0170772
764.044	0.0168703
764.122	0.0167194
764.200	0.0168100
764.279	0.0167353
764.357	0.0166471
764.435	0.0167331
764.513	0.0167266
764.591	0.0166039
764.669	0.0166444
764.747	0.0166777
764.825	0.0167891
764.904	0.0166109
764.982	0.0166016
765.060	0.0166743
765.138	0.0168351
765.216	0.0167422
765.294	0.0167617
765.372	0.0167852
765.450	0.0167743
765.529	0.0166611
765.607	0.0167901
765.685	0.0167071
765.763	0.0166586
765.841	0.0168253
765.919	0.0166438
765.997	0.0168204
766.075	0.0168594
766.154	0.0169598
766.232	0.0168786
766.310	0.0169013
766.388	0.0170513
766.466	0.0169741
766.544	0.0171581
766.622	0.0172590
766.700	0.0171377
766.779	0.0171645
766.857	0.0171542
766.935	0.0170660
767.013	0.0171735
767.091	0.0170255
767.169	0.0169867
767.247	0.0168673
767.325	0.0169431
767.404	0.0167632
767.482	0.0166991
767.560	0.0166566
767.638	0.0166330
767.716	0.0164996
767.794	0.0164890
767.872	0.0165694
767.950	0.0165220
768.029	0.0165598
768.107	0.0165869
768.185	0.0166367
768.263	0.0166565
768.341	0.0165725
768.419	0.0166508
768.497	0.0166469
768.575	0.0166355
768.654	0.0166899
768.732	0.0167179
768.810	0.0167469
768.888	0.0168156
768.966	0.0168231
769.044	0.0167322
769.122	0.0169150
769.200	0.0169534
769.279	0.0167419
769.357	0.0167924
769.435	0.0169809
769.513	0.0168505
769.591	0.0168687
769.669	0.0169730
769.747	0.0169416
769.825	0.0168285
769.904	0.0168884
769.982	0.0167699
770.060	0.0167785
770.138	0.0168794
770.216	0.0168471
770.294	0.0169199
770.372	0.0168088
770.450	0.0166003
770.529	0.0166396
770.607	0.0166248
770.685	0.0165871
770.763	0.0166259
770.841	0.0165938
770.919	0.0166993
770.997	0.0167206
771.075	0.0166456
771.154	0.0166988
771.232	0.0168158
771.310	0.0168079
771.388	0.0168758
771.466	0.0170181
771.544	0.0171794
771.622	0.0171555
771.700	0.0171980
771.779	0.0170845
771.857	0.0172979
771.935	0.0171981
772.013	0.0173116
772.091	0.0172974
772.169	0.0172276
772.247	0.0172084
772.325	0.0171903
772.404	0.0170600
772.482	0.0170410
772.560	0.0171043
772.638	0.0169474
772.716	0.0169499
772.794	0.0168546
772.872	0.0167964
772.950	0.0169599
773.029	0.0169466
773.107	0.0165980
773.185	0.0167167
773.263	0.0168073
773.341	0.0166958
773.419	0.0166162
773.497	0.0168104
773.575	0.0165263
773.654	0.0166968
773.732	0.0165357
773.810	0.0164451
773.888	0.0165135
773.966	0.0164989
774.044	0.0165947
774.122	0.0167142
774.200	0.0165812
774.279	0.0166109
774.357	0.0166657
774.435	0.0167548
774.513	0.0168059
774.591	0.0168705
774.669	0.0169233
774.747	0.0169817
774.825	0.0170108
774.904	0.0171764
774.982	0.0170445
775.060	0.0171631
775.138	0.0171333
775.216	0.0172525
775.294	0.0172030
775.372	0.0169729
775.450	0.0172442
775.529	0.0171098
775.607	0.0170802
775.685	0.0170187
775.763	0.0167537
775.841	0.0168012
775.919	0.0169405
775.997	0.0166904
776.075	0.0166754
776.154	0.0165722
776.232	0.0166022
776.310	0.0164752
776.388	0.0164448
776.466	0.0164912
776.544	0.0163651
776.622	0.0165304
776.700	0.0165767
776.779	0.0166207
776.857	0.0165879
776.935	0.0165678
777.013	0.0167025
777.091	0.0166283
777.169	0.0166527
777.247	0.0168726
777.325	0.0168467
777.404	0.0167539
777.482	0.0169896
777.560	0.0169751
777.638	0.0170095
777.716	0.0170607
777.794	0.0170866
777.872	0.0170392
777.950	0.0171475
778.029	0.0170080
778.107	0.0171218
778.185	0.0172069
778.263	0.0171054
778.341	0.0169117
778.419	0.0169890
778.497	0.0170702
778.575	0.0170650
778.654	0.0170783
778.732	0.0170039
778.810	0.0169337
778.888	0.0170196
778.966	0.0168582
779.044	0.0169639
779.122	0.0170047
779.200	0.0169272
779.279	0.0168298
779.357	0.0169110
779.435	0.0168507
779.513	0.0167294
779.591	0.0167849
779.669	0.0167216
779.747	0.0167586
779.825	0.0167957
779.904	0.0167451
779.982	0.0168338
780.060	0.0167889
780.138	0.0168288
780.216	0.0169137
780.294	0.0167716
780.372	0.0167410
780.450	0.0167787
780.529	0.0170619
780.607	0.0170633
780.685	0.0169032
780.763	0.0170634
780.841	0.0171693
780.919	0.0170514
780.997	0.0169749
781.075	0.0171595
781.154	0.0169955
781.232	0.0169424
781.310	0.0169624
781.388	0.0170482
781.466	0.0169433
781.544	0.0168214
781.622	0.0167674
781.700	0.0168028
781.779	0.0168018
781.857	0.0166714
781.935	0.0166322
782.013	0.0168004
782.091	0.0167535
782.169	0.0166296
782.247	0.0166298
782.325	0.0164410
782.404	0.0166419
782.482	0.0165052
782.560	0.0164984
782.638	0.0165441
782.716	0.0165535
782.794	0.0166177
782.872	0.0164966
782.950	0.0167482
783.029	0.0166446
783.107	0.0166495
783.185	0.0167729
783.263	0.0168500
783.341	0.0169179
783.419	0.0169050
783.497	0.0171310
783.575	0.0171181
783.654	0.0171584
783.732	0.0169770
783.810	0.0172614
783.888	0.0173300
783.966	0.0173522
784.044	0.0172560
784.122	0.0174241
784.200	0.0175026
784.279	0.0173573
784.357	0.0173087
784.435	0.0174459
784.513	0.0174274
784.591	0.0173638
784.669	0.0174847
784.747	0.0172792
784.825	0.0172460
784.904	0.0171055
784.982	0.0169503
785.060	0.0170354
785.138	0.0168205
785.216	0.0166677
785.294	0.0167986
785.372	0.0167710
785.450	0.0165234
785.529	0.0164914
785.607	0.0163957
785.685	0.0164300
785.763	0.0163455
785.841	0.0163416
785.919	0.0165310
785.997	0.0163024
786.075	0.0162642
786.154	0.0164514
786.232	0.0164671
786.310	0.0166089
786.388	0.0165368
786.466	0.0165118
786.544	0.0166921
786.622	0.0166930
786.700	0.0167450
786.779	0.0168637
786.857	0.0169138
786.935	0.0169691
787.013	0.0169612
787.091	0.0170211
787.169	0.0170541
787.247	0.0172042
787.325	0.0171705
787.404	0.0173344
787.482	0.0173720
787.560	0.0174445
787.638	0.0174450
787.716	0.0174091
787.794	0.0174219
787.872	0.0173155
787.950	0.0174185
788.029	0.0173019
788.107	0.0173593
788.185	0.0170580
788.263	0.0171298
788.341	0.0171355
788.419	0.0169852
788.497	0.0168964
788.575	0.0168691
788.654	0.0168532
788.732	0.0167469
788.810	0.0166844
788.888	0.0164882
788.966	0.0165543
789.044	0.0163897
789.122	0.0163841
789.200	0.0164024
789.279	0.0164030
789.357	0.0163080
789.435	0.0164133
789.513	0.0162943
789.591	0.0164178
789.669	0.0164321
789.747	0.0164632
789.825	0.0164092
789.904	0.0165224
789.982	0.0166264
790.060	0.0166344
790.138	0.0166475
790.216	0.0167921
790.294	0.0167545
790.372	0.0168965
790.450	0.0169444
790.529	0.0168075
790.607	0.0168983
790.685	0.0169477
790.763	0.0170674
790.841	0.0169779
790.919	0.0170288
790.997	0.0170799
791.075	0.0170787
791.154	0.0170282
791.232	0.0169151
791.310	0.0170513
791.388	0.0173064
791.466	0.0172275
791.544	0.0171889
791.622	0.0172835
791.700	0.0170576
791.779	0.0170530
791.857	0.0172620
791.935	0.0172903
792.013	0.0171185
792.091	0.0169695
792.169	0.0168446
792.247	0.0168362
792.325	0.0168598
792.404	0.0169128
792.482	0.0168114
792.560	0.0167612
792.638	0.0164433
792.716	0.0164182
792.794	0.0163283
792.872	0.0164678
792.950	0.0163045
793.029	0.0164349
793.107	0.0164738
793.185	0.0164719
793.263	0.0164376
793.341	0.0165385
793.419	0.0166228
793.497	0.0165718
793.575	0.0166367
793.654	0.0165898
793.732	0.0166784
793.810	0.0168266
793.888	0.0169701
793.966	0.0168970
794.044	0.0168623
794.122	0.0169445
794.200	0.0168940
794.279	0.0171497
794.357	0.0170316
794.435	0.0170280
794.513	0.0171127
794.591	0.0169888
794.669	0.0170111
794.747	0.0171133
794.825	0.0169479
794.904	0.0168845
794.982	0.0169791
795.060	0.0168786
795.138	0.0169009
795.216	0.0169263
795.294	0.0168732
795.372	0.0168204
795.450	0.0167675
795.529	0.0168552
795.607	0.0167309
795.685	0.0167686
795.763	0.0166766
795.841	0.0167537
795.919	0.0167671
795.997	0.0165227
796.075	0.0168346
796.154	0.0167056
796.232	0.0167415
796.310	0.0167789
796.388	0.0167677
796.466	0.0167171
796.544	0.0166935
796.622	0.0167701
796.700	0.0169108
796.779	0.0168616
796.857	0.0168207
796.935	0.0168509
797.013	0.0167506
797.091	0.0167529
797.169	0.0168936
797.247	0.0167538
797.325	0.0168096
797.404	0.0167358
797.482	0.0166518
797.560	0.0167494
797.638	0.0166656
797.716	0.0166855
797.794	0.0167032
797.872	0.0167721
797.950	0.0168249
798.029	0.0168584
798.107	0.0168309
798.185	0.0169579
798.263	0.0168529
798.341	0.0169608
798.419	0.0169234
798.497	0.0168607
798.575	0.0170502
798.654	0.0168172
798.732	0.0167519
798.810	0.0169344
798.888	0.0169180
798.966	0.0168094
799.044	0.0168304
799.122	0.0167848
799.200	0.0167906
799.279	0.0166858
799.357	0.0167465
799.435	0.0165423
799.513	0.0166637
799.591	0.0165791
799.669	0.0165547
799.747	0.0164738
799.825	0.0166257
799.904	0.0166396
799.982	0.0165776
800.060	0.0165390
800.138	0.0166510
800.216	0.0167035
800.294	0.0168054
800.372	0.0168562
800.450	0.0168682
800.529	0.0166623
800.607	0.0167786
800.685	0.0169842
800.763	0.0168536
800.841	0.0169779
800.919	0.0170083
800.997	0.0170271
801.075	0.0171055
801.154	0.0169224
801.232	0.0170815
801.310	0.0170302
801.388	0.0169345
801.466	0.0170892
801.544	0.0170100
801.622	0.0169952
801.700	0.0169920
801.779	0.0169640
801.857	0.0169016
801.935	0.0169294
802.013	0.0169100
802.091	0.0169765
802.169	0.0168044
802.247	0.0168176
802.325	0.0168995
802.404	0.0168232
802.482	0.0168294
802.560	0.0168802
802.638	0.0168304
802.716	0.0166888
802.794	0.0166912
802.872	0.0168728
802.950	0.0167212
803.029	0.0166414
803.107	0.0166366
803.185	0.0166908
803.263	0.0165495
803.341	0.0166967
803.419	0.0166620
803.497	0.0165590
803.575	0.0166824
803.654	0.0166921
803.732	0.0165056
803.810	0.0167188
803.888	0.0167484
803.966	0.0167816
804.044	0.0169880
804.122	0.0170103
804.200	0.0168989
804.279	0.0169364
804.357	0.0168081
804.435	0.0169180
804.513	0.0169947
804.591	0.0169444
804.669	0.0170214
804.747	0.0170278
804.825	0.0171901
804.904	0.0171383
804.982	0.0170181
805.060	0.0170657
805.138	0.0170392
805.216	0.0169250
805.294	0.0170699
805.372	0.0171519
805.450	0.0170359
805.529	0.0169183
805.607	0.0169080
805.685	0.0169022
805.763	0.0168654
805.841	0.0169324
805.919	0.0168780
805.997	0.0168515
806.075	0.0167649
806.154	0.0168433
806.232	0.0168379
806.310	0.0168436
806.388	0.0167269
806.466	0.0167858
806.544	0.0167094
806.622	0.0166604
806.700	0.0166305
806.779	0.0167097
806.857	0.0166534
806.935	0.0164485
807.013	0.0165462
807.091	0.0165199
807.169	0.0165825
807.247	0.0165512
807.325	0.0164590
807.404	0.0165794
807.482	0.0168023
807.560	0.0167743
807.638	0.0167653
807.716	0.0167773
807.794	0.0168712
807.872	0.0168907
807.950	0.0168412
808.029	0.0168198
808.107	0.0170139
808.185	0.0169308
808.263	0.0168887
808.341	0.0169096
808.419	0.0169716
808.497	0.0170020
808.575	0.0171467
808.654	0.0170990
808.732	0.0170258
808.810	0.0171033
808.888	0.0171297
808.966	0.0169557
809.044	0.0171933
809.122	0.0172009
809.200	0.0171865
809.279	0.0172440
809.357	0.0172303
809.435	0.0172045
809.513	0.0171268
809.591	0.0171434
809.669	0.0170991
809.747	0.0171151
809.825	0.0169394
809.904	0.0168398
809.982	0.0169429
810.060	0.0168061
810.138	0.0168754
810.216	0.0168621
810.294	0.0168462
810.372	0.0168158
810.450	0.0166600
810.529	0.0167482
810.607	0.0168491
810.685	0.0166735
810.763	0.0167531
810.841	0.0165890
810.919	0.0167376
810.997	0.0167020
811.075	0.0165591
811.154	0.0166430
811.232	0.0166096
811.310	0.0166331
811.388	0.0166032
811.466	0.0166222
811.544	0.0167216
811.622	0.0167461
811.700	0.0167467
811.779	0.0167242
811.857	0.0166434
811.935	0.0166260
812.013	0.0167339
812.091	0.0168478
812.169	0.0167767
812.247	0.0167451
812.325	0.0169182
812.404	0.0169462
812.482	0.0168713
812.560	0.0169355
812.638	0.0169440
812.716	0.0169745
812.794	0.0169767
812.872	0.0169483
812.950	0.0171252
813.029	0.0171429
813.107	0.0170534
813.185	0.0170932
813.263	0.0171476
813.341	0.0171008
813.419	0.0171390
813.497	0.0171028
813.575	0.0170826
813.654	0.0170235
813.732	0.0169463
813.810	0.0169868
813.888	0.0170103
813.966	0.0170638
814.044	0.0169585
814.122	0.0169120
814.200	0.0169141
814.279	0.0169672
814.357	0.0167097
814.435	0.0168585
814.513	0.0166743
814.591	0.0167737
814.669	0.0167770
814.747	0.0166760
814.825	0.0166642
814.904	0.0166314
814.982	0.0166083
815.060	0.0166917
815.138	0.0165889
815.216	0.0164885
815.294	0.0165349
815.372	0.0165903
815.450	0.0167330
815.529	0.0166138
815.607	0.0165830
815.685	0.0168173
815.763	0.0167014
815.841	0.0167136
815.919	0.0167388
815.997	0.0168671
816.075	0.0168832
816.154	0.0168548
816.232	0.0170097
816.310	0.0169247
816.388	0.0169924
816.466	0.0170361
816.544	0.0169733
816.622	0.0172118
816.700	0.0170530
816.779	0.0171458
816.857	0.0171114
816.935	0.0170755
817.013	0.0171042
817.091	0.0170850
817.169	0.0172015
817.247	0.0169972
817.325	0.0169497
817.404	0.0169585
817.482	0.0167872
817.560	0.0168633
817.638	0.0167277
817.716	0.0169160
817.794	0.0168189
817.872	0.0168468
817.950	0.0167622
818.029	0.0167048
818.107	0.0166699
818.185	0.0167257
818.263	0.0168757
818.341	0.0166888
818.419	0.0166341
818.497	0.0168374
818.575	0.0167380
818.654	0.0167504
818.732	0.0168114
818.810	0.0169412
818.888	0.0169311
818.966	0.0168733
819.044	0.0168240
819.122	0.0169408
819.200	0.0168273
819.279	0.0168459
819.357	0.0169202
819.435	0.0169183
819.513	0.0169192
819.591	0.0170338
819.669	0.0168674
819.747	0.0169432
819.825	0.0170348
819.904	0.0170119
819.982	0.0169510
820.060	0.0169628
820.138	0.0169179
820.216	0.0171135
820.294	0.0169501
820.372	0.0169970
820.450	0.0171133
820.529	0.0171736
820.607	0.0170895
820.685	0.0170973
820.763	0.0172544
820.841	0.0172784
820.919	0.0170212
820.997	0.0170306
821.075	0.0169994
821.154	0.0170177
821.232	0.0169966
821.310	0.0167118
821.388	0.0167052
821.466	0.0166425
821.544	0.0166309
821.622	0.0168097
821.700	0.0166772
821.779	0.0166531
821.857	0.0166302
821.935	0.0164931
822.013	0.0164638
822.091	0.0164461
822.169	0.0165496
822.247	0.0166378
822.325	0.0166454
822.404	0.0164909
822.482	0.0167361
822.560	0.0167484
822.638	0.0166027
822.716	0.0167368
822.794	0.0167215
822.872	0.0168017
822.950	0.0167691
823.029	0.0170468
823.107	0.0169202
823.185	0.0169373
823.263	0.0170703
823.341	0.0170097
823.419	0.0170418
823.497	0.0171308
823.575	0.0171525
823.654	0.0170728
823.732	0.0170730
823.810	0.0170506
823.888	0.0170872
823.966	0.0170712
824.044	0.0171022
824.122	0.0170294
824.200	0.0169944
824.279	0.0170517
824.357	0.0171429
824.435	0.0169701
824.513	0.0169673
824.591	0.0168267
824.669	0.0168674
824.747	0.0169007
824.825	0.0168905
824.904	0.0169970
824.982	0.0169561
825.060	0.0168194
825.138	0.0168918
825.216	0.0167254
825.294	0.0168243
825.372	0.0169690
825.450	0.0168839
825.529	0.0168233
825.607	0.0169082
825.685	0.0168961
825.763	0.0168817
825.841	0.0168182
825.919	0.0167566
825.997	0.0168867
826.075	0.0169720
826.154	0.0168041
826.232	0.0167545
826.310	0.0169177
826.388	0.0170663
826.466	0.0169904
826.544	0.0169387
826.622	0.0169319
826.700	0.0170129
826.779	0.0169048
826.857	0.0170721
826.935	0.0170287
827.013	0.0169933
827.091	0.0170329
827.169	0.0171185
827.247	0.0170230
827.325	0.0169849
827.404	0.0170748
827.482	0.0169707
827.560	0.0168316
827.638	0.0170433
827.716	0.0169627
827.794	0.0169674
827.872	0.0169278
827.950	0.0167625
828.029	0.0168357
828.107	0.0168041
828.185	0.0168945
828.263	0.0168733
828.341	0.0167674
828.419	0.0168620
828.497	0.0168686
828.575	0.0167949
828.654	0.0168130
828.732	0.0168498
828.810	0.0167139
828.888	0.0168769
828.966	0.0168112
829.044	0.0169430
829.122	0.0170378
829.200	0.0168247
829.279	0.0168560
829.357	0.0168712
829.435	0.0169177
829.513	0.0168381
829.591	0.0169876
829.669	0.0169011
829.747	0.0168224
829.825	0.0169817
829.904	0.0168810
829.982	0.0168370
830.060	0.0170544
830.138	0.0170466
830.216	0.0169651
830.294	0.0169444
830.372	0.0170731
830.450	0.0169101
830.529	0.0170556
830.607	0.0171595
830.685	0.0168654
830.763	0.0167912
830.841	0.0169630
830.919	0.0169614
830.997	0.0170291
831.075	0.0168918
831.154	0.0170177
831.232	0.0169779
831.310	0.0168990
831.388	0.0168594
831.466	0.0169934
831.544	0.0170777
831.622	0.0170486
831.700	0.0169082
831.779	0.0171703
831.857	0.0170894
831.935	0.0168851
832.013	0.0169626
832.091	0.0168737
832.169	0.0168465
832.247	0.0169376
832.325	0.0170338
832.404	0.0169114
832.482	0.0169075
832.560	0.0166393
832.638	0.0166714
832.716	0.0166832
832.794	0.0167396
832.872	0.0167091
832.950	0.0166138
833.029	0.0167353
833.107	0.0168076
833.185	0.0168350
833.263	0.0167892
833.341	0.0168356
833.419	0.0169334
833.497	0.0166914
833.575	0.0168749
833.654	0.0168729
833.732	0.0168053
833.810	0.0170654
833.888	0.0170586
833.966	0.0170695
834.044	0.0169779
834.122	0.0169564
834.200	0.0169128
834.279	0.0170089
834.357	0.0170381
834.435	0.0170477
834.513	0.0171255
834.591	0.0170285
834.669	0.0170721
834.747	0.0170309
834.825	0.0168486
834.904	0.0168468
834.982	0.0168742
835.060	0.0168112
835.138	0.0168088
835.216	0.0168131
835.294	0.0168211
835.372	0.0168424
835.450	0.0167387
835.529	0.0168957
835.607	0.0168208
835.685	0.0168584
835.763	0.0169529
835.841	0.0169189
835.919	0.0169122
835.997	0.0167914
836.075	0.0168680
836.154	0.0169241
836.232	0.0168950
836.310	0.0167626
836.388	0.0167422
836.466	0.0168187
836.544	0.0169910
836.622	0.0167026
836.700	0.0166998
836.779	0.0166747
836.857	0.0166686
836.935	0.0166351
837.013	0.0167591
837.091	0.0166619
837.169	0.0167028
837.247	0.0168463
837.325	0.0167816
837.404	0.0168010
837.482	0.0167961
837.560	0.0169777
837.638	0.0168657
837.716	0.0169878
837.794	0.0169299
837.872	0.0169352
837.950	0.0167954
838.029	0.0169513
838.107	0.0170121
838.185	0.0168170
838.263	0.0168563
838.341	0.0168100
838.419	0.0168282
838.497	0.0169206
838.575	0.0168941
838.654	0.0167461
838.732	0.0169551
838.810	0.0169407
838.888	0.0168171
838.966	0.0168610
839.044	0.0169257
839.122	0.0169767
839.200	0.0168896
839.279	0.0169729
839.357	0.0169478
839.435	0.0168330
839.513	0.0169267
839.591	0.0170724
839.669	0.0170347
839.747	0.0168974
839.825	0.0170245
839.904	0.0170536
839.982	0.0170076
840.060	0.0169601
840.138	0.0168072
840.216	0.0168163
840.294	0.0169839
840.372	0.0169860
840.450	0.0167481
840.529	0.0168032
840.607	0.0169032
840.685	0.0169707
840.763	0.0168408
840.841	0.0168527
840.919	0.0166956
840.997	0.0169313
841.075	0.0169067
841.154	0.0169267
841.232	0.0168513
841.310	0.0169417
841.388	0.0168898
841.466	0.0169701
841.544	0.0169723
841.622	0.0169904
841.700	0.0170355
841.779	0.0169802
841.857	0.0168948
841.935	0.0169962
842.013	0.0169773
842.091	0.0168948
842.169	0.0169149
842.247	0.0168884
842.325	0.0167344
842.404	0.0167911
842.482	0.0168591
842.560	0.0168388
842.638	0.0167294
842.716	0.0168095
842.794	0.0167783
842.872	0.0168627
842.950	0.0168297
843.029	0.0169060
843.107	0.0167534
843.185	0.0167760
843.263	0.0167204
843.341	0.0168229
843.419	0.0168867
843.497	0.0167931
843.575	0.0167798
843.654	0.0168681
843.732	0.0168148
843.810	0.0168488
843.888	0.0168931
843.966	0.0170100
844.044	0.0168743
844.122	0.0168034
844.200	0.0169121
844.279	0.0169607
844.357	0.0168071
844.435	0.0167915
844.513	0.0168018
844.591	0.0167798
844.669	0.0169897
844.747	0.0169607
844.825	0.0168735
844.904	0.0170102
844.982	0.0169730
845.060	0.0169790
845.138	0.0171626
845.216	0.0171473
845.294	0.0170385
845.372	0.0172279
845.450	0.0170512
845.529	0.0171438
845.607	0.0171051
845.685	0.0170522
845.763	0.0170294
845.841	0.0170972
845.919	0.0170446
845.997	0.0167677
846.075	0.0168277
846.154	0.0168313
846.232	0.0168884
846.310	0.0167086
846.388	0.0167624
846.466	0.0167788
846.544	0.0166997
846.622	0.0167335
846.700	0.0166515
846.779	0.0168705
846.857	0.0168408
846.935	0.0167297
847.013	0.0167551
847.091	0.0168346
847.169	0.0167131
847.247	0.0166720
847.325	0.0169349
847.404	0.0168429
847.482	0.0168855
847.560	0.0168970
847.638	0.0169427
847.716	0.0169630
847.794	0.0169564
847.872	0.0168699
847.950	0.0168596
848.029	0.0168461
848.107	0.0168952
848.185	0.0168885
848.263	0.0169351
848.341	0.0170026
848.419	0.0171386
848.497	0.0171046
848.575	0.0171821
848.654	0.0171732
848.732	0.0171011
848.810	0.0171032
848.888	0.0170522
848.966	0.0169432
849.044	0.0169492
849.122	0.0168079
849.200	0.0167885
849.279	0.0169074
849.357	0.0167532
849.435	0.0166065
849.513	0.0167250
849.591	0.0166470
849.669	0.0166602
849.747	0.0166652
849.825	0.0166795
849.904	0.0167623
849.982	0.0166520
850.060	0.0167833
850.138	0.0167754
850.216	0.0167933
850.294	0.0169054
850.372	0.0168745
850.450	0.0169096
850.529	0.0169728
850.607	0.0169704
850.685	0.0170067
850.763	0.0171133
850.841	0.0171580
850.919	0.0171793
850.997	0.0170013
851.075	0.0170070
851.154	0.0171062
851.232	0.0171165
851.310	0.0168364
851.388	0.0167981
851.466	0.0168088
851.544	0.0170037
851.622	0.0168507
851.700	0.0168678
851.779	0.0169209
851.857	0.0169492
851.935	0.0169865
852.013	0.0170319
852.091	0.0168839
852.169	0.0169827
852.247	0.0169791
852.325	0.0169592
852.404	0.0169019
852.482	0.0167281
852.560	0.0169175
852.638	0.0168452
852.716	0.0167313
852.794	0.0166265
852.872	0.0166820
852.950	0.0167606
853.029	0.0167047
853.107	0.0167717
853.185	0.0166432
853.263	0.0166838
853.341	0.0168394
853.419	0.0167806
853.497	0.0168838
853.575	0.0168925
853.654	0.0169957
853.732	0.0169164
853.810	0.0169833
853.888	0.0170485
853.966	0.0171901
854.044	0.0170507
854.122	0.0171243
854.200	0.0170705
854.279	0.0170821
854.357	0.0171076
854.435	0.0170026
854.513	0.0169115
854.591	0.0170244
854.669	0.0169428
854.747	0.0169314
854.825	0.0170033
854.904	0.0169501
854.982	0.0167946
855.060	0.0169154
855.138	0.0167270
855.216	0.0169012
855.294	0.0168588
855.372	0.0169764
855.450	0.0168832
855.529	0.0168610
855.607	0.0167439
855.685	0.0167178
855.763	0.0167626
855.841	0.0166604
855.919	0.0167915
855.997	0.0167689
856.075	0.0167880
856.154	0.0167744
856.232	0.0167602
856.310	0.0166852
856.388	0.0167305
856.466	0.0168242
856.544	0.0169303
856.622	0.0168678
856.700	0.0167903
856.779	0.0169109
856.857	0.0168791
856.935	0.0168593
857.013	0.0169102
857.091	0.0169306
857.169	0.0169843
857.247	0.0170480
857.325	0.0169376
857.404	0.0169656
857.482	0.0169642
857.560	0.0169695
857.638	0.0168253
857.716	0.0168870
857.794	0.0170484
857.872	0.0168839
857.950	0.0168730
858.029	0.0167869
858.107	0.0168976
858.185	0.0169111
858.263	0.0167437
858.341	0.0168069
858.419	0.0167123
858.497	0.0167161
858.575	0.0167980
858.654	0.0167220
858.732	0.0168105
858.810	0.0168497
858.888	0.0167805
858.966	0.0167184
859.044	0.0168580
859.122	0.0169757
859.200	0.0166826
859.279	0.0167031
859.357	0.0167895
859.435	0.0167732
859.513	0.0168087
859.591	0.0168047
859.669	0.0166944
859.747	0.0168080
859.825	0.0169066
859.904	0.0167808
859.982	0.0168009
860.060	0.0168233
860.138	0.0169136
860.216	0.0169031
860.294	0.0169139
860.372	0.0167520
860.450	0.0169114
860.529	0.0168777
860.607	0.0168186
860.685	0.0167605
860.763	0.0168932
860.841	0.0168085
860.919	0.0168475
860.997	0.0168117
861.075	0.0168067
861.154	0.0168378
861.232	0.0167500
861.310	0.0167518
861.388	0.0166983
861.466	0.0168863
861.544	0.0168468
861.622	0.0167207
861.700	0.0168710
861.779	0.0168723
861.857	0.0169424
861.935	0.0169496
862.013	0.0168747
862.091	0.0167083
862.169	0.0169340
862.247	0.0169321
862.325	0.0167854
862.404	0.0167451
862.482	0.0167810
862.560	0.0169286
862.638	0.0168188
862.716	0.0167158
862.794	0.0167902
862.872	0.0168277
862.950	0.0168864
863.029	0.0168532
863.107	0.0167490
863.185	0.0166803
863.263	0.0167371
863.341	0.0168140
863.419	0.0167725
863.497	0.0168176
863.575	0.0168555
863.654	0.0167852
863.732	0.0168404
863.810	0.0168234
863.888	0.0166978
863.966	0.0167826
864.044	0.0167754
864.122	0.0166772
864.200	0.0167238
864.279	0.0166963
864.357	0.0167664
864.435	0.0166965
864.513	0.0166840
864.591	0.0167178
864.669	0.0166945
864.747	0.0166163
864.825	0.0165862
864.904	0.0166367
864.982	0.0166340
865.060	0.0165878
865.138	0.0167220
865.216	0.0167937
865.294	0.0168534
865.372	0.0166894
865.450	0.0167897
865.529	0.0168500
865.607	0.0168089
865.685	0.0169156
865.763	0.0169064
865.841	0.0168110
865.919	0.0168787
865.997	0.0169752
866.075	0.0169939
866.154	0.0170563
866.232	0.0170062
866.310	0.0169325
866.388	0.0169295
866.466	0.0168095
866.544	0.0169367
866.622	0.0168404
866.700	0.0167874
866.779	0.0167794
866.857	0.0168313
866.935	0.0167961
867.013	0.0166832
867.091	0.0166912
867.169	0.0166029
867.247	0.0166696
867.325	0.0166550
867.404	0.0167358
867.482	0.0166459
867.560	0.0165465
867.638	0.0167264
867.716	0.0166756
867.794	0.0165852
867.872	0.0167210
867.950	0.0166322
868.029	0.0166723
868.107	0.0168527
868.185	0.0168089
868.263	0.0167130
868.341	0.0168346
868.419	0.0169011
868.497	0.0169041
868.575	0.0167705
868.654	0.0167574
868.732	0.0168021
868.810	0.0169044
868.888	0.0169512
868.966	0.0168443
869.044	0.0167300
869.122	0.0168648
869.200	0.0168766
869.279	0.0167632
869.357	0.0169169
869.435	0.0168025
869.513	0.0167738
869.591	0.0168439
869.669	0.0169074
869.747	0.0168370
869.825	0.0167014
869.904	0.0167609
869.982	0.0167864
870.060	0.0167492
870.138	0.0166974
870.216	0.0167001
870.294	0.0164761
870.372	0.0167570
870.450	0.0167316
870.529	0.0166704
870.607	0.0166871
870.685	0.0167210
870.763	0.0166621
870.841	0.0168182
870.919	0.0168408
870.997	0.0167616
871.075	0.0167538
871.154	0.0168739
871.232	0.0169269
871.310	0.0169260
871.388	0.0169372
871.466	0.0169938
871.544	0.0169069
871.622	0.0168665
871.700	0.0168683
871.779	0.0169016
871.857	0.0167754
871.935	0.0169301
872.013	0.0169080
872.091	0.0167764
872.169	0.0169472
872.247	0.0169120
872.325	0.0168761
872.404	0.0169738
872.482	0.0168352
872.560	0.0167146
872.638	0.0167400
872.716	0.0167914
872.794	0.0168247
872.872	0.0168165
872.950	0.0168259
873.029	0.0168655
873.107	0.0169024
873.185	0.0167731
873.263	0.0167554
873.341	0.0167908
873.419	0.0168069
873.497	0.0168346
873.575	0.0166821
873.654	0.0166719
873.732	0.0167233
873.810	0.0169183
873.888	0.0167570
873.966	0.0167521
874.044	0.0168112
874.122	0.0168345
874.200	0.0168181
874.279	0.0168581
874.357	0.0169762
874.435	0.0169263
874.513	0.0168049
874.591	0.0167803
874.669	0.0167852
874.747	0.0167818
874.825	0.0168580
874.904	0.0168163
874.982	0.0167874
875.060	0.0168742
875.138	0.0168485
875.216	0.0167985
875.294	0.0167746
875.372	0.0167874
875.450	0.0168613
875.529	0.0166165
875.607	0.0166654
875.685	0.0167342
875.763	0.0166950
875.841	0.0165202
875.919	0.0165383
875.997	0.0165993
876.075	0.0165630
876.154	0.0167643
876.232	0.0166640
876.310	0.0168256
876.388	0.0169252
876.466	0.0171071
876.544	0.0170277
876.622	0.0170782
876.700	0.0171008
876.779	0.0171725
876.857	0.0171087
876.935	0.0170738
877.013	0.0171263
877.091	0.0172096
877.169	0.0171283
877.247	0.0170214
877.325	0.0171967
877.404	0.0169859
877.482	0.0170095
877.560	0.0170580
877.638	0.0170605
877.716	0.0170145
877.794	0.0170222
877.872	0.0167657
877.950	0.0167522
878.029	0.0167619
878.107	0.0165147
878.185	0.0164459
878.263	0.0164126
878.341	0.0165041
878.419	0.0164254
878.497	0.0163524
878.575	0.0165508
878.654	0.0165824
878.732	0.0166428
878.810	0.0168448
878.888	0.0169093
878.966	0.0168790
879.044	0.0167411
879.122	0.0166840
879.200	0.0166444
879.279	0.0166630
879.357	0.0168838
879.435	0.0167302
879.513	0.0165584
879.591	0.0167235
879.669	0.0167171
879.747	0.0166140
879.825	0.0168059
879.904	0.0167448
879.982	0.0169810
880.060	0.0171027
880.138	0.0171357
880.216	0.0173470
880.294	0.0174646
880.372	0.0175274
880.450	0.0175591
880.529	0.0175923
880.607	0.0176694
880.685	0.0175413
880.763	0.0176743
880.841	0.0175745
880.919	0.0174842
880.997	0.0173363
881.075	0.0171323
881.154	0.0170329
881.232	0.0166465
881.310	0.0166367
881.388	0.0164525
881.466	0.0164233
881.544	0.0163186
881.622	0.0162865
881.700	0.0164178
881.779	0.0163495
881.857	0.0163375
881.935	0.0162972
882.013	0.0163188
882.091	0.0164340
882.169	0.0163523
882.247	0.0164178
882.325	0.0165422
882.404	0.0165217
882.482	0.0163527
882.560	0.0164218
882.638	0.0164423
882.716	0.0163838
882.794	0.0164686
882.872	0.0165730
882.950	0.0165575
883.029	0.0165043
883.107	0.0167318
883.185	0.0167906
883.263	0.0169662
883.341	0.0171429
883.419	0.0171246
883.497	0.0171801
883.575	0.0171317
883.654	0.0173434
883.732	0.0174678
883.810	0.0174027
883.888	0.0173383
883.966	0.0172259
884.044	0.0173832
884.122	0.0173255
884.200	0.0171709
884.279	0.0170892
884.357	0.0169276
884.435	0.0168905
884.513	0.0169234
884.591	0.0167010
884.669	0.0168582
884.747	0.0167563
884.825	0.0167387
884.904	0.0166570
884.982	0.0167297
885.060	0.0168214
885.138	0.0166858
885.216	0.0167708
885.294	0.0168292
885.372	0.0168771
885.450	0.0169506
885.529	0.0167735
885.607	0.0168118
885.685	0.0168225
885.763	0.0167103
885.841	0.0164814
885.919	0.0165236
885.997	0.0164104
886.075	0.0162029
886.154	0.0162337
886.232	0.0164336
886.310	0.0164375
886.388	0.0165308
886.466	0.0165963
886.544	0.0165669
886.622	0.0168386
886.700	0.0169188
886.779	0.0171138
886.857	0.0174090
886.935	0.0175214
887.013	0.0173688
887.091	0.0175436
887.169	0.0174004
887.247	0.0175790
887.325	0.0175955
887.404	0.0173782
887.482	0.0173160
887.560	0.0171387
887.638	0.0168571
887.716	0.0168585
887.794	0.0166222
887.872	0.0165163
887.950	0.0165294
888.029	0.0162155
888.107	0.0163445
888.185	0.0162398
888.263	0.0161495
888.341	0.0163054
888.419	0.0163603
888.497	0.0164243
888.575	0.0165431
888.654	0.0167006
888.732	0.0168067
888.810	0.0167495
888.888	0.0170117
888.966	0.0170023
889.044	0.0171570
889.122	0.0171954
889.200	0.0171536
889.279	0.0170452
889.357	0.0170865
889.435	0.0171927
889.513	0.0170802
889.591	0.0170083
889.669	0.0171526
889.747	0.0169636
889.825	0.0168927
889.904	0.0170348
889.982	0.0170058
890.060	0.0168114
890.138	0.0168475
890.216	0.0169167
890.294	0.0169082
890.372	0.0168309
890.450	0.0167145
890.529	0.0166550
890.607	0.0165042
890.685	0.0165251
890.763	0.0163806
890.841	0.0164106
890.919	0.0163254
890.997	0.0163667
891.075	0.0162480
891.154	0.0163642
891.232	0.0164372
891.310	0.0164725
891.388	0.0166375
891.466	0.0167698
891.544	0.0167421
891.622	0.0169662
891.700	0.0170436
891.779	0.0169573
891.857	0.0170246
891.935	0.0172050
892.013	0.0171043
892.091	0.0172395
892.169	0.0171677
892.247	0.0173144
892.325	0.0173557
892.404	0.0171037
892.482	0.0171044
892.560	0.0171780
892.638	0.0170320
892.716	0.0171096
892.794	0.0169923
892.872	0.0169882
892.950	0.0168587
893.029	0.0167799
893.107	0.0168069
893.185	0.0168217
893.263	0.0168188
893.341	0.0166573
893.419	0.0166850
893.497	0.0166234
893.575	0.0165720
893.654	0.0166161
893.732	0.0166761
893.810	0.0166559
893.888	0.0165351
893.966	0.0164593
894.044	0.0165165
894.122	0.0163799
894.200	0.0165517
894.279	0.0164680
894.357	0.0163437
894.435	0.0165604
894.513	0.0164980
894.591	0.0165978
894.669	0.0167128
894.747	0.0166508
894.825	0.0168741
894.904	0.0167462
894.982	0.0166602
895.060	0.0168806
895.138	0.0169696
895.216	0.0170415
895.294	0.0171574
895.372	0.0170802
895.450	0.0170817
895.529	0.0172198
895.607	0.0174181
895.685	0.0173550
895.763	0.0175272
895.841	0.0174205
895.919	0.0174181
895.997	0.0174517
896.075	0.0173392
896.154	0.0173337
896.232	0.0173117
896.310	0.0173549
896.388	0.0170869
896.466	0.0171326
896.544	0.0170935
896.622	0.0167855
896.700	0.0168982
896.779	0.0167942
896.857	0.0168395
896.935	0.0167176
897.013	0.0166280
897.091	0.0167062
897.169	0.0165144
897.247	0.0165942
897.325	0.0167068
897.404	0.0165923
897.482	0.0165992
897.560	0.0165137
897.638	0.0164790
897.716	0.0164542
897.794	0.0166494
897.872	0.0164291
897.950	0.0165334
898.029	0.0165934
898.107	0.0165824
898.185	0.0165102
898.263	0.0166739
898.341	0.0165808
898.419	0.0168496
898.497	0.0167782
898.575	0.0169323
898.654	0.0170524
898.732	0.0170114
898.810	0.0170218
898.888	0.0171215
898.966	0.0172157
899.044	0.0171180
899.122	0.0172095
899.200	0.0174477
899.279	0.0172108
899.357	0.0172775
899.435	0.0171523
899.513	0.0172292
899.591	0.0171210
899.669	0.0169783
899.747	0.0171429
899.825	0.0172789
899.904	0.0171061
899.982	0.0170107
900.060	0.0168477
900.138	0.0169492
900.216	0.0169063
900.294	0.0168729
900.372	0.0169442
900.450	0.0168092
900.529	0.0169630
900.607	0.0169917
900.685	0.0169788
900.763	0.0169266
900.841	0.0169398
900.919	0.0168394
900.997	0.0167699
901.075	0.0167770
901.154	0.0169340
901.232	0.0168153
901.310	0.0168307
901.388	0.0167477
901.466	0.0166872
901.544	0.0166837
901.622	0.0167002
901.700	0.0166406
901.779	0.0166308
901.857	0.0165926
901.935	0.0167637
902.013	0.0166621
902.091	0.0167498
902.169	0.0167718
902.247	0.0168695
902.325	0.0168784
902.404	0.0169862
902.482	0.0169325
902.560	0.0169280
902.638	0.0170441
902.716	0.0170945
902.794	0.0169364
902.872	0.0168762
902.950	0.0168827
903.029	0.0168718
903.107	0.0169933
903.185	0.0169263
903.263	0.0169050
903.341	0.0167530
903.419	0.0169139
903.497	0.0170267
903.575	0.0169231
903.654	0.0167648
903.732	0.0170284
903.810	0.0169756
903.888	0.0168575
903.966	0.0169542
904.044	0.0169507
904.122	0.0169058
904.200	0.0169799
904.279	0.0169685
904.357	0.0172643
904.435	0.0170660
904.513	0.0170833
904.591	0.0170692
904.669	0.0172277
904.747	0.0170432
904.825	0.0170063
904.904	0.0170493
904.982	0.0170730
905.060	0.0170746
905.138	0.0170628
905.216	0.0170142
905.294	0.0169180
905.372	0.0169555
905.450	0.0168978
905.529	0.0168713
905.607	0.0168871
905.685	0.0166935
905.763	0.0166803
905.841	0.0167254
905.919	0.0167686
905.997	0.0166346
906.075	0.0166850
906.154	0.0166465
906.232	0.0166109
906.310	0.0167477
906.388	0.0167149
906.466	0.0167356
906.544	0.0167254
906.622	0.0165602
906.700	0.0166040
906.779	0.0166278
906.857	0.0166782
906.935	0.0166647
907.013	0.0165500
907.091	0.0168190
907.169	0.0168262
907.247	0.0167728
907.325	0.0166463
907.404	0.0167919
907.482	0.0169559
907.560	0.0169045
907.638	0.0171199
907.716	0.0170795
907.794	0.0170947
907.872	0.0172093
907.950	0.0171954
908.029	0.0171321
908.107	0.0173154
908.185	0.0172374
908.263	0.0172140
908.341	0.0173063
908.419	0.0172521
908.497	0.0172416
908.575	0.0172059
908.654	0.0170844
908.732	0.0170583
908.810	0.0170499
908.888	0.0169572
908.966	0.0168294
909.044	0.0166365
909.122	0.0166287
909.200	0.0166681
909.279	0.0166553
909.357	0.0164861
909.435	0.0165591
909.513	0.0165033
909.591	0.0165056
909.669	0.0166008
909.747	0.0166129
909.825	0.0166012
909.904	0.0166956
909.982	0.0166008
910.060	0.0165637
910.138	0.0167686
910.216	0.0166505
910.294	0.0167652
910.372	0.0168534
910.450	0.0169457
910.529	0.0171100
910.607	0.0170320
910.685	0.0170160
910.763	0.0169372
910.841	0.0170341
910.919	0.0170165
910.997	0.0172173
911.075	0.0172285
911.154	0.0172440
911.232	0.0171449
911.310	0.0172025
911.388	0.0173209
911.466	0.0171665
911.544	0.0170094
911.622	0.0170910
911.700	0.0171716
911.779	0.0172284
911.857	0.0170547
911.935	0.0170614
912.013	0.0169253
912.091	0.0168240
912.169	0.0167914
912.247	0.0168013
912.325	0.0168342
912.404	0.0167811
912.482	0.0167371
912.560	0.0166033
912.638	0.0166673
912.716	0.0167005
912.794	0.0166998
912.872	0.0165429
912.950	0.0165295
913.029	0.0166284
913.107	0.0165984
913.185	0.0166215
913.263	0.0166773
913.341	0.0166431
913.419	0.0166275
913.497	0.0168061
913.575	0.0167358
913.654	0.0166689
913.732	0.0168144
913.810	0.0169263
913.888	0.0169983
913.966	0.0170096
914.044	0.0169259
914.122	0.0170090
914.200	0.0170737
914.279	0.0170525
914.357	0.0169910
914.435	0.0170484
914.513	0.0171648
914.591	0.0171204
914.669	0.0171095
914.747	0.0171351
914.825	0.0173063
914.904	0.0171461
914.982	0.0170881
915.060	0.0171255
915.138	0.0170344
915.216	0.0170735
915.294	0.0170717
915.372	0.0170308
915.450	0.0168945
915.529	0.0168913
915.607	0.0168867
915.685	0.0167706
915.763	0.0167115
915.841	0.0167049
915.919	0.0165545
915.997	0.0165734
916.075	0.0165894
916.154	0.0165920
916.232	0.0166921
916.310	0.0167212
916.388	0.0167475
916.466	0.0167749
916.544	0.0169389
916.622	0.0168209
916.700	0.0168995
916.779	0.0167632
916.857	0.0167700
916.935	0.0167841
917.013	0.0168446
917.091	0.0169965
917.169	0.0170228
917.247	0.0169205
917.325	0.0168531
917.404	0.0169417
917.482	0.0169277
917.560	0.0169165
917.638	0.0169941
917.716	0.0170007
917.794	0.0169521
917.872	0.0170556
917.950	0.0170720
918.029	0.0171075
918.107	0.0170246
918.185	0.0169056
918.263	0.0169615
918.341	0.0170874
918.419	0.0170782
918.497	0.0171767
918.575	0.0171069
918.654	0.0169518
918.732	0.0169801
918.810	0.0170993
918.888	0.0169723
918.966	0.0169074
919.044	0.0170519
919.122	0.0170259
919.200	0.0171152
919.279	0.0169857
919.357	0.0169976
919.435	0.0169308
919.513	0.0169392
919.591	0.0168024
919.669	0.0169453
919.747	0.0169920
919.825	0.0169733
919.904	0.0169670
