06/03/2022	13:49:39	Ver.	4.1	UNKNOWN
Optical Delay	599.988409	Delta X		0.078125	Sweeps	1	Scan Rate	0/0
Coordinates	Axis 1	NaN	Axis 2	NaN	Axis 3	NaN	Axis 4	NaN	Axis 5	NaN	Axis 6	0.000000
TX Power	0.000000	RX Power	0.000000

599.988	0.0168629
600.067	0.0166705
600.145	0.0169245
600.223	0.0167843
600.301	0.0169630
600.379	0.0167624
600.457	0.0166660
600.535	0.0167208
600.613	0.0169044
600.692	0.0168153
600.770	0.0169302
600.848	0.0169165
600.926	0.0167553
601.004	0.0166971
601.082	0.0169038
601.160	0.0167890
601.238	0.0168584
601.317	0.0169222
601.395	0.0167802
601.473	0.0168828
601.551	0.0168836
601.629	0.0168536
601.707	0.0168306
601.785	0.0168937
601.863	0.0168777
601.942	0.0168151
602.020	0.0168486
602.098	0.0169247
602.176	0.0168832
602.254	0.0168789
602.332	0.0170183
602.410	0.0168995
602.488	0.0167286
602.567	0.0168204
602.645	0.0170033
602.723	0.0168581
602.801	0.0168374
602.879	0.0168783
602.957	0.0168940
603.035	0.0167624
603.113	0.0168291
603.192	0.0168285
603.270	0.0169232
603.348	0.0169198
603.426	0.0168975
603.504	0.0168015
603.582	0.0168703
603.660	0.0168887
603.738	0.0168555
603.817	0.0168481
603.895	0.0168505
603.973	0.0168149
604.051	0.0169231
604.129	0.0168181
604.207	0.0168147
604.285	0.0168908
604.363	0.0168964
604.442	0.0168088
604.520	0.0167641
604.598	0.0169015
604.676	0.0167832
604.754	0.0168624
604.832	0.0168575
604.910	0.0168990
604.988	0.0168046
605.067	0.0167663
605.145	0.0168993
605.223	0.0167606
605.301	0.0168218
605.379	0.0168719
605.457	0.0167974
605.535	0.0169205
605.613	0.0168781
605.692	0.0168837
605.770	0.0168481
605.848	0.0168271
605.926	0.0170136
606.004	0.0168489
606.082	0.0168913
606.160	0.0167902
606.238	0.0167977
606.317	0.0169227
606.395	0.0169103
606.473	0.0168655
606.551	0.0169405
606.629	0.0168105
606.707	0.0168382
606.785	0.0167757
606.863	0.0168472
606.942	0.0167796
607.020	0.0169110
607.098	0.0168356
607.176	0.0169371
607.254	0.0168010
607.332	0.0168262
607.410	0.0168638
607.488	0.0167668
607.567	0.0167873
607.645	0.0168958
607.723	0.0168045
607.801	0.0167836
607.879	0.0167865
607.957	0.0168531
608.035	0.0169384
608.113	0.0167220
608.192	0.0168153
608.270	0.0168683
608.348	0.0168557
608.426	0.0167366
608.504	0.0166421
608.582	0.0168547
608.660	0.0168516
608.738	0.0168021
608.817	0.0168758
608.895	0.0168011
608.973	0.0168124
609.051	0.0168822
609.129	0.0169232
609.207	0.0169000
609.285	0.0168329
609.363	0.0169015
609.442	0.0168718
609.520	0.0168153
609.598	0.0167458
609.676	0.0167874
609.754	0.0168516
609.832	0.0167931
609.910	0.0168670
609.988	0.0167139
610.067	0.0167406
610.145	0.0168528
610.223	0.0169249
610.301	0.0168648
610.379	0.0167281
610.457	0.0166545
610.535	0.0168727
610.613	0.0168831
610.692	0.0168916
610.770	0.0168468
610.848	0.0168166
610.926	0.0169418
611.004	0.0168430
611.082	0.0169447
611.160	0.0167960
611.238	0.0167168
611.317	0.0169341
611.395	0.0167529
611.473	0.0168040
611.551	0.0167688
611.629	0.0167237
611.707	0.0169203
611.785	0.0168250
611.863	0.0167577
611.942	0.0168194
612.020	0.0167039
612.098	0.0169080
612.176	0.0167059
612.254	0.0166933
612.332	0.0167023
612.410	0.0168479
612.488	0.0167660
612.567	0.0167558
612.645	0.0169157
612.723	0.0169102
612.801	0.0168334
612.879	0.0169283
612.957	0.0168996
613.035	0.0167404
613.113	0.0167545
613.192	0.0169607
613.270	0.0167877
613.348	0.0167204
613.426	0.0168999
613.504	0.0168410
613.582	0.0167023
613.660	0.0170058
613.738	0.0170441
613.817	0.0168422
613.895	0.0167906
613.973	0.0167633
614.051	0.0169155
614.129	0.0168190
614.207	0.0168425
614.285	0.0168495
614.363	0.0168208
614.442	0.0168665
614.520	0.0168217
614.598	0.0168009
614.676	0.0168881
614.754	0.0168509
614.832	0.0168929
614.910	0.0168336
614.988	0.0168376
615.067	0.0168664
615.145	0.0166750
615.223	0.0168525
615.301	0.0168430
615.379	0.0167112
615.457	0.0168647
615.535	0.0170110
615.613	0.0167452
615.692	0.0169166
615.770	0.0167857
615.848	0.0169333
615.926	0.0168109
616.004	0.0167906
616.082	0.0168576
616.160	0.0167690
616.238	0.0169008
616.317	0.0168745
616.395	0.0168726
616.473	0.0169403
616.551	0.0167698
616.629	0.0168524
616.707	0.0168827
616.785	0.0167170
616.863	0.0168060
616.942	0.0168594
617.020	0.0167781
617.098	0.0168652
617.176	0.0168107
617.254	0.0169208
617.332	0.0167711
617.410	0.0167542
617.488	0.0168475
617.567	0.0168667
617.645	0.0168292
617.723	0.0169035
617.801	0.0167715
617.879	0.0167474
617.957	0.0168179
618.035	0.0168200
618.113	0.0169676
618.192	0.0169249
618.270	0.0169206
618.348	0.0169324
618.426	0.0168474
618.504	0.0167583
618.582	0.0168299
618.660	0.0168253
618.738	0.0168367
618.817	0.0167698
618.895	0.0168945
618.973	0.0168594
619.051	0.0168967
619.129	0.0168861
619.207	0.0168296
619.285	0.0167917
619.363	0.0169943
619.442	0.0167773
619.520	0.0168656
619.598	0.0167573
619.676	0.0168468
619.754	0.0167879
619.832	0.0167805
619.910	0.0169325
619.988	0.0169190
620.067	0.0168193
620.145	0.0167645
620.223	0.0167278
620.301	0.0168140
620.379	0.0168234
620.457	0.0169404
620.535	0.0168205
620.613	0.0168755
620.692	0.0168846
620.770	0.0167681
620.848	0.0168834
620.926	0.0169286
621.004	0.0167606
621.082	0.0168712
621.160	0.0168655
621.238	0.0167879
621.317	0.0168716
621.395	0.0169141
621.473	0.0168547
621.551	0.0168385
621.629	0.0169192
621.707	0.0168798
621.785	0.0168130
621.863	0.0166933
621.942	0.0168266
622.020	0.0168679
622.098	0.0167792
622.176	0.0168866
622.254	0.0168813
622.332	0.0167925
622.410	0.0167897
622.488	0.0169350
622.567	0.0169070
622.645	0.0167593
622.723	0.0168389
622.801	0.0169281
622.879	0.0168084
622.957	0.0168048
623.035	0.0168109
623.113	0.0167403
623.192	0.0167818
623.270	0.0168536
623.348	0.0168361
623.426	0.0168993
623.504	0.0167666
623.582	0.0167296
623.660	0.0168158
623.738	0.0168949
623.817	0.0167907
623.895	0.0168200
623.973	0.0168143
624.051	0.0167448
624.129	0.0166864
624.207	0.0167929
624.285	0.0167610
624.363	0.0167560
624.442	0.0168757
624.520	0.0168855
624.598	0.0169646
624.676	0.0167983
624.754	0.0168240
624.832	0.0168076
624.910	0.0167974
624.988	0.0168802
625.067	0.0168054
625.145	0.0168838
625.223	0.0169070
625.301	0.0167880
625.379	0.0167673
625.457	0.0169743
625.535	0.0167116
625.613	0.0169061
625.692	0.0169297
625.770	0.0168393
625.848	0.0168622
625.926	0.0168447
626.004	0.0167513
626.082	0.0167121
626.160	0.0168714
626.238	0.0168365
626.317	0.0167897
626.395	0.0167668
626.473	0.0168160
626.551	0.0168823
626.629	0.0168102
626.707	0.0168298
626.785	0.0169189
626.863	0.0169304
626.942	0.0168686
627.020	0.0168516
627.098	0.0168330
627.176	0.0168302
627.254	0.0168107
627.332	0.0169025
627.410	0.0168062
627.488	0.0167050
627.567	0.0168487
627.645	0.0169722
627.723	0.0168479
627.801	0.0168320
627.879	0.0168220
627.957	0.0168651
628.035	0.0167049
628.113	0.0168427
628.192	0.0169805
628.270	0.0168198
628.348	0.0167572
628.426	0.0168147
628.504	0.0168574
628.582	0.0167002
628.660	0.0168015
628.738	0.0168107
628.817	0.0167151
628.895	0.0168483
628.973	0.0169283
629.051	0.0169706
629.129	0.0169444
629.207	0.0169228
629.285	0.0167061
629.363	0.0167326
629.442	0.0169649
629.520	0.0168462
629.598	0.0168087
629.676	0.0168127
629.754	0.0167827
629.832	0.0167681
629.910	0.0168288
629.988	0.0168976
630.067	0.0169259
630.145	0.0166486
630.223	0.0168690
630.301	0.0168621
630.379	0.0168942
630.457	0.0169614
630.535	0.0168861
630.613	0.0168363
630.692	0.0167533
630.770	0.0168719
630.848	0.0168845
630.926	0.0168315
631.004	0.0168680
631.082	0.0169679
631.160	0.0167411
631.238	0.0167802
631.317	0.0169246
631.395	0.0169286
631.473	0.0168198
631.551	0.0167988
631.629	0.0167892
631.707	0.0168130
631.785	0.0167567
631.863	0.0168450
631.942	0.0169231
632.020	0.0168122
632.098	0.0167810
632.176	0.0168478
632.254	0.0167948
632.332	0.0168688
632.410	0.0169848
632.488	0.0168314
632.567	0.0168380
632.645	0.0167165
632.723	0.0168060
632.801	0.0167796
632.879	0.0166939
632.957	0.0167938
633.035	0.0168436
633.113	0.0167802
633.192	0.0167282
633.270	0.0167876
633.348	0.0168294
633.426	0.0167806
633.504	0.0170422
633.582	0.0168618
633.660	0.0167971
633.738	0.0169151
633.817	0.0167989
633.895	0.0168491
633.973	0.0168066
634.051	0.0170436
634.129	0.0168343
634.207	0.0168305
634.285	0.0166552
634.363	0.0167851
634.442	0.0167261
634.520	0.0169154
634.598	0.0169228
634.676	0.0168866
634.754	0.0168803
634.832	0.0169524
634.910	0.0167873
634.988	0.0167794
635.067	0.0169112
635.145	0.0168713
635.223	0.0167366
635.301	0.0169111
635.379	0.0168594
635.457	0.0168461
635.535	0.0167345
635.613	0.0169351
635.692	0.0167857
635.770	0.0167764
635.848	0.0168673
635.926	0.0167530
636.004	0.0166894
636.082	0.0167836
636.160	0.0168407
636.238	0.0168108
636.317	0.0167617
636.395	0.0166753
636.473	0.0167068
636.551	0.0167676
636.629	0.0166621
636.707	0.0168456
636.785	0.0167476
636.863	0.0168335
636.942	0.0168607
637.020	0.0169419
637.098	0.0168187
637.176	0.0168116
637.254	0.0168001
637.332	0.0167425
637.410	0.0168180
637.488	0.0168182
637.567	0.0167084
637.645	0.0168398
637.723	0.0167933
637.801	0.0168017
637.879	0.0168462
637.957	0.0167705
638.035	0.0166877
638.113	0.0168776
638.192	0.0167397
638.270	0.0168462
638.348	0.0167752
638.426	0.0167433
638.504	0.0166489
638.582	0.0169379
638.660	0.0169285
638.738	0.0167936
638.817	0.0169451
638.895	0.0169268
638.973	0.0167326
639.051	0.0169671
639.129	0.0168890
639.207	0.0168120
639.285	0.0167849
639.363	0.0168101
639.442	0.0168957
639.520	0.0167947
639.598	0.0168265
639.676	0.0168241
639.754	0.0168300
639.832	0.0168757
639.910	0.0169013
639.988	0.0169399
640.067	0.0169172
640.145	0.0168253
640.223	0.0169393
640.301	0.0167915
640.379	0.0168670
640.457	0.0169509
640.535	0.0169535
640.613	0.0169085
640.692	0.0168134
640.770	0.0168206
640.848	0.0167706
640.926	0.0168414
641.004	0.0167213
641.082	0.0167157
641.160	0.0169014
641.238	0.0169392
641.317	0.0168842
641.395	0.0168364
641.473	0.0169318
641.551	0.0168098
641.629	0.0168145
641.707	0.0168246
641.785	0.0168594
641.863	0.0168241
641.942	0.0167951
642.020	0.0168698
642.098	0.0167574
642.176	0.0167628
642.254	0.0169472
642.332	0.0168196
642.410	0.0168466
642.488	0.0168562
642.567	0.0167332
642.645	0.0169420
642.723	0.0169040
642.801	0.0167981
642.879	0.0168426
642.957	0.0168248
643.035	0.0168611
643.113	0.0168944
643.192	0.0169102
643.270	0.0167652
643.348	0.0166740
643.426	0.0167648
643.504	0.0168966
643.582	0.0169338
643.660	0.0167584
643.738	0.0167632
643.817	0.0168681
643.895	0.0168406
643.973	0.0167590
644.051	0.0168240
644.129	0.0168819
644.207	0.0167028
644.285	0.0169528
644.363	0.0168169
644.442	0.0167175
644.520	0.0168447
644.598	0.0167702
644.676	0.0168063
644.754	0.0167513
644.832	0.0167559
644.910	0.0166938
644.988	0.0167098
645.067	0.0169546
645.145	0.0169312
645.223	0.0169068
645.301	0.0167928
645.379	0.0167308
645.457	0.0168806
645.535	0.0168436
645.613	0.0168519
645.692	0.0168567
645.770	0.0167750
645.848	0.0167126
645.926	0.0169665
646.004	0.0167983
646.082	0.0168914
646.160	0.0168352
646.238	0.0167246
646.317	0.0166232
646.395	0.0169504
646.473	0.0168542
646.551	0.0168237
646.629	0.0169507
646.707	0.0170176
646.785	0.0167630
646.863	0.0167408
646.942	0.0168079
647.020	0.0168568
647.098	0.0169366
647.176	0.0169800
647.254	0.0169632
647.332	0.0167982
647.410	0.0168598
647.488	0.0168676
647.567	0.0168653
647.645	0.0168224
647.723	0.0168008
647.801	0.0169075
647.879	0.0169984
647.957	0.0168040
648.035	0.0168689
648.113	0.0168291
648.192	0.0167787
648.270	0.0168996
648.348	0.0168076
648.426	0.0167500
648.504	0.0167906
648.582	0.0169161
648.660	0.0169628
648.738	0.0169480
648.817	0.0169407
648.895	0.0168464
648.973	0.0166660
649.051	0.0167624
649.129	0.0169000
649.207	0.0168481
649.285	0.0167853
649.363	0.0169027
649.442	0.0167506
649.520	0.0167583
649.598	0.0168530
649.676	0.0167683
649.754	0.0168026
649.832	0.0167549
649.910	0.0167278
649.988	0.0168071
650.067	0.0168788
650.145	0.0167779
650.223	0.0167335
650.301	0.0167564
650.379	0.0168786
650.457	0.0168803
650.535	0.0168412
650.613	0.0168378
650.692	0.0168404
650.770	0.0167096
650.848	0.0168256
650.926	0.0166872
651.004	0.0167723
651.082	0.0168088
651.160	0.0168005
651.238	0.0168066
651.317	0.0167509
651.395	0.0166673
651.473	0.0167917
651.551	0.0168008
651.629	0.0168488
651.707	0.0168509
651.785	0.0168244
651.863	0.0167894
651.942	0.0168232
652.020	0.0169001
652.098	0.0169709
652.176	0.0167817
652.254	0.0168388
652.332	0.0167973
652.410	0.0168989
652.488	0.0168351
652.567	0.0167916
652.645	0.0167313
652.723	0.0167379
652.801	0.0168816
652.879	0.0169244
652.957	0.0167358
653.035	0.0167503
653.113	0.0168510
653.192	0.0168106
653.270	0.0169453
653.348	0.0169669
653.426	0.0167217
653.504	0.0168350
653.582	0.0167928
653.660	0.0168771
653.738	0.0166446
653.817	0.0167538
653.895	0.0168741
653.973	0.0169070
654.051	0.0169765
654.129	0.0168488
654.207	0.0167238
654.285	0.0167970
654.363	0.0168127
654.442	0.0168731
654.520	0.0168445
654.598	0.0168990
654.676	0.0168711
654.754	0.0168179
654.832	0.0168015
654.910	0.0167591
654.988	0.0169596
655.067	0.0168639
655.145	0.0169812
655.223	0.0169029
655.301	0.0168770
655.379	0.0167489
655.457	0.0167606
655.535	0.0167804
655.613	0.0167763
655.692	0.0167799
655.770	0.0168360
655.848	0.0168896
655.926	0.0168115
656.004	0.0167838
656.082	0.0167869
656.160	0.0167972
656.238	0.0168382
656.317	0.0168108
656.395	0.0168469
656.473	0.0168553
656.551	0.0167312
656.629	0.0168678
656.707	0.0168054
656.785	0.0168193
656.863	0.0167804
656.942	0.0168983
657.020	0.0168910
657.098	0.0168313
657.176	0.0167866
657.254	0.0167532
657.332	0.0168305
657.410	0.0168538
657.488	0.0168047
657.567	0.0168312
657.645	0.0169054
657.723	0.0168855
657.801	0.0168016
657.879	0.0168168
657.957	0.0167378
658.035	0.0168269
658.113	0.0168861
658.192	0.0167789
658.270	0.0168633
658.348	0.0168255
658.426	0.0167632
658.504	0.0168059
658.582	0.0168110
658.660	0.0168613
658.738	0.0168081
658.817	0.0168623
658.895	0.0167600
658.973	0.0167137
659.051	0.0168406
659.129	0.0167895
659.207	0.0166627
659.285	0.0168845
659.363	0.0167654
659.442	0.0167747
659.520	0.0168081
659.598	0.0167316
659.676	0.0167773
659.754	0.0169081
659.832	0.0167519
659.910	0.0168142
659.988	0.0167502
660.067	0.0167359
660.145	0.0168034
660.223	0.0168309
660.301	0.0167860
660.379	0.0168237
660.457	0.0167943
660.535	0.0167057
660.613	0.0167571
660.692	0.0169486
660.770	0.0168967
660.848	0.0168266
660.926	0.0168568
661.004	0.0168407
661.082	0.0166788
661.160	0.0167799
661.238	0.0168763
661.317	0.0166763
661.395	0.0168269
661.473	0.0168285
661.551	0.0167197
661.629	0.0168494
661.707	0.0167094
661.785	0.0168025
661.863	0.0167618
661.942	0.0168681
662.020	0.0169504
662.098	0.0169073
662.176	0.0168851
662.254	0.0168031
662.332	0.0168854
662.410	0.0167020
662.488	0.0168968
662.567	0.0168876
662.645	0.0167844
662.723	0.0167435
662.801	0.0169320
662.879	0.0167107
662.957	0.0168320
663.035	0.0170191
663.113	0.0168242
663.192	0.0168775
663.270	0.0169393
663.348	0.0168684
663.426	0.0166943
663.504	0.0166968
663.582	0.0167925
663.660	0.0167979
663.738	0.0168488
663.817	0.0168751
663.895	0.0167063
663.973	0.0167776
664.051	0.0169096
664.129	0.0168066
664.207	0.0167564
664.285	0.0168040
664.363	0.0168863
664.442	0.0168054
664.520	0.0169202
664.598	0.0168232
664.676	0.0167335
664.754	0.0167007
664.832	0.0168107
664.910	0.0169649
664.988	0.0167788
665.067	0.0169057
665.145	0.0168921
665.223	0.0167274
665.301	0.0169019
665.379	0.0167764
665.457	0.0169154
665.535	0.0169575
665.613	0.0169080
665.692	0.0168187
665.770	0.0168023
665.848	0.0168623
665.926	0.0169241
666.004	0.0167939
666.082	0.0167674
666.160	0.0170135
666.238	0.0168556
666.317	0.0167921
666.395	0.0169859
666.473	0.0168340
666.551	0.0169234
666.629	0.0167741
666.707	0.0167989
666.785	0.0167754
666.863	0.0169863
666.942	0.0168555
667.020	0.0168302
667.098	0.0169576
667.176	0.0167178
667.254	0.0168053
667.332	0.0168751
667.410	0.0168848
667.488	0.0167511
667.567	0.0168698
667.645	0.0170594
667.723	0.0168245
667.801	0.0167992
667.879	0.0169867
667.957	0.0168825
668.035	0.0169286
668.113	0.0168855
668.192	0.0168677
668.270	0.0168697
668.348	0.0168289
668.426	0.0167554
668.504	0.0168768
668.582	0.0167725
668.660	0.0168324
668.738	0.0169157
668.817	0.0168209
668.895	0.0168638
668.973	0.0168991
669.051	0.0170164
669.129	0.0166087
669.207	0.0167579
669.285	0.0169237
669.363	0.0167718
669.442	0.0167989
669.520	0.0167877
669.598	0.0168130
669.676	0.0169209
669.754	0.0168234
669.832	0.0167964
669.910	0.0169380
669.988	0.0168465
670.067	0.0168322
670.145	0.0168964
670.223	0.0167403
670.301	0.0169286
670.379	0.0169432
670.457	0.0166570
670.535	0.0167482
670.613	0.0169881
670.692	0.0168610
670.770	0.0168275
670.848	0.0169599
670.926	0.0168334
671.004	0.0166715
671.082	0.0168592
671.160	0.0168129
671.238	0.0168785
671.317	0.0168726
671.395	0.0168421
671.473	0.0168327
671.551	0.0167495
671.629	0.0167477
671.707	0.0168861
671.785	0.0168977
671.863	0.0167926
671.942	0.0167386
672.020	0.0167849
672.098	0.0168539
672.176	0.0168157
672.254	0.0168278
672.332	0.0167953
672.410	0.0168509
672.488	0.0168465
672.567	0.0169104
672.645	0.0169001
672.723	0.0167017
672.801	0.0168620
672.879	0.0169369
672.957	0.0168726
673.035	0.0168501
673.113	0.0168435
673.192	0.0168261
673.270	0.0167949
673.348	0.0168549
673.426	0.0169257
673.504	0.0167697
673.582	0.0168707
673.660	0.0168414
673.738	0.0168863
673.817	0.0168912
673.895	0.0168211
673.973	0.0168275
674.051	0.0168433
674.129	0.0168746
674.207	0.0168165
674.285	0.0169920
674.363	0.0170191
674.442	0.0168263
674.520	0.0168871
674.598	0.0169334
674.676	0.0168290
674.754	0.0168335
674.832	0.0168492
674.910	0.0167721
674.988	0.0167724
675.067	0.0169123
675.145	0.0168273
675.223	0.0169187
675.301	0.0168962
675.379	0.0169886
675.457	0.0168743
675.535	0.0168741
675.613	0.0169011
675.692	0.0169727
675.770	0.0169861
675.848	0.0170145
675.926	0.0168779
676.004	0.0168293
676.082	0.0169351
676.160	0.0168561
676.238	0.0168999
676.317	0.0168413
676.395	0.0167748
676.473	0.0168951
676.551	0.0167085
676.629	0.0168691
676.707	0.0170261
676.785	0.0168054
676.863	0.0168389
676.942	0.0168788
677.020	0.0168175
677.098	0.0167833
677.176	0.0168398
677.254	0.0168224
677.332	0.0168395
677.410	0.0167195
677.488	0.0170012
677.567	0.0169218
677.645	0.0168372
677.723	0.0168937
677.801	0.0168257
677.879	0.0167828
677.957	0.0167682
678.035	0.0168033
678.113	0.0169125
678.192	0.0167052
678.270	0.0167918
678.348	0.0169652
678.426	0.0169524
678.504	0.0166985
678.582	0.0168375
678.660	0.0169021
678.738	0.0168753
678.817	0.0167557
678.895	0.0167753
678.973	0.0168377
679.051	0.0167783
679.129	0.0168483
679.207	0.0168536
679.285	0.0168954
679.363	0.0167792
679.442	0.0167307
679.520	0.0169135
679.598	0.0168276
679.676	0.0168718
679.754	0.0167594
679.832	0.0168197
679.910	0.0168384
679.988	0.0167297
680.067	0.0169063
680.145	0.0168061
680.223	0.0168139
680.301	0.0169196
680.379	0.0167474
680.457	0.0168108
680.535	0.0168499
680.613	0.0168732
680.692	0.0169447
680.770	0.0167922
680.848	0.0166714
680.926	0.0168678
681.004	0.0168452
681.082	0.0168117
681.160	0.0167297
681.238	0.0169514
681.317	0.0167850
681.395	0.0168143
681.473	0.0169265
681.551	0.0167828
681.629	0.0169334
681.707	0.0169337
681.785	0.0168685
681.863	0.0169023
681.942	0.0168371
682.020	0.0169192
682.098	0.0168291
682.176	0.0168353
682.254	0.0169007
682.332	0.0168076
682.410	0.0168642
682.488	0.0169287
682.567	0.0169485
682.645	0.0168910
682.723	0.0168412
682.801	0.0168123
682.879	0.0168414
682.957	0.0167470
683.035	0.0169159
683.113	0.0169164
683.192	0.0168824
683.270	0.0168590
683.348	0.0168846
683.426	0.0169138
683.504	0.0169068
683.582	0.0168932
683.660	0.0168241
683.738	0.0169752
683.817	0.0168228
683.895	0.0167909
683.973	0.0168525
684.051	0.0167778
684.129	0.0168976
684.207	0.0170306
684.285	0.0169521
684.363	0.0169357
684.442	0.0168452
684.520	0.0169013
684.598	0.0168903
684.676	0.0168770
684.754	0.0168081
684.832	0.0168277
684.910	0.0168974
684.988	0.0167639
685.067	0.0169304
685.145	0.0168929
685.223	0.0168156
685.301	0.0168811
685.379	0.0168315
685.457	0.0169820
685.535	0.0168068
685.613	0.0166788
685.692	0.0167993
685.770	0.0168387
685.848	0.0168433
685.926	0.0168162
686.004	0.0168282
686.082	0.0168531
686.160	0.0169196
686.238	0.0168888
686.317	0.0167273
686.395	0.0167213
686.473	0.0168526
686.551	0.0169310
686.629	0.0166774
686.707	0.0167924
686.785	0.0167597
686.863	0.0167080
686.942	0.0168877
687.020	0.0168465
687.098	0.0167973
687.176	0.0169438
687.254	0.0169439
687.332	0.0168119
687.410	0.0168593
687.488	0.0168985
687.567	0.0168523
687.645	0.0168149
687.723	0.0169770
687.801	0.0168076
687.879	0.0166043
687.957	0.0168032
688.035	0.0167384
688.113	0.0167709
688.192	0.0168793
688.270	0.0168064
688.348	0.0168456
688.426	0.0168361
688.504	0.0167947
688.582	0.0167917
688.660	0.0167439
688.738	0.0168106
688.817	0.0167825
688.895	0.0167474
688.973	0.0168061
689.051	0.0168012
689.129	0.0167516
689.207	0.0167837
689.285	0.0166883
689.363	0.0167767
689.442	0.0167193
689.520	0.0167003
689.598	0.0167352
689.676	0.0167742
689.754	0.0168373
689.832	0.0167163
689.910	0.0167091
689.988	0.0167815
690.067	0.0167875
690.145	0.0166479
690.223	0.0167927
690.301	0.0167688
690.379	0.0167006
690.457	0.0167576
690.535	0.0168806
690.613	0.0167609
690.692	0.0168616
690.770	0.0168643
690.848	0.0166756
690.926	0.0166398
691.004	0.0167700
691.082	0.0167915
691.160	0.0168015
691.238	0.0168393
691.317	0.0169259
691.395	0.0168433
691.473	0.0168340
691.551	0.0166920
691.629	0.0168359
691.707	0.0167308
691.785	0.0167400
691.863	0.0168803
691.942	0.0168237
692.020	0.0167489
692.098	0.0167876
692.176	0.0167584
692.254	0.0167736
692.332	0.0168291
692.410	0.0166306
692.488	0.0169585
692.567	0.0168632
692.645	0.0168261
692.723	0.0168809
692.801	0.0169297
692.879	0.0167451
692.957	0.0167301
693.035	0.0166833
693.113	0.0166069
693.192	0.0168372
693.270	0.0167140
693.348	0.0167165
693.426	0.0167487
693.504	0.0168793
693.582	0.0168649
693.660	0.0168941
693.738	0.0169240
693.817	0.0168097
693.895	0.0167928
693.973	0.0169790
694.051	0.0168674
694.129	0.0168497
694.207	0.0168170
694.285	0.0168249
694.363	0.0166542
694.442	0.0165006
694.520	0.0166290
694.598	0.0166749
694.676	0.0165964
694.754	0.0166829
694.832	0.0167645
694.910	0.0168452
694.988	0.0169460
695.067	0.0170480
695.145	0.0170876
695.223	0.0170467
695.301	0.0168858
695.379	0.0170635
695.457	0.0169434
695.535	0.0170002
695.613	0.0169184
695.692	0.0168488
695.770	0.0169049
695.848	0.0168415
695.926	0.0166470
696.004	0.0167452
696.082	0.0167027
696.160	0.0166948
696.238	0.0167120
696.317	0.0166862
696.395	0.0167979
696.473	0.0167324
696.551	0.0167675
696.629	0.0167466
696.707	0.0167679
696.785	0.0168510
696.863	0.0168526
696.942	0.0169015
697.020	0.0169320
697.098	0.0168027
697.176	0.0169042
697.254	0.0169824
697.332	0.0168964
697.410	0.0167601
697.488	0.0168440
697.567	0.0168394
697.645	0.0169896
697.723	0.0168829
697.801	0.0171225
697.879	0.0169526
697.957	0.0170280
698.035	0.0169099
698.113	0.0170692
698.192	0.0171004
698.270	0.0171373
698.348	0.0169998
698.426	0.0169955
698.504	0.0169444
698.582	0.0169228
698.660	0.0170293
698.738	0.0169787
698.817	0.0168215
698.895	0.0168320
698.973	0.0168744
699.051	0.0166850
699.129	0.0165980
699.207	0.0165788
699.285	0.0165875
699.363	0.0166483
699.442	0.0167557
699.520	0.0166539
699.598	0.0165186
699.676	0.0165514
699.754	0.0167148
699.832	0.0168670
699.910	0.0167392
699.988	0.0167560
700.067	0.0168075
700.145	0.0169144
700.223	0.0168755
700.301	0.0168538
700.379	0.0168405
700.457	0.0169965
700.535	0.0170480
700.613	0.0169957
700.692	0.0168690
700.770	0.0170062
700.848	0.0169170
700.926	0.0170658
701.004	0.0167730
701.082	0.0168940
701.160	0.0171079
701.238	0.0167562
701.317	0.0168689
701.395	0.0168343
701.473	0.0168178
701.551	0.0168095
701.629	0.0167848
701.707	0.0167373
701.785	0.0166774
701.863	0.0168768
701.942	0.0167956
702.020	0.0166520
702.098	0.0167600
702.176	0.0168153
702.254	0.0167203
702.332	0.0168228
702.410	0.0167057
702.488	0.0168266
702.567	0.0167210
702.645	0.0167422
702.723	0.0168758
702.801	0.0167977
702.879	0.0168163
702.957	0.0168716
703.035	0.0167987
703.113	0.0167886
703.192	0.0168014
703.270	0.0168202
703.348	0.0168758
703.426	0.0169368
703.504	0.0168085
703.582	0.0170358
703.660	0.0169473
703.738	0.0166756
703.817	0.0168110
703.895	0.0168787
703.973	0.0169126
704.051	0.0169440
704.129	0.0168990
704.207	0.0169153
704.285	0.0170245
704.363	0.0168666
704.442	0.0168837
704.520	0.0168474
704.598	0.0169640
704.676	0.0169623
704.754	0.0170205
704.832	0.0169110
704.910	0.0169151
704.988	0.0169360
705.067	0.0168314
705.145	0.0169312
705.223	0.0168911
705.301	0.0168501
705.379	0.0168732
705.457	0.0169356
705.535	0.0168224
705.613	0.0168785
705.692	0.0166244
705.770	0.0167438
705.848	0.0167520
705.926	0.0167581
706.004	0.0167156
706.082	0.0167044
706.160	0.0167493
706.238	0.0167521
706.317	0.0166541
706.395	0.0167636
706.473	0.0167636
706.551	0.0168578
706.629	0.0168636
706.707	0.0168168
706.785	0.0166973
706.863	0.0167344
706.942	0.0169216
707.020	0.0168585
707.098	0.0168370
707.176	0.0167510
707.254	0.0169070
707.332	0.0168619
707.410	0.0167847
707.488	0.0167599
707.567	0.0167717
707.645	0.0169682
707.723	0.0168246
707.801	0.0167483
707.879	0.0168332
707.957	0.0169036
708.035	0.0168792
708.113	0.0167435
708.192	0.0168861
708.270	0.0168128
708.348	0.0167217
708.426	0.0168517
708.504	0.0169309
708.582	0.0168594
708.660	0.0169167
708.738	0.0169204
708.817	0.0169786
708.895	0.0170011
708.973	0.0169436
709.051	0.0168760
709.129	0.0169231
709.207	0.0169373
709.285	0.0168336
709.363	0.0169228
709.442	0.0169975
709.520	0.0167154
709.598	0.0166783
709.676	0.0168517
709.754	0.0168128
709.832	0.0168129
709.910	0.0168615
709.988	0.0167385
710.067	0.0167889
710.145	0.0166912
710.223	0.0168328
710.301	0.0169323
710.379	0.0167676
710.457	0.0168232
710.535	0.0168003
710.613	0.0166562
710.692	0.0168501
710.770	0.0168137
710.848	0.0168147
710.926	0.0167114
711.004	0.0168445
711.082	0.0169126
711.160	0.0168070
711.238	0.0169268
711.317	0.0166910
711.395	0.0168229
711.473	0.0167735
711.551	0.0168394
711.629	0.0168544
711.707	0.0169817
711.785	0.0168276
711.863	0.0168440
711.942	0.0168525
712.020	0.0169718
712.098	0.0169311
712.176	0.0169199
712.254	0.0169745
712.332	0.0168293
712.410	0.0168875
712.488	0.0169506
712.567	0.0169772
712.645	0.0170736
712.723	0.0169737
712.801	0.0169290
712.879	0.0168773
712.957	0.0168956
713.035	0.0169406
713.113	0.0169204
713.192	0.0170514
713.270	0.0168488
713.348	0.0167413
713.426	0.0169489
713.504	0.0169695
713.582	0.0169582
713.660	0.0168475
713.738	0.0167725
713.817	0.0168177
713.895	0.0167592
713.973	0.0168459
714.051	0.0167764
714.129	0.0167583
714.207	0.0168853
714.285	0.0169384
714.363	0.0169290
714.442	0.0168567
714.520	0.0166890
714.598	0.0169025
714.676	0.0168964
714.754	0.0166879
714.832	0.0168489
714.910	0.0169399
714.988	0.0167529
715.067	0.0167823
715.145	0.0168321
715.223	0.0169189
715.301	0.0168395
715.379	0.0167891
715.457	0.0167632
715.535	0.0166908
715.613	0.0166677
715.692	0.0167034
715.770	0.0167611
715.848	0.0169669
715.926	0.0168151
716.004	0.0168155
716.082	0.0167432
716.160	0.0169022
716.238	0.0168373
716.317	0.0168702
716.395	0.0167574
716.473	0.0166748
716.551	0.0168472
716.629	0.0167487
716.707	0.0167842
716.785	0.0166934
716.863	0.0167446
716.942	0.0167951
717.020	0.0167226
717.098	0.0167415
717.176	0.0169192
717.254	0.0167841
717.332	0.0168865
717.410	0.0168769
717.488	0.0169675
717.567	0.0168846
717.645	0.0167468
717.723	0.0167681
717.801	0.0168513
717.879	0.0168983
717.957	0.0169866
718.035	0.0168949
718.113	0.0167625
718.192	0.0167839
718.270	0.0168344
718.348	0.0167048
718.426	0.0168024
718.504	0.0168968
718.582	0.0167684
718.660	0.0166935
718.738	0.0167558
718.817	0.0168464
718.895	0.0167204
718.973	0.0168490
719.051	0.0169296
719.129	0.0168723
719.207	0.0168488
719.285	0.0168879
719.363	0.0168643
719.442	0.0169997
719.520	0.0169260
719.598	0.0169616
719.676	0.0168977
719.754	0.0169057
719.832	0.0169389
719.910	0.0169475
719.988	0.0168834
720.067	0.0169630
720.145	0.0168407
720.223	0.0168429
720.301	0.0169762
720.379	0.0168166
720.457	0.0167931
720.535	0.0170479
720.613	0.0167599
720.692	0.0168729
720.770	0.0169130
720.848	0.0168092
720.926	0.0168122
721.004	0.0168480
721.082	0.0168777
721.160	0.0168762
721.238	0.0168082
721.317	0.0169063
721.395	0.0169131
721.473	0.0169607
721.551	0.0168659
721.629	0.0169353
721.707	0.0167889
721.785	0.0166697
721.863	0.0168593
721.942	0.0169212
722.020	0.0167701
722.098	0.0168182
722.176	0.0168812
722.254	0.0167491
722.332	0.0166714
722.410	0.0167439
722.488	0.0168651
722.567	0.0169954
722.645	0.0168367
722.723	0.0167120
722.801	0.0167680
722.879	0.0167723
722.957	0.0168664
723.035	0.0167242
723.113	0.0168363
723.192	0.0169331
723.270	0.0168446
723.348	0.0170076
723.426	0.0169637
723.504	0.0168612
723.582	0.0167954
723.660	0.0168352
723.738	0.0168331
723.817	0.0168331
723.895	0.0168654
723.973	0.0168264
724.051	0.0168256
724.129	0.0168005
724.207	0.0167088
724.285	0.0169415
724.363	0.0168262
724.442	0.0167352
724.520	0.0166043
724.598	0.0169262
724.676	0.0168743
724.754	0.0168407
724.832	0.0168275
724.910	0.0167995
724.988	0.0169048
725.067	0.0168698
725.145	0.0167385
725.223	0.0168530
725.301	0.0167822
725.379	0.0168666
725.457	0.0169617
725.535	0.0169280
725.613	0.0167233
725.692	0.0169086
725.770	0.0168294
725.848	0.0166797
725.926	0.0169257
726.004	0.0168018
726.082	0.0167331
726.160	0.0167292
726.238	0.0168391
726.317	0.0169840
726.395	0.0167612
726.473	0.0167484
726.551	0.0167888
726.629	0.0168768
726.707	0.0167822
726.785	0.0168387
726.863	0.0168681
726.942	0.0167238
727.020	0.0168646
727.098	0.0168697
727.176	0.0167517
727.254	0.0167567
727.332	0.0168454
727.410	0.0167528
727.488	0.0169373
727.567	0.0168604
727.645	0.0169544
727.723	0.0169045
727.801	0.0167634
727.879	0.0166972
727.957	0.0168580
728.035	0.0168253
728.113	0.0167910
728.192	0.0170092
728.270	0.0169833
728.348	0.0169253
728.426	0.0168625
728.504	0.0168166
728.582	0.0167429
728.660	0.0168386
728.738	0.0168973
728.817	0.0167909
728.895	0.0168811
728.973	0.0167987
729.051	0.0169740
729.129	0.0168527
729.207	0.0167381
729.285	0.0169046
729.363	0.0167162
729.442	0.0168903
729.520	0.0167603
729.598	0.0168350
729.676	0.0168463
729.754	0.0169901
729.832	0.0168162
729.910	0.0168263
729.988	0.0168246
730.067	0.0167966
730.145	0.0168298
730.223	0.0166885
730.301	0.0169428
730.379	0.0167799
730.457	0.0168216
730.535	0.0168847
730.613	0.0168348
730.692	0.0167887
730.770	0.0167192
730.848	0.0168211
730.926	0.0168661
731.004	0.0166338
731.082	0.0166393
731.160	0.0167381
731.238	0.0169788
731.317	0.0169121
731.395	0.0168463
731.473	0.0169775
731.551	0.0168696
731.629	0.0168568
731.707	0.0168008
731.785	0.0169379
731.863	0.0168424
731.942	0.0169484
732.020	0.0168915
732.098	0.0168649
732.176	0.0168023
732.254	0.0168720
732.332	0.0167316
732.410	0.0167574
732.488	0.0168553
732.567	0.0168320
732.645	0.0167716
732.723	0.0167776
732.801	0.0168517
732.879	0.0169123
732.957	0.0168093
733.035	0.0167402
733.113	0.0167851
733.192	0.0168159
733.270	0.0169058
733.348	0.0169146
733.426	0.0168239
733.504	0.0167241
733.582	0.0167508
733.660	0.0169017
733.738	0.0169320
733.817	0.0168407
733.895	0.0168954
733.973	0.0167825
734.051	0.0167897
734.129	0.0168192
734.207	0.0167937
734.285	0.0168389
734.363	0.0169087
734.442	0.0168687
734.520	0.0169305
734.598	0.0167944
734.676	0.0169279
734.754	0.0168159
734.832	0.0169339
734.910	0.0168641
734.988	0.0168900
735.067	0.0168745
735.145	0.0168828
735.223	0.0168533
735.301	0.0169130
735.379	0.0169407
735.457	0.0168832
735.535	0.0168272
735.613	0.0169322
735.692	0.0169155
735.770	0.0168452
735.848	0.0169560
735.926	0.0168202
736.004	0.0169753
736.082	0.0170083
736.160	0.0168473
736.238	0.0168061
736.317	0.0167961
736.395	0.0167697
736.473	0.0168090
736.551	0.0168259
736.629	0.0168033
736.707	0.0168207
736.785	0.0168408
736.863	0.0168592
736.942	0.0168122
737.020	0.0168594
737.098	0.0167113
737.176	0.0167442
737.254	0.0168878
737.332	0.0166393
737.410	0.0168178
737.488	0.0169042
737.567	0.0168575
737.645	0.0168986
737.723	0.0168052
737.801	0.0170037
737.879	0.0169135
737.957	0.0167513
738.035	0.0168800
738.113	0.0168512
738.192	0.0168273
738.270	0.0168805
738.348	0.0169363
738.426	0.0169133
738.504	0.0167786
738.582	0.0168624
738.660	0.0168951
738.738	0.0168743
738.817	0.0169091
738.895	0.0168200
738.973	0.0168772
739.051	0.0168834
739.129	0.0168580
739.207	0.0168878
739.285	0.0169902
739.363	0.0168347
739.442	0.0167356
739.520	0.0167946
739.598	0.0167759
739.676	0.0167847
739.754	0.0168985
739.832	0.0169250
739.910	0.0168214
739.988	0.0168201
740.067	0.0167101
740.145	0.0167695
740.223	0.0167733
740.301	0.0168468
740.379	0.0168995
740.457	0.0168651
740.535	0.0167976
740.613	0.0169089
740.692	0.0167373
740.770	0.0168326
740.848	0.0168963
740.926	0.0170172
741.004	0.0167996
741.082	0.0168665
741.160	0.0168590
741.238	0.0168236
741.317	0.0167893
741.395	0.0169113
741.473	0.0169943
741.551	0.0167199
741.629	0.0169266
741.707	0.0168952
741.785	0.0167477
741.863	0.0168443
741.942	0.0169183
742.020	0.0168739
742.098	0.0167364
742.176	0.0168749
742.254	0.0168623
742.332	0.0169166
742.410	0.0168385
742.488	0.0168333
742.567	0.0167867
742.645	0.0167171
742.723	0.0168189
742.801	0.0168374
742.879	0.0167995
742.957	0.0166650
743.035	0.0167260
743.113	0.0168271
743.192	0.0168642
743.270	0.0166916
743.348	0.0167593
743.426	0.0166344
743.504	0.0167283
743.582	0.0168883
743.660	0.0168327
743.738	0.0168548
743.817	0.0168140
743.895	0.0168640
743.973	0.0167977
744.051	0.0168478
744.129	0.0169936
744.207	0.0168880
744.285	0.0168964
744.363	0.0169772
744.442	0.0168467
744.520	0.0168047
744.598	0.0169199
744.676	0.0169352
744.754	0.0168317
744.832	0.0167236
744.910	0.0166431
744.988	0.0169091
745.067	0.0168719
745.145	0.0167915
745.223	0.0168090
745.301	0.0168169
745.379	0.0169175
745.457	0.0167844
745.535	0.0169117
745.613	0.0167742
745.692	0.0167904
745.770	0.0168542
745.848	0.0167950
745.926	0.0168027
746.004	0.0167938
746.082	0.0166294
746.160	0.0168743
746.238	0.0168587
746.317	0.0168221
746.395	0.0168277
746.473	0.0168656
746.551	0.0168724
746.629	0.0168144
746.707	0.0168090
746.785	0.0167744
746.863	0.0168338
746.942	0.0169408
747.020	0.0167917
747.098	0.0168106
747.176	0.0168750
747.254	0.0168788
747.332	0.0169199
747.410	0.0168639
747.488	0.0168152
747.567	0.0167256
747.645	0.0169191
747.723	0.0169167
747.801	0.0167854
747.879	0.0167730
747.957	0.0167038
748.035	0.0166985
748.113	0.0168192
748.192	0.0169505
748.270	0.0168190
748.348	0.0168791
748.426	0.0168071
748.504	0.0168610
748.582	0.0170764
748.660	0.0168702
748.738	0.0167288
748.817	0.0168169
748.895	0.0168775
748.973	0.0167970
749.051	0.0167024
749.129	0.0169420
749.207	0.0167786
749.285	0.0167817
749.363	0.0167809
749.442	0.0168890
749.520	0.0168710
749.598	0.0167476
749.676	0.0167435
749.754	0.0167237
749.832	0.0168562
749.910	0.0166898
749.988	0.0167558
750.067	0.0167400
750.145	0.0168510
750.223	0.0170387
750.301	0.0168078
750.379	0.0169371
750.457	0.0168611
750.535	0.0167355
750.613	0.0167697
750.692	0.0168783
750.770	0.0167702
750.848	0.0169337
750.926	0.0168890
751.004	0.0168098
751.082	0.0168488
751.160	0.0168424
751.238	0.0167996
751.317	0.0168912
751.395	0.0168247
751.473	0.0168362
751.551	0.0168031
751.629	0.0167884
751.707	0.0167319
751.785	0.0166737
751.863	0.0167843
751.942	0.0168708
752.020	0.0167892
752.098	0.0167391
752.176	0.0167434
752.254	0.0167955
752.332	0.0168529
752.410	0.0169236
752.488	0.0169257
752.567	0.0168069
752.645	0.0168237
752.723	0.0166293
752.801	0.0168427
752.879	0.0169374
752.957	0.0167057
753.035	0.0167725
753.113	0.0168776
753.192	0.0168382
753.270	0.0168396
753.348	0.0168404
753.426	0.0167475
753.504	0.0169069
753.582	0.0168757
753.660	0.0169196
753.738	0.0168271
753.817	0.0167415
753.895	0.0168542
753.973	0.0168906
754.051	0.0169133
754.129	0.0168216
754.207	0.0167921
754.285	0.0168711
754.363	0.0168877
754.442	0.0167048
754.520	0.0168311
754.598	0.0168007
754.676	0.0168729
754.754	0.0167810
754.832	0.0168240
754.910	0.0168456
754.988	0.0168265
755.067	0.0167866
755.145	0.0168568
755.223	0.0168256
755.301	0.0169201
755.379	0.0166798
755.457	0.0168367
755.535	0.0168445
755.613	0.0168271
755.692	0.0167120
755.770	0.0167786
755.848	0.0168782
755.926	0.0169431
756.004	0.0169930
756.082	0.0167589
756.160	0.0169420
756.238	0.0170351
756.317	0.0168483
756.395	0.0166864
756.473	0.0168238
756.551	0.0168507
756.629	0.0168295
756.707	0.0168420
756.785	0.0170016
756.863	0.0167956
756.942	0.0167580
757.020	0.0168017
757.098	0.0168761
757.176	0.0166854
757.254	0.0167509
757.332	0.0167917
757.410	0.0167726
757.488	0.0167042
757.567	0.0167658
757.645	0.0167608
757.723	0.0168766
757.801	0.0168211
757.879	0.0167719
757.957	0.0168340
758.035	0.0167960
758.113	0.0167469
758.192	0.0168044
758.270	0.0167753
758.348	0.0166413
758.426	0.0168803
758.504	0.0169415
758.582	0.0166705
758.660	0.0168137
758.738	0.0167882
758.817	0.0168849
758.895	0.0169051
758.973	0.0167543
759.051	0.0168718
759.129	0.0168675
759.207	0.0168428
759.285	0.0167939
759.363	0.0168512
759.442	0.0168442
759.520	0.0168143
759.598	0.0167531
759.676	0.0166985
759.754	0.0169369
759.832	0.0168465
759.910	0.0167904
759.988	0.0169433
760.067	0.0168604
760.145	0.0166901
760.223	0.0167309
760.301	0.0168657
760.379	0.0168283
760.457	0.0168195
760.535	0.0167336
760.613	0.0168632
760.692	0.0169039
760.770	0.0168085
760.848	0.0168375
760.926	0.0168884
761.004	0.0169494
761.082	0.0168801
761.160	0.0168348
761.238	0.0168028
761.317	0.0168815
761.395	0.0168491
761.473	0.0167831
761.551	0.0167604
761.629	0.0167786
761.707	0.0168833
761.785	0.0168388
761.863	0.0168139
761.942	0.0168378
762.020	0.0167758
762.098	0.0168217
762.176	0.0168384
762.254	0.0169827
762.332	0.0168372
762.410	0.0168507
762.488	0.0169238
762.567	0.0168425
762.645	0.0168610
762.723	0.0168489
762.801	0.0167560
762.879	0.0169922
762.957	0.0168782
763.035	0.0168836
763.113	0.0168526
763.192	0.0167915
763.270	0.0167714
763.348	0.0168893
763.426	0.0168159
763.504	0.0167261
763.582	0.0167814
763.660	0.0169769
763.738	0.0169920
763.817	0.0168945
763.895	0.0167606
763.973	0.0168848
764.051	0.0169819
764.129	0.0168934
764.207	0.0169210
764.285	0.0168797
764.363	0.0168435
764.442	0.0168889
764.520	0.0170635
764.598	0.0168387
764.676	0.0167845
764.754	0.0169630
764.832	0.0168828
764.910	0.0169324
764.988	0.0168189
765.067	0.0169463
765.145	0.0170431
765.223	0.0168394
765.301	0.0166696
765.379	0.0167989
765.457	0.0169407
765.535	0.0168320
765.613	0.0168075
765.692	0.0168286
765.770	0.0168227
765.848	0.0167682
765.926	0.0168538
766.004	0.0168848
766.082	0.0169331
766.160	0.0168526
766.238	0.0168204
766.317	0.0169028
766.395	0.0170151
766.473	0.0168237
766.551	0.0167815
766.629	0.0167689
766.707	0.0168974
766.785	0.0167610
766.863	0.0167094
766.942	0.0168892
767.020	0.0168414
767.098	0.0168302
767.176	0.0169332
767.254	0.0168050
767.332	0.0167986
767.410	0.0169036
767.488	0.0167374
767.567	0.0167123
767.645	0.0168704
767.723	0.0168375
767.801	0.0169224
767.879	0.0168042
767.957	0.0167751
768.035	0.0168956
768.113	0.0167417
768.192	0.0169294
768.270	0.0169276
768.348	0.0168287
768.426	0.0167901
768.504	0.0167570
768.582	0.0167756
768.660	0.0168311
768.738	0.0167999
768.817	0.0167948
768.895	0.0167834
768.973	0.0168032
769.051	0.0168682
769.129	0.0167822
769.207	0.0168195
769.285	0.0168907
769.363	0.0167995
769.442	0.0168195
769.520	0.0167584
769.598	0.0168880
769.676	0.0169083
769.754	0.0167899
769.832	0.0167898
769.910	0.0167447
769.988	0.0168383
770.067	0.0169802
770.145	0.0168159
770.223	0.0167812
770.301	0.0167451
770.379	0.0167709
770.457	0.0166706
770.535	0.0168414
770.613	0.0169200
770.692	0.0167661
770.770	0.0167977
770.848	0.0168784
770.926	0.0167982
771.004	0.0167772
771.082	0.0168752
771.160	0.0169019
771.238	0.0168024
771.317	0.0168283
771.395	0.0167556
771.473	0.0167616
771.551	0.0168560
771.629	0.0169655
771.707	0.0167954
771.785	0.0168601
771.863	0.0168693
771.942	0.0169530
772.020	0.0167975
772.098	0.0168673
772.176	0.0168405
772.254	0.0168237
772.332	0.0169120
772.410	0.0167493
772.488	0.0167890
772.567	0.0168572
772.645	0.0168376
772.723	0.0167596
772.801	0.0168351
772.879	0.0168595
772.957	0.0168107
773.035	0.0168047
773.113	0.0168672
773.192	0.0168649
773.270	0.0169152
773.348	0.0169636
773.426	0.0169621
773.504	0.0168942
773.582	0.0168708
773.660	0.0169084
773.738	0.0167349
773.817	0.0168095
773.895	0.0170062
773.973	0.0169521
774.051	0.0168632
774.129	0.0168484
774.207	0.0167616
774.285	0.0168929
774.363	0.0169091
774.442	0.0168375
774.520	0.0168200
774.598	0.0167231
774.676	0.0168104
774.754	0.0169459
774.832	0.0167665
774.910	0.0168430
774.988	0.0167995
775.067	0.0168589
775.145	0.0169561
775.223	0.0170137
775.301	0.0169320
775.379	0.0169611
775.457	0.0168645
775.535	0.0167904
775.613	0.0169262
775.692	0.0169092
775.770	0.0170006
775.848	0.0168727
775.926	0.0167632
776.004	0.0168348
776.082	0.0167767
776.160	0.0167981
776.238	0.0167673
776.317	0.0168514
776.395	0.0168931
776.473	0.0169385
776.551	0.0168360
776.629	0.0168774
776.707	0.0168356
776.785	0.0168648
776.863	0.0168746
776.942	0.0167332
777.020	0.0168701
777.098	0.0168406
777.176	0.0168419
777.254	0.0167416
777.332	0.0167133
777.410	0.0166730
777.488	0.0168845
777.567	0.0168766
777.645	0.0167612
777.723	0.0167989
777.801	0.0169295
777.879	0.0167863
777.957	0.0169720
778.035	0.0168794
778.113	0.0168730
778.192	0.0169241
778.270	0.0168347
778.348	0.0169137
778.426	0.0167769
778.504	0.0169376
778.582	0.0168927
778.660	0.0167982
778.738	0.0167427
778.817	0.0167802
778.895	0.0169185
778.973	0.0168388
779.051	0.0167631
779.129	0.0168348
779.207	0.0168372
779.285	0.0168789
779.363	0.0168196
779.442	0.0167199
779.520	0.0168591
779.598	0.0168761
779.676	0.0168264
779.754	0.0169093
779.832	0.0168708
779.910	0.0167765
779.988	0.0169897
780.067	0.0168123
780.145	0.0167966
780.223	0.0168810
780.301	0.0168143
780.379	0.0167474
780.457	0.0167683
780.535	0.0167670
780.613	0.0169113
780.692	0.0169166
780.770	0.0167576
780.848	0.0167553
780.926	0.0167548
781.004	0.0170214
781.082	0.0169083
781.160	0.0169382
781.238	0.0168914
781.317	0.0168825
781.395	0.0169756
781.473	0.0168735
781.551	0.0168211
781.629	0.0169083
781.707	0.0168796
781.785	0.0170290
781.863	0.0167931
781.942	0.0168765
782.020	0.0168719
782.098	0.0168508
782.176	0.0169315
782.254	0.0169725
782.332	0.0169062
782.410	0.0168608
782.488	0.0168690
782.567	0.0169541
782.645	0.0169656
782.723	0.0168262
782.801	0.0168320
782.879	0.0167461
782.957	0.0168119
783.035	0.0168465
783.113	0.0167890
783.192	0.0168886
783.270	0.0168279
783.348	0.0166706
783.426	0.0167294
783.504	0.0168247
783.582	0.0166569
783.660	0.0168208
783.738	0.0169495
783.817	0.0168325
783.895	0.0167151
783.973	0.0168356
784.051	0.0168552
784.129	0.0168138
784.207	0.0168100
784.285	0.0169474
784.363	0.0167936
784.442	0.0167499
784.520	0.0168460
784.598	0.0169571
784.676	0.0169563
784.754	0.0166821
784.832	0.0169094
784.910	0.0170784
784.988	0.0169787
785.067	0.0170863
785.145	0.0169611
785.223	0.0167915
785.301	0.0169245
785.379	0.0169291
785.457	0.0168942
785.535	0.0169552
785.613	0.0167992
785.692	0.0168723
785.770	0.0169044
785.848	0.0169839
785.926	0.0167920
786.004	0.0167738
786.082	0.0169749
786.160	0.0169878
786.238	0.0169371
786.317	0.0169373
786.395	0.0169494
786.473	0.0169425
786.551	0.0169320
786.629	0.0169171
786.707	0.0169691
786.785	0.0169560
786.863	0.0168804
786.942	0.0169955
787.020	0.0169012
787.098	0.0168832
787.176	0.0167769
787.254	0.0167591
787.332	0.0167389
787.410	0.0168486
787.488	0.0169016
787.567	0.0168517
787.645	0.0167572
787.723	0.0167137
787.801	0.0169646
787.879	0.0167019
787.957	0.0169328
788.035	0.0168913
788.113	0.0167917
788.192	0.0168378
788.270	0.0167189
788.348	0.0168266
788.426	0.0167127
788.504	0.0168800
788.582	0.0170152
788.660	0.0169450
788.738	0.0170096
788.817	0.0168803
788.895	0.0168941
788.973	0.0167563
789.051	0.0169363
789.129	0.0168693
789.207	0.0167980
789.285	0.0169051
789.363	0.0167421
789.442	0.0168977
789.520	0.0168061
789.598	0.0168006
789.676	0.0168308
789.754	0.0168394
789.832	0.0169164
789.910	0.0170161
789.988	0.0169440
790.067	0.0168386
790.145	0.0167357
790.223	0.0166996
790.301	0.0168265
790.379	0.0168882
790.457	0.0168607
790.535	0.0167760
790.613	0.0167950
790.692	0.0168672
790.770	0.0168229
790.848	0.0168340
790.926	0.0166974
791.004	0.0169200
791.082	0.0169263
791.160	0.0168597
791.238	0.0167564
791.317	0.0169022
791.395	0.0169662
791.473	0.0168011
791.551	0.0167146
791.629	0.0168407
791.707	0.0169123
791.785	0.0168769
791.863	0.0168288
791.942	0.0168641
792.020	0.0168837
792.098	0.0168646
792.176	0.0167119
792.254	0.0168301
792.332	0.0168335
792.410	0.0168920
792.488	0.0168461
792.567	0.0168946
792.645	0.0168801
792.723	0.0168610
792.801	0.0168526
792.879	0.0168593
792.957	0.0166930
793.035	0.0169193
793.113	0.0168823
793.192	0.0167291
793.270	0.0167862
793.348	0.0168347
793.426	0.0169752
793.504	0.0168250
793.582	0.0168095
793.660	0.0169005
793.738	0.0168121
793.817	0.0167387
793.895	0.0168756
793.973	0.0167570
794.051	0.0167805
794.129	0.0167926
794.207	0.0168474
794.285	0.0169760
794.363	0.0167976
794.442	0.0168961
794.520	0.0168700
794.598	0.0167212
794.676	0.0168495
794.754	0.0168486
794.832	0.0167558
794.910	0.0167715
794.988	0.0169055
795.067	0.0170527
795.145	0.0169265
795.223	0.0168079
795.301	0.0168572
795.379	0.0168652
795.457	0.0168130
795.535	0.0166666
795.613	0.0168688
795.692	0.0167761
795.770	0.0170293
795.848	0.0168726
795.926	0.0167586
796.004	0.0167693
796.082	0.0168234
796.160	0.0167872
796.238	0.0169064
796.317	0.0169077
796.395	0.0168942
796.473	0.0169219
796.551	0.0168582
796.629	0.0167886
796.707	0.0169540
796.785	0.0168428
796.863	0.0168436
796.942	0.0169328
797.020	0.0169783
797.098	0.0167641
797.176	0.0167820
797.254	0.0168827
797.332	0.0168475
797.410	0.0166980
797.488	0.0169068
797.567	0.0169152
797.645	0.0168702
797.723	0.0167671
797.801	0.0167835
797.879	0.0168800
797.957	0.0168939
798.035	0.0168101
798.113	0.0169688
798.192	0.0169379
798.270	0.0169211
798.348	0.0167510
798.426	0.0168398
798.504	0.0167824
798.582	0.0168020
798.660	0.0169003
798.738	0.0168140
798.817	0.0167615
798.895	0.0168291
798.973	0.0167673
799.051	0.0169415
799.129	0.0168529
799.207	0.0166914
799.285	0.0167996
799.363	0.0168813
799.442	0.0167165
799.520	0.0169357
799.598	0.0167989
799.676	0.0168512
799.754	0.0167611
799.832	0.0168005
799.910	0.0169236
799.988	0.0169119
800.067	0.0168823
800.145	0.0169853
800.223	0.0168414
800.301	0.0167674
800.379	0.0169650
800.457	0.0168182
800.535	0.0168190
800.613	0.0168220
800.692	0.0168760
800.770	0.0168913
800.848	0.0168950
800.926	0.0169804
801.004	0.0169442
801.082	0.0167948
801.160	0.0170525
801.238	0.0168681
801.317	0.0166086
801.395	0.0168609
801.473	0.0168351
801.551	0.0169505
801.629	0.0166851
801.707	0.0167932
801.785	0.0168835
801.863	0.0168792
801.942	0.0167749
802.020	0.0166817
802.098	0.0168010
802.176	0.0168159
802.254	0.0168964
802.332	0.0168290
802.410	0.0166945
802.488	0.0167424
802.567	0.0168611
802.645	0.0167542
802.723	0.0168358
802.801	0.0167374
802.879	0.0168219
802.957	0.0169593
803.035	0.0167907
803.113	0.0167673
803.192	0.0167489
803.270	0.0168745
803.348	0.0169080
803.426	0.0168633
803.504	0.0168376
803.582	0.0168252
803.660	0.0169353
803.738	0.0167987
803.817	0.0168306
803.895	0.0168221
803.973	0.0168694
804.051	0.0168146
804.129	0.0169135
804.207	0.0167957
804.285	0.0169816
804.363	0.0167237
804.442	0.0167976
804.520	0.0167718
804.598	0.0169147
804.676	0.0167468
804.754	0.0169028
804.832	0.0169633
804.910	0.0169397
804.988	0.0169441
805.067	0.0169197
805.145	0.0167776
805.223	0.0168428
805.301	0.0167353
805.379	0.0168233
805.457	0.0167521
805.535	0.0168469
805.613	0.0168406
805.692	0.0168646
805.770	0.0169749
805.848	0.0169637
805.926	0.0167953
806.004	0.0169253
806.082	0.0169957
806.160	0.0167662
806.238	0.0168168
806.317	0.0170573
806.395	0.0169424
806.473	0.0168754
806.551	0.0167629
806.629	0.0168901
806.707	0.0168235
806.785	0.0168870
806.863	0.0167854
806.942	0.0169338
807.020	0.0170022
807.098	0.0169637
807.176	0.0168094
807.254	0.0168261
807.332	0.0167379
807.410	0.0168403
807.488	0.0169090
807.567	0.0169937
807.645	0.0169035
807.723	0.0168393
807.801	0.0170213
807.879	0.0168736
807.957	0.0169231
808.035	0.0169212
808.113	0.0170107
808.192	0.0169305
808.270	0.0168470
808.348	0.0168810
808.426	0.0170906
808.504	0.0167618
808.582	0.0167699
808.660	0.0168933
808.738	0.0168266
808.817	0.0168289
808.895	0.0168029
808.973	0.0168873
809.051	0.0168739
809.129	0.0168530
809.207	0.0168290
809.285	0.0169839
809.363	0.0167803
809.442	0.0168313
809.520	0.0167286
809.598	0.0168932
809.676	0.0167836
809.754	0.0168853
809.832	0.0169329
809.910	0.0168490
809.988	0.0168147
810.067	0.0168835
810.145	0.0168826
810.223	0.0167538
810.301	0.0169846
810.379	0.0168703
810.457	0.0167743
810.535	0.0167707
810.613	0.0168101
810.692	0.0168822
810.770	0.0168423
810.848	0.0168668
810.926	0.0168947
811.004	0.0168174
811.082	0.0168650
811.160	0.0167191
811.238	0.0167832
811.317	0.0169251
811.395	0.0168221
811.473	0.0169290
811.551	0.0169623
811.629	0.0168396
811.707	0.0167235
811.785	0.0167609
811.863	0.0168673
811.942	0.0167963
812.020	0.0168201
812.098	0.0168767
812.176	0.0168076
812.254	0.0169051
812.332	0.0167592
812.410	0.0168803
812.488	0.0168423
812.567	0.0168943
812.645	0.0168889
812.723	0.0169702
812.801	0.0168315
812.879	0.0168951
812.957	0.0168521
813.035	0.0168943
813.113	0.0169006
813.192	0.0168198
813.270	0.0169323
813.348	0.0169435
813.426	0.0168720
813.504	0.0168769
813.582	0.0169651
813.660	0.0167934
813.738	0.0169145
813.817	0.0170187
813.895	0.0168175
813.973	0.0169804
814.051	0.0168306
814.129	0.0167279
814.207	0.0168887
814.285	0.0168585
814.363	0.0167454
814.442	0.0169814
814.520	0.0169475
814.598	0.0168156
814.676	0.0168719
814.754	0.0169311
814.832	0.0169066
814.910	0.0167394
814.988	0.0168115
815.067	0.0168787
815.145	0.0168484
815.223	0.0168062
815.301	0.0168841
815.379	0.0169889
815.457	0.0169485
815.535	0.0168731
815.613	0.0168449
815.692	0.0168077
815.770	0.0167401
815.848	0.0168337
815.926	0.0169514
816.004	0.0167454
816.082	0.0168317
816.160	0.0167790
816.238	0.0167243
816.317	0.0168262
816.395	0.0168871
816.473	0.0168681
816.551	0.0168083
816.629	0.0168607
816.707	0.0167267
816.785	0.0167786
816.863	0.0167431
816.942	0.0168507
817.020	0.0168442
817.098	0.0169043
817.176	0.0168687
817.254	0.0169130
817.332	0.0168356
817.410	0.0168613
817.488	0.0168198
817.567	0.0168972
817.645	0.0167081
817.723	0.0168217
817.801	0.0169535
817.879	0.0167636
817.957	0.0168678
818.035	0.0168781
818.113	0.0169044
818.192	0.0169524
818.270	0.0168179
818.348	0.0168365
818.426	0.0168086
818.504	0.0169069
818.582	0.0168751
818.660	0.0167711
818.738	0.0168031
818.817	0.0167925
818.895	0.0167676
818.973	0.0169342
819.051	0.0170023
819.129	0.0168909
819.207	0.0168781
819.285	0.0167534
819.363	0.0167789
819.442	0.0169209
819.520	0.0168982
819.598	0.0168851
819.676	0.0168262
819.754	0.0168825
819.832	0.0168752
819.910	0.0167240
819.988	0.0167992
820.067	0.0167728
820.145	0.0168735
820.223	0.0168993
820.301	0.0168324
820.379	0.0166945
820.457	0.0167860
820.535	0.0169031
820.613	0.0167891
820.692	0.0168111
820.770	0.0168291
820.848	0.0166810
820.926	0.0168192
821.004	0.0168613
821.082	0.0168112
821.160	0.0166239
821.238	0.0167528
821.317	0.0168564
821.395	0.0166858
821.473	0.0167701
821.551	0.0167210
821.629	0.0168665
821.707	0.0167972
821.785	0.0168824
821.863	0.0169217
821.942	0.0167703
822.020	0.0168667
822.098	0.0168313
822.176	0.0168135
822.254	0.0169652
822.332	0.0168505
822.410	0.0168264
822.488	0.0168793
822.567	0.0168873
822.645	0.0168039
822.723	0.0167888
822.801	0.0168107
822.879	0.0168509
822.957	0.0169035
823.035	0.0168694
823.113	0.0166518
823.192	0.0167612
823.270	0.0169206
823.348	0.0168819
823.426	0.0169541
823.504	0.0168370
823.582	0.0169753
823.660	0.0168668
823.738	0.0167914
823.817	0.0168826
823.895	0.0168602
823.973	0.0167578
824.051	0.0169516
824.129	0.0169148
824.207	0.0168862
824.285	0.0167136
824.363	0.0167982
824.442	0.0167893
824.520	0.0169016
824.598	0.0167931
824.676	0.0167530
824.754	0.0168365
824.832	0.0168961
824.910	0.0167510
824.988	0.0168498
825.067	0.0168619
825.145	0.0168038
825.223	0.0169321
825.301	0.0167928
825.379	0.0168510
825.457	0.0168906
825.535	0.0168490
825.613	0.0167957
825.692	0.0170044
825.770	0.0169190
825.848	0.0167632
825.926	0.0167846
826.004	0.0167068
826.082	0.0170451
826.160	0.0168440
826.238	0.0168230
826.317	0.0168727
826.395	0.0168693
826.473	0.0169369
826.551	0.0167405
826.629	0.0166734
826.707	0.0168584
826.785	0.0168738
826.863	0.0168379
826.942	0.0168260
827.020	0.0169068
827.098	0.0168721
827.176	0.0168977
827.254	0.0168882
827.332	0.0168541
827.410	0.0169388
827.488	0.0168559
827.567	0.0167649
827.645	0.0169232
827.723	0.0169757
827.801	0.0169723
827.879	0.0167334
827.957	0.0168434
828.035	0.0168874
828.113	0.0168562
828.192	0.0169161
828.270	0.0168930
828.348	0.0168731
828.426	0.0168241
828.504	0.0169074
828.582	0.0167131
828.660	0.0168927
828.738	0.0169330
828.817	0.0167524
828.895	0.0167982
828.973	0.0167771
829.051	0.0167899
829.129	0.0167709
829.207	0.0168147
829.285	0.0167828
829.363	0.0168669
829.442	0.0168713
829.520	0.0167022
829.598	0.0168192
829.676	0.0168361
829.754	0.0168399
829.832	0.0168128
829.910	0.0168040
829.988	0.0168328
830.067	0.0167845
830.145	0.0168079
830.223	0.0168340
830.301	0.0170057
830.379	0.0168966
830.457	0.0169044
830.535	0.0168977
830.613	0.0168500
830.692	0.0168417
830.770	0.0168882
830.848	0.0168850
830.926	0.0168013
831.004	0.0169027
831.082	0.0168476
831.160	0.0169344
831.238	0.0167896
831.317	0.0168449
831.395	0.0169178
831.473	0.0168176
831.551	0.0168539
831.629	0.0169016
831.707	0.0167921
831.785	0.0167916
831.863	0.0167970
831.942	0.0168021
832.020	0.0167593
832.098	0.0168016
832.176	0.0167802
832.254	0.0168930
832.332	0.0168732
832.410	0.0170504
832.488	0.0167936
832.567	0.0168457
832.645	0.0168405
832.723	0.0167511
832.801	0.0167861
832.879	0.0168945
832.957	0.0167705
833.035	0.0168709
833.113	0.0167539
833.192	0.0168909
833.270	0.0168629
833.348	0.0168968
833.426	0.0168878
833.504	0.0167924
833.582	0.0168027
833.660	0.0168782
833.738	0.0169060
833.817	0.0168577
833.895	0.0168176
833.973	0.0168886
834.051	0.0168742
834.129	0.0168835
834.207	0.0168154
834.285	0.0168246
834.363	0.0169241
834.442	0.0168755
834.520	0.0168519
834.598	0.0169198
834.676	0.0169459
834.754	0.0168123
834.832	0.0168023
834.910	0.0169521
834.988	0.0168694
835.067	0.0170235
835.145	0.0168643
835.223	0.0168274
835.301	0.0167830
835.379	0.0169289
835.457	0.0168425
835.535	0.0169115
835.613	0.0169382
835.692	0.0168260
835.770	0.0168571
835.848	0.0168195
835.926	0.0169035
836.004	0.0168355
836.082	0.0169280
836.160	0.0168429
836.238	0.0168588
836.317	0.0169576
836.395	0.0169404
836.473	0.0166725
836.551	0.0168465
836.629	0.0168736
836.707	0.0169405
836.785	0.0167796
836.863	0.0167989
836.942	0.0168734
837.020	0.0167883
837.098	0.0167453
837.176	0.0168777
837.254	0.0167576
837.332	0.0166830
837.410	0.0169285
837.488	0.0167100
837.567	0.0168393
837.645	0.0168687
837.723	0.0167205
837.801	0.0167818
837.879	0.0168188
837.957	0.0168469
838.035	0.0168137
838.113	0.0168237
838.192	0.0168542
838.270	0.0168948
838.348	0.0167828
838.426	0.0167941
838.504	0.0168977
838.582	0.0168153
838.660	0.0166028
838.738	0.0168922
838.817	0.0169794
838.895	0.0169026
838.973	0.0168407
839.051	0.0168091
839.129	0.0167175
839.207	0.0167778
839.285	0.0167493
839.363	0.0168697
839.442	0.0168616
839.520	0.0168606
839.598	0.0167655
839.676	0.0168691
839.754	0.0168837
839.832	0.0167953
839.910	0.0167513
839.988	0.0169385
840.067	0.0167509
840.145	0.0168029
840.223	0.0169239
840.301	0.0168774
840.379	0.0166927
840.457	0.0168829
840.535	0.0167563
840.613	0.0169213
840.692	0.0168177
840.770	0.0168150
840.848	0.0167208
840.926	0.0168217
841.004	0.0168620
841.082	0.0167783
841.160	0.0167861
841.238	0.0167606
841.317	0.0167323
841.395	0.0168663
841.473	0.0168223
841.551	0.0168504
841.629	0.0168034
841.707	0.0168408
841.785	0.0168542
841.863	0.0168210
841.942	0.0168153
842.020	0.0168382
842.098	0.0168742
842.176	0.0168894
842.254	0.0168649
842.332	0.0167028
842.410	0.0168082
842.488	0.0169963
842.567	0.0168420
842.645	0.0167254
842.723	0.0168259
842.801	0.0168762
842.879	0.0168177
842.957	0.0169010
843.035	0.0169053
843.113	0.0169556
843.192	0.0169714
843.270	0.0168822
843.348	0.0168008
843.426	0.0167879
843.504	0.0167986
843.582	0.0168887
843.660	0.0168954
843.738	0.0167424
843.817	0.0169088
843.895	0.0169255
843.973	0.0167753
844.051	0.0168560
844.129	0.0168729
844.207	0.0167444
844.285	0.0168448
844.363	0.0167664
844.442	0.0168596
844.520	0.0168198
844.598	0.0168247
844.676	0.0167383
844.754	0.0167604
844.832	0.0166602
844.910	0.0168432
844.988	0.0168303
845.067	0.0167551
845.145	0.0166620
845.223	0.0167448
845.301	0.0167768
845.379	0.0168080
845.457	0.0169598
845.535	0.0169498
845.613	0.0168736
845.692	0.0168906
845.770	0.0168667
845.848	0.0168617
845.926	0.0168767
846.004	0.0169680
846.082	0.0168658
846.160	0.0169528
846.238	0.0167513
846.317	0.0170206
846.395	0.0170242
846.473	0.0168341
846.551	0.0168461
846.629	0.0169389
846.707	0.0168108
846.785	0.0167802
846.863	0.0168925
846.942	0.0168603
847.020	0.0168565
847.098	0.0167515
847.176	0.0166714
847.254	0.0168999
847.332	0.0168935
847.410	0.0167934
847.488	0.0167890
847.567	0.0168378
847.645	0.0167780
847.723	0.0167371
847.801	0.0167837
847.879	0.0168887
847.957	0.0168752
848.035	0.0167471
848.113	0.0168089
848.192	0.0168971
848.270	0.0168397
848.348	0.0167194
848.426	0.0168145
848.504	0.0168110
848.582	0.0166655
848.660	0.0167991
848.738	0.0168681
848.817	0.0169599
848.895	0.0169284
848.973	0.0169239
849.051	0.0169280
849.129	0.0168232
849.207	0.0168278
849.285	0.0167991
849.363	0.0169586
849.442	0.0167724
849.520	0.0168877
849.598	0.0168184
849.676	0.0168021
849.754	0.0166642
849.832	0.0168291
849.910	0.0168353
849.988	0.0167708
850.067	0.0168817
850.145	0.0167581
850.223	0.0168385
850.301	0.0168797
850.379	0.0168919
850.457	0.0169703
850.535	0.0169688
850.613	0.0169138
850.692	0.0168433
850.770	0.0169096
850.848	0.0167763
850.926	0.0168860
851.004	0.0168990
851.082	0.0169160
851.160	0.0168933
851.238	0.0168117
851.317	0.0167032
851.395	0.0167775
851.473	0.0169885
851.551	0.0169252
851.629	0.0168769
851.707	0.0169358
851.785	0.0168349
851.863	0.0169206
851.942	0.0169157
852.020	0.0168781
852.098	0.0168674
852.176	0.0168629
852.254	0.0167815
852.332	0.0169185
852.410	0.0168078
852.488	0.0168048
852.567	0.0167612
852.645	0.0168460
852.723	0.0169061
852.801	0.0168645
852.879	0.0168900
852.957	0.0168775
853.035	0.0168262
853.113	0.0168128
853.192	0.0168639
853.270	0.0167165
853.348	0.0168179
853.426	0.0168833
853.504	0.0167398
853.582	0.0168054
853.660	0.0168963
853.738	0.0168163
853.817	0.0167258
853.895	0.0167420
853.973	0.0169913
854.051	0.0169180
854.129	0.0166398
854.207	0.0168749
854.285	0.0168321
854.363	0.0166800
854.442	0.0167780
854.520	0.0168231
854.598	0.0168855
854.676	0.0167486
854.754	0.0167877
854.832	0.0169309
854.910	0.0169028
854.988	0.0169773
855.067	0.0167413
855.145	0.0167865
855.223	0.0167422
855.301	0.0167760
855.379	0.0168182
855.457	0.0168887
855.535	0.0168515
855.613	0.0168190
855.692	0.0168106
855.770	0.0168172
855.848	0.0167625
855.926	0.0167234
856.004	0.0167180
856.082	0.0168761
856.160	0.0167876
856.238	0.0167866
856.317	0.0168654
856.395	0.0168294
856.473	0.0167551
856.551	0.0168793
856.629	0.0168395
856.707	0.0167699
856.785	0.0167933
856.863	0.0168993
856.942	0.0168704
857.020	0.0167677
857.098	0.0168726
857.176	0.0168951
857.254	0.0168320
857.332	0.0167860
857.410	0.0167628
857.488	0.0166966
857.567	0.0167193
857.645	0.0169127
857.723	0.0169199
857.801	0.0169159
857.879	0.0169086
857.957	0.0167970
858.035	0.0168534
858.113	0.0167709
858.192	0.0167449
858.270	0.0167789
858.348	0.0168991
858.426	0.0168012
858.504	0.0168207
858.582	0.0169421
858.660	0.0169749
858.738	0.0168609
858.817	0.0167941
858.895	0.0167569
858.973	0.0167796
859.051	0.0168723
859.129	0.0169876
859.207	0.0168018
859.285	0.0168558
859.363	0.0168332
859.442	0.0168920
859.520	0.0168404
859.598	0.0169533
859.676	0.0168111
859.754	0.0167680
859.832	0.0168781
859.910	0.0168100
859.988	0.0168967
860.067	0.0168246
860.145	0.0167956
860.223	0.0168681
860.301	0.0168874
860.379	0.0168822
860.457	0.0168020
860.535	0.0168774
860.613	0.0168095
860.692	0.0167219
860.770	0.0168188
860.848	0.0167597
860.926	0.0167929
861.004	0.0168508
861.082	0.0167908
861.160	0.0167883
861.238	0.0168126
861.317	0.0167636
861.395	0.0167858
861.473	0.0168139
861.551	0.0167747
861.629	0.0168999
861.707	0.0167994
861.785	0.0168429
861.863	0.0168114
861.942	0.0168748
862.020	0.0168915
862.098	0.0167611
862.176	0.0168483
862.254	0.0167957
862.332	0.0168936
862.410	0.0168085
862.488	0.0168618
862.567	0.0169315
862.645	0.0169324
862.723	0.0169055
862.801	0.0168752
862.879	0.0167476
862.957	0.0168293
863.035	0.0169405
863.113	0.0168420
863.192	0.0167038
863.270	0.0168308
863.348	0.0167170
863.426	0.0167303
863.504	0.0169178
863.582	0.0168548
863.660	0.0167690
863.738	0.0168713
863.817	0.0169334
863.895	0.0167598
863.973	0.0168753
864.051	0.0168124
864.129	0.0167780
864.207	0.0168243
864.285	0.0167750
864.363	0.0169032
864.442	0.0168378
864.520	0.0168061
864.598	0.0168089
864.676	0.0168850
864.754	0.0168710
864.832	0.0168250
864.910	0.0168015
864.988	0.0167365
865.067	0.0167257
865.145	0.0167825
865.223	0.0168085
865.301	0.0168851
865.379	0.0168750
865.457	0.0168108
865.535	0.0168662
865.613	0.0169104
865.692	0.0168632
865.770	0.0168556
865.848	0.0168633
865.926	0.0168620
866.004	0.0168278
866.082	0.0167462
866.160	0.0168700
866.238	0.0168019
866.317	0.0169556
866.395	0.0169529
866.473	0.0168414
866.551	0.0168375
866.629	0.0168370
866.707	0.0166893
866.785	0.0167989
866.863	0.0168232
866.942	0.0167844
867.020	0.0167992
867.098	0.0168331
867.176	0.0168547
867.254	0.0167442
867.332	0.0168648
867.410	0.0167875
867.488	0.0167855
867.567	0.0167494
867.645	0.0166733
867.723	0.0167075
867.801	0.0168958
867.879	0.0167825
867.957	0.0168907
868.035	0.0167670
868.113	0.0166678
868.192	0.0166936
868.270	0.0168015
868.348	0.0168505
868.426	0.0167182
868.504	0.0168162
868.582	0.0168636
868.660	0.0167465
868.738	0.0168153
868.817	0.0168497
868.895	0.0167847
868.973	0.0168752
869.051	0.0168140
869.129	0.0168093
869.207	0.0168876
869.285	0.0169350
869.363	0.0169178
869.442	0.0168605
869.520	0.0168157
869.598	0.0167637
869.676	0.0169872
869.754	0.0169572
869.832	0.0168675
869.910	0.0168230
869.988	0.0167827
870.067	0.0168826
870.145	0.0169434
870.223	0.0168471
870.301	0.0169578
870.379	0.0169358
870.457	0.0169402
870.535	0.0169315
870.613	0.0168415
870.692	0.0169161
870.770	0.0168954
870.848	0.0168497
870.926	0.0168828
871.004	0.0168296
871.082	0.0169425
871.160	0.0169740
871.238	0.0168705
871.317	0.0169196
871.395	0.0168565
871.473	0.0168839
871.551	0.0167961
871.629	0.0168819
871.707	0.0167696
871.785	0.0168458
871.863	0.0167513
871.942	0.0168435
872.020	0.0169216
872.098	0.0168987
872.176	0.0167608
872.254	0.0168565
872.332	0.0168600
872.410	0.0168730
872.488	0.0168489
872.567	0.0168889
872.645	0.0168324
872.723	0.0168671
872.801	0.0168859
872.879	0.0169453
872.957	0.0168811
873.035	0.0168076
873.113	0.0167916
873.192	0.0168248
873.270	0.0169298
873.348	0.0169548
873.426	0.0168998
873.504	0.0168113
873.582	0.0169238
873.660	0.0167523
873.738	0.0170066
873.817	0.0169456
873.895	0.0168362
873.973	0.0168287
874.051	0.0167507
874.129	0.0168798
874.207	0.0168072
874.285	0.0166865
874.363	0.0168156
874.442	0.0169215
874.520	0.0168775
874.598	0.0168378
874.676	0.0167374
874.754	0.0169020
874.832	0.0168783
874.910	0.0167428
874.988	0.0168811
875.067	0.0166420
875.145	0.0166673
875.223	0.0168958
875.301	0.0169621
875.379	0.0168066
875.457	0.0168300
875.535	0.0168473
875.613	0.0168108
875.692	0.0169279
875.770	0.0168639
875.848	0.0169039
875.926	0.0168033
876.004	0.0168520
876.082	0.0169545
876.160	0.0168778
876.238	0.0167838
876.317	0.0168491
876.395	0.0168677
876.473	0.0167561
876.551	0.0168378
876.629	0.0169315
876.707	0.0168510
876.785	0.0168988
876.863	0.0168000
876.942	0.0169031
877.020	0.0166991
877.098	0.0168030
877.176	0.0169164
877.254	0.0167604
877.332	0.0168974
877.410	0.0169060
877.488	0.0169015
877.567	0.0169542
877.645	0.0169713
877.723	0.0168616
877.801	0.0168108
877.879	0.0168434
877.957	0.0168462
878.035	0.0169461
878.113	0.0167311
878.192	0.0169078
878.270	0.0169125
878.348	0.0169099
878.426	0.0168250
878.504	0.0168175
878.582	0.0168162
878.660	0.0169823
878.738	0.0169122
878.817	0.0169862
878.895	0.0167343
878.973	0.0167238
879.051	0.0167731
879.129	0.0169426
879.207	0.0169128
879.285	0.0167200
879.363	0.0169859
879.442	0.0169234
879.520	0.0167834
879.598	0.0168331
879.676	0.0168768
879.754	0.0167888
879.832	0.0167502
879.910	0.0166890
879.988	0.0168420
880.067	0.0168742
880.145	0.0168916
880.223	0.0167947
880.301	0.0167290
880.379	0.0168169
880.457	0.0167422
880.535	0.0168661
880.613	0.0167515
880.692	0.0168349
880.770	0.0168739
880.848	0.0169084
880.926	0.0167851
881.004	0.0168201
881.082	0.0168649
881.160	0.0169036
881.238	0.0168387
881.317	0.0168370
881.395	0.0167674
881.473	0.0169322
881.551	0.0168166
881.629	0.0168871
881.707	0.0168645
881.785	0.0169167
881.863	0.0170227
881.942	0.0169825
882.020	0.0169287
882.098	0.0169540
882.176	0.0168501
882.254	0.0168733
882.332	0.0169331
882.410	0.0169013
882.488	0.0169731
882.567	0.0168133
882.645	0.0169207
882.723	0.0168446
882.801	0.0168129
882.879	0.0170066
882.957	0.0169086
883.035	0.0168152
883.113	0.0168802
883.192	0.0169405
883.270	0.0168384
883.348	0.0167226
883.426	0.0169415
883.504	0.0168492
883.582	0.0169096
883.660	0.0170846
883.738	0.0169255
883.817	0.0169235
883.895	0.0168888
883.973	0.0167939
884.051	0.0168275
884.129	0.0168368
884.207	0.0167384
884.285	0.0167505
884.363	0.0168085
884.442	0.0169440
884.520	0.0168913
884.598	0.0169434
884.676	0.0168436
884.754	0.0169260
884.832	0.0167943
884.910	0.0167460
884.988	0.0169206
885.067	0.0168826
885.145	0.0167309
885.223	0.0168265
885.301	0.0168040
885.379	0.0167812
885.457	0.0169014
885.535	0.0169254
885.613	0.0167925
885.692	0.0168015
885.770	0.0167484
885.848	0.0167564
885.926	0.0169067
886.004	0.0168243
886.082	0.0168849
886.160	0.0167780
886.238	0.0166747
886.317	0.0166849
886.395	0.0168321
886.473	0.0168142
886.551	0.0168101
886.629	0.0169356
886.707	0.0168307
886.785	0.0169630
886.863	0.0166486
886.942	0.0167986
887.020	0.0169460
887.098	0.0168822
887.176	0.0168188
887.254	0.0168888
887.332	0.0168626
887.410	0.0169777
887.488	0.0168761
887.567	0.0168085
887.645	0.0168352
887.723	0.0168849
887.801	0.0167316
887.879	0.0168823
887.957	0.0169147
888.035	0.0168475
888.113	0.0168437
888.192	0.0167579
888.270	0.0169133
888.348	0.0167120
888.426	0.0167249
888.504	0.0167463
888.582	0.0168370
888.660	0.0168810
888.738	0.0168633
888.817	0.0168137
888.895	0.0168645
888.973	0.0168191
889.051	0.0168751
889.129	0.0167715
889.207	0.0169280
889.285	0.0168882
889.363	0.0168128
889.442	0.0168547
889.520	0.0168278
889.598	0.0167709
889.676	0.0167642
889.754	0.0167460
889.832	0.0167558
889.910	0.0169409
889.988	0.0168458
890.067	0.0168101
890.145	0.0168631
890.223	0.0168684
890.301	0.0168423
890.379	0.0168015
890.457	0.0168501
890.535	0.0168076
890.613	0.0167912
890.692	0.0167372
890.770	0.0168478
890.848	0.0168634
890.926	0.0168682
891.004	0.0168738
891.082	0.0168655
891.160	0.0168684
891.238	0.0168561
891.317	0.0168375
891.395	0.0168772
891.473	0.0168971
891.551	0.0169337
891.629	0.0168012
891.707	0.0169395
891.785	0.0167855
891.863	0.0170238
891.942	0.0167760
892.020	0.0167791
892.098	0.0168233
892.176	0.0167909
892.254	0.0168398
892.332	0.0169281
892.410	0.0168189
892.488	0.0167828
892.567	0.0167624
892.645	0.0168745
892.723	0.0169128
892.801	0.0168931
892.879	0.0168377
892.957	0.0166991
893.035	0.0166941
893.113	0.0168615
893.192	0.0167917
893.270	0.0167984
893.348	0.0168888
893.426	0.0168371
893.504	0.0168123
893.582	0.0168652
893.660	0.0168224
893.738	0.0168518
893.817	0.0169699
893.895	0.0167156
893.973	0.0168360
894.051	0.0169386
894.129	0.0168784
894.207	0.0168653
894.285	0.0168830
894.363	0.0168417
894.442	0.0167838
894.520	0.0169053
894.598	0.0168694
894.676	0.0168990
894.754	0.0168525
894.832	0.0169234
894.910	0.0169406
894.988	0.0168993
895.067	0.0168170
895.145	0.0169749
895.223	0.0168049
895.301	0.0168763
895.379	0.0168492
895.457	0.0169475
895.535	0.0168951
895.613	0.0168178
895.692	0.0168134
895.770	0.0168005
895.848	0.0167503
895.926	0.0167590
896.004	0.0169621
896.082	0.0168808
896.160	0.0167749
896.238	0.0168318
896.317	0.0168628
896.395	0.0168010
896.473	0.0168667
896.551	0.0168054
896.629	0.0168600
896.707	0.0170668
896.785	0.0167789
896.863	0.0167064
896.942	0.0168351
897.020	0.0168088
897.098	0.0166655
897.176	0.0169202
897.254	0.0168343
897.332	0.0167198
897.410	0.0168336
897.488	0.0167932
897.567	0.0168639
897.645	0.0168758
897.723	0.0168047
897.801	0.0168346
897.879	0.0168791
897.957	0.0168758
898.035	0.0168401
898.113	0.0169312
898.192	0.0168578
898.270	0.0168397
898.348	0.0169163
898.426	0.0169732
898.504	0.0167548
898.582	0.0166864
898.660	0.0168433
898.738	0.0168441
898.817	0.0169016
898.895	0.0168040
898.973	0.0169698
899.051	0.0170185
899.129	0.0169452
899.207	0.0169852
899.285	0.0168159
899.363	0.0166465
899.442	0.0168073
899.520	0.0168777
899.598	0.0167318
899.676	0.0168838
899.754	0.0168122
899.832	0.0168589
899.910	0.0169484
899.988	0.0168475
900.067	0.0168861
900.145	0.0168221
900.223	0.0168671
900.301	0.0168027
900.379	0.0168635
900.457	0.0168577
900.535	0.0168807
900.613	0.0168785
900.692	0.0168087
900.770	0.0168637
900.848	0.0168081
900.926	0.0167863
901.004	0.0167725
901.082	0.0169712
901.160	0.0168240
901.238	0.0166798
901.317	0.0167886
901.395	0.0169243
901.473	0.0169484
901.551	0.0169701
901.629	0.0168950
901.707	0.0168458
901.785	0.0165755
901.863	0.0168242
901.942	0.0168842
902.020	0.0168595
902.098	0.0167221
902.176	0.0169319
902.254	0.0168651
902.332	0.0168243
902.410	0.0167615
902.488	0.0166911
902.567	0.0168156
902.645	0.0168678
902.723	0.0169443
902.801	0.0168199
902.879	0.0168870
902.957	0.0167297
903.035	0.0168100
903.113	0.0168629
903.192	0.0168342
903.270	0.0168784
903.348	0.0168033
903.426	0.0168992
903.504	0.0167704
903.582	0.0168484
903.660	0.0167753
903.738	0.0167451
903.817	0.0167272
903.895	0.0168736
903.973	0.0169565
904.051	0.0168034
904.129	0.0169292
904.207	0.0167300
904.285	0.0167008
904.363	0.0168514
904.442	0.0169048
904.520	0.0169381
904.598	0.0168367
904.676	0.0167700
904.754	0.0168778
904.832	0.0167833
904.910	0.0168915
904.988	0.0168665
905.067	0.0167944
905.145	0.0169153
905.223	0.0169028
905.301	0.0167786
905.379	0.0169024
905.457	0.0168947
905.535	0.0168665
905.613	0.0168332
905.692	0.0170361
905.770	0.0168526
905.848	0.0168469
905.926	0.0168979
906.004	0.0168605
906.082	0.0167606
906.160	0.0168587
906.238	0.0169512
906.317	0.0168637
906.395	0.0168646
906.473	0.0168035
906.551	0.0168449
906.629	0.0168331
906.707	0.0168985
906.785	0.0170045
906.863	0.0168559
906.942	0.0168220
907.020	0.0168768
907.098	0.0168736
907.176	0.0168674
907.254	0.0168790
907.332	0.0170265
907.410	0.0168014
907.488	0.0168570
907.567	0.0170069
907.645	0.0168091
907.723	0.0167766
907.801	0.0169157
907.879	0.0166991
907.957	0.0168360
908.035	0.0169033
908.113	0.0169353
908.192	0.0169266
908.270	0.0167984
908.348	0.0168388
908.426	0.0168104
908.504	0.0168866
908.582	0.0167988
908.660	0.0167469
908.738	0.0169142
908.817	0.0168679
908.895	0.0167445
908.973	0.0168698
909.051	0.0168486
909.129	0.0168825
909.207	0.0168356
909.285	0.0168301
909.363	0.0168349
909.442	0.0169944
909.520	0.0169508
909.598	0.0167806
909.676	0.0167607
909.754	0.0167983
909.832	0.0168508
909.910	0.0168452
909.988	0.0167692
910.067	0.0169035
910.145	0.0168524
910.223	0.0168319
910.301	0.0168528
910.379	0.0167767
910.457	0.0166846
910.535	0.0168179
910.613	0.0168128
910.692	0.0167632
910.770	0.0168214
910.848	0.0168437
910.926	0.0168601
911.004	0.0168953
911.082	0.0168084
911.160	0.0168775
911.238	0.0167464
911.317	0.0168878
911.395	0.0168772
911.473	0.0168526
911.551	0.0167798
911.629	0.0167775
911.707	0.0170203
911.785	0.0167663
911.863	0.0168244
911.942	0.0166067
912.020	0.0167807
912.098	0.0168842
912.176	0.0169411
912.254	0.0168071
912.332	0.0167325
912.410	0.0167412
912.488	0.0168461
912.567	0.0167327
912.645	0.0166843
912.723	0.0167872
912.801	0.0167961
912.879	0.0168273
912.957	0.0168043
913.035	0.0168163
913.113	0.0167651
913.192	0.0167656
913.270	0.0169096
913.348	0.0168337
913.426	0.0169312
913.504	0.0167393
913.582	0.0168260
913.660	0.0168700
913.738	0.0167419
913.817	0.0168045
913.895	0.0167722
913.973	0.0167656
914.051	0.0169077
914.129	0.0167677
914.207	0.0168067
914.285	0.0167254
914.363	0.0168816
914.442	0.0166757
914.520	0.0168482
914.598	0.0168826
914.676	0.0167950
914.754	0.0168252
914.832	0.0169162
914.910	0.0169026
914.988	0.0167657
915.067	0.0166281
915.145	0.0167420
915.223	0.0168890
915.301	0.0168300
915.379	0.0169013
915.457	0.0169186
915.535	0.0166676
915.613	0.0169383
915.692	0.0168692
915.770	0.0168893
915.848	0.0169981
915.926	0.0168753
916.004	0.0169268
916.082	0.0169781
916.160	0.0168917
916.238	0.0169059
916.317	0.0168710
916.395	0.0169363
916.473	0.0169340
916.551	0.0169489
916.629	0.0168853
916.707	0.0168908
916.785	0.0168755
916.863	0.0168491
916.942	0.0168565
917.020	0.0167982
917.098	0.0169273
917.176	0.0169578
917.254	0.0168829
917.332	0.0169138
917.410	0.0168143
917.488	0.0169095
917.567	0.0168678
917.645	0.0167468
917.723	0.0168539
917.801	0.0169121
917.879	0.0169484
917.957	0.0168006
918.035	0.0167944
918.113	0.0169089
918.192	0.0169466
918.270	0.0168826
918.348	0.0169451
918.426	0.0168227
918.504	0.0168179
918.582	0.0168543
918.660	0.0168198
918.738	0.0168026
918.817	0.0167608
918.895	0.0168806
918.973	0.0169168
919.051	0.0169163
919.129	0.0168251
919.207	0.0169067
919.285	0.0168687
919.363	0.0168351
919.442	0.0168764
919.520	0.0169314
919.598	0.0169859
919.676	0.0169147
919.754	0.0167969
919.832	0.0168089
919.910	0.0169398
