06/03/2022	14:02:00	Ver.	4.1	UNKNOWN
Optical Delay	599.981738	Delta X		0.078125	Sweeps	1	Scan Rate	0/0
Coordinates	Axis 1	NaN	Axis 2	NaN	Axis 3	NaN	Axis 4	NaN	Axis 5	NaN	Axis 6	0.000000
TX Power	0.000000	RX Power	0.000000

599.982	0.0164987
600.060	0.0165915
600.138	0.0165357
600.216	0.0165040
600.294	0.0165416
600.372	0.0164568
600.450	0.0165582
600.529	0.0164597
600.607	0.0166370
600.685	0.0165002
600.763	0.0163949
600.841	0.0165167
600.919	0.0166026
600.997	0.0165255
601.075	0.0163599
601.154	0.0164838
601.232	0.0164547
601.310	0.0165298
601.388	0.0165080
601.466	0.0163839
601.544	0.0164690
601.622	0.0165154
601.700	0.0164025
601.779	0.0164512
601.857	0.0164691
601.935	0.0164366
602.013	0.0163908
602.091	0.0165787
602.169	0.0163286
602.247	0.0164220
602.325	0.0164677
602.404	0.0164074
602.482	0.0165307
602.560	0.0164639
602.638	0.0164988
602.716	0.0164242
602.794	0.0165357
602.872	0.0165871
602.950	0.0165156
603.029	0.0164059
603.107	0.0164348
603.185	0.0163244
603.263	0.0164347
603.341	0.0165177
603.419	0.0164699
603.497	0.0165393
603.575	0.0165205
603.654	0.0163507
603.732	0.0164819
603.810	0.0166123
603.888	0.0164928
603.966	0.0164559
604.044	0.0163436
604.122	0.0164114
604.200	0.0164388
604.279	0.0165074
604.357	0.0164281
604.435	0.0165611
604.513	0.0164617
604.591	0.0162950
604.669	0.0164958
604.747	0.0164452
604.825	0.0163369
604.904	0.0164391
604.982	0.0164384
605.060	0.0164597
605.138	0.0164236
605.216	0.0164863
605.294	0.0163715
605.372	0.0165004
605.450	0.0164277
605.529	0.0165282
605.607	0.0164877
605.685	0.0165272
605.763	0.0164533
605.841	0.0164383
605.919	0.0165100
605.997	0.0165616
606.075	0.0163834
606.154	0.0164525
606.232	0.0165229
606.310	0.0163495
606.388	0.0165041
606.466	0.0165047
606.544	0.0165387
606.622	0.0163830
606.700	0.0164265
606.779	0.0165281
606.857	0.0165160
606.935	0.0164470
607.013	0.0163574
607.091	0.0162385
607.169	0.0165158
607.247	0.0165300
607.325	0.0165011
607.404	0.0164116
607.482	0.0165034
607.560	0.0163679
607.638	0.0164748
607.716	0.0163339
607.794	0.0164677
607.872	0.0164610
607.950	0.0165449
608.029	0.0166109
608.107	0.0165659
608.185	0.0164783
608.263	0.0164581
608.341	0.0164388
608.419	0.0164951
608.497	0.0165464
608.575	0.0165650
608.654	0.0166134
608.732	0.0165803
608.810	0.0164940
608.888	0.0165448
608.966	0.0165381
609.044	0.0164250
609.122	0.0164095
609.200	0.0164220
609.279	0.0164969
609.357	0.0165621
609.435	0.0165022
609.513	0.0164278
609.591	0.0163635
609.669	0.0164762
609.747	0.0164377
609.825	0.0164944
609.904	0.0164836
609.982	0.0164279
610.060	0.0163394
610.138	0.0164026
610.216	0.0164370
610.294	0.0163161
610.372	0.0164349
610.450	0.0163363
610.529	0.0164150
610.607	0.0165180
610.685	0.0164606
610.763	0.0164083
610.841	0.0164314
610.919	0.0163329
610.997	0.0165051
611.075	0.0163530
611.154	0.0163282
611.232	0.0165886
611.310	0.0164371
611.388	0.0164467
611.466	0.0165258
611.544	0.0164296
611.622	0.0164359
611.700	0.0165020
611.779	0.0165250
611.857	0.0164354
611.935	0.0164812
612.013	0.0167468
612.091	0.0165448
612.169	0.0163771
612.247	0.0164796
612.325	0.0164332
612.404	0.0164922
612.482	0.0164824
612.560	0.0166838
612.638	0.0165915
612.716	0.0164039
612.794	0.0163966
612.872	0.0166267
612.950	0.0164845
613.029	0.0163989
613.107	0.0163777
613.185	0.0164021
613.263	0.0164429
613.341	0.0164894
613.419	0.0164357
613.497	0.0163497
613.575	0.0164165
613.654	0.0164338
613.732	0.0163702
613.810	0.0164079
613.888	0.0164086
613.966	0.0164912
614.044	0.0165061
614.122	0.0164285
614.200	0.0164508
614.279	0.0164995
614.357	0.0164426
614.435	0.0165005
614.513	0.0164581
614.591	0.0166057
614.669	0.0165427
614.747	0.0165334
614.825	0.0164724
614.904	0.0165479
614.982	0.0164320
615.060	0.0165276
615.138	0.0166264
615.216	0.0165439
615.294	0.0164419
615.372	0.0165257
615.450	0.0165788
615.529	0.0166170
615.607	0.0164851
615.685	0.0165881
615.763	0.0165915
615.841	0.0163644
615.919	0.0163335
615.997	0.0163859
616.075	0.0163916
616.154	0.0165173
616.232	0.0164809
616.310	0.0163972
616.388	0.0164867
616.466	0.0163696
616.544	0.0163054
616.622	0.0164751
616.700	0.0163750
616.779	0.0165100
616.857	0.0163084
616.935	0.0162574
617.013	0.0163121
617.091	0.0163033
617.169	0.0163488
617.247	0.0163909
617.325	0.0163956
617.404	0.0163511
617.482	0.0165206
617.560	0.0165085
617.638	0.0165260
617.716	0.0164845
617.794	0.0163714
617.872	0.0162631
617.950	0.0164175
618.029	0.0164798
618.107	0.0164678
618.185	0.0164245
618.263	0.0165307
618.341	0.0164356
618.419	0.0165127
618.497	0.0165184
618.575	0.0164520
618.654	0.0164267
618.732	0.0164652
618.810	0.0164819
618.888	0.0165025
618.966	0.0165396
619.044	0.0166000
619.122	0.0164504
619.200	0.0164496
619.279	0.0164011
619.357	0.0164200
619.435	0.0164303
619.513	0.0164614
619.591	0.0163854
619.669	0.0162598
619.747	0.0164809
619.825	0.0165431
619.904	0.0164841
619.982	0.0164754
620.060	0.0165178
620.138	0.0163568
620.216	0.0163717
620.294	0.0164160
620.372	0.0166175
620.450	0.0164604
620.529	0.0165675
620.607	0.0165145
620.685	0.0164468
620.763	0.0165252
620.841	0.0163509
620.919	0.0163947
620.997	0.0165591
621.075	0.0164352
621.154	0.0162808
621.232	0.0165572
621.310	0.0165271
621.388	0.0165865
621.466	0.0164510
621.544	0.0166175
621.622	0.0163797
621.700	0.0165113
621.779	0.0164439
621.857	0.0163348
621.935	0.0165057
622.013	0.0163929
622.091	0.0163985
622.169	0.0163773
622.247	0.0165129
622.325	0.0165241
622.404	0.0164934
622.482	0.0165273
622.560	0.0164226
622.638	0.0165187
622.716	0.0164455
622.794	0.0165142
622.872	0.0167209
622.950	0.0165156
623.029	0.0163751
623.107	0.0164603
623.185	0.0164965
623.263	0.0165989
623.341	0.0166783
623.419	0.0165632
623.497	0.0165652
623.575	0.0164778
623.654	0.0164248
623.732	0.0165253
623.810	0.0164918
623.888	0.0164384
623.966	0.0163776
624.044	0.0164552
624.122	0.0165223
624.200	0.0164645
624.279	0.0164446
624.357	0.0164993
624.435	0.0164324
624.513	0.0164085
624.591	0.0165087
624.669	0.0164297
624.747	0.0165327
624.825	0.0165244
624.904	0.0163476
624.982	0.0164817
625.060	0.0164165
625.138	0.0163463
625.216	0.0165693
625.294	0.0164628
625.372	0.0163602
625.450	0.0162533
625.529	0.0165003
625.607	0.0164810
625.685	0.0164209
625.763	0.0163503
625.841	0.0164290
625.919	0.0164351
625.997	0.0163937
626.075	0.0164416
626.154	0.0163811
626.232	0.0165385
626.310	0.0165192
626.388	0.0165871
626.466	0.0164795
626.544	0.0164832
626.622	0.0163616
626.700	0.0164816
626.779	0.0165273
626.857	0.0165447
626.935	0.0164928
627.013	0.0165335
627.091	0.0164599
627.169	0.0165107
627.247	0.0165899
627.325	0.0165176
627.404	0.0164154
627.482	0.0164041
627.560	0.0165544
627.638	0.0165710
627.716	0.0164199
627.794	0.0164662
627.872	0.0165010
627.950	0.0164426
628.029	0.0164262
628.107	0.0163451
628.185	0.0164236
628.263	0.0165411
628.341	0.0164301
628.419	0.0164588
628.497	0.0164396
628.575	0.0165769
628.654	0.0164317
628.732	0.0163791
628.810	0.0164025
628.888	0.0165104
628.966	0.0165362
629.044	0.0164832
629.122	0.0163536
629.200	0.0165285
629.279	0.0163711
629.357	0.0165208
629.435	0.0164932
629.513	0.0164208
629.591	0.0164048
629.669	0.0164379
629.747	0.0164684
629.825	0.0165106
629.904	0.0165515
629.982	0.0165742
630.060	0.0164140
630.138	0.0164700
630.216	0.0164233
630.294	0.0164832
630.372	0.0164868
630.450	0.0165292
630.529	0.0164507
630.607	0.0163541
630.685	0.0164693
630.763	0.0165118
630.841	0.0164594
630.919	0.0165343
630.997	0.0164856
631.075	0.0165688
631.154	0.0164192
631.232	0.0165164
631.310	0.0165398
631.388	0.0163890
631.466	0.0164427
631.544	0.0164764
631.622	0.0165047
631.700	0.0164317
631.779	0.0166010
631.857	0.0165118
631.935	0.0164456
632.013	0.0165340
632.091	0.0165202
632.169	0.0163820
632.247	0.0164265
632.325	0.0165012
632.404	0.0163984
632.482	0.0164517
632.560	0.0163575
632.638	0.0164362
632.716	0.0165460
632.794	0.0163828
632.872	0.0165365
632.950	0.0163911
633.029	0.0164153
633.107	0.0163564
633.185	0.0165732
633.263	0.0166396
633.341	0.0164729
633.419	0.0164254
633.497	0.0164190
633.575	0.0164645
633.654	0.0165187
633.732	0.0165849
633.810	0.0163742
633.888	0.0164204
633.966	0.0164384
634.044	0.0165942
634.122	0.0164503
634.200	0.0164249
634.279	0.0164754
634.357	0.0164883
634.435	0.0164780
634.513	0.0164741
634.591	0.0165102
634.669	0.0164075
634.747	0.0164626
634.825	0.0165113
634.904	0.0165193
634.982	0.0163321
635.060	0.0165051
635.138	0.0164838
635.216	0.0165493
635.294	0.0165446
635.372	0.0164079
635.450	0.0164961
635.529	0.0165370
635.607	0.0165678
635.685	0.0164734
635.763	0.0165057
635.841	0.0165160
635.919	0.0165974
635.997	0.0165073
636.075	0.0163789
636.154	0.0165607
636.232	0.0165824
636.310	0.0164837
636.388	0.0165139
636.466	0.0166245
636.544	0.0165792
636.622	0.0165037
636.700	0.0165289
636.779	0.0164997
636.857	0.0165907
636.935	0.0163928
637.013	0.0165688
637.091	0.0166335
637.169	0.0164589
637.247	0.0165266
637.325	0.0164714
637.404	0.0165086
637.482	0.0164488
637.560	0.0164352
637.638	0.0164616
637.716	0.0163857
637.794	0.0165479
637.872	0.0165758
637.950	0.0164351
638.029	0.0166571
638.107	0.0164890
638.185	0.0165038
638.263	0.0164468
638.341	0.0164459
638.419	0.0164497
638.497	0.0164090
638.575	0.0166503
638.654	0.0164729
638.732	0.0164814
638.810	0.0164857
638.888	0.0166375
638.966	0.0165541
639.044	0.0163749
639.122	0.0164938
639.200	0.0164879
639.279	0.0164603
639.357	0.0164968
639.435	0.0165754
639.513	0.0164491
639.591	0.0164573
639.669	0.0165485
639.747	0.0164686
639.825	0.0163172
639.904	0.0164155
639.982	0.0163551
640.060	0.0164288
640.138	0.0164101
640.216	0.0165446
640.294	0.0164691
640.372	0.0164159
640.450	0.0164222
640.529	0.0164974
640.607	0.0165411
640.685	0.0165330
640.763	0.0163875
640.841	0.0162872
640.919	0.0163363
640.997	0.0164697
641.075	0.0165030
641.154	0.0165105
641.232	0.0165229
641.310	0.0165318
641.388	0.0163674
641.466	0.0164461
641.544	0.0164649
641.622	0.0165005
641.700	0.0165031
641.779	0.0164414
641.857	0.0165101
641.935	0.0163839
642.013	0.0164866
642.091	0.0164822
642.169	0.0166082
642.247	0.0165056
642.325	0.0164126
642.404	0.0164751
642.482	0.0164711
642.560	0.0164629
642.638	0.0163951
642.716	0.0164854
642.794	0.0165696
642.872	0.0164236
642.950	0.0164283
643.029	0.0165069
643.107	0.0164302
643.185	0.0164677
643.263	0.0166395
643.341	0.0165116
643.419	0.0164835
643.497	0.0164711
643.575	0.0165128
643.654	0.0165091
643.732	0.0164941
643.810	0.0164895
643.888	0.0163647
643.966	0.0165346
644.044	0.0165485
644.122	0.0164317
644.200	0.0163694
644.279	0.0165078
644.357	0.0165694
644.435	0.0164811
644.513	0.0163534
644.591	0.0165830
644.669	0.0164323
644.747	0.0164084
644.825	0.0164353
644.904	0.0164973
644.982	0.0164692
645.060	0.0164461
645.138	0.0166459
645.216	0.0165549
645.294	0.0165063
645.372	0.0164563
645.450	0.0164925
645.529	0.0165263
645.607	0.0165684
645.685	0.0164981
645.763	0.0164337
645.841	0.0164601
645.919	0.0165264
645.997	0.0163596
646.075	0.0165056
646.154	0.0164938
646.232	0.0163658
646.310	0.0164720
646.388	0.0166025
646.466	0.0164163
646.544	0.0165077
646.622	0.0165203
646.700	0.0164049
646.779	0.0164839
646.857	0.0164693
646.935	0.0164265
647.013	0.0165420
647.091	0.0166026
647.169	0.0165435
647.247	0.0164664
647.325	0.0165923
647.404	0.0166254
647.482	0.0164908
647.560	0.0164177
647.638	0.0164833
647.716	0.0164504
647.794	0.0164620
647.872	0.0163252
647.950	0.0164417
648.029	0.0163761
648.107	0.0164713
648.185	0.0165086
648.263	0.0164256
648.341	0.0164711
648.419	0.0165878
648.497	0.0164568
648.575	0.0164490
648.654	0.0164468
648.732	0.0164207
648.810	0.0164497
648.888	0.0164207
648.966	0.0163061
649.044	0.0164600
649.122	0.0165448
649.200	0.0164890
649.279	0.0164133
649.357	0.0165018
649.435	0.0165314
649.513	0.0165652
649.591	0.0164890
649.669	0.0163899
649.747	0.0164053
649.825	0.0164753
649.904	0.0164429
649.982	0.0165563
650.060	0.0165363
650.138	0.0162490
650.216	0.0164645
650.294	0.0164259
650.372	0.0162134
650.450	0.0165352
650.529	0.0164131
650.607	0.0165172
650.685	0.0164323
650.763	0.0164497
650.841	0.0164303
650.919	0.0164725
650.997	0.0165138
651.075	0.0165189
651.154	0.0163522
651.232	0.0164321
651.310	0.0165036
651.388	0.0164061
651.466	0.0164159
651.544	0.0166019
651.622	0.0164890
651.700	0.0165253
651.779	0.0164864
651.857	0.0164974
651.935	0.0164342
652.013	0.0165232
652.091	0.0165054
652.169	0.0164860
652.247	0.0165862
652.325	0.0163291
652.404	0.0164571
652.482	0.0165178
652.560	0.0165069
652.638	0.0163882
652.716	0.0163645
652.794	0.0164086
652.872	0.0165625
652.950	0.0165656
653.029	0.0164022
653.107	0.0165599
653.185	0.0165720
653.263	0.0164660
653.341	0.0165340
653.419	0.0165692
653.497	0.0163634
653.575	0.0162852
653.654	0.0164305
653.732	0.0165144
653.810	0.0164264
653.888	0.0165185
653.966	0.0164610
654.044	0.0163386
654.122	0.0163859
654.200	0.0164919
654.279	0.0163627
654.357	0.0163721
654.435	0.0165002
654.513	0.0163925
654.591	0.0165056
654.669	0.0165202
654.747	0.0165198
654.825	0.0163076
654.904	0.0165142
654.982	0.0164651
655.060	0.0165359
655.138	0.0164793
655.216	0.0165051
655.294	0.0164261
655.372	0.0164838
655.450	0.0163731
655.529	0.0165108
655.607	0.0165390
655.685	0.0165429
655.763	0.0167011
655.841	0.0165126
655.919	0.0165009
655.997	0.0165150
656.075	0.0164567
656.154	0.0164714
656.232	0.0164954
656.310	0.0164591
656.388	0.0164864
656.466	0.0165197
656.544	0.0164554
656.622	0.0162942
656.700	0.0164951
656.779	0.0165614
656.857	0.0164466
656.935	0.0165364
657.013	0.0165026
657.091	0.0165359
657.169	0.0165475
657.247	0.0164569
657.325	0.0164957
657.404	0.0164658
657.482	0.0165154
657.560	0.0164842
657.638	0.0164860
657.716	0.0165475
657.794	0.0164175
657.872	0.0164423
657.950	0.0165516
658.029	0.0164739
658.107	0.0165108
658.185	0.0165311
658.263	0.0165280
658.341	0.0165539
658.419	0.0164440
658.497	0.0164346
658.575	0.0164780
658.654	0.0164347
658.732	0.0164450
658.810	0.0164996
658.888	0.0164899
658.966	0.0164221
659.044	0.0164162
659.122	0.0164004
659.200	0.0164944
659.279	0.0165110
659.357	0.0164846
659.435	0.0164594
659.513	0.0165076
659.591	0.0165356
659.669	0.0164812
659.747	0.0164214
659.825	0.0163603
659.904	0.0165158
659.982	0.0165818
660.060	0.0162914
660.138	0.0164916
660.216	0.0164788
660.294	0.0164706
660.372	0.0164288
660.450	0.0165436
660.529	0.0164845
660.607	0.0164394
660.685	0.0163112
660.763	0.0165208
660.841	0.0163891
660.919	0.0165586
660.997	0.0165660
661.075	0.0163621
661.154	0.0163606
661.232	0.0164140
661.310	0.0164352
661.388	0.0164726
661.466	0.0164844
661.544	0.0164497
661.622	0.0164642
661.700	0.0165274
661.779	0.0165281
661.857	0.0164879
661.935	0.0164514
662.013	0.0165380
662.091	0.0165849
662.169	0.0165378
662.247	0.0165371
662.325	0.0165663
662.404	0.0165598
662.482	0.0165969
662.560	0.0165468
662.638	0.0166444
662.716	0.0165704
662.794	0.0165943
662.872	0.0165356
662.950	0.0165253
663.029	0.0164852
663.107	0.0164374
663.185	0.0166396
663.263	0.0167338
663.341	0.0165521
663.419	0.0164579
663.497	0.0165061
663.575	0.0163943
663.654	0.0163882
663.732	0.0166084
663.810	0.0164268
663.888	0.0165214
663.966	0.0165277
664.044	0.0166466
664.122	0.0165792
664.200	0.0164857
664.279	0.0165826
664.357	0.0165914
664.435	0.0165472
664.513	0.0165794
664.591	0.0164220
664.669	0.0164266
664.747	0.0165039
664.825	0.0166481
664.904	0.0165720
664.982	0.0165470
665.060	0.0165272
665.138	0.0164864
665.216	0.0165566
665.294	0.0164979
665.372	0.0165454
665.450	0.0165627
665.529	0.0165579
665.607	0.0164365
665.685	0.0164761
665.763	0.0165620
665.841	0.0164556
665.919	0.0164272
665.997	0.0165910
666.075	0.0165604
666.154	0.0165652
666.232	0.0165438
666.310	0.0165758
666.388	0.0165016
666.466	0.0164062
666.544	0.0164371
666.622	0.0164642
666.700	0.0165694
666.779	0.0164757
666.857	0.0165514
666.935	0.0164926
667.013	0.0166069
667.091	0.0165547
667.169	0.0166372
667.247	0.0164874
667.325	0.0164032
667.404	0.0164668
667.482	0.0165659
667.560	0.0165286
667.638	0.0165247
667.716	0.0166231
667.794	0.0165620
667.872	0.0164361
667.950	0.0164893
668.029	0.0165003
668.107	0.0165371
668.185	0.0164140
668.263	0.0163939
668.341	0.0165443
668.419	0.0165620
668.497	0.0165204
668.575	0.0165704
668.654	0.0164783
668.732	0.0165788
668.810	0.0165469
668.888	0.0165401
668.966	0.0166519
669.044	0.0164745
669.122	0.0165423
669.200	0.0165154
669.279	0.0164671
669.357	0.0163924
669.435	0.0165057
669.513	0.0164734
669.591	0.0164885
669.669	0.0164711
669.747	0.0165430
669.825	0.0163952
669.904	0.0164211
669.982	0.0164288
670.060	0.0164368
670.138	0.0163640
670.216	0.0165309
670.294	0.0163643
670.372	0.0165482
670.450	0.0164591
670.529	0.0163844
670.607	0.0164359
670.685	0.0164903
670.763	0.0164542
670.841	0.0162283
670.919	0.0164524
670.997	0.0164456
671.075	0.0164437
671.154	0.0164920
671.232	0.0164708
671.310	0.0163766
671.388	0.0165331
671.466	0.0165780
671.544	0.0164555
671.622	0.0163931
671.700	0.0164255
671.779	0.0164958
671.857	0.0164768
671.935	0.0164333
672.013	0.0165862
672.091	0.0163641
672.169	0.0163441
672.247	0.0164668
672.325	0.0165075
672.404	0.0163210
672.482	0.0164032
672.560	0.0165009
672.638	0.0164921
672.716	0.0164717
672.794	0.0164710
672.872	0.0164151
672.950	0.0164588
673.029	0.0164943
673.107	0.0165153
673.185	0.0163644
673.263	0.0164473
673.341	0.0163515
673.419	0.0164874
673.497	0.0163786
673.575	0.0163602
673.654	0.0164604
673.732	0.0164500
673.810	0.0164339
673.888	0.0163665
673.966	0.0163211
674.044	0.0164153
674.122	0.0164233
674.200	0.0164611
674.279	0.0162774
674.357	0.0163708
674.435	0.0163035
674.513	0.0164494
674.591	0.0164323
674.669	0.0162218
674.747	0.0165886
674.825	0.0164719
674.904	0.0164851
674.982	0.0164839
675.060	0.0165248
675.138	0.0163731
675.216	0.0164333
675.294	0.0164285
675.372	0.0165348
675.450	0.0165916
675.529	0.0164758
675.607	0.0164584
675.685	0.0165614
675.763	0.0165656
675.841	0.0165610
675.919	0.0164785
675.997	0.0164812
676.075	0.0165689
676.154	0.0164242
676.232	0.0164585
676.310	0.0163792
676.388	0.0163827
676.466	0.0163544
676.544	0.0163890
676.622	0.0164833
676.700	0.0163782
676.779	0.0163400
676.857	0.0164265
676.935	0.0162485
677.013	0.0164470
677.091	0.0165748
677.169	0.0164184
677.247	0.0164651
677.325	0.0164179
677.404	0.0165092
677.482	0.0164052
677.560	0.0163440
677.638	0.0164968
677.716	0.0166589
677.794	0.0165527
677.872	0.0165414
677.950	0.0166074
678.029	0.0166458
678.107	0.0164613
678.185	0.0164072
678.263	0.0165122
678.341	0.0165923
678.419	0.0165268
678.497	0.0164774
678.575	0.0164525
678.654	0.0163869
678.732	0.0164964
678.810	0.0164635
678.888	0.0165582
678.966	0.0164369
679.044	0.0163567
679.122	0.0163759
679.200	0.0164743
679.279	0.0163572
679.357	0.0163580
679.435	0.0164121
679.513	0.0164007
679.591	0.0163471
679.669	0.0162729
679.747	0.0163454
679.825	0.0163917
679.904	0.0164133
679.982	0.0164376
680.060	0.0165446
680.138	0.0165303
680.216	0.0165263
680.294	0.0166308
680.372	0.0166346
680.450	0.0166457
680.529	0.0167301
680.607	0.0165169
680.685	0.0165242
680.763	0.0165453
680.841	0.0163361
680.919	0.0164249
680.997	0.0165125
681.075	0.0166441
681.154	0.0166677
681.232	0.0167374
681.310	0.0165237
681.388	0.0165233
681.466	0.0165182
681.544	0.0166151
681.622	0.0165546
681.700	0.0164259
681.779	0.0164215
681.857	0.0163535
681.935	0.0162531
682.013	0.0162342
682.091	0.0161964
682.169	0.0160168
682.247	0.0158404
682.325	0.0157864
682.404	0.0154976
682.482	0.0154741
682.560	0.0152566
682.638	0.0151195
682.716	0.0152937
682.794	0.0152411
682.872	0.0154458
682.950	0.0158668
683.029	0.0162617
683.107	0.0166224
683.185	0.0169498
683.263	0.0174108
683.341	0.0177228
683.419	0.0177068
683.497	0.0177235
683.575	0.0175570
683.654	0.0171603
683.732	0.0167924
683.810	0.0164088
683.888	0.0161872
683.966	0.0157342
684.044	0.0156808
684.122	0.0156527
684.200	0.0160789
684.279	0.0162641
684.357	0.0164972
684.435	0.0170074
684.513	0.0174306
684.591	0.0177663
684.669	0.0179810
684.747	0.0183683
684.825	0.0185039
684.904	0.0183601
684.982	0.0184802
685.060	0.0186412
685.138	0.0185709
685.216	0.0184512
685.294	0.0186304
685.372	0.0184584
685.450	0.0184274
685.529	0.0181503
685.607	0.0177829
685.685	0.0172575
685.763	0.0165774
685.841	0.0156018
685.919	0.0144543
685.997	0.0133615
686.075	0.0124014
686.154	0.0113343
686.232	0.0104772
686.310	0.00998688
686.388	0.00951225
686.466	0.00959915
686.544	0.00982620
686.622	0.0104129
686.700	0.0112458
686.779	0.0123425
686.857	0.0135061
686.935	0.0145967
687.013	0.0158261
687.091	0.0171307
687.169	0.0182872
687.247	0.0190047
687.325	0.0199940
687.404	0.0203659
687.482	0.0208084
687.560	0.0211292
687.638	0.0211097
687.716	0.0212727
687.794	0.0214514
687.872	0.0214813
687.950	0.0216020
688.029	0.0219152
688.107	0.0221398
688.185	0.0225066
688.263	0.0228436
688.341	0.0230271
688.419	0.0231034
688.497	0.0228806
688.575	0.0224118
688.654	0.0218751
688.732	0.0209763
688.810	0.0196561
688.888	0.0184522
688.966	0.0168504
689.044	0.0149705
689.122	0.0131013
689.200	0.0113590
689.279	0.00933289
689.357	0.00768135
689.435	0.00623047
689.513	0.00517097
689.591	0.00439499
689.669	0.00406387
689.747	0.00428894
689.825	0.00485107
689.904	0.00553154
689.982	0.00665710
690.060	0.00810616
690.138	0.00961159
690.216	0.0112547
690.294	0.0128755
690.372	0.0145837
690.450	0.0160001
690.529	0.0176455
690.607	0.0190662
690.685	0.0204079
690.763	0.0218219
690.841	0.0230807
690.919	0.0242471
690.997	0.0253405
691.075	0.0261526
691.154	0.0268459
691.232	0.0274220
691.310	0.0277374
691.388	0.0277804
691.466	0.0276783
691.544	0.0274087
691.622	0.0270048
691.700	0.0262910
691.779	0.0251333
691.857	0.0239471
691.935	0.0226447
692.013	0.0210575
692.091	0.0192760
692.169	0.0174616
692.247	0.0155286
692.325	0.0132138
692.404	0.0111244
692.482	0.00911041
692.560	0.00704414
692.638	0.00537064
692.716	0.00390663
692.794	0.00291298
692.872	0.00219246
692.950	0.00214737
693.029	0.00251671
693.107	0.00318085
693.185	0.00443680
693.263	0.00605255
693.341	0.00772377
693.419	0.00971687
693.497	0.0115673
693.575	0.0136374
693.654	0.0156317
693.732	0.0173705
693.810	0.0191354
693.888	0.0206204
693.966	0.0219037
694.044	0.0230824
694.122	0.0241454
694.200	0.0250786
694.279	0.0256348
694.357	0.0263998
694.435	0.0268641
694.513	0.0273169
694.591	0.0274432
694.669	0.0277135
694.747	0.0275446
694.825	0.0269737
694.904	0.0263431
694.982	0.0253194
695.060	0.0241199
695.138	0.0225871
695.216	0.0210258
695.294	0.0193281
695.372	0.0172502
695.450	0.0154294
695.529	0.0136827
695.607	0.0116719
695.685	0.00981087
695.763	0.00817207
695.841	0.00678642
695.919	0.00556587
695.997	0.00476929
696.075	0.00443352
696.154	0.00430862
696.232	0.00469414
696.310	0.00517578
696.388	0.00625519
696.466	0.00752182
696.544	0.00896172
696.622	0.0104707
696.700	0.0121581
696.779	0.0138414
696.857	0.0153811
696.935	0.0169608
697.013	0.0183509
697.091	0.0194604
697.169	0.0204774
697.247	0.0212451
697.325	0.0217316
697.404	0.0222547
697.482	0.0223821
697.560	0.0222918
697.638	0.0224242
697.716	0.0226019
697.794	0.0225309
697.872	0.0223184
697.950	0.0223739
698.029	0.0223170
698.107	0.0219679
698.185	0.0217612
698.263	0.0213156
698.341	0.0206988
698.419	0.0200225
698.497	0.0190756
698.575	0.0181429
698.654	0.0172707
698.732	0.0161668
698.810	0.0153577
698.888	0.0143188
698.966	0.0134338
699.044	0.0129424
699.122	0.0125454
699.200	0.0122755
699.279	0.0121007
699.357	0.0121469
699.435	0.0122961
699.513	0.0126362
699.591	0.0129524
699.669	0.0134782
699.747	0.0139410
699.825	0.0144009
699.904	0.0150576
699.982	0.0154599
700.060	0.0159940
700.138	0.0164894
700.216	0.0169466
700.294	0.0173264
700.372	0.0177158
700.450	0.0179105
700.529	0.0180853
700.607	0.0180652
700.685	0.0180175
700.763	0.0176754
700.841	0.0173943
700.919	0.0170796
700.997	0.0166019
701.075	0.0162228
701.154	0.0157881
701.232	0.0153849
701.310	0.0150181
701.388	0.0146709
701.466	0.0144940
701.544	0.0143274
701.622	0.0140913
701.700	0.0141257
701.779	0.0143530
701.857	0.0145744
701.935	0.0148858
702.013	0.0151484
702.091	0.0156339
702.169	0.0162511
702.247	0.0166003
702.325	0.0171754
702.404	0.0175600
702.482	0.0179462
702.560	0.0181857
702.638	0.0184657
702.716	0.0185054
702.794	0.0185892
702.872	0.0187182
702.950	0.0186066
703.029	0.0185838
703.107	0.0186419
703.185	0.0185532
703.263	0.0185874
703.341	0.0185612
703.419	0.0185629
703.497	0.0185784
703.575	0.0184592
703.654	0.0183631
703.732	0.0181625
703.810	0.0178753
703.888	0.0174561
703.966	0.0172553
704.044	0.0168958
704.122	0.0164372
704.200	0.0158836
704.279	0.0154240
704.357	0.0150394
704.435	0.0144368
704.513	0.0138644
704.591	0.0134594
704.669	0.0131360
704.747	0.0129661
704.825	0.0128090
704.904	0.0131386
704.982	0.0131961
705.060	0.0134070
705.138	0.0136765
705.216	0.0141283
705.294	0.0145539
705.372	0.0148005
705.450	0.0154879
705.529	0.0158811
705.607	0.0162412
705.685	0.0166433
705.763	0.0169144
705.841	0.0173576
705.919	0.0176315
705.997	0.0176341
706.075	0.0176799
706.154	0.0177511
706.232	0.0178439
706.310	0.0178053
706.388	0.0175670
706.466	0.0174480
706.544	0.0173589
706.622	0.0173374
706.700	0.0172260
706.779	0.0172909
706.857	0.0173164
706.935	0.0173498
707.013	0.0173483
707.091	0.0173298
707.169	0.0175457
707.247	0.0175258
707.325	0.0176178
707.404	0.0175162
707.482	0.0175348
707.560	0.0174056
707.638	0.0172038
707.716	0.0169684
707.794	0.0167259
707.872	0.0164269
707.950	0.0161350
708.029	0.0157539
708.107	0.0155144
708.185	0.0151456
708.263	0.0149114
708.341	0.0147763
708.419	0.0145690
708.497	0.0147162
708.575	0.0148261
708.654	0.0149014
708.732	0.0151518
708.810	0.0153063
708.888	0.0157211
708.966	0.0160922
709.044	0.0164769
709.122	0.0165431
709.200	0.0167913
709.279	0.0171189
709.357	0.0171289
709.435	0.0171367
709.513	0.0170657
709.591	0.0172227
709.669	0.0172849
709.747	0.0170950
709.825	0.0168682
709.904	0.0168027
709.982	0.0166449
710.060	0.0164568
710.138	0.0164825
710.216	0.0163323
710.294	0.0163577
710.372	0.0163234
710.450	0.0161105
710.529	0.0164721
710.607	0.0164970
710.685	0.0164872
710.763	0.0164201
710.841	0.0166906
710.919	0.0165971
710.997	0.0165293
711.075	0.0164179
711.154	0.0162959
711.232	0.0163680
711.310	0.0161915
711.388	0.0161356
711.466	0.0159411
711.544	0.0157793
711.622	0.0156257
711.700	0.0155405
711.779	0.0155232
711.857	0.0154905
711.935	0.0155074
712.013	0.0156219
712.091	0.0157214
712.169	0.0158761
712.247	0.0160606
712.325	0.0162333
712.404	0.0165663
712.482	0.0169090
712.560	0.0171259
712.638	0.0172897
712.716	0.0176801
712.794	0.0178240
712.872	0.0181252
712.950	0.0183287
713.029	0.0184308
713.107	0.0184335
713.185	0.0182848
713.263	0.0181963
713.341	0.0179481
713.419	0.0175739
713.497	0.0173354
713.575	0.0170782
713.654	0.0169318
713.732	0.0165364
713.810	0.0162890
713.888	0.0162255
713.966	0.0160214
714.044	0.0158686
714.122	0.0157621
714.200	0.0158505
714.279	0.0157034
714.357	0.0156997
714.435	0.0157459
714.513	0.0156888
714.591	0.0154717
714.669	0.0157982
714.747	0.0157024
714.825	0.0155309
714.904	0.0156733
714.982	0.0155427
715.060	0.0154086
715.138	0.0153800
715.216	0.0154933
715.294	0.0155339
715.372	0.0154813
715.450	0.0156664
715.529	0.0157522
715.607	0.0157925
715.685	0.0158807
715.763	0.0160103
715.841	0.0160696
715.919	0.0162160
715.997	0.0163166
716.075	0.0163823
716.154	0.0165308
716.232	0.0167003
716.310	0.0167141
716.388	0.0166757
716.466	0.0166908
716.544	0.0167706
716.622	0.0168112
716.700	0.0168504
716.779	0.0167946
716.857	0.0168386
716.935	0.0168571
717.013	0.0168462
717.091	0.0167529
717.169	0.0168104
717.247	0.0169547
717.325	0.0169740
717.404	0.0169582
717.482	0.0168858
717.560	0.0170168
717.638	0.0172243
717.716	0.0170620
717.794	0.0170053
717.872	0.0171656
717.950	0.0172455
718.029	0.0173204
718.107	0.0170863
718.185	0.0171720
718.263	0.0172993
718.341	0.0171658
718.419	0.0171153
718.497	0.0171495
718.575	0.0170853
718.654	0.0168935
718.732	0.0168148
718.810	0.0167121
718.888	0.0165279
718.966	0.0164334
719.044	0.0163927
719.122	0.0163327
719.200	0.0160328
719.279	0.0161211
719.357	0.0160271
719.435	0.0160751
719.513	0.0160139
719.591	0.0159830
719.669	0.0159234
719.747	0.0159421
719.825	0.0160239
719.904	0.0159301
719.982	0.0161112
720.060	0.0160366
720.138	0.0160210
720.216	0.0158489
720.294	0.0157925
720.372	0.0159544
720.450	0.0156456
720.529	0.0156427
720.607	0.0156165
720.685	0.0156761
720.763	0.0157416
720.841	0.0156226
720.919	0.0156475
720.997	0.0159193
721.075	0.0158006
721.154	0.0157417
721.232	0.0160167
721.310	0.0161139
721.388	0.0161796
721.466	0.0163531
721.544	0.0164682
721.622	0.0165974
721.700	0.0166321
721.779	0.0168465
721.857	0.0168511
721.935	0.0168430
722.013	0.0168951
722.091	0.0168851
722.169	0.0170004
722.247	0.0170050
722.325	0.0170853
722.404	0.0171001
722.482	0.0171609
722.560	0.0172285
722.638	0.0174897
722.716	0.0174478
722.794	0.0174289
722.872	0.0174764
722.950	0.0173206
723.029	0.0173729
723.107	0.0173038
723.185	0.0172292
723.263	0.0172092
723.341	0.0172173
723.419	0.0170887
723.497	0.0169647
723.575	0.0167652
723.654	0.0164645
723.732	0.0162184
723.810	0.0163099
723.888	0.0159328
723.966	0.0159061
724.044	0.0157888
724.122	0.0158316
724.200	0.0157671
724.279	0.0156850
724.357	0.0157011
724.435	0.0156240
724.513	0.0159505
724.591	0.0158022
724.669	0.0159092
724.747	0.0160619
724.825	0.0161883
724.904	0.0162894
724.982	0.0164161
725.060	0.0164266
725.138	0.0163696
725.216	0.0163399
725.294	0.0163007
725.372	0.0165475
725.450	0.0164767
725.529	0.0165283
725.607	0.0164474
725.685	0.0165041
725.763	0.0165883
725.841	0.0165968
725.919	0.0165292
725.997	0.0166641
726.075	0.0167281
726.154	0.0168143
726.232	0.0168815
726.310	0.0169738
726.388	0.0168959
726.466	0.0168507
726.544	0.0170350
726.622	0.0169559
726.700	0.0169164
726.779	0.0169524
726.857	0.0169154
726.935	0.0168049
727.013	0.0167920
727.091	0.0167717
727.169	0.0164746
727.247	0.0165668
727.325	0.0165958
727.404	0.0163620
727.482	0.0163051
727.560	0.0161534
727.638	0.0160723
727.716	0.0159685
727.794	0.0160140
727.872	0.0158879
727.950	0.0159076
728.029	0.0158939
728.107	0.0158674
728.185	0.0160194
728.263	0.0161230
728.341	0.0160822
728.419	0.0161949
728.497	0.0162167
728.575	0.0162813
728.654	0.0162547
728.732	0.0164570
728.810	0.0163255
728.888	0.0164548
728.966	0.0164741
729.044	0.0165647
729.122	0.0164668
729.200	0.0164831
729.279	0.0166396
729.357	0.0165916
729.435	0.0166405
729.513	0.0165865
729.591	0.0166911
729.669	0.0166153
729.747	0.0168098
729.825	0.0168948
729.904	0.0168538
729.982	0.0168398
730.060	0.0168719
730.138	0.0168964
730.216	0.0168459
730.294	0.0169550
730.372	0.0169511
730.450	0.0169291
730.529	0.0168412
730.607	0.0167874
730.685	0.0166262
730.763	0.0167260
730.841	0.0167144
730.919	0.0165288
730.997	0.0165450
731.075	0.0165128
731.154	0.0165094
731.232	0.0164066
731.310	0.0163758
731.388	0.0162474
731.466	0.0162614
731.544	0.0161790
731.622	0.0163177
731.700	0.0163448
731.779	0.0163231
731.857	0.0161594
731.935	0.0162157
732.013	0.0160974
732.091	0.0162531
732.169	0.0161443
732.247	0.0160137
732.325	0.0160106
732.404	0.0160161
732.482	0.0159703
732.560	0.0160571
732.638	0.0160211
732.716	0.0160836
732.794	0.0161615
732.872	0.0162215
732.950	0.0162787
733.029	0.0162486
733.107	0.0165775
733.185	0.0164432
733.263	0.0164726
733.341	0.0165858
733.419	0.0165965
733.497	0.0166187
733.575	0.0167561
733.654	0.0167581
733.732	0.0167249
733.810	0.0167170
733.888	0.0168967
733.966	0.0168484
734.044	0.0168959
734.122	0.0169917
734.200	0.0170451
734.279	0.0169821
734.357	0.0170210
734.435	0.0170873
734.513	0.0169707
734.591	0.0169258
734.669	0.0169610
734.747	0.0167529
734.825	0.0166432
734.904	0.0165813
734.982	0.0164404
735.060	0.0164542
735.138	0.0164697
735.216	0.0164093
735.294	0.0163804
735.372	0.0162312
735.450	0.0161426
735.529	0.0162222
735.607	0.0161752
735.685	0.0162017
735.763	0.0160689
735.841	0.0158617
735.919	0.0160876
735.997	0.0159465
736.075	0.0159420
736.154	0.0158813
736.232	0.0160235
736.310	0.0159719
736.388	0.0161029
736.466	0.0161226
736.544	0.0161169
736.622	0.0162864
736.700	0.0162871
736.779	0.0161447
736.857	0.0163482
736.935	0.0163954
737.013	0.0165067
737.091	0.0167500
737.169	0.0166692
737.247	0.0166897
737.325	0.0169009
737.404	0.0169775
737.482	0.0170294
737.560	0.0169126
737.638	0.0170103
737.716	0.0170384
737.794	0.0168316
737.872	0.0169977
737.950	0.0170683
738.029	0.0169203
738.107	0.0168837
738.185	0.0167613
738.263	0.0167585
738.341	0.0166330
738.419	0.0166410
738.497	0.0164700
738.575	0.0165237
738.654	0.0165109
738.732	0.0164324
738.810	0.0162835
738.888	0.0160983
738.966	0.0161845
739.044	0.0161710
739.122	0.0162270
739.200	0.0161777
739.279	0.0160751
739.357	0.0162991
739.435	0.0163220
739.513	0.0163147
739.591	0.0162096
739.669	0.0162800
739.747	0.0163169
739.825	0.0163380
739.904	0.0165015
739.982	0.0164747
740.060	0.0164207
740.138	0.0165309
740.216	0.0165279
740.294	0.0164647
740.372	0.0166817
740.450	0.0165273
740.529	0.0166850
740.607	0.0169155
740.685	0.0169071
740.763	0.0168690
740.841	0.0169974
740.919	0.0170567
740.997	0.0167867
741.075	0.0167680
741.154	0.0167763
741.232	0.0166653
741.310	0.0167163
741.388	0.0165437
741.466	0.0164423
741.544	0.0165193
741.622	0.0164200
741.700	0.0163769
741.779	0.0161905
741.857	0.0161652
741.935	0.0159937
742.013	0.0161147
742.091	0.0160600
742.169	0.0161426
742.247	0.0160949
742.325	0.0162453
742.404	0.0160440
742.482	0.0162085
742.560	0.0163837
742.638	0.0161274
742.716	0.0162540
742.794	0.0163184
742.872	0.0161510
742.950	0.0164167
743.029	0.0163253
743.107	0.0162907
743.185	0.0163897
743.263	0.0163709
743.341	0.0164256
743.419	0.0164526
743.497	0.0165987
743.575	0.0165998
743.654	0.0167316
743.732	0.0167318
743.810	0.0167284
743.888	0.0167566
743.966	0.0168752
744.044	0.0168216
744.122	0.0167014
744.200	0.0166676
744.279	0.0167165
744.357	0.0166165
744.435	0.0166495
744.513	0.0165489
744.591	0.0165261
744.669	0.0164328
744.747	0.0164112
744.825	0.0162406
744.904	0.0161528
744.982	0.0162161
745.060	0.0160436
745.138	0.0160807
745.216	0.0160493
745.294	0.0159842
745.372	0.0162177
745.450	0.0161774
745.529	0.0161597
745.607	0.0160468
745.685	0.0162325
745.763	0.0163918
745.841	0.0164871
745.919	0.0164610
745.997	0.0164364
746.075	0.0166190
746.154	0.0165858
746.232	0.0165958
746.310	0.0166350
746.388	0.0165738
746.466	0.0166765
746.544	0.0167981
746.622	0.0164576
746.700	0.0164979
746.779	0.0165575
746.857	0.0164967
746.935	0.0165631
747.013	0.0165232
747.091	0.0165668
747.169	0.0167306
747.247	0.0167062
747.325	0.0167279
747.404	0.0167126
747.482	0.0167708
747.560	0.0168642
747.638	0.0169054
747.716	0.0168874
747.794	0.0169679
747.872	0.0168583
747.950	0.0168025
748.029	0.0169294
748.107	0.0169404
748.185	0.0169073
748.263	0.0169697
748.341	0.0167181
748.419	0.0166106
748.497	0.0166452
748.575	0.0165046
748.654	0.0166248
748.732	0.0165171
748.810	0.0164648
748.888	0.0164165
748.966	0.0164146
749.044	0.0163116
749.122	0.0162403
749.200	0.0163418
749.279	0.0161897
749.357	0.0164294
749.435	0.0162228
749.513	0.0161311
749.591	0.0162606
749.669	0.0161619
749.747	0.0161520
749.825	0.0161703
749.904	0.0161439
749.982	0.0162370
750.060	0.0161905
750.138	0.0162431
750.216	0.0162496
750.294	0.0161238
750.372	0.0164455
750.450	0.0163284
750.529	0.0165527
750.607	0.0164594
750.685	0.0164867
750.763	0.0164732
750.841	0.0166405
750.919	0.0167367
750.997	0.0166172
751.075	0.0166669
751.154	0.0166092
751.232	0.0167975
751.310	0.0167988
751.388	0.0166453
751.466	0.0166842
751.544	0.0167804
751.622	0.0166187
751.700	0.0166879
751.779	0.0167680
751.857	0.0167149
751.935	0.0166901
752.013	0.0166660
752.091	0.0166050
752.169	0.0166264
752.247	0.0166332
752.325	0.0166720
752.404	0.0165254
752.482	0.0164759
752.560	0.0165609
752.638	0.0165203
752.716	0.0165003
752.794	0.0164964
752.872	0.0164945
752.950	0.0164180
753.029	0.0165359
753.107	0.0164822
753.185	0.0163581
753.263	0.0163538
753.341	0.0163211
753.419	0.0163938
753.497	0.0163350
753.575	0.0164610
753.654	0.0163619
753.732	0.0162683
753.810	0.0163823
753.888	0.0163479
753.966	0.0165675
754.044	0.0166449
754.122	0.0166640
754.200	0.0167275
754.279	0.0167141
754.357	0.0169489
754.435	0.0169653
754.513	0.0168821
754.591	0.0170049
754.669	0.0170915
754.747	0.0170010
754.825	0.0169586
754.904	0.0171124
754.982	0.0170287
755.060	0.0169392
755.138	0.0168465
755.216	0.0168595
755.294	0.0167245
755.372	0.0165257
755.450	0.0164549
755.529	0.0162637
755.607	0.0163511
755.685	0.0162203
755.763	0.0162847
755.841	0.0162286
755.919	0.0160517
755.997	0.0161343
756.075	0.0160130
756.154	0.0161433
756.232	0.0162572
756.310	0.0162057
756.388	0.0163789
756.466	0.0164536
756.544	0.0164758
756.622	0.0164957
756.700	0.0167077
756.779	0.0167043
756.857	0.0167423
756.935	0.0167885
757.013	0.0168339
757.091	0.0167980
757.169	0.0168385
757.247	0.0168015
757.325	0.0166239
757.404	0.0166269
757.482	0.0166907
757.560	0.0166444
757.638	0.0163417
757.716	0.0163815
757.794	0.0163960
757.872	0.0163093
757.950	0.0162988
758.029	0.0163752
758.107	0.0162778
758.185	0.0163825
758.263	0.0162730
758.341	0.0163805
758.419	0.0164101
758.497	0.0164650
758.575	0.0165221
758.654	0.0164460
758.732	0.0164800
758.810	0.0164730
758.888	0.0163885
758.966	0.0164074
759.044	0.0165363
759.122	0.0164993
759.200	0.0164436
759.279	0.0162833
759.357	0.0164287
759.435	0.0163799
759.513	0.0165483
759.591	0.0165312
759.669	0.0166060
759.747	0.0165909
759.825	0.0165958
759.904	0.0167556
759.982	0.0166814
760.060	0.0168282
760.138	0.0168939
760.216	0.0169016
760.294	0.0169370
760.372	0.0169255
760.450	0.0168646
760.529	0.0167835
760.607	0.0167952
760.685	0.0167443
760.763	0.0166636
760.841	0.0166795
760.919	0.0165588
760.997	0.0165813
761.075	0.0165533
761.154	0.0164635
761.232	0.0164216
761.310	0.0164105
761.388	0.0162901
761.466	0.0162535
761.544	0.0162156
761.622	0.0161160
761.700	0.0161319
761.779	0.0161665
761.857	0.0160529
761.935	0.0160104
762.013	0.0160275
762.091	0.0161694
762.169	0.0160929
762.247	0.0161107
762.325	0.0161232
762.404	0.0162215
762.482	0.0163049
762.560	0.0163734
762.638	0.0163780
762.716	0.0166695
762.794	0.0166187
762.872	0.0168039
762.950	0.0168484
763.029	0.0168152
763.107	0.0167469
763.185	0.0169394
763.263	0.0168958
763.341	0.0169516
763.419	0.0168701
763.497	0.0167848
763.575	0.0168726
763.654	0.0166264
763.732	0.0166123
763.810	0.0166164
763.888	0.0165952
763.966	0.0165044
764.044	0.0163918
764.122	0.0163049
764.200	0.0163276
764.279	0.0161895
764.357	0.0161307
764.435	0.0162384
764.513	0.0162505
764.591	0.0162793
764.669	0.0162444
764.747	0.0162666
764.825	0.0162519
764.904	0.0161710
764.982	0.0162237
765.060	0.0163670
765.138	0.0162069
765.216	0.0162373
765.294	0.0163252
765.372	0.0163039
765.450	0.0162241
765.529	0.0163525
765.607	0.0162821
765.685	0.0163309
765.763	0.0164087
765.841	0.0164431
765.919	0.0164531
765.997	0.0164653
766.075	0.0165157
766.154	0.0167365
766.232	0.0167452
766.310	0.0167751
766.388	0.0167185
766.466	0.0169717
766.544	0.0167733
766.622	0.0167725
766.700	0.0169627
766.779	0.0166324
766.857	0.0167278
766.935	0.0164981
767.013	0.0165850
767.091	0.0165583
767.169	0.0163062
767.247	0.0164422
767.325	0.0162457
767.404	0.0163316
767.482	0.0164327
767.560	0.0163287
767.638	0.0163498
767.716	0.0164214
767.794	0.0161285
767.872	0.0162682
767.950	0.0162746
768.029	0.0164514
768.107	0.0162592
768.185	0.0162199
768.263	0.0163934
768.341	0.0164040
768.419	0.0163887
768.497	0.0164703
768.575	0.0163310
768.654	0.0163747
768.732	0.0164951
768.810	0.0162984
768.888	0.0165488
768.966	0.0165245
769.044	0.0163944
769.122	0.0165415
769.200	0.0164851
769.279	0.0164339
769.357	0.0164858
769.435	0.0166998
769.513	0.0165471
769.591	0.0164436
769.669	0.0164919
769.747	0.0165775
769.825	0.0163014
769.904	0.0165047
769.982	0.0163053
770.060	0.0162238
770.138	0.0161467
770.216	0.0161943
770.294	0.0163026
770.372	0.0161891
770.450	0.0162730
770.529	0.0160864
770.607	0.0161784
770.685	0.0161609
770.763	0.0164325
770.841	0.0165189
770.919	0.0165090
770.997	0.0165362
771.075	0.0165411
771.154	0.0166873
771.232	0.0169241
771.310	0.0168396
771.388	0.0170111
771.466	0.0170126
771.544	0.0168343
771.622	0.0170465
771.700	0.0169569
771.779	0.0169373
771.857	0.0169856
771.935	0.0169655
772.013	0.0168571
772.091	0.0168719
772.169	0.0168247
772.247	0.0167423
772.325	0.0166734
772.404	0.0167375
772.482	0.0166397
772.560	0.0165865
772.638	0.0165394
772.716	0.0164692
772.794	0.0163927
772.872	0.0163778
772.950	0.0163570
773.029	0.0164190
773.107	0.0162743
773.185	0.0161729
773.263	0.0160812
773.341	0.0160542
773.419	0.0160497
773.497	0.0161642
773.575	0.0160542
773.654	0.0158504
773.732	0.0159423
773.810	0.0160147
773.888	0.0160657
773.966	0.0160629
774.044	0.0162355
774.122	0.0163827
774.200	0.0164523
774.279	0.0164698
774.357	0.0164301
774.435	0.0166974
774.513	0.0167193
774.591	0.0168340
774.669	0.0168477
774.747	0.0168671
774.825	0.0168509
774.904	0.0168890
774.982	0.0169141
775.060	0.0168874
775.138	0.0167740
775.216	0.0168143
775.294	0.0167732
775.372	0.0166219
775.450	0.0166505
775.529	0.0165636
775.607	0.0165245
775.685	0.0165331
775.763	0.0163725
775.841	0.0164333
775.919	0.0163986
775.997	0.0162845
776.075	0.0162727
776.154	0.0162209
776.232	0.0162608
776.310	0.0162974
776.388	0.0163345
776.466	0.0162904
776.544	0.0161389
776.622	0.0162766
776.700	0.0162967
776.779	0.0162548
776.857	0.0163772
776.935	0.0162679
777.013	0.0163589
777.091	0.0164085
777.169	0.0163501
777.247	0.0166114
777.325	0.0165388
777.404	0.0165214
777.482	0.0165091
777.560	0.0167209
777.638	0.0166851
777.716	0.0167057
777.794	0.0167466
777.872	0.0167424
777.950	0.0168000
778.029	0.0167408
778.107	0.0167759
778.185	0.0166130
778.263	0.0166729
778.341	0.0166863
778.419	0.0165705
778.497	0.0166395
778.575	0.0165298
778.654	0.0166081
778.732	0.0166340
778.810	0.0165029
778.888	0.0164742
778.966	0.0164941
779.044	0.0163633
779.122	0.0164984
779.200	0.0163995
779.279	0.0163253
779.357	0.0162162
779.435	0.0163457
779.513	0.0165133
779.591	0.0162466
779.669	0.0163498
779.747	0.0164890
779.825	0.0164860
779.904	0.0165018
779.982	0.0164857
780.060	0.0166177
780.138	0.0166067
780.216	0.0166328
780.294	0.0167125
780.372	0.0166766
780.450	0.0167404
780.529	0.0166058
780.607	0.0167106
780.685	0.0167757
780.763	0.0167953
780.841	0.0167664
780.919	0.0166167
780.997	0.0167377
781.075	0.0166010
781.154	0.0164213
781.232	0.0165668
781.310	0.0165123
781.388	0.0164671
781.466	0.0165007
781.544	0.0164278
781.622	0.0162780
781.700	0.0162575
781.779	0.0162115
781.857	0.0162876
781.935	0.0163411
782.013	0.0160271
782.091	0.0162099
782.169	0.0160004
782.247	0.0160432
782.325	0.0160955
782.404	0.0161352
782.482	0.0161230
782.560	0.0159185
782.638	0.0159328
782.716	0.0160930
782.794	0.0160391
782.872	0.0161517
782.950	0.0161925
783.029	0.0161842
783.107	0.0162889
783.185	0.0165240
783.263	0.0164805
783.341	0.0165687
783.419	0.0166702
783.497	0.0167165
783.575	0.0168446
783.654	0.0168401
783.732	0.0169265
783.810	0.0169568
783.888	0.0169945
783.966	0.0169349
784.044	0.0170289
784.122	0.0169508
784.200	0.0170261
784.279	0.0170779
784.357	0.0170785
784.435	0.0168840
784.513	0.0170287
784.591	0.0169221
784.669	0.0168040
784.747	0.0168752
784.825	0.0168771
784.904	0.0168708
784.982	0.0167169
785.060	0.0166177
785.138	0.0164256
785.216	0.0164985
785.294	0.0164824
785.372	0.0162474
785.450	0.0161510
785.529	0.0161266
785.607	0.0159802
785.685	0.0159766
785.763	0.0157060
785.841	0.0157092
785.919	0.0157635
785.997	0.0157419
786.075	0.0156919
786.154	0.0157541
786.232	0.0158429
786.310	0.0158183
786.388	0.0158811
786.466	0.0158538
786.544	0.0159811
786.622	0.0160207
786.700	0.0161558
786.779	0.0162971
786.857	0.0163692
786.935	0.0164079
787.013	0.0167145
787.091	0.0168718
787.169	0.0168126
787.247	0.0170871
787.325	0.0171506
787.404	0.0171260
787.482	0.0173384
787.560	0.0172516
787.638	0.0174676
787.716	0.0174649
787.794	0.0173253
787.872	0.0173699
787.950	0.0174277
788.029	0.0173492
788.107	0.0171729
788.185	0.0171340
788.263	0.0168892
788.341	0.0168159
788.419	0.0167165
788.497	0.0166035
788.575	0.0165670
788.654	0.0163260
788.732	0.0162909
788.810	0.0161567
788.888	0.0159206
788.966	0.0158923
789.044	0.0158858
789.122	0.0158104
789.200	0.0157300
789.279	0.0155978
789.357	0.0157813
789.435	0.0156454
789.513	0.0156128
789.591	0.0157541
789.669	0.0156965
789.747	0.0157806
789.825	0.0158311
789.904	0.0159791
789.982	0.0159216
790.060	0.0161594
790.138	0.0162550
790.216	0.0162733
790.294	0.0165101
790.372	0.0166243
790.450	0.0167438
790.529	0.0167987
790.607	0.0167532
790.685	0.0167786
790.763	0.0169585
790.841	0.0168337
790.919	0.0169587
790.997	0.0169249
791.075	0.0170137
791.154	0.0171198
791.232	0.0170376
791.310	0.0170467
791.388	0.0171059
791.466	0.0170142
791.544	0.0171081
791.622	0.0169748
791.700	0.0168228
791.779	0.0168998
791.857	0.0168357
791.935	0.0165622
792.013	0.0164598
792.091	0.0164120
792.169	0.0164894
792.247	0.0163690
792.325	0.0163283
792.404	0.0161060
792.482	0.0162493
792.560	0.0161296
792.638	0.0159521
792.716	0.0159599
792.794	0.0159193
792.872	0.0158277
792.950	0.0157800
793.029	0.0157847
793.107	0.0158822
793.185	0.0158656
793.263	0.0160133
793.341	0.0158966
793.419	0.0161685
793.497	0.0162730
793.575	0.0163138
793.654	0.0163740
793.732	0.0164464
793.810	0.0165259
793.888	0.0166280
793.966	0.0167332
794.044	0.0168834
794.122	0.0169894
794.200	0.0169701
794.279	0.0168332
794.357	0.0168691
794.435	0.0169749
794.513	0.0169282
794.591	0.0169523
794.669	0.0167606
794.747	0.0168227
794.825	0.0169061
794.904	0.0168241
794.982	0.0166531
795.060	0.0165849
795.138	0.0165511
795.216	0.0165604
795.294	0.0165976
795.372	0.0164471
795.450	0.0164455
795.529	0.0163177
795.607	0.0163110
795.685	0.0163086
795.763	0.0163313
795.841	0.0161944
795.919	0.0162590
795.997	0.0163567
796.075	0.0162576
796.154	0.0162127
796.232	0.0161121
796.310	0.0160126
796.388	0.0162167
796.466	0.0161879
796.544	0.0162003
796.622	0.0163011
796.700	0.0162471
796.779	0.0163135
796.857	0.0163721
796.935	0.0163951
797.013	0.0162799
797.091	0.0163705
797.169	0.0164260
797.247	0.0164144
797.325	0.0164372
797.404	0.0165028
797.482	0.0165539
797.560	0.0165913
797.638	0.0164515
797.716	0.0164952
797.794	0.0166113
797.872	0.0164011
797.950	0.0165411
798.029	0.0165595
798.107	0.0165581
798.185	0.0165536
798.263	0.0166286
798.341	0.0166219
798.419	0.0164499
798.497	0.0164737
798.575	0.0164568
798.654	0.0164198
798.732	0.0163515
798.810	0.0164415
798.888	0.0162633
798.966	0.0163382
799.044	0.0163069
799.122	0.0162357
799.200	0.0162850
799.279	0.0162495
799.357	0.0162350
799.435	0.0162260
799.513	0.0162627
799.591	0.0162711
799.669	0.0165434
799.747	0.0163063
799.825	0.0164629
799.904	0.0164824
799.982	0.0165340
800.060	0.0165113
800.138	0.0166288
800.216	0.0168121
800.294	0.0167688
800.372	0.0166898
800.450	0.0167481
800.529	0.0168307
800.607	0.0168750
800.685	0.0168014
800.763	0.0168497
800.841	0.0166355
800.919	0.0166792
800.997	0.0168754
801.075	0.0167065
801.154	0.0166073
801.232	0.0166843
801.310	0.0165576
801.388	0.0165614
801.466	0.0165969
801.544	0.0165395
801.622	0.0165364
801.700	0.0164169
801.779	0.0163319
801.857	0.0164262
801.935	0.0163458
802.013	0.0162661
802.091	0.0163167
802.169	0.0162257
802.247	0.0163083
802.325	0.0163467
802.404	0.0161852
802.482	0.0162367
802.560	0.0160793
802.638	0.0161880
802.716	0.0164412
802.794	0.0163220
802.872	0.0162843
802.950	0.0163261
803.029	0.0162146
803.107	0.0162016
803.185	0.0165238
803.263	0.0164094
803.341	0.0164478
803.419	0.0166032
803.497	0.0166471
803.575	0.0166857
803.654	0.0166805
803.732	0.0167044
803.810	0.0169313
803.888	0.0169032
803.966	0.0169404
804.044	0.0167866
804.122	0.0167664
804.200	0.0167425
804.279	0.0167699
804.357	0.0168759
804.435	0.0168216
804.513	0.0168338
804.591	0.0167004
804.669	0.0167358
804.747	0.0167194
804.825	0.0166266
804.904	0.0165482
804.982	0.0166079
805.060	0.0166246
805.138	0.0163907
805.216	0.0163531
805.294	0.0164090
805.372	0.0163617
805.450	0.0162991
805.529	0.0163630
805.607	0.0163349
805.685	0.0164324
805.763	0.0162654
805.841	0.0163816
805.919	0.0163185
805.997	0.0163344
806.075	0.0163746
806.154	0.0163456
806.232	0.0164903
806.310	0.0165016
806.388	0.0164568
806.466	0.0164123
806.544	0.0165097
806.622	0.0162753
806.700	0.0165163
806.779	0.0165369
806.857	0.0164954
806.935	0.0165411
807.013	0.0164988
807.091	0.0164855
807.169	0.0166660
807.247	0.0166318
807.325	0.0165232
807.404	0.0165448
807.482	0.0165436
807.560	0.0164363
807.638	0.0165746
807.716	0.0165128
807.794	0.0164098
807.872	0.0163029
807.950	0.0163754
808.029	0.0163880
808.107	0.0162889
808.185	0.0163873
808.263	0.0162588
808.341	0.0163319
808.419	0.0163831
808.497	0.0164593
808.575	0.0165307
808.654	0.0165792
808.732	0.0164893
808.810	0.0165699
808.888	0.0166312
808.966	0.0166975
809.044	0.0167075
809.122	0.0168013
809.200	0.0166151
809.279	0.0165918
809.357	0.0167883
809.435	0.0167480
809.513	0.0166010
809.591	0.0167659
809.669	0.0167967
809.747	0.0166602
809.825	0.0167568
809.904	0.0167272
809.982	0.0167020
810.060	0.0166951
810.138	0.0166079
810.216	0.0168237
810.294	0.0166424
810.372	0.0165739
810.450	0.0165956
810.529	0.0165664
810.607	0.0164926
810.685	0.0165260
810.763	0.0164308
810.841	0.0164602
810.919	0.0163023
810.997	0.0162286
811.075	0.0160610
811.154	0.0162071
811.232	0.0161737
811.310	0.0161699
811.388	0.0163170
811.466	0.0161590
811.544	0.0161320
811.622	0.0163112
811.700	0.0162540
811.779	0.0161015
811.857	0.0161794
811.935	0.0165150
812.013	0.0163931
812.091	0.0164434
812.169	0.0165871
812.247	0.0165128
812.325	0.0166493
812.404	0.0166346
812.482	0.0166251
812.560	0.0165987
812.638	0.0167460
812.716	0.0166497
812.794	0.0168781
812.872	0.0167403
812.950	0.0167245
813.029	0.0167357
813.107	0.0167248
813.185	0.0166345
813.263	0.0166143
813.341	0.0167438
813.419	0.0165588
813.497	0.0166075
813.575	0.0166107
813.654	0.0165269
813.732	0.0165491
813.810	0.0164664
813.888	0.0163896
813.966	0.0164429
814.044	0.0165224
814.122	0.0164249
814.200	0.0164095
814.279	0.0164719
814.357	0.0165562
814.435	0.0164107
814.513	0.0164322
814.591	0.0163872
814.669	0.0164165
814.747	0.0163699
814.825	0.0164310
814.904	0.0163354
814.982	0.0163045
815.060	0.0165758
815.138	0.0164394
815.216	0.0164129
815.294	0.0164367
815.372	0.0163631
815.450	0.0165611
815.529	0.0165108
815.607	0.0163752
815.685	0.0163008
815.763	0.0163313
815.841	0.0165150
815.919	0.0163582
815.997	0.0163256
816.075	0.0163219
816.154	0.0164377
816.232	0.0164764
816.310	0.0165469
816.388	0.0163280
816.466	0.0165057
816.544	0.0164191
816.622	0.0163879
816.700	0.0165309
816.779	0.0165147
816.857	0.0165266
816.935	0.0167455
817.013	0.0166267
817.091	0.0165914
817.169	0.0166235
817.247	0.0166509
817.325	0.0166022
817.404	0.0165948
817.482	0.0165723
817.560	0.0166418
817.638	0.0165265
817.716	0.0166096
817.794	0.0165578
817.872	0.0164993
817.950	0.0165411
818.029	0.0165057
818.107	0.0164198
818.185	0.0164475
818.263	0.0164876
818.341	0.0164186
818.419	0.0164450
818.497	0.0165305
818.575	0.0165149
818.654	0.0163849
818.732	0.0163744
818.810	0.0163551
818.888	0.0164841
818.966	0.0165170
819.044	0.0164610
819.122	0.0164670
819.200	0.0164928
819.279	0.0165497
819.357	0.0163723
819.435	0.0164499
819.513	0.0165897
819.591	0.0166578
819.669	0.0165581
819.747	0.0164974
819.825	0.0166132
819.904	0.0165866
819.982	0.0165526
820.060	0.0165647
820.138	0.0165942
820.216	0.0164870
820.294	0.0165140
820.372	0.0165507
820.450	0.0164719
820.529	0.0164860
820.607	0.0165230
820.685	0.0164562
820.763	0.0165379
820.841	0.0165731
820.919	0.0164755
820.997	0.0165388
821.075	0.0165016
821.154	0.0165487
821.232	0.0164356
821.310	0.0164408
821.388	0.0165403
821.466	0.0163734
821.544	0.0162994
821.622	0.0164703
821.700	0.0165111
821.779	0.0163594
821.857	0.0164270
821.935	0.0164531
822.013	0.0164414
822.091	0.0165114
822.169	0.0164070
822.247	0.0164148
822.325	0.0163346
822.404	0.0163286
822.482	0.0163257
822.560	0.0164223
822.638	0.0164539
822.716	0.0164001
822.794	0.0163772
822.872	0.0163242
822.950	0.0164465
823.029	0.0163835
823.107	0.0166268
823.185	0.0164124
823.263	0.0164584
823.341	0.0164481
823.419	0.0164655
823.497	0.0165070
823.575	0.0165084
823.654	0.0164431
823.732	0.0164581
823.810	0.0164649
823.888	0.0164939
823.966	0.0164175
824.044	0.0164555
824.122	0.0164690
824.200	0.0163704
824.279	0.0166599
824.357	0.0166001
824.435	0.0166385
824.513	0.0165276
824.591	0.0166618
824.669	0.0167988
824.747	0.0167793
824.825	0.0167281
824.904	0.0167308
824.982	0.0165362
825.060	0.0166357
825.138	0.0166434
825.216	0.0166935
825.294	0.0167778
825.372	0.0167385
825.450	0.0165809
825.529	0.0166197
825.607	0.0165324
825.685	0.0165145
825.763	0.0165656
825.841	0.0163996
825.919	0.0164928
825.997	0.0165158
826.075	0.0165460
826.154	0.0164219
826.232	0.0164191
826.310	0.0164727
826.388	0.0166772
826.466	0.0165317
826.544	0.0165570
826.622	0.0165393
826.700	0.0165359
826.779	0.0165915
826.857	0.0167375
826.935	0.0166831
827.013	0.0165585
827.091	0.0165538
827.169	0.0166682
827.247	0.0167294
827.325	0.0165713
827.404	0.0166090
827.482	0.0165385
827.560	0.0164364
827.638	0.0164346
827.716	0.0164321
827.794	0.0164960
827.872	0.0164129
827.950	0.0164610
828.029	0.0164110
828.107	0.0164011
828.185	0.0164352
828.263	0.0163810
828.341	0.0164029
828.419	0.0162835
828.497	0.0163463
828.575	0.0163836
828.654	0.0162748
828.732	0.0163620
828.810	0.0163602
828.888	0.0162093
828.966	0.0162626
829.044	0.0164098
829.122	0.0161993
829.200	0.0162600
829.279	0.0164495
829.357	0.0164337
829.435	0.0163371
829.513	0.0165490
829.591	0.0166870
829.669	0.0165355
829.747	0.0166016
829.825	0.0166454
829.904	0.0167009
829.982	0.0166945
830.060	0.0166668
830.138	0.0166762
830.216	0.0166296
830.294	0.0165963
830.372	0.0167430
830.450	0.0165402
830.529	0.0166281
830.607	0.0167212
830.685	0.0165926
830.763	0.0165738
830.841	0.0165675
830.919	0.0166167
830.997	0.0166833
831.075	0.0165298
831.154	0.0166325
831.232	0.0164416
831.310	0.0164182
831.388	0.0165188
831.466	0.0165421
831.544	0.0164198
831.622	0.0163740
831.700	0.0163829
831.779	0.0163788
831.857	0.0164146
831.935	0.0163445
832.013	0.0163210
832.091	0.0163496
832.169	0.0164493
832.247	0.0163719
832.325	0.0162798
832.404	0.0163251
832.482	0.0162849
832.560	0.0163761
832.638	0.0163167
832.716	0.0163271
832.794	0.0162737
832.872	0.0164790
832.950	0.0161923
833.029	0.0163933
833.107	0.0163624
833.185	0.0165337
833.263	0.0164085
833.341	0.0165505
833.419	0.0165923
833.497	0.0166392
833.575	0.0167449
833.654	0.0168189
833.732	0.0166814
833.810	0.0169001
833.888	0.0168328
833.966	0.0166132
834.044	0.0167049
834.122	0.0166830
834.200	0.0166534
834.279	0.0166210
834.357	0.0165536
834.435	0.0166166
834.513	0.0164832
834.591	0.0165913
834.669	0.0166266
834.747	0.0164497
834.825	0.0165760
834.904	0.0163598
834.982	0.0163421
835.060	0.0164425
835.138	0.0164536
835.216	0.0164167
835.294	0.0163499
835.372	0.0163496
835.450	0.0164207
835.529	0.0163586
835.607	0.0163766
835.685	0.0162395
835.763	0.0164103
835.841	0.0164237
835.919	0.0166472
835.997	0.0164541
836.075	0.0164036
836.154	0.0164474
836.232	0.0163901
836.310	0.0164486
836.388	0.0164460
836.466	0.0165029
836.544	0.0164150
836.622	0.0164004
836.700	0.0164219
836.779	0.0164175
836.857	0.0164519
836.935	0.0163940
837.013	0.0163686
837.091	0.0165661
837.169	0.0164297
837.247	0.0163950
837.325	0.0164369
837.404	0.0165005
837.482	0.0164236
837.560	0.0164981
837.638	0.0164091
837.716	0.0165440
837.794	0.0164753
837.872	0.0164618
837.950	0.0165550
838.029	0.0164303
838.107	0.0163980
838.185	0.0162888
838.263	0.0163867
838.341	0.0163558
838.419	0.0163976
838.497	0.0163824
838.575	0.0164936
838.654	0.0166060
838.732	0.0165630
838.810	0.0165204
838.888	0.0164803
838.966	0.0165929
839.044	0.0164389
839.122	0.0165049
839.200	0.0164837
839.279	0.0165887
839.357	0.0164788
839.435	0.0165371
839.513	0.0166864
839.591	0.0166557
839.669	0.0164882
839.747	0.0166194
839.825	0.0165801
839.904	0.0165604
839.982	0.0164974
840.060	0.0163757
840.138	0.0165211
840.216	0.0166202
840.294	0.0165571
840.372	0.0165438
840.450	0.0164594
840.529	0.0165155
840.607	0.0165208
840.685	0.0164934
840.763	0.0164420
840.841	0.0163155
840.919	0.0163718
840.997	0.0164317
841.075	0.0164494
841.154	0.0163953
841.232	0.0165193
841.310	0.0164702
841.388	0.0164575
841.466	0.0165799
841.544	0.0166679
841.622	0.0164940
841.700	0.0166582
841.779	0.0165794
841.857	0.0166599
841.935	0.0164232
842.013	0.0165187
842.091	0.0165869
842.169	0.0165865
842.247	0.0164747
842.325	0.0163783
842.404	0.0163690
842.482	0.0165140
842.560	0.0165213
842.638	0.0165111
842.716	0.0163750
842.794	0.0163924
842.872	0.0163834
842.950	0.0166112
843.029	0.0164339
843.107	0.0164007
843.185	0.0165754
843.263	0.0164268
843.341	0.0165097
843.419	0.0165913
843.497	0.0165942
843.575	0.0163292
843.654	0.0164917
843.732	0.0163680
843.810	0.0163326
843.888	0.0165006
843.966	0.0163660
844.044	0.0162860
844.122	0.0164087
844.200	0.0164406
844.279	0.0164660
844.357	0.0164414
844.435	0.0164642
844.513	0.0164487
844.591	0.0165213
844.669	0.0164117
844.747	0.0167405
844.825	0.0165988
844.904	0.0166270
844.982	0.0166592
845.060	0.0167162
845.138	0.0165852
845.216	0.0165898
845.294	0.0166583
845.372	0.0166297
845.450	0.0166367
845.529	0.0164983
845.607	0.0165612
845.685	0.0165522
845.763	0.0164664
845.841	0.0164373
845.919	0.0163438
845.997	0.0164846
846.075	0.0164072
846.154	0.0164666
846.232	0.0165891
846.310	0.0163525
846.388	0.0164885
846.466	0.0164021
846.544	0.0164783
846.622	0.0165019
846.700	0.0162746
846.779	0.0165263
846.857	0.0166660
846.935	0.0165027
847.013	0.0165708
847.091	0.0164497
847.169	0.0165186
847.247	0.0164516
847.325	0.0165955
847.404	0.0165889
847.482	0.0164591
847.560	0.0165316
847.638	0.0163860
847.716	0.0164621
847.794	0.0166156
847.872	0.0164503
847.950	0.0165321
848.029	0.0166389
848.107	0.0165762
848.185	0.0165925
848.263	0.0165693
848.341	0.0166419
848.419	0.0166753
848.497	0.0166306
848.575	0.0166044
848.654	0.0165485
848.732	0.0166512
848.810	0.0166147
848.888	0.0165887
848.966	0.0165305
849.044	0.0164181
849.122	0.0163574
849.200	0.0163538
849.279	0.0162489
849.357	0.0162413
849.435	0.0161829
849.513	0.0163515
849.591	0.0163258
849.669	0.0161694
849.747	0.0164319
849.825	0.0163756
849.904	0.0163006
849.982	0.0165263
850.060	0.0165202
850.138	0.0165128
850.216	0.0166577
850.294	0.0167226
850.372	0.0166521
850.450	0.0167160
850.529	0.0166224
850.607	0.0166862
850.685	0.0168647
850.763	0.0166784
850.841	0.0167937
850.919	0.0167548
850.997	0.0168726
851.075	0.0166814
851.154	0.0165900
851.232	0.0167014
851.310	0.0167824
851.388	0.0166383
851.466	0.0166344
851.544	0.0166133
851.622	0.0165421
851.700	0.0165421
851.779	0.0165714
851.857	0.0163869
851.935	0.0163441
852.013	0.0163838
852.091	0.0162789
852.169	0.0162907
852.247	0.0163239
852.325	0.0161091
852.404	0.0161568
852.482	0.0162021
852.560	0.0162103
852.638	0.0161636
852.716	0.0162522
852.794	0.0162461
852.872	0.0163338
852.950	0.0164223
853.029	0.0165582
853.107	0.0164734
853.185	0.0164326
853.263	0.0165508
853.341	0.0166829
853.419	0.0166814
853.497	0.0166945
853.575	0.0166651
853.654	0.0166975
853.732	0.0167939
853.810	0.0167422
853.888	0.0167056
853.966	0.0167172
854.044	0.0166035
854.122	0.0166729
854.200	0.0167071
854.279	0.0165648
854.357	0.0166290
854.435	0.0164094
854.513	0.0163867
854.591	0.0165241
854.669	0.0165403
854.747	0.0164259
854.825	0.0163576
854.904	0.0165395
854.982	0.0165286
855.060	0.0164182
855.138	0.0165325
855.216	0.0163925
855.294	0.0165662
855.372	0.0163918
855.450	0.0165033
855.529	0.0165021
855.607	0.0164626
855.685	0.0163676
855.763	0.0164848
855.841	0.0164699
855.919	0.0162716
855.997	0.0163854
856.075	0.0164324
856.154	0.0165487
856.232	0.0165971
856.310	0.0165957
856.388	0.0164162
856.466	0.0164181
856.544	0.0164445
856.622	0.0164852
856.700	0.0165221
856.779	0.0165261
856.857	0.0165541
856.935	0.0164532
857.013	0.0166496
857.091	0.0165869
857.169	0.0166207
857.247	0.0166339
857.325	0.0165585
857.404	0.0166267
857.482	0.0165937
857.560	0.0164253
857.638	0.0164065
857.716	0.0164784
857.794	0.0165156
857.872	0.0164841
857.950	0.0165192
858.029	0.0164314
858.107	0.0163414
858.185	0.0164430
858.263	0.0164083
858.341	0.0163229
858.419	0.0163155
858.497	0.0163315
858.575	0.0163198
858.654	0.0162948
858.732	0.0164516
858.810	0.0164364
858.888	0.0163861
858.966	0.0163882
859.044	0.0164363
859.122	0.0164303
859.200	0.0164516
859.279	0.0164114
859.357	0.0164877
859.435	0.0164239
859.513	0.0165576
859.591	0.0165291
859.669	0.0166241
859.747	0.0166056
859.825	0.0165899
859.904	0.0164809
859.982	0.0165900
860.060	0.0164912
860.138	0.0164289
860.216	0.0164622
860.294	0.0164576
860.372	0.0164711
860.450	0.0165195
860.529	0.0163883
860.607	0.0164214
860.685	0.0163594
860.763	0.0164323
860.841	0.0164183
860.919	0.0162566
860.997	0.0162199
861.075	0.0162549
861.154	0.0164099
861.232	0.0163573
861.310	0.0162951
861.388	0.0165336
861.466	0.0161571
861.544	0.0165334
861.622	0.0165485
861.700	0.0164069
861.779	0.0165648
861.857	0.0164957
861.935	0.0164484
862.013	0.0165784
862.091	0.0164109
862.169	0.0163347
862.247	0.0164756
862.325	0.0166014
862.404	0.0165200
862.482	0.0165953
862.560	0.0165700
862.638	0.0164679
862.716	0.0164957
862.794	0.0166729
862.872	0.0164997
862.950	0.0164989
863.029	0.0164959
863.107	0.0164784
863.185	0.0164570
863.263	0.0162398
863.341	0.0164149
863.419	0.0165105
863.497	0.0163248
863.575	0.0163927
863.654	0.0161800
863.732	0.0163614
863.810	0.0163833
863.888	0.0162054
863.966	0.0161301
864.044	0.0161896
864.122	0.0162626
864.200	0.0162045
864.279	0.0162199
864.357	0.0164030
864.435	0.0162424
864.513	0.0163305
864.591	0.0163097
864.669	0.0163202
864.747	0.0164351
864.825	0.0163046
864.904	0.0163545
864.982	0.0163874
865.060	0.0164493
865.138	0.0164513
865.216	0.0164588
865.294	0.0165041
865.372	0.0164943
865.450	0.0165234
865.529	0.0165823
865.607	0.0165304
865.685	0.0166127
865.763	0.0166033
865.841	0.0166376
865.919	0.0165398
865.997	0.0164709
866.075	0.0163943
866.154	0.0164735
866.232	0.0163789
866.310	0.0163500
866.388	0.0164767
866.466	0.0163106
866.544	0.0163229
866.622	0.0163624
866.700	0.0163831
866.779	0.0164093
866.857	0.0163882
866.935	0.0163714
867.013	0.0163514
867.091	0.0164361
867.169	0.0162403
867.247	0.0163497
867.325	0.0163801
867.404	0.0164037
867.482	0.0165009
867.560	0.0163669
867.638	0.0164063
867.716	0.0162660
867.794	0.0163387
867.872	0.0163712
867.950	0.0161497
868.029	0.0163365
868.107	0.0164291
868.185	0.0163730
868.263	0.0162938
868.341	0.0163883
868.419	0.0164456
868.497	0.0164063
868.575	0.0164403
868.654	0.0164163
868.732	0.0163353
868.810	0.0164581
868.888	0.0165063
868.966	0.0164642
869.044	0.0164833
869.122	0.0165627
869.200	0.0165452
869.279	0.0163770
869.357	0.0163766
869.435	0.0164986
869.513	0.0164040
869.591	0.0163479
869.669	0.0163138
869.747	0.0163672
869.825	0.0163242
869.904	0.0163404
869.982	0.0162980
870.060	0.0162785
870.138	0.0162398
870.216	0.0163743
870.294	0.0164417
870.372	0.0163579
870.450	0.0163007
870.529	0.0164405
870.607	0.0164114
870.685	0.0166846
870.763	0.0165049
870.841	0.0164822
870.919	0.0165598
870.997	0.0164101
871.075	0.0163298
871.154	0.0165161
871.232	0.0164397
871.310	0.0164426
871.388	0.0164380
871.466	0.0163815
871.544	0.0163723
871.622	0.0164243
871.700	0.0163709
871.779	0.0164809
871.857	0.0164520
871.935	0.0164882
872.013	0.0165089
872.091	0.0164587
872.169	0.0164989
872.247	0.0164637
872.325	0.0163592
872.404	0.0164635
872.482	0.0163241
872.560	0.0163957
872.638	0.0164014
872.716	0.0163139
872.794	0.0166404
872.872	0.0165359
872.950	0.0164622
873.029	0.0163498
873.107	0.0164722
873.185	0.0164717
873.263	0.0164868
873.341	0.0164764
873.419	0.0164429
873.497	0.0165260
873.575	0.0165804
873.654	0.0165340
873.732	0.0164809
873.810	0.0167575
873.888	0.0165689
873.966	0.0165531
874.044	0.0165865
874.122	0.0164884
874.200	0.0165565
874.279	0.0166058
874.357	0.0163442
874.435	0.0162981
874.513	0.0163638
874.591	0.0163560
874.669	0.0164132
874.747	0.0164713
874.825	0.0164742
874.904	0.0164428
874.982	0.0164893
875.060	0.0163815
875.138	0.0164296
875.216	0.0164503
875.294	0.0164369
875.372	0.0163080
875.450	0.0163408
875.529	0.0162791
875.607	0.0162854
875.685	0.0164045
875.763	0.0163184
875.841	0.0162021
875.919	0.0163786
875.997	0.0164028
876.075	0.0163497
876.154	0.0164777
876.232	0.0166948
876.310	0.0166628
876.388	0.0166674
876.466	0.0167194
876.544	0.0167881
876.622	0.0167155
876.700	0.0168265
876.779	0.0167487
876.857	0.0167334
876.935	0.0167528
877.013	0.0167570
877.091	0.0167751
877.169	0.0167133
877.247	0.0166980
877.325	0.0165430
877.404	0.0164947
877.482	0.0165170
877.560	0.0164333
877.638	0.0164071
877.716	0.0163929
877.794	0.0161961
877.872	0.0161060
877.950	0.0160899
878.029	0.0160075
878.107	0.0161028
878.185	0.0161399
878.263	0.0160212
878.341	0.0159555
878.419	0.0160046
878.497	0.0161170
878.575	0.0163457
878.654	0.0164317
878.732	0.0163863
878.810	0.0165611
878.888	0.0165851
878.966	0.0165054
879.044	0.0164453
879.122	0.0164606
879.200	0.0163952
879.279	0.0163720
879.357	0.0163592
879.435	0.0162186
879.513	0.0163522
879.591	0.0163801
879.669	0.0165332
879.747	0.0167741
879.825	0.0168996
879.904	0.0170199
879.982	0.0170412
880.060	0.0172877
880.138	0.0174833
880.216	0.0174314
880.294	0.0173866
880.372	0.0174372
880.450	0.0173587
880.529	0.0171793
880.607	0.0170279
880.685	0.0168092
880.763	0.0166959
880.841	0.0163322
880.919	0.0161172
880.997	0.0159065
881.075	0.0156886
881.154	0.0156211
881.232	0.0154803
881.310	0.0154404
881.388	0.0153223
881.466	0.0155196
881.544	0.0156088
881.622	0.0155678
881.700	0.0156065
881.779	0.0158069
881.857	0.0159209
881.935	0.0160570
882.013	0.0162016
882.091	0.0162659
882.169	0.0162895
882.247	0.0164106
882.325	0.0165144
882.404	0.0166471
882.482	0.0166032
882.560	0.0166840
882.638	0.0168561
882.716	0.0169257
882.794	0.0168752
882.872	0.0170081
882.950	0.0171608
883.029	0.0171758
883.107	0.0170898
883.185	0.0172771
883.263	0.0173734
883.341	0.0171673
883.419	0.0171650
883.497	0.0170375
883.575	0.0168763
883.654	0.0166145
883.732	0.0164239
883.810	0.0164787
883.888	0.0161991
883.966	0.0160320
884.044	0.0159296
884.122	0.0156441
884.200	0.0156004
884.279	0.0155398
884.357	0.0155258
884.435	0.0155359
884.513	0.0155791
884.591	0.0155760
884.669	0.0157474
884.747	0.0157108
884.825	0.0158955
884.904	0.0160577
884.982	0.0164111
885.060	0.0165000
885.138	0.0166277
885.216	0.0167717
885.294	0.0170589
885.372	0.0170213
885.450	0.0170489
885.529	0.0170395
885.607	0.0170094
885.685	0.0169241
885.763	0.0168538
885.841	0.0169155
885.919	0.0169843
885.997	0.0168056
886.075	0.0168530
886.154	0.0168295
886.232	0.0168406
886.310	0.0167753
886.388	0.0167533
886.466	0.0166473
886.544	0.0166765
886.622	0.0165351
886.700	0.0165381
886.779	0.0163285
886.857	0.0163107
886.935	0.0161201
887.013	0.0160022
887.091	0.0158627
887.169	0.0158428
887.247	0.0157361
887.325	0.0157050
887.404	0.0155978
887.482	0.0156275
887.560	0.0155636
887.638	0.0154566
887.716	0.0156061
887.794	0.0156951
887.872	0.0159287
887.950	0.0159125
888.029	0.0161328
888.107	0.0163600
888.185	0.0165284
888.263	0.0165548
888.341	0.0167834
888.419	0.0169353
888.497	0.0170628
888.575	0.0173080
888.654	0.0172688
888.732	0.0172520
888.810	0.0173870
888.888	0.0173676
888.966	0.0172465
889.044	0.0171620
889.122	0.0170958
889.200	0.0169997
889.279	0.0168376
889.357	0.0167409
889.435	0.0167547
889.513	0.0166539
889.591	0.0165341
889.669	0.0163606
889.747	0.0163647
889.825	0.0161372
889.904	0.0161057
889.982	0.0160444
890.060	0.0159548
890.138	0.0160683
890.216	0.0159064
890.294	0.0159237
890.372	0.0158747
890.450	0.0158014
890.529	0.0158126
890.607	0.0158386
890.685	0.0157899
890.763	0.0159895
890.841	0.0158784
890.919	0.0159388
890.997	0.0160729
891.075	0.0162383
891.154	0.0163400
891.232	0.0164574
891.310	0.0164979
891.388	0.0167839
891.466	0.0168321
891.544	0.0168758
891.622	0.0168439
891.700	0.0168334
891.779	0.0168235
891.857	0.0168516
891.935	0.0169378
892.013	0.0168108
892.091	0.0167446
892.169	0.0167199
892.247	0.0166555
892.325	0.0166569
892.404	0.0167138
892.482	0.0166682
892.560	0.0164779
892.638	0.0164964
892.716	0.0164922
892.794	0.0162892
892.872	0.0162707
892.950	0.0163235
893.029	0.0163368
893.107	0.0163435
893.185	0.0162952
893.263	0.0161569
893.341	0.0162530
893.419	0.0163015
893.497	0.0162305
893.575	0.0160661
893.654	0.0162931
893.732	0.0163715
893.810	0.0163020
893.888	0.0164755
893.966	0.0164850
894.044	0.0162890
894.122	0.0165350
894.200	0.0166201
894.279	0.0165440
894.357	0.0166640
894.435	0.0164941
894.513	0.0165641
894.591	0.0165977
894.669	0.0164535
894.747	0.0165810
894.825	0.0165063
894.904	0.0163953
894.982	0.0165388
895.060	0.0166084
895.138	0.0165910
895.216	0.0165607
895.294	0.0166293
895.372	0.0167782
895.450	0.0168216
895.529	0.0167162
895.607	0.0167319
895.685	0.0167209
895.763	0.0166458
895.841	0.0165993
895.919	0.0167442
895.997	0.0167191
896.075	0.0165372
896.154	0.0165424
896.232	0.0165076
896.310	0.0162843
896.388	0.0163380
896.466	0.0163258
896.544	0.0163202
896.622	0.0163631
896.700	0.0163943
896.779	0.0165446
896.857	0.0163180
896.935	0.0163604
897.013	0.0164262
897.091	0.0164535
897.169	0.0164814
897.247	0.0163754
897.325	0.0164291
897.404	0.0163616
897.482	0.0164877
897.560	0.0164269
897.638	0.0164295
897.716	0.0164273
897.794	0.0164111
897.872	0.0162927
897.950	0.0164598
898.029	0.0164136
898.107	0.0164104
898.185	0.0165302
898.263	0.0164300
898.341	0.0164789
898.419	0.0164424
898.497	0.0166376
898.575	0.0165517
898.654	0.0165798
898.732	0.0165913
898.810	0.0167046
898.888	0.0166531
898.966	0.0165875
899.044	0.0165839
899.122	0.0166788
899.200	0.0165038
899.279	0.0163960
899.357	0.0165751
899.435	0.0164100
899.513	0.0165562
899.591	0.0164705
899.669	0.0163628
899.747	0.0164487
899.825	0.0163638
899.904	0.0164097
899.982	0.0164841
900.060	0.0163705
900.138	0.0163528
900.216	0.0165361
900.294	0.0164870
900.372	0.0165160
900.450	0.0166539
900.529	0.0167097
900.607	0.0167715
900.685	0.0166621
900.763	0.0166905
900.841	0.0168133
900.919	0.0168420
900.997	0.0166419
901.075	0.0166507
901.154	0.0165773
901.232	0.0166264
901.310	0.0165976
901.388	0.0166174
901.466	0.0164471
901.544	0.0164500
901.622	0.0165285
901.700	0.0165566
901.779	0.0164381
901.857	0.0164252
901.935	0.0163747
902.013	0.0163438
902.091	0.0161982
902.169	0.0163603
902.247	0.0164428
902.325	0.0163074
902.404	0.0163408
902.482	0.0162328
902.560	0.0160777
902.638	0.0161672
902.716	0.0161698
902.794	0.0161425
902.872	0.0162510
902.950	0.0161252
903.029	0.0160474
903.107	0.0161316
903.185	0.0162079
903.263	0.0161476
903.341	0.0162156
903.419	0.0162384
903.497	0.0163622
903.575	0.0165479
903.654	0.0165308
903.732	0.0165987
903.810	0.0167874
903.888	0.0166794
903.966	0.0167409
904.044	0.0170488
904.122	0.0169423
904.200	0.0170330
904.279	0.0169536
904.357	0.0170641
904.435	0.0169617
904.513	0.0169534
904.591	0.0167403
904.669	0.0169236
904.747	0.0168910
904.825	0.0168143
904.904	0.0168697
904.982	0.0167658
905.060	0.0167034
905.138	0.0167081
905.216	0.0166357
905.294	0.0164897
905.372	0.0165555
905.450	0.0165301
905.529	0.0164834
905.607	0.0163203
905.685	0.0162375
905.763	0.0162999
905.841	0.0161165
905.919	0.0161494
905.997	0.0161768
906.075	0.0159429
906.154	0.0158749
906.232	0.0160642
906.310	0.0160056
906.388	0.0160750
906.466	0.0158757
906.544	0.0160330
906.622	0.0160608
906.700	0.0160379
906.779	0.0159566
906.857	0.0160308
906.935	0.0161980
907.013	0.0163168
907.091	0.0163553
907.169	0.0163703
907.247	0.0163873
907.325	0.0165971
907.404	0.0166758
907.482	0.0167749
907.560	0.0168750
907.638	0.0168998
907.716	0.0170107
907.794	0.0170391
907.872	0.0170221
907.950	0.0170834
908.029	0.0170787
908.107	0.0170319
908.185	0.0169372
908.263	0.0169532
908.341	0.0169782
908.419	0.0168649
908.497	0.0168259
908.575	0.0168771
908.654	0.0166213
908.732	0.0165841
908.810	0.0165372
908.888	0.0165185
908.966	0.0164265
909.044	0.0163518
909.122	0.0163269
909.200	0.0163334
909.279	0.0161853
909.357	0.0162144
909.435	0.0163605
909.513	0.0161428
909.591	0.0159592
909.669	0.0161505
909.747	0.0161990
909.825	0.0163273
909.904	0.0162035
909.982	0.0162139
910.060	0.0162283
910.138	0.0162075
910.216	0.0162902
910.294	0.0162653
910.372	0.0163527
910.450	0.0164040
910.529	0.0164520
910.607	0.0164391
910.685	0.0165511
910.763	0.0164777
910.841	0.0165932
910.919	0.0165578
910.997	0.0166651
911.075	0.0168295
911.154	0.0166548
911.232	0.0166605
911.310	0.0168176
911.388	0.0167191
911.466	0.0167526
911.544	0.0166883
911.622	0.0167194
911.700	0.0166036
911.779	0.0166122
911.857	0.0166376
911.935	0.0166774
912.013	0.0166206
912.091	0.0164626
912.169	0.0164927
912.247	0.0164697
912.325	0.0165323
912.404	0.0165668
912.482	0.0163050
912.560	0.0164406
912.638	0.0164201
912.716	0.0164756
912.794	0.0164298
912.872	0.0163814
912.950	0.0163247
913.029	0.0163663
913.107	0.0161836
913.185	0.0163805
913.263	0.0163853
913.341	0.0164522
913.419	0.0163364
913.497	0.0163648
913.575	0.0163111
913.654	0.0163179
913.732	0.0162820
913.810	0.0165285
913.888	0.0165091
913.966	0.0164329
914.044	0.0165520
914.122	0.0165179
914.200	0.0164668
914.279	0.0165302
914.357	0.0165180
914.435	0.0165373
914.513	0.0167458
914.591	0.0167574
914.669	0.0167089
914.747	0.0168248
914.825	0.0167961
914.904	0.0166837
914.982	0.0167429
915.060	0.0165640
915.138	0.0167277
915.216	0.0166457
915.294	0.0166943
915.372	0.0167249
915.450	0.0165252
915.529	0.0164843
915.607	0.0166113
915.685	0.0164622
915.763	0.0164880
915.841	0.0163654
915.919	0.0164352
915.997	0.0163491
916.075	0.0164535
916.154	0.0164918
916.232	0.0164053
916.310	0.0164436
916.388	0.0164269
916.466	0.0163726
916.544	0.0164906
916.622	0.0163389
916.700	0.0164095
916.779	0.0164252
916.857	0.0165212
916.935	0.0164899
917.013	0.0165456
917.091	0.0165269
917.169	0.0164413
917.247	0.0163988
917.325	0.0165239
917.404	0.0165193
917.482	0.0164334
917.560	0.0164512
917.638	0.0165845
917.716	0.0166517
917.794	0.0165471
917.872	0.0165813
917.950	0.0165892
918.029	0.0166297
918.107	0.0167298
918.185	0.0167961
918.263	0.0167905
918.341	0.0166770
918.419	0.0167705
918.497	0.0165617
918.575	0.0166167
918.654	0.0167201
918.732	0.0166862
918.810	0.0166017
918.888	0.0167024
918.966	0.0166014
919.044	0.0167048
919.122	0.0167649
919.200	0.0166277
919.279	0.0165918
919.357	0.0167127
919.435	0.0166891
919.513	0.0166140
919.591	0.0166161
919.669	0.0166547
919.747	0.0166356
919.825	0.0165538
919.904	0.0164429
