06/03/2022	14:02:20	Ver.	4.1	UNKNOWN
Optical Delay	599.981738	Delta X		0.078125	Sweeps	1	Scan Rate	0/0
Coordinates	Axis 1	NaN	Axis 2	NaN	Axis 3	NaN	Axis 4	NaN	Axis 5	NaN	Axis 6	0.000000
TX Power	0.000000	RX Power	0.000000

599.982	0.0165816
600.060	0.0165472
600.138	0.0166348
600.216	0.0166162
600.294	0.0165569
600.372	0.0166071
600.450	0.0165608
600.529	0.0166322
600.607	0.0166035
600.685	0.0166737
600.763	0.0166750
600.841	0.0165561
600.919	0.0165940
600.997	0.0166006
601.075	0.0165565
601.154	0.0167641
601.232	0.0165988
601.310	0.0164895
601.388	0.0165345
601.466	0.0166859
601.544	0.0166823
601.622	0.0166550
601.700	0.0165784
601.779	0.0165004
601.857	0.0166050
601.935	0.0164831
602.013	0.0165306
602.091	0.0166667
602.169	0.0165913
602.247	0.0166341
602.325	0.0166611
602.404	0.0165358
602.482	0.0165108
602.560	0.0165945
602.638	0.0166425
602.716	0.0166100
602.794	0.0167815
602.872	0.0163254
602.950	0.0165523
603.029	0.0166097
603.107	0.0167592
603.185	0.0165395
603.263	0.0165896
603.341	0.0166166
603.419	0.0165205
603.497	0.0165722
603.575	0.0165450
603.654	0.0165355
603.732	0.0167146
603.810	0.0166367
603.888	0.0166209
603.966	0.0165385
604.044	0.0167179
604.122	0.0165994
604.200	0.0164837
604.279	0.0165453
604.357	0.0167979
604.435	0.0165803
604.513	0.0167807
604.591	0.0167460
604.669	0.0165079
604.747	0.0165860
604.825	0.0166713
604.904	0.0165568
604.982	0.0166809
605.060	0.0166077
605.138	0.0166206
605.216	0.0166795
605.294	0.0165826
605.372	0.0166293
605.450	0.0165999
605.529	0.0164616
605.607	0.0166399
605.685	0.0165915
605.763	0.0165208
605.841	0.0166834
605.919	0.0167181
605.997	0.0166243
606.075	0.0166005
606.154	0.0166312
606.232	0.0165284
606.310	0.0166043
606.388	0.0166150
606.466	0.0167064
606.544	0.0165640
606.622	0.0165265
606.700	0.0165136
606.779	0.0165917
606.857	0.0165966
606.935	0.0167157
607.013	0.0165157
607.091	0.0166414
607.169	0.0165345
607.247	0.0165782
607.325	0.0166960
607.404	0.0166940
607.482	0.0165357
607.560	0.0166135
607.638	0.0166145
607.716	0.0166460
607.794	0.0166910
607.872	0.0167305
607.950	0.0166059
608.029	0.0166557
608.107	0.0167700
608.185	0.0167413
608.263	0.0165070
608.341	0.0166821
608.419	0.0166388
608.497	0.0165184
608.575	0.0165398
608.654	0.0166782
608.732	0.0167075
608.810	0.0165659
608.888	0.0165445
608.966	0.0167119
609.044	0.0166668
609.122	0.0166966
609.200	0.0165790
609.279	0.0166101
609.357	0.0167738
609.435	0.0166407
609.513	0.0164369
609.591	0.0166544
609.669	0.0165293
609.747	0.0165494
609.825	0.0165163
609.904	0.0164516
609.982	0.0164222
610.060	0.0165885
610.138	0.0164612
610.216	0.0165167
610.294	0.0165012
610.372	0.0166080
610.450	0.0165488
610.529	0.0165880
610.607	0.0166560
610.685	0.0165079
610.763	0.0165656
610.841	0.0166937
610.919	0.0164581
610.997	0.0164722
611.075	0.0165848
611.154	0.0164714
611.232	0.0166602
611.310	0.0165943
611.388	0.0166292
611.466	0.0167586
611.544	0.0166087
611.622	0.0166161
611.700	0.0167220
611.779	0.0167123
611.857	0.0167202
611.935	0.0165686
612.013	0.0167420
612.091	0.0167928
612.169	0.0167076
612.247	0.0165884
612.325	0.0166270
612.404	0.0167922
612.482	0.0166274
612.560	0.0166567
612.638	0.0166935
612.716	0.0166412
612.794	0.0165614
612.872	0.0166255
612.950	0.0165812
613.029	0.0165158
613.107	0.0164913
613.185	0.0165170
613.263	0.0165434
613.341	0.0165420
613.419	0.0164835
613.497	0.0164692
613.575	0.0165197
613.654	0.0164727
613.732	0.0165287
613.810	0.0164993
613.888	0.0165577
613.966	0.0165664
614.044	0.0164108
614.122	0.0164961
614.200	0.0164919
614.279	0.0166103
614.357	0.0165458
614.435	0.0166157
614.513	0.0167518
614.591	0.0167262
614.669	0.0166216
614.747	0.0166442
614.825	0.0166194
614.904	0.0164664
614.982	0.0167033
615.060	0.0165614
615.138	0.0165712
615.216	0.0166396
615.294	0.0166603
615.372	0.0166353
615.450	0.0166121
615.529	0.0165720
615.607	0.0165131
615.685	0.0166246
615.763	0.0166196
615.841	0.0166014
615.919	0.0165703
615.997	0.0165331
616.075	0.0166198
616.154	0.0166393
616.232	0.0166550
616.310	0.0165768
616.388	0.0165832
616.466	0.0163948
616.544	0.0166085
616.622	0.0165921
616.700	0.0166094
616.779	0.0165639
616.857	0.0165742
616.935	0.0166077
617.013	0.0166393
617.091	0.0163676
617.169	0.0165023
617.247	0.0165989
617.325	0.0166379
617.404	0.0165315
617.482	0.0165932
617.560	0.0165484
617.638	0.0165401
617.716	0.0165268
617.794	0.0165573
617.872	0.0165559
617.950	0.0167261
618.029	0.0165834
618.107	0.0165688
618.185	0.0165450
618.263	0.0165952
618.341	0.0167399
618.419	0.0165630
618.497	0.0166115
618.575	0.0167130
618.654	0.0165434
618.732	0.0165699
618.810	0.0167807
618.888	0.0166853
618.966	0.0167229
619.044	0.0166169
619.122	0.0166115
619.200	0.0165115
619.279	0.0166376
619.357	0.0166578
619.435	0.0165373
619.513	0.0165908
619.591	0.0165707
619.669	0.0165828
619.747	0.0165868
619.825	0.0164770
619.904	0.0164845
619.982	0.0166138
620.060	0.0166905
620.138	0.0165813
620.216	0.0165396
620.294	0.0165643
620.372	0.0165516
620.450	0.0165420
620.529	0.0164732
620.607	0.0165570
620.685	0.0164677
620.763	0.0167129
620.841	0.0166006
620.919	0.0166013
620.997	0.0165623
621.075	0.0165829
621.154	0.0166482
621.232	0.0166798
621.310	0.0165882
621.388	0.0164955
621.466	0.0165630
621.544	0.0166508
621.622	0.0167075
621.700	0.0164713
621.779	0.0166267
621.857	0.0166859
621.935	0.0166305
622.013	0.0163745
622.091	0.0165509
622.169	0.0165810
622.247	0.0166447
622.325	0.0166124
622.404	0.0166126
622.482	0.0166459
622.560	0.0166314
622.638	0.0167133
622.716	0.0166366
622.794	0.0166328
622.872	0.0168591
622.950	0.0166553
623.029	0.0164565
623.107	0.0165944
623.185	0.0166582
623.263	0.0165981
623.341	0.0165835
623.419	0.0165482
623.497	0.0165880
623.575	0.0165778
623.654	0.0166274
623.732	0.0165712
623.810	0.0165865
623.888	0.0165747
623.966	0.0165569
624.044	0.0165525
624.122	0.0164845
624.200	0.0165410
624.279	0.0164119
624.357	0.0163109
624.435	0.0165564
624.513	0.0165781
624.591	0.0166122
624.669	0.0165432
624.747	0.0165154
624.825	0.0164732
624.904	0.0164886
624.982	0.0165931
625.060	0.0165730
625.138	0.0164960
625.216	0.0166302
625.294	0.0165751
625.372	0.0165565
625.450	0.0165955
625.529	0.0166230
625.607	0.0165342
625.685	0.0166955
625.763	0.0165616
625.841	0.0164870
625.919	0.0166112
625.997	0.0166184
626.075	0.0165947
626.154	0.0166095
626.232	0.0166494
626.310	0.0165996
626.388	0.0165953
626.466	0.0164647
626.544	0.0164793
626.622	0.0167205
626.700	0.0167026
626.779	0.0165927
626.857	0.0165714
626.935	0.0165956
627.013	0.0166900
627.091	0.0165881
627.169	0.0166631
627.247	0.0167432
627.325	0.0166001
627.404	0.0166958
627.482	0.0164721
627.560	0.0164935
627.638	0.0164532
627.716	0.0165781
627.794	0.0166507
627.872	0.0165042
627.950	0.0164960
628.029	0.0165382
628.107	0.0165610
628.185	0.0165708
628.263	0.0165162
628.341	0.0165237
628.419	0.0165512
628.497	0.0164597
628.575	0.0166135
628.654	0.0165354
628.732	0.0164951
628.810	0.0165073
628.888	0.0166400
628.966	0.0165484
629.044	0.0165639
629.122	0.0166822
629.200	0.0165429
629.279	0.0166433
629.357	0.0166861
629.435	0.0166161
629.513	0.0165511
629.591	0.0165710
629.669	0.0166646
629.747	0.0166211
629.825	0.0165819
629.904	0.0166655
629.982	0.0165708
630.060	0.0166503
630.138	0.0165541
630.216	0.0166631
630.294	0.0165885
630.372	0.0167052
630.450	0.0165502
630.529	0.0165443
630.607	0.0166272
630.685	0.0165588
630.763	0.0166185
630.841	0.0165359
630.919	0.0166044
630.997	0.0165308
631.075	0.0165655
631.154	0.0165823
631.232	0.0165292
631.310	0.0166257
631.388	0.0165469
631.466	0.0166111
631.544	0.0166233
631.622	0.0167213
631.700	0.0165644
631.779	0.0165693
631.857	0.0167570
631.935	0.0164917
632.013	0.0164884
632.091	0.0163843
632.169	0.0165786
632.247	0.0167103
632.325	0.0165370
632.404	0.0165649
632.482	0.0166749
632.560	0.0165258
632.638	0.0165367
632.716	0.0165948
632.794	0.0165516
632.872	0.0164715
632.950	0.0163618
633.029	0.0166500
633.107	0.0166343
633.185	0.0165816
633.263	0.0166209
633.341	0.0166390
633.419	0.0166045
633.497	0.0166077
633.575	0.0166846
633.654	0.0167351
633.732	0.0166624
633.810	0.0164842
633.888	0.0165750
633.966	0.0166527
634.044	0.0165005
634.122	0.0166440
634.200	0.0166610
634.279	0.0167462
634.357	0.0166161
634.435	0.0165279
634.513	0.0166338
634.591	0.0165328
634.669	0.0166441
634.747	0.0165825
634.825	0.0165990
634.904	0.0166483
634.982	0.0167017
635.060	0.0165652
635.138	0.0166244
635.216	0.0165096
635.294	0.0164714
635.372	0.0165530
635.450	0.0164891
635.529	0.0167113
635.607	0.0166324
635.685	0.0165670
635.763	0.0165710
635.841	0.0164644
635.919	0.0166817
635.997	0.0166352
636.075	0.0166893
636.154	0.0166225
636.232	0.0163863
636.310	0.0166261
636.388	0.0166509
636.466	0.0166431
636.544	0.0165640
636.622	0.0166637
636.700	0.0165318
636.779	0.0166769
636.857	0.0166861
636.935	0.0165891
637.013	0.0165791
637.091	0.0165508
637.169	0.0165740
637.247	0.0166044
637.325	0.0166308
637.404	0.0166359
637.482	0.0165152
637.560	0.0164487
637.638	0.0165298
637.716	0.0165866
637.794	0.0165613
637.872	0.0165402
637.950	0.0165913
638.029	0.0165719
638.107	0.0163905
638.185	0.0165585
638.263	0.0166624
638.341	0.0165587
638.419	0.0165156
638.497	0.0165837
638.575	0.0167309
638.654	0.0166664
638.732	0.0166275
638.810	0.0167326
638.888	0.0166093
638.966	0.0165973
639.044	0.0165844
639.122	0.0165997
639.200	0.0165520
639.279	0.0164867
639.357	0.0165955
639.435	0.0165228
639.513	0.0167237
639.591	0.0165851
639.669	0.0165594
639.747	0.0166225
639.825	0.0165910
639.904	0.0166249
639.982	0.0166032
640.060	0.0166920
640.138	0.0165612
640.216	0.0165266
640.294	0.0164832
640.372	0.0165378
640.450	0.0166894
640.529	0.0166541
640.607	0.0166363
640.685	0.0167355
640.763	0.0167005
640.841	0.0166922
640.919	0.0166641
640.997	0.0166056
641.075	0.0165660
641.154	0.0167805
641.232	0.0166985
641.310	0.0165180
641.388	0.0165785
641.466	0.0166222
641.544	0.0165577
641.622	0.0165694
641.700	0.0166287
641.779	0.0166246
641.857	0.0167967
641.935	0.0166113
642.013	0.0167542
642.091	0.0167049
642.169	0.0166350
642.247	0.0166436
642.325	0.0165679
642.404	0.0166860
642.482	0.0167457
642.560	0.0166829
642.638	0.0165807
642.716	0.0165790
642.794	0.0166282
642.872	0.0165854
642.950	0.0165929
643.029	0.0166299
643.107	0.0166615
643.185	0.0167533
643.263	0.0165705
643.341	0.0165404
643.419	0.0166392
643.497	0.0166645
643.575	0.0166088
643.654	0.0165577
643.732	0.0165729
643.810	0.0165643
643.888	0.0166697
643.966	0.0166648
644.044	0.0166636
644.122	0.0166605
644.200	0.0165831
644.279	0.0167142
644.357	0.0166814
644.435	0.0165322
644.513	0.0166671
644.591	0.0167280
644.669	0.0165841
644.747	0.0167805
644.825	0.0166233
644.904	0.0165668
644.982	0.0166354
645.060	0.0166262
645.138	0.0166613
645.216	0.0166781
645.294	0.0166419
645.372	0.0165618
645.450	0.0164677
645.529	0.0166141
645.607	0.0166265
645.685	0.0165916
645.763	0.0165885
645.841	0.0166217
645.919	0.0165765
645.997	0.0165655
646.075	0.0165893
646.154	0.0165312
646.232	0.0166222
646.310	0.0166679
646.388	0.0166969
646.466	0.0167003
646.544	0.0166274
646.622	0.0166200
646.700	0.0165106
646.779	0.0165360
646.857	0.0166270
646.935	0.0166818
647.013	0.0166886
647.091	0.0165224
647.169	0.0164036
647.247	0.0166565
647.325	0.0167216
647.404	0.0166369
647.482	0.0165669
647.560	0.0164891
647.638	0.0165716
647.716	0.0165155
647.794	0.0166080
647.872	0.0164421
647.950	0.0165410
648.029	0.0166199
648.107	0.0166218
648.185	0.0165972
648.263	0.0166423
648.341	0.0167100
648.419	0.0165832
648.497	0.0164810
648.575	0.0167374
648.654	0.0166123
648.732	0.0165562
648.810	0.0166528
648.888	0.0167291
648.966	0.0167387
649.044	0.0164833
649.122	0.0164964
649.200	0.0165786
649.279	0.0166476
649.357	0.0164675
649.435	0.0166096
649.513	0.0166380
649.591	0.0166080
649.669	0.0164554
649.747	0.0165164
649.825	0.0166464
649.904	0.0164899
649.982	0.0165005
650.060	0.0164867
650.138	0.0165385
650.216	0.0166212
650.294	0.0165390
650.372	0.0166393
650.450	0.0164079
650.529	0.0166415
650.607	0.0166873
650.685	0.0165404
650.763	0.0166071
650.841	0.0165356
650.919	0.0164427
650.997	0.0166676
651.075	0.0167120
651.154	0.0166510
651.232	0.0165546
651.310	0.0167664
651.388	0.0166330
651.466	0.0167086
651.544	0.0166541
651.622	0.0165609
651.700	0.0165326
651.779	0.0166067
651.857	0.0166068
651.935	0.0166517
652.013	0.0166637
652.091	0.0166138
652.169	0.0166383
652.247	0.0166623
652.325	0.0166829
652.404	0.0166660
652.482	0.0166218
652.560	0.0164400
652.638	0.0164787
652.716	0.0166354
652.794	0.0166889
652.872	0.0166183
652.950	0.0166660
653.029	0.0167102
653.107	0.0167074
653.185	0.0165405
653.263	0.0165460
653.341	0.0165969
653.419	0.0167012
653.497	0.0165581
653.575	0.0165446
653.654	0.0167069
653.732	0.0167014
653.810	0.0166582
653.888	0.0165979
653.966	0.0165356
654.044	0.0167007
654.122	0.0167132
654.200	0.0165720
654.279	0.0166165
654.357	0.0166838
654.435	0.0165157
654.513	0.0165675
654.591	0.0166713
654.669	0.0164869
654.747	0.0167253
654.825	0.0166343
654.904	0.0166917
654.982	0.0165833
655.060	0.0164778
655.138	0.0167253
655.216	0.0166383
655.294	0.0167635
655.372	0.0166245
655.450	0.0166244
655.529	0.0165781
655.607	0.0165614
655.685	0.0166411
655.763	0.0165909
655.841	0.0165434
655.919	0.0166795
655.997	0.0166250
656.075	0.0166231
656.154	0.0165798
656.232	0.0166852
656.310	0.0166218
656.388	0.0166248
656.466	0.0165205
656.544	0.0165785
656.622	0.0166697
656.700	0.0165442
656.779	0.0165649
656.857	0.0167116
656.935	0.0166789
657.013	0.0166516
657.091	0.0165708
657.169	0.0166900
657.247	0.0166665
657.325	0.0167408
657.404	0.0166294
657.482	0.0165308
657.560	0.0166175
657.638	0.0166013
657.716	0.0165183
657.794	0.0166496
657.872	0.0166965
657.950	0.0165813
658.029	0.0165761
658.107	0.0166929
658.185	0.0166494
658.263	0.0165710
658.341	0.0165879
658.419	0.0167475
658.497	0.0166845
658.575	0.0165688
658.654	0.0165121
658.732	0.0166719
658.810	0.0166999
658.888	0.0166369
658.966	0.0165926
659.044	0.0166582
659.122	0.0165730
659.200	0.0165591
659.279	0.0166332
659.357	0.0166958
659.435	0.0165639
659.513	0.0165881
659.591	0.0165862
659.669	0.0166286
659.747	0.0166478
659.825	0.0165226
659.904	0.0167286
659.982	0.0167736
660.060	0.0165897
660.138	0.0166481
660.216	0.0166106
660.294	0.0166595
660.372	0.0167533
660.450	0.0166453
660.529	0.0166537
660.607	0.0167052
660.685	0.0167664
660.763	0.0164989
660.841	0.0167137
660.919	0.0166589
660.997	0.0164718
661.075	0.0165906
661.154	0.0167043
661.232	0.0166444
661.310	0.0168037
661.388	0.0168124
661.466	0.0166586
661.544	0.0166647
661.622	0.0167809
661.700	0.0164169
661.779	0.0165041
661.857	0.0166496
661.935	0.0165842
662.013	0.0166404
662.091	0.0166099
662.169	0.0166911
662.247	0.0166132
662.325	0.0166347
662.404	0.0166394
662.482	0.0167648
662.560	0.0166684
662.638	0.0166959
662.716	0.0167538
662.794	0.0167045
662.872	0.0166714
662.950	0.0166322
663.029	0.0166610
663.107	0.0166270
663.185	0.0167039
663.263	0.0166656
663.341	0.0167172
663.419	0.0167863
663.497	0.0167040
663.575	0.0167151
663.654	0.0165851
663.732	0.0167500
663.810	0.0167086
663.888	0.0166549
663.966	0.0166978
664.044	0.0167186
664.122	0.0166167
664.200	0.0167498
664.279	0.0167820
664.357	0.0165826
664.435	0.0166232
664.513	0.0165549
664.591	0.0166373
664.669	0.0166934
664.747	0.0165879
664.825	0.0165456
664.904	0.0167014
664.982	0.0165321
665.060	0.0167059
665.138	0.0165839
665.216	0.0166277
665.294	0.0164497
665.372	0.0165980
665.450	0.0166962
665.529	0.0165887
665.607	0.0166241
665.685	0.0166044
665.763	0.0166608
665.841	0.0166177
665.919	0.0165762
665.997	0.0166527
666.075	0.0166904
666.154	0.0167506
666.232	0.0165479
666.310	0.0166375
666.388	0.0166029
666.466	0.0165136
666.544	0.0165786
666.622	0.0165731
666.700	0.0166273
666.779	0.0166128
666.857	0.0165533
666.935	0.0166875
667.013	0.0166367
667.091	0.0166142
667.169	0.0164566
667.247	0.0166468
667.325	0.0167178
667.404	0.0165665
667.482	0.0165285
667.560	0.0165692
667.638	0.0166904
667.716	0.0165953
667.794	0.0165041
667.872	0.0164724
667.950	0.0165471
668.029	0.0166000
668.107	0.0166679
668.185	0.0165918
668.263	0.0165647
668.341	0.0165778
668.419	0.0165639
668.497	0.0165369
668.575	0.0165664
668.654	0.0166566
668.732	0.0166052
668.810	0.0164893
668.888	0.0165992
668.966	0.0168029
669.044	0.0164758
669.122	0.0164966
669.200	0.0166892
669.279	0.0166563
669.357	0.0165445
669.435	0.0165681
669.513	0.0165697
669.591	0.0164938
669.669	0.0166413
669.747	0.0165627
669.825	0.0164967
669.904	0.0163863
669.982	0.0166032
670.060	0.0165807
670.138	0.0166021
670.216	0.0166287
670.294	0.0165971
670.372	0.0166329
670.450	0.0166382
670.529	0.0165594
670.607	0.0165043
670.685	0.0165813
670.763	0.0165954
670.841	0.0165287
670.919	0.0165569
670.997	0.0166800
671.075	0.0165675
671.154	0.0165575
671.232	0.0166120
671.310	0.0166388
671.388	0.0166900
671.466	0.0164171
671.544	0.0164643
671.622	0.0166188
671.700	0.0167133
671.779	0.0166102
671.857	0.0164435
671.935	0.0165087
672.013	0.0166238
672.091	0.0165505
672.169	0.0165609
672.247	0.0164870
672.325	0.0164551
672.404	0.0165059
672.482	0.0165940
672.560	0.0166014
672.638	0.0166642
672.716	0.0165480
672.794	0.0167433
672.872	0.0165723
672.950	0.0165506
673.029	0.0166208
673.107	0.0166064
673.185	0.0166145
673.263	0.0164425
673.341	0.0164965
673.419	0.0165656
673.497	0.0165942
673.575	0.0165951
673.654	0.0165894
673.732	0.0165675
673.810	0.0165492
673.888	0.0164971
673.966	0.0165696
674.044	0.0164913
674.122	0.0165113
674.200	0.0166261
674.279	0.0166274
674.357	0.0165046
674.435	0.0165718
674.513	0.0165027
674.591	0.0165126
674.669	0.0167258
674.747	0.0166271
674.825	0.0166024
674.904	0.0166003
674.982	0.0165309
675.060	0.0164543
675.138	0.0165186
675.216	0.0166462
675.294	0.0164826
675.372	0.0166257
675.450	0.0164713
675.529	0.0164262
675.607	0.0164903
675.685	0.0167128
675.763	0.0166464
675.841	0.0167050
675.919	0.0165901
675.997	0.0166452
676.075	0.0165569
676.154	0.0166173
676.232	0.0166682
676.310	0.0165976
676.388	0.0165198
676.466	0.0164995
676.544	0.0164204
676.622	0.0165786
676.700	0.0164417
676.779	0.0166058
676.857	0.0164915
676.935	0.0165556
677.013	0.0165569
677.091	0.0166062
677.169	0.0165998
677.247	0.0166376
677.325	0.0166937
677.404	0.0167640
677.482	0.0168872
677.560	0.0167698
677.638	0.0167553
677.716	0.0167503
677.794	0.0168340
677.872	0.0166054
677.950	0.0165008
678.029	0.0165611
678.107	0.0165848
678.185	0.0164129
678.263	0.0162937
678.341	0.0163757
678.419	0.0162097
678.497	0.0163084
678.575	0.0161286
678.654	0.0162791
678.732	0.0163203
678.810	0.0163425
678.888	0.0164426
678.966	0.0164954
679.044	0.0164393
679.122	0.0166096
679.200	0.0166380
679.279	0.0167048
679.357	0.0168982
679.435	0.0166198
679.513	0.0168244
679.591	0.0169278
679.669	0.0168243
679.747	0.0168700
679.825	0.0169496
679.904	0.0169022
679.982	0.0168503
680.060	0.0166962
680.138	0.0166706
680.216	0.0165923
680.294	0.0165960
680.372	0.0166335
680.450	0.0165546
680.529	0.0165837
680.607	0.0163621
680.685	0.0163902
680.763	0.0165876
680.841	0.0166867
680.919	0.0166034
680.997	0.0166294
681.075	0.0166138
681.154	0.0165663
681.232	0.0166487
681.310	0.0163636
681.388	0.0161839
681.466	0.0163210
681.544	0.0163023
681.622	0.0163372
681.700	0.0162936
681.779	0.0160979
681.857	0.0161358
681.935	0.0162255
682.013	0.0160938
682.091	0.0159785
682.169	0.0161069
682.247	0.0158910
682.325	0.0157811
682.404	0.0157626
682.482	0.0157339
682.560	0.0157682
682.638	0.0157824
682.716	0.0160749
682.794	0.0163737
682.872	0.0166424
682.950	0.0168919
683.029	0.0172722
683.107	0.0176822
683.185	0.0179620
683.263	0.0183418
683.341	0.0182529
683.419	0.0179927
683.497	0.0176958
683.575	0.0174852
683.654	0.0170433
683.732	0.0167082
683.810	0.0163882
683.888	0.0163186
683.966	0.0162812
684.044	0.0164970
684.122	0.0166589
684.200	0.0168178
684.279	0.0172713
684.357	0.0177192
684.435	0.0179918
684.513	0.0180697
684.591	0.0183072
684.669	0.0182053
684.747	0.0180609
684.825	0.0178432
684.904	0.0176913
684.982	0.0173078
685.060	0.0169358
685.138	0.0167334
685.216	0.0165410
685.294	0.0161696
685.372	0.0158880
685.450	0.0153880
685.529	0.0150411
685.607	0.0148375
685.685	0.0141007
685.763	0.0135847
685.841	0.0131131
685.919	0.0125231
685.997	0.0122140
686.075	0.0120830
686.154	0.0119719
686.232	0.0122210
686.310	0.0125954
686.388	0.0131443
686.466	0.0140762
686.544	0.0149781
686.622	0.0157644
686.700	0.0166243
686.779	0.0176221
686.857	0.0186890
686.935	0.0194245
687.013	0.0199287
687.091	0.0204694
687.169	0.0207577
687.247	0.0211073
687.325	0.0210218
687.404	0.0208506
687.482	0.0207594
687.560	0.0203348
687.638	0.0200772
687.716	0.0199347
687.794	0.0197009
687.872	0.0196516
687.950	0.0198383
688.029	0.0197066
688.107	0.0199712
688.185	0.0202940
688.263	0.0204221
688.341	0.0206464
688.419	0.0205579
688.497	0.0205917
688.575	0.0203844
688.654	0.0197594
688.732	0.0189046
688.810	0.0177814
688.888	0.0163348
688.966	0.0146539
689.044	0.0129038
689.122	0.0109210
689.200	0.00902046
689.279	0.00747047
689.357	0.00621140
689.435	0.00509300
689.513	0.00459373
689.591	0.00440300
689.669	0.00478531
689.747	0.00542816
689.825	0.00635254
689.904	0.00758934
689.982	0.00900848
690.060	0.0106998
690.138	0.0122662
690.216	0.0139581
690.294	0.0158785
690.372	0.0175642
690.450	0.0194846
690.529	0.0211568
690.607	0.0226688
690.685	0.0242741
690.763	0.0256754
690.841	0.0266561
690.919	0.0275859
690.997	0.0280311
691.075	0.0283206
691.154	0.0285567
691.232	0.0284019
691.310	0.0282717
691.388	0.0280318
691.466	0.0275269
691.544	0.0267670
691.622	0.0259248
691.700	0.0248071
691.779	0.0235378
691.857	0.0218744
691.935	0.0199475
692.013	0.0180746
692.091	0.0161044
692.169	0.0139674
692.247	0.0117246
692.325	0.00954010
692.404	0.00757614
692.482	0.00564400
692.560	0.00425232
692.638	0.00315811
692.716	0.00234055
692.794	0.00215118
692.872	0.00236664
692.950	0.00306740
693.029	0.00375793
693.107	0.00508766
693.185	0.00657990
693.263	0.00807922
693.341	0.0100227
693.419	0.0117345
693.497	0.0134174
693.575	0.0150946
693.654	0.0167009
693.732	0.0181813
693.810	0.0196264
693.888	0.0208551
693.966	0.0222369
694.044	0.0235924
694.122	0.0245382
694.200	0.0255636
694.279	0.0264267
694.357	0.0268343
694.435	0.0272299
694.513	0.0274689
694.591	0.0273822
694.669	0.0273011
694.747	0.0267532
694.825	0.0261794
694.904	0.0254704
694.982	0.0246133
695.060	0.0235608
695.138	0.0225569
695.216	0.0214529
695.294	0.0199458
695.372	0.0186422
695.450	0.0173304
695.529	0.0156973
695.607	0.0141263
695.685	0.0126224
695.763	0.0109643
695.841	0.00942970
695.919	0.00796875
695.997	0.00667885
696.075	0.00564301
696.154	0.00481720
696.232	0.00424431
696.310	0.00408173
696.388	0.00414413
696.466	0.00461456
696.544	0.00533768
696.622	0.00648941
696.700	0.00788200
696.779	0.00932907
696.857	0.0109212
696.935	0.0128222
697.013	0.0146329
697.091	0.0165032
697.169	0.0182524
697.247	0.0197865
697.325	0.0212882
697.404	0.0225459
697.482	0.0236601
697.560	0.0245480
697.638	0.0251056
697.716	0.0255356
697.794	0.0259602
697.872	0.0263003
697.950	0.0261609
698.029	0.0258467
698.107	0.0256564
698.185	0.0251175
698.263	0.0244743
698.341	0.0237685
698.419	0.0225632
698.497	0.0215508
698.575	0.0204717
698.654	0.0194088
698.732	0.0180784
698.810	0.0170974
698.888	0.0160921
698.966	0.0150345
699.044	0.0141703
699.122	0.0134340
699.200	0.0128176
699.279	0.0121138
699.357	0.0115811
699.435	0.0109629
699.513	0.0105265
699.591	0.0101872
699.669	0.0100402
699.747	0.00987633
699.825	0.00998756
699.904	0.0104924
699.982	0.0109605
700.060	0.0117661
700.138	0.0125199
700.216	0.0133763
700.294	0.0142531
700.372	0.0150687
700.450	0.0157765
700.529	0.0163163
700.607	0.0168550
700.685	0.0172336
700.763	0.0175518
700.841	0.0177550
700.919	0.0179276
700.997	0.0178342
701.075	0.0179025
701.154	0.0179520
701.232	0.0179628
701.310	0.0178314
701.388	0.0176594
701.466	0.0177267
701.544	0.0177226
701.622	0.0176342
701.700	0.0179198
701.779	0.0177128
701.857	0.0179368
701.935	0.0179915
702.013	0.0183125
702.091	0.0186581
702.169	0.0186909
702.247	0.0190953
702.325	0.0190527
702.404	0.0190809
702.482	0.0188112
702.560	0.0186883
702.638	0.0185783
702.716	0.0182619
702.794	0.0177926
702.872	0.0174603
702.950	0.0170747
703.029	0.0168423
703.107	0.0166584
703.185	0.0161856
703.263	0.0160151
703.341	0.0159763
703.419	0.0159875
703.497	0.0158366
703.575	0.0159668
703.654	0.0160815
703.732	0.0162472
703.810	0.0160872
703.888	0.0161643
703.966	0.0160783
704.044	0.0160468
704.122	0.0156686
704.200	0.0154769
704.279	0.0152493
704.357	0.0150065
704.435	0.0146505
704.513	0.0144767
704.591	0.0143680
704.669	0.0143997
704.747	0.0143560
704.825	0.0143839
704.904	0.0146272
704.982	0.0150375
705.060	0.0154035
705.138	0.0156817
705.216	0.0158917
705.294	0.0162403
705.372	0.0165871
705.450	0.0167357
705.529	0.0172366
705.607	0.0176469
705.685	0.0178559
705.763	0.0180377
705.841	0.0182388
705.919	0.0182915
705.997	0.0182079
706.075	0.0182704
706.154	0.0180122
706.232	0.0178844
706.310	0.0178102
706.388	0.0176910
706.466	0.0173530
706.544	0.0173269
706.622	0.0172224
706.700	0.0170607
706.779	0.0170365
706.857	0.0166272
706.935	0.0165173
707.013	0.0165078
707.091	0.0164754
707.169	0.0163006
707.247	0.0163889
707.325	0.0163596
707.404	0.0165096
707.482	0.0162595
707.560	0.0160938
707.638	0.0160673
707.716	0.0156804
707.794	0.0156603
707.872	0.0154517
707.950	0.0151524
708.029	0.0151691
708.107	0.0149854
708.185	0.0151143
708.263	0.0152618
708.341	0.0153572
708.419	0.0156102
708.497	0.0156753
708.575	0.0159731
708.654	0.0165216
708.732	0.0168045
708.810	0.0170586
708.888	0.0172717
708.966	0.0176032
709.044	0.0178477
709.122	0.0180238
709.200	0.0182087
709.279	0.0181205
709.357	0.0182370
709.435	0.0182389
709.513	0.0181775
709.591	0.0181495
709.669	0.0179518
709.747	0.0178786
709.825	0.0177526
709.904	0.0174719
709.982	0.0173467
710.060	0.0171338
710.138	0.0167108
710.216	0.0165633
710.294	0.0164134
710.372	0.0161787
710.450	0.0158568
710.529	0.0158646
710.607	0.0156071
710.685	0.0153574
710.763	0.0153204
710.841	0.0150867
710.919	0.0149668
710.997	0.0148904
711.075	0.0146583
711.154	0.0146799
711.232	0.0147693
711.310	0.0146049
711.388	0.0145403
711.466	0.0145240
711.544	0.0147327
711.622	0.0148951
711.700	0.0150611
711.779	0.0153939
711.857	0.0156149
711.935	0.0161346
712.013	0.0162803
712.091	0.0166791
712.169	0.0170577
712.247	0.0175488
712.325	0.0178143
712.404	0.0181417
712.482	0.0184903
712.560	0.0187263
712.638	0.0190614
712.716	0.0191337
712.794	0.0193686
712.872	0.0194175
712.950	0.0193335
713.029	0.0192139
713.107	0.0190226
713.185	0.0188241
713.263	0.0186919
713.341	0.0186107
713.419	0.0181699
713.497	0.0178461
713.575	0.0176495
713.654	0.0171936
713.732	0.0170708
713.810	0.0166422
713.888	0.0164281
713.966	0.0162024
714.044	0.0158610
714.122	0.0156248
714.200	0.0153658
714.279	0.0152046
714.357	0.0151012
714.435	0.0148067
714.513	0.0146030
714.591	0.0144144
714.669	0.0142994
714.747	0.0142857
714.825	0.0142009
714.904	0.0141885
714.982	0.0142858
715.060	0.0143848
715.138	0.0145087
715.216	0.0147677
715.294	0.0147884
715.372	0.0149539
715.450	0.0153038
715.529	0.0155804
715.607	0.0157998
715.685	0.0160231
715.763	0.0163804
715.841	0.0168324
715.919	0.0170884
715.997	0.0173228
716.075	0.0176671
716.154	0.0179911
716.232	0.0181704
716.310	0.0183222
716.388	0.0185571
716.466	0.0185969
716.544	0.0186530
716.622	0.0186720
716.700	0.0186937
716.779	0.0184483
716.857	0.0183429
716.935	0.0183469
717.013	0.0181101
717.091	0.0178149
717.169	0.0175904
717.247	0.0174502
717.325	0.0173815
717.404	0.0168996
717.482	0.0168098
717.560	0.0167472
717.638	0.0166881
717.716	0.0168073
717.794	0.0167587
717.872	0.0165946
717.950	0.0166086
718.029	0.0165166
718.107	0.0164497
718.185	0.0163473
718.263	0.0163943
718.341	0.0163179
718.419	0.0162611
718.497	0.0161363
718.575	0.0161404
718.654	0.0160445
718.732	0.0158633
718.810	0.0157583
718.888	0.0157780
718.966	0.0155443
719.044	0.0156461
719.122	0.0155867
719.200	0.0157921
719.279	0.0156820
719.357	0.0160417
719.435	0.0161996
719.513	0.0163027
719.591	0.0165634
719.669	0.0165722
719.747	0.0168250
719.825	0.0169112
719.904	0.0170530
719.982	0.0171533
720.060	0.0169869
720.138	0.0170992
720.216	0.0170737
720.294	0.0169277
720.372	0.0167604
720.450	0.0168121
720.529	0.0167738
720.607	0.0165979
720.685	0.0164259
720.763	0.0162855
720.841	0.0164315
720.919	0.0164137
720.997	0.0163821
721.075	0.0165271
721.154	0.0165708
721.232	0.0163206
721.310	0.0164792
721.388	0.0166087
721.466	0.0164859
721.544	0.0163515
721.622	0.0164944
721.700	0.0164445
721.779	0.0161992
721.857	0.0160611
721.935	0.0161248
722.013	0.0160457
722.091	0.0160356
722.169	0.0162440
722.247	0.0162807
722.325	0.0161285
722.404	0.0162730
722.482	0.0166901
722.560	0.0167822
722.638	0.0168205
722.716	0.0171019
722.794	0.0172829
722.872	0.0174479
722.950	0.0176341
723.029	0.0178880
723.107	0.0178235
723.185	0.0180368
723.263	0.0178859
723.341	0.0180244
723.419	0.0180230
723.497	0.0178652
723.575	0.0177699
723.654	0.0175282
723.732	0.0173260
723.810	0.0173058
723.888	0.0170770
723.966	0.0169147
724.044	0.0166756
724.122	0.0165594
724.200	0.0163235
724.279	0.0162592
724.357	0.0161004
724.435	0.0160026
724.513	0.0158961
724.591	0.0158127
724.669	0.0158525
724.747	0.0157388
724.825	0.0159280
724.904	0.0159704
724.982	0.0159306
725.060	0.0158022
725.138	0.0159579
725.216	0.0158820
725.294	0.0159866
725.372	0.0159925
725.450	0.0160285
725.529	0.0160790
725.607	0.0161431
725.685	0.0161851
725.763	0.0163569
725.841	0.0162351
725.919	0.0163091
725.997	0.0164633
726.075	0.0165124
726.154	0.0164642
726.232	0.0165932
726.310	0.0166827
726.388	0.0167371
726.466	0.0167385
726.544	0.0169261
726.622	0.0170934
726.700	0.0170928
726.779	0.0172335
726.857	0.0173579
726.935	0.0173783
727.013	0.0174871
727.091	0.0173754
727.169	0.0173980
727.247	0.0173901
727.325	0.0172408
727.404	0.0172521
727.482	0.0170061
727.560	0.0167091
727.638	0.0166930
727.716	0.0167409
727.794	0.0165809
727.872	0.0163898
727.950	0.0163467
728.029	0.0162064
728.107	0.0163756
728.185	0.0162748
728.263	0.0163606
728.341	0.0163217
728.419	0.0163040
728.497	0.0165367
728.575	0.0164578
728.654	0.0163184
728.732	0.0164449
728.810	0.0164899
728.888	0.0163497
728.966	0.0163850
729.044	0.0164668
729.122	0.0162708
729.200	0.0163537
729.279	0.0163951
729.357	0.0162893
729.435	0.0163271
729.513	0.0163911
729.591	0.0163784
729.669	0.0163324
729.747	0.0165279
729.825	0.0163743
729.904	0.0165366
729.982	0.0167947
730.060	0.0167996
730.138	0.0169145
730.216	0.0170483
730.294	0.0171259
730.372	0.0171651
730.450	0.0172559
730.529	0.0173499
730.607	0.0173467
730.685	0.0172044
730.763	0.0173025
730.841	0.0171539
730.919	0.0171294
730.997	0.0170986
731.075	0.0169076
731.154	0.0168184
731.232	0.0168458
731.310	0.0167246
731.388	0.0165926
731.466	0.0167434
731.544	0.0164104
731.622	0.0164794
731.700	0.0165871
731.779	0.0164413
731.857	0.0164758
731.935	0.0164571
732.013	0.0163519
732.091	0.0162708
732.169	0.0162675
732.247	0.0161848
732.325	0.0162000
732.404	0.0163757
732.482	0.0162724
732.560	0.0161547
732.638	0.0162651
732.716	0.0161726
732.794	0.0162154
732.872	0.0163219
732.950	0.0161375
733.029	0.0162730
733.107	0.0163268
733.185	0.0163404
733.263	0.0162144
733.341	0.0163505
733.419	0.0164716
733.497	0.0164066
733.575	0.0164804
733.654	0.0165801
733.732	0.0167313
733.810	0.0168340
733.888	0.0167692
733.966	0.0169292
734.044	0.0170275
734.122	0.0168255
734.200	0.0171847
734.279	0.0171490
734.357	0.0171452
734.435	0.0171277
734.513	0.0171642
734.591	0.0170535
734.669	0.0169505
734.747	0.0170550
734.825	0.0168486
734.904	0.0169799
734.982	0.0168803
735.060	0.0169682
735.138	0.0167960
735.216	0.0165842
735.294	0.0165406
735.372	0.0166171
735.450	0.0165398
735.529	0.0163660
735.607	0.0162254
735.685	0.0162155
735.763	0.0161600
735.841	0.0161105
735.919	0.0161958
735.997	0.0159921
736.075	0.0160833
736.154	0.0159612
736.232	0.0162089
736.310	0.0160791
736.388	0.0162124
736.466	0.0160583
736.544	0.0159975
736.622	0.0160635
736.700	0.0160480
736.779	0.0162134
736.857	0.0162162
736.935	0.0161921
737.013	0.0161398
737.091	0.0164490
737.169	0.0165257
737.247	0.0166173
737.325	0.0167829
737.404	0.0168024
737.482	0.0168795
737.560	0.0169717
737.638	0.0170491
737.716	0.0170289
737.794	0.0172383
737.872	0.0171731
737.950	0.0170955
738.029	0.0170436
738.107	0.0170708
738.185	0.0169342
738.263	0.0169230
738.341	0.0167108
738.419	0.0167276
738.497	0.0166982
738.575	0.0165514
738.654	0.0165039
738.732	0.0165224
738.810	0.0164906
738.888	0.0164367
738.966	0.0164089
739.044	0.0164511
739.122	0.0165372
739.200	0.0166296
739.279	0.0165514
739.357	0.0167484
739.435	0.0166785
739.513	0.0164724
739.591	0.0167372
739.669	0.0167290
739.747	0.0167467
739.825	0.0167902
739.904	0.0166367
739.982	0.0167182
740.060	0.0166832
740.138	0.0166120
740.216	0.0166767
740.294	0.0166341
740.372	0.0166029
740.450	0.0166505
740.529	0.0167045
740.607	0.0166142
740.685	0.0168493
740.763	0.0166971
740.841	0.0168218
740.919	0.0170046
740.997	0.0168256
741.075	0.0167935
741.154	0.0168600
741.232	0.0167551
741.310	0.0167520
741.388	0.0167804
741.466	0.0167109
741.544	0.0164781
741.622	0.0164871
741.700	0.0164165
741.779	0.0163620
741.857	0.0163055
741.935	0.0162656
742.013	0.0162959
742.091	0.0163868
742.169	0.0162376
742.247	0.0162006
742.325	0.0163631
742.404	0.0162441
742.482	0.0163579
742.560	0.0163888
742.638	0.0164761
742.716	0.0165419
742.794	0.0163886
742.872	0.0166144
742.950	0.0167731
743.029	0.0166818
743.107	0.0167496
743.185	0.0167558
743.263	0.0168495
743.341	0.0168177
743.419	0.0169042
743.497	0.0169135
743.575	0.0167734
743.654	0.0167786
743.732	0.0170004
743.810	0.0168341
743.888	0.0168187
743.966	0.0169120
744.044	0.0167253
744.122	0.0168446
744.200	0.0168259
744.279	0.0167600
744.357	0.0166618
744.435	0.0167088
744.513	0.0167289
744.591	0.0165154
744.669	0.0165789
744.747	0.0165271
744.825	0.0165663
744.904	0.0164078
744.982	0.0163596
745.060	0.0163653
745.138	0.0161203
745.216	0.0162887
745.294	0.0163763
745.372	0.0163824
745.450	0.0162357
745.529	0.0162234
745.607	0.0164106
745.685	0.0163704
745.763	0.0163995
745.841	0.0164120
745.919	0.0164322
745.997	0.0165518
746.075	0.0166007
746.154	0.0166569
746.232	0.0168238
746.310	0.0167033
746.388	0.0167506
746.466	0.0168945
746.544	0.0168344
746.622	0.0169614
746.700	0.0168528
746.779	0.0169102
746.857	0.0169303
746.935	0.0167800
747.013	0.0168879
747.091	0.0170206
747.169	0.0167728
747.247	0.0169809
747.325	0.0169753
747.404	0.0169523
747.482	0.0170803
747.560	0.0169392
747.638	0.0170731
747.716	0.0170621
747.794	0.0170127
747.872	0.0169523
747.950	0.0170603
748.029	0.0169767
748.107	0.0170409
748.185	0.0169148
748.263	0.0169469
748.341	0.0170024
748.419	0.0167445
748.497	0.0167240
748.575	0.0165186
748.654	0.0164520
748.732	0.0164671
748.810	0.0163423
748.888	0.0162370
748.966	0.0161715
749.044	0.0162009
749.122	0.0163551
749.200	0.0161565
749.279	0.0162958
749.357	0.0161813
749.435	0.0160959
749.513	0.0161568
749.591	0.0162055
749.669	0.0163646
749.747	0.0163992
749.825	0.0163210
749.904	0.0164841
749.982	0.0165245
750.060	0.0165414
750.138	0.0167160
750.216	0.0167020
750.294	0.0167021
750.372	0.0168269
750.450	0.0167851
750.529	0.0167636
750.607	0.0168560
750.685	0.0168032
750.763	0.0167622
750.841	0.0165536
750.919	0.0168407
750.997	0.0166909
751.075	0.0167548
751.154	0.0167675
751.232	0.0168908
751.310	0.0167654
751.388	0.0167402
751.466	0.0169015
751.544	0.0168530
751.622	0.0168477
751.700	0.0168689
751.779	0.0168991
751.857	0.0168633
751.935	0.0169937
752.013	0.0167854
752.091	0.0168488
752.169	0.0167646
752.247	0.0168438
752.325	0.0165545
752.404	0.0165107
752.482	0.0163988
752.560	0.0164699
752.638	0.0163973
752.716	0.0163646
752.794	0.0163272
752.872	0.0161876
752.950	0.0162298
753.029	0.0162654
753.107	0.0163036
753.185	0.0163489
753.263	0.0162466
753.341	0.0164573
753.419	0.0163181
753.497	0.0164188
753.575	0.0164507
753.654	0.0163760
753.732	0.0164497
753.810	0.0165275
753.888	0.0167230
753.966	0.0166651
754.044	0.0167647
754.122	0.0168372
754.200	0.0168332
754.279	0.0169131
754.357	0.0168661
754.435	0.0170271
754.513	0.0171230
754.591	0.0172102
754.669	0.0170094
754.747	0.0171233
754.825	0.0172270
754.904	0.0169054
754.982	0.0169019
755.060	0.0168407
755.138	0.0167135
755.216	0.0166888
755.294	0.0167343
755.372	0.0165068
755.450	0.0163327
755.529	0.0164177
755.607	0.0165506
755.685	0.0165096
755.763	0.0163076
755.841	0.0163102
755.919	0.0164770
755.997	0.0164032
756.075	0.0163244
756.154	0.0164281
756.232	0.0164513
756.310	0.0162795
756.388	0.0165862
756.466	0.0164460
756.544	0.0164847
756.622	0.0163086
756.700	0.0163988
756.779	0.0165060
756.857	0.0165130
756.935	0.0165596
757.013	0.0166349
757.091	0.0164662
757.169	0.0165522
757.247	0.0163459
757.325	0.0163864
757.404	0.0165432
757.482	0.0165218
757.560	0.0166618
757.638	0.0163605
757.716	0.0163951
757.794	0.0165413
757.872	0.0166138
757.950	0.0165838
758.029	0.0164120
758.107	0.0165220
758.185	0.0166930
758.263	0.0164705
758.341	0.0166048
758.419	0.0167399
758.497	0.0166383
758.575	0.0164780
758.654	0.0167217
758.732	0.0167136
758.810	0.0167193
758.888	0.0166385
758.966	0.0166504
759.044	0.0166125
759.122	0.0166018
759.200	0.0166185
759.279	0.0165564
759.357	0.0166279
759.435	0.0166784
759.513	0.0168550
759.591	0.0167117
759.669	0.0166431
759.747	0.0166784
759.825	0.0166386
759.904	0.0166592
759.982	0.0166109
760.060	0.0166006
760.138	0.0165565
760.216	0.0167416
760.294	0.0166837
760.372	0.0167757
760.450	0.0166235
760.529	0.0167937
760.607	0.0165095
760.685	0.0165913
760.763	0.0167657
760.841	0.0166556
760.919	0.0165464
760.997	0.0165654
761.075	0.0165130
761.154	0.0165864
761.232	0.0166616
761.310	0.0165901
761.388	0.0165129
761.466	0.0165707
761.544	0.0163017
761.622	0.0162894
761.700	0.0164194
761.779	0.0162686
761.857	0.0162016
761.935	0.0162640
762.013	0.0161359
762.091	0.0162024
762.169	0.0163358
762.247	0.0164069
762.325	0.0163413
762.404	0.0163969
762.482	0.0164133
762.560	0.0166058
762.638	0.0167164
762.716	0.0167408
762.794	0.0168855
762.872	0.0169704
762.950	0.0170800
763.029	0.0172475
763.107	0.0171517
763.185	0.0170679
763.263	0.0170057
763.341	0.0169858
763.419	0.0170314
763.497	0.0169248
763.575	0.0168203
763.654	0.0167815
763.732	0.0165675
763.810	0.0165232
763.888	0.0165293
763.966	0.0165355
764.044	0.0165887
764.122	0.0162394
764.200	0.0162404
764.279	0.0163094
764.357	0.0165039
764.435	0.0165614
764.513	0.0163926
764.591	0.0161121
764.669	0.0163277
764.747	0.0165002
764.825	0.0163493
764.904	0.0164298
764.982	0.0163973
765.060	0.0163211
765.138	0.0164657
765.216	0.0163477
765.294	0.0164896
765.372	0.0164977
765.450	0.0163097
765.529	0.0163910
765.607	0.0164676
765.685	0.0163981
765.763	0.0164343
765.841	0.0166348
765.919	0.0165231
765.997	0.0164838
766.075	0.0167750
766.154	0.0167897
766.232	0.0169341
766.310	0.0170870
766.388	0.0170662
766.466	0.0169664
766.544	0.0169523
766.622	0.0172021
766.700	0.0170851
766.779	0.0169071
766.857	0.0170277
766.935	0.0170255
767.013	0.0168350
767.091	0.0167569
767.169	0.0167149
767.247	0.0166329
767.325	0.0165556
767.404	0.0164794
767.482	0.0166299
767.560	0.0163747
767.638	0.0162990
767.716	0.0164117
767.794	0.0164581
767.872	0.0163268
767.950	0.0165074
768.029	0.0163717
768.107	0.0166140
768.185	0.0166694
768.263	0.0163750
768.341	0.0163480
768.419	0.0164456
768.497	0.0165281
768.575	0.0165433
768.654	0.0165883
768.732	0.0164355
768.810	0.0163972
768.888	0.0164880
768.966	0.0163909
769.044	0.0164857
769.122	0.0164097
769.200	0.0164341
769.279	0.0165967
769.357	0.0164075
769.435	0.0165047
769.513	0.0166696
769.591	0.0165868
769.669	0.0166631
769.747	0.0164151
769.825	0.0164764
769.904	0.0165767
769.982	0.0166563
770.060	0.0166422
770.138	0.0165974
770.216	0.0165315
770.294	0.0164714
770.372	0.0165060
770.450	0.0164905
770.529	0.0165880
770.607	0.0164955
770.685	0.0166109
770.763	0.0165437
770.841	0.0167473
770.919	0.0167339
770.997	0.0166357
771.075	0.0167511
771.154	0.0168269
771.232	0.0169733
771.310	0.0169628
771.388	0.0170452
771.466	0.0171250
771.544	0.0170979
771.622	0.0171420
771.700	0.0169686
771.779	0.0172832
771.857	0.0171088
771.935	0.0169456
772.013	0.0170390
772.091	0.0170386
772.169	0.0167680
772.247	0.0167578
772.325	0.0167212
772.404	0.0166441
772.482	0.0165741
772.560	0.0165192
772.638	0.0163730
772.716	0.0164458
772.794	0.0163779
772.872	0.0162138
772.950	0.0163191
773.029	0.0163097
773.107	0.0163552
773.185	0.0163311
773.263	0.0161494
773.341	0.0162406
773.419	0.0163311
773.497	0.0163607
773.575	0.0164471
773.654	0.0162856
773.732	0.0163248
773.810	0.0163721
773.888	0.0163248
773.966	0.0164059
774.044	0.0164768
774.122	0.0164706
774.200	0.0164895
774.279	0.0166195
774.357	0.0166438
774.435	0.0166887
774.513	0.0168027
774.591	0.0168353
774.669	0.0169146
774.747	0.0168385
774.825	0.0168228
774.904	0.0169804
774.982	0.0168929
775.060	0.0170037
775.138	0.0168997
775.216	0.0168263
775.294	0.0169094
775.372	0.0168151
775.450	0.0169259
775.529	0.0167480
775.607	0.0167364
775.685	0.0166734
775.763	0.0166827
775.841	0.0165132
775.919	0.0164584
775.997	0.0164779
776.075	0.0164111
776.154	0.0163976
776.232	0.0163185
776.310	0.0163061
776.388	0.0163314
776.466	0.0162329
776.544	0.0162460
776.622	0.0163049
776.700	0.0163660
776.779	0.0163380
776.857	0.0163489
776.935	0.0164200
777.013	0.0164476
777.091	0.0164267
777.169	0.0165158
777.247	0.0166399
777.325	0.0166214
777.404	0.0166276
777.482	0.0167744
777.560	0.0168117
777.638	0.0169076
777.716	0.0167988
777.794	0.0168522
777.872	0.0167579
777.950	0.0168372
778.029	0.0168967
778.107	0.0169489
778.185	0.0167606
778.263	0.0167143
778.341	0.0168143
778.419	0.0168615
778.497	0.0167136
778.575	0.0167522
778.654	0.0168424
778.732	0.0166917
778.810	0.0166533
778.888	0.0166697
778.966	0.0166682
779.044	0.0166122
779.122	0.0166367
779.200	0.0165643
779.279	0.0165727
779.357	0.0166625
779.435	0.0167053
779.513	0.0165671
779.591	0.0165983
779.669	0.0163742
779.747	0.0165775
779.825	0.0166558
779.904	0.0166932
779.982	0.0166869
780.060	0.0166341
780.138	0.0165210
780.216	0.0167541
780.294	0.0166976
780.372	0.0167473
780.450	0.0167191
780.529	0.0166347
780.607	0.0167383
780.685	0.0167599
780.763	0.0166722
780.841	0.0167753
780.919	0.0166816
780.997	0.0165475
781.075	0.0165896
781.154	0.0164362
781.232	0.0165510
781.310	0.0164568
781.388	0.0163004
781.466	0.0162539
781.544	0.0163681
781.622	0.0163422
781.700	0.0164155
781.779	0.0162506
781.857	0.0162267
781.935	0.0163638
782.013	0.0162162
782.091	0.0162097
782.169	0.0160904
782.247	0.0162314
782.325	0.0162932
782.404	0.0161826
782.482	0.0163693
782.560	0.0162524
782.638	0.0161675
782.716	0.0162528
782.794	0.0162293
782.872	0.0162648
782.950	0.0163185
783.029	0.0164529
783.107	0.0165949
783.185	0.0166370
783.263	0.0166251
783.341	0.0167009
783.419	0.0167864
783.497	0.0168533
783.575	0.0169787
783.654	0.0169725
783.732	0.0171500
783.810	0.0172128
783.888	0.0172369
783.966	0.0171651
784.044	0.0172684
784.122	0.0172689
784.200	0.0172049
784.279	0.0172405
784.357	0.0172253
784.435	0.0172167
784.513	0.0170577
784.591	0.0168562
784.669	0.0169532
784.747	0.0168836
784.825	0.0169869
784.904	0.0167580
784.982	0.0165233
785.060	0.0165618
785.138	0.0164117
785.216	0.0162928
785.294	0.0161765
785.372	0.0161700
785.450	0.0159277
785.529	0.0158115
785.607	0.0157835
785.685	0.0157946
785.763	0.0158234
785.841	0.0157985
785.919	0.0157292
785.997	0.0157056
786.075	0.0158083
786.154	0.0158828
786.232	0.0159834
786.310	0.0160130
786.388	0.0159294
786.466	0.0160609
786.544	0.0161776
786.622	0.0163747
786.700	0.0164455
786.779	0.0167450
786.857	0.0167424
786.935	0.0166964
787.013	0.0170210
787.091	0.0170790
787.169	0.0172137
787.247	0.0173998
787.325	0.0174306
787.404	0.0174024
787.482	0.0175021
787.560	0.0177258
787.638	0.0175793
787.716	0.0175689
787.794	0.0175439
787.872	0.0175785
787.950	0.0174714
788.029	0.0174013
788.107	0.0173849
788.185	0.0171851
788.263	0.0170341
788.341	0.0170288
788.419	0.0167865
788.497	0.0165756
788.575	0.0163867
788.654	0.0163428
788.732	0.0161967
788.810	0.0162361
788.888	0.0160168
788.966	0.0160367
789.044	0.0158587
789.122	0.0158295
789.200	0.0157618
789.279	0.0158855
789.357	0.0157242
789.435	0.0157959
789.513	0.0157677
789.591	0.0156586
789.669	0.0158913
789.747	0.0157643
789.825	0.0158026
789.904	0.0158440
789.982	0.0159043
790.060	0.0160600
790.138	0.0158921
790.216	0.0161241
790.294	0.0161218
790.372	0.0163524
790.450	0.0164526
790.529	0.0163999
790.607	0.0166206
790.685	0.0168807
790.763	0.0168769
790.841	0.0170210
790.919	0.0171004
790.997	0.0171648
791.075	0.0172649
791.154	0.0172059
791.232	0.0174897
791.310	0.0175258
791.388	0.0175904
791.466	0.0176253
791.544	0.0175427
791.622	0.0173716
791.700	0.0172441
791.779	0.0173624
791.857	0.0173143
791.935	0.0171282
792.013	0.0168682
792.091	0.0167738
792.169	0.0166000
792.247	0.0165051
792.325	0.0163236
792.404	0.0162717
792.482	0.0161681
792.560	0.0160583
792.638	0.0159358
792.716	0.0157996
792.794	0.0158620
792.872	0.0157678
792.950	0.0156193
793.029	0.0157035
793.107	0.0157249
793.185	0.0157157
793.263	0.0157109
793.341	0.0159031
793.419	0.0160567
793.497	0.0160559
793.575	0.0162363
793.654	0.0162334
793.732	0.0164556
793.810	0.0166103
793.888	0.0164442
793.966	0.0167361
794.044	0.0168491
794.122	0.0168958
794.200	0.0169986
794.279	0.0170501
794.357	0.0170152
794.435	0.0171268
794.513	0.0171782
794.591	0.0172741
794.669	0.0172099
794.747	0.0171146
794.825	0.0171784
794.904	0.0170527
794.982	0.0170601
795.060	0.0170566
795.138	0.0170331
795.216	0.0169280
795.294	0.0167916
795.372	0.0167271
795.450	0.0166700
795.529	0.0167135
795.607	0.0165147
795.685	0.0164331
795.763	0.0164779
795.841	0.0163419
795.919	0.0164085
795.997	0.0161426
796.075	0.0162557
796.154	0.0163322
796.232	0.0161749
796.310	0.0161985
796.388	0.0162972
796.466	0.0161565
796.544	0.0161136
796.622	0.0163453
796.700	0.0163609
796.779	0.0162392
796.857	0.0163078
796.935	0.0163245
797.013	0.0164710
797.091	0.0164787
797.169	0.0164114
797.247	0.0163462
797.325	0.0163683
797.404	0.0167388
797.482	0.0165891
797.560	0.0165694
797.638	0.0165816
797.716	0.0167281
797.794	0.0166438
797.872	0.0168303
797.950	0.0167965
798.029	0.0167474
798.107	0.0167264
798.185	0.0167988
798.263	0.0167723
798.341	0.0167405
798.419	0.0167020
798.497	0.0166791
798.575	0.0167635
798.654	0.0168177
798.732	0.0167216
798.810	0.0166680
798.888	0.0165865
798.966	0.0166919
799.044	0.0166477
799.122	0.0165435
799.200	0.0164757
799.279	0.0163300
799.357	0.0164793
799.435	0.0164555
799.513	0.0165061
799.591	0.0163854
799.669	0.0165111
799.747	0.0166157
799.825	0.0165559
799.904	0.0166171
799.982	0.0166457
800.060	0.0166293
800.138	0.0166748
800.216	0.0167291
800.294	0.0167267
800.372	0.0167581
800.450	0.0166766
800.529	0.0167918
800.607	0.0169478
800.685	0.0168414
800.763	0.0168915
800.841	0.0167309
800.919	0.0167690
800.997	0.0169058
801.075	0.0167034
801.154	0.0168191
801.232	0.0169316
801.310	0.0167267
801.388	0.0166506
801.466	0.0165261
801.544	0.0166954
801.622	0.0166563
801.700	0.0167320
801.779	0.0167497
801.857	0.0165065
801.935	0.0165322
802.013	0.0166547
802.091	0.0165602
802.169	0.0165730
802.247	0.0164574
802.325	0.0164044
802.404	0.0163911
802.482	0.0163824
802.560	0.0164036
802.638	0.0163435
802.716	0.0161859
802.794	0.0162473
802.872	0.0163660
802.950	0.0162888
803.029	0.0163451
803.107	0.0163268
803.185	0.0162453
803.263	0.0165366
803.341	0.0164729
803.419	0.0165317
803.497	0.0166844
803.575	0.0168411
803.654	0.0168356
803.732	0.0168180
803.810	0.0168143
803.888	0.0168607
803.966	0.0169579
804.044	0.0169254
804.122	0.0169780
804.200	0.0169332
804.279	0.0169629
804.357	0.0169961
804.435	0.0169313
804.513	0.0169943
804.591	0.0169316
804.669	0.0167223
804.747	0.0168993
804.825	0.0167839
804.904	0.0168062
804.982	0.0166190
805.060	0.0166998
805.138	0.0166658
805.216	0.0166150
805.294	0.0166354
805.372	0.0165133
805.450	0.0166174
805.529	0.0165686
805.607	0.0164529
805.685	0.0163050
805.763	0.0164722
805.841	0.0165154
805.919	0.0164122
805.997	0.0163364
806.075	0.0164370
806.154	0.0164337
806.232	0.0163988
806.310	0.0163860
806.388	0.0163118
806.466	0.0163279
806.544	0.0162019
806.622	0.0163448
806.700	0.0164141
806.779	0.0164246
806.857	0.0164790
806.935	0.0164110
807.013	0.0164879
807.091	0.0163838
807.169	0.0165024
807.247	0.0165728
807.325	0.0164822
807.404	0.0166709
807.482	0.0165919
807.560	0.0165568
807.638	0.0165574
807.716	0.0165489
807.794	0.0166591
807.872	0.0164733
807.950	0.0166441
808.029	0.0166466
808.107	0.0167200
808.185	0.0165919
808.263	0.0167879
808.341	0.0167595
808.419	0.0166543
808.497	0.0167308
808.575	0.0166557
808.654	0.0168527
808.732	0.0167985
808.810	0.0169720
808.888	0.0168336
808.966	0.0168120
809.044	0.0169508
809.122	0.0169440
809.200	0.0167999
809.279	0.0169403
809.357	0.0169334
809.435	0.0169382
809.513	0.0169577
809.591	0.0168430
809.669	0.0168741
809.747	0.0168828
809.825	0.0168416
809.904	0.0167360
809.982	0.0166943
810.060	0.0166611
810.138	0.0166090
810.216	0.0165562
810.294	0.0165659
810.372	0.0165429
810.450	0.0164413
810.529	0.0165315
810.607	0.0163184
810.685	0.0162917
810.763	0.0163334
810.841	0.0162591
810.919	0.0161959
810.997	0.0162239
811.075	0.0162294
811.154	0.0162810
811.232	0.0161825
811.310	0.0162415
811.388	0.0162381
811.466	0.0163515
811.544	0.0163204
811.622	0.0163527
811.700	0.0163174
811.779	0.0164281
811.857	0.0164986
811.935	0.0164355
812.013	0.0163721
812.091	0.0163285
812.169	0.0166110
812.247	0.0166881
812.325	0.0167106
812.404	0.0167623
812.482	0.0168369
812.560	0.0167133
812.638	0.0166675
812.716	0.0167995
812.794	0.0169830
812.872	0.0167349
812.950	0.0167683
813.029	0.0169603
813.107	0.0170164
813.185	0.0169694
813.263	0.0169430
813.341	0.0168872
813.419	0.0168503
813.497	0.0168439
813.575	0.0168232
813.654	0.0166155
813.732	0.0167773
813.810	0.0166555
813.888	0.0164551
813.966	0.0164081
814.044	0.0164762
814.122	0.0166155
814.200	0.0163381
814.279	0.0164537
814.357	0.0164685
814.435	0.0164424
814.513	0.0164368
814.591	0.0165588
814.669	0.0163890
814.747	0.0164387
814.825	0.0164276
814.904	0.0164262
814.982	0.0164723
815.060	0.0164433
815.138	0.0165527
815.216	0.0165766
815.294	0.0164176
815.372	0.0164161
815.450	0.0165395
815.529	0.0164310
815.607	0.0164865
815.685	0.0164006
815.763	0.0164787
815.841	0.0164076
815.919	0.0164456
815.997	0.0164319
816.075	0.0165430
816.154	0.0165829
816.232	0.0166087
816.310	0.0164459
816.388	0.0166515
816.466	0.0167526
816.544	0.0168058
816.622	0.0167718
816.700	0.0168468
816.779	0.0168595
816.857	0.0166998
816.935	0.0168512
817.013	0.0168962
817.091	0.0168327
817.169	0.0168109
817.247	0.0169221
817.325	0.0170124
817.404	0.0168977
817.482	0.0167145
817.560	0.0167102
817.638	0.0167457
817.716	0.0165689
817.794	0.0165833
817.872	0.0166635
817.950	0.0165499
818.029	0.0165333
818.107	0.0166799
818.185	0.0166271
818.263	0.0165455
818.341	0.0167034
818.419	0.0166362
818.497	0.0163950
818.575	0.0165304
818.654	0.0165504
818.732	0.0165769
818.810	0.0165203
818.888	0.0165705
818.966	0.0164327
819.044	0.0164552
819.122	0.0165313
819.200	0.0164207
819.279	0.0164140
819.357	0.0165501
819.435	0.0163776
819.513	0.0164388
819.591	0.0167066
819.669	0.0167175
819.747	0.0164650
819.825	0.0165849
819.904	0.0166581
819.982	0.0166790
820.060	0.0167445
820.138	0.0166382
820.216	0.0167960
820.294	0.0167475
820.372	0.0168739
820.450	0.0169004
820.529	0.0167377
820.607	0.0166850
820.685	0.0167719
820.763	0.0167993
820.841	0.0167247
820.919	0.0167851
820.997	0.0165840
821.075	0.0166119
821.154	0.0166565
821.232	0.0165542
821.310	0.0164396
821.388	0.0165092
821.466	0.0165265
821.544	0.0165083
821.622	0.0164759
821.700	0.0165205
821.779	0.0166259
821.857	0.0165143
821.935	0.0165321
822.013	0.0164001
822.091	0.0165156
822.169	0.0164078
822.247	0.0165075
822.325	0.0163808
822.404	0.0165058
822.482	0.0165002
822.560	0.0164979
822.638	0.0165310
822.716	0.0165228
822.794	0.0165355
822.872	0.0165619
822.950	0.0165086
823.029	0.0166083
823.107	0.0167264
823.185	0.0165400
823.263	0.0164904
823.341	0.0166518
823.419	0.0167196
823.497	0.0168146
823.575	0.0166754
823.654	0.0167196
823.732	0.0167620
823.810	0.0166381
823.888	0.0168803
823.966	0.0168027
824.044	0.0167746
824.122	0.0168713
824.200	0.0167195
824.279	0.0168290
824.357	0.0168050
824.435	0.0168111
824.513	0.0168037
824.591	0.0168040
824.669	0.0168809
824.747	0.0169701
824.825	0.0168999
824.904	0.0168337
824.982	0.0168521
825.060	0.0169070
825.138	0.0168088
825.216	0.0166522
825.294	0.0167138
825.372	0.0165488
825.450	0.0167068
825.529	0.0167268
825.607	0.0167493
825.685	0.0167057
825.763	0.0166670
825.841	0.0166899
825.919	0.0165395
825.997	0.0167262
826.075	0.0166874
826.154	0.0166098
826.232	0.0166882
826.310	0.0166480
826.388	0.0166569
826.466	0.0165160
826.544	0.0165523
826.622	0.0166949
826.700	0.0166053
826.779	0.0166825
826.857	0.0168085
826.935	0.0166073
827.013	0.0166859
827.091	0.0166683
827.169	0.0166161
827.247	0.0164955
827.325	0.0165356
827.404	0.0165309
827.482	0.0166918
827.560	0.0166273
827.638	0.0166199
827.716	0.0166225
827.794	0.0165502
827.872	0.0163877
827.950	0.0167238
828.029	0.0164034
828.107	0.0162910
828.185	0.0163235
828.263	0.0163813
828.341	0.0163378
828.419	0.0163090
828.497	0.0164728
828.575	0.0163372
828.654	0.0162900
828.732	0.0162370
828.810	0.0164632
828.888	0.0164748
828.966	0.0163604
829.044	0.0165928
829.122	0.0167221
829.200	0.0167008
829.279	0.0167477
829.357	0.0167944
829.435	0.0168307
829.513	0.0167699
829.591	0.0169211
829.669	0.0169016
829.747	0.0168403
829.825	0.0168499
829.904	0.0168183
829.982	0.0168748
830.060	0.0166167
830.138	0.0167406
830.216	0.0167839
830.294	0.0167485
830.372	0.0167131
830.450	0.0167361
830.529	0.0167980
830.607	0.0167963
830.685	0.0167477
830.763	0.0168203
830.841	0.0167574
830.919	0.0167575
830.997	0.0167201
831.075	0.0166922
831.154	0.0167724
831.232	0.0165655
831.310	0.0165837
831.388	0.0165827
831.466	0.0165028
831.544	0.0164930
831.622	0.0164625
831.700	0.0165160
831.779	0.0165743
831.857	0.0164769
831.935	0.0164398
832.013	0.0165424
832.091	0.0164143
832.169	0.0163491
832.247	0.0164795
832.325	0.0164265
832.404	0.0164380
832.482	0.0163429
832.560	0.0164488
832.638	0.0164298
832.716	0.0163612
832.794	0.0165478
832.872	0.0164695
832.950	0.0164450
833.029	0.0166772
833.107	0.0166029
833.185	0.0166077
833.263	0.0168135
833.341	0.0167853
833.419	0.0168152
833.497	0.0166868
833.575	0.0167603
833.654	0.0168067
833.732	0.0168307
833.810	0.0167887
833.888	0.0168312
833.966	0.0167835
834.044	0.0167390
834.122	0.0168990
834.200	0.0167352
834.279	0.0168247
834.357	0.0169164
834.435	0.0166299
834.513	0.0165623
834.591	0.0166766
834.669	0.0167123
834.747	0.0167683
834.825	0.0166055
834.904	0.0165779
834.982	0.0165241
835.060	0.0165302
835.138	0.0165585
835.216	0.0165224
835.294	0.0165882
835.372	0.0165839
835.450	0.0164459
835.529	0.0164055
835.607	0.0166319
835.685	0.0166631
835.763	0.0164119
835.841	0.0164970
835.919	0.0164061
835.997	0.0164845
836.075	0.0165031
836.154	0.0164642
836.232	0.0165424
836.310	0.0164646
836.388	0.0165303
836.466	0.0164306
836.544	0.0164984
836.622	0.0165912
836.700	0.0165526
836.779	0.0165008
836.857	0.0165595
836.935	0.0163925
837.013	0.0164984
837.091	0.0166671
837.169	0.0165750
837.247	0.0166011
837.325	0.0165341
837.404	0.0165257
837.482	0.0165574
837.560	0.0164793
837.638	0.0165279
837.716	0.0166096
837.794	0.0166080
837.872	0.0165362
837.950	0.0165399
838.029	0.0164734
838.107	0.0165513
838.185	0.0165470
838.263	0.0165542
838.341	0.0167316
838.419	0.0165819
838.497	0.0165414
838.575	0.0165488
838.654	0.0166887
838.732	0.0166173
838.810	0.0165913
838.888	0.0166378
838.966	0.0166214
839.044	0.0164954
839.122	0.0165771
839.200	0.0166705
839.279	0.0165560
839.357	0.0165237
839.435	0.0166203
839.513	0.0167128
839.591	0.0166119
839.669	0.0167891
839.747	0.0166698
839.825	0.0166354
839.904	0.0166879
839.982	0.0165964
840.060	0.0165147
840.138	0.0166647
840.216	0.0165761
840.294	0.0165353
840.372	0.0165585
840.450	0.0167432
840.529	0.0166607
840.607	0.0165729
840.685	0.0166029
840.763	0.0167066
840.841	0.0166245
840.919	0.0166331
840.997	0.0166307
841.075	0.0165907
841.154	0.0167717
841.232	0.0167091
841.310	0.0165411
841.388	0.0166289
841.466	0.0166599
841.544	0.0167370
841.622	0.0166348
841.700	0.0166308
841.779	0.0166283
841.857	0.0165563
841.935	0.0166592
842.013	0.0167456
842.091	0.0165707
842.169	0.0165712
842.247	0.0165919
842.325	0.0165970
842.404	0.0165420
842.482	0.0164655
842.560	0.0164891
842.638	0.0166770
842.716	0.0166114
842.794	0.0166461
842.872	0.0164790
842.950	0.0166461
843.029	0.0165620
843.107	0.0165073
843.185	0.0165201
843.263	0.0167085
843.341	0.0165640
843.419	0.0164905
843.497	0.0165282
843.575	0.0164079
843.654	0.0165011
843.732	0.0164736
843.810	0.0165353
843.888	0.0165804
843.966	0.0164825
844.044	0.0165969
844.122	0.0166930
844.200	0.0167459
844.279	0.0165775
844.357	0.0166089
844.435	0.0165958
844.513	0.0167023
844.591	0.0168466
844.669	0.0168371
844.747	0.0167394
844.825	0.0168035
844.904	0.0167703
844.982	0.0168160
845.060	0.0166682
845.138	0.0166667
845.216	0.0167388
845.294	0.0166374
845.372	0.0166338
845.450	0.0165585
845.529	0.0165586
845.607	0.0164317
845.685	0.0164309
845.763	0.0164893
845.841	0.0166627
845.919	0.0164704
845.997	0.0164909
846.075	0.0165910
846.154	0.0164208
846.232	0.0165668
846.310	0.0164893
846.388	0.0165632
846.466	0.0165627
846.544	0.0166176
846.622	0.0167669
846.700	0.0165553
846.779	0.0166362
846.857	0.0164630
846.935	0.0165544
847.013	0.0166730
847.091	0.0166508
847.169	0.0166248
847.247	0.0165894
847.325	0.0166117
847.404	0.0164565
847.482	0.0166736
847.560	0.0166807
847.638	0.0166553
847.716	0.0167326
847.794	0.0167328
847.872	0.0167181
847.950	0.0167397
848.029	0.0168420
848.107	0.0168424
848.185	0.0168338
848.263	0.0168364
848.341	0.0168696
848.419	0.0168629
848.497	0.0168025
848.575	0.0168449
848.654	0.0168539
848.732	0.0167869
848.810	0.0167594
848.888	0.0166070
848.966	0.0166396
849.044	0.0165173
849.122	0.0165195
849.200	0.0166155
849.279	0.0165336
849.357	0.0165228
849.435	0.0162982
849.513	0.0165867
849.591	0.0164465
849.669	0.0165087
849.747	0.0164685
849.825	0.0165491
849.904	0.0164741
849.982	0.0167058
850.060	0.0167320
850.138	0.0166671
850.216	0.0168060
850.294	0.0167710
850.372	0.0167049
850.450	0.0167437
850.529	0.0166641
850.607	0.0167308
850.685	0.0166443
850.763	0.0167701
850.841	0.0167118
850.919	0.0165781
850.997	0.0166636
851.075	0.0167137
851.154	0.0167498
851.232	0.0166636
851.310	0.0167086
851.388	0.0167557
851.466	0.0165775
851.544	0.0167625
851.622	0.0166516
851.700	0.0166756
851.779	0.0165958
851.857	0.0167089
851.935	0.0164398
852.013	0.0165868
852.091	0.0166040
852.169	0.0165825
852.247	0.0165803
852.325	0.0165010
852.404	0.0163973
852.482	0.0164032
852.560	0.0163965
852.638	0.0163756
852.716	0.0164944
852.794	0.0163874
852.872	0.0164351
852.950	0.0165586
853.029	0.0165066
853.107	0.0167015
853.185	0.0165958
853.263	0.0166018
853.341	0.0165977
853.419	0.0167702
853.497	0.0166039
853.575	0.0167320
853.654	0.0166275
853.732	0.0165659
853.810	0.0166798
853.888	0.0167739
853.966	0.0167298
854.044	0.0166938
854.122	0.0167242
854.200	0.0167826
854.279	0.0166547
854.357	0.0166396
854.435	0.0166499
854.513	0.0167129
854.591	0.0165311
854.669	0.0166683
854.747	0.0167431
854.825	0.0166902
854.904	0.0167760
854.982	0.0165318
855.060	0.0165826
855.138	0.0167309
855.216	0.0166381
855.294	0.0165977
855.372	0.0165152
855.450	0.0165376
855.529	0.0165089
855.607	0.0164491
855.685	0.0165265
855.763	0.0163639
855.841	0.0164252
855.919	0.0165902
855.997	0.0164706
856.075	0.0165958
856.154	0.0164333
856.232	0.0164752
856.310	0.0165490
856.388	0.0164416
856.466	0.0165096
856.544	0.0165594
856.622	0.0166181
856.700	0.0166304
856.779	0.0167141
856.857	0.0166290
856.935	0.0165383
857.013	0.0167144
857.091	0.0167439
857.169	0.0165959
857.247	0.0166615
857.325	0.0166438
857.404	0.0166606
857.482	0.0167378
857.560	0.0166913
857.638	0.0165711
857.716	0.0164233
857.794	0.0166076
857.872	0.0167367
857.950	0.0164317
858.029	0.0164943
858.107	0.0164497
858.185	0.0162926
858.263	0.0163972
858.341	0.0163672
858.419	0.0163100
858.497	0.0164827
858.575	0.0165059
858.654	0.0164684
858.732	0.0165293
858.810	0.0165257
858.888	0.0165324
858.966	0.0165527
859.044	0.0164953
859.122	0.0166491
859.200	0.0166202
859.279	0.0166662
859.357	0.0165516
859.435	0.0164546
859.513	0.0166064
859.591	0.0165755
859.669	0.0165305
859.747	0.0166273
859.825	0.0165809
859.904	0.0165797
859.982	0.0164692
860.060	0.0165022
860.138	0.0166049
860.216	0.0166145
860.294	0.0165557
860.372	0.0165226
860.450	0.0165043
860.529	0.0165987
860.607	0.0165385
860.685	0.0164587
860.763	0.0166094
860.841	0.0166666
860.919	0.0164356
860.997	0.0164190
861.075	0.0164636
861.154	0.0166281
861.232	0.0165666
861.310	0.0164935
861.388	0.0165249
861.466	0.0165249
861.544	0.0165470
861.622	0.0165273
861.700	0.0166216
861.779	0.0166593
861.857	0.0167598
861.935	0.0166167
862.013	0.0166469
862.091	0.0166747
862.169	0.0167300
862.247	0.0166151
862.325	0.0167811
862.404	0.0166396
862.482	0.0166257
862.560	0.0165991
862.638	0.0165997
862.716	0.0166724
862.794	0.0166181
862.872	0.0166537
862.950	0.0165040
863.029	0.0165258
863.107	0.0164164
863.185	0.0165974
863.263	0.0164710
863.341	0.0163348
863.419	0.0164078
863.497	0.0165483
863.575	0.0163947
863.654	0.0164092
863.732	0.0162783
863.810	0.0164053
863.888	0.0164028
863.966	0.0163954
864.044	0.0163312
864.122	0.0164304
864.200	0.0166318
864.279	0.0165393
864.357	0.0163414
864.435	0.0164249
864.513	0.0164105
864.591	0.0164993
864.669	0.0165231
864.747	0.0165305
864.825	0.0165176
864.904	0.0164979
864.982	0.0163453
865.060	0.0165584
865.138	0.0164539
865.216	0.0164043
865.294	0.0165105
865.372	0.0166433
865.450	0.0165523
865.529	0.0164114
865.607	0.0165825
865.685	0.0166227
865.763	0.0166490
865.841	0.0166029
865.919	0.0167030
865.997	0.0167678
866.075	0.0165747
866.154	0.0166595
866.232	0.0166420
866.310	0.0166680
866.388	0.0167024
866.466	0.0165782
866.544	0.0165357
866.622	0.0166558
866.700	0.0165784
866.779	0.0165395
866.857	0.0167431
866.935	0.0165302
867.013	0.0165351
867.091	0.0165788
867.169	0.0165150
867.247	0.0164925
867.325	0.0166161
867.404	0.0165526
867.482	0.0166035
867.560	0.0167430
867.638	0.0167448
867.716	0.0165829
867.794	0.0166177
867.872	0.0165586
867.950	0.0164494
868.029	0.0165887
868.107	0.0165504
868.185	0.0164355
868.263	0.0165931
868.341	0.0165035
868.419	0.0164484
868.497	0.0164330
868.575	0.0164851
868.654	0.0164466
868.732	0.0165499
868.810	0.0165319
868.888	0.0164819
868.966	0.0166072
869.044	0.0165482
869.122	0.0165426
869.200	0.0165984
869.279	0.0165688
869.357	0.0164953
869.435	0.0165083
869.513	0.0163699
869.591	0.0165455
869.669	0.0165730
869.747	0.0163522
869.825	0.0165157
869.904	0.0165810
869.982	0.0163625
870.060	0.0165324
870.138	0.0166988
870.216	0.0165895
870.294	0.0164996
870.372	0.0166231
870.450	0.0166410
870.529	0.0166195
870.607	0.0166385
870.685	0.0167242
870.763	0.0167271
870.841	0.0166479
870.919	0.0166143
870.997	0.0165947
871.075	0.0166170
871.154	0.0164364
871.232	0.0165369
871.310	0.0166366
871.388	0.0165118
871.466	0.0165942
871.544	0.0166763
871.622	0.0166772
871.700	0.0166008
871.779	0.0165961
871.857	0.0166483
871.935	0.0166418
872.013	0.0166303
872.091	0.0166149
872.169	0.0167937
872.247	0.0166406
872.325	0.0167456
872.404	0.0166050
872.482	0.0166988
872.560	0.0166801
872.638	0.0166230
872.716	0.0165900
872.794	0.0167041
872.872	0.0167958
872.950	0.0166860
873.029	0.0167546
873.107	0.0167839
873.185	0.0166412
873.263	0.0167337
873.341	0.0166415
873.419	0.0165929
873.497	0.0165050
873.575	0.0165616
873.654	0.0166290
873.732	0.0166033
873.810	0.0165871
873.888	0.0165424
873.966	0.0166701
874.044	0.0165321
874.122	0.0163997
874.200	0.0165298
874.279	0.0165211
874.357	0.0163991
874.435	0.0164618
874.513	0.0165411
874.591	0.0166577
874.669	0.0165974
874.747	0.0167643
874.825	0.0167267
874.904	0.0166650
874.982	0.0167316
875.060	0.0167789
875.138	0.0168446
875.216	0.0167581
875.294	0.0168427
875.372	0.0167420
875.450	0.0167297
875.529	0.0167744
875.607	0.0166862
875.685	0.0166267
875.763	0.0167542
875.841	0.0167234
875.919	0.0166692
875.997	0.0167265
876.075	0.0168939
876.154	0.0168636
876.232	0.0167281
876.310	0.0168289
876.388	0.0169919
876.466	0.0168861
876.544	0.0167216
876.622	0.0167025
876.700	0.0165542
876.779	0.0166205
876.857	0.0165524
876.935	0.0164726
877.013	0.0164962
877.091	0.0164240
877.169	0.0163566
877.247	0.0163918
877.325	0.0163255
877.404	0.0165503
877.482	0.0164083
877.560	0.0164484
877.638	0.0163164
877.716	0.0162402
877.794	0.0163159
877.872	0.0162749
877.950	0.0164806
878.029	0.0164020
878.107	0.0163578
878.185	0.0163260
878.263	0.0164534
878.341	0.0164012
878.419	0.0164648
878.497	0.0165988
878.575	0.0167589
878.654	0.0167607
878.732	0.0165742
878.810	0.0165112
878.888	0.0165311
878.966	0.0166714
879.044	0.0166832
879.122	0.0164304
879.200	0.0165400
879.279	0.0167131
879.357	0.0166040
879.435	0.0167286
879.513	0.0167863
879.591	0.0167467
879.669	0.0169402
879.747	0.0171022
879.825	0.0172470
879.904	0.0172826
879.982	0.0172849
880.060	0.0173616
880.138	0.0174451
880.216	0.0173718
880.294	0.0172072
880.372	0.0171216
880.450	0.0170359
880.529	0.0168438
880.607	0.0166066
880.685	0.0164758
880.763	0.0162257
880.841	0.0160491
880.919	0.0158035
880.997	0.0156858
881.075	0.0156345
881.154	0.0154711
881.232	0.0155179
881.310	0.0156544
881.388	0.0155686
881.466	0.0157806
881.544	0.0158265
881.622	0.0161263
881.700	0.0161142
881.779	0.0162913
881.857	0.0163567
881.935	0.0165510
882.013	0.0166487
882.091	0.0167510
882.169	0.0168065
882.247	0.0170030
882.325	0.0167942
882.404	0.0169051
882.482	0.0169183
882.560	0.0170756
882.638	0.0171673
882.716	0.0171045
882.794	0.0172166
882.872	0.0171822
882.950	0.0171841
883.029	0.0171110
883.107	0.0170382
883.185	0.0170937
883.263	0.0171196
883.341	0.0169085
883.419	0.0167950
883.497	0.0167197
883.575	0.0166014
883.654	0.0164841
883.732	0.0165073
883.810	0.0163815
883.888	0.0162815
883.966	0.0160022
884.044	0.0159079
884.122	0.0158129
884.200	0.0158085
884.279	0.0157877
884.357	0.0157436
884.435	0.0158553
884.513	0.0159850
884.591	0.0159049
884.669	0.0159965
884.747	0.0161372
884.825	0.0162824
884.904	0.0164549
884.982	0.0165382
885.060	0.0167735
885.138	0.0167217
885.216	0.0168620
885.294	0.0169521
885.372	0.0169194
885.450	0.0169341
885.529	0.0171003
885.607	0.0170221
885.685	0.0169640
885.763	0.0170401
885.841	0.0169193
885.919	0.0169866
885.997	0.0172152
886.075	0.0171199
886.154	0.0168147
886.232	0.0168867
886.310	0.0168579
886.388	0.0167699
886.466	0.0167813
886.544	0.0166283
886.622	0.0164716
886.700	0.0165131
886.779	0.0164996
886.857	0.0161824
886.935	0.0162579
887.013	0.0163575
887.091	0.0163168
887.169	0.0161462
887.247	0.0160677
887.325	0.0160938
887.404	0.0161102
887.482	0.0160602
887.560	0.0161968
887.638	0.0160432
887.716	0.0159601
887.794	0.0161221
887.872	0.0162820
887.950	0.0161044
888.029	0.0161342
888.107	0.0162663
888.185	0.0163441
888.263	0.0165778
888.341	0.0166683
888.419	0.0166686
888.497	0.0167693
888.575	0.0170455
888.654	0.0170980
888.732	0.0172007
888.810	0.0173952
888.888	0.0173899
888.966	0.0173868
889.044	0.0174395
889.122	0.0173876
889.200	0.0172604
889.279	0.0173335
889.357	0.0172607
889.435	0.0170963
889.513	0.0169316
889.591	0.0167836
889.669	0.0167928
889.747	0.0165958
889.825	0.0165253
889.904	0.0164777
889.982	0.0163984
890.060	0.0163703
890.138	0.0163634
890.216	0.0162363
890.294	0.0161310
890.372	0.0162234
890.450	0.0161147
890.529	0.0161021
890.607	0.0159487
890.685	0.0161317
890.763	0.0161327
890.841	0.0162700
890.919	0.0162267
890.997	0.0161644
891.075	0.0163336
891.154	0.0164559
891.232	0.0164411
891.310	0.0164807
891.388	0.0164220
891.466	0.0165615
891.544	0.0166110
891.622	0.0165831
891.700	0.0166301
891.779	0.0166991
891.857	0.0166819
891.935	0.0165668
892.013	0.0167696
892.091	0.0167188
892.169	0.0167989
892.247	0.0168079
892.325	0.0166783
892.404	0.0169430
892.482	0.0169275
892.560	0.0168938
892.638	0.0168674
892.716	0.0166962
892.794	0.0167285
892.872	0.0167960
892.950	0.0167311
893.029	0.0166959
893.107	0.0165741
893.185	0.0165196
893.263	0.0168085
893.341	0.0164336
893.419	0.0165410
893.497	0.0165763
893.575	0.0163404
893.654	0.0164610
893.732	0.0164379
893.810	0.0163435
893.888	0.0164314
893.966	0.0164449
894.044	0.0164719
894.122	0.0165857
894.200	0.0165432
894.279	0.0165481
894.357	0.0166631
894.435	0.0166547
894.513	0.0165996
894.591	0.0166698
894.669	0.0168182
894.747	0.0166231
894.825	0.0165560
894.904	0.0166496
894.982	0.0167797
895.060	0.0168458
895.138	0.0169026
895.216	0.0167099
895.294	0.0166119
895.372	0.0168166
895.450	0.0168153
895.529	0.0168025
895.607	0.0167954
895.685	0.0167551
895.763	0.0166865
895.841	0.0166594
895.919	0.0167112
895.997	0.0166900
896.075	0.0166566
896.154	0.0167401
896.232	0.0166833
896.310	0.0164371
896.388	0.0165548
896.466	0.0165843
896.544	0.0165373
896.622	0.0165278
896.700	0.0166803
896.779	0.0166479
896.857	0.0164462
896.935	0.0165351
897.013	0.0166241
897.091	0.0164928
897.169	0.0165139
897.247	0.0164682
897.325	0.0166563
897.404	0.0166009
897.482	0.0165260
897.560	0.0164916
897.638	0.0165386
897.716	0.0166050
897.794	0.0165244
897.872	0.0165879
897.950	0.0166377
898.029	0.0166688
898.107	0.0166652
898.185	0.0167218
898.263	0.0169097
898.341	0.0168037
898.419	0.0166606
898.497	0.0168435
898.575	0.0167118
898.654	0.0166113
898.732	0.0167940
898.810	0.0166154
898.888	0.0164806
898.966	0.0165109
899.044	0.0166492
899.122	0.0165076
899.200	0.0165459
899.279	0.0165626
899.357	0.0165000
899.435	0.0165495
899.513	0.0165837
899.591	0.0165417
899.669	0.0165001
899.747	0.0165104
899.825	0.0166933
899.904	0.0168398
899.982	0.0167214
900.060	0.0167857
900.138	0.0169992
900.216	0.0169519
900.294	0.0168822
900.372	0.0170167
900.450	0.0169836
900.529	0.0170876
900.607	0.0170928
900.685	0.0168719
900.763	0.0169098
900.841	0.0169131
900.919	0.0169290
900.997	0.0167033
901.075	0.0168848
901.154	0.0167965
901.232	0.0166280
901.310	0.0166213
901.388	0.0164642
901.466	0.0166214
901.544	0.0165203
901.622	0.0166283
901.700	0.0166171
901.779	0.0165581
901.857	0.0165854
901.935	0.0165442
902.013	0.0164473
902.091	0.0165379
902.169	0.0165392
902.247	0.0163584
902.325	0.0162263
902.404	0.0163051
902.482	0.0163964
902.560	0.0162335
902.638	0.0161995
902.716	0.0160738
902.794	0.0161812
902.872	0.0160999
902.950	0.0161728
903.029	0.0161940
903.107	0.0164028
903.185	0.0164632
903.263	0.0164780
903.341	0.0165229
903.419	0.0165451
903.497	0.0166142
903.575	0.0167151
903.654	0.0168414
903.732	0.0169993
903.810	0.0171013
903.888	0.0170218
903.966	0.0171751
904.044	0.0172725
904.122	0.0171867
904.200	0.0171726
904.279	0.0172195
904.357	0.0171969
904.435	0.0170450
904.513	0.0170058
904.591	0.0171766
904.669	0.0170266
904.747	0.0169063
904.825	0.0169400
904.904	0.0168098
904.982	0.0167642
905.060	0.0168111
905.138	0.0165966
905.216	0.0166583
905.294	0.0165455
905.372	0.0165051
905.450	0.0165199
905.529	0.0164108
905.607	0.0164610
905.685	0.0162828
905.763	0.0162447
905.841	0.0162620
905.919	0.0160588
905.997	0.0161253
906.075	0.0160547
906.154	0.0159722
906.232	0.0160651
906.310	0.0160243
906.388	0.0158620
906.466	0.0160439
906.544	0.0160396
906.622	0.0161068
906.700	0.0161728
906.779	0.0161664
906.857	0.0163351
906.935	0.0161930
907.013	0.0164025
907.091	0.0164883
907.169	0.0165403
907.247	0.0166616
907.325	0.0168603
907.404	0.0169902
907.482	0.0170461
907.560	0.0171114
907.638	0.0171868
907.716	0.0172033
907.794	0.0172456
907.872	0.0172768
907.950	0.0173129
908.029	0.0172387
908.107	0.0170582
908.185	0.0171227
908.263	0.0171633
908.341	0.0171340
908.419	0.0170928
908.497	0.0170401
908.575	0.0168819
908.654	0.0167818
908.732	0.0168102
908.810	0.0167474
908.888	0.0166061
908.966	0.0166261
909.044	0.0165298
909.122	0.0164482
909.200	0.0162579
909.279	0.0162737
909.357	0.0164787
909.435	0.0162753
909.513	0.0162160
909.591	0.0163252
909.669	0.0162794
909.747	0.0161198
909.825	0.0162779
909.904	0.0162907
909.982	0.0163037
910.060	0.0162818
910.138	0.0163109
910.216	0.0163687
910.294	0.0163554
910.372	0.0165004
910.450	0.0165574
910.529	0.0165692
910.607	0.0165854
910.685	0.0165806
910.763	0.0165745
910.841	0.0167812
910.919	0.0166782
910.997	0.0168544
911.075	0.0169209
911.154	0.0170422
911.232	0.0168769
911.310	0.0169125
911.388	0.0168887
911.466	0.0170071
911.544	0.0171073
911.622	0.0169364
911.700	0.0169128
911.779	0.0169221
911.857	0.0169453
911.935	0.0168967
912.013	0.0167102
912.091	0.0167857
912.169	0.0166939
912.247	0.0167108
912.325	0.0166988
912.404	0.0165087
912.482	0.0165850
912.560	0.0166494
912.638	0.0166245
912.716	0.0165723
912.794	0.0164706
912.872	0.0165596
912.950	0.0164974
913.029	0.0165301
913.107	0.0164506
913.185	0.0164486
913.263	0.0164799
913.341	0.0165678
913.419	0.0163840
913.497	0.0164035
913.575	0.0165054
913.654	0.0165441
913.732	0.0165065
913.810	0.0165053
913.888	0.0163553
913.966	0.0165240
914.044	0.0165851
914.122	0.0165755
914.200	0.0166255
914.279	0.0166951
914.357	0.0167023
914.435	0.0168265
914.513	0.0168168
914.591	0.0167857
914.669	0.0166975
914.747	0.0168501
914.825	0.0166978
914.904	0.0168163
914.982	0.0169194
915.060	0.0167518
915.138	0.0167217
915.216	0.0168557
915.294	0.0167829
915.372	0.0166777
915.450	0.0166858
915.529	0.0167721
915.607	0.0167175
915.685	0.0166898
915.763	0.0166119
915.841	0.0166737
915.919	0.0167270
915.997	0.0166460
916.075	0.0166161
916.154	0.0166422
916.232	0.0165136
916.310	0.0166171
916.388	0.0166393
916.466	0.0166597
916.544	0.0165445
916.622	0.0165704
916.700	0.0166109
916.779	0.0165321
916.857	0.0166219
916.935	0.0165736
917.013	0.0166409
917.091	0.0166463
917.169	0.0166116
917.247	0.0165573
917.325	0.0165268
917.404	0.0165649
917.482	0.0165781
917.560	0.0166364
917.638	0.0166050
917.716	0.0166341
917.794	0.0166099
917.872	0.0166746
917.950	0.0167133
918.029	0.0165796
918.107	0.0165659
918.185	0.0166190
918.263	0.0164897
918.341	0.0166448
918.419	0.0166315
918.497	0.0167202
918.575	0.0166932
918.654	0.0167786
918.732	0.0168152
918.810	0.0167764
918.888	0.0167751
918.966	0.0170261
919.044	0.0168607
919.122	0.0166929
919.200	0.0168062
919.279	0.0166861
919.357	0.0167085
919.435	0.0165336
919.513	0.0165334
919.591	0.0165802
919.669	0.0164640
919.747	0.0164528
919.825	0.0165296
919.904	0.0165969
