06/03/2022	14:05:15	Ver.	4.1	UNKNOWN
Optical Delay	599.981738	Delta X		0.078125	Sweeps	1	Scan Rate	0/0
Coordinates	Axis 1	NaN	Axis 2	NaN	Axis 3	NaN	Axis 4	NaN	Axis 5	NaN	Axis 6	0.000000
TX Power	0.000000	RX Power	0.000000

599.982	0.0164536
600.060	0.0164621
600.138	0.0163577
600.216	0.0164328
600.294	0.0165778
600.372	0.0164593
600.450	0.0165204
600.529	0.0165187
600.607	0.0165276
600.685	0.0164562
600.763	0.0164204
600.841	0.0163654
600.919	0.0165144
600.997	0.0164217
601.075	0.0166236
601.154	0.0164640
601.232	0.0164188
601.310	0.0164916
601.388	0.0163452
601.466	0.0165821
601.544	0.0165031
601.622	0.0164736
601.700	0.0164832
601.779	0.0165070
601.857	0.0164292
601.935	0.0164170
602.013	0.0165262
602.091	0.0165845
602.169	0.0164787
602.247	0.0164870
602.325	0.0164669
602.404	0.0164141
602.482	0.0163879
602.560	0.0164587
602.638	0.0165492
602.716	0.0165748
602.794	0.0165676
602.872	0.0165146
602.950	0.0164639
603.029	0.0163986
603.107	0.0165341
603.185	0.0164486
603.263	0.0166022
603.341	0.0164188
603.419	0.0163410
603.497	0.0165356
603.575	0.0164366
603.654	0.0165292
603.732	0.0163721
603.810	0.0165231
603.888	0.0165007
603.966	0.0164604
604.044	0.0164669
604.122	0.0164543
604.200	0.0163580
604.279	0.0164527
604.357	0.0163853
604.435	0.0164490
604.513	0.0164294
604.591	0.0163755
604.669	0.0165526
604.747	0.0164217
604.825	0.0163866
604.904	0.0165222
604.982	0.0165038
605.060	0.0164368
605.138	0.0164567
605.216	0.0164572
605.294	0.0164251
605.372	0.0166071
605.450	0.0163553
605.529	0.0164461
605.607	0.0164982
605.685	0.0164539
605.763	0.0165268
605.841	0.0164765
605.919	0.0164527
605.997	0.0165530
606.075	0.0163739
606.154	0.0164137
606.232	0.0166155
606.310	0.0164887
606.388	0.0164069
606.466	0.0164468
606.544	0.0164603
606.622	0.0162994
606.700	0.0163940
606.779	0.0164982
606.857	0.0164352
606.935	0.0164146
607.013	0.0165034
607.091	0.0164643
607.169	0.0164774
607.247	0.0165349
607.325	0.0164480
607.404	0.0163794
607.482	0.0165002
607.560	0.0164713
607.638	0.0165705
607.716	0.0164831
607.794	0.0166086
607.872	0.0164740
607.950	0.0163806
608.029	0.0164794
608.107	0.0164703
608.185	0.0165197
608.263	0.0164765
608.341	0.0164861
608.419	0.0163898
608.497	0.0164359
608.575	0.0164613
608.654	0.0164544
608.732	0.0164606
608.810	0.0164591
608.888	0.0165140
608.966	0.0165224
609.044	0.0164971
609.122	0.0164529
609.200	0.0164284
609.279	0.0164748
609.357	0.0164647
609.435	0.0164919
609.513	0.0164536
609.591	0.0164474
609.669	0.0164684
609.747	0.0163796
609.825	0.0163622
609.904	0.0164591
609.982	0.0164799
610.060	0.0164512
610.138	0.0163818
610.216	0.0164603
610.294	0.0163902
610.372	0.0163615
610.450	0.0165434
610.529	0.0165169
610.607	0.0164238
610.685	0.0163850
610.763	0.0162685
610.841	0.0163043
610.919	0.0164431
610.997	0.0163869
611.075	0.0164347
611.154	0.0166045
611.232	0.0165662
611.310	0.0165025
611.388	0.0164801
611.466	0.0164957
611.544	0.0163966
611.622	0.0165176
611.700	0.0165098
611.779	0.0165871
611.857	0.0164813
611.935	0.0164392
612.013	0.0165470
612.091	0.0164188
612.169	0.0165636
612.247	0.0165700
612.325	0.0164954
612.404	0.0164146
612.482	0.0164860
612.560	0.0164184
612.638	0.0165263
612.716	0.0165355
612.794	0.0165368
612.872	0.0164526
612.950	0.0164996
613.029	0.0165568
613.107	0.0166673
613.185	0.0164974
613.263	0.0164792
613.341	0.0164745
613.419	0.0164194
613.497	0.0166399
613.575	0.0164182
613.654	0.0164819
613.732	0.0165721
613.810	0.0165298
613.888	0.0164754
613.966	0.0163887
614.044	0.0163288
614.122	0.0166161
614.200	0.0165041
614.279	0.0163012
614.357	0.0163103
614.435	0.0164561
614.513	0.0165865
614.591	0.0163495
614.669	0.0163503
614.747	0.0164567
614.825	0.0164279
614.904	0.0163734
614.982	0.0164268
615.060	0.0165067
615.138	0.0164416
615.216	0.0164059
615.294	0.0165190
615.372	0.0164875
615.450	0.0164501
615.529	0.0165943
615.607	0.0164425
615.685	0.0165126
615.763	0.0163807
615.841	0.0165475
615.919	0.0166242
615.997	0.0165402
616.075	0.0166217
616.154	0.0165256
616.232	0.0166085
616.310	0.0165002
616.388	0.0165778
616.466	0.0165440
616.544	0.0166071
616.622	0.0163133
616.700	0.0165741
616.779	0.0165100
616.857	0.0165470
616.935	0.0165456
617.013	0.0163885
617.091	0.0163097
617.169	0.0164658
617.247	0.0165646
617.325	0.0164977
617.404	0.0165217
617.482	0.0164358
617.560	0.0164760
617.638	0.0164590
617.716	0.0164349
617.794	0.0164346
617.872	0.0163833
617.950	0.0162948
618.029	0.0164397
618.107	0.0165073
618.185	0.0165195
618.263	0.0164719
618.341	0.0163599
618.419	0.0165216
618.497	0.0164738
618.575	0.0164304
618.654	0.0164360
618.732	0.0164730
618.810	0.0165154
618.888	0.0163982
618.966	0.0164602
619.044	0.0164775
619.122	0.0164798
619.200	0.0164388
619.279	0.0165373
619.357	0.0163843
619.435	0.0164677
619.513	0.0162717
619.591	0.0164561
619.669	0.0164085
619.747	0.0164915
619.825	0.0165794
619.904	0.0165934
619.982	0.0166692
620.060	0.0166104
620.138	0.0164791
620.216	0.0165044
620.294	0.0164367
620.372	0.0164744
620.450	0.0166181
620.529	0.0164567
620.607	0.0164717
620.685	0.0165108
620.763	0.0165122
620.841	0.0166496
620.919	0.0165604
620.997	0.0164957
621.075	0.0164446
621.154	0.0164630
621.232	0.0163818
621.310	0.0163456
621.388	0.0164271
621.466	0.0165730
621.544	0.0165067
621.622	0.0164449
621.700	0.0165402
621.779	0.0164840
621.857	0.0164268
621.935	0.0164739
622.013	0.0164114
622.091	0.0164497
622.169	0.0164089
622.247	0.0163826
622.325	0.0164729
622.404	0.0163791
622.482	0.0163909
622.560	0.0164995
622.638	0.0163717
622.716	0.0163291
622.794	0.0165087
622.872	0.0163533
622.950	0.0164652
623.029	0.0165692
623.107	0.0165523
623.185	0.0165359
623.263	0.0164274
623.341	0.0164156
623.419	0.0163111
623.497	0.0165626
623.575	0.0163748
623.654	0.0163957
623.732	0.0164716
623.810	0.0164999
623.888	0.0164786
623.966	0.0164485
624.044	0.0165076
624.122	0.0164877
624.200	0.0164839
624.279	0.0164502
624.357	0.0165025
624.435	0.0164641
624.513	0.0164780
624.591	0.0166302
624.669	0.0165657
624.747	0.0165066
624.825	0.0166606
624.904	0.0165402
624.982	0.0165696
625.060	0.0165714
625.138	0.0166213
625.216	0.0164496
625.294	0.0164850
625.372	0.0163981
625.450	0.0165043
625.529	0.0165702
625.607	0.0165249
625.685	0.0165103
625.763	0.0165191
625.841	0.0164010
625.919	0.0163840
625.997	0.0164035
626.075	0.0165101
626.154	0.0163781
626.232	0.0165656
626.310	0.0164053
626.388	0.0164798
626.466	0.0166174
626.544	0.0165697
626.622	0.0164935
626.700	0.0164443
626.779	0.0163721
626.857	0.0163861
626.935	0.0163996
627.013	0.0164119
627.091	0.0165233
627.169	0.0164103
627.247	0.0165553
627.325	0.0164174
627.404	0.0163554
627.482	0.0165314
627.560	0.0165616
627.638	0.0164230
627.716	0.0163345
627.794	0.0164704
627.872	0.0164167
627.950	0.0164020
628.029	0.0164431
628.107	0.0164806
628.185	0.0165495
628.263	0.0164810
628.341	0.0165627
628.419	0.0164157
628.497	0.0165977
628.575	0.0166074
628.654	0.0165575
628.732	0.0164408
628.810	0.0164514
628.888	0.0165818
628.966	0.0165089
629.044	0.0164640
629.122	0.0163778
629.200	0.0164629
629.279	0.0166377
629.357	0.0165364
629.435	0.0165789
629.513	0.0164376
629.591	0.0163777
629.669	0.0165530
629.747	0.0164370
629.825	0.0164716
629.904	0.0165702
629.982	0.0165176
630.060	0.0163750
630.138	0.0164529
630.216	0.0165178
630.294	0.0165414
630.372	0.0163830
630.450	0.0163381
630.529	0.0164740
630.607	0.0166445
630.685	0.0165185
630.763	0.0166333
630.841	0.0164889
630.919	0.0163818
630.997	0.0165319
631.075	0.0163552
631.154	0.0165376
631.232	0.0166646
631.310	0.0165076
631.388	0.0164477
631.466	0.0164208
631.544	0.0164439
631.622	0.0164983
631.700	0.0165053
631.779	0.0164331
631.857	0.0164659
631.935	0.0165686
632.013	0.0164680
632.091	0.0164824
632.169	0.0164765
632.247	0.0162889
632.325	0.0164817
632.404	0.0162976
632.482	0.0163517
632.560	0.0164925
632.638	0.0164658
632.716	0.0165196
632.794	0.0165391
632.872	0.0164646
632.950	0.0164185
633.029	0.0164796
633.107	0.0164771
633.185	0.0165325
633.263	0.0165725
633.341	0.0164509
633.419	0.0164461
633.497	0.0163391
633.575	0.0164768
633.654	0.0165057
633.732	0.0164462
633.810	0.0164445
633.888	0.0164684
633.966	0.0163828
634.044	0.0164252
634.122	0.0164378
634.200	0.0163091
634.279	0.0163979
634.357	0.0166352
634.435	0.0165160
634.513	0.0164844
634.591	0.0163441
634.669	0.0163954
634.747	0.0164824
634.825	0.0165569
634.904	0.0164233
634.982	0.0164876
635.060	0.0165101
635.138	0.0164188
635.216	0.0163865
635.294	0.0164359
635.372	0.0164061
635.450	0.0164960
635.529	0.0165666
635.607	0.0166386
635.685	0.0164299
635.763	0.0164140
635.841	0.0163885
635.919	0.0164833
635.997	0.0164342
636.075	0.0165249
636.154	0.0165874
636.232	0.0164639
636.310	0.0165511
636.388	0.0164437
636.466	0.0165384
636.544	0.0163293
636.622	0.0163181
636.700	0.0165430
636.779	0.0164401
636.857	0.0165073
636.935	0.0162736
637.013	0.0164245
637.091	0.0165987
637.169	0.0164947
637.247	0.0165382
637.325	0.0165475
637.404	0.0164339
637.482	0.0165504
637.560	0.0164134
637.638	0.0164845
637.716	0.0165842
637.794	0.0165468
637.872	0.0164854
637.950	0.0164137
638.029	0.0164717
638.107	0.0164410
638.185	0.0164885
638.263	0.0164137
638.341	0.0165688
638.419	0.0164204
638.497	0.0165204
638.575	0.0166467
638.654	0.0164970
638.732	0.0165179
638.810	0.0165633
638.888	0.0164427
638.966	0.0164365
639.044	0.0165728
639.122	0.0164663
639.200	0.0163880
639.279	0.0166616
639.357	0.0164722
639.435	0.0164397
639.513	0.0164516
639.591	0.0165607
639.669	0.0164471
639.747	0.0164807
639.825	0.0165283
639.904	0.0164454
639.982	0.0164675
640.060	0.0165174
640.138	0.0164394
640.216	0.0163837
640.294	0.0164935
640.372	0.0164683
640.450	0.0164066
640.529	0.0164950
640.607	0.0164235
640.685	0.0165374
640.763	0.0165298
640.841	0.0163428
640.919	0.0164322
640.997	0.0164273
641.075	0.0164146
641.154	0.0164720
641.232	0.0164288
641.310	0.0163974
641.388	0.0164332
641.466	0.0163873
641.544	0.0164281
641.622	0.0163436
641.700	0.0164995
641.779	0.0165096
641.857	0.0164999
641.935	0.0164342
642.013	0.0164732
642.091	0.0164696
642.169	0.0164702
642.247	0.0165173
642.325	0.0163567
642.404	0.0164668
642.482	0.0164534
642.560	0.0163404
642.638	0.0163952
642.716	0.0163754
642.794	0.0165223
642.872	0.0165561
642.950	0.0164641
643.029	0.0164085
643.107	0.0164565
643.185	0.0164831
643.263	0.0165641
643.341	0.0166815
643.419	0.0165294
643.497	0.0164319
643.575	0.0165051
643.654	0.0163173
643.732	0.0165047
643.810	0.0165163
643.888	0.0165400
643.966	0.0164819
644.044	0.0165578
644.122	0.0165463
644.200	0.0163971
644.279	0.0165326
644.357	0.0164728
644.435	0.0165612
644.513	0.0164066
644.591	0.0164239
644.669	0.0165195
644.747	0.0164143
644.825	0.0164517
644.904	0.0165406
644.982	0.0163924
645.060	0.0163179
645.138	0.0163855
645.216	0.0164265
645.294	0.0165012
645.372	0.0163973
645.450	0.0164306
645.529	0.0165384
645.607	0.0162558
645.685	0.0163494
645.763	0.0164583
645.841	0.0165030
645.919	0.0164439
645.997	0.0163713
646.075	0.0162637
646.154	0.0163136
646.232	0.0164494
646.310	0.0166885
646.388	0.0164371
646.466	0.0164445
646.544	0.0165052
646.622	0.0165025
646.700	0.0164276
646.779	0.0164453
646.857	0.0166598
646.935	0.0164078
647.013	0.0163937
647.091	0.0167175
647.169	0.0165392
647.247	0.0163218
647.325	0.0164919
647.404	0.0164556
647.482	0.0165081
647.560	0.0165253
647.638	0.0164622
647.716	0.0164000
647.794	0.0164517
647.872	0.0165027
647.950	0.0163312
648.029	0.0164663
648.107	0.0165244
648.185	0.0165017
648.263	0.0164737
648.341	0.0164324
648.419	0.0165144
648.497	0.0165369
648.575	0.0165670
648.654	0.0163138
648.732	0.0164730
648.810	0.0165354
648.888	0.0164516
648.966	0.0165229
649.044	0.0166104
649.122	0.0164310
649.200	0.0163350
649.279	0.0165656
649.357	0.0164023
649.435	0.0165182
649.513	0.0165170
649.591	0.0164813
649.669	0.0164381
649.747	0.0164613
649.825	0.0165340
649.904	0.0165120
649.982	0.0165682
650.060	0.0164933
650.138	0.0165443
650.216	0.0164835
650.294	0.0165202
650.372	0.0164812
650.450	0.0163231
650.529	0.0163384
650.607	0.0164508
650.685	0.0164626
650.763	0.0166180
650.841	0.0165377
650.919	0.0165244
650.997	0.0164109
651.075	0.0165207
651.154	0.0165006
651.232	0.0164846
651.310	0.0163670
651.388	0.0164153
651.466	0.0165693
651.544	0.0164725
651.622	0.0164368
651.700	0.0164404
651.779	0.0165565
651.857	0.0165864
651.935	0.0163776
652.013	0.0164594
652.091	0.0164521
652.169	0.0164725
652.247	0.0163348
652.325	0.0164954
652.404	0.0165372
652.482	0.0164102
652.560	0.0164328
652.638	0.0165428
652.716	0.0164706
652.794	0.0165931
652.872	0.0165060
652.950	0.0164236
653.029	0.0165359
653.107	0.0164877
653.185	0.0165347
653.263	0.0163853
653.341	0.0164618
653.419	0.0165621
653.497	0.0164228
653.575	0.0165231
653.654	0.0166108
653.732	0.0165109
653.810	0.0164081
653.888	0.0165437
653.966	0.0164468
654.044	0.0164688
654.122	0.0164011
654.200	0.0163844
654.279	0.0166042
654.357	0.0166258
654.435	0.0166641
654.513	0.0165335
654.591	0.0165269
654.669	0.0165488
654.747	0.0166872
654.825	0.0165044
654.904	0.0164387
654.982	0.0164604
655.060	0.0164857
655.138	0.0164747
655.216	0.0164515
655.294	0.0166019
655.372	0.0165607
655.450	0.0165302
655.529	0.0164777
655.607	0.0163840
655.685	0.0165179
655.763	0.0164954
655.841	0.0165218
655.919	0.0164563
655.997	0.0164980
656.075	0.0163242
656.154	0.0163513
656.232	0.0164419
656.310	0.0165414
656.388	0.0165002
656.466	0.0164822
656.544	0.0163960
656.622	0.0163654
656.700	0.0164500
656.779	0.0164938
656.857	0.0164787
656.935	0.0165067
657.013	0.0164424
657.091	0.0165475
657.169	0.0164534
657.247	0.0164064
657.325	0.0164422
657.404	0.0164426
657.482	0.0164051
657.560	0.0165406
657.638	0.0163794
657.716	0.0164819
657.794	0.0164671
657.872	0.0164178
657.950	0.0164742
658.029	0.0163589
658.107	0.0165240
658.185	0.0164174
658.263	0.0164048
658.341	0.0166265
658.419	0.0165304
658.497	0.0165665
658.575	0.0164927
658.654	0.0164094
658.732	0.0165501
658.810	0.0164454
658.888	0.0163618
658.966	0.0165347
659.044	0.0165028
659.122	0.0164557
659.200	0.0165327
659.279	0.0164275
659.357	0.0165791
659.435	0.0165823
659.513	0.0164980
659.591	0.0165199
659.669	0.0164680
659.747	0.0163736
659.825	0.0165169
659.904	0.0165915
659.982	0.0164973
660.060	0.0163833
660.138	0.0163166
660.216	0.0165245
660.294	0.0164623
660.372	0.0164316
660.450	0.0164722
660.529	0.0165221
660.607	0.0165002
660.685	0.0165120
660.763	0.0164605
660.841	0.0164571
660.919	0.0165710
660.997	0.0166006
661.075	0.0164513
661.154	0.0164657
661.232	0.0163411
661.310	0.0163223
661.388	0.0164519
661.466	0.0164892
661.544	0.0165662
661.622	0.0164725
661.700	0.0164255
661.779	0.0164174
661.857	0.0164406
661.935	0.0163981
662.013	0.0164992
662.091	0.0164436
662.169	0.0165857
662.247	0.0164802
662.325	0.0163456
662.404	0.0164993
662.482	0.0163235
662.560	0.0163747
662.638	0.0164330
662.716	0.0163912
662.794	0.0163790
662.872	0.0164834
662.950	0.0164002
663.029	0.0164097
663.107	0.0162808
663.185	0.0164060
663.263	0.0164721
663.341	0.0164910
663.419	0.0166326
663.497	0.0166232
663.575	0.0163790
663.654	0.0165519
663.732	0.0164896
663.810	0.0164864
663.888	0.0165143
663.966	0.0163432
664.044	0.0164941
664.122	0.0165020
664.200	0.0162546
664.279	0.0163733
664.357	0.0165193
664.435	0.0165180
664.513	0.0164764
664.591	0.0163860
664.669	0.0164149
664.747	0.0165704
664.825	0.0165910
664.904	0.0165125
664.982	0.0163795
665.060	0.0163794
665.138	0.0166114
665.216	0.0166082
665.294	0.0164246
665.372	0.0164613
665.450	0.0164112
665.529	0.0163929
665.607	0.0163762
665.685	0.0164051
665.763	0.0163809
665.841	0.0163696
665.919	0.0164388
665.997	0.0163123
666.075	0.0162565
666.154	0.0163020
666.232	0.0162867
666.310	0.0163814
666.388	0.0165215
666.466	0.0165147
666.544	0.0165421
666.622	0.0166187
666.700	0.0166154
666.779	0.0165586
666.857	0.0167777
666.935	0.0165941
667.013	0.0165052
667.091	0.0165392
667.169	0.0165688
667.247	0.0163663
667.325	0.0162831
667.404	0.0163402
667.482	0.0162842
667.560	0.0163845
667.638	0.0163653
667.716	0.0163213
667.794	0.0164690
667.872	0.0164778
667.950	0.0163128
668.029	0.0164107
668.107	0.0165117
668.185	0.0165041
668.263	0.0164535
668.341	0.0164403
668.419	0.0165933
668.497	0.0164613
668.575	0.0164245
668.654	0.0165508
668.732	0.0166078
668.810	0.0163888
668.888	0.0162782
668.966	0.0163640
669.044	0.0163365
669.122	0.0164390
669.200	0.0163900
669.279	0.0162135
669.357	0.0163429
669.435	0.0165102
669.513	0.0164249
669.591	0.0163572
669.669	0.0164068
669.747	0.0164690
669.825	0.0165237
669.904	0.0164285
669.982	0.0164561
670.060	0.0164797
670.138	0.0165030
670.216	0.0165710
670.294	0.0165396
670.372	0.0165469
670.450	0.0166389
670.529	0.0165324
670.607	0.0164146
670.685	0.0165921
670.763	0.0166076
670.841	0.0167497
670.919	0.0165343
670.997	0.0163785
671.075	0.0163335
671.154	0.0163756
671.232	0.0164761
671.310	0.0162160
671.388	0.0164006
671.466	0.0162811
671.544	0.0161692
671.622	0.0161752
671.700	0.0162590
671.779	0.0160301
671.857	0.0161333
671.935	0.0163268
672.013	0.0163762
672.091	0.0165018
672.169	0.0164934
672.247	0.0166441
672.325	0.0166502
672.404	0.0166815
672.482	0.0166486
672.560	0.0167483
672.638	0.0167281
672.716	0.0167560
672.794	0.0166210
672.872	0.0166462
672.950	0.0166247
673.029	0.0166386
673.107	0.0164738
673.185	0.0164591
673.263	0.0164770
673.341	0.0163695
673.419	0.0164143
673.497	0.0164898
673.575	0.0162798
673.654	0.0163271
673.732	0.0162454
673.810	0.0162881
673.888	0.0163477
673.966	0.0163056
674.044	0.0162270
674.122	0.0162260
674.200	0.0163324
674.279	0.0162257
674.357	0.0162578
674.435	0.0161562
674.513	0.0161081
674.591	0.0160753
674.669	0.0161874
674.747	0.0162170
674.825	0.0162062
674.904	0.0163094
674.982	0.0163451
675.060	0.0164992
675.138	0.0164564
675.216	0.0164669
675.294	0.0165455
675.372	0.0165485
675.450	0.0166677
675.529	0.0166798
675.607	0.0164945
675.685	0.0166613
675.763	0.0166496
675.841	0.0167091
675.919	0.0166084
675.997	0.0166782
676.075	0.0165772
676.154	0.0166288
676.232	0.0163023
676.310	0.0163322
676.388	0.0164114
676.466	0.0163857
676.544	0.0165010
676.622	0.0164314
676.700	0.0162816
676.779	0.0164764
676.857	0.0165153
676.935	0.0165303
677.013	0.0164017
677.091	0.0164875
677.169	0.0166250
677.247	0.0166973
677.325	0.0165887
677.404	0.0165892
677.482	0.0166696
677.560	0.0165188
677.638	0.0166065
677.716	0.0165276
677.794	0.0163429
677.872	0.0164176
677.950	0.0165185
678.029	0.0165791
678.107	0.0167663
678.185	0.0168322
678.263	0.0170944
678.341	0.0172443
678.419	0.0174960
678.497	0.0173987
678.575	0.0174719
678.654	0.0174459
678.732	0.0173029
678.810	0.0171267
678.888	0.0166829
678.966	0.0163023
679.044	0.0158036
679.122	0.0153843
679.200	0.0149080
679.279	0.0145321
679.357	0.0144786
679.435	0.0143497
679.513	0.0141962
679.591	0.0144716
679.669	0.0146898
679.747	0.0148830
679.825	0.0151711
679.904	0.0156638
679.982	0.0160970
680.060	0.0164471
680.138	0.0167849
680.216	0.0172749
680.294	0.0174877
680.372	0.0176194
680.450	0.0178790
680.529	0.0179030
680.607	0.0177845
680.685	0.0176794
680.763	0.0173859
680.841	0.0172826
680.919	0.0169179
680.997	0.0166599
681.075	0.0164133
681.154	0.0163000
681.232	0.0163359
681.310	0.0162705
681.388	0.0164391
681.466	0.0166336
681.544	0.0165221
681.622	0.0167448
681.700	0.0170192
681.779	0.0169147
681.857	0.0171288
681.935	0.0173309
682.013	0.0176334
682.091	0.0176660
682.169	0.0178559
682.247	0.0179742
682.325	0.0180457
682.404	0.0179945
682.482	0.0178121
682.560	0.0177827
682.638	0.0174225
682.716	0.0170763
682.794	0.0167235
682.872	0.0161250
682.950	0.0157824
683.029	0.0155400
683.107	0.0151077
683.185	0.0149256
683.263	0.0150856
683.341	0.0149311
683.419	0.0153455
683.497	0.0154431
683.575	0.0157726
683.654	0.0161796
683.732	0.0162279
683.810	0.0161747
683.888	0.0160323
683.966	0.0158977
684.044	0.0156512
684.122	0.0150912
684.200	0.0146774
684.279	0.0144562
684.357	0.0140693
684.435	0.0137631
684.513	0.0139754
684.591	0.0138187
684.669	0.0141426
684.747	0.0145404
684.825	0.0150401
684.904	0.0154789
684.982	0.0160128
685.060	0.0165417
685.138	0.0169987
685.216	0.0174322
685.294	0.0178975
685.372	0.0182630
685.450	0.0184303
685.529	0.0183572
685.607	0.0185036
685.685	0.0184695
685.763	0.0185406
685.841	0.0184212
685.919	0.0183581
685.997	0.0184521
686.075	0.0184205
686.154	0.0183548
686.232	0.0183932
686.310	0.0182388
686.388	0.0180891
686.466	0.0180491
686.544	0.0178173
686.622	0.0173730
686.700	0.0170468
686.779	0.0166898
686.857	0.0162076
686.935	0.0159300
687.013	0.0155800
687.091	0.0151526
687.169	0.0152270
687.247	0.0153482
687.325	0.0155972
687.404	0.0159705
687.482	0.0166132
687.560	0.0171702
687.638	0.0178254
687.716	0.0186874
687.794	0.0193429
687.872	0.0197941
687.950	0.0202977
688.029	0.0205095
688.107	0.0205357
688.185	0.0204111
688.263	0.0198479
688.341	0.0194458
688.419	0.0187048
688.497	0.0179156
688.575	0.0169639
688.654	0.0160085
688.732	0.0152010
688.810	0.0142226
688.888	0.0130785
688.966	0.0123112
689.044	0.0113542
689.122	0.0106827
689.200	0.00979233
689.279	0.00896278
689.357	0.00824226
689.435	0.00767799
689.513	0.00704109
689.591	0.00688210
689.669	0.00668709
689.747	0.00678764
689.825	0.00709419
689.904	0.00773575
689.982	0.00861885
690.060	0.00991570
690.138	0.0115223
690.216	0.0130376
690.294	0.0152374
690.372	0.0175311
690.450	0.0197101
690.529	0.0219925
690.607	0.0240746
690.685	0.0258520
690.763	0.0273227
690.841	0.0287356
690.919	0.0294920
690.997	0.0298547
691.075	0.0299976
691.154	0.0294339
691.232	0.0289892
691.310	0.0280843
691.388	0.0267891
691.466	0.0254787
691.544	0.0240038
691.622	0.0227035
691.700	0.0211706
691.779	0.0197788
691.857	0.0184523
691.935	0.0177139
692.013	0.0170138
692.091	0.0163190
692.169	0.0160777
692.247	0.0155505
692.325	0.0155411
692.404	0.0153341
692.482	0.0152023
692.560	0.0149037
692.638	0.0146663
692.716	0.0141415
692.794	0.0135205
692.872	0.0131033
692.950	0.0124105
693.029	0.0114223
693.107	0.0104888
693.185	0.00951836
693.263	0.00856110
693.341	0.00748665
693.419	0.00656105
693.497	0.00583702
693.575	0.00504059
693.654	0.00452705
693.732	0.00417023
693.810	0.00406830
693.888	0.00410957
693.966	0.00449997
694.044	0.00506065
694.122	0.00592201
694.200	0.00713318
694.279	0.00862244
694.357	0.0102905
694.435	0.0120500
694.513	0.0144083
694.591	0.0163940
694.669	0.0187221
694.747	0.0212967
694.825	0.0234724
694.904	0.0258001
694.982	0.0278877
695.060	0.0295744
695.138	0.0310567
695.216	0.0319178
695.294	0.0326040
695.372	0.0328865
695.450	0.0326685
695.529	0.0320422
695.607	0.0312496
695.685	0.0303422
695.763	0.0289787
695.841	0.0275253
695.919	0.0259126
695.997	0.0240365
696.075	0.0224148
696.154	0.0206836
696.232	0.0188696
696.310	0.0172912
696.388	0.0157971
696.466	0.0144659
696.544	0.0131061
696.622	0.0120674
696.700	0.0111954
696.779	0.0104919
696.857	0.00981186
696.935	0.00923203
697.013	0.00902580
697.091	0.00882736
697.169	0.00871429
697.247	0.00857864
697.325	0.00845894
697.404	0.00848335
697.482	0.00855995
697.560	0.00841698
697.638	0.00816635
697.716	0.00817360
697.794	0.00814308
697.872	0.00812721
697.950	0.00801994
698.029	0.00821693
698.107	0.00830391
698.185	0.00840355
698.263	0.00859978
698.341	0.00913597
698.419	0.00999405
698.497	0.0108027
698.575	0.0120985
698.654	0.0135476
698.732	0.0152788
698.810	0.0169851
698.888	0.0188905
698.966	0.0207323
699.044	0.0227496
699.122	0.0243624
699.200	0.0260445
699.279	0.0274782
699.357	0.0283970
699.435	0.0290365
699.513	0.0293968
699.591	0.0294213
699.669	0.0289857
699.747	0.0282179
699.825	0.0274810
699.904	0.0265887
699.982	0.0252662
700.060	0.0238554
700.138	0.0224392
700.216	0.0210995
700.294	0.0196822
700.372	0.0182123
700.450	0.0167744
700.529	0.0157027
700.607	0.0144230
700.685	0.0135290
700.763	0.0126106
700.841	0.0120127
700.919	0.0115025
700.997	0.0110625
701.075	0.0108112
701.154	0.0106559
701.232	0.0106199
701.310	0.0105894
701.388	0.0107663
701.466	0.0110201
701.544	0.0111535
701.622	0.0112857
701.700	0.0115906
701.779	0.0116439
701.857	0.0118414
701.935	0.0119563
702.013	0.0122525
702.091	0.0124468
702.169	0.0125777
702.247	0.0125423
702.325	0.0127950
702.404	0.0127267
702.482	0.0127510
702.560	0.0128734
702.638	0.0130157
702.716	0.0132360
702.794	0.0134443
702.872	0.0136838
702.950	0.0141036
703.029	0.0148022
703.107	0.0152177
703.185	0.0161599
703.263	0.0169749
703.341	0.0178661
703.419	0.0190225
703.497	0.0201136
703.575	0.0213955
703.654	0.0224342
703.732	0.0233567
703.810	0.0243437
703.888	0.0250600
703.966	0.0252917
704.044	0.0254533
704.122	0.0252663
704.200	0.0251459
704.279	0.0244360
704.357	0.0235957
704.435	0.0228193
704.513	0.0217549
704.591	0.0204630
704.669	0.0194861
704.747	0.0181515
704.825	0.0171754
704.904	0.0161357
704.982	0.0151499
705.060	0.0144191
705.138	0.0137585
705.216	0.0132602
705.294	0.0130078
705.372	0.0126804
705.450	0.0125792
705.529	0.0123913
705.607	0.0124786
705.685	0.0125345
705.763	0.0126759
705.841	0.0128471
705.919	0.0128478
705.997	0.0129427
706.075	0.0131105
706.154	0.0132909
706.232	0.0133044
706.310	0.0135265
706.388	0.0136102
706.466	0.0138652
706.544	0.0139213
706.622	0.0143567
706.700	0.0145876
706.779	0.0147188
706.857	0.0149412
706.935	0.0152602
707.013	0.0154310
707.091	0.0156290
707.169	0.0158573
707.247	0.0161868
707.325	0.0163670
707.404	0.0165636
707.482	0.0170287
707.560	0.0171712
707.638	0.0173676
707.716	0.0177911
707.794	0.0179675
707.872	0.0180217
707.950	0.0182951
708.029	0.0187000
708.107	0.0188884
708.185	0.0188899
708.263	0.0190391
708.341	0.0190567
708.419	0.0186672
708.497	0.0182929
708.575	0.0181022
708.654	0.0175844
708.732	0.0172746
708.810	0.0168844
708.888	0.0165742
708.966	0.0163690
709.044	0.0161260
709.122	0.0160479
709.200	0.0158408
709.279	0.0158783
709.357	0.0158470
709.435	0.0159626
709.513	0.0161820
709.591	0.0163157
709.669	0.0168382
709.747	0.0171841
709.825	0.0174498
709.904	0.0178291
709.982	0.0181618
710.060	0.0182973
710.138	0.0186908
710.216	0.0189004
710.294	0.0189526
710.372	0.0188882
710.450	0.0187964
710.529	0.0187167
710.607	0.0185257
710.685	0.0182809
710.763	0.0179089
710.841	0.0176669
710.919	0.0171777
710.997	0.0166709
711.075	0.0161932
711.154	0.0156815
711.232	0.0151838
711.310	0.0148638
711.388	0.0144539
711.466	0.0143066
711.544	0.0141013
711.622	0.0140762
711.700	0.0138797
711.779	0.0137899
711.857	0.0139351
711.935	0.0138890
712.013	0.0140589
712.091	0.0140704
712.169	0.0141621
712.247	0.0143912
712.325	0.0147527
712.404	0.0149465
712.482	0.0150677
712.560	0.0155051
712.638	0.0156861
712.716	0.0157922
712.794	0.0158949
712.872	0.0160724
712.950	0.0161385
713.029	0.0162042
713.107	0.0162980
713.185	0.0162244
713.263	0.0161478
713.341	0.0163912
713.419	0.0164000
713.497	0.0166053
713.575	0.0167396
713.654	0.0168092
713.732	0.0169454
713.810	0.0172372
713.888	0.0175044
713.966	0.0178043
714.044	0.0180754
714.122	0.0183308
714.200	0.0186575
714.279	0.0187836
714.357	0.0191760
714.435	0.0194774
714.513	0.0196478
714.591	0.0199066
714.669	0.0200265
714.747	0.0197871
714.825	0.0197741
714.904	0.0196353
714.982	0.0194691
715.060	0.0189281
715.138	0.0185999
715.216	0.0182660
715.294	0.0175115
715.372	0.0169865
715.450	0.0165100
715.529	0.0156936
715.607	0.0151048
715.685	0.0146362
715.763	0.0141995
715.841	0.0139274
715.919	0.0138235
715.997	0.0135935
716.075	0.0135657
716.154	0.0136150
716.232	0.0137491
716.310	0.0136890
716.388	0.0139644
716.466	0.0142096
716.544	0.0141782
716.622	0.0143300
716.700	0.0147115
716.779	0.0149638
716.857	0.0150065
716.935	0.0151754
717.013	0.0152069
717.091	0.0153087
717.169	0.0154771
717.247	0.0157197
717.325	0.0157365
717.404	0.0158163
717.482	0.0160569
717.560	0.0162585
717.638	0.0165521
717.716	0.0165482
717.794	0.0167164
717.872	0.0168726
717.950	0.0171190
718.029	0.0175065
718.107	0.0176472
718.185	0.0179408
718.263	0.0182003
718.341	0.0184280
718.419	0.0187112
718.497	0.0189037
718.575	0.0191496
718.654	0.0192686
718.732	0.0193352
718.810	0.0191547
718.888	0.0188954
718.966	0.0187876
719.044	0.0185799
719.122	0.0182577
719.200	0.0178024
719.279	0.0174567
719.357	0.0170546
719.435	0.0166794
719.513	0.0163830
719.591	0.0159271
719.669	0.0156066
719.747	0.0152129
719.825	0.0149491
719.904	0.0147424
719.982	0.0146124
720.060	0.0145309
720.138	0.0145140
720.216	0.0144931
720.294	0.0144611
720.372	0.0145361
720.450	0.0146867
720.529	0.0148888
720.607	0.0148781
720.685	0.0149493
720.763	0.0151050
720.841	0.0151585
720.919	0.0153593
720.997	0.0154183
721.075	0.0154251
721.154	0.0156956
721.232	0.0159557
721.310	0.0160625
721.388	0.0161256
721.466	0.0161366
721.544	0.0163765
721.622	0.0164514
721.700	0.0165581
721.779	0.0165840
721.857	0.0166990
721.935	0.0168639
722.013	0.0170474
722.091	0.0172134
722.169	0.0173874
722.247	0.0174723
722.325	0.0175233
722.404	0.0176151
722.482	0.0175766
722.560	0.0176524
722.638	0.0177468
722.716	0.0175894
722.794	0.0174467
722.872	0.0175214
722.950	0.0175346
723.029	0.0174890
723.107	0.0172941
723.185	0.0171924
723.263	0.0171466
723.341	0.0169416
723.419	0.0167386
723.497	0.0165982
723.575	0.0165081
723.654	0.0164676
723.732	0.0162579
723.810	0.0160668
723.888	0.0159694
723.966	0.0159064
724.044	0.0158140
724.122	0.0158562
724.200	0.0156931
724.279	0.0155515
724.357	0.0155592
724.435	0.0155486
724.513	0.0155814
724.591	0.0154482
724.669	0.0154632
724.747	0.0154563
724.825	0.0154948
724.904	0.0154452
724.982	0.0154860
725.060	0.0155222
725.138	0.0155388
725.216	0.0156427
725.294	0.0157302
725.372	0.0156748
725.450	0.0157702
725.529	0.0159592
725.607	0.0161997
725.685	0.0163205
725.763	0.0165098
725.841	0.0169093
725.919	0.0169393
725.997	0.0170735
726.075	0.0173946
726.154	0.0174957
726.232	0.0175777
726.310	0.0176257
726.388	0.0179058
726.466	0.0178189
726.544	0.0177322
726.622	0.0179579
726.700	0.0180095
726.779	0.0176540
726.857	0.0177145
726.935	0.0176653
727.013	0.0175558
727.091	0.0173762
727.169	0.0174511
727.247	0.0174271
727.325	0.0172932
727.404	0.0171846
727.482	0.0170149
727.560	0.0170126
727.638	0.0166306
727.716	0.0164906
727.794	0.0164672
727.872	0.0163495
727.950	0.0161138
728.029	0.0159876
728.107	0.0157831
728.185	0.0156313
728.263	0.0155739
728.341	0.0155796
728.419	0.0153722
728.497	0.0152911
728.575	0.0151652
728.654	0.0151511
728.732	0.0151400
728.810	0.0151208
728.888	0.0150488
728.966	0.0150816
729.044	0.0151861
729.122	0.0150994
729.200	0.0153512
729.279	0.0154636
729.357	0.0154980
729.435	0.0156425
729.513	0.0157962
729.591	0.0158926
729.669	0.0159452
729.747	0.0160960
729.825	0.0161487
729.904	0.0163455
729.982	0.0163654
730.060	0.0164941
730.138	0.0166041
730.216	0.0166589
730.294	0.0166991
730.372	0.0168508
730.450	0.0168479
730.529	0.0170026
730.607	0.0170912
730.685	0.0171886
730.763	0.0172157
730.841	0.0172716
730.919	0.0176793
730.997	0.0178740
731.075	0.0177397
731.154	0.0176064
731.232	0.0177949
731.310	0.0177532
731.388	0.0178894
731.466	0.0178395
731.544	0.0176180
731.622	0.0176699
731.700	0.0175900
731.779	0.0172905
731.857	0.0172511
731.935	0.0171525
732.013	0.0169818
732.091	0.0168942
732.169	0.0168301
732.247	0.0166958
732.325	0.0166900
732.404	0.0165755
732.482	0.0165810
732.560	0.0166264
732.638	0.0164389
732.716	0.0163075
732.794	0.0161675
732.872	0.0161020
732.950	0.0159370
733.029	0.0159805
733.107	0.0158756
733.185	0.0158678
733.263	0.0157288
733.341	0.0156139
733.419	0.0156939
733.497	0.0156538
733.575	0.0155858
733.654	0.0155635
733.732	0.0154449
733.810	0.0156415
733.888	0.0154199
733.966	0.0155833
734.044	0.0157021
734.122	0.0157261
734.200	0.0158018
734.279	0.0158961
734.357	0.0158879
734.435	0.0158810
734.513	0.0159737
734.591	0.0162372
734.669	0.0163183
734.747	0.0164031
734.825	0.0165179
734.904	0.0167036
734.982	0.0166876
735.060	0.0170014
735.138	0.0171877
735.216	0.0171951
735.294	0.0171709
735.372	0.0173215
735.450	0.0172769
735.529	0.0174391
735.607	0.0174038
735.685	0.0173625
735.763	0.0174109
735.841	0.0172853
735.919	0.0174285
735.997	0.0173870
736.075	0.0171729
736.154	0.0170924
736.232	0.0170447
736.310	0.0168515
736.388	0.0168413
736.466	0.0166381
736.544	0.0165776
736.622	0.0163601
736.700	0.0161896
736.779	0.0161057
736.857	0.0160217
736.935	0.0160165
737.013	0.0159131
737.091	0.0157152
737.169	0.0157606
737.247	0.0156940
737.325	0.0157664
737.404	0.0155991
737.482	0.0157145
737.560	0.0157578
737.638	0.0157007
737.716	0.0158580
737.794	0.0158674
737.872	0.0160288
737.950	0.0163055
738.029	0.0162640
738.107	0.0162786
738.185	0.0163092
738.263	0.0165511
738.341	0.0166156
738.419	0.0166717
738.497	0.0167603
738.575	0.0168162
738.654	0.0168780
738.732	0.0168195
738.810	0.0166292
738.888	0.0168025
738.966	0.0167609
739.044	0.0164960
739.122	0.0166060
739.200	0.0166649
739.279	0.0166700
739.357	0.0166291
739.435	0.0164899
739.513	0.0164024
739.591	0.0165701
739.669	0.0166531
739.747	0.0165450
739.825	0.0167741
739.904	0.0168150
739.982	0.0168715
740.060	0.0171071
740.138	0.0170347
740.216	0.0170815
740.294	0.0171008
740.372	0.0172558
740.450	0.0170933
740.529	0.0171644
740.607	0.0170216
740.685	0.0168146
740.763	0.0168130
740.841	0.0166412
740.919	0.0162888
740.997	0.0162316
741.075	0.0160249
741.154	0.0158379
741.232	0.0157655
741.310	0.0155394
741.388	0.0156451
741.466	0.0155260
741.544	0.0155871
741.622	0.0156498
741.700	0.0158237
741.779	0.0160381
741.857	0.0159335
741.935	0.0159572
742.013	0.0163066
742.091	0.0163928
742.169	0.0164920
742.247	0.0165672
742.325	0.0164671
742.404	0.0164896
742.482	0.0164410
742.560	0.0164710
742.638	0.0164227
742.716	0.0163914
742.794	0.0163118
742.872	0.0163055
742.950	0.0161228
743.029	0.0161884
743.107	0.0162488
743.185	0.0161062
743.263	0.0162038
743.341	0.0161092
743.419	0.0159922
743.497	0.0160974
743.575	0.0160347
743.654	0.0159351
743.732	0.0160151
743.810	0.0163757
743.888	0.0162722
743.966	0.0164288
744.044	0.0165945
744.122	0.0166737
744.200	0.0166772
744.279	0.0169446
744.357	0.0169702
744.435	0.0170536
744.513	0.0172002
744.591	0.0173466
744.669	0.0173920
744.747	0.0173569
744.825	0.0175082
744.904	0.0173283
744.982	0.0170541
745.060	0.0172176
745.138	0.0170792
745.216	0.0168320
745.294	0.0165903
745.372	0.0165672
745.450	0.0164400
745.529	0.0162284
745.607	0.0160674
745.685	0.0158229
745.763	0.0158309
745.841	0.0158408
745.919	0.0156599
745.997	0.0157035
746.075	0.0155707
746.154	0.0157867
746.232	0.0157601
746.310	0.0158685
746.388	0.0158913
746.466	0.0158958
746.544	0.0159421
746.622	0.0161689
746.700	0.0160836
746.779	0.0161634
746.857	0.0163358
746.935	0.0163186
747.013	0.0162981
747.091	0.0162726
747.169	0.0163510
747.247	0.0163280
747.325	0.0162385
747.404	0.0163808
747.482	0.0162373
747.560	0.0163824
747.638	0.0163950
747.716	0.0164698
747.794	0.0163781
747.872	0.0163225
747.950	0.0164427
748.029	0.0166025
748.107	0.0167367
748.185	0.0168907
748.263	0.0168665
748.341	0.0169712
748.419	0.0169539
748.497	0.0170426
748.575	0.0170911
748.654	0.0171660
748.732	0.0172756
748.810	0.0172160
748.888	0.0172058
748.966	0.0171532
749.044	0.0170822
749.122	0.0169967
749.200	0.0171545
749.279	0.0169876
749.357	0.0168658
749.435	0.0168919
749.513	0.0167928
749.591	0.0165133
749.669	0.0163644
749.747	0.0162320
749.825	0.0162030
749.904	0.0159970
749.982	0.0158662
750.060	0.0158006
750.138	0.0157691
750.216	0.0156432
750.294	0.0155675
750.372	0.0154130
750.450	0.0153835
750.529	0.0154769
750.607	0.0154700
750.685	0.0156603
750.763	0.0157531
750.841	0.0156426
750.919	0.0159840
750.997	0.0160663
751.075	0.0162386
751.154	0.0163016
751.232	0.0163654
751.310	0.0164249
751.388	0.0165086
751.466	0.0165311
751.544	0.0165838
751.622	0.0166951
751.700	0.0168050
751.779	0.0166402
751.857	0.0165821
751.935	0.0166611
752.013	0.0166930
752.091	0.0167058
752.169	0.0165458
752.247	0.0166097
752.325	0.0165530
752.404	0.0165555
752.482	0.0167852
752.560	0.0168373
752.638	0.0168107
752.716	0.0169082
752.794	0.0170174
752.872	0.0168811
752.950	0.0169221
753.029	0.0168955
753.107	0.0169415
753.185	0.0170162
753.263	0.0168689
753.341	0.0168618
753.419	0.0168030
753.497	0.0168965
753.575	0.0167493
753.654	0.0167365
753.732	0.0164948
753.810	0.0162382
753.888	0.0163148
753.966	0.0161440
754.044	0.0160674
754.122	0.0159438
754.200	0.0158716
754.279	0.0159402
754.357	0.0160652
754.435	0.0158160
754.513	0.0159399
754.591	0.0160181
754.669	0.0158498
754.747	0.0160960
754.825	0.0162360
754.904	0.0161989
754.982	0.0162739
755.060	0.0164112
755.138	0.0165150
755.216	0.0166011
755.294	0.0166637
755.372	0.0166795
755.450	0.0166389
755.529	0.0168121
755.607	0.0168786
755.685	0.0167760
755.763	0.0169656
755.841	0.0167688
755.919	0.0167376
755.997	0.0169227
756.075	0.0169484
756.154	0.0167812
756.232	0.0167929
756.310	0.0168064
756.388	0.0165572
756.466	0.0166295
756.544	0.0164883
756.622	0.0166432
756.700	0.0165859
756.779	0.0165958
756.857	0.0165299
756.935	0.0164479
757.013	0.0164172
757.091	0.0164660
757.169	0.0163488
757.247	0.0164455
757.325	0.0163647
757.404	0.0162513
757.482	0.0163623
757.560	0.0164581
757.638	0.0164354
757.716	0.0163476
757.794	0.0163329
757.872	0.0164007
757.950	0.0162325
758.029	0.0163131
758.107	0.0163406
758.185	0.0163377
758.263	0.0162170
758.341	0.0161836
758.419	0.0161222
758.497	0.0160458
758.575	0.0161068
758.654	0.0159991
758.732	0.0159914
758.810	0.0160975
758.888	0.0162449
758.966	0.0162072
759.044	0.0161586
759.122	0.0163250
759.200	0.0162707
759.279	0.0163061
759.357	0.0163235
759.435	0.0164207
759.513	0.0165814
759.591	0.0164966
759.669	0.0166026
759.747	0.0166123
759.825	0.0167043
759.904	0.0167512
759.982	0.0167033
760.060	0.0168040
760.138	0.0167252
760.216	0.0168373
760.294	0.0165604
760.372	0.0168486
760.450	0.0167431
760.529	0.0167144
760.607	0.0166448
760.685	0.0164793
760.763	0.0164738
760.841	0.0164434
760.919	0.0164647
760.997	0.0163253
761.075	0.0161308
761.154	0.0163895
761.232	0.0162988
761.310	0.0162096
761.388	0.0162711
761.466	0.0160451
761.544	0.0161807
761.622	0.0162552
761.700	0.0159377
761.779	0.0161997
761.857	0.0163567
761.935	0.0164119
762.013	0.0161980
762.091	0.0164028
762.169	0.0165108
762.247	0.0164697
762.325	0.0165031
762.404	0.0164832
762.482	0.0165891
762.560	0.0167492
762.638	0.0166669
762.716	0.0166221
762.794	0.0167331
762.872	0.0167546
762.950	0.0166522
763.029	0.0167007
763.107	0.0168674
763.185	0.0166612
763.263	0.0166915
763.341	0.0167579
763.419	0.0165298
763.497	0.0166228
763.575	0.0166692
763.654	0.0167606
763.732	0.0165970
763.810	0.0165768
763.888	0.0164935
763.966	0.0164869
764.044	0.0164785
764.122	0.0166295
764.200	0.0166654
764.279	0.0165581
764.357	0.0166882
764.435	0.0165670
764.513	0.0164246
764.591	0.0163848
764.669	0.0164281
764.747	0.0162794
764.825	0.0162988
764.904	0.0161841
764.982	0.0162198
765.060	0.0161665
765.138	0.0160897
765.216	0.0159321
765.294	0.0160073
765.372	0.0160394
765.450	0.0161546
765.529	0.0160332
765.607	0.0160160
765.685	0.0160707
765.763	0.0161810
765.841	0.0159363
765.919	0.0160178
765.997	0.0161241
766.075	0.0161993
766.154	0.0162105
766.232	0.0161372
766.310	0.0162110
766.388	0.0163047
766.466	0.0162836
766.544	0.0161883
766.622	0.0163995
766.700	0.0165672
766.779	0.0166082
766.857	0.0165620
766.935	0.0166967
767.013	0.0167397
767.091	0.0168459
767.169	0.0167365
767.247	0.0169260
767.325	0.0168800
767.404	0.0169131
767.482	0.0168011
767.560	0.0167973
767.638	0.0169067
767.716	0.0168391
767.794	0.0168308
767.872	0.0166793
767.950	0.0166322
768.029	0.0165033
768.107	0.0165639
768.185	0.0165414
768.263	0.0166036
768.341	0.0165128
768.419	0.0165583
768.497	0.0164397
768.575	0.0164554
768.654	0.0164594
768.732	0.0163657
768.810	0.0164456
768.888	0.0161978
768.966	0.0164168
769.044	0.0163735
769.122	0.0163705
769.200	0.0163435
769.279	0.0161749
769.357	0.0161584
769.435	0.0160289
769.513	0.0161815
769.591	0.0160821
769.669	0.0160291
769.747	0.0161277
769.825	0.0160912
769.904	0.0160608
769.982	0.0160519
770.060	0.0159715
770.138	0.0159978
770.216	0.0159972
770.294	0.0159399
770.372	0.0160613
770.450	0.0160980
770.529	0.0161425
770.607	0.0163559
770.685	0.0163664
770.763	0.0163721
770.841	0.0165343
770.919	0.0166444
770.997	0.0166928
771.075	0.0168664
771.154	0.0169019
771.232	0.0170901
771.310	0.0169794
771.388	0.0171381
771.466	0.0170228
771.544	0.0172586
771.622	0.0172971
771.700	0.0171481
771.779	0.0171986
771.857	0.0171697
771.935	0.0171346
772.013	0.0171641
772.091	0.0169521
772.169	0.0169772
772.247	0.0168356
772.325	0.0168627
772.404	0.0167429
772.482	0.0165170
772.560	0.0165289
772.638	0.0163364
772.716	0.0164624
772.794	0.0162644
772.872	0.0161034
772.950	0.0161241
773.029	0.0160876
773.107	0.0159167
773.185	0.0158568
773.263	0.0159066
773.341	0.0158131
773.419	0.0158234
773.497	0.0157424
773.575	0.0156950
773.654	0.0157832
773.732	0.0157555
773.810	0.0158270
773.888	0.0158463
773.966	0.0159319
774.044	0.0157381
774.122	0.0159641
774.200	0.0158569
774.279	0.0159486
774.357	0.0159835
774.435	0.0161472
774.513	0.0160818
774.591	0.0162252
774.669	0.0162339
774.747	0.0164072
774.825	0.0163747
774.904	0.0165370
774.982	0.0166808
775.060	0.0166415
775.138	0.0168592
775.216	0.0169791
775.294	0.0169357
775.372	0.0171568
775.450	0.0170784
775.529	0.0171635
775.607	0.0172781
775.685	0.0171740
775.763	0.0172466
775.841	0.0172273
775.919	0.0172879
775.997	0.0173312
776.075	0.0172535
776.154	0.0172643
776.232	0.0171472
776.310	0.0169298
776.388	0.0169993
776.466	0.0169730
776.544	0.0168874
776.622	0.0168105
776.700	0.0166640
776.779	0.0165988
776.857	0.0163928
776.935	0.0162340
777.013	0.0162215
777.091	0.0160361
777.169	0.0158765
777.247	0.0157610
777.325	0.0158972
777.404	0.0156005
777.482	0.0156895
777.560	0.0155186
777.638	0.0155658
777.716	0.0157064
777.794	0.0157420
777.872	0.0157825
777.950	0.0155701
778.029	0.0157780
778.107	0.0158915
778.185	0.0159428
778.263	0.0160830
778.341	0.0161104
778.419	0.0161368
778.497	0.0162141
778.575	0.0161700
778.654	0.0163032
778.732	0.0164449
778.810	0.0162762
778.888	0.0164668
778.966	0.0165733
779.044	0.0165246
779.122	0.0165708
779.200	0.0165993
779.279	0.0166883
779.357	0.0166560
779.435	0.0168140
779.513	0.0168275
779.591	0.0169922
779.669	0.0170482
779.747	0.0170753
779.825	0.0170825
779.904	0.0172015
779.982	0.0172563
780.060	0.0174382
780.138	0.0173897
780.216	0.0174116
780.294	0.0172952
780.372	0.0173170
780.450	0.0172800
780.529	0.0172202
780.607	0.0171408
780.685	0.0169158
780.763	0.0167935
780.841	0.0165912
780.919	0.0165591
780.997	0.0163674
781.075	0.0162952
781.154	0.0162285
781.232	0.0160268
781.310	0.0160139
781.388	0.0159591
781.466	0.0158167
781.544	0.0159171
781.622	0.0160210
781.700	0.0158479
781.779	0.0157842
781.857	0.0156955
781.935	0.0156615
782.013	0.0156885
782.091	0.0157436
782.169	0.0156921
782.247	0.0156046
782.325	0.0156677
782.404	0.0157839
782.482	0.0157182
782.560	0.0159091
782.638	0.0159595
782.716	0.0159377
782.794	0.0159509
782.872	0.0159055
782.950	0.0160723
783.029	0.0160862
783.107	0.0162421
783.185	0.0162090
783.263	0.0162505
783.341	0.0163662
783.419	0.0164637
783.497	0.0166499
783.575	0.0167089
783.654	0.0167283
783.732	0.0168712
783.810	0.0170144
783.888	0.0170689
783.966	0.0172901
784.044	0.0173012
784.122	0.0172206
784.200	0.0173556
784.279	0.0175249
784.357	0.0175500
784.435	0.0175954
784.513	0.0175137
784.591	0.0175493
784.669	0.0175205
784.747	0.0174936
784.825	0.0172655
784.904	0.0172289
784.982	0.0171541
785.060	0.0169351
785.138	0.0167023
785.216	0.0167509
785.294	0.0166012
785.372	0.0163599
785.450	0.0160741
785.529	0.0159728
785.607	0.0156539
785.685	0.0154414
785.763	0.0154702
785.841	0.0153198
785.919	0.0152646
785.997	0.0151345
786.075	0.0151746
786.154	0.0150198
786.232	0.0151552
786.310	0.0152004
786.388	0.0152229
786.466	0.0152406
786.544	0.0153926
786.622	0.0156317
786.700	0.0157424
786.779	0.0159148
786.857	0.0161613
786.935	0.0163925
787.013	0.0165003
787.091	0.0165514
787.169	0.0167943
787.247	0.0168842
787.325	0.0170727
787.404	0.0171518
787.482	0.0170554
787.560	0.0171297
787.638	0.0172033
787.716	0.0173939
787.794	0.0172802
787.872	0.0173809
787.950	0.0173896
788.029	0.0174850
788.107	0.0175690
788.185	0.0174773
788.263	0.0175488
788.341	0.0176816
788.419	0.0177934
788.497	0.0178659
788.575	0.0177330
788.654	0.0178183
788.732	0.0177756
788.810	0.0177686
788.888	0.0176612
788.966	0.0175227
789.044	0.0175530
789.122	0.0173128
789.200	0.0170764
789.279	0.0168560
789.357	0.0167152
789.435	0.0165072
789.513	0.0163686
789.591	0.0159601
789.669	0.0156747
789.747	0.0154887
789.825	0.0151123
789.904	0.0148962
789.982	0.0147980
790.060	0.0146494
790.138	0.0145461
790.216	0.0142693
790.294	0.0144453
790.372	0.0142945
790.450	0.0142685
790.529	0.0142066
790.607	0.0144508
790.685	0.0146772
790.763	0.0148464
790.841	0.0151727
790.919	0.0154498
790.997	0.0154668
791.075	0.0158900
791.154	0.0162036
791.232	0.0162594
791.310	0.0167608
791.388	0.0168996
791.466	0.0171687
791.544	0.0175444
791.622	0.0175236
791.700	0.0176944
791.779	0.0178468
791.857	0.0179826
791.935	0.0182260
792.013	0.0182056
792.091	0.0181090
792.169	0.0182400
792.247	0.0182156
792.325	0.0181631
792.404	0.0182143
792.482	0.0181664
792.560	0.0181197
792.638	0.0180301
792.716	0.0180678
792.794	0.0180026
792.872	0.0178894
792.950	0.0177132
793.029	0.0176067
793.107	0.0173748
793.185	0.0171272
793.263	0.0170590
793.341	0.0167499
793.419	0.0167187
793.497	0.0165939
793.575	0.0162626
793.654	0.0163025
793.732	0.0159436
793.810	0.0156152
793.888	0.0155216
793.966	0.0153036
794.044	0.0152026
794.122	0.0152111
794.200	0.0148986
794.279	0.0146986
794.357	0.0147311
794.435	0.0144859
794.513	0.0144904
794.591	0.0145474
794.669	0.0145802
794.747	0.0145986
794.825	0.0147427
794.904	0.0148832
794.982	0.0149940
795.060	0.0152007
795.138	0.0154052
795.216	0.0155526
795.294	0.0157028
795.372	0.0161394
795.450	0.0163200
795.529	0.0165117
795.607	0.0168194
795.685	0.0170705
795.763	0.0171142
795.841	0.0172498
795.919	0.0175195
795.997	0.0176914
796.075	0.0179339
796.154	0.0179723
796.232	0.0180177
796.310	0.0179019
796.388	0.0179742
796.466	0.0180845
796.544	0.0179847
796.622	0.0178125
796.700	0.0179317
796.779	0.0177707
796.857	0.0178291
796.935	0.0177600
797.013	0.0175564
797.091	0.0175335
797.169	0.0174093
797.247	0.0172782
797.325	0.0171446
797.404	0.0171373
797.482	0.0168526
797.560	0.0167104
797.638	0.0166669
797.716	0.0165971
797.794	0.0163620
797.872	0.0161543
797.950	0.0160781
798.029	0.0158987
798.107	0.0157949
798.185	0.0157378
798.263	0.0155927
798.341	0.0152827
798.419	0.0152891
798.497	0.0152052
798.575	0.0152220
798.654	0.0151845
798.732	0.0151119
798.810	0.0150853
798.888	0.0150416
798.966	0.0150756
799.044	0.0151285
799.122	0.0151144
799.200	0.0153392
799.279	0.0153603
799.357	0.0156658
799.435	0.0156335
799.513	0.0156757
799.591	0.0160435
799.669	0.0161265
799.747	0.0163801
799.825	0.0165642
799.904	0.0165050
799.982	0.0168420
800.060	0.0171127
800.138	0.0173035
800.216	0.0173852
800.294	0.0175362
800.372	0.0174900
800.450	0.0177020
800.529	0.0176594
800.607	0.0177362
800.685	0.0177506
800.763	0.0176943
800.841	0.0177554
800.919	0.0176660
800.997	0.0177719
801.075	0.0174908
801.154	0.0174142
801.232	0.0173891
801.310	0.0173211
801.388	0.0173378
801.466	0.0170714
801.544	0.0171445
801.622	0.0169924
801.700	0.0167591
801.779	0.0166995
801.857	0.0168100
801.935	0.0165502
802.013	0.0163857
802.091	0.0162788
802.169	0.0162929
802.247	0.0161365
802.325	0.0159779
802.404	0.0158958
802.482	0.0159101
802.560	0.0158470
802.638	0.0159265
802.716	0.0156354
802.794	0.0155618
802.872	0.0155193
802.950	0.0155970
803.029	0.0157213
803.107	0.0155853
803.185	0.0156377
803.263	0.0154761
803.341	0.0155807
803.419	0.0155337
803.497	0.0157719
803.575	0.0157108
803.654	0.0157768
803.732	0.0158461
803.810	0.0159795
803.888	0.0160896
803.966	0.0162070
804.044	0.0163559
804.122	0.0165369
804.200	0.0165739
804.279	0.0166614
804.357	0.0168098
804.435	0.0168529
804.513	0.0170862
804.591	0.0169836
804.669	0.0169648
804.747	0.0171626
804.825	0.0171715
804.904	0.0171681
804.982	0.0170236
805.060	0.0170570
805.138	0.0171355
805.216	0.0171086
805.294	0.0171133
805.372	0.0172243
805.450	0.0172455
805.529	0.0171729
805.607	0.0170543
805.685	0.0171318
805.763	0.0171209
805.841	0.0170814
805.919	0.0170397
805.997	0.0169109
806.075	0.0168295
806.154	0.0167921
806.232	0.0168178
806.310	0.0168661
806.388	0.0167353
806.466	0.0166778
806.544	0.0164951
806.622	0.0165350
806.700	0.0164548
806.779	0.0162946
806.857	0.0162516
806.935	0.0161656
807.013	0.0161208
807.091	0.0160275
807.169	0.0159561
807.247	0.0159425
807.325	0.0158736
807.404	0.0159729
807.482	0.0157787
807.560	0.0158896
807.638	0.0159236
807.716	0.0158249
807.794	0.0158910
807.872	0.0159667
807.950	0.0159485
808.029	0.0161051
808.107	0.0161779
808.185	0.0160689
808.263	0.0161397
808.341	0.0161810
808.419	0.0163745
808.497	0.0165313
808.575	0.0165220
808.654	0.0164789
808.732	0.0163835
808.810	0.0165841
808.888	0.0166995
808.966	0.0166429
809.044	0.0164754
809.122	0.0165901
809.200	0.0167574
809.279	0.0168257
809.357	0.0167020
809.435	0.0165953
809.513	0.0167510
809.591	0.0168291
809.669	0.0166209
809.747	0.0168896
809.825	0.0167814
809.904	0.0168989
809.982	0.0169128
810.060	0.0169012
810.138	0.0168916
810.216	0.0168668
810.294	0.0168797
810.372	0.0169057
810.450	0.0168820
810.529	0.0167533
810.607	0.0166898
810.685	0.0167004
810.763	0.0166995
810.841	0.0167300
810.919	0.0166569
810.997	0.0165788
811.075	0.0164929
811.154	0.0163274
811.232	0.0163964
811.310	0.0162804
811.388	0.0161412
811.466	0.0160123
811.544	0.0161171
811.622	0.0161810
811.700	0.0159524
811.779	0.0160961
811.857	0.0160294
811.935	0.0160078
812.013	0.0160641
812.091	0.0161643
812.169	0.0160146
812.247	0.0161500
812.325	0.0162786
812.404	0.0162924
812.482	0.0163208
812.560	0.0163110
812.638	0.0165197
812.716	0.0166071
812.794	0.0166948
812.872	0.0167442
812.950	0.0167815
813.029	0.0166950
813.107	0.0168483
813.185	0.0169100
813.263	0.0168710
813.341	0.0168212
813.419	0.0170110
813.497	0.0169335
813.575	0.0170867
813.654	0.0168714
813.732	0.0168938
813.810	0.0168471
813.888	0.0168235
813.966	0.0168395
814.044	0.0167723
814.122	0.0168257
814.200	0.0166136
814.279	0.0168239
814.357	0.0168413
814.435	0.0166495
814.513	0.0166920
814.591	0.0164952
814.669	0.0165733
814.747	0.0163990
814.825	0.0162894
814.904	0.0163224
814.982	0.0163530
815.060	0.0163001
815.138	0.0161701
815.216	0.0160641
815.294	0.0160726
815.372	0.0160444
815.450	0.0158574
815.529	0.0158234
815.607	0.0158386
815.685	0.0157950
815.763	0.0158896
815.841	0.0158329
815.919	0.0160123
815.997	0.0158585
816.075	0.0159818
816.154	0.0158640
816.232	0.0158148
816.310	0.0160693
816.388	0.0162286
816.466	0.0162489
816.544	0.0163035
816.622	0.0163808
816.700	0.0162904
816.779	0.0165144
816.857	0.0166869
816.935	0.0167456
817.013	0.0168349
817.091	0.0167936
817.169	0.0168833
817.247	0.0170718
817.325	0.0171014
817.404	0.0172310
817.482	0.0172849
817.560	0.0172706
817.638	0.0172726
817.716	0.0172627
817.794	0.0171454
817.872	0.0171632
817.950	0.0173212
818.029	0.0171906
818.107	0.0170628
818.185	0.0170251
818.263	0.0170074
818.341	0.0168832
818.419	0.0167323
818.497	0.0167925
818.575	0.0168039
818.654	0.0166659
818.732	0.0163882
818.810	0.0164442
818.888	0.0163404
818.966	0.0164149
819.044	0.0162804
819.122	0.0161906
819.200	0.0161665
819.279	0.0161956
819.357	0.0160957
819.435	0.0159132
819.513	0.0160152
819.591	0.0159174
819.669	0.0158760
819.747	0.0158517
819.825	0.0157706
819.904	0.0158946
819.982	0.0158289
820.060	0.0158286
820.138	0.0158675
820.216	0.0158418
820.294	0.0158628
820.372	0.0158292
820.450	0.0159905
820.529	0.0161701
820.607	0.0159962
820.685	0.0161861
820.763	0.0162070
820.841	0.0162746
820.919	0.0163493
820.997	0.0165081
821.075	0.0165950
821.154	0.0167117
821.232	0.0167295
821.310	0.0167108
821.388	0.0168189
821.466	0.0168836
821.544	0.0169463
821.622	0.0169965
821.700	0.0170169
821.779	0.0170750
821.857	0.0170736
821.935	0.0170271
822.013	0.0168559
822.091	0.0167719
822.169	0.0169481
822.247	0.0169325
822.325	0.0168060
822.404	0.0167168
822.482	0.0167499
822.560	0.0168462
822.638	0.0169107
822.716	0.0167302
822.794	0.0166470
822.872	0.0166344
822.950	0.0165459
823.029	0.0165827
823.107	0.0165311
823.185	0.0164574
823.263	0.0164191
823.341	0.0165081
823.419	0.0165100
823.497	0.0165184
823.575	0.0163815
823.654	0.0164081
823.732	0.0163120
823.810	0.0162968
823.888	0.0161964
823.966	0.0162059
824.044	0.0160917
824.122	0.0163145
824.200	0.0160664
824.279	0.0161197
824.357	0.0158968
824.435	0.0160863
824.513	0.0159471
824.591	0.0160890
824.669	0.0159761
824.747	0.0159158
824.825	0.0159607
824.904	0.0160223
824.982	0.0159844
825.060	0.0160656
825.138	0.0160143
825.216	0.0159852
825.294	0.0161620
825.372	0.0161639
825.450	0.0162005
825.529	0.0164220
825.607	0.0164143
825.685	0.0164413
825.763	0.0165446
825.841	0.0167079
825.919	0.0166611
825.997	0.0167236
826.075	0.0167319
826.154	0.0168777
826.232	0.0168517
826.310	0.0167714
826.388	0.0169112
826.466	0.0167378
826.544	0.0168704
826.622	0.0169968
826.700	0.0169118
826.779	0.0168109
826.857	0.0168669
826.935	0.0168347
827.013	0.0167464
827.091	0.0167592
827.169	0.0167338
827.247	0.0165871
827.325	0.0167075
827.404	0.0166784
827.482	0.0167005
827.560	0.0166103
827.638	0.0166290
827.716	0.0166783
827.794	0.0164731
827.872	0.0164577
827.950	0.0164435
828.029	0.0164964
828.107	0.0163432
828.185	0.0162863
828.263	0.0164409
828.341	0.0163472
828.419	0.0162585
828.497	0.0161584
828.575	0.0162180
828.654	0.0163063
828.732	0.0162643
828.810	0.0161531
828.888	0.0161172
828.966	0.0160127
829.044	0.0161417
829.122	0.0161388
829.200	0.0161909
829.279	0.0160838
829.357	0.0160686
829.435	0.0160481
829.513	0.0161789
829.591	0.0161882
829.669	0.0161405
829.747	0.0161610
829.825	0.0161105
829.904	0.0161787
829.982	0.0163062
830.060	0.0163493
830.138	0.0163775
830.216	0.0164841
830.294	0.0165176
830.372	0.0164224
830.450	0.0165659
830.529	0.0166410
830.607	0.0165675
830.685	0.0165237
830.763	0.0166628
830.841	0.0166113
830.919	0.0167461
830.997	0.0166978
831.075	0.0166594
831.154	0.0167203
831.232	0.0166794
831.310	0.0167268
831.388	0.0167545
831.466	0.0166006
831.544	0.0167401
831.622	0.0166824
831.700	0.0165913
831.779	0.0167466
831.857	0.0166253
831.935	0.0165335
832.013	0.0164806
832.091	0.0164797
832.169	0.0165506
832.247	0.0162978
832.325	0.0162648
832.404	0.0163404
832.482	0.0162756
832.560	0.0162733
832.638	0.0162647
832.716	0.0163732
832.794	0.0162672
832.872	0.0161683
832.950	0.0162074
833.029	0.0163007
833.107	0.0163805
833.185	0.0162457
833.263	0.0162886
833.341	0.0163359
833.419	0.0162334
833.497	0.0162462
833.575	0.0163492
833.654	0.0162886
833.732	0.0162710
833.810	0.0163816
833.888	0.0163688
833.966	0.0165949
834.044	0.0165196
834.122	0.0165821
834.200	0.0166084
834.279	0.0165679
834.357	0.0166252
834.435	0.0165115
834.513	0.0166221
834.591	0.0166534
834.669	0.0165524
834.747	0.0165977
834.825	0.0166851
834.904	0.0168243
834.982	0.0167471
835.060	0.0166343
835.138	0.0164812
835.216	0.0166100
835.294	0.0166559
835.372	0.0165836
835.450	0.0163535
835.529	0.0166303
835.607	0.0164512
835.685	0.0164710
835.763	0.0164651
835.841	0.0164845
835.919	0.0164429
835.997	0.0164162
836.075	0.0163440
836.154	0.0163976
836.232	0.0162772
836.310	0.0163690
836.388	0.0163068
836.466	0.0163865
836.544	0.0163973
836.622	0.0163316
836.700	0.0163136
836.779	0.0162396
836.857	0.0163042
836.935	0.0163613
837.013	0.0163332
837.091	0.0163647
837.169	0.0163129
837.247	0.0163670
837.325	0.0163307
837.404	0.0164157
837.482	0.0162675
837.560	0.0163786
837.638	0.0165063
837.716	0.0163367
837.794	0.0163129
837.872	0.0163435
837.950	0.0164445
838.029	0.0164284
838.107	0.0164721
838.185	0.0163409
838.263	0.0163929
838.341	0.0162579
838.419	0.0164013
838.497	0.0164763
838.575	0.0164999
838.654	0.0165398
838.732	0.0165936
838.810	0.0165800
838.888	0.0165493
838.966	0.0166185
839.044	0.0165868
839.122	0.0166718
839.200	0.0167117
839.279	0.0167529
839.357	0.0166551
839.435	0.0165961
839.513	0.0166666
839.591	0.0166142
839.669	0.0166380
839.747	0.0167260
839.825	0.0164625
839.904	0.0166205
839.982	0.0165668
840.060	0.0165253
840.138	0.0164173
840.216	0.0163648
840.294	0.0163763
840.372	0.0165266
840.450	0.0163445
840.529	0.0163338
840.607	0.0162544
840.685	0.0163470
840.763	0.0163686
840.841	0.0164651
840.919	0.0163451
840.997	0.0162061
841.075	0.0162992
841.154	0.0163204
841.232	0.0163427
841.310	0.0162949
841.388	0.0164100
841.466	0.0163354
841.544	0.0164337
841.622	0.0163186
841.700	0.0163569
841.779	0.0164806
841.857	0.0161977
841.935	0.0162817
842.013	0.0163982
842.091	0.0164101
842.169	0.0164391
842.247	0.0164004
842.325	0.0162540
842.404	0.0162060
842.482	0.0163652
842.560	0.0163179
842.638	0.0165290
842.716	0.0162762
842.794	0.0162231
842.872	0.0164893
842.950	0.0163837
843.029	0.0164717
843.107	0.0165762
843.185	0.0164827
843.263	0.0165674
843.341	0.0165556
843.419	0.0166956
843.497	0.0168154
843.575	0.0166283
843.654	0.0166360
843.732	0.0165852
843.810	0.0166103
843.888	0.0167359
843.966	0.0165981
844.044	0.0166033
844.122	0.0166218
844.200	0.0164580
844.279	0.0164117
844.357	0.0164101
844.435	0.0162520
844.513	0.0164112
844.591	0.0162941
844.669	0.0162540
844.747	0.0162831
844.825	0.0163051
844.904	0.0164182
844.982	0.0164216
845.060	0.0162736
845.138	0.0163708
845.216	0.0164788
845.294	0.0164516
845.372	0.0164910
845.450	0.0165606
845.529	0.0164213
845.607	0.0165185
845.685	0.0165443
845.763	0.0164130
845.841	0.0164486
845.919	0.0165392
845.997	0.0164254
846.075	0.0164136
846.154	0.0165348
846.232	0.0164748
846.310	0.0163970
846.388	0.0163072
846.466	0.0162302
846.544	0.0162466
846.622	0.0162402
846.700	0.0162798
846.779	0.0162583
846.857	0.0161641
846.935	0.0163142
847.013	0.0161985
847.091	0.0162170
847.169	0.0161572
847.247	0.0161632
847.325	0.0162247
847.404	0.0163840
847.482	0.0163666
847.560	0.0164576
847.638	0.0163629
847.716	0.0163158
847.794	0.0166473
847.872	0.0167427
847.950	0.0167558
848.029	0.0166846
848.107	0.0166769
848.185	0.0167413
848.263	0.0167815
848.341	0.0167764
848.419	0.0166782
848.497	0.0166867
848.575	0.0167124
848.654	0.0166348
848.732	0.0166731
848.810	0.0166440
848.888	0.0164304
848.966	0.0165179
849.044	0.0165176
849.122	0.0163040
849.200	0.0161547
849.279	0.0163631
849.357	0.0161115
849.435	0.0161440
849.513	0.0162236
849.591	0.0162521
849.669	0.0164151
849.747	0.0163803
849.825	0.0162318
849.904	0.0161586
849.982	0.0163235
850.060	0.0163201
850.138	0.0164387
850.216	0.0164497
850.294	0.0165952
850.372	0.0163335
850.450	0.0165077
850.529	0.0164999
850.607	0.0164381
850.685	0.0164555
850.763	0.0163107
850.841	0.0164940
850.919	0.0162991
850.997	0.0162284
851.075	0.0162425
851.154	0.0162978
851.232	0.0162328
851.310	0.0162431
851.388	0.0161012
851.466	0.0161241
851.544	0.0161633
851.622	0.0161482
851.700	0.0162180
851.779	0.0163498
851.857	0.0163148
851.935	0.0163999
852.013	0.0163634
852.091	0.0164004
852.169	0.0166115
852.247	0.0167422
852.325	0.0166245
852.404	0.0167107
852.482	0.0168894
852.560	0.0168616
852.638	0.0167500
852.716	0.0168878
852.794	0.0168987
852.872	0.0168281
852.950	0.0168059
853.029	0.0165865
853.107	0.0167611
853.185	0.0166856
853.263	0.0165276
853.341	0.0166783
853.419	0.0165855
853.497	0.0164402
853.575	0.0163778
853.654	0.0163442
853.732	0.0163627
853.810	0.0164645
853.888	0.0163300
853.966	0.0163355
854.044	0.0163634
854.122	0.0162702
854.200	0.0163638
854.279	0.0164133
854.357	0.0164213
854.435	0.0164034
854.513	0.0164005
854.591	0.0164471
854.669	0.0164291
854.747	0.0163626
854.825	0.0164149
854.904	0.0164851
854.982	0.0164532
855.060	0.0164609
855.138	0.0162400
855.216	0.0163340
855.294	0.0163123
855.372	0.0161968
855.450	0.0162144
855.529	0.0161801
855.607	0.0161903
855.685	0.0161103
855.763	0.0161912
855.841	0.0162179
855.919	0.0161916
855.997	0.0162922
856.075	0.0162537
856.154	0.0162549
856.232	0.0164059
856.310	0.0163432
856.388	0.0164758
856.466	0.0165703
856.544	0.0164997
856.622	0.0165850
856.700	0.0167107
856.779	0.0166656
856.857	0.0166610
856.935	0.0166921
857.013	0.0167666
857.091	0.0168631
857.169	0.0166400
857.247	0.0167190
857.325	0.0166761
857.404	0.0166060
857.482	0.0166764
857.560	0.0167767
857.638	0.0165820
857.716	0.0165854
857.794	0.0165203
857.872	0.0164346
857.950	0.0165303
858.029	0.0165742
858.107	0.0163858
858.185	0.0164626
858.263	0.0164094
858.341	0.0163878
858.419	0.0166203
858.497	0.0165111
858.575	0.0164330
858.654	0.0164137
858.732	0.0163538
858.810	0.0165786
858.888	0.0165070
858.966	0.0165568
859.044	0.0165405
859.122	0.0164275
859.200	0.0164682
859.279	0.0164215
859.357	0.0166216
859.435	0.0163856
859.513	0.0163979
859.591	0.0163470
859.669	0.0163254
859.747	0.0162762
859.825	0.0161367
859.904	0.0161246
859.982	0.0161284
860.060	0.0160892
860.138	0.0160963
860.216	0.0161190
860.294	0.0160139
860.372	0.0162236
860.450	0.0162465
860.529	0.0162411
860.607	0.0162305
860.685	0.0162636
860.763	0.0162796
860.841	0.0163469
860.919	0.0164195
860.997	0.0163532
861.075	0.0163969
861.154	0.0164057
861.232	0.0164105
861.310	0.0164207
861.388	0.0165825
861.466	0.0165311
861.544	0.0164751
861.622	0.0164513
861.700	0.0164371
861.779	0.0164426
861.857	0.0164862
861.935	0.0165655
862.013	0.0165255
862.091	0.0165112
862.169	0.0164034
862.247	0.0165427
862.325	0.0166772
862.404	0.0164906
862.482	0.0165482
862.560	0.0165083
862.638	0.0166171
862.716	0.0166265
862.794	0.0166002
862.872	0.0165772
862.950	0.0166193
863.029	0.0165623
863.107	0.0166002
863.185	0.0165863
863.263	0.0167397
863.341	0.0166294
863.419	0.0166344
863.497	0.0167586
863.575	0.0166058
863.654	0.0164867
863.732	0.0165016
863.810	0.0164280
863.888	0.0165105
863.966	0.0164314
864.044	0.0164131
864.122	0.0164168
864.200	0.0163712
864.279	0.0164114
864.357	0.0161821
864.435	0.0162640
864.513	0.0162524
864.591	0.0162421
864.669	0.0162243
864.747	0.0161020
864.825	0.0162550
864.904	0.0161974
864.982	0.0162823
865.060	0.0163245
865.138	0.0164097
865.216	0.0163549
865.294	0.0163451
865.372	0.0163927
865.450	0.0164015
865.529	0.0164732
865.607	0.0165608
865.685	0.0164595
865.763	0.0165411
865.841	0.0165043
865.919	0.0164404
865.997	0.0165937
866.075	0.0165643
866.154	0.0165705
866.232	0.0165201
866.310	0.0166109
866.388	0.0167474
866.466	0.0167252
866.544	0.0166981
866.622	0.0166747
866.700	0.0168254
866.779	0.0167234
866.857	0.0168995
866.935	0.0168023
867.013	0.0167596
867.091	0.0167854
867.169	0.0168470
867.247	0.0165905
867.325	0.0168625
867.404	0.0167847
867.482	0.0166022
867.560	0.0165684
867.638	0.0166532
867.716	0.0164628
867.794	0.0164986
867.872	0.0165519
867.950	0.0165636
868.029	0.0164577
868.107	0.0164326
868.185	0.0164986
868.263	0.0162518
868.341	0.0162261
868.419	0.0164197
868.497	0.0162218
868.575	0.0162984
868.654	0.0162258
868.732	0.0162033
868.810	0.0162164
868.888	0.0161365
868.966	0.0161855
869.044	0.0162651
869.122	0.0161114
869.200	0.0161683
869.279	0.0163667
869.357	0.0162335
869.435	0.0161153
869.513	0.0161909
869.591	0.0163483
869.669	0.0164006
869.747	0.0163149
869.825	0.0164307
869.904	0.0165408
869.982	0.0165268
870.060	0.0165395
870.138	0.0165414
870.216	0.0167029
870.294	0.0166108
870.372	0.0167220
870.450	0.0167607
870.529	0.0166627
870.607	0.0166438
870.685	0.0167987
870.763	0.0166404
870.841	0.0166281
870.919	0.0165767
870.997	0.0165376
871.075	0.0167041
871.154	0.0165574
871.232	0.0166263
871.310	0.0165217
871.388	0.0167503
871.466	0.0167243
871.544	0.0166498
871.622	0.0168244
871.700	0.0167863
871.779	0.0168730
871.857	0.0168256
871.935	0.0167941
872.013	0.0167503
872.091	0.0166231
872.169	0.0167117
872.247	0.0165343
872.325	0.0164601
872.404	0.0163883
872.482	0.0164702
872.560	0.0163710
872.638	0.0161868
872.716	0.0162528
872.794	0.0161666
872.872	0.0162011
872.950	0.0162054
873.029	0.0161827
873.107	0.0160226
873.185	0.0161019
873.263	0.0162141
873.341	0.0162998
873.419	0.0162514
873.497	0.0163090
873.575	0.0164545
873.654	0.0163273
873.732	0.0163028
873.810	0.0164874
873.888	0.0163850
873.966	0.0164986
874.044	0.0165170
874.122	0.0164789
874.200	0.0164806
874.279	0.0166258
874.357	0.0165704
874.435	0.0165059
874.513	0.0165805
874.591	0.0164254
874.669	0.0166006
874.747	0.0164934
874.825	0.0165161
874.904	0.0164447
874.982	0.0165409
875.060	0.0164445
875.138	0.0165222
875.216	0.0164915
875.294	0.0164503
875.372	0.0166135
875.450	0.0166795
875.529	0.0166514
875.607	0.0166182
875.685	0.0167218
875.763	0.0166982
875.841	0.0165813
875.919	0.0164594
875.997	0.0165078
876.075	0.0166010
876.154	0.0166032
876.232	0.0164017
876.310	0.0165267
876.388	0.0164929
876.466	0.0165418
876.544	0.0165003
876.622	0.0166085
876.700	0.0166565
876.779	0.0166800
876.857	0.0165681
876.935	0.0165199
877.013	0.0166291
877.091	0.0165467
877.169	0.0163951
877.247	0.0163943
877.325	0.0162203
877.404	0.0160711
877.482	0.0161401
877.560	0.0161123
877.638	0.0160616
877.716	0.0160324
877.794	0.0160752
877.872	0.0160316
877.950	0.0160481
878.029	0.0161405
878.107	0.0162008
878.185	0.0162904
878.263	0.0164003
878.341	0.0164218
878.419	0.0165527
878.497	0.0166800
878.575	0.0167401
878.654	0.0167954
878.732	0.0168045
878.810	0.0167625
878.888	0.0167353
878.966	0.0167985
879.044	0.0168568
879.122	0.0170085
879.200	0.0169786
879.279	0.0170035
879.357	0.0168536
879.435	0.0169418
879.513	0.0169734
879.591	0.0168840
879.669	0.0169127
879.747	0.0166885
879.825	0.0167802
879.904	0.0166858
879.982	0.0166153
880.060	0.0165012
880.138	0.0163634
880.216	0.0163358
880.294	0.0161714
880.372	0.0161623
880.450	0.0161298
880.529	0.0160656
880.607	0.0159797
880.685	0.0160428
880.763	0.0160233
880.841	0.0159420
880.919	0.0161391
880.997	0.0160014
881.075	0.0160167
881.154	0.0161713
881.232	0.0160952
881.310	0.0160040
881.388	0.0161109
881.466	0.0160941
881.544	0.0161745
881.622	0.0162358
881.700	0.0162873
881.779	0.0163589
881.857	0.0163958
881.935	0.0163631
882.013	0.0165810
882.091	0.0165903
882.169	0.0167500
882.247	0.0168026
882.325	0.0169109
882.404	0.0169169
882.482	0.0170591
882.560	0.0170445
882.638	0.0171106
882.716	0.0170718
882.794	0.0170589
882.872	0.0170491
882.950	0.0170264
883.029	0.0169057
883.107	0.0167728
883.185	0.0168594
883.263	0.0167454
883.341	0.0167556
883.419	0.0167523
883.497	0.0166248
883.575	0.0165409
883.654	0.0167226
883.732	0.0166734
883.810	0.0166003
883.888	0.0166817
883.966	0.0165942
884.044	0.0166074
884.122	0.0165248
884.200	0.0165512
884.279	0.0165838
884.357	0.0166888
884.435	0.0165569
884.513	0.0163146
884.591	0.0162590
884.669	0.0161352
884.747	0.0161411
884.825	0.0160177
884.904	0.0159652
884.982	0.0160249
885.060	0.0159172
885.138	0.0157565
885.216	0.0158885
885.294	0.0158472
885.372	0.0158253
885.450	0.0158257
885.529	0.0159521
885.607	0.0160105
885.685	0.0160869
885.763	0.0161459
885.841	0.0161942
885.919	0.0161248
885.997	0.0162985
886.075	0.0162914
886.154	0.0164208
886.232	0.0164017
886.310	0.0165501
886.388	0.0167015
886.466	0.0166763
886.544	0.0166258
886.622	0.0170461
886.700	0.0170839
886.779	0.0171437
886.857	0.0170711
886.935	0.0172031
887.013	0.0172693
887.091	0.0173208
887.169	0.0171819
887.247	0.0171455
887.325	0.0173090
887.404	0.0171180
887.482	0.0169010
887.560	0.0168030
887.638	0.0167016
887.716	0.0167072
887.794	0.0167114
887.872	0.0166759
887.950	0.0165207
888.029	0.0165092
888.107	0.0164969
888.185	0.0163573
888.263	0.0163395
888.341	0.0163564
888.419	0.0163084
888.497	0.0161910
888.575	0.0162235
888.654	0.0161323
888.732	0.0160360
888.810	0.0161629
888.888	0.0160639
888.966	0.0161350
889.044	0.0160847
889.122	0.0161777
889.200	0.0163055
889.279	0.0162183
889.357	0.0162086
889.435	0.0162912
889.513	0.0162483
889.591	0.0162527
889.669	0.0162298
889.747	0.0161661
889.825	0.0163644
889.904	0.0163486
889.982	0.0162252
890.060	0.0164214
890.138	0.0165526
890.216	0.0165207
890.294	0.0165934
890.372	0.0168106
890.450	0.0167070
890.529	0.0169546
890.607	0.0169942
890.685	0.0170847
890.763	0.0170884
890.841	0.0168533
890.919	0.0172308
890.997	0.0172209
891.075	0.0169917
891.154	0.0169672
891.232	0.0170010
891.310	0.0168999
891.388	0.0168551
891.466	0.0166167
891.544	0.0165467
891.622	0.0164774
891.700	0.0163203
891.779	0.0162352
891.857	0.0161892
891.935	0.0163032
892.013	0.0162037
892.091	0.0161364
892.169	0.0160363
892.247	0.0162951
892.325	0.0163269
892.404	0.0162219
892.482	0.0163538
892.560	0.0162855
892.638	0.0162688
892.716	0.0163372
892.794	0.0164349
892.872	0.0164851
892.950	0.0163495
893.029	0.0163966
893.107	0.0164089
893.185	0.0163659
893.263	0.0163369
893.341	0.0164076
893.419	0.0162833
893.497	0.0163556
893.575	0.0164854
893.654	0.0163174
893.732	0.0162578
893.810	0.0162659
893.888	0.0163261
893.966	0.0163451
894.044	0.0164235
894.122	0.0163612
894.200	0.0164283
894.279	0.0164582
894.357	0.0164568
894.435	0.0166647
894.513	0.0166242
894.591	0.0165271
894.669	0.0166545
894.747	0.0167832
894.825	0.0167198
894.904	0.0167231
894.982	0.0168033
895.060	0.0166767
895.138	0.0169195
895.216	0.0168626
895.294	0.0167426
895.372	0.0168746
895.450	0.0169109
895.529	0.0167511
895.607	0.0168308
895.685	0.0169842
895.763	0.0168778
895.841	0.0167561
895.919	0.0165499
895.997	0.0166236
896.075	0.0163996
896.154	0.0163942
896.232	0.0164062
896.310	0.0162332
896.388	0.0162682
896.466	0.0161101
896.544	0.0159512
896.622	0.0159039
896.700	0.0159837
896.779	0.0160824
896.857	0.0160015
896.935	0.0160981
897.013	0.0160841
897.091	0.0161204
897.169	0.0161067
897.247	0.0161622
897.325	0.0163751
897.404	0.0163887
897.482	0.0164256
897.560	0.0164159
897.638	0.0165673
897.716	0.0166228
897.794	0.0166082
897.872	0.0166367
897.950	0.0166977
898.029	0.0165587
898.107	0.0165115
898.185	0.0166543
898.263	0.0166099
898.341	0.0165458
898.419	0.0167622
898.497	0.0165506
898.575	0.0165941
898.654	0.0167064
898.732	0.0166707
898.810	0.0166660
898.888	0.0167377
898.966	0.0167503
899.044	0.0166535
899.122	0.0167773
899.200	0.0167809
899.279	0.0166740
899.357	0.0167858
899.435	0.0167696
899.513	0.0167720
899.591	0.0166626
899.669	0.0167135
899.747	0.0167816
899.825	0.0168307
899.904	0.0166035
899.982	0.0167363
900.060	0.0167900
900.138	0.0167995
900.216	0.0166145
900.294	0.0166026
900.372	0.0166528
900.450	0.0164465
900.529	0.0164339
900.607	0.0163335
900.685	0.0162035
900.763	0.0163330
900.841	0.0163053
900.919	0.0160648
900.997	0.0163359
901.075	0.0163569
901.154	0.0162489
901.232	0.0163296
901.310	0.0163267
901.388	0.0162647
901.466	0.0162717
901.544	0.0162199
901.622	0.0164924
901.700	0.0163625
901.779	0.0164877
901.857	0.0164172
901.935	0.0164172
902.013	0.0164531
902.091	0.0163389
902.169	0.0165450
902.247	0.0165415
902.325	0.0164379
902.404	0.0165038
902.482	0.0164247
902.560	0.0164904
902.638	0.0164649
902.716	0.0165426
902.794	0.0163029
902.872	0.0164256
902.950	0.0163553
903.029	0.0163914
903.107	0.0164933
903.185	0.0164291
903.263	0.0164357
903.341	0.0165631
903.419	0.0165044
903.497	0.0166988
903.575	0.0168119
903.654	0.0166890
903.732	0.0167252
903.810	0.0167267
903.888	0.0167152
903.966	0.0167253
904.044	0.0167622
904.122	0.0168493
904.200	0.0167282
904.279	0.0167906
904.357	0.0168465
904.435	0.0167412
904.513	0.0167995
904.591	0.0166791
904.669	0.0165235
904.747	0.0165784
904.825	0.0166459
904.904	0.0164931
904.982	0.0164970
905.060	0.0163236
905.138	0.0163962
905.216	0.0163795
905.294	0.0163764
905.372	0.0162225
905.450	0.0162254
905.529	0.0162355
905.607	0.0163207
905.685	0.0162863
905.763	0.0163960
905.841	0.0163174
905.919	0.0163168
905.997	0.0163944
906.075	0.0164353
906.154	0.0163914
906.232	0.0164058
906.310	0.0164124
906.388	0.0164394
906.466	0.0163963
906.544	0.0164024
906.622	0.0163897
906.700	0.0162479
906.779	0.0163706
906.857	0.0162194
906.935	0.0162639
907.013	0.0163046
907.091	0.0162919
907.169	0.0161776
907.247	0.0163053
907.325	0.0162141
907.404	0.0163053
907.482	0.0164183
907.560	0.0165202
907.638	0.0165755
907.716	0.0165623
907.794	0.0166544
907.872	0.0165900
907.950	0.0166193
908.029	0.0168147
908.107	0.0166548
908.185	0.0168040
908.263	0.0167975
908.341	0.0169601
908.419	0.0167484
908.497	0.0168349
908.575	0.0167181
908.654	0.0167118
908.732	0.0167031
908.810	0.0166890
908.888	0.0166554
908.966	0.0166734
909.044	0.0165901
909.122	0.0166104
909.200	0.0166994
909.279	0.0165736
909.357	0.0165949
909.435	0.0166893
909.513	0.0165116
909.591	0.0163648
909.669	0.0165052
909.747	0.0165931
909.825	0.0166063
909.904	0.0163984
909.982	0.0163046
910.060	0.0162464
910.138	0.0164119
910.216	0.0162979
910.294	0.0162272
910.372	0.0161057
910.450	0.0160910
910.529	0.0161874
910.607	0.0161287
910.685	0.0160933
910.763	0.0161217
910.841	0.0161649
910.919	0.0160529
910.997	0.0161374
911.075	0.0161990
911.154	0.0160624
911.232	0.0161989
911.310	0.0163441
911.388	0.0163848
911.466	0.0161938
911.544	0.0162961
911.622	0.0165203
911.700	0.0166572
911.779	0.0166702
911.857	0.0166730
911.935	0.0167345
912.013	0.0167094
912.091	0.0168276
912.169	0.0169922
912.247	0.0168806
912.325	0.0169162
912.404	0.0169859
912.482	0.0168597
912.560	0.0168434
912.638	0.0167762
912.716	0.0167509
912.794	0.0168131
912.872	0.0166141
912.950	0.0166434
913.029	0.0166968
913.107	0.0164389
913.185	0.0164393
913.263	0.0165315
913.341	0.0164738
913.419	0.0164373
913.497	0.0162994
913.575	0.0165029
913.654	0.0165604
913.732	0.0164520
913.810	0.0164742
913.888	0.0164428
913.966	0.0165104
914.044	0.0165633
914.122	0.0165630
914.200	0.0165353
914.279	0.0165680
914.357	0.0164617
914.435	0.0164937
914.513	0.0164261
914.591	0.0163680
914.669	0.0164002
914.747	0.0160695
914.825	0.0161153
914.904	0.0160970
914.982	0.0160871
915.060	0.0159444
915.138	0.0159609
915.216	0.0161396
915.294	0.0160146
915.372	0.0161518
915.450	0.0160184
915.529	0.0162193
915.607	0.0162594
915.685	0.0161977
915.763	0.0161511
915.841	0.0162896
915.919	0.0164227
915.997	0.0163551
916.075	0.0166411
916.154	0.0164486
916.232	0.0163907
916.310	0.0165880
916.388	0.0165908
916.466	0.0166326
916.544	0.0167364
916.622	0.0167076
916.700	0.0167383
916.779	0.0166106
916.857	0.0168042
916.935	0.0167585
917.013	0.0168687
917.091	0.0168818
917.169	0.0167910
917.247	0.0166549
917.325	0.0167944
917.404	0.0166418
917.482	0.0165871
917.560	0.0167552
917.638	0.0167258
917.716	0.0166735
917.794	0.0167110
917.872	0.0166162
917.950	0.0166158
918.029	0.0166394
918.107	0.0166519
918.185	0.0166672
918.263	0.0164781
918.341	0.0165102
918.419	0.0164952
918.497	0.0164706
918.575	0.0164587
918.654	0.0163656
918.732	0.0164343
918.810	0.0163422
918.888	0.0162621
918.966	0.0162592
919.044	0.0162695
919.122	0.0162361
919.200	0.0162331
919.279	0.0161642
919.357	0.0160926
919.435	0.0162173
919.513	0.0161520
919.591	0.0162313
919.669	0.0162136
919.747	0.0162302
919.825	0.0160175
919.904	0.0160105
