06/03/2022	14:05:35	Ver.	4.1	UNKNOWN
Optical Delay	599.981738	Delta X		0.078125	Sweeps	1	Scan Rate	0/0
Coordinates	Axis 1	NaN	Axis 2	NaN	Axis 3	NaN	Axis 4	NaN	Axis 5	NaN	Axis 6	0.000000
TX Power	0.000000	RX Power	0.000000

599.982	0.0166422
600.060	0.0166064
600.138	0.0166530
600.216	0.0167171
600.294	0.0166538
600.372	0.0166139
600.450	0.0167278
600.529	0.0167498
600.607	0.0165715
600.685	0.0166828
600.763	0.0167332
600.841	0.0165293
600.919	0.0165479
600.997	0.0166637
601.075	0.0166927
601.154	0.0166037
601.232	0.0166934
601.310	0.0166592
601.388	0.0166427
601.466	0.0166370
601.544	0.0166824
601.622	0.0168211
601.700	0.0166579
601.779	0.0166862
601.857	0.0166686
601.935	0.0164951
602.013	0.0167422
602.091	0.0166914
602.169	0.0166280
602.247	0.0167265
602.325	0.0166936
602.404	0.0166302
602.482	0.0165685
602.560	0.0166908
602.638	0.0166944
602.716	0.0166383
602.794	0.0166891
602.872	0.0166340
602.950	0.0167165
603.029	0.0167512
603.107	0.0168147
603.185	0.0165353
603.263	0.0165897
603.341	0.0166443
603.419	0.0166107
603.497	0.0166297
603.575	0.0165884
603.654	0.0166781
603.732	0.0167020
603.810	0.0165999
603.888	0.0165889
603.966	0.0166557
604.044	0.0166717
604.122	0.0165552
604.200	0.0166074
604.279	0.0167172
604.357	0.0166653
604.435	0.0166544
604.513	0.0167069
604.591	0.0164971
604.669	0.0167377
604.747	0.0166026
604.825	0.0166666
604.904	0.0165865
604.982	0.0166486
605.060	0.0168793
605.138	0.0166862
605.216	0.0164970
605.294	0.0165562
605.372	0.0166187
605.450	0.0166257
605.529	0.0167448
605.607	0.0166508
605.685	0.0166336
605.763	0.0167807
605.841	0.0165583
605.919	0.0166035
605.997	0.0166689
606.075	0.0166657
606.154	0.0166196
606.232	0.0165005
606.310	0.0165828
606.388	0.0166916
606.466	0.0165947
606.544	0.0167496
606.622	0.0166766
606.700	0.0165924
606.779	0.0166302
606.857	0.0166879
606.935	0.0166694
607.013	0.0167200
607.091	0.0165551
607.169	0.0165550
607.247	0.0165981
607.325	0.0166399
607.404	0.0165009
607.482	0.0166315
607.560	0.0166598
607.638	0.0165273
607.716	0.0167020
607.794	0.0166167
607.872	0.0166515
607.950	0.0166619
608.029	0.0166483
608.107	0.0165961
608.185	0.0165872
608.263	0.0166180
608.341	0.0165266
608.419	0.0167389
608.497	0.0165445
608.575	0.0164639
608.654	0.0165916
608.732	0.0167522
608.810	0.0167120
608.888	0.0166230
608.966	0.0165917
609.044	0.0165472
609.122	0.0165097
609.200	0.0166528
609.279	0.0166225
609.357	0.0165796
609.435	0.0166555
609.513	0.0165562
609.591	0.0164710
609.669	0.0164400
609.747	0.0165192
609.825	0.0165844
609.904	0.0166505
609.982	0.0167585
610.060	0.0165871
610.138	0.0165482
610.216	0.0166149
610.294	0.0166735
610.372	0.0164846
610.450	0.0165501
610.529	0.0166763
610.607	0.0166923
610.685	0.0165447
610.763	0.0165479
610.841	0.0168280
610.919	0.0167445
610.997	0.0166668
611.075	0.0165427
611.154	0.0166521
611.232	0.0166742
611.310	0.0167111
611.388	0.0166841
611.466	0.0166342
611.544	0.0167401
611.622	0.0167854
611.700	0.0165500
611.779	0.0167118
611.857	0.0167274
611.935	0.0166398
612.013	0.0167406
612.091	0.0166412
612.169	0.0166393
612.247	0.0166330
612.325	0.0166840
612.404	0.0165498
612.482	0.0166072
612.560	0.0166526
612.638	0.0166634
612.716	0.0164400
612.794	0.0165332
612.872	0.0165158
612.950	0.0166084
613.029	0.0165868
613.107	0.0164776
613.185	0.0166077
613.263	0.0165602
613.341	0.0165807
613.419	0.0165508
613.497	0.0166314
613.575	0.0166854
613.654	0.0164910
613.732	0.0165162
613.810	0.0166595
613.888	0.0166840
613.966	0.0165530
614.044	0.0165234
614.122	0.0165092
614.200	0.0166837
614.279	0.0166167
614.357	0.0164288
614.435	0.0165189
614.513	0.0166987
614.591	0.0165477
614.669	0.0165385
614.747	0.0165662
614.825	0.0165128
614.904	0.0165174
614.982	0.0166513
615.060	0.0166949
615.138	0.0166792
615.216	0.0166021
615.294	0.0165960
615.372	0.0165349
615.450	0.0166998
615.529	0.0167402
615.607	0.0166727
615.685	0.0167435
615.763	0.0167423
615.841	0.0167280
615.919	0.0167627
615.997	0.0167644
616.075	0.0165659
616.154	0.0167429
616.232	0.0166327
616.310	0.0166658
616.388	0.0166826
616.466	0.0166481
616.544	0.0167015
616.622	0.0166329
616.700	0.0165527
616.779	0.0165347
616.857	0.0166824
616.935	0.0166634
617.013	0.0166290
617.091	0.0167606
617.169	0.0167462
617.247	0.0165111
617.325	0.0165195
617.404	0.0165206
617.482	0.0166279
617.560	0.0165488
617.638	0.0165545
617.716	0.0165775
617.794	0.0166965
617.872	0.0165775
617.950	0.0167000
618.029	0.0165788
618.107	0.0166226
618.185	0.0165315
618.263	0.0164906
618.341	0.0166462
618.419	0.0166547
618.497	0.0165704
618.575	0.0166035
618.654	0.0165660
618.732	0.0165378
618.810	0.0165951
618.888	0.0165919
618.966	0.0165041
619.044	0.0165033
619.122	0.0164687
619.200	0.0165660
619.279	0.0165905
619.357	0.0165829
619.435	0.0166801
619.513	0.0165208
619.591	0.0167160
619.669	0.0166721
619.747	0.0166103
619.825	0.0167533
619.904	0.0165819
619.982	0.0167052
620.060	0.0166911
620.138	0.0167088
620.216	0.0166898
620.294	0.0167419
620.372	0.0167423
620.450	0.0166653
620.529	0.0166043
620.607	0.0167558
620.685	0.0167426
620.763	0.0166504
620.841	0.0167307
620.919	0.0166680
620.997	0.0166981
621.075	0.0165946
621.154	0.0165993
621.232	0.0166287
621.310	0.0167429
621.388	0.0164945
621.466	0.0165863
621.544	0.0165644
621.622	0.0166517
621.700	0.0166157
621.779	0.0166618
621.857	0.0167179
621.935	0.0166185
622.013	0.0166676
622.091	0.0166229
622.169	0.0164322
622.247	0.0165797
622.325	0.0165521
622.404	0.0165803
622.482	0.0165943
622.560	0.0165189
622.638	0.0166654
622.716	0.0166834
622.794	0.0166605
622.872	0.0166261
622.950	0.0166655
623.029	0.0166685
623.107	0.0166010
623.185	0.0165311
623.263	0.0166640
623.341	0.0165794
623.419	0.0165129
623.497	0.0163412
623.575	0.0166714
623.654	0.0165405
623.732	0.0166667
623.810	0.0166734
623.888	0.0165505
623.966	0.0164571
624.044	0.0166412
624.122	0.0165995
624.200	0.0166251
624.279	0.0167027
624.357	0.0165947
624.435	0.0166451
624.513	0.0165884
624.591	0.0165532
624.669	0.0167567
624.747	0.0166135
624.825	0.0166283
624.904	0.0166970
624.982	0.0166415
625.060	0.0165863
625.138	0.0165630
625.216	0.0164636
625.294	0.0166349
625.372	0.0166050
625.450	0.0166135
625.529	0.0166518
625.607	0.0165576
625.685	0.0166196
625.763	0.0165932
625.841	0.0165293
625.919	0.0166309
625.997	0.0167152
626.075	0.0166147
626.154	0.0164416
626.232	0.0166042
626.310	0.0165649
626.388	0.0164526
626.466	0.0166480
626.544	0.0164925
626.622	0.0164796
626.700	0.0166677
626.779	0.0165200
626.857	0.0164661
626.935	0.0164512
627.013	0.0166804
627.091	0.0166291
627.169	0.0165614
627.247	0.0166231
627.325	0.0165737
627.404	0.0167020
627.482	0.0167223
627.560	0.0164733
627.638	0.0166041
627.716	0.0167661
627.794	0.0167782
627.872	0.0165871
627.950	0.0165469
628.029	0.0165432
628.107	0.0167550
628.185	0.0166341
628.263	0.0166272
628.341	0.0166631
628.419	0.0165295
628.497	0.0165739
628.575	0.0165274
628.654	0.0166296
628.732	0.0167010
628.810	0.0165489
628.888	0.0165408
628.966	0.0166894
629.044	0.0167407
629.122	0.0167622
629.200	0.0165917
629.279	0.0167311
629.357	0.0166309
629.435	0.0167137
629.513	0.0167104
629.591	0.0166140
629.669	0.0166964
629.747	0.0165954
629.825	0.0165099
629.904	0.0166407
629.982	0.0167593
630.060	0.0167475
630.138	0.0166511
630.216	0.0166724
630.294	0.0165511
630.372	0.0166394
630.450	0.0165350
630.529	0.0165133
630.607	0.0167180
630.685	0.0167319
630.763	0.0165540
630.841	0.0166603
630.919	0.0165567
630.997	0.0166998
631.075	0.0166518
631.154	0.0166351
631.232	0.0165948
631.310	0.0166660
631.388	0.0165658
631.466	0.0166565
631.544	0.0166102
631.622	0.0166390
631.700	0.0165419
631.779	0.0166052
631.857	0.0166792
631.935	0.0166236
632.013	0.0164792
632.091	0.0165951
632.169	0.0165868
632.247	0.0166147
632.325	0.0166369
632.404	0.0165749
632.482	0.0166177
632.560	0.0165835
632.638	0.0166356
632.716	0.0166315
632.794	0.0165398
632.872	0.0165798
632.950	0.0166029
633.029	0.0164759
633.107	0.0165460
633.185	0.0165590
633.263	0.0166206
633.341	0.0166381
633.419	0.0165141
633.497	0.0165833
633.575	0.0166697
633.654	0.0166853
633.732	0.0166306
633.810	0.0166068
633.888	0.0165983
633.966	0.0165691
634.044	0.0166681
634.122	0.0166237
634.200	0.0165919
634.279	0.0165543
634.357	0.0166686
634.435	0.0166306
634.513	0.0166003
634.591	0.0166721
634.669	0.0166155
634.747	0.0166358
634.825	0.0165547
634.904	0.0165190
634.982	0.0165950
635.060	0.0165697
635.138	0.0165430
635.216	0.0164378
635.294	0.0166705
635.372	0.0166569
635.450	0.0165664
635.529	0.0166253
635.607	0.0166383
635.685	0.0166830
635.763	0.0164680
635.841	0.0164539
635.919	0.0165134
635.997	0.0165585
636.075	0.0166496
636.154	0.0165055
636.232	0.0165804
636.310	0.0167073
636.388	0.0167209
636.466	0.0165849
636.544	0.0164470
636.622	0.0166092
636.700	0.0167723
636.779	0.0166415
636.857	0.0165662
636.935	0.0166095
637.013	0.0166102
637.091	0.0164217
637.169	0.0166592
637.247	0.0166663
637.325	0.0165907
637.404	0.0165913
637.482	0.0165395
637.560	0.0166789
637.638	0.0165375
637.716	0.0165501
637.794	0.0166459
637.872	0.0166429
637.950	0.0166516
638.029	0.0165073
638.107	0.0165965
638.185	0.0166135
638.263	0.0167036
638.341	0.0165755
638.419	0.0166994
638.497	0.0167086
638.575	0.0165818
638.654	0.0165639
638.732	0.0165343
638.810	0.0166572
638.888	0.0167100
638.966	0.0165477
639.044	0.0166591
639.122	0.0165291
639.200	0.0166271
639.279	0.0164700
639.357	0.0165972
639.435	0.0166042
639.513	0.0166006
639.591	0.0165633
639.669	0.0166366
639.747	0.0166519
639.825	0.0166495
639.904	0.0166161
639.982	0.0167645
640.060	0.0165961
640.138	0.0166063
640.216	0.0164403
640.294	0.0166013
640.372	0.0167029
640.450	0.0164970
640.529	0.0166854
640.607	0.0166023
640.685	0.0166183
640.763	0.0165006
640.841	0.0166444
640.919	0.0165092
640.997	0.0166285
641.075	0.0166774
641.154	0.0166432
641.232	0.0165654
641.310	0.0167316
641.388	0.0166323
641.466	0.0165964
641.544	0.0166341
641.622	0.0164319
641.700	0.0165324
641.779	0.0165541
641.857	0.0165639
641.935	0.0166412
642.013	0.0165640
642.091	0.0165484
642.169	0.0166074
642.247	0.0164767
642.325	0.0166895
642.404	0.0166365
642.482	0.0166125
642.560	0.0165236
642.638	0.0165401
642.716	0.0166137
642.794	0.0165036
642.872	0.0165530
642.950	0.0165933
643.029	0.0165509
643.107	0.0165244
643.185	0.0166420
643.263	0.0167500
643.341	0.0166874
643.419	0.0165502
643.497	0.0165508
643.575	0.0164899
643.654	0.0166193
643.732	0.0166182
643.810	0.0165983
643.888	0.0166401
643.966	0.0166299
644.044	0.0166090
644.122	0.0165726
644.200	0.0166911
644.279	0.0166537
644.357	0.0166084
644.435	0.0166095
644.513	0.0165032
644.591	0.0166209
644.669	0.0166215
644.747	0.0165212
644.825	0.0165865
644.904	0.0168391
644.982	0.0165360
645.060	0.0165159
645.138	0.0167276
645.216	0.0167770
645.294	0.0166595
645.372	0.0165737
645.450	0.0165733
645.529	0.0166856
645.607	0.0166591
645.685	0.0166710
645.763	0.0167139
645.841	0.0167538
645.919	0.0168150
645.997	0.0165789
646.075	0.0164834
646.154	0.0166299
646.232	0.0166124
646.310	0.0166978
646.388	0.0166105
646.466	0.0167600
646.544	0.0166292
646.622	0.0165317
646.700	0.0166237
646.779	0.0166290
646.857	0.0165782
646.935	0.0166309
647.013	0.0165997
647.091	0.0166018
647.169	0.0165639
647.247	0.0166341
647.325	0.0167050
647.404	0.0166982
647.482	0.0166268
647.560	0.0165730
647.638	0.0166187
647.716	0.0165958
647.794	0.0166230
647.872	0.0167510
647.950	0.0166218
648.029	0.0166077
648.107	0.0166676
648.185	0.0165943
648.263	0.0166315
648.341	0.0166935
648.419	0.0164753
648.497	0.0165855
648.575	0.0167223
648.654	0.0165964
648.732	0.0166434
648.810	0.0166538
648.888	0.0165269
648.966	0.0165112
649.044	0.0166528
649.122	0.0165542
649.200	0.0165915
649.279	0.0164738
649.357	0.0166684
649.435	0.0167037
649.513	0.0166446
649.591	0.0165234
649.669	0.0166673
649.747	0.0166498
649.825	0.0166615
649.904	0.0165083
649.982	0.0166654
650.060	0.0166724
650.138	0.0166730
650.216	0.0166415
650.294	0.0165227
650.372	0.0166680
650.450	0.0166237
650.529	0.0167033
650.607	0.0164608
650.685	0.0165916
650.763	0.0165921
650.841	0.0166042
650.919	0.0165601
650.997	0.0164418
651.075	0.0167625
651.154	0.0166245
651.232	0.0165138
651.310	0.0166835
651.388	0.0165891
651.466	0.0166277
651.544	0.0166255
651.622	0.0165360
651.700	0.0165149
651.779	0.0165465
651.857	0.0166906
651.935	0.0165283
652.013	0.0164265
652.091	0.0166046
652.169	0.0166405
652.247	0.0166724
652.325	0.0166135
652.404	0.0166076
652.482	0.0164930
652.560	0.0166076
652.638	0.0166114
652.716	0.0167999
652.794	0.0166421
652.872	0.0166053
652.950	0.0164916
653.029	0.0166480
653.107	0.0166442
653.185	0.0165723
653.263	0.0166129
653.341	0.0166337
653.419	0.0165829
653.497	0.0165871
653.575	0.0166055
653.654	0.0166806
653.732	0.0167361
653.810	0.0165185
653.888	0.0166496
653.966	0.0167270
654.044	0.0165784
654.122	0.0165852
654.200	0.0165474
654.279	0.0167355
654.357	0.0165005
654.435	0.0166207
654.513	0.0167420
654.591	0.0165993
654.669	0.0166801
654.747	0.0166313
654.825	0.0166809
654.904	0.0166391
654.982	0.0165292
655.060	0.0165794
655.138	0.0166883
655.216	0.0166735
655.294	0.0165355
655.372	0.0166771
655.450	0.0165684
655.529	0.0166306
655.607	0.0165895
655.685	0.0165802
655.763	0.0165379
655.841	0.0166502
655.919	0.0166988
655.997	0.0166451
656.075	0.0166920
656.154	0.0166686
656.232	0.0167885
656.310	0.0165632
656.388	0.0166633
656.466	0.0166073
656.544	0.0165562
656.622	0.0167094
656.700	0.0166629
656.779	0.0165912
656.857	0.0166497
656.935	0.0166403
657.013	0.0165159
657.091	0.0166671
657.169	0.0167184
657.247	0.0165587
657.325	0.0165727
657.404	0.0164938
657.482	0.0167229
657.560	0.0166824
657.638	0.0166408
657.716	0.0165835
657.794	0.0165965
657.872	0.0166139
657.950	0.0166586
658.029	0.0165823
658.107	0.0165596
658.185	0.0167410
658.263	0.0166239
658.341	0.0165176
658.419	0.0166890
658.497	0.0165472
658.575	0.0165765
658.654	0.0166219
658.732	0.0166988
658.810	0.0165535
658.888	0.0165787
658.966	0.0165777
659.044	0.0166036
659.122	0.0165975
659.200	0.0165311
659.279	0.0165793
659.357	0.0165617
659.435	0.0165331
659.513	0.0166022
659.591	0.0166802
659.669	0.0165723
659.747	0.0165191
659.825	0.0167309
659.904	0.0165927
659.982	0.0167003
660.060	0.0166561
660.138	0.0166163
660.216	0.0166634
660.294	0.0165672
660.372	0.0165972
660.450	0.0166492
660.529	0.0166350
660.607	0.0166153
660.685	0.0165096
660.763	0.0166212
660.841	0.0167505
660.919	0.0167047
660.997	0.0166595
661.075	0.0166238
661.154	0.0166827
661.232	0.0166168
661.310	0.0166145
661.388	0.0165617
661.466	0.0165292
661.544	0.0165701
661.622	0.0166065
661.700	0.0166635
661.779	0.0166148
661.857	0.0165535
661.935	0.0166301
662.013	0.0165823
662.091	0.0165739
662.169	0.0166399
662.247	0.0166072
662.325	0.0165211
662.404	0.0164863
662.482	0.0166850
662.560	0.0167091
662.638	0.0165968
662.716	0.0166295
662.794	0.0165304
662.872	0.0165015
662.950	0.0164204
663.029	0.0166325
663.107	0.0165358
663.185	0.0165204
663.263	0.0165288
663.341	0.0165450
663.419	0.0165239
663.497	0.0164943
663.575	0.0166849
663.654	0.0165806
663.732	0.0166418
663.810	0.0166856
663.888	0.0168662
663.966	0.0165974
664.044	0.0166898
664.122	0.0165651
664.200	0.0166100
664.279	0.0166009
664.357	0.0164986
664.435	0.0165405
664.513	0.0165444
664.591	0.0166090
664.669	0.0164830
664.747	0.0164458
664.825	0.0164568
664.904	0.0165527
664.982	0.0164987
665.060	0.0165863
665.138	0.0166570
665.216	0.0166882
665.294	0.0166239
665.372	0.0167433
665.450	0.0166936
665.529	0.0167558
665.607	0.0167346
665.685	0.0166971
665.763	0.0168037
665.841	0.0166910
665.919	0.0167265
665.997	0.0166234
666.075	0.0166105
666.154	0.0165150
666.232	0.0167366
666.310	0.0166279
666.388	0.0164896
666.466	0.0165833
666.544	0.0166074
666.622	0.0164386
666.700	0.0166148
666.779	0.0164766
666.857	0.0165943
666.935	0.0165032
667.013	0.0166732
667.091	0.0165216
667.169	0.0167128
667.247	0.0166576
667.325	0.0166310
667.404	0.0166255
667.482	0.0165475
667.560	0.0165563
667.638	0.0164272
667.716	0.0164789
667.794	0.0165366
667.872	0.0164558
667.950	0.0164987
668.029	0.0165084
668.107	0.0163351
668.185	0.0165697
668.263	0.0165424
668.341	0.0165770
668.419	0.0167196
668.497	0.0164680
668.575	0.0164867
668.654	0.0165622
668.732	0.0165154
668.810	0.0166085
668.888	0.0165329
668.966	0.0164729
669.044	0.0166657
669.122	0.0165800
669.200	0.0166477
669.279	0.0166965
669.357	0.0167331
669.435	0.0166591
669.513	0.0167608
669.591	0.0167821
669.669	0.0167846
669.747	0.0167390
669.825	0.0168579
669.904	0.0168556
669.982	0.0168842
670.060	0.0166582
670.138	0.0165920
670.216	0.0165500
670.294	0.0164536
670.372	0.0164701
670.450	0.0165437
670.529	0.0164301
670.607	0.0163655
670.685	0.0163969
670.763	0.0164433
670.841	0.0163541
670.919	0.0162850
670.997	0.0162996
671.075	0.0164742
671.154	0.0166653
671.232	0.0165513
671.310	0.0164996
671.388	0.0166494
671.466	0.0167432
671.544	0.0168488
671.622	0.0168031
671.700	0.0168471
671.779	0.0170168
671.857	0.0169656
671.935	0.0167754
672.013	0.0166721
672.091	0.0167816
672.169	0.0168125
672.247	0.0165401
672.325	0.0166508
672.404	0.0165776
672.482	0.0166206
672.560	0.0167166
672.638	0.0166137
672.716	0.0165919
672.794	0.0164932
672.872	0.0166032
672.950	0.0166537
673.029	0.0166026
673.107	0.0166147
673.185	0.0165975
673.263	0.0166191
673.341	0.0165314
673.419	0.0166804
673.497	0.0165054
673.575	0.0165169
673.654	0.0164280
673.732	0.0163544
673.810	0.0165946
673.888	0.0164960
673.966	0.0163274
674.044	0.0164259
674.122	0.0163830
674.200	0.0164108
674.279	0.0165078
674.357	0.0165927
674.435	0.0165523
674.513	0.0165807
674.591	0.0167342
674.669	0.0168585
674.747	0.0166254
674.825	0.0166869
674.904	0.0167288
674.982	0.0168495
675.060	0.0168048
675.138	0.0169735
675.216	0.0168455
675.294	0.0168993
675.372	0.0167061
675.450	0.0167956
675.529	0.0167145
675.607	0.0167092
675.685	0.0167074
675.763	0.0168143
675.841	0.0167137
675.919	0.0168709
675.997	0.0166995
676.075	0.0166177
676.154	0.0167819
676.232	0.0165218
676.310	0.0166438
676.388	0.0164651
676.466	0.0164823
676.544	0.0166121
676.622	0.0164466
676.700	0.0165990
676.779	0.0165996
676.857	0.0166005
676.935	0.0166325
677.013	0.0168480
677.091	0.0169727
677.169	0.0169116
677.247	0.0169678
677.325	0.0169341
677.404	0.0168985
677.482	0.0169276
677.560	0.0171128
677.638	0.0168445
677.716	0.0169352
677.794	0.0168806
677.872	0.0169182
677.950	0.0169717
678.029	0.0168230
678.107	0.0170857
678.185	0.0171301
678.263	0.0170135
678.341	0.0168807
678.419	0.0167578
678.497	0.0167743
678.575	0.0164986
678.654	0.0162484
678.732	0.0159467
678.810	0.0156802
678.888	0.0153093
678.966	0.0150319
679.044	0.0150545
679.122	0.0148383
679.200	0.0148717
679.279	0.0150700
679.357	0.0153376
679.435	0.0156657
679.513	0.0158907
679.591	0.0163630
679.669	0.0165932
679.747	0.0169395
679.825	0.0173034
679.904	0.0176315
679.982	0.0177383
680.060	0.0179590
680.138	0.0181095
680.216	0.0179910
680.294	0.0181973
680.372	0.0181535
680.450	0.0178897
680.529	0.0176266
680.607	0.0174176
680.685	0.0171593
680.763	0.0168106
680.841	0.0165015
680.919	0.0163808
680.997	0.0162667
681.075	0.0161210
681.154	0.0162150
681.232	0.0160898
681.310	0.0161346
681.388	0.0163531
681.466	0.0165393
681.544	0.0168340
681.622	0.0171478
681.700	0.0173739
681.779	0.0175457
681.857	0.0179471
681.935	0.0180275
682.013	0.0183418
682.091	0.0183978
682.169	0.0182966
682.247	0.0181203
682.325	0.0180293
682.404	0.0176491
682.482	0.0173505
682.560	0.0169921
682.638	0.0164863
682.716	0.0162641
682.794	0.0157986
682.872	0.0153395
682.950	0.0152018
683.029	0.0149413
683.107	0.0148882
683.185	0.0148611
683.263	0.0148772
683.341	0.0150077
683.419	0.0150949
683.497	0.0153112
683.575	0.0153240
683.654	0.0154775
683.732	0.0153672
683.810	0.0153316
683.888	0.0150076
683.966	0.0148761
684.044	0.0145640
684.122	0.0144081
684.200	0.0143301
684.279	0.0143548
684.357	0.0145702
684.435	0.0147983
684.513	0.0152645
684.591	0.0159721
684.669	0.0167323
684.747	0.0173550
684.825	0.0181588
684.904	0.0187307
684.982	0.0193260
685.060	0.0197893
685.138	0.0200568
685.216	0.0204043
685.294	0.0203367
685.372	0.0202464
685.450	0.0200910
685.529	0.0195816
685.607	0.0190875
685.685	0.0187373
685.763	0.0184195
685.841	0.0179787
685.919	0.0174892
685.997	0.0171400
686.075	0.0167809
686.154	0.0164915
686.232	0.0162544
686.310	0.0160782
686.388	0.0160141
686.466	0.0159117
686.544	0.0156441
686.622	0.0155580
686.700	0.0157104
686.779	0.0155852
686.857	0.0153771
686.935	0.0153770
687.013	0.0154017
687.091	0.0154302
687.169	0.0156358
687.247	0.0158976
687.325	0.0164520
687.404	0.0169721
687.482	0.0175591
687.560	0.0181221
687.638	0.0186075
687.716	0.0191377
687.794	0.0196001
687.872	0.0200027
687.950	0.0200766
688.029	0.0201511
688.107	0.0197799
688.185	0.0192200
688.263	0.0186933
688.341	0.0180528
688.419	0.0169559
688.497	0.0158871
688.575	0.0148318
688.654	0.0137280
688.732	0.0125575
688.810	0.0113840
688.888	0.0104767
688.966	0.00940544
689.044	0.00865654
689.122	0.00797592
689.200	0.00795029
689.279	0.00792793
689.357	0.00802544
689.435	0.00861343
689.513	0.00924934
689.591	0.0100269
689.669	0.0110385
689.747	0.0121608
689.825	0.0134293
689.904	0.0146507
689.982	0.0161223
690.060	0.0174071
690.138	0.0186677
690.216	0.0201290
690.294	0.0213395
690.372	0.0225943
690.450	0.0236799
690.529	0.0246975
690.607	0.0253551
690.685	0.0260907
690.763	0.0263541
690.841	0.0264670
690.919	0.0263912
690.997	0.0263384
691.075	0.0261861
691.154	0.0258194
691.232	0.0251392
691.310	0.0244985
691.388	0.0236994
691.466	0.0228359
691.544	0.0216942
691.622	0.0206703
691.700	0.0195258
691.779	0.0184462
691.857	0.0173300
691.935	0.0166371
692.013	0.0157724
692.091	0.0150468
692.169	0.0146113
692.247	0.0140829
692.325	0.0138143
692.404	0.0133338
692.482	0.0131773
692.560	0.0126778
692.638	0.0123706
692.716	0.0120144
692.794	0.0113132
692.872	0.0108466
692.950	0.0101337
693.029	0.00954849
693.107	0.00878769
693.185	0.00823921
693.263	0.00757553
693.341	0.00686935
693.419	0.00636703
693.497	0.00604393
693.575	0.00585136
693.654	0.00561432
693.732	0.00562439
693.810	0.00580940
693.888	0.00633636
693.966	0.00693405
694.044	0.00802948
694.122	0.00934494
694.200	0.0111020
694.279	0.0128176
694.357	0.0149202
694.435	0.0172231
694.513	0.0196743
694.591	0.0220975
694.669	0.0244849
694.747	0.0267659
694.825	0.0287227
694.904	0.0302792
694.982	0.0315296
695.060	0.0324449
695.138	0.0328428
695.216	0.0325600
695.294	0.0320240
695.372	0.0311894
695.450	0.0301852
695.529	0.0288431
695.607	0.0276965
695.685	0.0260905
695.763	0.0248274
695.841	0.0233715
695.919	0.0219032
695.997	0.0205120
696.075	0.0194219
696.154	0.0180587
696.232	0.0169147
696.310	0.0158947
696.388	0.0151009
696.466	0.0140028
696.544	0.0132433
696.622	0.0125507
696.700	0.0116592
696.779	0.0109884
696.857	0.0104214
696.935	0.00971970
697.013	0.00939064
697.091	0.00904457
697.169	0.00847557
697.247	0.00821396
697.325	0.00794510
697.404	0.00774712
697.482	0.00743057
697.560	0.00724434
697.638	0.00724419
697.716	0.00692276
697.794	0.00676682
697.872	0.00691673
697.950	0.00698517
698.029	0.00709747
698.107	0.00733948
698.185	0.00779732
698.263	0.00833473
698.341	0.00944656
698.419	0.0105698
698.497	0.0120191
698.575	0.0138740
698.654	0.0158109
698.732	0.0177118
698.810	0.0199739
698.888	0.0221857
698.966	0.0243213
699.044	0.0263184
699.122	0.0280575
699.200	0.0296503
699.279	0.0307018
699.357	0.0314615
699.435	0.0318243
699.513	0.0316100
699.591	0.0310123
699.669	0.0300029
699.747	0.0289927
699.825	0.0272618
699.904	0.0257776
699.982	0.0241206
700.060	0.0223504
700.138	0.0205448
700.216	0.0188836
700.294	0.0172155
700.372	0.0158228
700.450	0.0146456
700.529	0.0135017
700.607	0.0127577
700.685	0.0120440
700.763	0.0114016
700.841	0.0111238
700.919	0.0107829
700.997	0.0106516
701.075	0.0105566
701.154	0.0105664
701.232	0.0107333
701.310	0.0107324
701.388	0.0110728
701.466	0.0113136
701.544	0.0116806
701.622	0.0121259
701.700	0.0126370
701.779	0.0129811
701.857	0.0132519
701.935	0.0135573
702.013	0.0137464
702.091	0.0140259
702.169	0.0139894
702.247	0.0138750
702.325	0.0137493
702.404	0.0136941
702.482	0.0135827
702.560	0.0134018
702.638	0.0131839
702.716	0.0131860
702.794	0.0131773
702.872	0.0132631
702.950	0.0137679
703.029	0.0141961
703.107	0.0148542
703.185	0.0157069
703.263	0.0167999
703.341	0.0180824
703.419	0.0191979
703.497	0.0205179
703.575	0.0220441
703.654	0.0232561
703.732	0.0242976
703.810	0.0251030
703.888	0.0257661
703.966	0.0262960
704.044	0.0263332
704.122	0.0259104
704.200	0.0254345
704.279	0.0246663
704.357	0.0239449
704.435	0.0228114
704.513	0.0216799
704.591	0.0204686
704.669	0.0190689
704.747	0.0180534
704.825	0.0170161
704.904	0.0159070
704.982	0.0152098
705.060	0.0145387
705.138	0.0140369
705.216	0.0138644
705.294	0.0136549
705.372	0.0133255
705.450	0.0133720
705.529	0.0132698
705.607	0.0131582
705.685	0.0130637
705.763	0.0130100
705.841	0.0130523
705.919	0.0128755
705.997	0.0127505
706.075	0.0127863
706.154	0.0130441
706.232	0.0132205
706.310	0.0134399
706.388	0.0139390
706.466	0.0140699
706.544	0.0143581
706.622	0.0148190
706.700	0.0152201
706.779	0.0152238
706.857	0.0154584
706.935	0.0156071
707.013	0.0157017
707.091	0.0157880
707.169	0.0157151
707.247	0.0157388
707.325	0.0157124
707.404	0.0156056
707.482	0.0156764
707.560	0.0156790
707.638	0.0158486
707.716	0.0159405
707.794	0.0163519
707.872	0.0166358
707.950	0.0171976
708.029	0.0176508
708.107	0.0181503
708.185	0.0185769
708.263	0.0191025
708.341	0.0196027
708.419	0.0197766
708.497	0.0199214
708.575	0.0199171
708.654	0.0199985
708.732	0.0200677
708.810	0.0197581
708.888	0.0195970
708.966	0.0192615
709.044	0.0190588
709.122	0.0186206
709.200	0.0183044
709.279	0.0178481
709.357	0.0176176
709.435	0.0174901
709.513	0.0173152
709.591	0.0171949
709.669	0.0173109
709.747	0.0173250
709.825	0.0173950
709.904	0.0176102
709.982	0.0178448
710.060	0.0177995
710.138	0.0177647
710.216	0.0179472
710.294	0.0178958
710.372	0.0178511
710.450	0.0178813
710.529	0.0175668
710.607	0.0171833
710.685	0.0169113
710.763	0.0165325
710.841	0.0162287
710.919	0.0158106
710.997	0.0152938
711.075	0.0149838
711.154	0.0146955
711.232	0.0143430
711.310	0.0142044
711.388	0.0140947
711.466	0.0138651
711.544	0.0137601
711.622	0.0136250
711.700	0.0134612
711.779	0.0133745
711.857	0.0131448
711.935	0.0131081
712.013	0.0132320
712.091	0.0131596
712.169	0.0133096
712.247	0.0135337
712.325	0.0141129
712.404	0.0144733
712.482	0.0150845
712.560	0.0154746
712.638	0.0161656
712.716	0.0167051
712.794	0.0171803
712.872	0.0176240
712.950	0.0179288
713.029	0.0181185
713.107	0.0183582
713.185	0.0185993
713.263	0.0186749
713.341	0.0185633
713.419	0.0185828
713.497	0.0185502
713.575	0.0182440
713.654	0.0182187
713.732	0.0181337
713.810	0.0180518
713.888	0.0179956
713.966	0.0180182
714.044	0.0181824
714.122	0.0183321
714.200	0.0184318
714.279	0.0185531
714.357	0.0188145
714.435	0.0190012
714.513	0.0190792
714.591	0.0192068
714.669	0.0192115
714.747	0.0190603
714.825	0.0188077
714.904	0.0187831
714.982	0.0185730
715.060	0.0182117
715.138	0.0176752
715.216	0.0172413
715.294	0.0166492
715.372	0.0162000
715.450	0.0157136
715.529	0.0151959
715.607	0.0147337
715.685	0.0143198
715.763	0.0141524
715.841	0.0137376
715.919	0.0135650
715.997	0.0134975
716.075	0.0133434
716.154	0.0133038
716.232	0.0132032
716.310	0.0132055
716.388	0.0134184
716.466	0.0136086
716.544	0.0137312
716.622	0.0141021
716.700	0.0145365
716.779	0.0149108
716.857	0.0151225
716.935	0.0156089
717.013	0.0161058
717.091	0.0165337
717.169	0.0169958
717.247	0.0175551
717.325	0.0177262
717.404	0.0180390
717.482	0.0181096
717.560	0.0182085
717.638	0.0183003
717.716	0.0182098
717.794	0.0181461
717.872	0.0181161
717.950	0.0179017
718.029	0.0179156
718.107	0.0176997
718.185	0.0176981
718.263	0.0177474
718.341	0.0177303
718.419	0.0177575
718.497	0.0178001
718.575	0.0179476
718.654	0.0179347
718.732	0.0178957
718.810	0.0179118
718.888	0.0179661
718.966	0.0178673
719.044	0.0178754
719.122	0.0177713
719.200	0.0175327
719.279	0.0173942
719.357	0.0171699
719.435	0.0169911
719.513	0.0167566
719.591	0.0163240
719.669	0.0161379
719.747	0.0159471
719.825	0.0156670
719.904	0.0154204
719.982	0.0152006
720.060	0.0152290
720.138	0.0151574
720.216	0.0149731
720.294	0.0149586
720.372	0.0149217
720.450	0.0147549
720.529	0.0148721
720.607	0.0148277
720.685	0.0148618
720.763	0.0149464
720.841	0.0149967
720.919	0.0152464
720.997	0.0152672
721.075	0.0155393
721.154	0.0157908
721.232	0.0158875
721.310	0.0162994
721.388	0.0163963
721.466	0.0166390
721.544	0.0168884
721.622	0.0172010
721.700	0.0173588
721.779	0.0174360
721.857	0.0177007
721.935	0.0180389
722.013	0.0179468
722.091	0.0180972
722.169	0.0180709
722.247	0.0180786
722.325	0.0180329
722.404	0.0180103
722.482	0.0178284
722.560	0.0175991
722.638	0.0175111
722.716	0.0173788
722.794	0.0172018
722.872	0.0172743
722.950	0.0170071
723.029	0.0168991
723.107	0.0167527
723.185	0.0167869
723.263	0.0168449
723.341	0.0168778
723.419	0.0169279
723.497	0.0167734
723.575	0.0168179
723.654	0.0169439
723.732	0.0167060
723.810	0.0168410
723.888	0.0167201
723.966	0.0165354
724.044	0.0164234
724.122	0.0162981
724.200	0.0162267
724.279	0.0161905
724.357	0.0160561
724.435	0.0159042
724.513	0.0157893
724.591	0.0158162
724.669	0.0156635
724.747	0.0154778
724.825	0.0155268
724.904	0.0156501
724.982	0.0156047
725.060	0.0156174
725.138	0.0157301
725.216	0.0155502
725.294	0.0157330
725.372	0.0158981
725.450	0.0159252
725.529	0.0161687
725.607	0.0162997
725.685	0.0164337
725.763	0.0167014
725.841	0.0169408
725.919	0.0171776
725.997	0.0173457
726.075	0.0175384
726.154	0.0177367
726.232	0.0179099
726.310	0.0180505
726.388	0.0181618
726.466	0.0182057
726.544	0.0181628
726.622	0.0180292
726.700	0.0182290
726.779	0.0181368
726.857	0.0179132
726.935	0.0179578
727.013	0.0177490
727.091	0.0178072
727.169	0.0173980
727.247	0.0174846
727.325	0.0173258
727.404	0.0169813
727.482	0.0169281
727.560	0.0168281
727.638	0.0166541
727.716	0.0163943
727.794	0.0162726
727.872	0.0160017
727.950	0.0160008
728.029	0.0158551
728.107	0.0156707
728.185	0.0156030
728.263	0.0155956
728.341	0.0154877
728.419	0.0154835
728.497	0.0153841
728.575	0.0154313
728.654	0.0155030
728.732	0.0155817
728.810	0.0154713
728.888	0.0156481
728.966	0.0156512
729.044	0.0157141
729.122	0.0158167
729.200	0.0158871
729.279	0.0161312
729.357	0.0159965
729.435	0.0161991
729.513	0.0162624
729.591	0.0162264
729.669	0.0163262
729.747	0.0163586
729.825	0.0162696
729.904	0.0164369
729.982	0.0164011
730.060	0.0165441
730.138	0.0165727
730.216	0.0165697
730.294	0.0165447
730.372	0.0167583
730.450	0.0167783
730.529	0.0166841
730.607	0.0168364
730.685	0.0170589
730.763	0.0172617
730.841	0.0172988
730.919	0.0173982
730.997	0.0176597
731.075	0.0178147
731.154	0.0180028
731.232	0.0180337
731.310	0.0180872
731.388	0.0182693
731.466	0.0182870
731.544	0.0182912
731.622	0.0180898
731.700	0.0180579
731.779	0.0180178
731.857	0.0178474
731.935	0.0176270
732.013	0.0174889
732.091	0.0171324
732.169	0.0168884
732.247	0.0166959
732.325	0.0166107
732.404	0.0163279
732.482	0.0162308
732.560	0.0161189
732.638	0.0160123
732.716	0.0159858
732.794	0.0160382
732.872	0.0160357
732.950	0.0159019
733.029	0.0158687
733.107	0.0159096
733.185	0.0159781
733.263	0.0158202
733.341	0.0157345
733.419	0.0158971
733.497	0.0158443
733.575	0.0157445
733.654	0.0156120
733.732	0.0156731
733.810	0.0156609
733.888	0.0156182
733.966	0.0156373
734.044	0.0156767
734.122	0.0157202
734.200	0.0157668
734.279	0.0158863
734.357	0.0159388
734.435	0.0161794
734.513	0.0161919
734.591	0.0163786
734.669	0.0164186
734.747	0.0166518
734.825	0.0169032
734.904	0.0169616
734.982	0.0171657
735.060	0.0171935
735.138	0.0173104
735.216	0.0172782
735.294	0.0174327
735.372	0.0174458
735.450	0.0174482
735.529	0.0175485
735.607	0.0175736
735.685	0.0173926
735.763	0.0174248
735.841	0.0174001
735.919	0.0172784
735.997	0.0174693
736.075	0.0171693
736.154	0.0172098
736.232	0.0170004
736.310	0.0170333
736.388	0.0168456
736.466	0.0167563
736.544	0.0166435
736.622	0.0165182
736.700	0.0165440
736.779	0.0163979
736.857	0.0162631
736.935	0.0162099
737.013	0.0161653
737.091	0.0160621
737.169	0.0159542
737.247	0.0160070
737.325	0.0159747
737.404	0.0160065
737.482	0.0160710
737.560	0.0161803
737.638	0.0161401
737.716	0.0161939
737.794	0.0163400
737.872	0.0162232
737.950	0.0163303
738.029	0.0164085
738.107	0.0164119
738.185	0.0164793
738.263	0.0165129
738.341	0.0165263
738.419	0.0165616
738.497	0.0165749
738.575	0.0165775
738.654	0.0166101
738.732	0.0167416
738.810	0.0166437
738.888	0.0166084
738.966	0.0167363
739.044	0.0169954
739.122	0.0168365
739.200	0.0167780
739.279	0.0169893
739.357	0.0170181
739.435	0.0170177
739.513	0.0171342
739.591	0.0171574
739.669	0.0170296
739.747	0.0171018
739.825	0.0172405
739.904	0.0171602
739.982	0.0171822
740.060	0.0171489
740.138	0.0172368
740.216	0.0172741
740.294	0.0171541
740.372	0.0173039
740.450	0.0171605
740.529	0.0169785
740.607	0.0169017
740.685	0.0168744
740.763	0.0167414
740.841	0.0167651
740.919	0.0165738
740.997	0.0162287
741.075	0.0162443
741.154	0.0162585
741.232	0.0161234
741.310	0.0160225
741.388	0.0159282
741.466	0.0158830
741.544	0.0158365
741.622	0.0160577
741.700	0.0159147
741.779	0.0160608
741.857	0.0161662
741.935	0.0162805
742.013	0.0163364
742.091	0.0163927
742.169	0.0163249
742.247	0.0163908
742.325	0.0166297
742.404	0.0164269
742.482	0.0164540
742.560	0.0164272
742.638	0.0164879
742.716	0.0164981
742.794	0.0165309
742.872	0.0164127
742.950	0.0163358
743.029	0.0162578
743.107	0.0163375
743.185	0.0162912
743.263	0.0161533
743.341	0.0163448
743.419	0.0163691
743.497	0.0164241
743.575	0.0164753
743.654	0.0166309
743.732	0.0166975
743.810	0.0168003
743.888	0.0168090
743.966	0.0171793
744.044	0.0172182
744.122	0.0171465
744.200	0.0173460
744.279	0.0174790
744.357	0.0175996
744.435	0.0175827
744.513	0.0174939
744.591	0.0175465
744.669	0.0176760
744.747	0.0175671
744.825	0.0172899
744.904	0.0171443
744.982	0.0169960
745.060	0.0169299
745.138	0.0167720
745.216	0.0166652
745.294	0.0165918
745.372	0.0163152
745.450	0.0163354
745.529	0.0163322
745.607	0.0161457
745.685	0.0160514
745.763	0.0161212
745.841	0.0161119
745.919	0.0160345
745.997	0.0158872
746.075	0.0159280
746.154	0.0159158
746.232	0.0160219
746.310	0.0159686
746.388	0.0160774
746.466	0.0162473
746.544	0.0161494
746.622	0.0162433
746.700	0.0161909
746.779	0.0162981
746.857	0.0164746
746.935	0.0165408
747.013	0.0163721
747.091	0.0164095
747.169	0.0163733
747.247	0.0164015
747.325	0.0165401
747.404	0.0166441
747.482	0.0167422
747.560	0.0168361
747.638	0.0167259
747.716	0.0167361
747.794	0.0169992
747.872	0.0170019
747.950	0.0170851
748.029	0.0170129
748.107	0.0172065
748.185	0.0172343
748.263	0.0172457
748.341	0.0174546
748.419	0.0175019
748.497	0.0175508
748.575	0.0175915
748.654	0.0174554
748.732	0.0174747
748.810	0.0173779
748.888	0.0174229
748.966	0.0173586
749.044	0.0173127
749.122	0.0173167
749.200	0.0171141
749.279	0.0170341
749.357	0.0168785
749.435	0.0168150
749.513	0.0166441
749.591	0.0167319
749.669	0.0163547
749.747	0.0163228
749.825	0.0160740
749.904	0.0160337
749.982	0.0159301
750.060	0.0158373
750.138	0.0157721
750.216	0.0157683
750.294	0.0157529
750.372	0.0157468
750.450	0.0158653
750.529	0.0157527
750.607	0.0159087
750.685	0.0160445
750.763	0.0159429
750.841	0.0161791
750.919	0.0162913
750.997	0.0162949
751.075	0.0163190
751.154	0.0166463
751.232	0.0165837
751.310	0.0166901
751.388	0.0168305
751.466	0.0169321
751.544	0.0169153
751.622	0.0169668
751.700	0.0170002
751.779	0.0169840
751.857	0.0169421
751.935	0.0169559
752.013	0.0170066
752.091	0.0170673
752.169	0.0169740
752.247	0.0169980
752.325	0.0169469
752.404	0.0169909
752.482	0.0171049
752.560	0.0169408
752.638	0.0168719
752.716	0.0169811
752.794	0.0170242
752.872	0.0170644
752.950	0.0170170
753.029	0.0168565
753.107	0.0169621
753.185	0.0169390
753.263	0.0169198
753.341	0.0168110
753.419	0.0168047
753.497	0.0169999
753.575	0.0169565
753.654	0.0167573
753.732	0.0166833
753.810	0.0166577
753.888	0.0165900
753.966	0.0165352
754.044	0.0165189
754.122	0.0163792
754.200	0.0162607
754.279	0.0163428
754.357	0.0161873
754.435	0.0161758
754.513	0.0162633
754.591	0.0161115
754.669	0.0162254
754.747	0.0162672
754.825	0.0163178
754.904	0.0163857
754.982	0.0163678
755.060	0.0166117
755.138	0.0167509
755.216	0.0166645
755.294	0.0167737
755.372	0.0168410
755.450	0.0168825
755.529	0.0170548
755.607	0.0171234
755.685	0.0169800
755.763	0.0171172
755.841	0.0172444
755.919	0.0170436
755.997	0.0169783
756.075	0.0169902
756.154	0.0169731
756.232	0.0168135
756.310	0.0168648
756.388	0.0169200
756.466	0.0168391
756.544	0.0167410
756.622	0.0168360
756.700	0.0168088
756.779	0.0167333
756.857	0.0166178
756.935	0.0166350
757.013	0.0166990
757.091	0.0166125
757.169	0.0165957
757.247	0.0166772
757.325	0.0166331
757.404	0.0165631
757.482	0.0165671
757.560	0.0164252
757.638	0.0163864
757.716	0.0164262
757.794	0.0164698
757.872	0.0164564
757.950	0.0165408
758.029	0.0165099
758.107	0.0165327
758.185	0.0164359
758.263	0.0163730
758.341	0.0163375
758.419	0.0163893
758.497	0.0163074
758.575	0.0163918
758.654	0.0165564
758.732	0.0166161
758.810	0.0165329
758.888	0.0165894
758.966	0.0165957
759.044	0.0166359
759.122	0.0166223
759.200	0.0166349
759.279	0.0165330
759.357	0.0165936
759.435	0.0166489
759.513	0.0165932
759.591	0.0167498
759.669	0.0166177
759.747	0.0166406
759.825	0.0167544
759.904	0.0168268
759.982	0.0169028
760.060	0.0168555
760.138	0.0167632
760.216	0.0168427
760.294	0.0169241
760.372	0.0169329
760.450	0.0167607
760.529	0.0167252
760.607	0.0168513
760.685	0.0167078
760.763	0.0166863
760.841	0.0166920
760.919	0.0166612
760.997	0.0166872
761.075	0.0166176
761.154	0.0166764
761.232	0.0165930
761.310	0.0163573
761.388	0.0164468
761.466	0.0164987
761.544	0.0165009
761.622	0.0164574
761.700	0.0164898
761.779	0.0165326
761.857	0.0165353
761.935	0.0165604
762.013	0.0166740
762.091	0.0168821
762.169	0.0168281
762.247	0.0168143
762.325	0.0167814
762.404	0.0170203
762.482	0.0171291
762.560	0.0170561
762.638	0.0169021
762.716	0.0169835
762.794	0.0169616
762.872	0.0168616
762.950	0.0170033
763.029	0.0168143
763.107	0.0168933
763.185	0.0168813
763.263	0.0167272
763.341	0.0165993
763.419	0.0165838
763.497	0.0165820
763.575	0.0164991
763.654	0.0166111
763.732	0.0164162
763.810	0.0165641
763.888	0.0166093
763.966	0.0165491
764.044	0.0164998
764.122	0.0166663
764.200	0.0167624
764.279	0.0166399
764.357	0.0166658
764.435	0.0167018
764.513	0.0166023
764.591	0.0167303
764.669	0.0165002
764.747	0.0165236
764.825	0.0165583
764.904	0.0164808
764.982	0.0164654
765.060	0.0164371
765.138	0.0163380
765.216	0.0163723
765.294	0.0162792
765.372	0.0163741
765.450	0.0162261
765.529	0.0163600
765.607	0.0163174
765.685	0.0163522
765.763	0.0163090
765.841	0.0163038
765.919	0.0163606
765.997	0.0163814
766.075	0.0164146
766.154	0.0165118
766.232	0.0166354
766.310	0.0166302
766.388	0.0167722
766.466	0.0167863
766.544	0.0168623
766.622	0.0169236
766.700	0.0170386
766.779	0.0170487
766.857	0.0171307
766.935	0.0171454
767.013	0.0171786
767.091	0.0172539
767.169	0.0171282
767.247	0.0170323
767.325	0.0170295
767.404	0.0170511
767.482	0.0169811
767.560	0.0168546
767.638	0.0169239
767.716	0.0167158
767.794	0.0168736
767.872	0.0167298
767.950	0.0166422
768.029	0.0166741
768.107	0.0166166
768.185	0.0164993
768.263	0.0167262
768.341	0.0167544
768.419	0.0165423
768.497	0.0165562
768.575	0.0166266
768.654	0.0166254
768.732	0.0167380
768.810	0.0165688
768.888	0.0165344
768.966	0.0167030
769.044	0.0166042
769.122	0.0165477
769.200	0.0164909
769.279	0.0165503
769.357	0.0164966
769.435	0.0163548
769.513	0.0164256
769.591	0.0164118
769.669	0.0162516
769.747	0.0162878
769.825	0.0159452
769.904	0.0160533
769.982	0.0161357
770.060	0.0160548
770.138	0.0161598
770.216	0.0165038
770.294	0.0162563
770.372	0.0165483
770.450	0.0165520
770.529	0.0165768
770.607	0.0167521
770.685	0.0168404
770.763	0.0169398
770.841	0.0170111
770.919	0.0172435
770.997	0.0172063
771.075	0.0170986
771.154	0.0172703
771.232	0.0172377
771.310	0.0173502
771.388	0.0174146
771.466	0.0173291
771.544	0.0174285
771.622	0.0174616
771.700	0.0173318
771.779	0.0172807
771.857	0.0172941
771.935	0.0173112
772.013	0.0171104
772.091	0.0169150
772.169	0.0168774
772.247	0.0168914
772.325	0.0166100
772.404	0.0165800
772.482	0.0164516
772.560	0.0164056
772.638	0.0162824
772.716	0.0161981
772.794	0.0161555
772.872	0.0161394
772.950	0.0160564
773.029	0.0161051
773.107	0.0160403
773.185	0.0159453
773.263	0.0161819
773.341	0.0159782
773.419	0.0160407
773.497	0.0159963
773.575	0.0159267
773.654	0.0160905
773.732	0.0161939
773.810	0.0161106
773.888	0.0162267
773.966	0.0160468
774.044	0.0161918
774.122	0.0161019
774.200	0.0163721
774.279	0.0164159
774.357	0.0163417
774.435	0.0163680
774.513	0.0164422
774.591	0.0164844
774.669	0.0165108
774.747	0.0167455
774.825	0.0167767
774.904	0.0169672
774.982	0.0169299
775.060	0.0170064
775.138	0.0172220
775.216	0.0174571
775.294	0.0173910
775.372	0.0173788
775.450	0.0174356
775.529	0.0174307
775.607	0.0176139
775.685	0.0177254
775.763	0.0175253
775.841	0.0174570
775.919	0.0175007
775.997	0.0174060
776.075	0.0173269
776.154	0.0172188
776.232	0.0172623
776.310	0.0172289
776.388	0.0170465
776.466	0.0170362
776.544	0.0168573
776.622	0.0168208
776.700	0.0166675
776.779	0.0163921
776.857	0.0162262
776.935	0.0161750
777.013	0.0162012
777.091	0.0160246
777.169	0.0159851
777.247	0.0159039
777.325	0.0158765
777.404	0.0157930
777.482	0.0156926
777.560	0.0157973
777.638	0.0158796
777.716	0.0158076
777.794	0.0159035
777.872	0.0159869
777.950	0.0161550
778.029	0.0161774
778.107	0.0161129
778.185	0.0162850
778.263	0.0163531
778.341	0.0164886
778.419	0.0164894
778.497	0.0165504
778.575	0.0167738
778.654	0.0165357
778.732	0.0165454
778.810	0.0166957
778.888	0.0167703
778.966	0.0167316
779.044	0.0167018
779.122	0.0167372
779.200	0.0168109
779.279	0.0170000
779.357	0.0170140
779.435	0.0169188
779.513	0.0171478
779.591	0.0172719
779.669	0.0172762
779.747	0.0173589
779.825	0.0173888
779.904	0.0174260
779.982	0.0174355
780.060	0.0174673
780.138	0.0174093
780.216	0.0174181
780.294	0.0173665
780.372	0.0173181
780.450	0.0171725
780.529	0.0171613
780.607	0.0170764
780.685	0.0169312
780.763	0.0169363
780.841	0.0167067
780.919	0.0165913
780.997	0.0165469
781.075	0.0165623
781.154	0.0164571
781.232	0.0163885
781.310	0.0163602
781.388	0.0163810
781.466	0.0163103
781.544	0.0162545
781.622	0.0162119
781.700	0.0161593
781.779	0.0161461
781.857	0.0160172
781.935	0.0160918
782.013	0.0160570
782.091	0.0161098
782.169	0.0160109
782.247	0.0159055
782.325	0.0158844
782.404	0.0160941
782.482	0.0161440
782.560	0.0160709
782.638	0.0162529
782.716	0.0161474
782.794	0.0161336
782.872	0.0162211
782.950	0.0164145
783.029	0.0164190
783.107	0.0165012
783.185	0.0165077
783.263	0.0166762
783.341	0.0166287
783.419	0.0167036
783.497	0.0167930
783.575	0.0169296
783.654	0.0171238
783.732	0.0171252
783.810	0.0171847
783.888	0.0173476
783.966	0.0174470
784.044	0.0174939
784.122	0.0176263
784.200	0.0176541
784.279	0.0176437
784.357	0.0176681
784.435	0.0176304
784.513	0.0176904
784.591	0.0176008
784.669	0.0174812
784.747	0.0174767
784.825	0.0172285
784.904	0.0171159
784.982	0.0169886
785.060	0.0169093
785.138	0.0167556
785.216	0.0165490
785.294	0.0162836
785.372	0.0161938
785.450	0.0161795
785.529	0.0161479
785.607	0.0157781
785.685	0.0157457
785.763	0.0155846
785.841	0.0157064
785.919	0.0155977
785.997	0.0155769
786.075	0.0155080
786.154	0.0156760
786.232	0.0156991
786.310	0.0157121
786.388	0.0158118
786.466	0.0160931
786.544	0.0159926
786.622	0.0161742
786.700	0.0162423
786.779	0.0165208
786.857	0.0164315
786.935	0.0166753
787.013	0.0168564
787.091	0.0169065
787.169	0.0170507
787.247	0.0171016
787.325	0.0172719
787.404	0.0172728
787.482	0.0173849
787.560	0.0175031
787.638	0.0175527
787.716	0.0174628
787.794	0.0174609
787.872	0.0175652
787.950	0.0176499
788.029	0.0175459
788.107	0.0176561
788.185	0.0177042
788.263	0.0176452
788.341	0.0176331
788.419	0.0176191
788.497	0.0177785
788.575	0.0177591
788.654	0.0175424
788.732	0.0175398
788.810	0.0175193
788.888	0.0175598
788.966	0.0173305
789.044	0.0173208
789.122	0.0170183
789.200	0.0168689
789.279	0.0166030
789.357	0.0164716
789.435	0.0161436
789.513	0.0160393
789.591	0.0157273
789.669	0.0154929
789.747	0.0152028
789.825	0.0150729
789.904	0.0149477
789.982	0.0149101
790.060	0.0147005
790.138	0.0145737
790.216	0.0145846
790.294	0.0146618
790.372	0.0147897
790.450	0.0148839
790.529	0.0150387
790.607	0.0152856
790.685	0.0154021
790.763	0.0156219
790.841	0.0158348
790.919	0.0161921
790.997	0.0163969
791.075	0.0166512
791.154	0.0168147
791.232	0.0170584
791.310	0.0173687
791.388	0.0175611
791.466	0.0174757
791.544	0.0178912
791.622	0.0178786
791.700	0.0179504
791.779	0.0181345
791.857	0.0183297
791.935	0.0181267
792.013	0.0181779
792.091	0.0182457
792.169	0.0181360
792.247	0.0181215
792.325	0.0181685
792.404	0.0181379
792.482	0.0180886
792.560	0.0178790
792.638	0.0178570
792.716	0.0179049
792.794	0.0178248
792.872	0.0176798
792.950	0.0175245
793.029	0.0174856
793.107	0.0172835
793.185	0.0170840
793.263	0.0170201
793.341	0.0167638
793.419	0.0166642
793.497	0.0164720
793.575	0.0162527
793.654	0.0160232
793.732	0.0156918
793.810	0.0156202
793.888	0.0155466
793.966	0.0151556
794.044	0.0151608
794.122	0.0148646
794.200	0.0147962
794.279	0.0145682
794.357	0.0147734
794.435	0.0145498
794.513	0.0146059
794.591	0.0147444
794.669	0.0149788
794.747	0.0149788
794.825	0.0151625
794.904	0.0151879
794.982	0.0155199
795.060	0.0157628
795.138	0.0159190
795.216	0.0160781
795.294	0.0165391
795.372	0.0167840
795.450	0.0169432
795.529	0.0172045
795.607	0.0174161
795.685	0.0174584
795.763	0.0177953
795.841	0.0179337
795.919	0.0179971
795.997	0.0181601
796.075	0.0181696
796.154	0.0181477
796.232	0.0181104
796.310	0.0180875
796.388	0.0181760
796.466	0.0180585
796.544	0.0181354
796.622	0.0181024
796.700	0.0179598
796.779	0.0177538
796.857	0.0177200
796.935	0.0177104
797.013	0.0175679
797.091	0.0173901
797.169	0.0172668
797.247	0.0171630
797.325	0.0169671
797.404	0.0168932
797.482	0.0168335
797.560	0.0166106
797.638	0.0163889
797.716	0.0162222
797.794	0.0162914
797.872	0.0160764
797.950	0.0159749
798.029	0.0159632
798.107	0.0159070
798.185	0.0157167
798.263	0.0154755
798.341	0.0156525
798.419	0.0154753
798.497	0.0153406
798.575	0.0154715
798.654	0.0153971
798.732	0.0155006
798.810	0.0154051
798.888	0.0152547
798.966	0.0153345
799.044	0.0153619
799.122	0.0153934
799.200	0.0156335
799.279	0.0156809
799.357	0.0157314
799.435	0.0159812
799.513	0.0160817
799.591	0.0163493
799.669	0.0163298
799.747	0.0166773
799.825	0.0169068
799.904	0.0169528
799.982	0.0173044
800.060	0.0174339
800.138	0.0174792
800.216	0.0176695
800.294	0.0179141
800.372	0.0178997
800.450	0.0179587
800.529	0.0180785
800.607	0.0180431
800.685	0.0180056
800.763	0.0180585
800.841	0.0180558
800.919	0.0180906
800.997	0.0179208
801.075	0.0178122
801.154	0.0177193
801.232	0.0174960
801.310	0.0175245
801.388	0.0174814
801.466	0.0171879
801.544	0.0170943
801.622	0.0170444
801.700	0.0169896
801.779	0.0167348
801.857	0.0166979
801.935	0.0165503
802.013	0.0164541
802.091	0.0163157
802.169	0.0162160
802.247	0.0161966
802.325	0.0161697
802.404	0.0159575
802.482	0.0160417
802.560	0.0159908
802.638	0.0159153
802.716	0.0158077
802.794	0.0158867
802.872	0.0158378
802.950	0.0158641
803.029	0.0156985
803.107	0.0157688
803.185	0.0156780
803.263	0.0156856
803.341	0.0157321
803.419	0.0157529
803.497	0.0159151
803.575	0.0159165
803.654	0.0159969
803.732	0.0159753
803.810	0.0161721
803.888	0.0164011
803.966	0.0162760
804.044	0.0163945
804.122	0.0164840
804.200	0.0166761
804.279	0.0168590
804.357	0.0170173
804.435	0.0170512
804.513	0.0169859
804.591	0.0171604
804.669	0.0172497
804.747	0.0172481
804.825	0.0173691
804.904	0.0173011
804.982	0.0173694
805.060	0.0173574
805.138	0.0174246
805.216	0.0173146
805.294	0.0174658
805.372	0.0174474
805.450	0.0174152
805.529	0.0173683
805.607	0.0174402
805.685	0.0174343
805.763	0.0174606
805.841	0.0173012
805.919	0.0173359
805.997	0.0173168
806.075	0.0171680
806.154	0.0170161
806.232	0.0170401
806.310	0.0168529
806.388	0.0167488
806.466	0.0167223
806.544	0.0165789
806.622	0.0165226
806.700	0.0164284
806.779	0.0163013
806.857	0.0161483
806.935	0.0163442
807.013	0.0161720
807.091	0.0161137
807.169	0.0160466
807.247	0.0158254
807.325	0.0158775
807.404	0.0159918
807.482	0.0159372
807.560	0.0158589
807.638	0.0159749
807.716	0.0159650
807.794	0.0161196
807.872	0.0160072
807.950	0.0159685
808.029	0.0160054
808.107	0.0161760
808.185	0.0161474
808.263	0.0161926
808.341	0.0165000
808.419	0.0165545
808.497	0.0164624
808.575	0.0165507
808.654	0.0166967
808.732	0.0166908
808.810	0.0168199
808.888	0.0169492
808.966	0.0167561
809.044	0.0168887
809.122	0.0169142
809.200	0.0169968
809.279	0.0169221
809.357	0.0169417
809.435	0.0170210
809.513	0.0170434
809.591	0.0170687
809.669	0.0170891
809.747	0.0169615
809.825	0.0169973
809.904	0.0169316
809.982	0.0170504
810.060	0.0169844
810.138	0.0170333
810.216	0.0167968
810.294	0.0169433
810.372	0.0169963
810.450	0.0168633
810.529	0.0168388
810.607	0.0169086
810.685	0.0167978
810.763	0.0168137
810.841	0.0167184
810.919	0.0166772
810.997	0.0167638
811.075	0.0166516
811.154	0.0165002
811.232	0.0164845
811.310	0.0164646
811.388	0.0163303
811.466	0.0163322
811.544	0.0162857
811.622	0.0162858
811.700	0.0162638
811.779	0.0162254
811.857	0.0163124
811.935	0.0162030
812.013	0.0162673
812.091	0.0162427
812.169	0.0162637
812.247	0.0163699
812.325	0.0165325
812.404	0.0164394
812.482	0.0165076
812.560	0.0166923
812.638	0.0167583
812.716	0.0166125
812.794	0.0166972
812.872	0.0168007
812.950	0.0169975
813.029	0.0169249
813.107	0.0170230
813.185	0.0170283
813.263	0.0169618
813.341	0.0169270
813.419	0.0170152
813.497	0.0171537
813.575	0.0169129
813.654	0.0169530
813.732	0.0169162
813.810	0.0169246
813.888	0.0168957
813.966	0.0168109
814.044	0.0168665
814.122	0.0167166
814.200	0.0166603
814.279	0.0166823
814.357	0.0165609
814.435	0.0164984
814.513	0.0164114
814.591	0.0164645
814.669	0.0162475
814.747	0.0162065
814.825	0.0161889
814.904	0.0164310
814.982	0.0161262
815.060	0.0161989
815.138	0.0162856
815.216	0.0161002
815.294	0.0161073
815.372	0.0161915
815.450	0.0162994
815.529	0.0163071
815.607	0.0162551
815.685	0.0162125
815.763	0.0161491
815.841	0.0162197
815.919	0.0162919
815.997	0.0163939
816.075	0.0164458
816.154	0.0163183
816.232	0.0163308
816.310	0.0163233
816.388	0.0165682
816.466	0.0164566
816.544	0.0165713
816.622	0.0166659
816.700	0.0166723
816.779	0.0168448
816.857	0.0168439
816.935	0.0169623
817.013	0.0171315
817.091	0.0171460
817.169	0.0172934
817.247	0.0172981
817.325	0.0174404
817.404	0.0173710
817.482	0.0173344
817.560	0.0175178
817.638	0.0174619
817.716	0.0173904
817.794	0.0172202
817.872	0.0172749
817.950	0.0172923
818.029	0.0170984
818.107	0.0171893
818.185	0.0170934
818.263	0.0169726
818.341	0.0167056
818.419	0.0168107
818.497	0.0166508
818.575	0.0165508
818.654	0.0165315
818.732	0.0164233
818.810	0.0161954
818.888	0.0164595
818.966	0.0164491
819.044	0.0163362
819.122	0.0163469
819.200	0.0163256
819.279	0.0164008
819.357	0.0162142
819.435	0.0162840
819.513	0.0161977
819.591	0.0162048
819.669	0.0161051
819.747	0.0160911
819.825	0.0160319
819.904	0.0160210
819.982	0.0160621
820.060	0.0160837
820.138	0.0160011
820.216	0.0160671
820.294	0.0160640
820.372	0.0162045
820.450	0.0163016
820.529	0.0162199
820.607	0.0162628
820.685	0.0165702
820.763	0.0164304
820.841	0.0165051
820.919	0.0166792
820.997	0.0168130
821.075	0.0168114
821.154	0.0167870
821.232	0.0169798
821.310	0.0169434
821.388	0.0171798
821.466	0.0170129
821.544	0.0172045
821.622	0.0171446
821.700	0.0170078
821.779	0.0171505
821.857	0.0172445
821.935	0.0171386
822.013	0.0170486
822.091	0.0171851
822.169	0.0168970
822.247	0.0169549
822.325	0.0170685
822.404	0.0168542
822.482	0.0169149
822.560	0.0169018
822.638	0.0167973
822.716	0.0167901
822.794	0.0169169
822.872	0.0168671
822.950	0.0166560
823.029	0.0167006
823.107	0.0165900
823.185	0.0167328
823.263	0.0167783
823.341	0.0166360
823.419	0.0164927
823.497	0.0166640
823.575	0.0166759
823.654	0.0163925
823.732	0.0164474
823.810	0.0164603
823.888	0.0162920
823.966	0.0164280
824.044	0.0163517
824.122	0.0163644
824.200	0.0162311
824.279	0.0161004
824.357	0.0161584
824.435	0.0160345
824.513	0.0161691
824.591	0.0159918
824.669	0.0160513
824.747	0.0161472
824.825	0.0160665
824.904	0.0162830
824.982	0.0161766
825.060	0.0162328
825.138	0.0163741
825.216	0.0163622
825.294	0.0163773
825.372	0.0164388
825.450	0.0165646
825.529	0.0166151
825.607	0.0167979
825.685	0.0167838
825.763	0.0168477
825.841	0.0168289
825.919	0.0169102
825.997	0.0169614
826.075	0.0169365
826.154	0.0169707
826.232	0.0170167
826.310	0.0170535
826.388	0.0171089
826.466	0.0171385
826.544	0.0170292
826.622	0.0169966
826.700	0.0170895
826.779	0.0170181
826.857	0.0170699
826.935	0.0170491
827.013	0.0168489
827.091	0.0170367
827.169	0.0168777
827.247	0.0168060
827.325	0.0167182
827.404	0.0168607
827.482	0.0168766
827.560	0.0167471
827.638	0.0165727
827.716	0.0165739
827.794	0.0167690
827.872	0.0166349
827.950	0.0165982
828.029	0.0165397
828.107	0.0165030
828.185	0.0164301
828.263	0.0163942
828.341	0.0165333
828.419	0.0164249
828.497	0.0162485
828.575	0.0164657
828.654	0.0164673
828.732	0.0163930
828.810	0.0163511
828.888	0.0162371
828.966	0.0163063
829.044	0.0161940
829.122	0.0161794
829.200	0.0161166
829.279	0.0161250
829.357	0.0162354
829.435	0.0162292
829.513	0.0163909
829.591	0.0161784
829.669	0.0163146
829.747	0.0162997
829.825	0.0162526
829.904	0.0163287
829.982	0.0163701
830.060	0.0166207
830.138	0.0165559
830.216	0.0166259
830.294	0.0165941
830.372	0.0166092
830.450	0.0166024
830.529	0.0167911
830.607	0.0167909
830.685	0.0167799
830.763	0.0167257
830.841	0.0167816
830.919	0.0168554
830.997	0.0169916
831.075	0.0169539
831.154	0.0169554
831.232	0.0169618
831.310	0.0170009
831.388	0.0169908
831.466	0.0169018
831.544	0.0170741
831.622	0.0168533
831.700	0.0167052
831.779	0.0167860
831.857	0.0168533
831.935	0.0166798
832.013	0.0166951
832.091	0.0166840
832.169	0.0167062
832.247	0.0165354
832.325	0.0165746
832.404	0.0164560
832.482	0.0165308
832.560	0.0165130
832.638	0.0165758
832.716	0.0165629
832.794	0.0165460
832.872	0.0163430
832.950	0.0163531
833.029	0.0164167
833.107	0.0165027
833.185	0.0164617
833.263	0.0163157
833.341	0.0164954
833.419	0.0165681
833.497	0.0164545
833.575	0.0165919
833.654	0.0165405
833.732	0.0166164
833.810	0.0165649
833.888	0.0166239
833.966	0.0167699
834.044	0.0166850
834.122	0.0166708
834.200	0.0166386
834.279	0.0167250
834.357	0.0167393
834.435	0.0168637
834.513	0.0168082
834.591	0.0168220
834.669	0.0168407
834.747	0.0167625
834.825	0.0166853
834.904	0.0168029
834.982	0.0168808
835.060	0.0167617
835.138	0.0167197
835.216	0.0166948
835.294	0.0166434
835.372	0.0168397
835.450	0.0166392
835.529	0.0166481
835.607	0.0166766
835.685	0.0165372
835.763	0.0166390
835.841	0.0167037
835.919	0.0166403
835.997	0.0165867
836.075	0.0166862
836.154	0.0167334
836.232	0.0166359
836.310	0.0165037
836.388	0.0164940
836.466	0.0164479
836.544	0.0165875
836.622	0.0165987
836.700	0.0164271
836.779	0.0165816
836.857	0.0164643
836.935	0.0164823
837.013	0.0164645
837.091	0.0165616
837.169	0.0165254
837.247	0.0164595
837.325	0.0165630
837.404	0.0165408
837.482	0.0165408
837.560	0.0165424
837.638	0.0166447
837.716	0.0165784
837.794	0.0165633
837.872	0.0166983
837.950	0.0165411
838.029	0.0166553
838.107	0.0166916
838.185	0.0166085
838.263	0.0167013
838.341	0.0167471
838.419	0.0167320
838.497	0.0167877
838.575	0.0168642
838.654	0.0168678
838.732	0.0167798
838.810	0.0168107
838.888	0.0169142
838.966	0.0169678
839.044	0.0168363
839.122	0.0168244
839.200	0.0168423
839.279	0.0169338
839.357	0.0169457
839.435	0.0168735
839.513	0.0167171
839.591	0.0167567
839.669	0.0166899
839.747	0.0165833
839.825	0.0168012
839.904	0.0166944
839.982	0.0166201
840.060	0.0165110
840.138	0.0166806
840.216	0.0164921
840.294	0.0164661
840.372	0.0164873
840.450	0.0165147
840.529	0.0163671
840.607	0.0164593
840.685	0.0164812
840.763	0.0165494
840.841	0.0164905
840.919	0.0163695
840.997	0.0164909
841.075	0.0166068
841.154	0.0164812
841.232	0.0164734
841.310	0.0165849
841.388	0.0166164
841.466	0.0165488
841.544	0.0166777
841.622	0.0166058
841.700	0.0165718
841.779	0.0166290
841.857	0.0165716
841.935	0.0166114
842.013	0.0166050
842.091	0.0166604
842.169	0.0166898
842.247	0.0165992
842.325	0.0165818
842.404	0.0166932
842.482	0.0166452
842.560	0.0165974
842.638	0.0166451
842.716	0.0166463
842.794	0.0166595
842.872	0.0166247
842.950	0.0166718
843.029	0.0167132
843.107	0.0166796
843.185	0.0167288
843.263	0.0167500
843.341	0.0168229
843.419	0.0168404
843.497	0.0167568
843.575	0.0168447
843.654	0.0168307
843.732	0.0168768
843.810	0.0168244
843.888	0.0166579
843.966	0.0167076
844.044	0.0166607
844.122	0.0166372
844.200	0.0165129
844.279	0.0165299
844.357	0.0165368
844.435	0.0164374
844.513	0.0165343
844.591	0.0165672
844.669	0.0164283
844.747	0.0164690
844.825	0.0164687
844.904	0.0166090
844.982	0.0164742
845.060	0.0164485
845.138	0.0164901
845.216	0.0165067
845.294	0.0165255
845.372	0.0167118
845.450	0.0166366
845.529	0.0167688
845.607	0.0165826
845.685	0.0165931
845.763	0.0166497
845.841	0.0167147
845.919	0.0164950
845.997	0.0164907
846.075	0.0164355
846.154	0.0165906
846.232	0.0166532
846.310	0.0165204
846.388	0.0164166
846.466	0.0164120
846.544	0.0165228
846.622	0.0164997
846.700	0.0163383
846.779	0.0164754
846.857	0.0164120
846.935	0.0164651
847.013	0.0164375
847.091	0.0165175
847.169	0.0165808
847.247	0.0165165
847.325	0.0165844
847.404	0.0167303
847.482	0.0168260
847.560	0.0168372
847.638	0.0168394
847.716	0.0169999
847.794	0.0169762
847.872	0.0168615
847.950	0.0169255
848.029	0.0170048
848.107	0.0168807
848.185	0.0170175
848.263	0.0168715
848.341	0.0167846
848.419	0.0169742
848.497	0.0168974
848.575	0.0168014
848.654	0.0167026
848.732	0.0167966
848.810	0.0166294
848.888	0.0166103
848.966	0.0165411
849.044	0.0165909
849.122	0.0164520
849.200	0.0164767
849.279	0.0163496
849.357	0.0164513
849.435	0.0164297
849.513	0.0165589
849.591	0.0165082
849.669	0.0165166
849.747	0.0166905
849.825	0.0164684
849.904	0.0165604
849.982	0.0167025
850.060	0.0165009
850.138	0.0164743
850.216	0.0167352
850.294	0.0166399
850.372	0.0165902
850.450	0.0166226
850.529	0.0165834
850.607	0.0164249
850.685	0.0165417
850.763	0.0163314
850.841	0.0163097
850.919	0.0164243
850.997	0.0164242
851.075	0.0163503
851.154	0.0162793
851.232	0.0164339
851.310	0.0165068
851.388	0.0162976
851.466	0.0163762
851.544	0.0165264
851.622	0.0165269
851.700	0.0164833
851.779	0.0164938
851.857	0.0165894
851.935	0.0166522
852.013	0.0166927
852.091	0.0168874
852.169	0.0169186
852.247	0.0168676
852.325	0.0169077
852.404	0.0170208
852.482	0.0171163
852.560	0.0169923
852.638	0.0169172
852.716	0.0169653
852.794	0.0170484
852.872	0.0168755
852.950	0.0169746
853.029	0.0168310
853.107	0.0168870
853.185	0.0168626
853.263	0.0166216
853.341	0.0167204
853.419	0.0165797
853.497	0.0166008
853.575	0.0165842
853.654	0.0166074
853.732	0.0165836
853.810	0.0166108
853.888	0.0165459
853.966	0.0164844
854.044	0.0165675
854.122	0.0164652
854.200	0.0165699
854.279	0.0166396
854.357	0.0165424
854.435	0.0164310
854.513	0.0166145
854.591	0.0166532
854.669	0.0165723
854.747	0.0165006
854.825	0.0164776
854.904	0.0164327
854.982	0.0164589
855.060	0.0164752
855.138	0.0164415
855.216	0.0165069
855.294	0.0165602
855.372	0.0163050
855.450	0.0162300
855.529	0.0163203
855.607	0.0162605
855.685	0.0164055
855.763	0.0164755
855.841	0.0164281
855.919	0.0164352
855.997	0.0165016
856.075	0.0164928
856.154	0.0164163
856.232	0.0167166
856.310	0.0165410
856.388	0.0165282
856.466	0.0167165
856.544	0.0166747
856.622	0.0167223
856.700	0.0168542
856.779	0.0166730
856.857	0.0167812
856.935	0.0168838
857.013	0.0166982
857.091	0.0168115
857.169	0.0168143
857.247	0.0168157
857.325	0.0167217
857.404	0.0167309
857.482	0.0168026
857.560	0.0166510
857.638	0.0165864
857.716	0.0167592
857.794	0.0165652
857.872	0.0166806
857.950	0.0167294
858.029	0.0165877
858.107	0.0167847
858.185	0.0166407
858.263	0.0166930
858.341	0.0165318
858.419	0.0168041
858.497	0.0167448
858.575	0.0168307
858.654	0.0167062
858.732	0.0167350
858.810	0.0167049
858.888	0.0168040
858.966	0.0167267
859.044	0.0167307
859.122	0.0166573
859.200	0.0167507
859.279	0.0166635
859.357	0.0164864
859.435	0.0165991
859.513	0.0165579
859.591	0.0163634
859.669	0.0164202
859.747	0.0164678
859.825	0.0163651
859.904	0.0162957
859.982	0.0163158
860.060	0.0163963
860.138	0.0163048
860.216	0.0162614
860.294	0.0163891
860.372	0.0164187
860.450	0.0166005
860.529	0.0165601
860.607	0.0164481
860.685	0.0165394
860.763	0.0165388
860.841	0.0166417
860.919	0.0167239
860.997	0.0165314
861.075	0.0165445
861.154	0.0168494
861.232	0.0168454
861.310	0.0168697
861.388	0.0168826
861.466	0.0167133
861.544	0.0167365
861.622	0.0167656
861.700	0.0166206
861.779	0.0167303
861.857	0.0167619
861.935	0.0167147
862.013	0.0166629
862.091	0.0166231
862.169	0.0166532
862.247	0.0166232
862.325	0.0166386
862.404	0.0166623
862.482	0.0167548
862.560	0.0168671
862.638	0.0167046
862.716	0.0166601
862.794	0.0168241
862.872	0.0168648
862.950	0.0167096
863.029	0.0167014
863.107	0.0168203
863.185	0.0168008
863.263	0.0168336
863.341	0.0168224
863.419	0.0168404
863.497	0.0167986
863.575	0.0166652
863.654	0.0166444
863.732	0.0166535
863.810	0.0167454
863.888	0.0166426
863.966	0.0166137
864.044	0.0165355
864.122	0.0164629
864.200	0.0163609
864.279	0.0164997
864.357	0.0164910
864.435	0.0163729
864.513	0.0164017
864.591	0.0162576
864.669	0.0164695
864.747	0.0164787
864.825	0.0164312
864.904	0.0165336
864.982	0.0165771
865.060	0.0165045
865.138	0.0167088
865.216	0.0165935
865.294	0.0166587
865.372	0.0166892
865.450	0.0166349
865.529	0.0167358
865.607	0.0167569
865.685	0.0168152
865.763	0.0167063
865.841	0.0166881
865.919	0.0166902
865.997	0.0167413
866.075	0.0167953
866.154	0.0167551
866.232	0.0166647
866.310	0.0167031
866.388	0.0168982
866.466	0.0167982
866.544	0.0168230
866.622	0.0169204
866.700	0.0168642
866.779	0.0168656
866.857	0.0169919
866.935	0.0169682
867.013	0.0168053
867.091	0.0170625
867.169	0.0169170
867.247	0.0167799
867.325	0.0168566
867.404	0.0169008
867.482	0.0168514
867.560	0.0168744
867.638	0.0167498
867.716	0.0166048
867.794	0.0166884
867.872	0.0166698
867.950	0.0165258
868.029	0.0164870
868.107	0.0165708
868.185	0.0165439
868.263	0.0163453
868.341	0.0163217
868.419	0.0164170
868.497	0.0163538
868.575	0.0163950
868.654	0.0163862
868.732	0.0162675
868.810	0.0162316
868.888	0.0162576
868.966	0.0161986
869.044	0.0162599
869.122	0.0162491
869.200	0.0162357
869.279	0.0164830
869.357	0.0164202
869.435	0.0164419
869.513	0.0163793
869.591	0.0165668
869.669	0.0164572
869.747	0.0164134
869.825	0.0167078
869.904	0.0168118
869.982	0.0167163
870.060	0.0168333
870.138	0.0168146
870.216	0.0169302
870.294	0.0168430
870.372	0.0168803
870.450	0.0169517
870.529	0.0168980
870.607	0.0168424
870.685	0.0169146
870.763	0.0167641
870.841	0.0168975
870.919	0.0166943
870.997	0.0168029
871.075	0.0169518
871.154	0.0168503
871.232	0.0169147
871.310	0.0169067
871.388	0.0168314
871.466	0.0168924
871.544	0.0168586
871.622	0.0167803
871.700	0.0168731
871.779	0.0168378
871.857	0.0166779
871.935	0.0167271
872.013	0.0166664
872.091	0.0167671
872.169	0.0165622
872.247	0.0164627
872.325	0.0165360
872.404	0.0166715
872.482	0.0165520
872.560	0.0164819
872.638	0.0165169
872.716	0.0165967
872.794	0.0163033
872.872	0.0164639
872.950	0.0163876
873.029	0.0164390
873.107	0.0164176
873.185	0.0163594
873.263	0.0164041
873.341	0.0163934
873.419	0.0163290
873.497	0.0164322
873.575	0.0165074
873.654	0.0165016
873.732	0.0164397
873.810	0.0166022
873.888	0.0164694
873.966	0.0165237
874.044	0.0166294
874.122	0.0165945
874.200	0.0163852
874.279	0.0165824
874.357	0.0165318
874.435	0.0165746
874.513	0.0164809
874.591	0.0165508
874.669	0.0165256
874.747	0.0166541
874.825	0.0166118
874.904	0.0165363
874.982	0.0167805
875.060	0.0168300
875.138	0.0167503
875.216	0.0167342
875.294	0.0170207
875.372	0.0169286
875.450	0.0168432
875.529	0.0169508
875.607	0.0168778
875.685	0.0167990
875.763	0.0168456
875.841	0.0167569
875.919	0.0167688
875.997	0.0167503
876.075	0.0166364
876.154	0.0166343
876.232	0.0167281
876.310	0.0169160
876.388	0.0166535
876.466	0.0166805
876.544	0.0167954
876.622	0.0169204
876.700	0.0167987
876.779	0.0168995
876.857	0.0168459
876.935	0.0167294
877.013	0.0166386
877.091	0.0166522
877.169	0.0165321
877.247	0.0164992
877.325	0.0163900
877.404	0.0163870
877.482	0.0162859
877.560	0.0162804
877.638	0.0161926
877.716	0.0162466
877.794	0.0163483
877.872	0.0163973
877.950	0.0164857
878.029	0.0164029
878.107	0.0166006
878.185	0.0168667
878.263	0.0168967
878.341	0.0169642
878.419	0.0169000
878.497	0.0169341
878.575	0.0169052
878.654	0.0169046
878.732	0.0168723
878.810	0.0169464
878.888	0.0167649
878.966	0.0167992
879.044	0.0168794
879.122	0.0168593
879.200	0.0168108
879.279	0.0169783
879.357	0.0169134
879.435	0.0169304
879.513	0.0169460
879.591	0.0167766
879.669	0.0167412
879.747	0.0168860
879.825	0.0167304
879.904	0.0166567
879.982	0.0168285
880.060	0.0165987
880.138	0.0165409
880.216	0.0165092
880.294	0.0162597
880.372	0.0162141
880.450	0.0163468
880.529	0.0162958
880.607	0.0162660
880.685	0.0163043
880.763	0.0162649
880.841	0.0161850
880.919	0.0162500
880.997	0.0162408
881.075	0.0163620
881.154	0.0164523
881.232	0.0165527
881.310	0.0163483
881.388	0.0164748
881.466	0.0167181
881.544	0.0165749
881.622	0.0167971
881.700	0.0166695
881.779	0.0166717
881.857	0.0167899
881.935	0.0168337
882.013	0.0169301
882.091	0.0169515
882.169	0.0167919
882.247	0.0169488
882.325	0.0169493
882.404	0.0168259
882.482	0.0169611
882.560	0.0170439
882.638	0.0170441
882.716	0.0169571
882.794	0.0169496
882.872	0.0169143
882.950	0.0170629
883.029	0.0170413
883.107	0.0169968
883.185	0.0170034
883.263	0.0168387
883.341	0.0169657
883.419	0.0168465
883.497	0.0168820
883.575	0.0167768
883.654	0.0167363
883.732	0.0165733
883.810	0.0164750
883.888	0.0165784
883.966	0.0166166
884.044	0.0164233
884.122	0.0164145
884.200	0.0163241
884.279	0.0163311
884.357	0.0163026
884.435	0.0162913
884.513	0.0163171
884.591	0.0165163
884.669	0.0163823
884.747	0.0164207
884.825	0.0162872
884.904	0.0162101
884.982	0.0162753
885.060	0.0162852
885.138	0.0162726
885.216	0.0160555
885.294	0.0161641
885.372	0.0162757
885.450	0.0161648
885.529	0.0162280
885.607	0.0162550
885.685	0.0161244
885.763	0.0163039
885.841	0.0163622
885.919	0.0164810
885.997	0.0165794
886.075	0.0165631
886.154	0.0167033
886.232	0.0167046
886.310	0.0168876
886.388	0.0170375
886.466	0.0170997
886.544	0.0171931
886.622	0.0172395
886.700	0.0173316
886.779	0.0175055
886.857	0.0174433
886.935	0.0174916
887.013	0.0174454
887.091	0.0173042
887.169	0.0172433
887.247	0.0171319
887.325	0.0170993
887.404	0.0169141
887.482	0.0168367
887.560	0.0168257
887.638	0.0168091
887.716	0.0167906
887.794	0.0169037
887.872	0.0167126
887.950	0.0168356
888.029	0.0167094
888.107	0.0167751
888.185	0.0166630
888.263	0.0166108
888.341	0.0165266
888.419	0.0164502
888.497	0.0164604
888.575	0.0163666
888.654	0.0163673
888.732	0.0163084
888.810	0.0162485
888.888	0.0162052
888.966	0.0161898
889.044	0.0162299
889.122	0.0162265
889.200	0.0161234
889.279	0.0161243
889.357	0.0162329
889.435	0.0162289
889.513	0.0163126
889.591	0.0162435
889.669	0.0162552
889.747	0.0163912
889.825	0.0163226
889.904	0.0163634
889.982	0.0165556
890.060	0.0165485
890.138	0.0166032
890.216	0.0167671
890.294	0.0168328
890.372	0.0169102
890.450	0.0168941
890.529	0.0170540
890.607	0.0172089
890.685	0.0171682
890.763	0.0171541
890.841	0.0173497
890.919	0.0174191
890.997	0.0173169
891.075	0.0171851
891.154	0.0172459
891.232	0.0171210
891.310	0.0170835
891.388	0.0169561
891.466	0.0168584
891.544	0.0166954
891.622	0.0166438
891.700	0.0166203
891.779	0.0164458
891.857	0.0164586
891.935	0.0165369
892.013	0.0164781
892.091	0.0163647
892.169	0.0163187
892.247	0.0162994
892.325	0.0163823
892.404	0.0164397
892.482	0.0164264
892.560	0.0163047
892.638	0.0164489
892.716	0.0163979
892.794	0.0162950
892.872	0.0164192
892.950	0.0163977
893.029	0.0164191
893.107	0.0164497
893.185	0.0163765
893.263	0.0164333
893.341	0.0165318
893.419	0.0164651
893.497	0.0164368
893.575	0.0165268
893.654	0.0166967
893.732	0.0167002
893.810	0.0167158
893.888	0.0165978
893.966	0.0165641
894.044	0.0166985
894.122	0.0166427
894.200	0.0166772
894.279	0.0167146
894.357	0.0166956
894.435	0.0165959
894.513	0.0167202
894.591	0.0167180
894.669	0.0166475
894.747	0.0168116
894.825	0.0168081
894.904	0.0168600
894.982	0.0169147
895.060	0.0168794
895.138	0.0171142
895.216	0.0172176
895.294	0.0171953
895.372	0.0172224
895.450	0.0170791
895.529	0.0171992
895.607	0.0171017
895.685	0.0169463
895.763	0.0169888
895.841	0.0168253
895.919	0.0168379
895.997	0.0166850
896.075	0.0165564
896.154	0.0164848
896.232	0.0164793
896.310	0.0165503
896.388	0.0164335
896.466	0.0163855
896.544	0.0163342
896.622	0.0162402
896.700	0.0162177
896.779	0.0162258
896.857	0.0161803
896.935	0.0161482
897.013	0.0163895
897.091	0.0162074
897.169	0.0163004
897.247	0.0164632
897.325	0.0164369
897.404	0.0167133
897.482	0.0166217
897.560	0.0166086
897.638	0.0167959
897.716	0.0165910
897.794	0.0167341
897.872	0.0168707
897.950	0.0167654
898.029	0.0167336
898.107	0.0166933
898.185	0.0168275
898.263	0.0167457
898.341	0.0168183
898.419	0.0167867
898.497	0.0168298
898.575	0.0168180
898.654	0.0167520
898.732	0.0168169
898.810	0.0167345
898.888	0.0168330
898.966	0.0168633
899.044	0.0168074
899.122	0.0167677
899.200	0.0168716
899.279	0.0167466
899.357	0.0168920
899.435	0.0169374
899.513	0.0168240
899.591	0.0169511
899.669	0.0170528
899.747	0.0169424
899.825	0.0170598
899.904	0.0169657
899.982	0.0169540
900.060	0.0170046
900.138	0.0170312
900.216	0.0168588
900.294	0.0168512
900.372	0.0168673
900.450	0.0167371
900.529	0.0166470
900.607	0.0166281
900.685	0.0164503
900.763	0.0163572
900.841	0.0162139
900.919	0.0162900
900.997	0.0163418
901.075	0.0161898
901.154	0.0162559
901.232	0.0162541
901.310	0.0163295
901.388	0.0162950
901.466	0.0162110
901.544	0.0163623
901.622	0.0164597
901.700	0.0163597
901.779	0.0164944
901.857	0.0165776
901.935	0.0166911
902.013	0.0167905
902.091	0.0168396
902.169	0.0168019
902.247	0.0168799
902.325	0.0169551
902.404	0.0167165
902.482	0.0169240
902.560	0.0167240
902.638	0.0167670
902.716	0.0168250
902.794	0.0166798
902.872	0.0167293
902.950	0.0167077
903.029	0.0167591
903.107	0.0166437
903.185	0.0166335
903.263	0.0167106
903.341	0.0167106
903.419	0.0166513
903.497	0.0167737
903.575	0.0168607
903.654	0.0169602
903.732	0.0168484
903.810	0.0168139
903.888	0.0169276
903.966	0.0168549
904.044	0.0168361
904.122	0.0168891
904.200	0.0168908
904.279	0.0169099
904.357	0.0169347
904.435	0.0169388
904.513	0.0169988
904.591	0.0167872
904.669	0.0168135
904.747	0.0167308
904.825	0.0168721
904.904	0.0167107
904.982	0.0166369
905.060	0.0165752
905.138	0.0165327
905.216	0.0164987
905.294	0.0164642
905.372	0.0164249
905.450	0.0164690
905.529	0.0164072
905.607	0.0162996
905.685	0.0162999
905.763	0.0164870
905.841	0.0164446
905.919	0.0163374
905.997	0.0164001
906.075	0.0163702
906.154	0.0163859
906.232	0.0164608
906.310	0.0165292
906.388	0.0165989
906.466	0.0164835
906.544	0.0165211
906.622	0.0166321
906.700	0.0165442
906.779	0.0166059
906.857	0.0166125
906.935	0.0164227
907.013	0.0165050
907.091	0.0166003
907.169	0.0166882
907.247	0.0166946
907.325	0.0166782
907.404	0.0166560
907.482	0.0167728
907.560	0.0167005
907.638	0.0167093
907.716	0.0166915
907.794	0.0168672
907.872	0.0167902
907.950	0.0167103
908.029	0.0167908
908.107	0.0167499
908.185	0.0166467
908.263	0.0168780
908.341	0.0169056
908.419	0.0167660
908.497	0.0168210
908.575	0.0168635
908.654	0.0169270
908.732	0.0169121
908.810	0.0168825
908.888	0.0168098
908.966	0.0167880
909.044	0.0167780
909.122	0.0168878
909.200	0.0168741
909.279	0.0168570
909.357	0.0167997
909.435	0.0167413
909.513	0.0166678
909.591	0.0166255
909.669	0.0167191
909.747	0.0165017
909.825	0.0163650
909.904	0.0163947
909.982	0.0164597
910.060	0.0163837
910.138	0.0163873
910.216	0.0161645
910.294	0.0163811
910.372	0.0164870
910.450	0.0162613
910.529	0.0161312
910.607	0.0163138
910.685	0.0164084
910.763	0.0163069
910.841	0.0163161
910.919	0.0164439
910.997	0.0163696
911.075	0.0163200
911.154	0.0165443
911.232	0.0165627
911.310	0.0165752
911.388	0.0165768
911.466	0.0165871
911.544	0.0167643
911.622	0.0167358
911.700	0.0167670
911.779	0.0169136
911.857	0.0167969
911.935	0.0168947
912.013	0.0169487
912.091	0.0168660
912.169	0.0169263
912.247	0.0170403
912.325	0.0168990
912.404	0.0168869
912.482	0.0168309
912.560	0.0167068
912.638	0.0167094
912.716	0.0166579
912.794	0.0168644
912.872	0.0167118
912.950	0.0166690
913.029	0.0168459
913.107	0.0168371
913.185	0.0166840
913.263	0.0166852
913.341	0.0168299
913.419	0.0167257
913.497	0.0167403
913.575	0.0166396
913.654	0.0166868
913.732	0.0166664
913.810	0.0167483
913.888	0.0167791
913.966	0.0168447
914.044	0.0167239
914.122	0.0168215
914.200	0.0167118
914.279	0.0165336
914.357	0.0166331
914.435	0.0166336
914.513	0.0164192
914.591	0.0165962
914.669	0.0162844
914.747	0.0162745
914.825	0.0163606
914.904	0.0162527
914.982	0.0161690
915.060	0.0162561
915.138	0.0162484
915.216	0.0160121
915.294	0.0160770
915.372	0.0162876
915.450	0.0162794
915.529	0.0162643
915.607	0.0162892
915.685	0.0162311
915.763	0.0163892
915.841	0.0163830
915.919	0.0164729
915.997	0.0164812
916.075	0.0166914
916.154	0.0167271
916.232	0.0166650
916.310	0.0168739
916.388	0.0169047
916.466	0.0169241
916.544	0.0168736
916.622	0.0168266
916.700	0.0169390
916.779	0.0170869
916.857	0.0171520
916.935	0.0170998
917.013	0.0171323
917.091	0.0169937
917.169	0.0170174
917.247	0.0169134
917.325	0.0167966
917.404	0.0169157
917.482	0.0169371
917.560	0.0168436
917.638	0.0168464
917.716	0.0168031
917.794	0.0167292
917.872	0.0167464
917.950	0.0167233
918.029	0.0166969
918.107	0.0166385
918.185	0.0165944
918.263	0.0165190
918.341	0.0165437
918.419	0.0167675
918.497	0.0165068
918.575	0.0164910
918.654	0.0166232
918.732	0.0164001
918.810	0.0164142
918.888	0.0165019
918.966	0.0164233
919.044	0.0164726
919.122	0.0164106
919.200	0.0163310
919.279	0.0163186
919.357	0.0163772
919.435	0.0163462
919.513	0.0163010
919.591	0.0162627
919.669	0.0164640
919.747	0.0163942
919.825	0.0163831
919.904	0.0163110
