06/03/2022	14:06:20	Ver.	4.1	UNKNOWN
Optical Delay	599.981738	Delta X		0.078125	Sweeps	1	Scan Rate	0/0
Coordinates	Axis 1	NaN	Axis 2	NaN	Axis 3	NaN	Axis 4	NaN	Axis 5	NaN	Axis 6	0.000000
TX Power	0.000000	RX Power	0.000000

599.982	0.0165325
600.060	0.0165696
600.138	0.0165826
600.216	0.0166103
600.294	0.0165812
600.372	0.0165849
600.450	0.0165739
600.529	0.0165005
600.607	0.0165020
600.685	0.0166263
600.763	0.0165673
600.841	0.0166622
600.919	0.0165335
600.997	0.0165783
601.075	0.0165795
601.154	0.0165475
601.232	0.0165228
601.310	0.0165196
601.388	0.0164816
601.466	0.0165225
601.544	0.0164700
601.622	0.0165832
601.700	0.0164384
601.779	0.0164132
601.857	0.0165747
601.935	0.0165431
602.013	0.0165852
602.091	0.0165720
602.169	0.0165132
602.247	0.0167450
602.325	0.0165752
602.404	0.0165681
602.482	0.0165759
602.560	0.0164346
602.638	0.0166111
602.716	0.0165940
602.794	0.0166309
602.872	0.0164600
602.950	0.0165012
603.029	0.0166729
603.107	0.0164491
603.185	0.0165311
603.263	0.0165395
603.341	0.0164922
603.419	0.0164381
603.497	0.0165153
603.575	0.0166537
603.654	0.0166170
603.732	0.0164887
603.810	0.0165109
603.888	0.0163825
603.966	0.0165445
604.044	0.0166214
604.122	0.0166097
604.200	0.0165047
604.279	0.0165508
604.357	0.0165082
604.435	0.0167537
604.513	0.0166851
604.591	0.0164325
604.669	0.0166016
604.747	0.0165690
604.825	0.0166093
604.904	0.0165583
604.982	0.0166925
605.060	0.0165965
605.138	0.0166371
605.216	0.0166801
605.294	0.0165793
605.372	0.0165233
605.450	0.0165421
605.529	0.0164701
605.607	0.0166119
605.685	0.0165521
605.763	0.0165344
605.841	0.0165872
605.919	0.0165082
605.997	0.0165928
606.075	0.0165521
606.154	0.0165813
606.232	0.0165583
606.310	0.0165466
606.388	0.0166394
606.466	0.0165950
606.544	0.0165027
606.622	0.0164631
606.700	0.0164812
606.779	0.0164748
606.857	0.0166595
606.935	0.0166415
607.013	0.0166349
607.091	0.0165656
607.169	0.0165447
607.247	0.0165705
607.325	0.0163935
607.404	0.0165662
607.482	0.0165425
607.560	0.0165158
607.638	0.0165696
607.716	0.0164958
607.794	0.0166710
607.872	0.0166563
607.950	0.0165479
608.029	0.0166715
608.107	0.0164851
608.185	0.0164984
608.263	0.0165097
608.341	0.0166669
608.419	0.0167465
608.497	0.0166296
608.575	0.0165372
608.654	0.0166209
608.732	0.0166093
608.810	0.0165825
608.888	0.0165148
608.966	0.0166617
609.044	0.0166001
609.122	0.0164603
609.200	0.0164172
609.279	0.0166211
609.357	0.0164819
609.435	0.0165511
609.513	0.0165307
609.591	0.0165723
609.669	0.0165420
609.747	0.0165800
609.825	0.0165088
609.904	0.0165401
609.982	0.0166543
610.060	0.0165590
610.138	0.0166936
610.216	0.0166313
610.294	0.0164662
610.372	0.0165579
610.450	0.0166142
610.529	0.0165928
610.607	0.0166148
610.685	0.0165300
610.763	0.0165457
610.841	0.0166087
610.919	0.0165891
610.997	0.0165607
611.075	0.0167290
611.154	0.0166391
611.232	0.0166130
611.310	0.0165955
611.388	0.0165586
611.466	0.0166592
611.544	0.0165583
611.622	0.0165479
611.700	0.0164714
611.779	0.0164389
611.857	0.0165141
611.935	0.0165993
612.013	0.0165252
612.091	0.0164669
612.169	0.0165337
612.247	0.0166901
612.325	0.0165015
612.404	0.0164527
612.482	0.0166376
612.560	0.0165720
612.638	0.0166696
612.716	0.0166487
612.794	0.0165627
612.872	0.0165984
612.950	0.0165013
613.029	0.0165607
613.107	0.0164494
613.185	0.0164817
613.263	0.0165491
613.341	0.0167496
613.419	0.0164580
613.497	0.0164936
613.575	0.0165345
613.654	0.0165962
613.732	0.0165353
613.810	0.0165655
613.888	0.0166053
613.966	0.0165543
614.044	0.0165381
614.122	0.0165356
614.200	0.0165596
614.279	0.0166447
614.357	0.0165751
614.435	0.0165169
614.513	0.0165824
614.591	0.0165284
614.669	0.0165325
614.747	0.0165236
614.825	0.0166018
614.904	0.0166772
614.982	0.0168175
615.060	0.0166618
615.138	0.0164474
615.216	0.0165569
615.294	0.0166142
615.372	0.0166443
615.450	0.0165766
615.529	0.0164236
615.607	0.0164940
615.685	0.0165009
615.763	0.0165702
615.841	0.0166335
615.919	0.0166656
615.997	0.0165543
616.075	0.0165121
616.154	0.0166004
616.232	0.0165759
616.310	0.0164899
616.388	0.0165284
616.466	0.0166991
616.544	0.0165610
616.622	0.0163718
616.700	0.0165584
616.779	0.0165793
616.857	0.0164916
616.935	0.0165308
617.013	0.0165821
617.091	0.0167204
617.169	0.0165714
617.247	0.0165977
617.325	0.0164596
617.404	0.0165703
617.482	0.0164442
617.560	0.0164974
617.638	0.0166882
617.716	0.0164963
617.794	0.0165825
617.872	0.0166042
617.950	0.0164821
618.029	0.0166272
618.107	0.0165711
618.185	0.0164745
618.263	0.0165153
618.341	0.0164810
618.419	0.0166634
618.497	0.0164592
618.575	0.0164560
618.654	0.0165402
618.732	0.0165508
618.810	0.0164713
618.888	0.0164722
618.966	0.0164349
619.044	0.0166459
619.122	0.0165546
619.200	0.0164953
619.279	0.0165647
619.357	0.0165838
619.435	0.0166598
619.513	0.0167590
619.591	0.0166917
619.669	0.0166498
619.747	0.0165608
619.825	0.0166633
619.904	0.0165162
619.982	0.0165343
620.060	0.0166116
620.138	0.0165665
620.216	0.0167823
620.294	0.0166437
620.372	0.0165989
620.450	0.0165189
620.529	0.0165557
620.607	0.0166965
620.685	0.0165762
620.763	0.0166386
620.841	0.0165611
620.919	0.0164763
620.997	0.0165797
621.075	0.0163882
621.154	0.0165150
621.232	0.0166777
621.310	0.0165385
621.388	0.0164684
621.466	0.0164734
621.544	0.0165947
621.622	0.0166114
621.700	0.0166191
621.779	0.0166199
621.857	0.0166695
621.935	0.0164949
622.013	0.0165385
622.091	0.0163728
622.169	0.0165374
622.247	0.0165529
622.325	0.0166089
622.404	0.0165105
622.482	0.0165283
622.560	0.0166301
622.638	0.0167022
622.716	0.0165414
622.794	0.0165172
622.872	0.0166463
622.950	0.0165840
623.029	0.0165738
623.107	0.0165273
623.185	0.0164474
623.263	0.0165811
623.341	0.0165897
623.419	0.0165814
623.497	0.0165186
623.575	0.0165730
623.654	0.0164720
623.732	0.0165833
623.810	0.0164757
623.888	0.0166222
623.966	0.0165044
624.044	0.0166064
624.122	0.0166351
624.200	0.0165938
624.279	0.0165622
624.357	0.0165179
624.435	0.0165469
624.513	0.0167093
624.591	0.0166682
624.669	0.0164739
624.747	0.0166281
624.825	0.0165736
624.904	0.0165850
624.982	0.0164707
625.060	0.0165952
625.138	0.0165660
625.216	0.0166359
625.294	0.0166775
625.372	0.0164587
625.450	0.0164342
625.529	0.0164517
625.607	0.0164610
625.685	0.0165556
625.763	0.0166377
625.841	0.0165414
625.919	0.0166551
625.997	0.0165027
626.075	0.0166292
626.154	0.0162882
626.232	0.0164399
626.310	0.0164877
626.388	0.0164558
626.466	0.0165427
626.544	0.0163494
626.622	0.0165017
626.700	0.0166008
626.779	0.0165080
626.857	0.0166034
626.935	0.0165064
627.013	0.0164693
627.091	0.0165507
627.169	0.0165787
627.247	0.0165396
627.325	0.0163346
627.404	0.0165386
627.482	0.0166231
627.560	0.0165938
627.638	0.0166539
627.716	0.0166266
627.794	0.0164017
627.872	0.0165281
627.950	0.0165047
628.029	0.0164378
628.107	0.0164439
628.185	0.0165536
628.263	0.0166581
628.341	0.0164277
628.419	0.0165342
628.497	0.0164658
628.575	0.0165796
628.654	0.0165607
628.732	0.0165674
628.810	0.0164663
628.888	0.0165626
628.966	0.0164624
629.044	0.0165464
629.122	0.0166264
629.200	0.0166142
629.279	0.0166177
629.357	0.0165634
629.435	0.0165333
629.513	0.0165048
629.591	0.0165372
629.669	0.0164849
629.747	0.0165504
629.825	0.0166290
629.904	0.0166734
629.982	0.0168101
630.060	0.0166455
630.138	0.0165475
630.216	0.0165879
630.294	0.0165399
630.372	0.0164424
630.450	0.0165422
630.529	0.0164868
630.607	0.0165499
630.685	0.0165104
630.763	0.0165099
630.841	0.0165517
630.919	0.0165465
630.997	0.0165520
631.075	0.0165340
631.154	0.0165149
631.232	0.0166057
631.310	0.0166093
631.388	0.0165444
631.466	0.0165795
631.544	0.0166224
631.622	0.0165302
631.700	0.0166207
631.779	0.0165467
631.857	0.0165049
631.935	0.0166197
632.013	0.0164718
632.091	0.0166087
632.169	0.0167067
632.247	0.0164548
632.325	0.0164762
632.404	0.0165591
632.482	0.0165465
632.560	0.0164808
632.638	0.0165300
632.716	0.0164964
632.794	0.0165806
632.872	0.0164049
632.950	0.0164568
633.029	0.0165578
633.107	0.0166134
633.185	0.0165727
633.263	0.0165158
633.341	0.0164957
633.419	0.0166031
633.497	0.0166038
633.575	0.0165514
633.654	0.0164547
633.732	0.0164500
633.810	0.0166306
633.888	0.0165011
633.966	0.0167156
634.044	0.0165514
634.122	0.0165926
634.200	0.0164668
634.279	0.0165081
634.357	0.0165746
634.435	0.0166193
634.513	0.0166014
634.591	0.0165975
634.669	0.0165846
634.747	0.0166132
634.825	0.0166413
634.904	0.0164370
634.982	0.0165238
635.060	0.0165942
635.138	0.0165594
635.216	0.0165167
635.294	0.0164349
635.372	0.0165014
635.450	0.0165546
635.529	0.0166300
635.607	0.0166833
635.685	0.0166637
635.763	0.0164493
635.841	0.0163688
635.919	0.0166706
635.997	0.0166431
636.075	0.0164587
636.154	0.0164253
636.232	0.0166006
636.310	0.0163928
636.388	0.0164841
636.466	0.0166237
636.544	0.0165018
636.622	0.0165289
636.700	0.0165262
636.779	0.0165537
636.857	0.0166100
636.935	0.0165416
637.013	0.0165269
637.091	0.0165591
637.169	0.0164758
637.247	0.0165205
637.325	0.0166451
637.404	0.0164897
637.482	0.0164451
637.560	0.0165428
637.638	0.0164916
637.716	0.0165548
637.794	0.0165910
637.872	0.0165029
637.950	0.0165505
638.029	0.0165434
638.107	0.0164380
638.185	0.0165219
638.263	0.0164930
638.341	0.0165804
638.419	0.0165147
638.497	0.0165565
638.575	0.0165341
638.654	0.0165601
638.732	0.0166580
638.810	0.0167202
638.888	0.0166206
638.966	0.0164911
639.044	0.0163192
639.122	0.0166252
639.200	0.0166492
639.279	0.0165250
639.357	0.0165107
639.435	0.0164771
639.513	0.0165020
639.591	0.0164354
639.669	0.0164207
639.747	0.0164522
639.825	0.0165061
639.904	0.0165571
639.982	0.0166247
640.060	0.0165553
640.138	0.0165909
640.216	0.0165116
640.294	0.0165711
640.372	0.0165995
640.450	0.0165656
640.529	0.0164884
640.607	0.0164573
640.685	0.0165623
640.763	0.0165467
640.841	0.0166738
640.919	0.0165674
640.997	0.0165369
641.075	0.0165919
641.154	0.0165350
641.232	0.0164670
641.310	0.0165729
641.388	0.0165258
641.466	0.0167065
641.544	0.0164731
641.622	0.0165030
641.700	0.0164141
641.779	0.0165505
641.857	0.0165608
641.935	0.0165037
642.013	0.0165671
642.091	0.0165152
642.169	0.0166859
642.247	0.0165716
642.325	0.0166347
642.404	0.0164802
642.482	0.0165639
642.560	0.0166659
642.638	0.0165856
642.716	0.0165952
642.794	0.0165761
642.872	0.0165987
642.950	0.0165698
643.029	0.0164075
643.107	0.0165597
643.185	0.0166172
643.263	0.0165906
643.341	0.0166814
643.419	0.0164975
643.497	0.0164911
643.575	0.0166374
643.654	0.0166828
643.732	0.0165239
643.810	0.0166452
643.888	0.0165707
643.966	0.0165065
644.044	0.0165643
644.122	0.0165498
644.200	0.0166325
644.279	0.0165795
644.357	0.0164894
644.435	0.0165630
644.513	0.0165144
644.591	0.0165668
644.669	0.0166057
644.747	0.0165768
644.825	0.0165889
644.904	0.0166494
644.982	0.0165982
645.060	0.0165608
645.138	0.0165623
645.216	0.0164700
645.294	0.0164996
645.372	0.0164953
645.450	0.0165359
645.529	0.0164503
645.607	0.0165092
645.685	0.0166586
645.763	0.0164825
645.841	0.0164767
645.919	0.0166125
645.997	0.0166367
646.075	0.0165611
646.154	0.0165294
646.232	0.0165683
646.310	0.0167035
646.388	0.0164942
646.466	0.0165620
646.544	0.0164933
646.622	0.0165551
646.700	0.0166188
646.779	0.0165799
646.857	0.0165697
646.935	0.0163958
647.013	0.0165854
647.091	0.0165842
647.169	0.0166154
647.247	0.0166538
647.325	0.0165836
647.404	0.0165482
647.482	0.0165826
647.560	0.0167169
647.638	0.0165565
647.716	0.0165068
647.794	0.0165837
647.872	0.0165886
647.950	0.0166416
648.029	0.0164882
648.107	0.0166148
648.185	0.0165120
648.263	0.0165637
648.341	0.0165240
648.419	0.0166370
648.497	0.0165501
648.575	0.0165875
648.654	0.0166391
648.732	0.0166501
648.810	0.0165060
648.888	0.0164856
648.966	0.0164678
649.044	0.0165489
649.122	0.0165399
649.200	0.0165053
649.279	0.0165799
649.357	0.0164030
649.435	0.0164785
649.513	0.0165957
649.591	0.0166481
649.669	0.0165244
649.747	0.0166374
649.825	0.0166129
649.904	0.0165939
649.982	0.0165069
650.060	0.0166280
650.138	0.0165266
650.216	0.0164885
650.294	0.0165081
650.372	0.0166322
650.450	0.0166555
650.529	0.0165936
650.607	0.0164289
650.685	0.0165572
650.763	0.0164819
650.841	0.0165560
650.919	0.0167056
650.997	0.0165140
651.075	0.0164881
651.154	0.0166067
651.232	0.0166509
651.310	0.0165559
651.388	0.0164366
651.466	0.0166380
651.544	0.0165536
651.622	0.0164608
651.700	0.0166165
651.779	0.0166821
651.857	0.0166006
651.935	0.0166198
652.013	0.0166034
652.091	0.0165732
652.169	0.0164826
652.247	0.0164140
652.325	0.0166101
652.404	0.0165789
652.482	0.0165245
652.560	0.0165964
652.638	0.0165777
652.716	0.0165435
652.794	0.0165449
652.872	0.0166438
652.950	0.0165894
653.029	0.0165932
653.107	0.0165597
653.185	0.0166180
653.263	0.0164996
653.341	0.0165541
653.419	0.0165189
653.497	0.0165823
653.575	0.0166445
653.654	0.0165606
653.732	0.0166414
653.810	0.0166856
653.888	0.0165144
653.966	0.0166615
654.044	0.0164351
654.122	0.0165282
654.200	0.0166068
654.279	0.0164886
654.357	0.0166009
654.435	0.0166504
654.513	0.0166476
654.591	0.0165838
654.669	0.0165263
654.747	0.0166213
654.825	0.0166437
654.904	0.0166159
654.982	0.0165651
655.060	0.0166367
655.138	0.0165943
655.216	0.0166377
655.294	0.0165678
655.372	0.0165509
655.450	0.0165721
655.529	0.0164963
655.607	0.0166199
655.685	0.0166230
655.763	0.0165748
655.841	0.0164771
655.919	0.0165288
655.997	0.0165870
656.075	0.0165931
656.154	0.0165196
656.232	0.0165406
656.310	0.0166362
656.388	0.0165334
656.466	0.0165813
656.544	0.0165844
656.622	0.0165527
656.700	0.0164925
656.779	0.0164954
656.857	0.0166712
656.935	0.0166270
657.013	0.0165683
657.091	0.0166290
657.169	0.0164748
657.247	0.0164557
657.325	0.0164256
657.404	0.0166354
657.482	0.0166660
657.560	0.0166601
657.638	0.0165238
657.716	0.0164624
657.794	0.0165647
657.872	0.0165456
657.950	0.0165872
658.029	0.0165308
658.107	0.0165609
658.185	0.0165758
658.263	0.0165191
658.341	0.0164788
658.419	0.0166157
658.497	0.0165437
658.575	0.0164945
658.654	0.0164983
658.732	0.0164503
658.810	0.0165189
658.888	0.0166695
658.966	0.0165602
659.044	0.0165931
659.122	0.0166442
659.200	0.0165794
659.279	0.0164065
659.357	0.0166103
659.435	0.0165318
659.513	0.0166145
659.591	0.0165309
659.669	0.0166242
659.747	0.0165994
659.825	0.0166110
659.904	0.0164661
659.982	0.0165784
660.060	0.0164693
660.138	0.0164561
660.216	0.0165061
660.294	0.0166510
660.372	0.0164395
660.450	0.0165495
660.529	0.0165089
660.607	0.0165968
660.685	0.0165578
660.763	0.0165903
660.841	0.0165372
660.919	0.0165998
660.997	0.0167281
661.075	0.0164693
661.154	0.0164191
661.232	0.0165540
661.310	0.0165683
661.388	0.0164091
661.466	0.0163962
661.544	0.0164774
661.622	0.0165275
661.700	0.0165137
661.779	0.0165144
661.857	0.0165573
661.935	0.0165757
662.013	0.0166576
662.091	0.0166850
662.169	0.0167519
662.247	0.0166491
662.325	0.0166291
662.404	0.0165926
662.482	0.0166113
662.560	0.0167102
662.638	0.0166003
662.716	0.0166418
662.794	0.0165514
662.872	0.0165053
662.950	0.0165546
663.029	0.0163947
663.107	0.0165023
663.185	0.0163784
663.263	0.0164124
663.341	0.0163495
663.419	0.0164489
663.497	0.0165144
663.575	0.0166627
663.654	0.0165726
663.732	0.0163050
663.810	0.0165252
663.888	0.0165994
663.966	0.0166451
664.044	0.0166695
664.122	0.0165633
664.200	0.0165517
664.279	0.0163354
664.357	0.0164258
664.435	0.0165717
664.513	0.0164095
664.591	0.0165638
664.669	0.0165406
664.747	0.0165234
664.825	0.0166745
664.904	0.0165020
664.982	0.0165080
665.060	0.0165540
665.138	0.0164701
665.216	0.0164996
665.294	0.0165240
665.372	0.0164999
665.450	0.0165195
665.529	0.0165334
665.607	0.0165410
665.685	0.0165890
665.763	0.0165755
665.841	0.0165166
665.919	0.0164482
665.997	0.0164419
666.075	0.0165354
666.154	0.0166058
666.232	0.0165942
666.310	0.0165883
666.388	0.0167397
666.466	0.0167332
666.544	0.0166556
666.622	0.0165633
666.700	0.0166167
666.779	0.0165589
666.857	0.0165668
666.935	0.0164943
667.013	0.0165208
667.091	0.0164864
667.169	0.0165128
667.247	0.0165663
667.325	0.0164227
667.404	0.0164908
667.482	0.0165218
667.560	0.0164400
667.638	0.0165457
667.716	0.0166266
667.794	0.0167368
667.872	0.0166828
667.950	0.0166947
668.029	0.0166965
668.107	0.0166801
668.185	0.0166647
668.263	0.0167146
668.341	0.0167123
668.419	0.0167657
668.497	0.0166103
668.575	0.0164973
668.654	0.0164706
668.732	0.0164566
668.810	0.0164918
668.888	0.0164540
668.966	0.0164399
669.044	0.0163795
669.122	0.0163732
669.200	0.0163924
669.279	0.0164552
669.357	0.0164141
669.435	0.0164803
669.513	0.0164755
669.591	0.0164371
669.669	0.0165183
669.747	0.0165067
669.825	0.0167624
669.904	0.0167619
669.982	0.0169020
670.060	0.0167992
670.138	0.0166370
670.216	0.0168856
670.294	0.0167425
670.372	0.0168544
670.450	0.0167915
670.529	0.0166756
670.607	0.0167836
670.685	0.0168685
670.763	0.0168438
670.841	0.0167326
670.919	0.0167247
670.997	0.0165517
671.075	0.0166162
671.154	0.0166403
671.232	0.0166753
671.310	0.0166550
671.388	0.0166475
671.466	0.0163750
671.544	0.0164516
671.622	0.0164616
671.700	0.0164677
671.779	0.0165392
671.857	0.0163947
671.935	0.0164310
672.013	0.0164762
672.091	0.0162985
672.169	0.0164151
672.247	0.0166145
672.325	0.0165418
672.404	0.0165985
672.482	0.0165098
672.560	0.0166734
672.638	0.0166257
672.716	0.0166776
672.794	0.0168121
672.872	0.0166807
672.950	0.0166872
673.029	0.0167191
673.107	0.0167163
673.185	0.0166850
673.263	0.0167145
673.341	0.0166521
673.419	0.0165821
673.497	0.0166181
673.575	0.0166755
673.654	0.0164261
673.732	0.0165953
673.810	0.0166049
673.888	0.0165482
673.966	0.0165578
674.044	0.0165579
674.122	0.0167808
674.200	0.0166365
674.279	0.0166199
674.357	0.0165762
674.435	0.0166462
674.513	0.0166186
674.591	0.0167114
674.669	0.0168005
674.747	0.0166163
674.825	0.0166114
674.904	0.0165489
674.982	0.0164803
675.060	0.0165550
675.138	0.0164696
675.216	0.0164655
675.294	0.0164695
675.372	0.0165106
675.450	0.0165995
675.529	0.0162942
675.607	0.0164024
675.685	0.0164267
675.763	0.0162878
675.841	0.0166354
675.919	0.0165615
675.997	0.0165497
676.075	0.0165987
676.154	0.0167457
676.232	0.0166576
676.310	0.0167151
676.388	0.0166815
676.466	0.0167361
676.544	0.0165868
676.622	0.0166013
676.700	0.0164436
676.779	0.0161279
676.857	0.0159791
676.935	0.0160065
677.013	0.0159139
677.091	0.0157752
677.169	0.0157666
677.247	0.0157897
677.325	0.0159301
677.404	0.0159266
677.482	0.0161493
677.560	0.0163582
677.638	0.0165929
677.716	0.0167910
677.794	0.0169063
677.872	0.0169658
677.950	0.0171542
678.029	0.0171171
678.107	0.0170164
678.185	0.0168999
678.263	0.0167073
678.341	0.0163573
678.419	0.0161232
678.497	0.0158395
678.575	0.0159342
678.654	0.0159872
678.732	0.0159589
678.810	0.0159561
678.888	0.0160271
678.966	0.0162576
679.044	0.0163671
679.122	0.0167627
679.200	0.0169189
679.279	0.0170240
679.357	0.0172514
679.435	0.0173728
679.513	0.0173305
679.591	0.0176023
679.669	0.0176482
679.747	0.0175417
679.825	0.0176118
679.904	0.0177032
679.982	0.0176343
680.060	0.0176605
680.138	0.0175146
680.216	0.0173616
680.294	0.0171682
680.372	0.0169302
680.450	0.0165482
680.529	0.0162530
680.607	0.0158909
680.685	0.0154364
680.763	0.0152133
680.841	0.0152221
680.919	0.0150619
680.997	0.0150677
681.075	0.0153428
681.154	0.0156170
681.232	0.0159579
681.310	0.0164304
681.388	0.0168044
681.466	0.0170947
681.544	0.0175398
681.622	0.0178607
681.700	0.0178157
681.779	0.0177606
681.857	0.0176619
681.935	0.0173732
682.013	0.0169074
682.091	0.0164803
682.169	0.0157818
682.247	0.0152333
682.325	0.0146635
682.404	0.0142124
682.482	0.0137078
682.560	0.0133038
682.638	0.0132736
682.716	0.0131842
682.794	0.0134628
682.872	0.0136299
682.950	0.0140771
683.029	0.0147282
683.107	0.0151662
683.185	0.0155587
683.263	0.0160696
683.341	0.0166372
683.419	0.0169786
683.497	0.0169538
683.575	0.0174145
683.654	0.0175833
683.732	0.0177711
683.810	0.0182220
683.888	0.0185103
683.966	0.0191234
684.044	0.0196198
684.122	0.0200058
684.200	0.0203892
684.279	0.0207129
684.357	0.0209459
684.435	0.0208853
684.513	0.0208097
684.591	0.0203594
684.669	0.0200516
684.747	0.0193879
684.825	0.0187639
684.904	0.0179311
684.982	0.0172469
685.060	0.0165302
685.138	0.0159286
685.216	0.0152808
685.294	0.0147191
685.372	0.0143137
685.450	0.0139727
685.529	0.0138002
685.607	0.0136421
685.685	0.0135238
685.763	0.0135754
685.841	0.0136134
685.919	0.0138126
685.997	0.0140611
686.075	0.0142479
686.154	0.0144180
686.232	0.0145602
686.310	0.0147540
686.388	0.0151369
686.466	0.0154265
686.544	0.0158701
686.622	0.0162688
686.700	0.0165376
686.779	0.0169305
686.857	0.0172570
686.935	0.0174618
687.013	0.0177201
687.091	0.0179758
687.169	0.0181074
687.247	0.0179937
687.325	0.0179254
687.404	0.0177813
687.482	0.0176079
687.560	0.0173799
687.638	0.0169337
687.716	0.0165975
687.794	0.0163335
687.872	0.0159198
687.950	0.0155171
688.029	0.0149210
688.107	0.0147070
688.185	0.0143594
688.263	0.0138634
688.341	0.0136820
688.419	0.0131981
688.497	0.0128822
688.575	0.0128248
688.654	0.0131991
688.732	0.0133791
688.810	0.0136833
688.888	0.0140938
688.966	0.0149284
689.044	0.0156544
689.122	0.0163474
689.200	0.0171531
689.279	0.0181072
689.357	0.0188837
689.435	0.0197137
689.513	0.0205968
689.591	0.0211440
689.669	0.0217640
689.747	0.0220582
689.825	0.0223085
689.904	0.0222614
689.982	0.0222525
690.060	0.0219374
690.138	0.0213264
690.216	0.0208012
690.294	0.0203593
690.372	0.0197503
690.450	0.0193804
690.529	0.0187290
690.607	0.0182443
690.685	0.0180485
690.763	0.0179036
690.841	0.0177491
690.919	0.0175284
690.997	0.0173482
691.075	0.0173050
691.154	0.0170517
691.232	0.0169991
691.310	0.0170114
691.388	0.0168304
691.466	0.0166654
691.544	0.0164327
691.622	0.0161401
691.700	0.0157828
691.779	0.0153554
691.857	0.0150478
691.935	0.0146732
692.013	0.0140051
692.091	0.0136126
692.169	0.0130611
692.247	0.0122928
692.325	0.0115479
692.404	0.0109396
692.482	0.0103059
692.560	0.00965439
692.638	0.00877930
692.716	0.00830368
692.794	0.00793938
692.872	0.00748329
692.950	0.00709373
693.029	0.00703239
693.107	0.00683495
693.185	0.00730690
693.263	0.00771210
693.341	0.00822014
693.419	0.00916077
693.497	0.0104358
693.575	0.0117944
693.654	0.0134421
693.732	0.0154389
693.810	0.0177054
693.888	0.0197263
693.966	0.0222150
694.044	0.0244583
694.122	0.0266755
694.200	0.0287764
694.279	0.0304584
694.357	0.0318203
694.435	0.0326872
694.513	0.0332432
694.591	0.0332722
694.669	0.0326603
694.747	0.0316679
694.825	0.0301717
694.904	0.0284723
694.982	0.0265031
695.060	0.0243600
695.138	0.0222952
695.216	0.0205099
695.294	0.0189225
695.372	0.0175236
695.450	0.0161902
695.529	0.0151147
695.607	0.0144098
695.685	0.0139404
695.763	0.0133467
695.841	0.0128992
695.919	0.0124703
695.997	0.0125513
696.075	0.0123438
696.154	0.0122914
696.232	0.0120371
696.310	0.0120342
696.388	0.0121265
696.466	0.0120458
696.544	0.0115620
696.622	0.0114407
696.700	0.0112289
696.779	0.0110520
696.857	0.0107486
696.935	0.0104001
697.013	0.00990425
697.091	0.00946922
697.169	0.00903511
697.247	0.00858688
697.325	0.00824448
697.404	0.00765045
697.482	0.00720100
697.560	0.00693642
697.638	0.00687660
697.716	0.00679329
697.794	0.00691360
697.872	0.00720108
697.950	0.00797562
698.029	0.00900887
698.107	0.0103094
698.185	0.0119691
698.263	0.0136789
698.341	0.0157716
698.419	0.0179718
698.497	0.0200695
698.575	0.0224707
698.654	0.0245749
698.732	0.0265073
698.810	0.0283244
698.888	0.0299442
698.966	0.0311604
699.044	0.0318652
699.122	0.0323620
699.200	0.0323605
699.279	0.0321368
699.357	0.0315116
699.435	0.0306812
699.513	0.0295016
699.591	0.0279018
699.669	0.0262929
699.747	0.0245941
699.825	0.0229257
699.904	0.0212419
699.982	0.0195776
700.060	0.0179574
700.138	0.0164117
700.216	0.0152316
700.294	0.0139578
700.372	0.0129105
700.450	0.0120287
700.529	0.0113388
700.607	0.0107443
700.685	0.0101895
700.763	0.00981255
700.841	0.00943024
700.919	0.00915695
700.997	0.00902542
701.075	0.00918709
701.154	0.00918327
701.232	0.00932800
701.310	0.00962967
701.388	0.0100472
701.466	0.0106641
701.544	0.0108894
701.622	0.0113953
701.700	0.0117052
701.779	0.0121681
701.857	0.0125711
701.935	0.0127853
702.013	0.0130553
702.091	0.0130368
702.169	0.0129680
702.247	0.0128919
702.325	0.0127053
702.404	0.0126652
702.482	0.0126884
702.560	0.0127722
702.638	0.0130792
702.716	0.0133714
702.794	0.0141127
702.872	0.0151185
702.950	0.0159675
703.029	0.0170944
703.107	0.0183560
703.185	0.0197043
703.263	0.0211530
703.341	0.0226780
703.419	0.0239015
703.497	0.0251390
703.575	0.0259466
703.654	0.0266602
703.732	0.0271551
703.810	0.0271530
703.888	0.0269909
703.966	0.0264773
704.044	0.0255865
704.122	0.0245716
704.200	0.0232764
704.279	0.0219726
704.357	0.0205753
704.435	0.0192391
704.513	0.0177541
704.591	0.0166299
704.669	0.0156242
704.747	0.0148072
704.825	0.0139523
704.904	0.0135708
704.982	0.0131104
705.060	0.0128072
705.138	0.0126979
705.216	0.0125888
705.294	0.0124570
705.372	0.0125049
705.450	0.0126675
705.529	0.0128560
705.607	0.0129051
705.685	0.0130260
705.763	0.0133256
705.841	0.0134695
705.919	0.0138023
705.997	0.0141616
706.075	0.0144065
706.154	0.0146386
706.232	0.0149966
706.310	0.0150043
706.388	0.0153145
706.466	0.0153680
706.544	0.0154256
706.622	0.0153337
706.700	0.0151125
706.779	0.0149384
706.857	0.0146237
706.935	0.0141315
707.013	0.0138552
707.091	0.0135580
707.169	0.0130492
707.247	0.0127812
707.325	0.0126534
707.404	0.0127326
707.482	0.0128604
707.560	0.0131133
707.638	0.0137193
707.716	0.0143483
707.794	0.0151839
707.872	0.0161100
707.950	0.0172520
708.029	0.0182587
708.107	0.0191376
708.185	0.0202079
708.263	0.0212033
708.341	0.0220473
708.419	0.0227844
708.497	0.0233882
708.575	0.0237696
708.654	0.0238994
708.732	0.0237421
708.810	0.0234787
708.888	0.0230127
708.966	0.0222903
709.044	0.0216653
709.122	0.0209055
709.200	0.0201046
709.279	0.0193181
709.357	0.0184097
709.435	0.0179650
709.513	0.0174782
709.591	0.0170252
709.669	0.0166003
709.747	0.0162521
709.825	0.0159410
709.904	0.0156540
709.982	0.0154968
710.060	0.0153918
710.138	0.0152143
710.216	0.0149892
710.294	0.0149297
710.372	0.0148220
710.450	0.0146621
710.529	0.0142201
710.607	0.0142725
710.685	0.0141829
710.763	0.0139345
710.841	0.0137141
710.919	0.0137609
710.997	0.0137369
711.075	0.0135885
711.154	0.0136044
711.232	0.0134978
711.310	0.0134220
711.388	0.0132758
711.466	0.0131264
711.544	0.0131494
711.622	0.0128588
711.700	0.0127041
711.779	0.0125113
711.857	0.0124312
711.935	0.0123934
712.013	0.0123753
712.091	0.0124574
712.169	0.0128606
712.247	0.0131268
712.325	0.0137656
712.404	0.0143884
712.482	0.0149182
712.560	0.0158534
712.638	0.0167155
712.716	0.0175076
712.794	0.0184244
712.872	0.0195013
712.950	0.0200493
713.029	0.0209689
713.107	0.0215182
713.185	0.0219946
713.263	0.0224495
713.341	0.0226250
713.419	0.0227643
713.497	0.0224556
713.575	0.0223772
713.654	0.0222340
713.732	0.0216178
713.810	0.0211945
713.888	0.0207454
713.966	0.0201659
714.044	0.0197549
714.122	0.0192447
714.200	0.0188576
714.279	0.0181541
714.357	0.0177959
714.435	0.0174556
714.513	0.0171697
714.591	0.0167677
714.669	0.0164352
714.747	0.0161688
714.825	0.0159283
714.904	0.0156614
714.982	0.0153480
715.060	0.0149496
715.138	0.0148526
715.216	0.0146265
715.294	0.0144868
715.372	0.0142175
715.450	0.0140909
715.529	0.0139960
715.607	0.0139545
715.685	0.0138805
715.763	0.0138186
715.841	0.0137849
715.919	0.0140837
715.997	0.0138982
716.075	0.0137930
716.154	0.0139989
716.232	0.0140898
716.310	0.0140492
716.388	0.0139083
716.466	0.0139359
716.544	0.0141711
716.622	0.0143250
716.700	0.0143769
716.779	0.0142987
716.857	0.0146891
716.935	0.0150046
717.013	0.0152531
717.091	0.0156813
717.169	0.0159310
717.247	0.0164684
717.325	0.0170148
717.404	0.0175391
717.482	0.0180700
717.560	0.0185997
717.638	0.0191460
717.716	0.0194080
717.794	0.0198478
717.872	0.0202003
717.950	0.0205497
718.029	0.0204070
718.107	0.0205103
718.185	0.0202068
718.263	0.0199397
718.341	0.0195457
718.419	0.0191390
718.497	0.0186223
718.575	0.0180900
718.654	0.0175378
718.732	0.0170132
718.810	0.0166231
718.888	0.0163812
718.966	0.0160062
719.044	0.0157748
719.122	0.0155625
719.200	0.0155313
719.279	0.0154601
719.357	0.0153795
719.435	0.0153619
719.513	0.0155569
719.591	0.0154758
719.669	0.0156493
719.747	0.0158356
719.825	0.0156669
719.904	0.0158307
719.982	0.0159152
720.060	0.0158003
720.138	0.0159944
720.216	0.0159139
720.294	0.0158630
720.372	0.0158890
720.450	0.0160326
720.529	0.0159383
720.607	0.0159646
720.685	0.0160677
720.763	0.0159281
720.841	0.0158278
720.919	0.0155929
720.997	0.0153825
721.075	0.0153466
721.154	0.0155334
721.232	0.0152213
721.310	0.0151688
721.388	0.0154441
721.466	0.0154880
721.544	0.0155782
721.622	0.0158801
721.700	0.0162267
721.779	0.0164745
721.857	0.0168536
721.935	0.0171587
722.013	0.0176044
722.091	0.0177786
722.169	0.0180939
722.247	0.0184210
722.325	0.0184666
722.404	0.0187751
722.482	0.0187686
722.560	0.0186574
722.638	0.0185365
722.716	0.0183493
722.794	0.0179481
722.872	0.0175893
722.950	0.0172866
723.029	0.0168696
723.107	0.0167025
723.185	0.0162126
723.263	0.0159611
723.341	0.0158622
723.419	0.0157008
723.497	0.0155058
723.575	0.0154351
723.654	0.0154993
723.732	0.0155282
723.810	0.0155098
723.888	0.0157870
723.966	0.0161121
724.044	0.0160445
724.122	0.0160960
724.200	0.0163335
724.279	0.0163526
724.357	0.0163702
724.435	0.0163731
724.513	0.0162246
724.591	0.0163123
724.669	0.0161076
724.747	0.0160409
724.825	0.0159122
724.904	0.0158739
724.982	0.0158606
725.060	0.0158237
725.138	0.0157108
725.216	0.0158671
725.294	0.0159107
725.372	0.0160835
725.450	0.0162155
725.529	0.0161845
725.607	0.0164890
725.685	0.0165681
725.763	0.0165701
725.841	0.0167686
725.919	0.0167338
725.997	0.0168387
726.075	0.0168598
726.154	0.0167279
726.232	0.0167747
726.310	0.0169539
726.388	0.0168632
726.466	0.0167250
726.544	0.0167544
726.622	0.0166913
726.700	0.0169066
726.779	0.0169082
726.857	0.0169907
726.935	0.0169920
727.013	0.0170039
727.091	0.0172243
727.169	0.0170302
727.247	0.0169557
727.325	0.0169371
727.404	0.0169427
727.482	0.0168606
727.560	0.0166102
727.638	0.0165851
727.716	0.0164008
727.794	0.0162484
727.872	0.0161501
727.950	0.0160386
728.029	0.0159627
728.107	0.0160789
728.185	0.0158797
728.263	0.0160024
728.341	0.0159950
728.419	0.0159595
728.497	0.0159758
728.575	0.0161402
728.654	0.0163000
728.732	0.0162372
728.810	0.0162043
728.888	0.0162960
728.966	0.0163856
729.044	0.0164095
729.122	0.0163190
729.200	0.0161739
729.279	0.0164269
729.357	0.0163738
729.435	0.0161270
729.513	0.0162510
729.591	0.0160121
729.669	0.0160058
729.747	0.0160184
729.825	0.0161559
729.904	0.0160554
729.982	0.0161514
730.060	0.0160287
730.138	0.0162278
730.216	0.0165687
730.294	0.0165351
730.372	0.0165208
730.450	0.0166444
730.529	0.0166978
730.607	0.0168797
730.685	0.0169326
730.763	0.0170450
730.841	0.0170659
730.919	0.0173325
730.997	0.0173124
731.075	0.0173736
731.154	0.0174426
731.232	0.0174199
731.310	0.0175634
731.388	0.0175256
731.466	0.0174930
731.544	0.0174297
731.622	0.0174969
731.700	0.0173515
731.779	0.0172646
731.857	0.0170491
731.935	0.0168832
732.013	0.0166587
732.091	0.0165594
732.169	0.0165000
732.247	0.0162955
732.325	0.0161131
732.404	0.0160329
732.482	0.0159561
732.560	0.0159475
732.638	0.0159955
732.716	0.0158408
732.794	0.0158064
732.872	0.0157694
732.950	0.0157940
733.029	0.0158276
733.107	0.0159641
733.185	0.0157845
733.263	0.0158976
733.341	0.0159237
733.419	0.0159249
733.497	0.0160175
733.575	0.0160643
733.654	0.0160382
733.732	0.0160207
733.810	0.0160731
733.888	0.0161950
733.966	0.0161387
734.044	0.0161927
734.122	0.0163548
734.200	0.0162569
734.279	0.0163208
734.357	0.0164032
734.435	0.0165292
734.513	0.0165459
734.591	0.0165684
734.669	0.0166057
734.747	0.0166772
734.825	0.0166003
734.904	0.0166250
734.982	0.0168214
735.060	0.0168378
735.138	0.0168581
735.216	0.0169493
735.294	0.0169280
735.372	0.0169984
735.450	0.0170613
735.529	0.0170211
735.607	0.0169713
735.685	0.0171260
735.763	0.0169884
735.841	0.0169202
735.919	0.0170007
735.997	0.0168512
736.075	0.0167287
736.154	0.0169458
736.232	0.0167924
736.310	0.0166922
736.388	0.0167760
736.466	0.0168270
736.544	0.0167453
736.622	0.0168359
736.700	0.0168942
736.779	0.0168331
736.857	0.0167986
736.935	0.0167995
737.013	0.0167112
737.091	0.0165550
737.169	0.0166682
737.247	0.0166750
737.325	0.0166798
737.404	0.0165601
737.482	0.0165086
737.560	0.0165758
737.638	0.0165371
737.716	0.0163301
737.794	0.0164611
737.872	0.0163479
737.950	0.0164371
738.029	0.0163821
738.107	0.0163613
738.185	0.0163126
738.263	0.0164095
738.341	0.0164307
738.419	0.0164438
738.497	0.0164841
738.575	0.0163329
738.654	0.0165914
738.732	0.0165842
738.810	0.0166476
738.888	0.0165913
738.966	0.0165736
739.044	0.0168227
739.122	0.0168658
739.200	0.0166734
739.279	0.0168118
739.357	0.0169742
739.435	0.0168748
739.513	0.0167856
739.591	0.0168400
739.669	0.0168726
739.747	0.0168769
739.825	0.0168119
739.904	0.0168141
739.982	0.0166833
740.060	0.0166759
740.138	0.0168068
740.216	0.0167896
740.294	0.0166866
740.372	0.0166399
740.450	0.0166590
740.529	0.0166869
740.607	0.0166300
740.685	0.0164291
740.763	0.0165082
740.841	0.0163338
740.919	0.0162935
740.997	0.0163095
741.075	0.0162034
741.154	0.0161983
741.232	0.0162409
741.310	0.0160876
741.388	0.0161360
741.466	0.0160249
741.544	0.0160055
741.622	0.0161310
741.700	0.0160142
741.779	0.0159266
741.857	0.0159511
741.935	0.0161977
742.013	0.0160671
742.091	0.0161399
742.169	0.0161360
742.247	0.0163776
742.325	0.0164481
742.404	0.0164071
742.482	0.0165313
742.560	0.0165701
742.638	0.0167094
742.716	0.0167956
742.794	0.0166497
742.872	0.0168109
742.950	0.0167197
743.029	0.0166204
743.107	0.0167600
743.185	0.0167812
743.263	0.0168011
743.341	0.0167713
743.419	0.0170323
743.497	0.0170791
743.575	0.0172444
743.654	0.0171684
743.732	0.0173346
743.810	0.0170943
743.888	0.0172420
743.966	0.0172440
744.044	0.0172827
744.122	0.0172287
744.200	0.0171884
744.279	0.0171511
744.357	0.0170935
744.435	0.0168686
744.513	0.0169447
744.591	0.0169363
744.669	0.0167281
744.747	0.0165583
744.825	0.0167245
744.904	0.0166086
744.982	0.0165054
745.060	0.0164066
745.138	0.0164326
745.216	0.0163437
745.294	0.0162388
745.372	0.0162489
745.450	0.0162762
745.529	0.0160860
745.607	0.0160150
745.685	0.0160841
745.763	0.0158718
745.841	0.0159311
745.919	0.0160313
745.997	0.0158779
746.075	0.0157888
746.154	0.0158343
746.232	0.0156491
746.310	0.0156615
746.388	0.0156326
746.466	0.0157265
746.544	0.0156864
746.622	0.0155009
746.700	0.0157928
746.779	0.0157111
746.857	0.0156526
746.935	0.0158453
747.013	0.0160164
747.091	0.0161324
747.169	0.0161324
747.247	0.0165016
747.325	0.0167750
747.404	0.0168316
747.482	0.0169671
747.560	0.0171419
747.638	0.0172587
747.716	0.0174480
747.794	0.0173637
747.872	0.0174866
747.950	0.0175910
748.029	0.0174403
748.107	0.0174316
748.185	0.0175506
748.263	0.0174801
748.341	0.0174115
748.419	0.0172775
748.497	0.0172198
748.575	0.0169514
748.654	0.0170997
748.732	0.0170421
748.810	0.0167690
748.888	0.0168190
748.966	0.0167603
749.044	0.0165457
749.122	0.0165236
749.200	0.0164903
749.279	0.0162411
749.357	0.0161370
749.435	0.0161863
749.513	0.0159994
749.591	0.0159431
749.669	0.0158514
749.747	0.0159169
749.825	0.0158321
749.904	0.0157028
749.982	0.0155522
750.060	0.0155487
750.138	0.0156051
750.216	0.0158265
750.294	0.0156767
750.372	0.0157104
750.450	0.0158545
750.529	0.0160971
750.607	0.0162325
750.685	0.0163224
750.763	0.0163524
750.841	0.0164032
750.919	0.0165881
750.997	0.0168110
751.075	0.0166734
751.154	0.0166975
751.232	0.0168756
751.310	0.0168564
751.388	0.0169465
751.466	0.0168848
751.544	0.0167432
751.622	0.0168068
751.700	0.0168385
751.779	0.0168951
751.857	0.0171057
751.935	0.0169632
752.013	0.0168259
752.091	0.0168265
752.169	0.0169086
752.247	0.0168349
752.325	0.0167943
752.404	0.0166692
752.482	0.0167056
752.560	0.0167375
752.638	0.0166737
752.716	0.0166068
752.794	0.0165263
752.872	0.0164737
752.950	0.0165025
753.029	0.0164120
753.107	0.0163486
753.185	0.0165039
753.263	0.0162749
753.341	0.0162920
753.419	0.0163979
753.497	0.0164634
753.575	0.0163680
753.654	0.0164085
753.732	0.0164245
753.810	0.0164613
753.888	0.0164982
753.966	0.0165192
754.044	0.0166691
754.122	0.0166136
754.200	0.0164906
754.279	0.0165607
754.357	0.0166117
754.435	0.0166555
754.513	0.0165518
754.591	0.0165903
754.669	0.0165718
754.747	0.0163686
754.825	0.0165163
754.904	0.0164146
754.982	0.0163815
755.060	0.0163857
755.138	0.0165085
755.216	0.0163325
755.294	0.0163524
755.372	0.0164636
755.450	0.0164890
755.529	0.0165579
755.607	0.0165303
755.685	0.0165517
755.763	0.0166322
755.841	0.0166852
755.919	0.0166914
755.997	0.0167595
756.075	0.0167545
756.154	0.0167713
756.232	0.0167589
756.310	0.0167185
756.388	0.0166931
756.466	0.0166882
756.544	0.0166846
756.622	0.0166882
756.700	0.0165713
756.779	0.0164990
756.857	0.0164236
756.935	0.0162381
757.013	0.0163183
757.091	0.0164323
757.169	0.0162145
757.247	0.0163476
757.325	0.0163291
757.404	0.0161496
757.482	0.0162032
757.560	0.0162376
757.638	0.0162331
757.716	0.0163762
757.794	0.0163265
757.872	0.0163425
757.950	0.0164731
758.029	0.0165170
758.107	0.0165839
758.185	0.0165559
758.263	0.0166613
758.341	0.0166727
758.419	0.0167184
758.497	0.0167970
758.575	0.0166853
758.654	0.0166796
758.732	0.0166000
758.810	0.0167367
758.888	0.0166054
758.966	0.0167027
759.044	0.0166775
759.122	0.0166786
759.200	0.0166264
759.279	0.0165951
759.357	0.0166338
759.435	0.0165909
759.513	0.0165849
759.591	0.0166374
759.669	0.0167410
759.747	0.0165648
759.825	0.0166933
759.904	0.0168993
759.982	0.0167902
760.060	0.0166727
760.138	0.0167434
760.216	0.0167265
760.294	0.0165908
760.372	0.0165707
760.450	0.0165354
760.529	0.0165913
760.607	0.0165859
760.685	0.0164321
760.763	0.0164564
760.841	0.0165049
760.919	0.0165351
760.997	0.0163637
761.075	0.0164468
761.154	0.0162774
761.232	0.0165276
761.310	0.0165340
761.388	0.0164130
761.466	0.0164938
761.544	0.0165385
761.622	0.0164153
761.700	0.0165941
761.779	0.0167059
761.857	0.0166685
761.935	0.0167448
762.013	0.0167794
762.091	0.0167051
762.169	0.0167748
762.247	0.0168134
762.325	0.0167690
762.404	0.0167268
762.482	0.0168461
762.560	0.0167886
762.638	0.0166547
762.716	0.0167509
762.794	0.0167413
762.872	0.0167393
762.950	0.0166827
763.029	0.0166998
763.107	0.0167228
763.185	0.0165016
763.263	0.0165813
763.341	0.0166329
763.419	0.0166651
763.497	0.0166172
763.575	0.0164944
763.654	0.0164972
763.732	0.0167490
763.810	0.0165002
763.888	0.0165789
763.966	0.0164406
764.044	0.0164997
764.122	0.0164572
764.200	0.0164939
764.279	0.0165582
764.357	0.0163952
764.435	0.0164775
764.513	0.0163860
764.591	0.0164365
764.669	0.0165103
764.747	0.0163233
764.825	0.0164299
764.904	0.0165092
764.982	0.0164405
765.060	0.0163988
765.138	0.0164329
765.216	0.0165405
765.294	0.0163913
765.372	0.0164387
765.450	0.0164087
765.529	0.0163873
765.607	0.0163470
765.685	0.0164840
765.763	0.0165823
765.841	0.0165062
765.919	0.0164331
765.997	0.0165932
766.075	0.0165546
766.154	0.0166154
766.232	0.0166590
766.310	0.0167283
766.388	0.0165867
766.466	0.0166037
766.544	0.0167732
766.622	0.0168256
766.700	0.0168075
766.779	0.0166780
766.857	0.0167518
766.935	0.0168592
767.013	0.0169370
767.091	0.0168690
767.169	0.0168110
767.247	0.0167667
767.325	0.0169201
767.404	0.0167286
767.482	0.0167228
767.560	0.0167165
767.638	0.0166505
767.716	0.0167249
767.794	0.0165909
767.872	0.0166251
767.950	0.0165825
768.029	0.0165411
768.107	0.0167052
768.185	0.0167152
768.263	0.0165214
768.341	0.0164079
768.419	0.0165879
768.497	0.0167795
768.575	0.0166173
768.654	0.0165328
768.732	0.0165347
768.810	0.0166053
768.888	0.0165163
768.966	0.0166109
769.044	0.0165509
769.122	0.0164465
769.200	0.0164414
769.279	0.0164639
769.357	0.0163044
769.435	0.0162961
769.513	0.0162326
769.591	0.0161346
769.669	0.0161768
769.747	0.0161918
769.825	0.0160848
769.904	0.0160825
769.982	0.0162009
770.060	0.0162270
770.138	0.0162717
770.216	0.0163000
770.294	0.0164733
770.372	0.0165179
770.450	0.0165721
770.529	0.0164871
770.607	0.0166716
770.685	0.0167781
770.763	0.0168513
770.841	0.0169109
770.919	0.0170483
770.997	0.0171675
771.075	0.0171748
771.154	0.0172520
771.232	0.0171867
771.310	0.0171483
771.388	0.0171762
771.466	0.0173274
771.544	0.0170428
771.622	0.0170565
771.700	0.0170788
771.779	0.0168294
771.857	0.0167473
771.935	0.0166251
772.013	0.0165030
772.091	0.0165356
772.169	0.0163082
772.247	0.0163486
772.325	0.0161950
772.404	0.0160390
772.482	0.0159755
772.560	0.0160104
772.638	0.0159622
772.716	0.0160690
772.794	0.0160667
772.872	0.0160526
772.950	0.0160025
773.029	0.0159319
773.107	0.0160073
773.185	0.0160904
773.263	0.0160164
773.341	0.0160467
773.419	0.0161549
773.497	0.0161263
773.575	0.0161985
773.654	0.0163378
773.732	0.0162899
773.810	0.0161983
773.888	0.0164132
773.966	0.0165475
774.044	0.0164566
774.122	0.0165015
774.200	0.0165258
774.279	0.0165067
774.357	0.0166925
774.435	0.0166006
774.513	0.0166804
774.591	0.0167857
774.669	0.0169725
774.747	0.0168114
774.825	0.0169276
774.904	0.0171233
774.982	0.0170725
775.060	0.0170525
775.138	0.0170281
775.216	0.0172401
775.294	0.0172353
775.372	0.0171877
775.450	0.0171368
775.529	0.0170694
775.607	0.0172145
775.685	0.0172066
775.763	0.0172788
775.841	0.0171227
775.919	0.0170992
775.997	0.0168883
776.075	0.0168075
776.154	0.0167986
776.232	0.0167158
776.310	0.0167010
776.388	0.0164876
776.466	0.0165295
776.544	0.0164548
776.622	0.0164329
776.700	0.0162492
776.779	0.0162115
776.857	0.0159918
776.935	0.0161167
777.013	0.0160043
777.091	0.0160165
777.169	0.0160569
777.247	0.0160946
777.325	0.0159755
777.404	0.0159525
777.482	0.0160696
777.560	0.0160874
777.638	0.0161649
777.716	0.0162749
777.794	0.0162924
777.872	0.0163547
777.950	0.0164306
778.029	0.0164472
778.107	0.0164265
778.185	0.0166094
778.263	0.0167213
778.341	0.0166257
778.419	0.0166335
778.497	0.0165617
778.575	0.0165889
778.654	0.0166605
778.732	0.0165289
778.810	0.0164912
778.888	0.0164033
778.966	0.0165680
779.044	0.0166396
779.122	0.0165947
779.200	0.0166652
779.279	0.0167273
779.357	0.0169134
779.435	0.0169337
779.513	0.0170049
779.591	0.0170007
779.669	0.0170655
779.747	0.0171063
779.825	0.0171029
779.904	0.0172499
779.982	0.0171639
780.060	0.0171126
780.138	0.0172069
780.216	0.0171095
780.294	0.0169885
780.372	0.0169247
780.450	0.0169297
780.529	0.0168231
780.607	0.0166827
780.685	0.0168117
780.763	0.0166124
780.841	0.0166091
780.919	0.0164319
780.997	0.0163187
781.075	0.0162750
781.154	0.0162202
781.232	0.0163383
781.310	0.0160451
781.388	0.0160957
781.466	0.0160494
781.544	0.0160434
781.622	0.0158920
781.700	0.0160033
781.779	0.0159746
781.857	0.0160034
781.935	0.0161395
782.013	0.0159577
782.091	0.0159459
782.169	0.0161427
782.247	0.0161955
782.325	0.0161946
782.404	0.0164528
782.482	0.0164468
782.560	0.0163835
782.638	0.0164679
782.716	0.0166798
782.794	0.0166053
782.872	0.0166415
782.950	0.0165384
783.029	0.0166961
783.107	0.0168925
783.185	0.0168590
783.263	0.0167725
783.341	0.0169141
783.419	0.0168661
783.497	0.0167422
783.575	0.0170150
783.654	0.0170020
783.732	0.0170033
783.810	0.0169505
783.888	0.0170508
783.966	0.0170354
784.044	0.0170728
784.122	0.0170538
784.200	0.0170654
784.279	0.0169540
784.357	0.0170788
784.435	0.0170335
784.513	0.0169250
784.591	0.0170055
784.669	0.0169898
784.747	0.0167201
784.825	0.0167018
784.904	0.0167628
784.982	0.0166869
785.060	0.0165823
785.138	0.0163867
785.216	0.0163528
785.294	0.0162789
785.372	0.0162743
785.450	0.0161593
785.529	0.0162255
785.607	0.0161598
785.685	0.0161713
785.763	0.0161145
785.841	0.0162507
785.919	0.0160606
785.997	0.0162729
786.075	0.0162585
786.154	0.0161911
786.232	0.0161765
786.310	0.0162559
786.388	0.0161278
786.466	0.0163289
786.544	0.0163499
786.622	0.0164317
786.700	0.0165732
786.779	0.0164722
786.857	0.0166460
786.935	0.0168176
787.013	0.0168629
787.091	0.0169382
787.169	0.0168079
787.247	0.0170805
787.325	0.0170354
787.404	0.0172526
787.482	0.0171441
787.560	0.0170200
787.638	0.0169895
787.716	0.0170521
787.794	0.0172562
787.872	0.0172283
787.950	0.0170229
788.029	0.0169886
788.107	0.0170473
788.185	0.0169643
788.263	0.0169937
788.341	0.0167828
788.419	0.0168088
788.497	0.0168090
788.575	0.0166913
788.654	0.0165604
788.732	0.0165469
788.810	0.0165681
788.888	0.0162877
788.966	0.0161710
789.044	0.0161947
789.122	0.0160378
789.200	0.0159052
789.279	0.0158021
789.357	0.0158751
789.435	0.0156632
789.513	0.0157160
789.591	0.0155233
789.669	0.0155971
789.747	0.0156161
789.825	0.0156689
789.904	0.0158456
789.982	0.0158383
790.060	0.0158810
790.138	0.0159831
790.216	0.0159948
790.294	0.0161318
790.372	0.0162740
790.450	0.0164755
790.529	0.0166874
790.607	0.0168565
790.685	0.0168625
790.763	0.0169630
790.841	0.0172518
790.919	0.0173044
790.997	0.0173103
791.075	0.0174390
791.154	0.0175777
791.232	0.0176053
791.310	0.0175394
791.388	0.0176616
791.466	0.0176910
791.544	0.0175166
791.622	0.0176194
791.700	0.0176463
791.779	0.0174877
791.857	0.0174287
791.935	0.0175642
792.013	0.0174595
792.091	0.0174479
792.169	0.0173824
792.247	0.0174664
792.325	0.0173153
792.404	0.0172817
792.482	0.0169811
792.560	0.0167839
792.638	0.0169225
792.716	0.0167422
792.794	0.0165284
792.872	0.0163124
792.950	0.0161801
793.029	0.0161093
793.107	0.0160969
793.185	0.0159588
793.263	0.0156545
793.341	0.0156136
793.419	0.0154012
793.497	0.0153685
793.575	0.0153850
793.654	0.0153555
793.732	0.0152596
793.810	0.0152264
793.888	0.0153300
793.966	0.0150803
794.044	0.0151711
794.122	0.0152213
794.200	0.0151713
794.279	0.0152909
794.357	0.0154034
794.435	0.0157426
794.513	0.0157278
794.591	0.0158082
794.669	0.0159430
794.747	0.0161980
794.825	0.0162901
794.904	0.0164495
794.982	0.0166483
795.060	0.0167432
795.138	0.0169585
795.216	0.0171334
795.294	0.0173739
795.372	0.0174573
795.450	0.0177361
795.529	0.0177317
795.607	0.0179809
795.685	0.0179868
795.763	0.0181033
795.841	0.0182507
795.919	0.0180952
795.997	0.0179932
796.075	0.0180973
796.154	0.0179292
796.232	0.0179908
796.310	0.0177377
796.388	0.0176935
796.466	0.0177260
796.544	0.0175864
796.622	0.0174075
796.700	0.0171400
796.779	0.0171445
796.857	0.0170613
796.935	0.0169428
797.013	0.0167452
797.091	0.0163923
797.169	0.0164797
797.247	0.0163197
797.325	0.0161396
797.404	0.0159314
797.482	0.0159452
797.560	0.0158865
797.638	0.0156558
797.716	0.0157436
797.794	0.0156281
797.872	0.0155240
797.950	0.0154802
798.029	0.0154195
798.107	0.0153719
798.185	0.0153189
798.263	0.0152944
798.341	0.0153059
798.419	0.0154791
798.497	0.0153471
798.575	0.0153870
798.654	0.0153652
798.732	0.0154225
798.810	0.0154610
798.888	0.0155779
798.966	0.0155964
799.044	0.0158534
799.122	0.0158527
799.200	0.0160745
799.279	0.0160978
799.357	0.0162865
799.435	0.0166694
799.513	0.0167577
799.591	0.0168604
799.669	0.0169698
799.747	0.0171639
799.825	0.0172478
799.904	0.0173525
799.982	0.0174394
800.060	0.0175858
800.138	0.0176138
800.216	0.0176483
800.294	0.0178222
800.372	0.0177473
800.450	0.0178978
800.529	0.0178234
800.607	0.0177375
800.685	0.0177821
800.763	0.0178038
800.841	0.0178182
800.919	0.0175230
800.997	0.0176154
801.075	0.0174859
801.154	0.0172401
801.232	0.0170071
801.310	0.0168765
801.388	0.0168970
801.466	0.0167020
801.544	0.0167284
801.622	0.0165144
801.700	0.0163017
801.779	0.0163512
801.857	0.0161942
801.935	0.0160693
802.013	0.0160664
802.091	0.0161283
802.169	0.0161178
802.247	0.0160376
802.325	0.0159826
802.404	0.0157874
802.482	0.0158675
802.560	0.0158643
802.638	0.0158651
802.716	0.0158899
802.794	0.0158073
802.872	0.0158322
802.950	0.0157363
803.029	0.0158170
803.107	0.0156838
803.185	0.0156255
803.263	0.0157513
803.341	0.0156482
803.419	0.0157109
803.497	0.0157973
803.575	0.0157244
803.654	0.0157458
803.732	0.0160197
803.810	0.0160973
803.888	0.0160169
803.966	0.0161512
804.044	0.0164565
804.122	0.0165715
804.200	0.0166930
804.279	0.0167868
804.357	0.0169406
804.435	0.0171451
804.513	0.0172251
804.591	0.0172956
804.669	0.0175108
804.747	0.0174953
804.825	0.0177093
804.904	0.0175643
804.982	0.0176456
805.060	0.0176627
805.138	0.0176404
805.216	0.0175341
805.294	0.0174392
805.372	0.0174429
805.450	0.0173529
805.529	0.0172193
805.607	0.0170745
805.685	0.0170207
805.763	0.0169667
805.841	0.0167715
805.919	0.0168216
805.997	0.0166327
806.075	0.0163979
806.154	0.0164877
806.232	0.0164243
806.310	0.0163308
806.388	0.0163706
806.466	0.0162345
806.544	0.0161493
806.622	0.0162569
806.700	0.0163594
806.779	0.0161956
806.857	0.0162251
806.935	0.0161971
807.013	0.0161068
807.091	0.0162692
807.169	0.0161264
807.247	0.0161444
807.325	0.0161017
807.404	0.0161924
807.482	0.0161286
807.560	0.0161451
807.638	0.0160860
807.716	0.0160945
807.794	0.0162383
807.872	0.0161964
807.950	0.0160842
808.029	0.0160286
808.107	0.0161491
808.185	0.0161604
808.263	0.0161546
808.341	0.0163165
808.419	0.0162705
808.497	0.0163071
808.575	0.0163917
808.654	0.0164162
808.732	0.0166851
808.810	0.0166519
808.888	0.0167659
808.966	0.0166920
809.044	0.0167648
809.122	0.0167969
809.200	0.0169592
809.279	0.0169637
809.357	0.0169231
809.435	0.0171545
809.513	0.0171157
809.591	0.0172105
809.669	0.0170130
809.747	0.0171615
809.825	0.0171437
809.904	0.0171087
809.982	0.0170889
810.060	0.0172170
810.138	0.0170355
810.216	0.0170691
810.294	0.0169545
810.372	0.0170542
810.450	0.0168980
810.529	0.0167527
810.607	0.0167419
810.685	0.0167062
810.763	0.0166083
810.841	0.0167097
810.919	0.0165051
810.997	0.0166501
811.075	0.0163970
811.154	0.0164532
811.232	0.0166197
811.310	0.0164617
811.388	0.0164587
811.466	0.0163211
811.544	0.0164583
811.622	0.0163055
811.700	0.0163446
811.779	0.0164231
811.857	0.0163652
811.935	0.0164246
812.013	0.0164075
812.091	0.0163813
812.169	0.0163696
812.247	0.0164481
812.325	0.0165016
812.404	0.0164326
812.482	0.0164673
812.560	0.0164511
812.638	0.0164190
812.716	0.0165019
812.794	0.0164434
812.872	0.0163881
812.950	0.0165234
813.029	0.0164122
813.107	0.0163828
813.185	0.0163361
813.263	0.0164924
813.341	0.0165173
813.419	0.0164548
813.497	0.0164623
813.575	0.0164800
813.654	0.0164485
813.732	0.0163393
813.810	0.0164628
813.888	0.0163865
813.966	0.0164030
814.044	0.0164441
814.122	0.0164916
814.200	0.0163734
814.279	0.0163779
814.357	0.0165274
814.435	0.0165417
814.513	0.0165362
814.591	0.0163950
814.669	0.0164250
814.747	0.0164400
814.825	0.0165807
814.904	0.0166008
814.982	0.0164734
815.060	0.0164716
815.138	0.0165153
815.216	0.0166136
815.294	0.0166411
815.372	0.0165807
815.450	0.0165967
815.529	0.0166597
815.607	0.0168183
815.685	0.0166631
815.763	0.0168089
815.841	0.0167512
815.919	0.0168238
815.997	0.0169866
816.075	0.0169822
816.154	0.0167777
816.232	0.0169569
816.310	0.0168839
816.388	0.0170006
816.466	0.0169688
816.544	0.0168658
816.622	0.0171064
816.700	0.0169466
816.779	0.0169906
816.857	0.0169772
816.935	0.0170274
817.013	0.0169463
817.091	0.0168923
817.169	0.0167028
817.247	0.0166268
817.325	0.0167461
817.404	0.0166443
817.482	0.0166305
817.560	0.0165878
817.638	0.0164144
817.716	0.0164404
817.794	0.0164458
817.872	0.0163536
817.950	0.0163384
818.029	0.0163377
818.107	0.0164341
818.185	0.0163165
818.263	0.0163280
818.341	0.0162019
818.419	0.0162586
818.497	0.0162373
818.575	0.0162151
818.654	0.0160104
818.732	0.0161060
818.810	0.0162363
818.888	0.0161566
818.966	0.0161471
819.044	0.0160760
819.122	0.0160320
819.200	0.0159182
819.279	0.0160208
819.357	0.0160291
819.435	0.0160358
819.513	0.0158630
819.591	0.0159637
819.669	0.0160599
819.747	0.0160144
819.825	0.0161077
819.904	0.0161095
819.982	0.0162428
820.060	0.0163415
820.138	0.0163409
820.216	0.0162787
820.294	0.0165419
820.372	0.0166348
820.450	0.0166601
820.529	0.0168305
820.607	0.0169684
820.685	0.0168912
820.763	0.0169987
820.841	0.0169623
820.919	0.0170070
820.997	0.0171645
821.075	0.0170964
821.154	0.0170385
821.232	0.0172431
821.310	0.0170045
821.388	0.0170600
821.466	0.0171306
821.544	0.0171899
821.622	0.0171395
821.700	0.0170411
821.779	0.0168303
821.857	0.0167917
821.935	0.0169498
822.013	0.0168736
822.091	0.0167514
822.169	0.0167479
822.247	0.0166713
822.325	0.0166699
822.404	0.0166330
822.482	0.0166207
822.560	0.0166402
822.638	0.0164960
822.716	0.0164781
822.794	0.0165434
822.872	0.0164677
822.950	0.0165205
823.029	0.0162402
823.107	0.0162787
823.185	0.0163422
823.263	0.0161581
823.341	0.0161409
823.419	0.0161921
823.497	0.0161166
823.575	0.0160625
823.654	0.0158678
823.732	0.0159679
823.810	0.0159940
823.888	0.0158905
823.966	0.0160024
824.044	0.0161193
824.122	0.0159812
824.200	0.0159441
824.279	0.0159331
824.357	0.0159644
824.435	0.0158752
824.513	0.0161150
824.591	0.0162922
824.669	0.0162680
824.747	0.0163386
824.825	0.0164600
824.904	0.0164667
824.982	0.0165546
825.060	0.0165015
825.138	0.0168559
825.216	0.0168943
825.294	0.0166762
825.372	0.0169897
825.450	0.0170039
825.529	0.0169341
825.607	0.0169168
825.685	0.0169843
825.763	0.0168699
825.841	0.0171149
825.919	0.0171489
825.997	0.0168858
826.075	0.0169755
826.154	0.0171413
826.232	0.0169907
826.310	0.0168840
826.388	0.0167971
826.466	0.0169026
826.544	0.0168564
826.622	0.0169251
826.700	0.0167539
826.779	0.0166109
826.857	0.0167198
826.935	0.0166354
827.013	0.0167034
827.091	0.0165572
827.169	0.0165171
827.247	0.0166066
827.325	0.0166485
827.404	0.0165201
827.482	0.0165049
827.560	0.0165880
827.638	0.0166143
827.716	0.0164854
827.794	0.0163971
827.872	0.0165212
827.950	0.0166079
828.029	0.0164008
828.107	0.0163016
828.185	0.0163940
828.263	0.0163286
828.341	0.0163213
828.419	0.0162544
828.497	0.0162439
828.575	0.0160250
828.654	0.0160806
828.732	0.0163106
828.810	0.0159560
828.888	0.0159686
828.966	0.0160627
829.044	0.0159126
829.122	0.0160138
829.200	0.0160379
829.279	0.0161610
829.357	0.0160551
829.435	0.0161825
829.513	0.0162849
829.591	0.0163663
829.669	0.0164087
829.747	0.0164995
829.825	0.0165836
829.904	0.0166147
829.982	0.0167264
830.060	0.0167450
830.138	0.0167950
830.216	0.0169156
830.294	0.0170308
830.372	0.0171360
830.450	0.0169617
830.529	0.0169186
830.607	0.0169619
830.685	0.0169860
830.763	0.0169389
830.841	0.0169689
830.919	0.0169534
830.997	0.0167856
831.075	0.0167591
831.154	0.0167780
831.232	0.0167057
831.310	0.0167735
831.388	0.0165787
831.466	0.0165423
831.544	0.0166376
831.622	0.0166326
831.700	0.0166128
831.779	0.0166731
831.857	0.0165256
831.935	0.0163767
832.013	0.0164664
832.091	0.0165788
832.169	0.0163795
832.247	0.0164355
832.325	0.0165035
832.404	0.0165054
832.482	0.0165305
832.560	0.0164231
832.638	0.0166692
832.716	0.0166335
832.794	0.0165088
832.872	0.0165565
832.950	0.0166165
833.029	0.0168158
833.107	0.0166419
833.185	0.0165948
833.263	0.0165623
833.341	0.0164915
833.419	0.0165237
833.497	0.0165347
833.575	0.0165585
833.654	0.0165197
833.732	0.0163181
833.810	0.0164671
833.888	0.0163547
833.966	0.0163692
834.044	0.0165157
834.122	0.0164795
834.200	0.0164198
834.279	0.0164331
834.357	0.0164344
834.435	0.0164977
834.513	0.0164040
834.591	0.0165759
834.669	0.0164960
834.747	0.0163757
834.825	0.0166605
834.904	0.0164577
834.982	0.0164936
835.060	0.0166431
835.138	0.0166602
835.216	0.0166972
835.294	0.0166609
835.372	0.0166598
835.450	0.0166338
835.529	0.0166375
835.607	0.0166850
835.685	0.0166486
835.763	0.0166670
835.841	0.0165834
835.919	0.0166445
835.997	0.0165778
836.075	0.0165752
836.154	0.0165631
836.232	0.0165393
836.310	0.0164030
836.388	0.0162444
836.466	0.0163618
836.544	0.0164365
836.622	0.0161620
836.700	0.0163618
836.779	0.0163592
836.857	0.0164519
836.935	0.0163290
837.013	0.0164585
837.091	0.0164850
837.169	0.0164946
837.247	0.0163959
837.325	0.0166106
837.404	0.0165958
837.482	0.0165389
837.560	0.0168035
837.638	0.0167009
837.716	0.0167461
837.794	0.0167441
837.872	0.0166827
837.950	0.0165923
838.029	0.0166910
838.107	0.0166577
838.185	0.0166467
838.263	0.0166447
838.341	0.0165551
838.419	0.0166905
838.497	0.0166846
838.575	0.0167355
838.654	0.0166891
838.732	0.0165802
838.810	0.0166803
838.888	0.0167685
838.966	0.0166090
839.044	0.0166943
839.122	0.0168400
839.200	0.0166660
839.279	0.0167434
839.357	0.0166576
839.435	0.0165803
839.513	0.0165873
839.591	0.0164975
839.669	0.0164613
839.747	0.0164692
839.825	0.0164087
839.904	0.0163246
839.982	0.0162613
840.060	0.0162288
840.138	0.0164244
840.216	0.0163353
840.294	0.0163503
840.372	0.0161253
840.450	0.0162382
840.529	0.0162798
840.607	0.0162368
840.685	0.0163341
840.763	0.0162878
840.841	0.0164021
840.919	0.0165028
840.997	0.0165092
841.075	0.0164029
841.154	0.0165058
841.232	0.0165781
841.310	0.0165207
841.388	0.0164600
841.466	0.0165301
841.544	0.0165385
841.622	0.0166293
841.700	0.0166171
841.779	0.0166058
841.857	0.0167325
841.935	0.0166448
842.013	0.0166875
842.091	0.0165448
842.169	0.0165784
842.247	0.0166130
842.325	0.0166728
842.404	0.0166277
842.482	0.0164732
842.560	0.0166679
842.638	0.0165600
842.716	0.0164100
842.794	0.0166161
842.872	0.0165428
842.950	0.0166605
843.029	0.0167384
843.107	0.0165980
843.185	0.0165423
843.263	0.0164670
843.341	0.0165886
843.419	0.0166987
843.497	0.0166731
843.575	0.0167265
843.654	0.0166639
843.732	0.0166559
843.810	0.0166691
843.888	0.0167259
843.966	0.0167450
844.044	0.0166833
844.122	0.0166636
844.200	0.0166772
844.279	0.0166666
844.357	0.0165783
844.435	0.0165060
844.513	0.0165314
844.591	0.0164938
844.669	0.0164790
844.747	0.0164889
844.825	0.0163284
844.904	0.0163223
844.982	0.0163015
845.060	0.0162503
845.138	0.0162978
845.216	0.0163268
845.294	0.0162103
845.372	0.0162516
845.450	0.0162255
845.529	0.0161086
845.607	0.0161263
845.685	0.0162203
845.763	0.0164523
845.841	0.0162815
845.919	0.0163602
845.997	0.0163141
846.075	0.0164233
846.154	0.0163759
846.232	0.0163918
846.310	0.0163236
846.388	0.0164783
846.466	0.0164001
846.544	0.0165179
846.622	0.0164528
846.700	0.0164625
846.779	0.0165726
846.857	0.0167595
846.935	0.0166019
847.013	0.0167543
847.091	0.0168960
847.169	0.0167383
847.247	0.0168423
847.325	0.0168640
847.404	0.0168188
847.482	0.0168717
847.560	0.0166643
847.638	0.0167120
847.716	0.0167431
847.794	0.0167515
847.872	0.0168491
847.950	0.0169568
848.029	0.0168421
848.107	0.0167616
848.185	0.0168389
848.263	0.0167619
848.341	0.0167640
848.419	0.0168828
848.497	0.0167008
848.575	0.0167013
848.654	0.0166344
848.732	0.0166660
848.810	0.0165952
848.888	0.0166598
848.966	0.0165594
849.044	0.0164876
849.122	0.0165009
849.200	0.0164322
849.279	0.0164089
849.357	0.0163350
849.435	0.0162817
849.513	0.0163108
849.591	0.0164613
849.669	0.0165031
849.747	0.0162332
849.825	0.0161780
849.904	0.0163822
849.982	0.0163206
850.060	0.0162357
850.138	0.0163826
850.216	0.0164883
850.294	0.0162301
850.372	0.0163271
850.450	0.0162447
850.529	0.0163577
850.607	0.0163254
850.685	0.0162698
850.763	0.0163925
850.841	0.0163985
850.919	0.0164682
850.997	0.0163132
851.075	0.0163851
851.154	0.0165644
851.232	0.0166502
851.310	0.0166084
851.388	0.0165520
851.466	0.0166216
851.544	0.0165777
851.622	0.0166534
851.700	0.0167220
851.779	0.0167722
851.857	0.0166618
851.935	0.0168279
852.013	0.0167713
852.091	0.0168055
852.169	0.0167299
852.247	0.0167303
852.325	0.0167621
852.404	0.0168073
852.482	0.0167989
852.560	0.0168031
852.638	0.0167615
852.716	0.0166758
852.794	0.0166730
852.872	0.0167225
852.950	0.0168374
853.029	0.0167844
853.107	0.0165668
853.185	0.0165371
853.263	0.0165285
853.341	0.0166049
853.419	0.0165448
853.497	0.0167060
853.575	0.0166516
853.654	0.0164575
853.732	0.0165811
853.810	0.0167028
853.888	0.0165410
853.966	0.0165110
854.044	0.0165095
854.122	0.0164644
854.200	0.0165024
854.279	0.0164988
854.357	0.0163738
854.435	0.0164523
854.513	0.0163792
854.591	0.0163862
854.669	0.0164603
854.747	0.0163943
854.825	0.0163932
854.904	0.0162226
854.982	0.0164487
855.060	0.0163681
855.138	0.0163048
855.216	0.0162975
855.294	0.0163425
855.372	0.0163032
855.450	0.0162634
855.529	0.0163773
855.607	0.0163547
855.685	0.0164463
855.763	0.0164896
855.841	0.0166929
855.919	0.0164562
855.997	0.0165033
856.075	0.0166200
856.154	0.0166869
856.232	0.0166764
856.310	0.0165601
856.388	0.0166875
856.466	0.0167479
856.544	0.0168300
856.622	0.0165995
856.700	0.0166241
856.779	0.0166676
856.857	0.0167222
856.935	0.0167274
857.013	0.0167935
857.091	0.0167549
857.169	0.0167687
857.247	0.0166221
857.325	0.0167487
857.404	0.0166687
857.482	0.0167248
857.560	0.0166341
857.638	0.0167704
857.716	0.0167477
857.794	0.0167697
857.872	0.0167010
857.950	0.0168917
858.029	0.0167894
858.107	0.0167305
858.185	0.0166792
858.263	0.0166849
858.341	0.0167369
858.419	0.0166994
858.497	0.0166376
858.575	0.0165868
858.654	0.0166331
858.732	0.0165573
858.810	0.0164913
858.888	0.0165130
858.966	0.0164807
859.044	0.0164366
859.122	0.0164642
859.200	0.0163168
859.279	0.0163052
859.357	0.0163223
859.435	0.0164621
859.513	0.0163397
859.591	0.0163154
859.669	0.0165900
859.747	0.0164059
859.825	0.0165279
859.904	0.0165003
859.982	0.0163150
860.060	0.0163857
860.138	0.0165094
860.216	0.0164555
860.294	0.0164699
860.372	0.0164315
860.450	0.0165488
860.529	0.0165771
860.607	0.0164208
860.685	0.0164161
860.763	0.0163195
860.841	0.0164075
860.919	0.0163123
860.997	0.0164830
861.075	0.0164439
861.154	0.0163796
861.232	0.0164089
861.310	0.0165268
861.388	0.0164423
861.466	0.0164333
861.544	0.0166224
861.622	0.0165308
861.700	0.0166368
861.779	0.0167114
861.857	0.0166189
861.935	0.0167085
862.013	0.0167036
862.091	0.0168607
862.169	0.0168004
862.247	0.0168870
862.325	0.0168651
862.404	0.0167651
862.482	0.0168167
862.560	0.0169227
862.638	0.0168963
862.716	0.0168170
862.794	0.0167327
862.872	0.0166161
862.950	0.0167773
863.029	0.0166852
863.107	0.0166845
863.185	0.0165758
863.263	0.0164211
863.341	0.0163364
863.419	0.0164104
863.497	0.0164024
863.575	0.0163274
863.654	0.0162175
863.732	0.0162996
863.810	0.0163229
863.888	0.0162575
863.966	0.0161421
864.044	0.0161233
864.122	0.0162104
864.200	0.0163297
864.279	0.0162240
864.357	0.0164386
864.435	0.0163018
864.513	0.0163093
864.591	0.0164629
864.669	0.0165560
864.747	0.0164669
864.825	0.0165161
864.904	0.0165748
864.982	0.0165598
865.060	0.0166127
865.138	0.0165388
865.216	0.0166063
865.294	0.0167731
865.372	0.0167771
865.450	0.0165407
865.529	0.0166614
865.607	0.0165886
865.685	0.0166354
865.763	0.0166393
865.841	0.0167384
865.919	0.0166031
865.997	0.0164823
866.075	0.0167648
866.154	0.0165953
866.232	0.0165833
866.310	0.0168494
866.388	0.0167202
866.466	0.0166600
866.544	0.0167464
866.622	0.0167501
866.700	0.0167238
866.779	0.0167150
866.857	0.0165893
866.935	0.0166894
867.013	0.0167347
867.091	0.0165993
867.169	0.0166754
867.247	0.0164802
867.325	0.0164270
867.404	0.0165076
867.482	0.0165368
867.560	0.0164992
867.638	0.0162353
867.716	0.0163176
867.794	0.0164017
867.872	0.0163759
867.950	0.0163850
868.029	0.0163424
868.107	0.0162832
868.185	0.0162111
868.263	0.0161999
868.341	0.0161993
868.419	0.0161107
868.497	0.0162019
868.575	0.0162158
868.654	0.0161642
868.732	0.0161633
868.810	0.0161617
868.888	0.0161790
868.966	0.0163480
869.044	0.0162878
869.122	0.0163191
869.200	0.0164696
869.279	0.0163765
869.357	0.0166033
869.435	0.0167416
869.513	0.0165786
869.591	0.0165746
869.669	0.0168587
869.747	0.0167147
869.825	0.0166910
869.904	0.0169023
869.982	0.0168553
870.060	0.0168232
870.138	0.0166659
870.216	0.0166602
870.294	0.0167628
870.372	0.0166239
870.450	0.0166261
870.529	0.0166201
870.607	0.0166828
870.685	0.0167956
870.763	0.0168384
870.841	0.0169530
870.919	0.0168702
870.997	0.0168141
871.075	0.0168947
871.154	0.0169418
871.232	0.0166879
871.310	0.0168996
871.388	0.0168889
871.466	0.0168269
871.544	0.0168818
871.622	0.0167074
871.700	0.0168120
871.779	0.0167757
871.857	0.0167881
871.935	0.0167701
872.013	0.0168074
872.091	0.0167678
872.169	0.0164709
872.247	0.0164806
872.325	0.0162466
872.404	0.0163025
872.482	0.0161565
872.560	0.0161163
872.638	0.0159287
872.716	0.0160570
872.794	0.0160944
872.872	0.0160201
872.950	0.0159097
873.029	0.0160494
873.107	0.0161798
873.185	0.0160960
873.263	0.0162170
873.341	0.0163741
873.419	0.0161581
873.497	0.0164853
873.575	0.0163210
873.654	0.0164536
873.732	0.0164526
873.810	0.0162983
873.888	0.0165060
873.966	0.0164404
874.044	0.0164698
874.122	0.0165445
874.200	0.0164849
874.279	0.0165666
874.357	0.0166600
874.435	0.0166161
874.513	0.0165739
874.591	0.0166697
874.669	0.0168376
874.747	0.0167331
874.825	0.0167958
874.904	0.0170446
874.982	0.0169537
875.060	0.0168531
875.138	0.0168670
875.216	0.0168902
875.294	0.0168143
875.372	0.0167053
875.450	0.0166239
875.529	0.0165605
875.607	0.0165166
875.685	0.0166056
875.763	0.0165317
875.841	0.0165819
875.919	0.0165594
875.997	0.0165553
876.075	0.0166438
876.154	0.0167281
876.232	0.0166900
876.310	0.0167970
876.388	0.0167741
876.466	0.0167365
876.544	0.0168395
876.622	0.0167439
876.700	0.0167381
876.779	0.0165329
876.857	0.0164989
876.935	0.0163121
877.013	0.0164001
877.091	0.0163802
877.169	0.0162701
877.247	0.0162460
877.325	0.0162791
877.404	0.0162714
877.482	0.0162093
877.560	0.0163834
877.638	0.0162853
877.716	0.0163024
877.794	0.0163025
877.872	0.0162264
877.950	0.0161152
878.029	0.0163145
878.107	0.0162976
878.185	0.0162267
878.263	0.0162252
878.341	0.0162099
878.419	0.0163795
878.497	0.0163477
878.575	0.0164664
878.654	0.0164429
878.732	0.0165118
878.810	0.0166895
878.888	0.0168343
878.966	0.0168627
879.044	0.0169056
879.122	0.0168806
879.200	0.0170349
879.279	0.0169457
879.357	0.0169491
879.435	0.0168213
879.513	0.0168278
879.591	0.0166881
879.669	0.0166954
879.747	0.0166281
879.825	0.0167501
879.904	0.0165539
879.982	0.0164497
880.060	0.0165624
880.138	0.0165993
880.216	0.0165023
880.294	0.0164113
880.372	0.0165213
880.450	0.0164226
880.529	0.0163360
880.607	0.0164463
880.685	0.0164664
880.763	0.0164011
880.841	0.0163730
880.919	0.0165134
880.997	0.0165357
881.075	0.0164832
881.154	0.0165633
881.232	0.0166059
881.310	0.0166473
881.388	0.0165452
881.466	0.0166364
881.544	0.0167325
881.622	0.0168253
881.700	0.0166757
881.779	0.0167207
881.857	0.0167808
881.935	0.0168291
882.013	0.0167965
882.091	0.0166856
882.169	0.0167447
882.247	0.0166861
882.325	0.0165944
882.404	0.0165348
882.482	0.0167123
882.560	0.0166946
882.638	0.0165824
882.716	0.0165367
882.794	0.0164759
882.872	0.0165898
882.950	0.0164785
883.029	0.0163916
883.107	0.0164950
883.185	0.0164611
883.263	0.0164448
883.341	0.0164760
883.419	0.0164505
883.497	0.0164060
883.575	0.0163768
883.654	0.0163828
883.732	0.0162383
883.810	0.0163264
883.888	0.0163403
883.966	0.0164563
884.044	0.0162959
884.122	0.0162742
884.200	0.0163790
884.279	0.0162114
884.357	0.0161314
884.435	0.0162846
884.513	0.0161443
884.591	0.0161223
884.669	0.0160773
884.747	0.0161049
884.825	0.0160904
884.904	0.0160901
884.982	0.0162049
885.060	0.0161267
885.138	0.0162384
885.216	0.0165179
885.294	0.0164843
885.372	0.0166434
885.450	0.0167474
885.529	0.0168082
885.607	0.0169270
885.685	0.0170882
885.763	0.0171443
885.841	0.0172225
885.919	0.0175045
885.997	0.0174109
886.075	0.0175122
886.154	0.0175183
886.232	0.0173843
886.310	0.0173869
886.388	0.0174310
886.466	0.0171498
886.544	0.0169953
886.622	0.0168986
886.700	0.0166463
886.779	0.0165200
886.857	0.0164444
886.935	0.0164226
887.013	0.0164063
887.091	0.0161421
887.169	0.0161058
887.247	0.0161737
887.325	0.0162405
887.404	0.0161961
887.482	0.0162869
887.560	0.0162638
887.638	0.0163804
887.716	0.0164524
887.794	0.0164268
887.872	0.0162339
887.950	0.0162518
888.029	0.0162513
888.107	0.0163376
888.185	0.0162827
888.263	0.0162727
888.341	0.0161895
888.419	0.0163017
888.497	0.0162992
888.575	0.0163956
888.654	0.0163599
888.732	0.0162894
888.810	0.0164044
888.888	0.0164069
888.966	0.0165574
889.044	0.0163804
889.122	0.0162499
889.200	0.0162513
889.279	0.0161481
889.357	0.0160262
889.435	0.0159543
889.513	0.0160213
889.591	0.0159676
889.669	0.0159545
889.747	0.0159103
889.825	0.0161263
889.904	0.0161533
889.982	0.0164208
890.060	0.0166000
890.138	0.0167009
890.216	0.0166327
890.294	0.0169573
890.372	0.0171890
890.450	0.0172907
890.529	0.0173230
890.607	0.0176070
890.685	0.0175671
890.763	0.0177225
890.841	0.0176587
890.919	0.0176278
890.997	0.0176056
891.075	0.0174360
891.154	0.0173480
891.232	0.0171651
891.310	0.0170502
891.388	0.0170131
891.466	0.0167355
891.544	0.0165738
891.622	0.0164591
891.700	0.0163695
891.779	0.0161825
891.857	0.0160203
891.935	0.0159650
892.013	0.0160728
892.091	0.0157457
892.169	0.0157526
892.247	0.0157816
892.325	0.0157177
892.404	0.0157177
892.482	0.0158390
892.560	0.0158775
892.638	0.0158717
892.716	0.0158438
892.794	0.0159840
892.872	0.0160341
892.950	0.0162625
893.029	0.0163198
893.107	0.0164092
893.185	0.0165734
893.263	0.0165694
893.341	0.0165988
893.419	0.0166933
893.497	0.0167398
893.575	0.0169538
893.654	0.0167628
893.732	0.0168268
893.810	0.0165921
893.888	0.0167448
893.966	0.0168033
894.044	0.0165987
894.122	0.0166841
894.200	0.0165582
894.279	0.0164263
894.357	0.0164110
894.435	0.0164652
894.513	0.0164909
894.591	0.0164684
894.669	0.0164030
894.747	0.0165768
894.825	0.0164789
894.904	0.0166160
894.982	0.0166058
895.060	0.0166721
895.138	0.0167857
895.216	0.0168777
895.294	0.0169277
895.372	0.0168703
895.450	0.0169096
895.529	0.0171092
895.607	0.0169484
895.685	0.0171159
895.763	0.0169999
895.841	0.0168880
895.919	0.0167452
895.997	0.0168073
896.075	0.0167109
896.154	0.0167845
896.232	0.0164376
896.310	0.0162929
896.388	0.0163511
896.466	0.0163073
896.544	0.0161784
896.622	0.0161464
896.700	0.0160560
896.779	0.0160610
896.857	0.0160317
896.935	0.0160715
897.013	0.0160024
897.091	0.0161525
897.169	0.0163350
897.247	0.0162688
897.325	0.0163612
897.404	0.0163496
897.482	0.0165327
897.560	0.0165862
897.638	0.0165557
897.716	0.0164619
897.794	0.0166849
897.872	0.0168757
897.950	0.0168746
898.029	0.0168475
898.107	0.0169090
898.185	0.0169144
898.263	0.0168143
898.341	0.0168675
898.419	0.0168371
898.497	0.0167908
898.575	0.0167276
898.654	0.0167742
898.732	0.0166379
898.810	0.0166676
898.888	0.0166784
898.966	0.0166046
899.044	0.0166068
899.122	0.0164787
899.200	0.0164310
899.279	0.0164512
899.357	0.0164715
899.435	0.0163138
899.513	0.0163381
899.591	0.0164196
899.669	0.0164939
899.747	0.0165909
899.825	0.0164275
899.904	0.0163512
899.982	0.0166929
900.060	0.0165737
900.138	0.0166001
900.216	0.0165860
900.294	0.0166796
900.372	0.0166289
900.450	0.0167635
900.529	0.0165510
900.607	0.0165335
900.685	0.0166047
900.763	0.0165807
900.841	0.0164804
900.919	0.0164211
900.997	0.0165422
901.075	0.0162601
901.154	0.0162561
901.232	0.0164135
901.310	0.0162977
901.388	0.0162460
901.466	0.0162704
901.544	0.0164077
901.622	0.0162920
901.700	0.0164668
901.779	0.0165446
901.857	0.0164870
901.935	0.0165686
902.013	0.0165728
902.091	0.0166261
902.169	0.0166872
902.247	0.0166994
902.325	0.0167165
902.404	0.0166625
902.482	0.0166192
902.560	0.0167283
902.638	0.0168375
902.716	0.0166796
902.794	0.0165762
902.872	0.0167090
902.950	0.0166879
903.029	0.0167540
903.107	0.0166177
903.185	0.0168624
903.263	0.0166725
903.341	0.0166904
903.419	0.0165618
903.497	0.0166644
903.575	0.0166858
903.654	0.0164076
903.732	0.0165318
903.810	0.0164727
903.888	0.0164001
903.966	0.0166114
904.044	0.0164816
904.122	0.0165870
904.200	0.0165580
904.279	0.0165234
904.357	0.0164459
904.435	0.0166223
904.513	0.0166328
904.591	0.0166435
904.669	0.0165231
904.747	0.0166253
904.825	0.0165997
904.904	0.0165999
904.982	0.0166099
905.060	0.0166501
905.138	0.0166581
905.216	0.0166146
905.294	0.0164912
905.372	0.0164775
905.450	0.0164114
905.529	0.0163377
905.607	0.0162926
905.685	0.0162117
905.763	0.0161803
905.841	0.0162836
905.919	0.0162515
905.997	0.0162155
906.075	0.0161895
906.154	0.0161662
906.232	0.0162734
906.310	0.0163214
906.388	0.0163950
906.466	0.0164386
906.544	0.0164664
906.622	0.0165289
906.700	0.0166006
906.779	0.0167485
906.857	0.0169579
906.935	0.0168845
907.013	0.0168868
907.091	0.0169858
907.169	0.0168948
907.247	0.0168363
907.325	0.0168916
907.404	0.0168348
907.482	0.0168932
907.560	0.0167052
907.638	0.0167693
907.716	0.0167497
907.794	0.0166032
907.872	0.0165118
907.950	0.0165470
908.029	0.0165700
908.107	0.0163818
908.185	0.0165602
908.263	0.0165025
908.341	0.0163430
908.419	0.0163374
908.497	0.0163300
908.575	0.0163539
908.654	0.0162724
908.732	0.0164297
908.810	0.0164119
908.888	0.0165104
908.966	0.0164863
909.044	0.0165675
909.122	0.0165005
909.200	0.0164500
909.279	0.0164466
909.357	0.0166553
909.435	0.0165832
909.513	0.0164918
909.591	0.0164935
909.669	0.0164919
909.747	0.0165940
909.825	0.0166229
909.904	0.0166059
909.982	0.0165642
910.060	0.0165512
910.138	0.0163695
910.216	0.0163261
910.294	0.0162996
910.372	0.0163258
910.450	0.0161864
910.529	0.0161699
910.607	0.0161202
910.685	0.0162093
910.763	0.0162840
910.841	0.0162487
910.919	0.0163538
910.997	0.0163548
911.075	0.0164582
911.154	0.0165675
911.232	0.0164506
911.310	0.0166136
911.388	0.0166868
911.466	0.0168113
911.544	0.0168543
911.622	0.0167126
911.700	0.0168845
911.779	0.0168990
911.857	0.0169515
911.935	0.0168496
912.013	0.0167110
912.091	0.0168332
912.169	0.0169853
912.247	0.0167240
912.325	0.0167751
912.404	0.0166697
912.482	0.0166875
912.560	0.0166087
912.638	0.0166209
912.716	0.0165548
912.794	0.0164891
912.872	0.0164996
912.950	0.0164748
913.029	0.0163378
913.107	0.0164203
913.185	0.0164912
913.263	0.0165360
913.341	0.0164874
913.419	0.0164837
913.497	0.0164172
913.575	0.0163957
913.654	0.0166268
913.732	0.0164930
913.810	0.0165648
913.888	0.0164778
913.966	0.0164835
914.044	0.0163870
914.122	0.0165116
914.200	0.0166847
914.279	0.0163951
914.357	0.0163921
914.435	0.0164935
914.513	0.0164471
914.591	0.0163686
914.669	0.0163544
914.747	0.0163651
914.825	0.0165581
914.904	0.0165106
914.982	0.0162908
915.060	0.0162881
915.138	0.0163688
915.216	0.0163133
915.294	0.0163515
915.372	0.0164390
915.450	0.0163784
915.529	0.0164157
915.607	0.0164365
915.685	0.0165718
915.763	0.0166057
915.841	0.0165677
915.919	0.0165524
915.997	0.0166756
916.075	0.0165857
916.154	0.0167222
916.232	0.0166824
916.310	0.0166398
916.388	0.0166120
916.466	0.0168146
916.544	0.0167995
916.622	0.0167550
916.700	0.0167492
916.779	0.0166215
916.857	0.0167944
916.935	0.0168649
917.013	0.0167187
917.091	0.0167941
917.169	0.0167174
917.247	0.0164952
917.325	0.0167313
917.404	0.0167580
917.482	0.0167548
917.560	0.0166991
917.638	0.0166372
917.716	0.0166036
917.794	0.0166988
917.872	0.0166107
917.950	0.0166132
918.029	0.0166180
918.107	0.0164507
918.185	0.0165340
918.263	0.0164743
918.341	0.0165790
918.419	0.0164892
918.497	0.0164326
918.575	0.0165861
918.654	0.0164896
918.732	0.0163603
918.810	0.0164323
918.888	0.0162293
918.966	0.0164838
919.044	0.0164111
919.122	0.0163737
919.200	0.0162745
919.279	0.0164238
919.357	0.0162865
919.435	0.0163232
919.513	0.0162588
919.591	0.0162802
919.669	0.0162672
919.747	0.0164032
919.825	0.0164852
919.904	0.0163255
