06/03/2022	14:06:40	Ver.	4.1	UNKNOWN
Optical Delay	599.981738	Delta X		0.078125	Sweeps	1	Scan Rate	0/0
Coordinates	Axis 1	NaN	Axis 2	NaN	Axis 3	NaN	Axis 4	NaN	Axis 5	NaN	Axis 6	0.000000
TX Power	0.000000	RX Power	0.000000

599.982	0.0165553
600.060	0.0164371
600.138	0.0165667
600.216	0.0164651
600.294	0.0165310
600.372	0.0166400
600.450	0.0165607
600.529	0.0166488
600.607	0.0165247
600.685	0.0165833
600.763	0.0165904
600.841	0.0165899
600.919	0.0165366
600.997	0.0166402
601.075	0.0166589
601.154	0.0165582
601.232	0.0164954
601.310	0.0166022
601.388	0.0166505
601.466	0.0165622
601.544	0.0164092
601.622	0.0164283
601.700	0.0165888
601.779	0.0166819
601.857	0.0166195
601.935	0.0165647
602.013	0.0165086
602.091	0.0166186
602.169	0.0165994
602.247	0.0165923
602.325	0.0165427
602.404	0.0165356
602.482	0.0165754
602.560	0.0164817
602.638	0.0165118
602.716	0.0164412
602.794	0.0166325
602.872	0.0165899
602.950	0.0166265
603.029	0.0165602
603.107	0.0164258
603.185	0.0165923
603.263	0.0165176
603.341	0.0165215
603.419	0.0165895
603.497	0.0166283
603.575	0.0165675
603.654	0.0164928
603.732	0.0166389
603.810	0.0166524
603.888	0.0165828
603.966	0.0165374
604.044	0.0165398
604.122	0.0166084
604.200	0.0165459
604.279	0.0166457
604.357	0.0166917
604.435	0.0166521
604.513	0.0167160
604.591	0.0166625
604.669	0.0165044
604.747	0.0165701
604.825	0.0166171
604.904	0.0165392
604.982	0.0166020
605.060	0.0166057
605.138	0.0165659
605.216	0.0167051
605.294	0.0167612
605.372	0.0167050
605.450	0.0166030
605.529	0.0166029
605.607	0.0165982
605.685	0.0165069
605.763	0.0165794
605.841	0.0165450
605.919	0.0165188
605.997	0.0166181
606.075	0.0166041
606.154	0.0165721
606.232	0.0165431
606.310	0.0166505
606.388	0.0165143
606.466	0.0164645
606.544	0.0165338
606.622	0.0165543
606.700	0.0165471
606.779	0.0165424
606.857	0.0166419
606.935	0.0165195
607.013	0.0165199
607.091	0.0165245
607.169	0.0165927
607.247	0.0166801
607.325	0.0166407
607.404	0.0165113
607.482	0.0166764
607.560	0.0166918
607.638	0.0165143
607.716	0.0165302
607.794	0.0165895
607.872	0.0166503
607.950	0.0165500
608.029	0.0166206
608.107	0.0167529
608.185	0.0164923
608.263	0.0165865
608.341	0.0165990
608.419	0.0164965
608.497	0.0165534
608.575	0.0165611
608.654	0.0166223
608.732	0.0164923
608.810	0.0165382
608.888	0.0164406
608.966	0.0166891
609.044	0.0166140
609.122	0.0165815
609.200	0.0166417
609.279	0.0165715
609.357	0.0165759
609.435	0.0165624
609.513	0.0165178
609.591	0.0165283
609.669	0.0167169
609.747	0.0165343
609.825	0.0166252
609.904	0.0165310
609.982	0.0166252
610.060	0.0166309
610.138	0.0166628
610.216	0.0167088
610.294	0.0167410
610.372	0.0165456
610.450	0.0166217
610.529	0.0165733
610.607	0.0164866
610.685	0.0167063
610.763	0.0166080
610.841	0.0166927
610.919	0.0166431
610.997	0.0165805
611.075	0.0165110
611.154	0.0165797
611.232	0.0165870
611.310	0.0165575
611.388	0.0165599
611.466	0.0166026
611.544	0.0166820
611.622	0.0165885
611.700	0.0166203
611.779	0.0165673
611.857	0.0167107
611.935	0.0165502
612.013	0.0164995
612.091	0.0165693
612.169	0.0166362
612.247	0.0165510
612.325	0.0166375
612.404	0.0165461
612.482	0.0165983
612.560	0.0165225
612.638	0.0166002
612.716	0.0165746
612.794	0.0164816
612.872	0.0165012
612.950	0.0166071
613.029	0.0163972
613.107	0.0164910
613.185	0.0165650
613.263	0.0165868
613.341	0.0166077
613.419	0.0165643
613.497	0.0165975
613.575	0.0164626
613.654	0.0165064
613.732	0.0166592
613.810	0.0165198
613.888	0.0165025
613.966	0.0164874
614.044	0.0165446
614.122	0.0165993
614.200	0.0164661
614.279	0.0164241
614.357	0.0164314
614.435	0.0166280
614.513	0.0167148
614.591	0.0165045
614.669	0.0164520
614.747	0.0165585
614.825	0.0166940
614.904	0.0165979
614.982	0.0167296
615.060	0.0167593
615.138	0.0164719
615.216	0.0166875
615.294	0.0166041
615.372	0.0165929
615.450	0.0166624
615.529	0.0166882
615.607	0.0167020
615.685	0.0165346
615.763	0.0165045
615.841	0.0164677
615.919	0.0165495
615.997	0.0165948
616.075	0.0165989
616.154	0.0166553
616.232	0.0165004
616.310	0.0163300
616.388	0.0164768
616.466	0.0165765
616.544	0.0165056
616.622	0.0165666
616.700	0.0165067
616.779	0.0165429
616.857	0.0165613
616.935	0.0164612
617.013	0.0164409
617.091	0.0165224
617.169	0.0165115
617.247	0.0165135
617.325	0.0165250
617.404	0.0163584
617.482	0.0164393
617.560	0.0165475
617.638	0.0164834
617.716	0.0166633
617.794	0.0164321
617.872	0.0164895
617.950	0.0163884
618.029	0.0165385
618.107	0.0165400
618.185	0.0164177
618.263	0.0164662
618.341	0.0165685
618.419	0.0165314
618.497	0.0164228
618.575	0.0166126
618.654	0.0165644
618.732	0.0165334
618.810	0.0165350
618.888	0.0167963
618.966	0.0166024
619.044	0.0166231
619.122	0.0165857
619.200	0.0164954
619.279	0.0165623
619.357	0.0165533
619.435	0.0164839
619.513	0.0166473
619.591	0.0166515
619.669	0.0166082
619.747	0.0167705
619.825	0.0167197
619.904	0.0166232
619.982	0.0165342
620.060	0.0166462
620.138	0.0166309
620.216	0.0165423
620.294	0.0166471
620.372	0.0167712
620.450	0.0165369
620.529	0.0166470
620.607	0.0164819
620.685	0.0165879
620.763	0.0165263
620.841	0.0164563
620.919	0.0166213
620.997	0.0165665
621.075	0.0165436
621.154	0.0165636
621.232	0.0166908
621.310	0.0165829
621.388	0.0166315
621.466	0.0166160
621.544	0.0165665
621.622	0.0166164
621.700	0.0164155
621.779	0.0166908
621.857	0.0166689
621.935	0.0164267
622.013	0.0165337
622.091	0.0165857
622.169	0.0165518
622.247	0.0165714
622.325	0.0165174
622.404	0.0165788
622.482	0.0167249
622.560	0.0165108
622.638	0.0164263
622.716	0.0164679
622.794	0.0164776
622.872	0.0166826
622.950	0.0164606
623.029	0.0166571
623.107	0.0165648
623.185	0.0163943
623.263	0.0166406
623.341	0.0164953
623.419	0.0165295
623.497	0.0165426
623.575	0.0165960
623.654	0.0166145
623.732	0.0164608
623.810	0.0163104
623.888	0.0165068
623.966	0.0166660
624.044	0.0166399
624.122	0.0166257
624.200	0.0166970
624.279	0.0166535
624.357	0.0165823
624.435	0.0165583
624.513	0.0165813
624.591	0.0165273
624.669	0.0165049
624.747	0.0166071
624.825	0.0167638
624.904	0.0166113
624.982	0.0164874
625.060	0.0165166
625.138	0.0166207
625.216	0.0165726
625.294	0.0165850
625.372	0.0165720
625.450	0.0165523
625.529	0.0165118
625.607	0.0167204
625.685	0.0166541
625.763	0.0164628
625.841	0.0165691
625.919	0.0165820
625.997	0.0164889
626.075	0.0164768
626.154	0.0164966
626.232	0.0165523
626.310	0.0166017
626.388	0.0164957
626.466	0.0165210
626.544	0.0165473
626.622	0.0164791
626.700	0.0166505
626.779	0.0165070
626.857	0.0165327
626.935	0.0166878
627.013	0.0165981
627.091	0.0166611
627.169	0.0167336
627.247	0.0165494
627.325	0.0164701
627.404	0.0164685
627.482	0.0165984
627.560	0.0166125
627.638	0.0165736
627.716	0.0166259
627.794	0.0165800
627.872	0.0165015
627.950	0.0165399
628.029	0.0165945
628.107	0.0165324
628.185	0.0164610
628.263	0.0167003
628.341	0.0167177
628.419	0.0164957
628.497	0.0165624
628.575	0.0165820
628.654	0.0165588
628.732	0.0165299
628.810	0.0165432
628.888	0.0164804
628.966	0.0165065
629.044	0.0166110
629.122	0.0167532
629.200	0.0166443
629.279	0.0166944
629.357	0.0165581
629.435	0.0164937
629.513	0.0165826
629.591	0.0167242
629.669	0.0165370
629.747	0.0165106
629.825	0.0165942
629.904	0.0165988
629.982	0.0166451
630.060	0.0166701
630.138	0.0166080
630.216	0.0166710
630.294	0.0165562
630.372	0.0165540
630.450	0.0165861
630.529	0.0165412
630.607	0.0166014
630.685	0.0164935
630.763	0.0165482
630.841	0.0165951
630.919	0.0165550
630.997	0.0165519
631.075	0.0165664
631.154	0.0165178
631.232	0.0165497
631.310	0.0166238
631.388	0.0165878
631.466	0.0165630
631.544	0.0166990
631.622	0.0166271
631.700	0.0166927
631.779	0.0165836
631.857	0.0164782
631.935	0.0166229
632.013	0.0165801
632.091	0.0165722
632.169	0.0166115
632.247	0.0166734
632.325	0.0165941
632.404	0.0165296
632.482	0.0163754
632.560	0.0164667
632.638	0.0166354
632.716	0.0164478
632.794	0.0164877
632.872	0.0165291
632.950	0.0165518
633.029	0.0165184
633.107	0.0165421
633.185	0.0164986
633.263	0.0164384
633.341	0.0166425
633.419	0.0166852
633.497	0.0165346
633.575	0.0167452
633.654	0.0164849
633.732	0.0166302
633.810	0.0166518
633.888	0.0167002
633.966	0.0166167
634.044	0.0166650
634.122	0.0166168
634.200	0.0166590
634.279	0.0166028
634.357	0.0166795
634.435	0.0166799
634.513	0.0165902
634.591	0.0166351
634.669	0.0165334
634.747	0.0165363
634.825	0.0165922
634.904	0.0165942
634.982	0.0166019
635.060	0.0165770
635.138	0.0167053
635.216	0.0165385
635.294	0.0166262
635.372	0.0165507
635.450	0.0165810
635.529	0.0166112
635.607	0.0166119
635.685	0.0166690
635.763	0.0165119
635.841	0.0165689
635.919	0.0166267
635.997	0.0165302
636.075	0.0165232
636.154	0.0165113
636.232	0.0165817
636.310	0.0164706
636.388	0.0166179
636.466	0.0166448
636.544	0.0165275
636.622	0.0166342
636.700	0.0165897
636.779	0.0165298
636.857	0.0166219
636.935	0.0165039
637.013	0.0165088
637.091	0.0165836
637.169	0.0165263
637.247	0.0166412
637.325	0.0165990
637.404	0.0166122
637.482	0.0164275
637.560	0.0165160
637.638	0.0165537
637.716	0.0165343
637.794	0.0166157
637.872	0.0165622
637.950	0.0165759
638.029	0.0166079
638.107	0.0165804
638.185	0.0165930
638.263	0.0166027
638.341	0.0166113
638.419	0.0166579
638.497	0.0164212
638.575	0.0165520
638.654	0.0166356
638.732	0.0166361
638.810	0.0165302
638.888	0.0165429
638.966	0.0165092
639.044	0.0165798
639.122	0.0165565
639.200	0.0166353
639.279	0.0167043
639.357	0.0165325
639.435	0.0166474
639.513	0.0167038
639.591	0.0166087
639.669	0.0164938
639.747	0.0164221
639.825	0.0165742
639.904	0.0165398
639.982	0.0166003
640.060	0.0165619
640.138	0.0166855
640.216	0.0165658
640.294	0.0165165
640.372	0.0165662
640.450	0.0165901
640.529	0.0165374
640.607	0.0166245
640.685	0.0165877
640.763	0.0164671
640.841	0.0165600
640.919	0.0165819
640.997	0.0165032
641.075	0.0165209
641.154	0.0166812
641.232	0.0166146
641.310	0.0165146
641.388	0.0166454
641.466	0.0165672
641.544	0.0166180
641.622	0.0167071
641.700	0.0165137
641.779	0.0164821
641.857	0.0165991
641.935	0.0167455
642.013	0.0165990
642.091	0.0165211
642.169	0.0165439
642.247	0.0164642
642.325	0.0166328
642.404	0.0166967
642.482	0.0166831
642.560	0.0165567
642.638	0.0166564
642.716	0.0166937
642.794	0.0165553
642.872	0.0165446
642.950	0.0165671
643.029	0.0165529
643.107	0.0166004
643.185	0.0165751
643.263	0.0165942
643.341	0.0165064
643.419	0.0165469
643.497	0.0166061
643.575	0.0167550
643.654	0.0165226
643.732	0.0165508
643.810	0.0166051
643.888	0.0165573
643.966	0.0165333
644.044	0.0165348
644.122	0.0166820
644.200	0.0166191
644.279	0.0165461
644.357	0.0165978
644.435	0.0165444
644.513	0.0166714
644.591	0.0165565
644.669	0.0165659
644.747	0.0166549
644.825	0.0167267
644.904	0.0166444
644.982	0.0166853
645.060	0.0164330
645.138	0.0164195
645.216	0.0166349
645.294	0.0165280
645.372	0.0165270
645.450	0.0166282
645.529	0.0164640
645.607	0.0165057
645.685	0.0165762
645.763	0.0165823
645.841	0.0166784
645.919	0.0165233
645.997	0.0165940
646.075	0.0165842
646.154	0.0164361
646.232	0.0165898
646.310	0.0166029
646.388	0.0165193
646.466	0.0166718
646.544	0.0166184
646.622	0.0165859
646.700	0.0165404
646.779	0.0166155
646.857	0.0166121
646.935	0.0165455
647.013	0.0165280
647.091	0.0166323
647.169	0.0165059
647.247	0.0164259
647.325	0.0166722
647.404	0.0165531
647.482	0.0165169
647.560	0.0165434
647.638	0.0165720
647.716	0.0165320
647.794	0.0165426
647.872	0.0164726
647.950	0.0164204
648.029	0.0166574
648.107	0.0165469
648.185	0.0165469
648.263	0.0165944
648.341	0.0166721
648.419	0.0165044
648.497	0.0164727
648.575	0.0165410
648.654	0.0166428
648.732	0.0165379
648.810	0.0165997
648.888	0.0165985
648.966	0.0164160
649.044	0.0166112
649.122	0.0165761
649.200	0.0165846
649.279	0.0165990
649.357	0.0165337
649.435	0.0165203
649.513	0.0167258
649.591	0.0165801
649.669	0.0166713
649.747	0.0165422
649.825	0.0165050
649.904	0.0164396
649.982	0.0164807
650.060	0.0165335
650.138	0.0165654
650.216	0.0165174
650.294	0.0166645
650.372	0.0164884
650.450	0.0165926
650.529	0.0164305
650.607	0.0165335
650.685	0.0165118
650.763	0.0165057
650.841	0.0165092
650.919	0.0165880
650.997	0.0166515
651.075	0.0166185
651.154	0.0165373
651.232	0.0166822
651.310	0.0165685
651.388	0.0165990
651.466	0.0165442
651.544	0.0164597
651.622	0.0165195
651.700	0.0165900
651.779	0.0166598
651.857	0.0165396
651.935	0.0164642
652.013	0.0164748
652.091	0.0166372
652.169	0.0164632
652.247	0.0165265
652.325	0.0166118
652.404	0.0165242
652.482	0.0165207
652.560	0.0164417
652.638	0.0164684
652.716	0.0164981
652.794	0.0166399
652.872	0.0164912
652.950	0.0165849
653.029	0.0165005
653.107	0.0163709
653.185	0.0165252
653.263	0.0165324
653.341	0.0164443
653.419	0.0165266
653.497	0.0165361
653.575	0.0165126
653.654	0.0166578
653.732	0.0165255
653.810	0.0165085
653.888	0.0166566
653.966	0.0165979
654.044	0.0165065
654.122	0.0164623
654.200	0.0166377
654.279	0.0164014
654.357	0.0165266
654.435	0.0165842
654.513	0.0165672
654.591	0.0166444
654.669	0.0165060
654.747	0.0163696
654.825	0.0163985
654.904	0.0165799
654.982	0.0165053
655.060	0.0167175
655.138	0.0164993
655.216	0.0165092
655.294	0.0165279
655.372	0.0166048
655.450	0.0165870
655.529	0.0164072
655.607	0.0165623
655.685	0.0166639
655.763	0.0165343
655.841	0.0164425
655.919	0.0165086
655.997	0.0165372
656.075	0.0166376
656.154	0.0165213
656.232	0.0165613
656.310	0.0165285
656.388	0.0165621
656.466	0.0163818
656.544	0.0164658
656.622	0.0164534
656.700	0.0165034
656.779	0.0165824
656.857	0.0165997
656.935	0.0164503
657.013	0.0164162
657.091	0.0164384
657.169	0.0164977
657.247	0.0164259
657.325	0.0165183
657.404	0.0165373
657.482	0.0164681
657.560	0.0165517
657.638	0.0165675
657.716	0.0165723
657.794	0.0165662
657.872	0.0164601
657.950	0.0164495
658.029	0.0166297
658.107	0.0165594
658.185	0.0166847
658.263	0.0165919
658.341	0.0166154
658.419	0.0164453
658.497	0.0166982
658.575	0.0165417
658.654	0.0165759
658.732	0.0165279
658.810	0.0164905
658.888	0.0165782
658.966	0.0165197
659.044	0.0163740
659.122	0.0163704
659.200	0.0165179
659.279	0.0165096
659.357	0.0166159
659.435	0.0165115
659.513	0.0165238
659.591	0.0164478
659.669	0.0165250
659.747	0.0166206
659.825	0.0166217
659.904	0.0165705
659.982	0.0165604
660.060	0.0165942
660.138	0.0165850
660.216	0.0164732
660.294	0.0164726
660.372	0.0164188
660.450	0.0164350
660.529	0.0165728
660.607	0.0164631
660.685	0.0163464
660.763	0.0164726
660.841	0.0166348
660.919	0.0165108
660.997	0.0164855
661.075	0.0165211
661.154	0.0166721
661.232	0.0167362
661.310	0.0165622
661.388	0.0166522
661.466	0.0167092
661.544	0.0166621
661.622	0.0165860
661.700	0.0166008
661.779	0.0166784
661.857	0.0165363
661.935	0.0165486
662.013	0.0165380
662.091	0.0164315
662.169	0.0166425
662.247	0.0164716
662.325	0.0163223
662.404	0.0163815
662.482	0.0165076
662.560	0.0165565
662.638	0.0165198
662.716	0.0164331
662.794	0.0165411
662.872	0.0167075
662.950	0.0165446
663.029	0.0166966
663.107	0.0166508
663.185	0.0166091
663.263	0.0165283
663.341	0.0165173
663.419	0.0165578
663.497	0.0165434
663.575	0.0165345
663.654	0.0164436
663.732	0.0165874
663.810	0.0164887
663.888	0.0165623
663.966	0.0165401
664.044	0.0165060
664.122	0.0166407
664.200	0.0164178
664.279	0.0166550
664.357	0.0165090
664.435	0.0164477
664.513	0.0165308
664.591	0.0166087
664.669	0.0165688
664.747	0.0165742
664.825	0.0164791
664.904	0.0165281
664.982	0.0165813
665.060	0.0166275
665.138	0.0166521
665.216	0.0165133
665.294	0.0167375
665.372	0.0166498
665.450	0.0166609
665.529	0.0167458
665.607	0.0167346
665.685	0.0167056
665.763	0.0167770
665.841	0.0166224
665.919	0.0166768
665.997	0.0167081
666.075	0.0165290
666.154	0.0164538
666.232	0.0165183
666.310	0.0164388
666.388	0.0165211
666.466	0.0164858
666.544	0.0163821
666.622	0.0165110
666.700	0.0164218
666.779	0.0165852
666.857	0.0166814
666.935	0.0167431
667.013	0.0166367
667.091	0.0167805
667.169	0.0166985
667.247	0.0166916
667.325	0.0168497
667.404	0.0167244
667.482	0.0166511
667.560	0.0168050
667.638	0.0166610
667.716	0.0166347
667.794	0.0166655
667.872	0.0166463
667.950	0.0167384
668.029	0.0166770
668.107	0.0164380
668.185	0.0162840
668.263	0.0164933
668.341	0.0164153
668.419	0.0163808
668.497	0.0164163
668.575	0.0165373
668.654	0.0164674
668.732	0.0165176
668.810	0.0165641
668.888	0.0166008
668.966	0.0165598
669.044	0.0167489
669.122	0.0167282
669.200	0.0166242
669.279	0.0168118
669.357	0.0167287
669.435	0.0167598
669.513	0.0166589
669.591	0.0167138
669.669	0.0167622
669.747	0.0166562
669.825	0.0167656
669.904	0.0168142
669.982	0.0167268
670.060	0.0167376
670.138	0.0167891
670.216	0.0168183
670.294	0.0166479
670.372	0.0167603
670.450	0.0166473
670.529	0.0165075
670.607	0.0165770
670.685	0.0165190
670.763	0.0163781
670.841	0.0164438
670.919	0.0164606
670.997	0.0165527
671.075	0.0164138
671.154	0.0164139
671.232	0.0164560
671.310	0.0164130
671.388	0.0163396
671.466	0.0164452
671.544	0.0163870
671.622	0.0163621
671.700	0.0164696
671.779	0.0164938
671.857	0.0163351
671.935	0.0164570
672.013	0.0164530
672.091	0.0163975
672.169	0.0165123
672.247	0.0164677
672.325	0.0165042
672.404	0.0165272
672.482	0.0165039
672.560	0.0165831
672.638	0.0166333
672.716	0.0166369
672.794	0.0167065
672.872	0.0167080
672.950	0.0167157
673.029	0.0165372
673.107	0.0167463
673.185	0.0167796
673.263	0.0166360
673.341	0.0166463
673.419	0.0167164
673.497	0.0167937
673.575	0.0165165
673.654	0.0166267
673.732	0.0164063
673.810	0.0165967
673.888	0.0165620
673.966	0.0166054
674.044	0.0167321
674.122	0.0165238
674.200	0.0165250
674.279	0.0164634
674.357	0.0165227
674.435	0.0165726
674.513	0.0165755
674.591	0.0164879
674.669	0.0166148
674.747	0.0163497
674.825	0.0164376
674.904	0.0166991
674.982	0.0165138
675.060	0.0166019
675.138	0.0166228
675.216	0.0165460
675.294	0.0165243
675.372	0.0164554
675.450	0.0165111
675.529	0.0166524
675.607	0.0166693
675.685	0.0164319
675.763	0.0165748
675.841	0.0166028
675.919	0.0165425
675.997	0.0166436
676.075	0.0165601
676.154	0.0164597
676.232	0.0164456
676.310	0.0165572
676.388	0.0163981
676.466	0.0163029
676.544	0.0161268
676.622	0.0160149
676.700	0.0158179
676.779	0.0159863
676.857	0.0158727
676.935	0.0158816
677.013	0.0159647
677.091	0.0161560
677.169	0.0162541
677.247	0.0163653
677.325	0.0166980
677.404	0.0170090
677.482	0.0172029
677.560	0.0174397
677.638	0.0175488
677.716	0.0174407
677.794	0.0174309
677.872	0.0173268
677.950	0.0169966
678.029	0.0167946
678.107	0.0164838
678.185	0.0159654
678.263	0.0158501
678.341	0.0156914
678.419	0.0156089
678.497	0.0154972
678.575	0.0156447
678.654	0.0158324
678.732	0.0161832
678.810	0.0164281
678.888	0.0166946
678.966	0.0168791
679.044	0.0170796
679.122	0.0174834
679.200	0.0175639
679.279	0.0175343
679.357	0.0177462
679.435	0.0177565
679.513	0.0176299
679.591	0.0176606
679.669	0.0176788
679.747	0.0177436
679.825	0.0176759
679.904	0.0176276
679.982	0.0176833
680.060	0.0173585
680.138	0.0171614
680.216	0.0168696
680.294	0.0164745
680.372	0.0161255
680.450	0.0156487
680.529	0.0151964
680.607	0.0148571
680.685	0.0146589
680.763	0.0145577
680.841	0.0147296
680.919	0.0150268
680.997	0.0153072
681.075	0.0155275
681.154	0.0161633
681.232	0.0167044
681.310	0.0171362
681.388	0.0175641
681.466	0.0176816
681.544	0.0180058
681.622	0.0178294
681.700	0.0176430
681.779	0.0172900
681.857	0.0169331
681.935	0.0164882
682.013	0.0158643
682.091	0.0153063
682.169	0.0145864
682.247	0.0142047
682.325	0.0136667
682.404	0.0133813
682.482	0.0132932
682.560	0.0135058
682.638	0.0137815
682.716	0.0141396
682.794	0.0147165
682.872	0.0154471
682.950	0.0161258
683.029	0.0169835
683.107	0.0176678
683.185	0.0181146
683.263	0.0187022
683.341	0.0188615
683.419	0.0189392
683.497	0.0190040
683.575	0.0188478
683.654	0.0188885
683.732	0.0188874
683.810	0.0190422
683.888	0.0190674
683.966	0.0192187
684.044	0.0194193
684.122	0.0196030
684.200	0.0197440
684.279	0.0198640
684.357	0.0197267
684.435	0.0196930
684.513	0.0192825
684.591	0.0188600
684.669	0.0182474
684.747	0.0176115
684.825	0.0168853
684.904	0.0161983
684.982	0.0155097
685.060	0.0147598
685.138	0.0141929
685.216	0.0137885
685.294	0.0135898
685.372	0.0133160
685.450	0.0133997
685.529	0.0135191
685.607	0.0136638
685.685	0.0138438
685.763	0.0138552
685.841	0.0140964
685.919	0.0143377
685.997	0.0143445
686.075	0.0144476
686.154	0.0144801
686.232	0.0147472
686.310	0.0151881
686.388	0.0155503
686.466	0.0158833
686.544	0.0162865
686.622	0.0166264
686.700	0.0172335
686.779	0.0177703
686.857	0.0181046
686.935	0.0184747
687.013	0.0188031
687.091	0.0189705
687.169	0.0189527
687.247	0.0186722
687.325	0.0182110
687.404	0.0176454
687.482	0.0169337
687.560	0.0164408
687.638	0.0156467
687.716	0.0151456
687.794	0.0147991
687.872	0.0144821
687.950	0.0141837
688.029	0.0140924
688.107	0.0141708
688.185	0.0141657
688.263	0.0144356
688.341	0.0144483
688.419	0.0147916
688.497	0.0151468
688.575	0.0154561
688.654	0.0158313
688.732	0.0161847
688.810	0.0168443
688.888	0.0171577
688.966	0.0178177
689.044	0.0184831
689.122	0.0189276
689.200	0.0193652
689.279	0.0200333
689.357	0.0204758
689.435	0.0206695
689.513	0.0210797
689.591	0.0213503
689.669	0.0211750
689.747	0.0210046
689.825	0.0206343
689.904	0.0201424
689.982	0.0195927
690.060	0.0188665
690.138	0.0183083
690.216	0.0178281
690.294	0.0170630
690.372	0.0166344
690.450	0.0164571
690.529	0.0164362
690.607	0.0162987
690.685	0.0162049
690.763	0.0164219
690.841	0.0166448
690.919	0.0167279
690.997	0.0167813
691.075	0.0169623
691.154	0.0171625
691.232	0.0171477
691.310	0.0170409
691.388	0.0170004
691.466	0.0167282
691.544	0.0164008
691.622	0.0159535
691.700	0.0154453
691.779	0.0149345
691.857	0.0143123
691.935	0.0137093
692.013	0.0131606
692.091	0.0124677
692.169	0.0120597
692.247	0.0113879
692.325	0.0107505
692.404	0.0102187
692.482	0.00980431
692.560	0.00920425
692.638	0.00882721
692.716	0.00848000
692.794	0.00816780
692.872	0.00796112
692.950	0.00800453
693.029	0.00801125
693.107	0.00836784
693.185	0.00914909
693.263	0.0100730
693.341	0.0112238
693.419	0.0126318
693.497	0.0142504
693.575	0.0163783
693.654	0.0184507
693.732	0.0204987
693.810	0.0225693
693.888	0.0245412
693.966	0.0265810
694.044	0.0283655
694.122	0.0299406
694.200	0.0311164
694.279	0.0322242
694.357	0.0327047
694.435	0.0327596
694.513	0.0323638
694.591	0.0315958
694.669	0.0302637
694.747	0.0287310
694.825	0.0267879
694.904	0.0245745
694.982	0.0225213
695.060	0.0203973
695.138	0.0183278
695.216	0.0165951
695.294	0.0151300
695.372	0.0137933
695.450	0.0129252
695.529	0.0122301
695.607	0.0115744
695.685	0.0112941
695.763	0.0111365
695.841	0.0110751
695.919	0.0112264
695.997	0.0113110
696.075	0.0113463
696.154	0.0115571
696.232	0.0116407
696.310	0.0116273
696.388	0.0116992
696.466	0.0116516
696.544	0.0114777
696.622	0.0112302
696.700	0.0112824
696.779	0.0110314
696.857	0.0107146
696.935	0.0103601
697.013	0.0101952
697.091	0.00960289
697.169	0.00927422
697.247	0.00893097
697.325	0.00833214
697.404	0.00790443
697.482	0.00767258
697.560	0.00756493
697.638	0.00766174
697.716	0.00799385
697.794	0.00834526
697.872	0.00908829
697.950	0.0104070
698.029	0.0115788
698.107	0.0133299
698.185	0.0150390
698.263	0.0172218
698.341	0.0192279
698.419	0.0214124
698.497	0.0236627
698.575	0.0256416
698.654	0.0273371
698.732	0.0289515
698.810	0.0302792
698.888	0.0311467
698.966	0.0315094
699.044	0.0319830
699.122	0.0319173
699.200	0.0314358
699.279	0.0307130
699.357	0.0297758
699.435	0.0286247
699.513	0.0270646
699.591	0.0255930
699.669	0.0238810
699.747	0.0221236
699.825	0.0205412
699.904	0.0191867
699.982	0.0176079
700.060	0.0163419
700.138	0.0151571
700.216	0.0140278
700.294	0.0131506
700.372	0.0122662
700.450	0.0115455
700.529	0.0107359
700.607	0.0102405
700.685	0.00980812
700.763	0.00946045
700.841	0.00933899
700.919	0.00912270
700.997	0.00885773
701.075	0.00886566
701.154	0.00887489
701.232	0.00904510
701.310	0.00917068
701.388	0.00940186
701.466	0.00998619
701.544	0.0103083
701.622	0.0108280
701.700	0.0112895
701.779	0.0116582
701.857	0.0120152
701.935	0.0122209
702.013	0.0124347
702.091	0.0125928
702.169	0.0123925
702.247	0.0124164
702.325	0.0123214
702.404	0.0124180
702.482	0.0125965
702.560	0.0128140
702.638	0.0133212
702.716	0.0140854
702.794	0.0148578
702.872	0.0160780
702.950	0.0174004
703.029	0.0187737
703.107	0.0203233
703.185	0.0218269
703.263	0.0232922
703.341	0.0247048
703.419	0.0259914
703.497	0.0269136
703.575	0.0275135
703.654	0.0277987
703.732	0.0277778
703.810	0.0276623
703.888	0.0268737
703.966	0.0259647
704.044	0.0250337
704.122	0.0237536
704.200	0.0221729
704.279	0.0208641
704.357	0.0194553
704.435	0.0182605
704.513	0.0169200
704.591	0.0159937
704.669	0.0150825
704.747	0.0143192
704.825	0.0139098
704.904	0.0133996
704.982	0.0128860
705.060	0.0124120
705.138	0.0123277
705.216	0.0122501
705.294	0.0121101
705.372	0.0121689
705.450	0.0122232
705.529	0.0124390
705.607	0.0125030
705.685	0.0128670
705.763	0.0129421
705.841	0.0133182
705.919	0.0135117
705.997	0.0137126
706.075	0.0141818
706.154	0.0145544
706.232	0.0148392
706.310	0.0151643
706.388	0.0154302
706.466	0.0155265
706.544	0.0154718
706.622	0.0155553
706.700	0.0153803
706.779	0.0150398
706.857	0.0147111
706.935	0.0144130
707.013	0.0138727
707.091	0.0132076
707.169	0.0128433
707.247	0.0126953
707.325	0.0124257
707.404	0.0125928
707.482	0.0127091
707.560	0.0132030
707.638	0.0137915
707.716	0.0145557
707.794	0.0154616
707.872	0.0164855
707.950	0.0175589
708.029	0.0189213
708.107	0.0201180
708.185	0.0211280
708.263	0.0220092
708.341	0.0229576
708.419	0.0235112
708.497	0.0239146
708.575	0.0242297
708.654	0.0243932
708.732	0.0240632
708.810	0.0237539
708.888	0.0233113
708.966	0.0224937
709.044	0.0216678
709.122	0.0207559
709.200	0.0197918
709.279	0.0189781
709.357	0.0183125
709.435	0.0176900
709.513	0.0171581
709.591	0.0166492
709.669	0.0161794
709.747	0.0157813
709.825	0.0154721
709.904	0.0152544
709.982	0.0148629
710.060	0.0146422
710.138	0.0146552
710.216	0.0143885
710.294	0.0143300
710.372	0.0139968
710.450	0.0140140
710.529	0.0139094
710.607	0.0139297
710.685	0.0138640
710.763	0.0136325
710.841	0.0138655
710.919	0.0137573
710.997	0.0138662
711.075	0.0139812
711.154	0.0139907
711.232	0.0138850
711.310	0.0138388
711.388	0.0137926
711.466	0.0134962
711.544	0.0133205
711.622	0.0129036
711.700	0.0127323
711.779	0.0124320
711.857	0.0122211
711.935	0.0121000
712.013	0.0121523
712.091	0.0123217
712.169	0.0124648
712.247	0.0128649
712.325	0.0135110
712.404	0.0142226
712.482	0.0150838
712.560	0.0161182
712.638	0.0171104
712.716	0.0183655
712.794	0.0192068
712.872	0.0202821
712.950	0.0211992
713.029	0.0219234
713.107	0.0225535
713.185	0.0231143
713.263	0.0233750
713.341	0.0236148
713.419	0.0235227
713.497	0.0233302
713.575	0.0231345
713.654	0.0226442
713.732	0.0219861
713.810	0.0213904
713.888	0.0208013
713.966	0.0200000
714.044	0.0192814
714.122	0.0185568
714.200	0.0179885
714.279	0.0173778
714.357	0.0169466
714.435	0.0164925
714.513	0.0161417
714.591	0.0159467
714.669	0.0157018
714.747	0.0153727
714.825	0.0153465
714.904	0.0152790
714.982	0.0151160
715.060	0.0148871
715.138	0.0148901
715.216	0.0147971
715.294	0.0148376
715.372	0.0147605
715.450	0.0146719
715.529	0.0145361
715.607	0.0144638
715.685	0.0142844
715.763	0.0142603
715.841	0.0140394
715.919	0.0140023
715.997	0.0140775
716.075	0.0138663
716.154	0.0137040
716.232	0.0137372
716.310	0.0135994
716.388	0.0136527
716.466	0.0136922
716.544	0.0135933
716.622	0.0138006
716.700	0.0139439
716.779	0.0139007
716.857	0.0139892
716.935	0.0144067
717.013	0.0146976
717.091	0.0149733
717.169	0.0154468
717.247	0.0158572
717.325	0.0165128
717.404	0.0170353
717.482	0.0176153
717.560	0.0183418
717.638	0.0189915
717.716	0.0195493
717.794	0.0202814
717.872	0.0206834
717.950	0.0209303
718.029	0.0211023
718.107	0.0212088
718.185	0.0211659
718.263	0.0207585
718.341	0.0204501
718.419	0.0200229
718.497	0.0195051
718.575	0.0189269
718.654	0.0181374
718.732	0.0176470
718.810	0.0170307
718.888	0.0166225
718.966	0.0162392
719.044	0.0157395
719.122	0.0155244
719.200	0.0152793
719.279	0.0151670
719.357	0.0151196
719.435	0.0152759
719.513	0.0152380
719.591	0.0153241
719.669	0.0153866
719.747	0.0155610
719.825	0.0155766
719.904	0.0154822
719.982	0.0157166
720.060	0.0157318
720.138	0.0155339
720.216	0.0156697
720.294	0.0157266
720.372	0.0155968
720.450	0.0155898
720.529	0.0156261
720.607	0.0156928
720.685	0.0158005
720.763	0.0158630
720.841	0.0159843
720.919	0.0159909
720.997	0.0157467
721.075	0.0159153
721.154	0.0160087
721.232	0.0159761
721.310	0.0160638
721.388	0.0160365
721.466	0.0159776
721.544	0.0161117
721.622	0.0162403
721.700	0.0162315
721.779	0.0164822
721.857	0.0165126
721.935	0.0166516
722.013	0.0167816
722.091	0.0168367
722.169	0.0171166
722.247	0.0173933
722.325	0.0175568
722.404	0.0176416
722.482	0.0178281
722.560	0.0178896
722.638	0.0180447
722.716	0.0178979
722.794	0.0178780
722.872	0.0178362
722.950	0.0176839
723.029	0.0175423
723.107	0.0172259
723.185	0.0169593
723.263	0.0167933
723.341	0.0166976
723.419	0.0163721
723.497	0.0162994
723.575	0.0161299
723.654	0.0159470
723.732	0.0157615
723.810	0.0158629
723.888	0.0158560
723.966	0.0159600
724.044	0.0160206
724.122	0.0158571
724.200	0.0160938
724.279	0.0160870
724.357	0.0161727
724.435	0.0160094
724.513	0.0160018
724.591	0.0160413
724.669	0.0160510
724.747	0.0160327
724.825	0.0160290
724.904	0.0159295
724.982	0.0158413
725.060	0.0159682
725.138	0.0160467
725.216	0.0160532
725.294	0.0162608
725.372	0.0163538
725.450	0.0164757
725.529	0.0165937
725.607	0.0167149
725.685	0.0168633
725.763	0.0167574
725.841	0.0169161
725.919	0.0170098
725.997	0.0168155
726.075	0.0167223
726.154	0.0166810
726.232	0.0165371
726.310	0.0165807
726.388	0.0164889
726.466	0.0164542
726.544	0.0163858
726.622	0.0163523
726.700	0.0162609
726.779	0.0163753
726.857	0.0165257
726.935	0.0165493
727.013	0.0167729
727.091	0.0168862
727.169	0.0168830
727.247	0.0169634
727.325	0.0171730
727.404	0.0171471
727.482	0.0171027
727.560	0.0173016
727.638	0.0173236
727.716	0.0171329
727.794	0.0170409
727.872	0.0170226
727.950	0.0167302
728.029	0.0165417
728.107	0.0165397
728.185	0.0161716
728.263	0.0160786
728.341	0.0160478
728.419	0.0159392
728.497	0.0158438
728.575	0.0158183
728.654	0.0157002
728.732	0.0156184
728.810	0.0157450
728.888	0.0158819
728.966	0.0159183
729.044	0.0161130
729.122	0.0160433
729.200	0.0163040
729.279	0.0163260
729.357	0.0162821
729.435	0.0163869
729.513	0.0165017
729.591	0.0165645
729.669	0.0165491
729.747	0.0164780
729.825	0.0166274
729.904	0.0165977
729.982	0.0166537
730.060	0.0166340
730.138	0.0168510
730.216	0.0169415
730.294	0.0169620
730.372	0.0168097
730.450	0.0170607
730.529	0.0170098
730.607	0.0170603
730.685	0.0171882
730.763	0.0172449
730.841	0.0173547
730.919	0.0172880
730.997	0.0172099
731.075	0.0172327
731.154	0.0171374
731.232	0.0174270
731.310	0.0172435
731.388	0.0171635
731.466	0.0170117
731.544	0.0168285
731.622	0.0166969
731.700	0.0163924
731.779	0.0161676
731.857	0.0162369
731.935	0.0160441
732.013	0.0161530
732.091	0.0160911
732.169	0.0160956
732.247	0.0160103
732.325	0.0161905
732.404	0.0162675
732.482	0.0162337
732.560	0.0164817
732.638	0.0164729
732.716	0.0166528
732.794	0.0166063
732.872	0.0165197
732.950	0.0166831
733.029	0.0166579
733.107	0.0166009
733.185	0.0164954
733.263	0.0164368
733.341	0.0161952
733.419	0.0161549
733.497	0.0161399
733.575	0.0161225
733.654	0.0160294
733.732	0.0158796
733.810	0.0159149
733.888	0.0159731
733.966	0.0160757
734.044	0.0161931
734.122	0.0164075
734.200	0.0163313
734.279	0.0167393
734.357	0.0168040
734.435	0.0168124
734.513	0.0168584
734.591	0.0169384
734.669	0.0170179
734.747	0.0170142
734.825	0.0168961
734.904	0.0169569
734.982	0.0169409
735.060	0.0167568
735.138	0.0168549
735.216	0.0168019
735.294	0.0167271
735.372	0.0168110
735.450	0.0168484
735.529	0.0167862
735.607	0.0168546
735.685	0.0169184
735.763	0.0167700
735.841	0.0169611
735.919	0.0167670
735.997	0.0168158
736.075	0.0169571
736.154	0.0168279
736.232	0.0168505
736.310	0.0168780
736.388	0.0170098
736.466	0.0170600
736.544	0.0169170
736.622	0.0170267
736.700	0.0169234
736.779	0.0167847
736.857	0.0168611
736.935	0.0167093
737.013	0.0166368
737.091	0.0167735
737.169	0.0166222
737.247	0.0165997
737.325	0.0165445
737.404	0.0163915
737.482	0.0164761
737.560	0.0165394
737.638	0.0166135
737.716	0.0166374
737.794	0.0165086
737.872	0.0165751
737.950	0.0165123
738.029	0.0164863
738.107	0.0164380
738.185	0.0165308
738.263	0.0164302
738.341	0.0164631
738.419	0.0163298
738.497	0.0163316
738.575	0.0162319
738.654	0.0164001
738.732	0.0165000
738.810	0.0166195
738.888	0.0167558
738.966	0.0165514
739.044	0.0167684
739.122	0.0166740
739.200	0.0169043
739.279	0.0169698
739.357	0.0168559
739.435	0.0168852
739.513	0.0168909
739.591	0.0169695
739.669	0.0168391
739.747	0.0166941
739.825	0.0167126
739.904	0.0164941
739.982	0.0163914
740.060	0.0163573
740.138	0.0162579
740.216	0.0162872
740.294	0.0162175
740.372	0.0161504
740.450	0.0162177
740.529	0.0162445
740.607	0.0162813
740.685	0.0162719
740.763	0.0163001
740.841	0.0163045
740.919	0.0163769
740.997	0.0163352
741.075	0.0164420
741.154	0.0164461
741.232	0.0163450
741.310	0.0163719
741.388	0.0166327
741.466	0.0164506
741.544	0.0163531
741.622	0.0164788
741.700	0.0164315
741.779	0.0164830
741.857	0.0161717
741.935	0.0161607
742.013	0.0162052
742.091	0.0162683
742.169	0.0164117
742.247	0.0162627
742.325	0.0163669
742.404	0.0163448
742.482	0.0164581
742.560	0.0164068
742.638	0.0165791
742.716	0.0165765
742.794	0.0166071
742.872	0.0167515
742.950	0.0166860
743.029	0.0166891
743.107	0.0168400
743.185	0.0170888
743.263	0.0170670
743.341	0.0170549
743.419	0.0171854
743.497	0.0171522
743.575	0.0172754
743.654	0.0173296
743.732	0.0173846
743.810	0.0173733
743.888	0.0173602
743.966	0.0171104
744.044	0.0172466
744.122	0.0172353
744.200	0.0173278
744.279	0.0171590
744.357	0.0170181
744.435	0.0169642
744.513	0.0168810
744.591	0.0168051
744.669	0.0167692
744.747	0.0167762
744.825	0.0166936
744.904	0.0166467
744.982	0.0165386
745.060	0.0164440
745.138	0.0163622
745.216	0.0162919
745.294	0.0162009
745.372	0.0161551
745.450	0.0161752
745.529	0.0161829
745.607	0.0161852
745.685	0.0159949
745.763	0.0159485
745.841	0.0159121
745.919	0.0158353
745.997	0.0158238
746.075	0.0157786
746.154	0.0157806
746.232	0.0158392
746.310	0.0157566
746.388	0.0156248
746.466	0.0156402
746.544	0.0157326
746.622	0.0155951
746.700	0.0155939
746.779	0.0156145
746.857	0.0157679
746.935	0.0158611
747.013	0.0158867
747.091	0.0161617
747.169	0.0164289
747.247	0.0165383
747.325	0.0167809
747.404	0.0169252
747.482	0.0171503
747.560	0.0172649
747.638	0.0174687
747.716	0.0175433
747.794	0.0176019
747.872	0.0177234
747.950	0.0176107
748.029	0.0176761
748.107	0.0176925
748.185	0.0176358
748.263	0.0176281
748.341	0.0174773
748.419	0.0173780
748.497	0.0172707
748.575	0.0171280
748.654	0.0171252
748.732	0.0169733
748.810	0.0166246
748.888	0.0166697
748.966	0.0164916
749.044	0.0163565
749.122	0.0162832
749.200	0.0162254
749.279	0.0162590
749.357	0.0161617
749.435	0.0161345
749.513	0.0161075
749.591	0.0159420
749.669	0.0159754
749.747	0.0158975
749.825	0.0157839
749.904	0.0159211
749.982	0.0159303
750.060	0.0159595
750.138	0.0158810
750.216	0.0160867
750.294	0.0161182
750.372	0.0160944
750.450	0.0161881
750.529	0.0162268
750.607	0.0163009
750.685	0.0165493
750.763	0.0164492
750.841	0.0166735
750.919	0.0167385
750.997	0.0168200
751.075	0.0168666
751.154	0.0167449
751.232	0.0169300
751.310	0.0170422
751.388	0.0169523
751.466	0.0168768
751.544	0.0167516
751.622	0.0168651
751.700	0.0168233
751.779	0.0169372
751.857	0.0168271
751.935	0.0168212
752.013	0.0167325
752.091	0.0168010
752.169	0.0166701
752.247	0.0165104
752.325	0.0166135
752.404	0.0166867
752.482	0.0165601
752.560	0.0164891
752.638	0.0164590
752.716	0.0165202
752.794	0.0165074
752.872	0.0163989
752.950	0.0164841
753.029	0.0165019
753.107	0.0166304
753.185	0.0165343
753.263	0.0164410
753.341	0.0163628
753.419	0.0165136
753.497	0.0165527
753.575	0.0164497
753.654	0.0166290
753.732	0.0165305
753.810	0.0165411
753.888	0.0166877
753.966	0.0165976
754.044	0.0164500
754.122	0.0165961
754.200	0.0166264
754.279	0.0165145
754.357	0.0164977
754.435	0.0165793
754.513	0.0166570
754.591	0.0165528
754.669	0.0164180
754.747	0.0164338
754.825	0.0163445
754.904	0.0164435
754.982	0.0163470
755.060	0.0163605
755.138	0.0164151
755.216	0.0163992
755.294	0.0162930
755.372	0.0164603
755.450	0.0165398
755.529	0.0165240
755.607	0.0165809
755.685	0.0166544
755.763	0.0167707
755.841	0.0167735
755.919	0.0167634
755.997	0.0167963
756.075	0.0168518
756.154	0.0167159
756.232	0.0167407
756.310	0.0167911
756.388	0.0168300
756.466	0.0167605
756.544	0.0165450
756.622	0.0166440
756.700	0.0166183
756.779	0.0163561
756.857	0.0163837
756.935	0.0163403
757.013	0.0161413
757.091	0.0162888
757.169	0.0161988
757.247	0.0162208
757.325	0.0160869
757.404	0.0161861
757.482	0.0162109
757.560	0.0162688
757.638	0.0162671
757.716	0.0164766
757.794	0.0165430
757.872	0.0164817
757.950	0.0164581
758.029	0.0165799
758.107	0.0166311
758.185	0.0165904
758.263	0.0167337
758.341	0.0166825
758.419	0.0166483
758.497	0.0167606
758.575	0.0168838
758.654	0.0166878
758.732	0.0165847
758.810	0.0166250
758.888	0.0166881
758.966	0.0165495
759.044	0.0166796
759.122	0.0166896
759.200	0.0165316
759.279	0.0165717
759.357	0.0165800
759.435	0.0166464
759.513	0.0164764
759.591	0.0166030
759.669	0.0166132
759.747	0.0166241
759.825	0.0166593
759.904	0.0167879
759.982	0.0169054
760.060	0.0167334
760.138	0.0166512
760.216	0.0167889
760.294	0.0169209
760.372	0.0167965
760.450	0.0167176
760.529	0.0166802
760.607	0.0169154
760.685	0.0166954
760.763	0.0166703
760.841	0.0166965
760.919	0.0165977
760.997	0.0165242
761.075	0.0163016
761.154	0.0163883
761.232	0.0164523
761.310	0.0163914
761.388	0.0164483
761.466	0.0163417
761.544	0.0163972
761.622	0.0166513
761.700	0.0164422
761.779	0.0163094
761.857	0.0165253
761.935	0.0165920
762.013	0.0167484
762.091	0.0167538
762.169	0.0168260
762.247	0.0169053
762.325	0.0167844
762.404	0.0167419
762.482	0.0167481
762.560	0.0167033
762.638	0.0167989
762.716	0.0166116
762.794	0.0166839
762.872	0.0167445
762.950	0.0166033
763.029	0.0166047
763.107	0.0165968
763.185	0.0164719
763.263	0.0165096
763.341	0.0165833
763.419	0.0165445
763.497	0.0165447
763.575	0.0164380
763.654	0.0164553
763.732	0.0163508
763.810	0.0164289
763.888	0.0164371
763.966	0.0164870
764.044	0.0164659
764.122	0.0164684
764.200	0.0164523
764.279	0.0165823
764.357	0.0165202
764.435	0.0164986
764.513	0.0165294
764.591	0.0165639
764.669	0.0164840
764.747	0.0163769
764.825	0.0164458
764.904	0.0164541
764.982	0.0166013
765.060	0.0163257
765.138	0.0163676
765.216	0.0163822
765.294	0.0163876
765.372	0.0162717
765.450	0.0163482
765.529	0.0163943
765.607	0.0164088
765.685	0.0164190
765.763	0.0165784
765.841	0.0164090
765.919	0.0163569
765.997	0.0163783
766.075	0.0165057
766.154	0.0165784
766.232	0.0165998
766.310	0.0166135
766.388	0.0167166
766.466	0.0167903
766.544	0.0169205
766.622	0.0167556
766.700	0.0166955
766.779	0.0167751
766.857	0.0168846
766.935	0.0167847
767.013	0.0168415
767.091	0.0168031
767.169	0.0167768
767.247	0.0167701
767.325	0.0166920
767.404	0.0164549
767.482	0.0166628
767.560	0.0166556
767.638	0.0166924
767.716	0.0167342
767.794	0.0165591
767.872	0.0165531
767.950	0.0166618
768.029	0.0166298
768.107	0.0167269
768.185	0.0167284
768.263	0.0167359
768.341	0.0168435
768.419	0.0168424
768.497	0.0167912
768.575	0.0167342
768.654	0.0167938
768.732	0.0167447
768.810	0.0167693
768.888	0.0166428
768.966	0.0165175
769.044	0.0165153
769.122	0.0163837
769.200	0.0162757
769.279	0.0161948
769.357	0.0160829
769.435	0.0159868
769.513	0.0159710
769.591	0.0159790
769.669	0.0158986
769.747	0.0159409
769.825	0.0160363
769.904	0.0160851
769.982	0.0161647
770.060	0.0162400
770.138	0.0164027
770.216	0.0163691
770.294	0.0165631
770.372	0.0166223
770.450	0.0166579
770.529	0.0167199
770.607	0.0168249
770.685	0.0170281
770.763	0.0170504
770.841	0.0170406
770.919	0.0171093
770.997	0.0170374
771.075	0.0170231
771.154	0.0170735
771.232	0.0170632
771.310	0.0171175
771.388	0.0170990
771.466	0.0169749
771.544	0.0170165
771.622	0.0169751
771.700	0.0166325
771.779	0.0167324
771.857	0.0166433
771.935	0.0165942
772.013	0.0164487
772.091	0.0164285
772.169	0.0163840
772.247	0.0164668
772.325	0.0163371
772.404	0.0163425
772.482	0.0162209
772.560	0.0162955
772.638	0.0161005
772.716	0.0162565
772.794	0.0162567
772.872	0.0160752
772.950	0.0161632
773.029	0.0160255
773.107	0.0160398
773.185	0.0160232
773.263	0.0161517
773.341	0.0161188
773.419	0.0161076
773.497	0.0160958
773.575	0.0161449
773.654	0.0162556
773.732	0.0162038
773.810	0.0162523
773.888	0.0162704
773.966	0.0162314
774.044	0.0164429
774.122	0.0165113
774.200	0.0165867
774.279	0.0165907
774.357	0.0167213
774.435	0.0168314
774.513	0.0169581
774.591	0.0168790
774.669	0.0168611
774.747	0.0169585
774.825	0.0169427
774.904	0.0171063
774.982	0.0170506
775.060	0.0170716
775.138	0.0171515
775.216	0.0172277
775.294	0.0172795
775.372	0.0171513
775.450	0.0170797
775.529	0.0172636
775.607	0.0171619
775.685	0.0170387
775.763	0.0169832
775.841	0.0169589
775.919	0.0170473
775.997	0.0169614
776.075	0.0168842
776.154	0.0166553
776.232	0.0167243
776.310	0.0166789
776.388	0.0164890
776.466	0.0164637
776.544	0.0165324
776.622	0.0161817
776.700	0.0163318
776.779	0.0162167
776.857	0.0161155
776.935	0.0160809
777.013	0.0160068
777.091	0.0160522
777.169	0.0159072
777.247	0.0160339
777.325	0.0160887
777.404	0.0160167
777.482	0.0161202
777.560	0.0161115
777.638	0.0161929
777.716	0.0163136
777.794	0.0163854
777.872	0.0164027
777.950	0.0164699
778.029	0.0165145
778.107	0.0164646
778.185	0.0165214
778.263	0.0165888
778.341	0.0166391
778.419	0.0165430
778.497	0.0165031
778.575	0.0164359
778.654	0.0165543
778.732	0.0165208
778.810	0.0164988
778.888	0.0165531
778.966	0.0166095
779.044	0.0164894
779.122	0.0167199
779.200	0.0168095
779.279	0.0168832
779.357	0.0169498
779.435	0.0171173
779.513	0.0172067
779.591	0.0171587
779.669	0.0171963
779.747	0.0171498
779.825	0.0172113
779.904	0.0172882
779.982	0.0171498
780.060	0.0170606
780.138	0.0171435
780.216	0.0170699
780.294	0.0169666
780.372	0.0168607
780.450	0.0167397
780.529	0.0167861
780.607	0.0167017
780.685	0.0165526
780.763	0.0165276
780.841	0.0165863
780.919	0.0165607
780.997	0.0163951
781.075	0.0163289
781.154	0.0162536
781.232	0.0162517
781.310	0.0161529
781.388	0.0160242
781.466	0.0159649
781.544	0.0160068
781.622	0.0159634
781.700	0.0159703
781.779	0.0160332
781.857	0.0159460
781.935	0.0159711
782.013	0.0160830
782.091	0.0161323
782.169	0.0161702
782.247	0.0162509
782.325	0.0163153
782.404	0.0163094
782.482	0.0163097
782.560	0.0165314
782.638	0.0165298
782.716	0.0164563
782.794	0.0166179
782.872	0.0167851
782.950	0.0167640
783.029	0.0169224
783.107	0.0169917
783.185	0.0169118
783.263	0.0169923
783.341	0.0170447
783.419	0.0170384
783.497	0.0170172
783.575	0.0169424
783.654	0.0170153
783.732	0.0170062
783.810	0.0170351
783.888	0.0171107
783.966	0.0170091
784.044	0.0169888
784.122	0.0169080
784.200	0.0171058
784.279	0.0170022
784.357	0.0169504
784.435	0.0168620
784.513	0.0168010
784.591	0.0168543
784.669	0.0167934
784.747	0.0167989
784.825	0.0167981
784.904	0.0167130
784.982	0.0166144
785.060	0.0164865
785.138	0.0165152
785.216	0.0164359
785.294	0.0163437
785.372	0.0162815
785.450	0.0163356
785.529	0.0162022
785.607	0.0162859
785.685	0.0163227
785.763	0.0162737
785.841	0.0162302
785.919	0.0163600
785.997	0.0163325
786.075	0.0162431
786.154	0.0163304
786.232	0.0163943
786.310	0.0162586
786.388	0.0163712
786.466	0.0164601
786.544	0.0165190
786.622	0.0164501
786.700	0.0165198
786.779	0.0166721
786.857	0.0166379
786.935	0.0166193
787.013	0.0167110
787.091	0.0168311
787.169	0.0168616
787.247	0.0170728
787.325	0.0168922
787.404	0.0168874
787.482	0.0171190
787.560	0.0170157
787.638	0.0170240
787.716	0.0169705
787.794	0.0169920
787.872	0.0170040
787.950	0.0169634
788.029	0.0169058
788.107	0.0168187
788.185	0.0167756
788.263	0.0167698
788.341	0.0166351
788.419	0.0165034
788.497	0.0165564
788.575	0.0164446
788.654	0.0166411
788.732	0.0164162
788.810	0.0163390
788.888	0.0163405
788.966	0.0162939
789.044	0.0159946
789.122	0.0161012
789.200	0.0160367
789.279	0.0158878
789.357	0.0159159
789.435	0.0159949
789.513	0.0158562
789.591	0.0156551
789.669	0.0157520
789.747	0.0157132
789.825	0.0158272
789.904	0.0158398
789.982	0.0160869
790.060	0.0161671
790.138	0.0163341
790.216	0.0163750
790.294	0.0165335
790.372	0.0167259
790.450	0.0168443
790.529	0.0168842
790.607	0.0170971
790.685	0.0171165
790.763	0.0172939
790.841	0.0173527
790.919	0.0174831
790.997	0.0175214
791.075	0.0174667
791.154	0.0177278
791.232	0.0175575
791.310	0.0176500
791.388	0.0175273
791.466	0.0174206
791.544	0.0173853
791.622	0.0173377
791.700	0.0173424
791.779	0.0173315
791.857	0.0172948
791.935	0.0171744
792.013	0.0171223
792.091	0.0169817
792.169	0.0170509
792.247	0.0168990
792.325	0.0170174
792.404	0.0168234
792.482	0.0164997
792.560	0.0165272
792.638	0.0164394
792.716	0.0163903
792.794	0.0163419
792.872	0.0161884
792.950	0.0159737
793.029	0.0158105
793.107	0.0157447
793.185	0.0156851
793.263	0.0157262
793.341	0.0156660
793.419	0.0154716
793.497	0.0155916
793.575	0.0154906
793.654	0.0154383
793.732	0.0154729
793.810	0.0154700
793.888	0.0154316
793.966	0.0154114
794.044	0.0154224
794.122	0.0153510
794.200	0.0155238
794.279	0.0156689
794.357	0.0156597
794.435	0.0157523
794.513	0.0159437
794.591	0.0160602
794.669	0.0163209
794.747	0.0164793
794.825	0.0164864
794.904	0.0167574
794.982	0.0170643
795.060	0.0171076
795.138	0.0172979
795.216	0.0173682
795.294	0.0176015
795.372	0.0177954
795.450	0.0179208
795.529	0.0178458
795.607	0.0179392
795.685	0.0180054
795.763	0.0180309
795.841	0.0179949
795.919	0.0179530
795.997	0.0178039
796.075	0.0177884
796.154	0.0178505
796.232	0.0178171
796.310	0.0176802
796.388	0.0174571
796.466	0.0173342
796.544	0.0172528
796.622	0.0170186
796.700	0.0168757
796.779	0.0167155
796.857	0.0166036
796.935	0.0164465
797.013	0.0163946
797.091	0.0162164
797.169	0.0161900
797.247	0.0159437
797.325	0.0160628
797.404	0.0159187
797.482	0.0158527
797.560	0.0157472
797.638	0.0156123
797.716	0.0156729
797.794	0.0155245
797.872	0.0154832
797.950	0.0155620
798.029	0.0155386
798.107	0.0155109
798.185	0.0153329
798.263	0.0154492
798.341	0.0155293
798.419	0.0155329
798.497	0.0155650
798.575	0.0154265
798.654	0.0155456
798.732	0.0157058
798.810	0.0157371
798.888	0.0158550
798.966	0.0160435
799.044	0.0162506
799.122	0.0161897
799.200	0.0163276
799.279	0.0165564
799.357	0.0164875
799.435	0.0169109
799.513	0.0168738
799.591	0.0170293
799.669	0.0171441
799.747	0.0172937
799.825	0.0173687
799.904	0.0174364
799.982	0.0175975
800.060	0.0176204
800.138	0.0177071
800.216	0.0177904
800.294	0.0177593
800.372	0.0178946
800.450	0.0178322
800.529	0.0178235
800.607	0.0178867
800.685	0.0177828
800.763	0.0175723
800.841	0.0174697
800.919	0.0174693
800.997	0.0173912
801.075	0.0172329
801.154	0.0171124
801.232	0.0169725
801.310	0.0168364
801.388	0.0168446
801.466	0.0165842
801.544	0.0163915
801.622	0.0162785
801.700	0.0162970
801.779	0.0160795
801.857	0.0159484
801.935	0.0159444
802.013	0.0159286
802.091	0.0158945
802.169	0.0158786
802.247	0.0158806
802.325	0.0156919
802.404	0.0158446
802.482	0.0156664
802.560	0.0157569
802.638	0.0157809
802.716	0.0156137
802.794	0.0157020
802.872	0.0156763
802.950	0.0155920
803.029	0.0156389
803.107	0.0156355
803.185	0.0156793
803.263	0.0157039
803.341	0.0157088
803.419	0.0157270
803.497	0.0159843
803.575	0.0160208
803.654	0.0160522
803.732	0.0161715
803.810	0.0163255
803.888	0.0164248
803.966	0.0164030
804.044	0.0167220
804.122	0.0167413
804.200	0.0170009
804.279	0.0171455
804.357	0.0171050
804.435	0.0172514
804.513	0.0174052
804.591	0.0174858
804.669	0.0175206
804.747	0.0176075
804.825	0.0175787
804.904	0.0177586
804.982	0.0177752
805.060	0.0176596
805.138	0.0175452
805.216	0.0175333
805.294	0.0174973
805.372	0.0171179
805.450	0.0172712
805.529	0.0171700
805.607	0.0170847
805.685	0.0168934
805.763	0.0167703
805.841	0.0166875
805.919	0.0166387
805.997	0.0166263
806.075	0.0166905
806.154	0.0164030
806.232	0.0164216
806.310	0.0163448
806.388	0.0163837
806.466	0.0163544
806.544	0.0161893
806.622	0.0161707
806.700	0.0162197
806.779	0.0162737
806.857	0.0162080
806.935	0.0161812
807.013	0.0162637
807.091	0.0162323
807.169	0.0161318
807.247	0.0162455
807.325	0.0162164
807.404	0.0161213
807.482	0.0162749
807.560	0.0162096
807.638	0.0162415
807.716	0.0161890
807.794	0.0161562
807.872	0.0160574
807.950	0.0160521
808.029	0.0159197
808.107	0.0160452
808.185	0.0161159
808.263	0.0161028
808.341	0.0161805
808.419	0.0161845
808.497	0.0162370
808.575	0.0164153
808.654	0.0163200
808.732	0.0164612
808.810	0.0166634
808.888	0.0166405
808.966	0.0165881
809.044	0.0167730
809.122	0.0168398
809.200	0.0169753
809.279	0.0170758
809.357	0.0170753
809.435	0.0170850
809.513	0.0172459
809.591	0.0173287
809.669	0.0174263
809.747	0.0173771
809.825	0.0171355
809.904	0.0172796
809.982	0.0172993
810.060	0.0171398
810.138	0.0170851
810.216	0.0171505
810.294	0.0169840
810.372	0.0169558
810.450	0.0167868
810.529	0.0166349
810.607	0.0166953
810.685	0.0165362
810.763	0.0166206
810.841	0.0164760
810.919	0.0165981
810.997	0.0164343
811.075	0.0163719
811.154	0.0164272
811.232	0.0164655
811.310	0.0163181
811.388	0.0163113
811.466	0.0164799
811.544	0.0163847
811.622	0.0164320
811.700	0.0164667
811.779	0.0164347
811.857	0.0163277
811.935	0.0164037
812.013	0.0164463
812.091	0.0163062
812.169	0.0163361
812.247	0.0164765
812.325	0.0163325
812.404	0.0163422
812.482	0.0163572
812.560	0.0163117
812.638	0.0163203
812.716	0.0162814
812.794	0.0163117
812.872	0.0163401
812.950	0.0162540
813.029	0.0162367
813.107	0.0162063
813.185	0.0163731
813.263	0.0163145
813.341	0.0163816
813.419	0.0163396
813.497	0.0163477
813.575	0.0162911
813.654	0.0164247
813.732	0.0163716
813.810	0.0164661
813.888	0.0165205
813.966	0.0163287
814.044	0.0163230
814.122	0.0165718
814.200	0.0163939
814.279	0.0166122
814.357	0.0165752
814.435	0.0165434
814.513	0.0164642
814.591	0.0164742
814.669	0.0166328
814.747	0.0167322
814.825	0.0167876
814.904	0.0166936
814.982	0.0167516
815.060	0.0167870
815.138	0.0167773
815.216	0.0167477
815.294	0.0167780
815.372	0.0167094
815.450	0.0165961
815.529	0.0166342
815.607	0.0168257
815.685	0.0168912
815.763	0.0170264
815.841	0.0167453
815.919	0.0167593
815.997	0.0169359
816.075	0.0169056
816.154	0.0167985
816.232	0.0168860
816.310	0.0169921
816.388	0.0168764
816.466	0.0169389
816.544	0.0169569
816.622	0.0169792
816.700	0.0169733
816.779	0.0169313
816.857	0.0169974
816.935	0.0167348
817.013	0.0167700
817.091	0.0166985
817.169	0.0167245
817.247	0.0166223
817.325	0.0164588
817.404	0.0164336
817.482	0.0166261
817.560	0.0163866
817.638	0.0163654
817.716	0.0163570
817.794	0.0161317
817.872	0.0161731
817.950	0.0163972
818.029	0.0163375
818.107	0.0162508
818.185	0.0161219
818.263	0.0160983
818.341	0.0161094
818.419	0.0160871
818.497	0.0161501
818.575	0.0161347
818.654	0.0159251
818.732	0.0163103
818.810	0.0159615
818.888	0.0160680
818.966	0.0160624
819.044	0.0159478
819.122	0.0158320
819.200	0.0159926
819.279	0.0160744
819.357	0.0158746
819.435	0.0158315
819.513	0.0160101
819.591	0.0161023
819.669	0.0161600
819.747	0.0161714
819.825	0.0163200
819.904	0.0162062
819.982	0.0162083
820.060	0.0163333
820.138	0.0166457
820.216	0.0165425
820.294	0.0165755
820.372	0.0168536
820.450	0.0168868
820.529	0.0169935
820.607	0.0170119
820.685	0.0169576
820.763	0.0170352
820.841	0.0171915
820.919	0.0171960
820.997	0.0171738
821.075	0.0172273
821.154	0.0170872
821.232	0.0172256
821.310	0.0172222
821.388	0.0169788
821.466	0.0169904
821.544	0.0170063
821.622	0.0170728
821.700	0.0168090
821.779	0.0168420
821.857	0.0167667
821.935	0.0166798
822.013	0.0168025
822.091	0.0165722
822.169	0.0165743
822.247	0.0165048
822.325	0.0165607
822.404	0.0166012
822.482	0.0165398
822.560	0.0165076
822.638	0.0163137
822.716	0.0163516
822.794	0.0164217
822.872	0.0163100
822.950	0.0160623
823.029	0.0162079
823.107	0.0162093
823.185	0.0162773
823.263	0.0161193
823.341	0.0160147
823.419	0.0161578
823.497	0.0161082
823.575	0.0160439
823.654	0.0159456
823.732	0.0159998
823.810	0.0159557
823.888	0.0160255
823.966	0.0159400
824.044	0.0159642
824.122	0.0159383
824.200	0.0159255
824.279	0.0160815
824.357	0.0161962
824.435	0.0161831
824.513	0.0161642
824.591	0.0163024
824.669	0.0163194
824.747	0.0164536
824.825	0.0165336
824.904	0.0165491
824.982	0.0165270
825.060	0.0166373
825.138	0.0167954
825.216	0.0169379
825.294	0.0169370
825.372	0.0170442
825.450	0.0170666
825.529	0.0170171
825.607	0.0169788
825.685	0.0169751
825.763	0.0171096
825.841	0.0171196
825.919	0.0171004
825.997	0.0169502
826.075	0.0170036
826.154	0.0170403
826.232	0.0168327
826.310	0.0169291
826.388	0.0168870
826.466	0.0168893
826.544	0.0168188
826.622	0.0168402
826.700	0.0168408
826.779	0.0166193
826.857	0.0166226
826.935	0.0165548
827.013	0.0165018
827.091	0.0165736
827.169	0.0165392
827.247	0.0165547
827.325	0.0166293
827.404	0.0164771
827.482	0.0163833
827.560	0.0165546
827.638	0.0164925
827.716	0.0164551
827.794	0.0164699
827.872	0.0163957
827.950	0.0162798
828.029	0.0163298
828.107	0.0163120
828.185	0.0161757
828.263	0.0161599
828.341	0.0162072
828.419	0.0161170
828.497	0.0161136
828.575	0.0159923
828.654	0.0161081
828.732	0.0160000
828.810	0.0159776
828.888	0.0160745
828.966	0.0159861
829.044	0.0161161
829.122	0.0161175
829.200	0.0162284
829.279	0.0162228
829.357	0.0161586
829.435	0.0163036
829.513	0.0163103
829.591	0.0165692
829.669	0.0164250
829.747	0.0166288
829.825	0.0166080
829.904	0.0165627
829.982	0.0168270
830.060	0.0169595
830.138	0.0168706
830.216	0.0168302
830.294	0.0169253
830.372	0.0171070
830.450	0.0169841
830.529	0.0170663
830.607	0.0170607
830.685	0.0170989
830.763	0.0170235
830.841	0.0170434
830.919	0.0169929
830.997	0.0170083
831.075	0.0168570
831.154	0.0167460
831.232	0.0167072
831.310	0.0167647
831.388	0.0165470
831.466	0.0165849
831.544	0.0164021
831.622	0.0164146
831.700	0.0164832
831.779	0.0162945
831.857	0.0163569
831.935	0.0165225
832.013	0.0163245
832.091	0.0164915
832.169	0.0165240
832.247	0.0165725
832.325	0.0165603
832.404	0.0165825
832.482	0.0164915
832.560	0.0165676
832.638	0.0166369
832.716	0.0168123
832.794	0.0166779
832.872	0.0165558
832.950	0.0166173
833.029	0.0166385
833.107	0.0165686
833.185	0.0166206
833.263	0.0166377
833.341	0.0165478
833.419	0.0165249
833.497	0.0164684
833.575	0.0164625
833.654	0.0164552
833.732	0.0163896
833.810	0.0163124
833.888	0.0162893
833.966	0.0163134
834.044	0.0163754
834.122	0.0162746
834.200	0.0163572
834.279	0.0163655
834.357	0.0164906
834.435	0.0164980
834.513	0.0165544
834.591	0.0165257
834.669	0.0164815
834.747	0.0165921
834.825	0.0166127
834.904	0.0166533
834.982	0.0166650
835.060	0.0167017
835.138	0.0165855
835.216	0.0166117
835.294	0.0167796
835.372	0.0167957
835.450	0.0166262
835.529	0.0166295
835.607	0.0165868
835.685	0.0165745
835.763	0.0165714
835.841	0.0164474
835.919	0.0166808
835.997	0.0166408
836.075	0.0164933
836.154	0.0164674
836.232	0.0164742
836.310	0.0164372
836.388	0.0164839
836.466	0.0164442
836.544	0.0164417
836.622	0.0164430
836.700	0.0166454
836.779	0.0164681
836.857	0.0164729
836.935	0.0165565
837.013	0.0165739
837.091	0.0166171
837.169	0.0166750
837.247	0.0167300
837.325	0.0167616
837.404	0.0166338
837.482	0.0169874
837.560	0.0167633
837.638	0.0165993
837.716	0.0168259
837.794	0.0167874
837.872	0.0166599
837.950	0.0167477
838.029	0.0166550
838.107	0.0167249
838.185	0.0167456
838.263	0.0165284
838.341	0.0165759
838.419	0.0166139
838.497	0.0166296
838.575	0.0166194
838.654	0.0166687
838.732	0.0166309
838.810	0.0166826
838.888	0.0166943
838.966	0.0167226
839.044	0.0165794
839.122	0.0166827
839.200	0.0167307
839.279	0.0166205
839.357	0.0164952
839.435	0.0166201
839.513	0.0166531
839.591	0.0165193
839.669	0.0165577
839.747	0.0165378
839.825	0.0163447
839.904	0.0163631
839.982	0.0164584
840.060	0.0163694
840.138	0.0162540
840.216	0.0162292
840.294	0.0162814
840.372	0.0163384
840.450	0.0162924
840.529	0.0163548
840.607	0.0163641
840.685	0.0165126
840.763	0.0163997
840.841	0.0162362
840.919	0.0165438
840.997	0.0165592
841.075	0.0165285
841.154	0.0165585
841.232	0.0165339
841.310	0.0165586
841.388	0.0166860
841.466	0.0166098
841.544	0.0167142
841.622	0.0165920
841.700	0.0165183
841.779	0.0167471
841.857	0.0167052
841.935	0.0165527
842.013	0.0167815
842.091	0.0167134
842.169	0.0165459
842.247	0.0167529
842.325	0.0166274
842.404	0.0165971
842.482	0.0166423
842.560	0.0167770
842.638	0.0167350
842.716	0.0166251
842.794	0.0165033
842.872	0.0165673
842.950	0.0167639
843.029	0.0166901
843.107	0.0166933
843.185	0.0166048
843.263	0.0166369
843.341	0.0166427
843.419	0.0166055
843.497	0.0165829
843.575	0.0165918
843.654	0.0166482
843.732	0.0165662
843.810	0.0166559
843.888	0.0166766
843.966	0.0166228
844.044	0.0166380
844.122	0.0164598
844.200	0.0164936
844.279	0.0166101
844.357	0.0165806
844.435	0.0164748
844.513	0.0165948
844.591	0.0165161
844.669	0.0164124
844.747	0.0162955
844.825	0.0164651
844.904	0.0163531
844.982	0.0163776
845.060	0.0163315
845.138	0.0162956
845.216	0.0161847
845.294	0.0163548
845.372	0.0162921
845.450	0.0163682
845.529	0.0164372
845.607	0.0163981
845.685	0.0164703
845.763	0.0163107
845.841	0.0163457
845.919	0.0163042
845.997	0.0164600
846.075	0.0165108
846.154	0.0164139
846.232	0.0163923
846.310	0.0166062
846.388	0.0165953
846.466	0.0166129
846.544	0.0165125
846.622	0.0165543
846.700	0.0166081
846.779	0.0166589
846.857	0.0167169
846.935	0.0167014
847.013	0.0168077
847.091	0.0166880
847.169	0.0168477
847.247	0.0168049
847.325	0.0167528
847.404	0.0169099
847.482	0.0169640
847.560	0.0169556
847.638	0.0168359
847.716	0.0169189
847.794	0.0169998
847.872	0.0168996
847.950	0.0167790
848.029	0.0168440
848.107	0.0168524
848.185	0.0167793
848.263	0.0168118
848.341	0.0167889
848.419	0.0167465
848.497	0.0167661
848.575	0.0165746
848.654	0.0167578
848.732	0.0167609
848.810	0.0166147
848.888	0.0164690
848.966	0.0164574
849.044	0.0165965
849.122	0.0164240
849.200	0.0164046
849.279	0.0164204
849.357	0.0164194
849.435	0.0163110
849.513	0.0163223
849.591	0.0163116
849.669	0.0163050
849.747	0.0164622
849.825	0.0162724
849.904	0.0161179
849.982	0.0162443
850.060	0.0163398
850.138	0.0161887
850.216	0.0161205
850.294	0.0161456
850.372	0.0164185
850.450	0.0163572
850.529	0.0162842
850.607	0.0162129
850.685	0.0163968
850.763	0.0163524
850.841	0.0164941
850.919	0.0165929
850.997	0.0165569
851.075	0.0165648
851.154	0.0166543
851.232	0.0167249
851.310	0.0166743
851.388	0.0166502
851.466	0.0167869
851.544	0.0169334
851.622	0.0168946
851.700	0.0169067
851.779	0.0170479
851.857	0.0168684
851.935	0.0167491
852.013	0.0168725
852.091	0.0169291
852.169	0.0166953
852.247	0.0167817
852.325	0.0167431
852.404	0.0167270
852.482	0.0167182
852.560	0.0167376
852.638	0.0167115
852.716	0.0167870
852.794	0.0167535
852.872	0.0167586
852.950	0.0166826
853.029	0.0167000
853.107	0.0166034
853.185	0.0167113
853.263	0.0166666
853.341	0.0167365
853.419	0.0167319
853.497	0.0165881
853.575	0.0163625
853.654	0.0165815
853.732	0.0165453
853.810	0.0166042
853.888	0.0164265
853.966	0.0165018
854.044	0.0164001
854.122	0.0163080
854.200	0.0164443
854.279	0.0163333
854.357	0.0163720
854.435	0.0163190
854.513	0.0164470
854.591	0.0163775
854.669	0.0163641
854.747	0.0162003
854.825	0.0163611
854.904	0.0163588
854.982	0.0161643
855.060	0.0162481
855.138	0.0163873
855.216	0.0161385
855.294	0.0162409
855.372	0.0163332
855.450	0.0163390
855.529	0.0163511
855.607	0.0163106
855.685	0.0164033
855.763	0.0164457
855.841	0.0163463
855.919	0.0164871
855.997	0.0165346
856.075	0.0166945
856.154	0.0165906
856.232	0.0166628
856.310	0.0166606
856.388	0.0166948
856.466	0.0167882
856.544	0.0165878
856.622	0.0166611
856.700	0.0166547
856.779	0.0168105
856.857	0.0166963
856.935	0.0167788
857.013	0.0167838
857.091	0.0166974
857.169	0.0166969
857.247	0.0168326
857.325	0.0167782
857.404	0.0166602
857.482	0.0166740
857.560	0.0167541
857.638	0.0167967
857.716	0.0166472
857.794	0.0166994
857.872	0.0167012
857.950	0.0166448
858.029	0.0167315
858.107	0.0166366
858.185	0.0166134
858.263	0.0165514
858.341	0.0166574
858.419	0.0165655
858.497	0.0166679
858.575	0.0165002
858.654	0.0165100
858.732	0.0165547
858.810	0.0164960
858.888	0.0165130
858.966	0.0164735
859.044	0.0165169
859.122	0.0165119
859.200	0.0165940
859.279	0.0163426
859.357	0.0163767
859.435	0.0164287
859.513	0.0163170
859.591	0.0163833
859.669	0.0164691
859.747	0.0165374
859.825	0.0164509
859.904	0.0165994
859.982	0.0166164
860.060	0.0165209
860.138	0.0165631
860.216	0.0164626
860.294	0.0164657
860.372	0.0164413
860.450	0.0163588
860.529	0.0165610
860.607	0.0164946
860.685	0.0164137
860.763	0.0163424
860.841	0.0164094
860.919	0.0164696
860.997	0.0164709
861.075	0.0165992
861.154	0.0165448
861.232	0.0166382
861.310	0.0166036
861.388	0.0167194
861.466	0.0166656
861.544	0.0166352
861.622	0.0166583
861.700	0.0165957
861.779	0.0168519
861.857	0.0168467
861.935	0.0168297
862.013	0.0167997
862.091	0.0168814
862.169	0.0167084
862.247	0.0167200
862.325	0.0168494
862.404	0.0168623
862.482	0.0167918
862.560	0.0168279
862.638	0.0167732
862.716	0.0166097
862.794	0.0166923
862.872	0.0165975
862.950	0.0167178
863.029	0.0167361
863.107	0.0165388
863.185	0.0163563
863.263	0.0165623
863.341	0.0164689
863.419	0.0163033
863.497	0.0164604
863.575	0.0163677
863.654	0.0164436
863.732	0.0163805
863.810	0.0162305
863.888	0.0163559
863.966	0.0164458
864.044	0.0162189
864.122	0.0162147
864.200	0.0163780
864.279	0.0162843
864.357	0.0164551
864.435	0.0163257
864.513	0.0164366
864.591	0.0165485
864.669	0.0165591
864.747	0.0164623
864.825	0.0165816
864.904	0.0165923
864.982	0.0167374
865.060	0.0167580
865.138	0.0166373
865.216	0.0167338
865.294	0.0167080
865.372	0.0166880
865.450	0.0167648
865.529	0.0166908
865.607	0.0167831
865.685	0.0168439
865.763	0.0168465
865.841	0.0168034
865.919	0.0167343
865.997	0.0167464
866.075	0.0167452
866.154	0.0167278
866.232	0.0166648
866.310	0.0166454
866.388	0.0166795
866.466	0.0166773
866.544	0.0166132
866.622	0.0166689
866.700	0.0166001
866.779	0.0166142
866.857	0.0166452
866.935	0.0165692
867.013	0.0164292
867.091	0.0165759
867.169	0.0165756
867.247	0.0164233
867.325	0.0165065
867.404	0.0163522
867.482	0.0165163
867.560	0.0165134
867.638	0.0165260
867.716	0.0164143
867.794	0.0163078
867.872	0.0163741
867.950	0.0162612
868.029	0.0164455
868.107	0.0162616
868.185	0.0162218
868.263	0.0162478
868.341	0.0162636
868.419	0.0162180
868.497	0.0162189
868.575	0.0161924
868.654	0.0162263
868.732	0.0162289
868.810	0.0163038
868.888	0.0162728
868.966	0.0163815
869.044	0.0166026
869.122	0.0164631
869.200	0.0164799
869.279	0.0167136
869.357	0.0166964
869.435	0.0166315
869.513	0.0169244
869.591	0.0167724
869.669	0.0167006
869.747	0.0167142
869.825	0.0167886
869.904	0.0166699
869.982	0.0167715
870.060	0.0167268
870.138	0.0166804
870.216	0.0167120
870.294	0.0167255
870.372	0.0168277
870.450	0.0167932
870.529	0.0168804
870.607	0.0168917
870.685	0.0167967
870.763	0.0169209
870.841	0.0169727
870.919	0.0168318
870.997	0.0168364
871.075	0.0169500
871.154	0.0168913
871.232	0.0168382
871.310	0.0168036
871.388	0.0168030
871.466	0.0167869
871.544	0.0168715
871.622	0.0166685
871.700	0.0167084
871.779	0.0165609
871.857	0.0166035
871.935	0.0164816
872.013	0.0165268
872.091	0.0165016
872.169	0.0163395
872.247	0.0161956
872.325	0.0162798
872.404	0.0161376
872.482	0.0159403
872.560	0.0160101
872.638	0.0161185
872.716	0.0161977
872.794	0.0161787
872.872	0.0161121
872.950	0.0161467
873.029	0.0163560
873.107	0.0164098
873.185	0.0163641
873.263	0.0164076
873.341	0.0165095
873.419	0.0164372
873.497	0.0163718
873.575	0.0163697
873.654	0.0164613
873.732	0.0166034
873.810	0.0164738
873.888	0.0164920
873.966	0.0164024
874.044	0.0165681
874.122	0.0165641
874.200	0.0167901
874.279	0.0166951
874.357	0.0166464
874.435	0.0169423
874.513	0.0169344
874.591	0.0169244
874.669	0.0169955
874.747	0.0172274
874.825	0.0170398
874.904	0.0171111
874.982	0.0171056
875.060	0.0169899
875.138	0.0170507
875.216	0.0169073
875.294	0.0167654
875.372	0.0167723
875.450	0.0166370
875.529	0.0166114
875.607	0.0166297
875.685	0.0166331
875.763	0.0165430
875.841	0.0166440
875.919	0.0167064
875.997	0.0167987
876.075	0.0167661
876.154	0.0169244
876.232	0.0170379
876.310	0.0167802
876.388	0.0168427
876.466	0.0168240
876.544	0.0168260
876.622	0.0167679
876.700	0.0165566
876.779	0.0164987
876.857	0.0163263
876.935	0.0162664
877.013	0.0162840
877.091	0.0162194
877.169	0.0162427
877.247	0.0161692
877.325	0.0162164
877.404	0.0163206
877.482	0.0162338
877.560	0.0161428
877.638	0.0160973
877.716	0.0161753
877.794	0.0162900
877.872	0.0161778
877.950	0.0162684
878.029	0.0162572
878.107	0.0162762
878.185	0.0162904
878.263	0.0162606
878.341	0.0164520
878.419	0.0165752
878.497	0.0166232
878.575	0.0166098
878.654	0.0166904
878.732	0.0169668
878.810	0.0170000
878.888	0.0169812
878.966	0.0169264
879.044	0.0170219
879.122	0.0170394
879.200	0.0168526
879.279	0.0168859
879.357	0.0167287
879.435	0.0167101
879.513	0.0167601
879.591	0.0168047
879.669	0.0165893
879.747	0.0166220
879.825	0.0166972
879.904	0.0167030
879.982	0.0165865
880.060	0.0165359
880.138	0.0166543
880.216	0.0166009
880.294	0.0166213
880.372	0.0165996
880.450	0.0165675
880.529	0.0166110
880.607	0.0165269
880.685	0.0165971
880.763	0.0164709
880.841	0.0163391
880.919	0.0164835
880.997	0.0165725
881.075	0.0165312
881.154	0.0165466
881.232	0.0167191
881.310	0.0167502
881.388	0.0167486
881.466	0.0167524
881.544	0.0167860
881.622	0.0167606
881.700	0.0168195
881.779	0.0167568
881.857	0.0167767
881.935	0.0169035
882.013	0.0167624
882.091	0.0166669
882.169	0.0167816
882.247	0.0167346
882.325	0.0165565
882.404	0.0166092
882.482	0.0165211
882.560	0.0165906
882.638	0.0165315
882.716	0.0165287
882.794	0.0164419
882.872	0.0164017
882.950	0.0163725
883.029	0.0164133
883.107	0.0164169
883.185	0.0163187
883.263	0.0164954
883.341	0.0164848
883.419	0.0163950
883.497	0.0164301
883.575	0.0162827
883.654	0.0163791
883.732	0.0166035
883.810	0.0163779
883.888	0.0163025
883.966	0.0162411
884.044	0.0164709
884.122	0.0163799
884.200	0.0163652
884.279	0.0164443
884.357	0.0163178
884.435	0.0162649
884.513	0.0162243
884.591	0.0162465
884.669	0.0162210
884.747	0.0160773
884.825	0.0162514
884.904	0.0162845
884.982	0.0162605
885.060	0.0162656
885.138	0.0162718
885.216	0.0165760
885.294	0.0169392
885.372	0.0168322
885.450	0.0168843
885.529	0.0168978
885.607	0.0171828
885.685	0.0172445
885.763	0.0173043
885.841	0.0172608
885.919	0.0174313
885.997	0.0175297
886.075	0.0174093
886.154	0.0173407
886.232	0.0173727
886.310	0.0171642
886.388	0.0170563
886.466	0.0170313
886.544	0.0169442
886.622	0.0167298
886.700	0.0165099
886.779	0.0165205
886.857	0.0163001
886.935	0.0162559
887.013	0.0161140
887.091	0.0161906
887.169	0.0162917
887.247	0.0160626
887.325	0.0161692
887.404	0.0160324
887.482	0.0161451
887.560	0.0161905
887.638	0.0161869
887.716	0.0162682
887.794	0.0161757
887.872	0.0162851
887.950	0.0162302
888.029	0.0163029
888.107	0.0161407
888.185	0.0161328
888.263	0.0162945
888.341	0.0162891
888.419	0.0162732
888.497	0.0163160
888.575	0.0163644
888.654	0.0165359
888.732	0.0162826
888.810	0.0164008
888.888	0.0164252
888.966	0.0162955
889.044	0.0162875
889.122	0.0162518
889.200	0.0162294
889.279	0.0161436
889.357	0.0160846
889.435	0.0161573
889.513	0.0159443
889.591	0.0159851
889.669	0.0161231
889.747	0.0163186
889.825	0.0162319
889.904	0.0164888
889.982	0.0165450
890.060	0.0166786
890.138	0.0168569
890.216	0.0171915
890.294	0.0172429
890.372	0.0172507
890.450	0.0175016
890.529	0.0175081
890.607	0.0175952
890.685	0.0174911
890.763	0.0175658
890.841	0.0175467
890.919	0.0175934
890.997	0.0173550
891.075	0.0172632
891.154	0.0171967
891.232	0.0170781
891.310	0.0167992
891.388	0.0166930
891.466	0.0165560
891.544	0.0166026
891.622	0.0162794
891.700	0.0161572
891.779	0.0161060
891.857	0.0160917
891.935	0.0160705
892.013	0.0160150
892.091	0.0159911
892.169	0.0158865
892.247	0.0158575
892.325	0.0158058
892.404	0.0158442
892.482	0.0158976
892.560	0.0158371
892.638	0.0159820
892.716	0.0158250
892.794	0.0159798
892.872	0.0160194
892.950	0.0162295
893.029	0.0163102
893.107	0.0164741
893.185	0.0165541
893.263	0.0165723
893.341	0.0165730
893.419	0.0167851
893.497	0.0168298
893.575	0.0167354
893.654	0.0168555
893.732	0.0170434
893.810	0.0170422
893.888	0.0169254
893.966	0.0168011
894.044	0.0167237
894.122	0.0165389
894.200	0.0166349
894.279	0.0164955
894.357	0.0163334
894.435	0.0162878
894.513	0.0164059
894.591	0.0163490
894.669	0.0164204
894.747	0.0165665
894.825	0.0166448
894.904	0.0166340
894.982	0.0166833
895.060	0.0168762
895.138	0.0169617
895.216	0.0171453
895.294	0.0170914
895.372	0.0172064
895.450	0.0171693
895.529	0.0171555
895.607	0.0171674
895.685	0.0171634
895.763	0.0170938
895.841	0.0168895
895.919	0.0166743
895.997	0.0166547
896.075	0.0165725
896.154	0.0165635
896.232	0.0163818
896.310	0.0162350
896.388	0.0162190
896.466	0.0161395
896.544	0.0159927
896.622	0.0159698
896.700	0.0159664
896.779	0.0159580
896.857	0.0160410
896.935	0.0160662
897.013	0.0159769
897.091	0.0160468
897.169	0.0162762
897.247	0.0163800
897.325	0.0163753
897.404	0.0163660
897.482	0.0167027
897.560	0.0165039
897.638	0.0165356
897.716	0.0166640
897.794	0.0167905
897.872	0.0168393
897.950	0.0167149
898.029	0.0168141
898.107	0.0169122
898.185	0.0169719
898.263	0.0169296
898.341	0.0169049
898.419	0.0169028
898.497	0.0167921
898.575	0.0167071
898.654	0.0166135
898.732	0.0165799
898.810	0.0165207
898.888	0.0164669
898.966	0.0163824
899.044	0.0164398
899.122	0.0163227
899.200	0.0162900
899.279	0.0162513
899.357	0.0164113
899.435	0.0163045
899.513	0.0163278
899.591	0.0163467
899.669	0.0163277
899.747	0.0165896
899.825	0.0166147
899.904	0.0166015
899.982	0.0164951
900.060	0.0165476
900.138	0.0166769
900.216	0.0167515
900.294	0.0167883
900.372	0.0167321
900.450	0.0168495
900.529	0.0166310
900.607	0.0166000
900.685	0.0166871
900.763	0.0164571
900.841	0.0166189
900.919	0.0165680
900.997	0.0164920
901.075	0.0164236
901.154	0.0163648
901.232	0.0162614
901.310	0.0161425
901.388	0.0162138
901.466	0.0163373
901.544	0.0163973
901.622	0.0163446
901.700	0.0164308
901.779	0.0163372
901.857	0.0164936
901.935	0.0163476
902.013	0.0165584
902.091	0.0167149
902.169	0.0165368
902.247	0.0166857
902.325	0.0166491
902.404	0.0166568
902.482	0.0166924
902.560	0.0167953
902.638	0.0165721
902.716	0.0166221
902.794	0.0167590
902.872	0.0168230
902.950	0.0165722
903.029	0.0166851
903.107	0.0165520
903.185	0.0165594
903.263	0.0166827
903.341	0.0165623
903.419	0.0165722
903.497	0.0164766
903.575	0.0164120
903.654	0.0163818
903.732	0.0164763
903.810	0.0164038
903.888	0.0163258
903.966	0.0163508
904.044	0.0164295
904.122	0.0164804
904.200	0.0163451
904.279	0.0162679
904.357	0.0165057
904.435	0.0165905
904.513	0.0165488
904.591	0.0164481
904.669	0.0166434
904.747	0.0166451
904.825	0.0166350
904.904	0.0166299
904.982	0.0164559
905.060	0.0165926
905.138	0.0165338
905.216	0.0163956
905.294	0.0165343
905.372	0.0164753
905.450	0.0165554
905.529	0.0164917
905.607	0.0163680
905.685	0.0163126
905.763	0.0163152
905.841	0.0162782
905.919	0.0162892
905.997	0.0161411
906.075	0.0160908
906.154	0.0161515
906.232	0.0162259
906.310	0.0164629
906.388	0.0163811
906.466	0.0165933
906.544	0.0164864
906.622	0.0167639
906.700	0.0167546
906.779	0.0168387
906.857	0.0168078
906.935	0.0167789
907.013	0.0169017
907.091	0.0169385
907.169	0.0169478
907.247	0.0168529
907.325	0.0169007
907.404	0.0167988
907.482	0.0167092
907.560	0.0165874
907.638	0.0165789
907.716	0.0165823
907.794	0.0165944
907.872	0.0164187
907.950	0.0164639
908.029	0.0165823
908.107	0.0164178
908.185	0.0164137
908.263	0.0164462
908.341	0.0163615
908.419	0.0164336
908.497	0.0164790
908.575	0.0163932
908.654	0.0163548
908.732	0.0164659
908.810	0.0165054
908.888	0.0163377
908.966	0.0162651
909.044	0.0163318
909.122	0.0162486
909.200	0.0163878
909.279	0.0164064
909.357	0.0163544
909.435	0.0163799
909.513	0.0166545
909.591	0.0165820
909.669	0.0165343
909.747	0.0165359
909.825	0.0165180
909.904	0.0166025
909.982	0.0166672
910.060	0.0166628
910.138	0.0165671
910.216	0.0165028
910.294	0.0163898
910.372	0.0164207
910.450	0.0164245
910.529	0.0162964
910.607	0.0162698
910.685	0.0163796
910.763	0.0162495
910.841	0.0162724
910.919	0.0162316
910.997	0.0163642
911.075	0.0164524
911.154	0.0164227
911.232	0.0165990
911.310	0.0165819
911.388	0.0167922
911.466	0.0166923
911.544	0.0167480
911.622	0.0169138
911.700	0.0166918
911.779	0.0167882
911.857	0.0168323
911.935	0.0167790
912.013	0.0168589
912.091	0.0169053
912.169	0.0167341
912.247	0.0167117
912.325	0.0167779
912.404	0.0166192
912.482	0.0164530
912.560	0.0165557
912.638	0.0166055
912.716	0.0166015
912.794	0.0165717
912.872	0.0166132
912.950	0.0165258
913.029	0.0164743
913.107	0.0164718
913.185	0.0164732
913.263	0.0165556
913.341	0.0166174
913.419	0.0164275
913.497	0.0163565
913.575	0.0163870
913.654	0.0164444
913.732	0.0161841
913.810	0.0163411
913.888	0.0163489
913.966	0.0163128
914.044	0.0164352
914.122	0.0162695
914.200	0.0162123
914.279	0.0162503
914.357	0.0163596
914.435	0.0165063
914.513	0.0165375
914.591	0.0162859
914.669	0.0164043
914.747	0.0164565
914.825	0.0164534
914.904	0.0162634
914.982	0.0163747
915.060	0.0164040
915.138	0.0163765
915.216	0.0164130
915.294	0.0165191
915.372	0.0164751
915.450	0.0165028
915.529	0.0164429
915.607	0.0166027
915.685	0.0165844
915.763	0.0165103
915.841	0.0165778
915.919	0.0166244
915.997	0.0166109
916.075	0.0166013
916.154	0.0167983
916.232	0.0167430
916.310	0.0165792
916.388	0.0165205
916.466	0.0167579
916.544	0.0166595
916.622	0.0167896
916.700	0.0166700
916.779	0.0165327
916.857	0.0166259
916.935	0.0166010
917.013	0.0166305
917.091	0.0166035
917.169	0.0166656
917.247	0.0166911
917.325	0.0167370
917.404	0.0167182
917.482	0.0167071
917.560	0.0167610
917.638	0.0167577
917.716	0.0167176
917.794	0.0168023
917.872	0.0166344
917.950	0.0164916
918.029	0.0166099
918.107	0.0167150
918.185	0.0164766
918.263	0.0163921
918.341	0.0164870
918.419	0.0165530
918.497	0.0163963
918.575	0.0164460
918.654	0.0164190
918.732	0.0163110
918.810	0.0162417
918.888	0.0163250
918.966	0.0163992
919.044	0.0162270
919.122	0.0163631
919.200	0.0162871
919.279	0.0162397
919.357	0.0161971
919.435	0.0162231
919.513	0.0162277
919.591	0.0164110
919.669	0.0164555
919.747	0.0163753
919.825	0.0163388
919.904	0.0164047
