06/03/2022	14:06:55	Ver.	4.1	UNKNOWN
Optical Delay	599.981738	Delta X		0.078125	Sweeps	1	Scan Rate	0/0
Coordinates	Axis 1	NaN	Axis 2	NaN	Axis 3	NaN	Axis 4	NaN	Axis 5	NaN	Axis 6	0.000000
TX Power	0.000000	RX Power	0.000000

599.982	0.0163330
600.060	0.0162972
600.138	0.0163944
600.216	0.0165132
600.294	0.0162263
600.372	0.0162796
600.450	0.0163579
600.529	0.0162235
600.607	0.0162411
600.685	0.0163284
600.763	0.0163976
600.841	0.0163330
600.919	0.0163715
600.997	0.0163474
601.075	0.0161812
601.154	0.0164051
601.232	0.0164442
601.310	0.0163717
601.388	0.0164105
601.466	0.0163557
601.544	0.0163644
601.622	0.0162815
601.700	0.0162393
601.779	0.0163144
601.857	0.0162062
601.935	0.0162153
602.013	0.0162526
602.091	0.0162380
602.169	0.0163220
602.247	0.0162811
602.325	0.0163395
602.404	0.0163741
602.482	0.0163010
602.560	0.0162866
602.638	0.0163745
602.716	0.0161908
602.794	0.0162151
602.872	0.0162872
602.950	0.0164431
603.029	0.0162395
603.107	0.0163156
603.185	0.0162537
603.263	0.0163720
603.341	0.0163307
603.419	0.0163282
603.497	0.0162498
603.575	0.0162070
603.654	0.0164310
603.732	0.0163748
603.810	0.0164277
603.888	0.0162959
603.966	0.0163614
604.044	0.0163261
604.122	0.0162395
604.200	0.0163148
604.279	0.0163009
604.357	0.0161899
604.435	0.0163280
604.513	0.0163155
604.591	0.0163338
604.669	0.0163438
604.747	0.0164137
604.825	0.0164769
604.904	0.0163366
604.982	0.0163844
605.060	0.0164376
605.138	0.0163581
605.216	0.0162666
605.294	0.0163615
605.372	0.0162627
605.450	0.0163104
605.529	0.0164011
605.607	0.0162914
605.685	0.0161540
605.763	0.0162921
605.841	0.0162333
605.919	0.0163703
605.997	0.0162891
606.075	0.0162961
606.154	0.0163751
606.232	0.0162823
606.310	0.0162637
606.388	0.0162601
606.466	0.0163180
606.544	0.0161508
606.622	0.0163467
606.700	0.0163674
606.779	0.0163646
606.857	0.0163196
606.935	0.0163747
607.013	0.0164132
607.091	0.0164033
607.169	0.0163239
607.247	0.0164388
607.325	0.0162248
607.404	0.0161780
607.482	0.0163216
607.560	0.0163628
607.638	0.0162949
607.716	0.0161663
607.794	0.0163683
607.872	0.0163631
607.950	0.0164115
608.029	0.0161842
608.107	0.0162592
608.185	0.0163705
608.263	0.0162872
608.341	0.0163531
608.419	0.0161893
608.497	0.0162868
608.575	0.0162373
608.654	0.0163605
608.732	0.0164304
608.810	0.0165026
608.888	0.0162258
608.966	0.0162899
609.044	0.0164259
609.122	0.0163654
609.200	0.0163322
609.279	0.0164184
609.357	0.0163459
609.435	0.0162599
609.513	0.0163020
609.591	0.0162862
609.669	0.0164349
609.747	0.0162499
609.825	0.0162592
609.904	0.0161616
609.982	0.0163730
610.060	0.0163865
610.138	0.0163390
610.216	0.0163047
610.294	0.0163361
610.372	0.0164595
610.450	0.0162794
610.529	0.0162663
610.607	0.0163200
610.685	0.0163238
610.763	0.0162045
610.841	0.0163323
610.919	0.0163452
610.997	0.0162533
611.075	0.0163505
611.154	0.0163792
611.232	0.0162981
611.310	0.0163943
611.388	0.0162651
611.466	0.0162468
611.544	0.0162437
611.622	0.0163949
611.700	0.0163387
611.779	0.0164147
611.857	0.0164423
611.935	0.0162350
612.013	0.0163853
612.091	0.0163253
612.169	0.0163162
612.247	0.0163110
612.325	0.0162485
612.404	0.0163584
612.482	0.0163673
612.560	0.0163452
612.638	0.0163398
612.716	0.0162994
612.794	0.0164010
612.872	0.0162369
612.950	0.0162344
613.029	0.0162514
613.107	0.0162864
613.185	0.0162798
613.263	0.0162333
613.341	0.0162343
613.419	0.0163133
613.497	0.0162650
613.575	0.0163145
613.654	0.0162228
613.732	0.0163769
613.810	0.0163371
613.888	0.0164053
613.966	0.0162488
614.044	0.0162836
614.122	0.0162611
614.200	0.0164546
614.279	0.0164783
614.357	0.0164402
614.435	0.0164624
614.513	0.0163040
614.591	0.0163556
614.669	0.0163768
614.747	0.0163651
614.825	0.0164038
614.904	0.0163793
614.982	0.0162766
615.060	0.0162897
615.138	0.0162881
615.216	0.0163242
615.294	0.0163759
615.372	0.0163178
615.450	0.0162823
615.529	0.0162154
615.607	0.0161662
615.685	0.0163831
615.763	0.0163815
615.841	0.0162487
615.919	0.0163226
615.997	0.0162081
616.075	0.0161636
616.154	0.0161102
616.232	0.0162423
616.310	0.0162470
616.388	0.0160964
616.466	0.0163200
616.544	0.0162778
616.622	0.0162797
616.700	0.0162597
616.779	0.0161408
616.857	0.0160837
616.935	0.0164241
617.013	0.0163146
617.091	0.0161994
617.169	0.0162410
617.247	0.0164339
617.325	0.0162616
617.404	0.0161967
617.482	0.0162017
617.560	0.0162548
617.638	0.0163039
617.716	0.0163068
617.794	0.0162787
617.872	0.0162765
617.950	0.0161662
618.029	0.0162565
618.107	0.0162746
618.185	0.0161705
618.263	0.0163094
618.341	0.0161660
618.419	0.0163104
618.497	0.0161783
618.575	0.0163176
618.654	0.0162826
618.732	0.0163580
618.810	0.0163219
618.888	0.0163848
618.966	0.0164295
619.044	0.0164909
619.122	0.0163991
619.200	0.0162698
619.279	0.0162715
619.357	0.0164169
619.435	0.0163236
619.513	0.0163784
619.591	0.0162229
619.669	0.0163017
619.747	0.0163311
619.825	0.0163721
619.904	0.0163610
619.982	0.0163793
620.060	0.0162814
620.138	0.0163412
620.216	0.0163766
620.294	0.0162996
620.372	0.0162472
620.450	0.0164411
620.529	0.0163923
620.607	0.0161652
620.685	0.0162488
620.763	0.0163017
620.841	0.0163124
620.919	0.0162930
620.997	0.0162605
621.075	0.0162061
621.154	0.0163303
621.232	0.0163015
621.310	0.0163408
621.388	0.0162350
621.466	0.0162462
621.544	0.0161725
621.622	0.0161818
621.700	0.0162554
621.779	0.0162756
621.857	0.0163178
621.935	0.0162929
622.013	0.0161894
622.091	0.0162283
622.169	0.0162900
622.247	0.0162341
622.325	0.0163201
622.404	0.0161227
622.482	0.0163035
622.560	0.0162073
622.638	0.0163067
622.716	0.0162561
622.794	0.0162428
622.872	0.0162598
622.950	0.0162447
623.029	0.0161876
623.107	0.0163380
623.185	0.0163490
623.263	0.0162239
623.341	0.0162700
623.419	0.0163011
623.497	0.0163589
623.575	0.0162457
623.654	0.0163169
623.732	0.0163344
623.810	0.0163553
623.888	0.0164049
623.966	0.0163506
624.044	0.0163914
624.122	0.0163016
624.200	0.0163310
624.279	0.0163697
624.357	0.0163361
624.435	0.0162849
624.513	0.0163056
624.591	0.0163136
624.669	0.0163468
624.747	0.0163271
624.825	0.0162669
624.904	0.0163214
624.982	0.0164404
625.060	0.0163939
625.138	0.0162380
625.216	0.0162480
625.294	0.0163999
625.372	0.0162916
625.450	0.0161645
625.529	0.0162605
625.607	0.0162247
625.685	0.0163163
625.763	0.0162526
625.841	0.0162212
625.919	0.0162050
625.997	0.0163441
626.075	0.0163017
626.154	0.0163920
626.232	0.0161661
626.310	0.0163658
626.388	0.0163080
626.466	0.0163272
626.544	0.0164065
626.622	0.0161663
626.700	0.0162035
626.779	0.0161963
626.857	0.0162665
626.935	0.0163818
627.013	0.0162206
627.091	0.0163442
627.169	0.0163258
627.247	0.0162235
627.325	0.0161798
627.404	0.0163454
627.482	0.0162805
627.560	0.0163101
627.638	0.0162714
627.716	0.0163416
627.794	0.0163303
627.872	0.0162411
627.950	0.0162616
628.029	0.0163459
628.107	0.0163438
628.185	0.0162802
628.263	0.0164296
628.341	0.0163263
628.419	0.0163136
628.497	0.0162727
628.575	0.0164615
628.654	0.0162038
628.732	0.0163584
628.810	0.0163863
628.888	0.0162614
628.966	0.0163017
629.044	0.0162929
629.122	0.0163265
629.200	0.0164363
629.279	0.0163803
629.357	0.0163763
629.435	0.0162251
629.513	0.0163325
629.591	0.0162971
629.669	0.0162443
629.747	0.0162475
629.825	0.0162092
629.904	0.0162179
629.982	0.0163490
630.060	0.0164204
630.138	0.0164063
630.216	0.0163183
630.294	0.0161357
630.372	0.0162060
630.450	0.0162917
630.529	0.0164296
630.607	0.0163162
630.685	0.0163725
630.763	0.0162599
630.841	0.0162617
630.919	0.0161068
630.997	0.0162168
631.075	0.0162939
631.154	0.0162898
631.232	0.0162898
631.310	0.0164223
631.388	0.0163628
631.466	0.0162707
631.544	0.0163210
631.622	0.0162286
631.700	0.0162300
631.779	0.0163440
631.857	0.0163751
631.935	0.0162948
632.013	0.0163081
632.091	0.0162843
632.169	0.0162850
632.247	0.0161578
632.325	0.0162062
632.404	0.0163564
632.482	0.0162572
632.560	0.0163615
632.638	0.0162784
632.716	0.0162519
632.794	0.0161919
632.872	0.0162602
632.950	0.0162538
633.029	0.0163705
633.107	0.0162390
633.185	0.0163030
633.263	0.0163759
633.341	0.0162273
633.419	0.0163611
633.497	0.0162733
633.575	0.0163476
633.654	0.0163399
633.732	0.0162664
633.810	0.0163914
633.888	0.0164071
633.966	0.0164199
634.044	0.0163113
634.122	0.0163293
634.200	0.0162960
634.279	0.0162727
634.357	0.0163489
634.435	0.0163327
634.513	0.0162778
634.591	0.0162365
634.669	0.0163394
634.747	0.0163046
634.825	0.0164368
634.904	0.0163904
634.982	0.0163593
635.060	0.0163618
635.138	0.0162733
635.216	0.0163097
635.294	0.0162991
635.372	0.0162618
635.450	0.0163873
635.529	0.0163557
635.607	0.0163052
635.685	0.0163094
635.763	0.0163496
635.841	0.0164288
635.919	0.0163231
635.997	0.0163394
636.075	0.0163847
636.154	0.0162607
636.232	0.0163363
636.310	0.0162517
636.388	0.0162387
636.466	0.0162592
636.544	0.0162980
636.622	0.0163647
636.700	0.0163955
636.779	0.0163093
636.857	0.0162123
636.935	0.0163857
637.013	0.0163670
637.091	0.0161306
637.169	0.0162606
637.247	0.0162763
637.325	0.0162520
637.404	0.0163230
637.482	0.0162374
637.560	0.0163005
637.638	0.0163798
637.716	0.0165013
637.794	0.0163383
637.872	0.0161975
637.950	0.0162873
638.029	0.0163102
638.107	0.0161960
638.185	0.0162061
638.263	0.0162813
638.341	0.0163542
638.419	0.0163544
638.497	0.0163071
638.575	0.0163296
638.654	0.0162605
638.732	0.0163946
638.810	0.0163847
638.888	0.0163826
638.966	0.0163175
639.044	0.0162266
639.122	0.0163322
639.200	0.0162341
639.279	0.0161803
639.357	0.0163113
639.435	0.0162905
639.513	0.0163888
639.591	0.0164008
639.669	0.0162832
639.747	0.0162918
639.825	0.0163032
639.904	0.0162024
639.982	0.0163017
640.060	0.0162399
640.138	0.0161964
640.216	0.0163142
640.294	0.0163612
640.372	0.0163803
640.450	0.0163319
640.529	0.0162235
640.607	0.0162514
640.685	0.0162690
640.763	0.0163652
640.841	0.0162286
640.919	0.0162399
640.997	0.0163099
641.075	0.0162329
641.154	0.0162939
641.232	0.0163039
641.310	0.0161857
641.388	0.0162884
641.466	0.0161375
641.544	0.0163595
641.622	0.0164249
641.700	0.0163425
641.779	0.0162405
641.857	0.0162763
641.935	0.0161784
642.013	0.0162248
642.091	0.0160473
642.169	0.0161868
642.247	0.0163506
642.325	0.0163902
642.404	0.0161165
642.482	0.0160741
642.560	0.0162711
642.638	0.0161556
642.716	0.0161234
642.794	0.0162048
642.872	0.0162630
642.950	0.0163033
643.029	0.0163011
643.107	0.0161567
643.185	0.0161287
643.263	0.0162642
643.341	0.0161982
643.419	0.0162089
643.497	0.0163466
643.575	0.0162324
643.654	0.0162973
643.732	0.0164220
643.810	0.0162605
643.888	0.0161885
643.966	0.0163455
644.044	0.0163567
644.122	0.0162338
644.200	0.0163226
644.279	0.0162435
644.357	0.0161872
644.435	0.0162821
644.513	0.0162383
644.591	0.0163513
644.669	0.0163602
644.747	0.0162639
644.825	0.0162579
644.904	0.0162273
644.982	0.0162046
645.060	0.0161946
645.138	0.0161863
645.216	0.0163673
645.294	0.0162115
645.372	0.0161932
645.450	0.0161470
645.529	0.0163226
645.607	0.0163753
645.685	0.0161701
645.763	0.0163686
645.841	0.0163506
645.919	0.0163154
645.997	0.0162975
646.075	0.0162310
646.154	0.0162759
646.232	0.0163243
646.310	0.0164794
646.388	0.0162801
646.466	0.0162056
646.544	0.0162021
646.622	0.0161629
646.700	0.0162275
646.779	0.0163493
646.857	0.0162645
646.935	0.0162514
647.013	0.0162224
647.091	0.0162300
647.169	0.0162337
647.247	0.0162691
647.325	0.0163778
647.404	0.0161824
647.482	0.0163003
647.560	0.0162569
647.638	0.0162570
647.716	0.0162935
647.794	0.0162516
647.872	0.0162882
647.950	0.0163531
648.029	0.0162099
648.107	0.0163898
648.185	0.0163067
648.263	0.0163461
648.341	0.0162978
648.419	0.0162232
648.497	0.0164405
648.575	0.0162663
648.654	0.0162562
648.732	0.0162589
648.810	0.0164337
648.888	0.0163226
648.966	0.0162172
649.044	0.0162617
649.122	0.0163009
649.200	0.0163908
649.279	0.0163108
649.357	0.0162833
649.435	0.0162896
649.513	0.0162450
649.591	0.0162962
649.669	0.0162533
649.747	0.0163629
649.825	0.0163041
649.904	0.0164008
649.982	0.0162632
650.060	0.0162187
650.138	0.0161588
650.216	0.0163123
650.294	0.0161114
650.372	0.0162303
650.450	0.0163608
650.529	0.0164198
650.607	0.0163010
650.685	0.0163022
650.763	0.0164423
650.841	0.0162843
650.919	0.0163081
650.997	0.0163168
651.075	0.0160739
651.154	0.0163853
651.232	0.0164627
651.310	0.0163240
651.388	0.0163536
651.466	0.0163467
651.544	0.0162685
651.622	0.0162473
651.700	0.0161969
651.779	0.0162077
651.857	0.0161736
651.935	0.0161787
652.013	0.0163162
652.091	0.0162826
652.169	0.0163654
652.247	0.0163462
652.325	0.0161950
652.404	0.0163075
652.482	0.0161572
652.560	0.0161910
652.638	0.0163218
652.716	0.0162875
652.794	0.0161991
652.872	0.0161586
652.950	0.0163058
653.029	0.0162690
653.107	0.0160720
653.185	0.0162167
653.263	0.0162743
653.341	0.0163387
653.419	0.0164650
653.497	0.0162286
653.575	0.0163461
653.654	0.0163387
653.732	0.0163916
653.810	0.0162364
653.888	0.0162173
653.966	0.0162872
654.044	0.0162487
654.122	0.0162433
654.200	0.0162822
654.279	0.0163421
654.357	0.0162623
654.435	0.0162616
654.513	0.0163550
654.591	0.0162939
654.669	0.0162902
654.747	0.0162807
654.825	0.0162976
654.904	0.0162462
654.982	0.0164096
655.060	0.0163960
655.138	0.0161906
655.216	0.0161798
655.294	0.0163242
655.372	0.0163031
655.450	0.0162888
655.529	0.0162669
655.607	0.0163699
655.685	0.0163878
655.763	0.0162188
655.841	0.0163580
655.919	0.0162517
655.997	0.0163223
656.075	0.0163972
656.154	0.0164079
656.232	0.0162939
656.310	0.0162912
656.388	0.0162865
656.466	0.0164078
656.544	0.0163229
656.622	0.0163512
656.700	0.0164168
656.779	0.0163471
656.857	0.0163232
656.935	0.0163157
657.013	0.0162895
657.091	0.0163991
657.169	0.0162745
657.247	0.0162881
657.325	0.0162978
657.404	0.0163251
657.482	0.0162696
657.560	0.0161884
657.638	0.0162585
657.716	0.0162392
657.794	0.0162792
657.872	0.0162875
657.950	0.0163267
658.029	0.0163753
658.107	0.0164745
658.185	0.0164335
658.263	0.0164159
658.341	0.0162601
658.419	0.0163248
658.497	0.0164075
658.575	0.0163148
658.654	0.0163813
658.732	0.0162698
658.810	0.0163968
658.888	0.0163520
658.966	0.0162740
659.044	0.0161755
659.122	0.0162010
659.200	0.0162428
659.279	0.0161765
659.357	0.0162713
659.435	0.0163269
659.513	0.0163455
659.591	0.0162446
659.669	0.0163929
659.747	0.0164288
659.825	0.0163099
659.904	0.0164840
659.982	0.0164465
660.060	0.0165467
660.138	0.0164613
660.216	0.0164463
660.294	0.0163334
660.372	0.0162133
660.450	0.0163188
660.529	0.0163835
660.607	0.0162379
660.685	0.0163011
660.763	0.0161700
660.841	0.0162266
660.919	0.0163852
660.997	0.0163130
661.075	0.0161546
661.154	0.0164398
661.232	0.0163546
661.310	0.0163071
661.388	0.0164036
661.466	0.0162487
661.544	0.0163983
661.622	0.0164040
661.700	0.0163419
661.779	0.0163831
661.857	0.0163738
661.935	0.0164638
662.013	0.0161994
662.091	0.0161715
662.169	0.0162206
662.247	0.0162274
662.325	0.0163369
662.404	0.0163137
662.482	0.0163467
662.560	0.0162565
662.638	0.0161180
662.716	0.0162408
662.794	0.0163985
662.872	0.0165050
662.950	0.0164194
663.029	0.0162589
663.107	0.0162956
663.185	0.0163281
663.263	0.0163882
663.341	0.0164074
663.419	0.0162488
663.497	0.0163879
663.575	0.0164124
663.654	0.0164266
663.732	0.0162312
663.810	0.0162677
663.888	0.0164506
663.966	0.0164352
664.044	0.0164706
664.122	0.0164006
664.200	0.0165672
664.279	0.0164903
664.357	0.0163503
664.435	0.0164140
664.513	0.0163127
664.591	0.0164206
664.669	0.0163405
664.747	0.0162824
664.825	0.0163091
664.904	0.0161877
664.982	0.0161835
665.060	0.0161919
665.138	0.0160833
665.216	0.0161171
665.294	0.0163226
665.372	0.0163121
665.450	0.0162828
665.529	0.0163936
665.607	0.0162579
665.685	0.0163551
665.763	0.0163654
665.841	0.0163564
665.919	0.0164759
665.997	0.0164406
666.075	0.0164421
666.154	0.0163760
666.232	0.0163904
666.310	0.0163049
666.388	0.0162865
666.466	0.0163404
666.544	0.0164291
666.622	0.0163633
666.700	0.0162359
666.779	0.0160831
666.857	0.0162875
666.935	0.0161673
667.013	0.0162502
667.091	0.0161800
667.169	0.0161816
667.247	0.0160806
667.325	0.0161825
667.404	0.0160315
667.482	0.0161745
667.560	0.0161887
667.638	0.0162814
667.716	0.0163146
667.794	0.0161929
667.872	0.0163701
667.950	0.0162348
668.029	0.0163715
668.107	0.0163761
668.185	0.0163393
668.263	0.0164130
668.341	0.0163832
668.419	0.0164676
668.497	0.0163165
668.575	0.0163571
668.654	0.0164600
668.732	0.0164536
668.810	0.0162787
668.888	0.0164205
668.966	0.0164470
669.044	0.0164096
669.122	0.0163852
669.200	0.0163692
669.279	0.0164251
669.357	0.0164676
669.435	0.0163953
669.513	0.0163048
669.591	0.0162479
669.669	0.0164285
669.747	0.0163573
669.825	0.0163067
669.904	0.0162038
669.982	0.0163582
670.060	0.0163496
670.138	0.0161153
670.216	0.0161815
670.294	0.0159991
670.372	0.0161296
670.450	0.0161277
670.529	0.0161212
670.607	0.0160583
670.685	0.0161057
670.763	0.0160517
670.841	0.0159715
670.919	0.0158563
670.997	0.0160201
671.075	0.0160394
671.154	0.0160451
671.232	0.0161636
671.310	0.0160835
671.388	0.0161124
671.466	0.0162994
671.544	0.0162879
671.622	0.0164223
671.700	0.0164542
671.779	0.0165530
671.857	0.0164817
671.935	0.0164261
672.013	0.0165469
672.091	0.0165458
672.169	0.0165067
672.247	0.0165264
672.325	0.0163963
672.404	0.0164166
672.482	0.0164828
672.560	0.0164810
672.638	0.0162525
672.716	0.0161256
672.794	0.0162536
672.872	0.0163221
672.950	0.0162579
673.029	0.0162127
673.107	0.0162827
673.185	0.0163427
673.263	0.0162914
673.341	0.0164876
673.419	0.0163380
673.497	0.0163631
673.575	0.0165067
673.654	0.0164083
673.732	0.0163367
673.810	0.0164050
673.888	0.0164833
673.966	0.0163432
674.044	0.0163370
674.122	0.0162746
674.200	0.0164498
674.279	0.0163889
674.357	0.0161766
674.435	0.0162810
674.513	0.0163017
674.591	0.0161353
674.669	0.0161507
674.747	0.0162031
674.825	0.0161212
674.904	0.0160732
674.982	0.0161472
675.060	0.0160686
675.138	0.0160504
675.216	0.0159245
675.294	0.0160474
675.372	0.0160901
675.450	0.0161514
675.529	0.0161146
675.607	0.0162260
675.685	0.0162564
675.763	0.0162281
675.841	0.0164689
675.919	0.0162286
675.997	0.0160928
676.075	0.0163339
676.154	0.0163396
676.232	0.0162519
676.310	0.0161481
676.388	0.0160980
676.466	0.0161487
676.544	0.0162457
676.622	0.0162582
676.700	0.0162209
676.779	0.0164697
676.857	0.0165092
676.935	0.0166586
677.013	0.0169070
677.091	0.0170210
677.169	0.0170393
677.247	0.0169270
677.325	0.0169946
677.404	0.0168849
677.482	0.0165987
677.560	0.0163299
677.638	0.0162199
677.716	0.0157559
677.794	0.0156090
677.872	0.0154336
677.950	0.0153909
678.029	0.0153876
678.107	0.0154320
678.185	0.0156215
678.263	0.0158541
678.341	0.0162014
678.419	0.0164091
678.497	0.0167456
678.575	0.0170709
678.654	0.0171725
678.732	0.0172691
678.810	0.0174487
678.888	0.0173896
678.966	0.0174210
679.044	0.0174596
679.122	0.0174006
679.200	0.0175021
679.279	0.0172208
679.357	0.0171844
679.435	0.0170383
679.513	0.0169659
679.591	0.0168701
679.669	0.0168470
679.747	0.0167216
679.825	0.0164436
679.904	0.0160748
679.982	0.0156577
680.060	0.0153264
680.138	0.0149901
680.216	0.0147228
680.294	0.0144430
680.372	0.0142179
680.450	0.0143242
680.529	0.0145190
680.607	0.0148546
680.685	0.0150807
680.763	0.0154520
680.841	0.0159654
680.919	0.0165189
680.997	0.0169413
681.075	0.0170901
681.154	0.0173521
681.232	0.0172683
681.310	0.0170444
681.388	0.0168619
681.466	0.0164880
681.544	0.0162385
681.622	0.0157536
681.700	0.0154107
681.779	0.0151029
681.857	0.0147151
681.935	0.0145393
682.013	0.0144843
682.091	0.0145557
682.169	0.0146220
682.247	0.0149563
682.325	0.0153553
682.404	0.0158146
682.482	0.0165405
682.560	0.0170893
682.638	0.0177661
682.716	0.0183167
682.794	0.0189173
682.872	0.0192047
682.950	0.0192432
683.029	0.0190277
683.107	0.0190221
683.185	0.0187702
683.263	0.0182818
683.341	0.0178422
683.419	0.0177386
683.497	0.0174021
683.575	0.0173070
683.654	0.0171619
683.732	0.0175461
683.810	0.0176484
683.888	0.0178216
683.966	0.0180705
684.044	0.0182603
684.122	0.0183075
684.200	0.0182037
684.279	0.0178495
684.357	0.0174279
684.435	0.0167888
684.513	0.0162045
684.591	0.0153128
684.669	0.0145328
684.747	0.0140614
684.825	0.0134754
684.904	0.0129892
684.982	0.0125877
685.060	0.0125992
685.138	0.0126399
685.216	0.0126871
685.294	0.0131148
685.372	0.0134657
685.450	0.0137663
685.529	0.0141588
685.607	0.0145687
685.685	0.0147005
685.763	0.0151077
685.841	0.0152554
685.919	0.0155437
685.997	0.0158723
686.075	0.0160635
686.154	0.0163853
686.232	0.0166830
686.310	0.0170042
686.388	0.0172678
686.466	0.0175066
686.544	0.0179951
686.622	0.0181446
686.700	0.0181944
686.779	0.0179536
686.857	0.0180434
686.935	0.0178793
687.013	0.0173703
687.091	0.0170320
687.169	0.0165554
687.247	0.0159657
687.325	0.0154989
687.404	0.0150564
687.482	0.0148270
687.560	0.0145354
687.638	0.0144732
687.716	0.0148856
687.794	0.0151972
687.872	0.0155795
687.950	0.0159572
688.029	0.0164995
688.107	0.0171253
688.185	0.0174078
688.263	0.0179813
688.341	0.0183169
688.419	0.0183344
688.497	0.0184514
688.575	0.0186218
688.654	0.0186977
688.732	0.0187709
688.810	0.0186972
688.888	0.0186550
688.966	0.0186289
689.044	0.0185715
689.122	0.0185652
689.200	0.0184701
689.279	0.0182830
689.357	0.0180917
689.435	0.0178111
689.513	0.0176725
689.591	0.0172939
689.669	0.0169557
689.747	0.0165080
689.825	0.0162660
689.904	0.0158848
689.982	0.0154632
690.060	0.0153462
690.138	0.0152085
690.216	0.0149854
690.294	0.0150018
690.372	0.0150561
690.450	0.0152515
690.529	0.0155490
690.607	0.0157557
690.685	0.0161765
690.763	0.0165105
690.841	0.0169331
690.919	0.0171754
690.997	0.0173341
691.075	0.0173494
691.154	0.0171745
691.232	0.0169370
691.310	0.0164184
691.388	0.0161444
691.466	0.0152956
691.544	0.0143539
691.622	0.0136356
691.700	0.0129052
691.779	0.0118880
691.857	0.0110541
691.935	0.0103726
692.013	0.0100214
692.091	0.00946144
692.169	0.00913513
692.247	0.00883690
692.325	0.00850235
692.404	0.00853973
692.482	0.00879112
692.560	0.00899612
692.638	0.00957039
692.716	0.0103680
692.794	0.0113851
692.872	0.0124360
692.950	0.0138177
693.029	0.0153981
693.107	0.0171250
693.185	0.0188685
693.263	0.0207648
693.341	0.0224060
693.419	0.0239568
693.497	0.0255232
693.575	0.0269792
693.654	0.0277864
693.732	0.0286356
693.810	0.0292629
693.888	0.0295556
693.966	0.0294334
694.044	0.0291565
694.122	0.0284334
694.200	0.0277019
694.279	0.0265894
694.357	0.0251893
694.435	0.0236800
694.513	0.0222228
694.591	0.0208582
694.669	0.0193221
694.747	0.0180428
694.825	0.0167914
694.904	0.0155528
694.982	0.0145364
695.060	0.0134845
695.138	0.0125127
695.216	0.0116811
695.294	0.0108694
695.372	0.0103658
695.450	0.00986458
695.529	0.00959137
695.607	0.00959282
695.685	0.00966293
695.763	0.00985008
695.841	0.0100809
695.919	0.0104115
695.997	0.0106135
696.075	0.0108360
696.154	0.0108173
696.232	0.0111598
696.310	0.0111126
696.388	0.0111209
696.466	0.0108715
696.544	0.0106703
696.622	0.0104261
696.700	0.0102581
696.779	0.00984650
696.857	0.00943527
696.935	0.00921410
697.013	0.00885979
697.091	0.00859924
697.169	0.00866203
697.247	0.00881042
697.325	0.00910858
697.404	0.00954346
697.482	0.0104397
697.560	0.0117061
697.638	0.0129800
697.716	0.0145748
697.794	0.0163092
697.872	0.0182355
697.950	0.0202445
698.029	0.0221162
698.107	0.0239327
698.185	0.0257037
698.263	0.0272323
698.341	0.0285493
698.419	0.0295095
698.497	0.0300355
698.575	0.0304874
698.654	0.0304427
698.732	0.0303006
698.810	0.0298054
698.888	0.0292781
698.966	0.0282770
699.044	0.0273193
699.122	0.0260993
699.200	0.0247244
699.279	0.0234872
699.357	0.0219375
699.435	0.0203566
699.513	0.0190106
699.591	0.0176736
699.669	0.0166166
699.747	0.0152821
699.825	0.0139655
699.904	0.0130222
699.982	0.0121856
700.060	0.0113538
700.138	0.0105045
700.216	0.00988258
700.294	0.00954437
700.372	0.00915558
700.450	0.00905876
700.529	0.00902641
700.607	0.00903290
700.685	0.00919830
700.763	0.00913780
700.841	0.00925468
700.919	0.00942329
700.997	0.00950256
701.075	0.00978279
701.154	0.0100436
701.232	0.0101696
701.310	0.0104490
701.388	0.0105730
701.466	0.0106549
701.544	0.0108237
701.622	0.0109698
701.700	0.0112691
701.779	0.0111613
701.857	0.0112964
701.935	0.0115147
702.013	0.0118002
702.091	0.0120139
702.169	0.0125619
702.247	0.0128567
702.325	0.0134893
702.404	0.0143661
702.482	0.0154428
702.560	0.0164217
702.638	0.0179247
702.716	0.0194269
702.794	0.0210036
702.872	0.0224241
702.950	0.0238998
703.029	0.0253389
703.107	0.0263692
703.185	0.0274191
703.263	0.0279697
703.341	0.0280821
703.419	0.0279761
703.497	0.0276633
703.575	0.0269686
703.654	0.0261333
703.732	0.0250513
703.810	0.0237725
703.888	0.0223383
703.966	0.0210705
704.044	0.0196712
704.122	0.0183154
704.200	0.0171534
704.279	0.0161928
704.357	0.0153874
704.435	0.0144691
704.513	0.0138837
704.591	0.0133397
704.669	0.0126919
704.747	0.0122535
704.825	0.0118190
704.904	0.0116228
704.982	0.0110696
705.060	0.0111848
705.138	0.0111077
705.216	0.0111088
705.294	0.0113511
705.372	0.0116042
705.450	0.0118592
705.529	0.0121014
705.607	0.0125423
705.685	0.0130103
705.763	0.0134961
705.841	0.0139567
705.919	0.0144019
705.997	0.0147327
706.075	0.0150137
706.154	0.0152315
706.232	0.0154012
706.310	0.0153825
706.388	0.0152502
706.466	0.0148561
706.544	0.0145816
706.622	0.0142126
706.700	0.0138779
706.779	0.0134767
706.857	0.0130807
706.935	0.0128530
707.013	0.0128848
707.091	0.0128496
707.169	0.0130682
707.247	0.0132918
707.325	0.0138470
707.404	0.0145872
707.482	0.0154943
707.560	0.0164951
707.638	0.0174932
707.716	0.0187133
707.794	0.0199497
707.872	0.0209747
707.950	0.0219083
708.029	0.0228846
708.107	0.0236922
708.185	0.0241875
708.263	0.0245051
708.341	0.0244007
708.419	0.0243882
708.497	0.0238416
708.575	0.0232294
708.654	0.0223219
708.732	0.0216041
708.810	0.0205077
708.888	0.0195976
708.966	0.0185423
709.044	0.0177878
709.122	0.0169139
709.200	0.0163238
709.279	0.0159174
709.357	0.0155022
709.435	0.0152737
709.513	0.0149424
709.591	0.0147678
709.669	0.0145455
709.747	0.0145158
709.825	0.0143485
709.904	0.0143768
709.982	0.0142621
710.060	0.0140962
710.138	0.0139701
710.216	0.0138888
710.294	0.0135183
710.372	0.0133685
710.450	0.0132047
710.529	0.0131631
710.607	0.0129981
710.685	0.0130942
710.763	0.0130431
710.841	0.0131018
710.919	0.0129684
710.997	0.0130284
711.075	0.0130971
711.154	0.0128555
711.232	0.0128307
711.310	0.0128213
711.388	0.0127680
711.466	0.0127525
711.544	0.0125259
711.622	0.0126411
711.700	0.0127112
711.779	0.0128490
711.857	0.0131276
711.935	0.0134612
712.013	0.0138119
712.091	0.0143799
712.169	0.0152158
712.247	0.0161338
712.325	0.0169453
712.404	0.0177557
712.482	0.0186945
712.560	0.0194959
712.638	0.0204491
712.716	0.0213023
712.794	0.0217581
712.872	0.0224544
712.950	0.0227419
713.029	0.0228280
713.107	0.0230960
713.185	0.0229471
713.263	0.0227928
713.341	0.0224163
713.419	0.0219353
713.497	0.0215118
713.575	0.0211340
713.654	0.0202306
713.732	0.0195398
713.810	0.0189040
713.888	0.0181647
713.966	0.0175702
714.044	0.0170214
714.122	0.0166000
714.200	0.0161321
714.279	0.0156673
714.357	0.0153363
714.435	0.0150115
714.513	0.0146673
714.591	0.0144945
714.669	0.0142567
714.747	0.0141151
714.825	0.0141234
714.904	0.0140659
714.982	0.0141056
715.060	0.0139173
715.138	0.0139014
715.216	0.0139529
715.294	0.0139701
715.372	0.0137840
715.450	0.0138271
715.529	0.0139001
715.607	0.0139625
715.685	0.0140302
715.763	0.0139557
715.841	0.0139822
715.919	0.0138823
715.997	0.0138204
716.075	0.0137785
716.154	0.0136935
716.232	0.0135368
716.310	0.0136743
716.388	0.0134704
716.466	0.0135854
716.544	0.0135564
716.622	0.0136539
716.700	0.0136905
716.779	0.0139631
716.857	0.0142220
716.935	0.0147199
717.013	0.0150916
717.091	0.0156528
717.169	0.0162443
717.247	0.0167200
717.325	0.0175269
717.404	0.0181857
717.482	0.0188485
717.560	0.0194448
717.638	0.0200608
717.716	0.0205213
717.794	0.0208690
717.872	0.0210900
717.950	0.0212961
718.029	0.0211404
718.107	0.0208328
718.185	0.0205538
718.263	0.0202554
718.341	0.0196137
718.419	0.0191225
718.497	0.0185896
718.575	0.0178777
718.654	0.0173898
718.732	0.0169265
718.810	0.0164884
718.888	0.0159476
718.966	0.0156843
719.044	0.0154118
719.122	0.0152429
719.200	0.0149843
719.279	0.0147795
719.357	0.0145421
719.435	0.0145572
719.513	0.0145761
719.591	0.0145342
719.669	0.0146442
719.747	0.0144997
719.825	0.0146301
719.904	0.0145993
719.982	0.0148236
720.060	0.0148642
720.138	0.0150446
720.216	0.0151152
720.294	0.0150809
720.372	0.0152350
720.450	0.0155901
720.529	0.0156216
720.607	0.0159076
720.685	0.0160489
720.763	0.0160934
720.841	0.0164126
720.919	0.0163055
720.997	0.0164552
721.075	0.0163942
721.154	0.0165235
721.232	0.0164219
721.310	0.0164609
721.388	0.0163300
721.466	0.0161488
721.544	0.0161087
721.622	0.0158764
721.700	0.0157439
721.779	0.0158210
721.857	0.0157493
721.935	0.0159274
722.013	0.0160112
722.091	0.0161915
722.169	0.0162618
722.247	0.0164612
722.325	0.0167228
722.404	0.0169553
722.482	0.0172137
722.560	0.0174111
722.638	0.0177593
722.716	0.0176139
722.794	0.0177361
722.872	0.0177631
722.950	0.0175846
723.029	0.0176917
723.107	0.0173289
723.185	0.0171694
723.263	0.0168840
723.341	0.0166425
723.419	0.0163071
723.497	0.0162671
723.575	0.0158803
723.654	0.0156940
723.732	0.0155127
723.810	0.0153527
723.888	0.0152968
723.966	0.0152484
724.044	0.0152456
724.122	0.0152195
724.200	0.0153641
724.279	0.0154204
724.357	0.0153101
724.435	0.0155341
724.513	0.0157992
724.591	0.0159624
724.669	0.0160706
724.747	0.0161390
724.825	0.0162726
724.904	0.0164796
724.982	0.0163348
725.060	0.0165868
725.138	0.0166503
725.216	0.0165341
725.294	0.0167104
725.372	0.0166262
725.450	0.0164349
725.529	0.0166190
725.607	0.0165775
725.685	0.0164715
725.763	0.0163799
725.841	0.0163670
725.919	0.0163403
725.997	0.0163643
726.075	0.0162582
726.154	0.0162225
726.232	0.0161595
726.310	0.0160791
726.388	0.0160110
726.466	0.0159325
726.544	0.0159599
726.622	0.0157841
726.700	0.0159095
726.779	0.0160486
726.857	0.0160809
726.935	0.0160374
727.013	0.0162373
727.091	0.0163682
727.169	0.0165277
727.247	0.0167429
727.325	0.0167699
727.404	0.0169738
727.482	0.0172448
727.560	0.0170538
727.638	0.0170875
727.716	0.0168256
727.794	0.0169734
727.872	0.0169989
727.950	0.0168614
728.029	0.0167916
728.107	0.0165279
728.185	0.0163618
728.263	0.0162415
728.341	0.0160213
728.419	0.0159532
728.497	0.0158603
728.575	0.0157224
728.654	0.0156619
728.732	0.0156741
728.810	0.0157575
728.888	0.0156505
728.966	0.0155719
729.044	0.0155599
729.122	0.0156887
729.200	0.0157824
729.279	0.0159071
729.357	0.0160711
729.435	0.0161971
729.513	0.0163587
729.591	0.0163783
729.669	0.0166431
729.747	0.0167178
729.825	0.0168317
729.904	0.0168996
729.982	0.0169848
730.060	0.0170666
730.138	0.0172066
730.216	0.0169467
730.294	0.0170146
730.372	0.0171985
730.450	0.0171769
730.529	0.0170291
730.607	0.0171517
730.685	0.0170208
730.763	0.0167807
730.841	0.0167267
730.919	0.0166299
730.997	0.0164739
731.075	0.0162875
731.154	0.0161571
731.232	0.0160085
731.310	0.0159618
731.388	0.0159321
731.466	0.0157191
731.544	0.0157711
731.622	0.0155769
731.700	0.0155090
731.779	0.0156277
731.857	0.0159711
731.935	0.0159634
732.013	0.0160007
732.091	0.0161385
732.169	0.0162659
732.247	0.0163254
732.325	0.0164003
732.404	0.0164710
732.482	0.0165547
732.560	0.0166618
732.638	0.0165788
732.716	0.0165648
732.794	0.0164484
732.872	0.0164605
732.950	0.0162260
733.029	0.0160485
733.107	0.0160086
733.185	0.0157769
733.263	0.0156271
733.341	0.0156931
733.419	0.0156493
733.497	0.0157628
733.575	0.0157220
733.654	0.0159457
733.732	0.0160072
733.810	0.0160397
733.888	0.0163322
733.966	0.0166071
734.044	0.0166669
734.122	0.0168071
734.200	0.0168642
734.279	0.0169049
734.357	0.0168175
734.435	0.0168111
734.513	0.0170030
734.591	0.0167725
734.669	0.0165874
734.747	0.0166299
734.825	0.0164588
734.904	0.0165023
734.982	0.0165701
735.060	0.0164929
735.138	0.0163990
735.216	0.0164009
735.294	0.0163382
735.372	0.0164553
735.450	0.0164185
735.529	0.0164630
735.607	0.0164880
735.685	0.0166248
735.763	0.0166434
735.841	0.0166802
735.919	0.0165437
735.997	0.0165826
736.075	0.0166679
736.154	0.0166112
736.232	0.0165422
736.310	0.0164638
736.388	0.0164759
736.466	0.0164082
736.544	0.0162761
736.622	0.0162688
736.700	0.0161305
736.779	0.0162031
736.857	0.0160494
736.935	0.0159188
737.013	0.0159367
737.091	0.0158582
737.169	0.0160522
737.247	0.0159821
737.325	0.0160345
737.404	0.0160725
737.482	0.0162514
737.560	0.0163722
737.638	0.0164376
737.716	0.0163975
737.794	0.0164832
737.872	0.0165907
737.950	0.0165649
738.029	0.0165803
738.107	0.0166026
738.185	0.0167059
738.263	0.0164971
738.341	0.0164928
738.419	0.0165220
738.497	0.0164618
738.575	0.0165113
738.654	0.0164155
738.732	0.0163873
738.810	0.0163646
738.888	0.0163869
738.966	0.0164249
739.044	0.0163894
739.122	0.0163802
739.200	0.0163524
739.279	0.0161834
739.357	0.0161987
739.435	0.0161387
739.513	0.0160604
739.591	0.0159155
739.669	0.0159520
739.747	0.0159122
739.825	0.0160222
739.904	0.0158607
739.982	0.0158742
740.060	0.0157956
740.138	0.0157241
740.216	0.0157490
740.294	0.0158744
740.372	0.0159388
740.450	0.0159836
740.529	0.0160638
740.607	0.0162202
740.685	0.0162420
740.763	0.0162031
740.841	0.0162699
740.919	0.0164159
740.997	0.0163255
741.075	0.0163704
741.154	0.0162576
741.232	0.0161207
741.310	0.0163457
741.388	0.0162312
741.466	0.0160867
741.544	0.0161734
741.622	0.0160835
741.700	0.0160064
741.779	0.0160513
741.857	0.0160178
741.935	0.0160232
742.013	0.0160178
742.091	0.0161453
742.169	0.0161564
742.247	0.0162133
742.325	0.0162006
742.404	0.0164326
742.482	0.0163782
742.560	0.0164477
742.638	0.0164772
742.716	0.0166803
742.794	0.0167520
742.872	0.0167851
742.950	0.0168474
743.029	0.0169077
743.107	0.0168682
743.185	0.0170333
743.263	0.0170222
743.341	0.0171084
743.419	0.0169726
743.497	0.0169119
743.575	0.0169518
743.654	0.0168208
743.732	0.0167673
743.810	0.0167303
743.888	0.0166961
743.966	0.0166267
744.044	0.0164725
744.122	0.0164370
744.200	0.0165773
744.279	0.0163437
744.357	0.0164643
744.435	0.0164263
744.513	0.0163127
744.591	0.0163113
744.669	0.0164789
744.747	0.0163840
744.825	0.0162496
744.904	0.0161132
744.982	0.0162317
745.060	0.0161325
745.138	0.0158730
745.216	0.0160194
745.294	0.0158354
745.372	0.0156310
745.450	0.0155060
745.529	0.0154786
745.607	0.0152233
745.685	0.0152668
745.763	0.0154987
745.841	0.0152010
745.919	0.0151949
745.997	0.0151674
746.075	0.0150531
746.154	0.0151373
746.232	0.0152242
746.310	0.0153772
746.388	0.0154909
746.466	0.0155069
746.544	0.0158035
746.622	0.0159029
746.700	0.0161393
746.779	0.0163175
746.857	0.0164816
746.935	0.0165917
747.013	0.0166615
747.091	0.0167936
747.169	0.0170122
747.247	0.0171456
747.325	0.0171291
747.404	0.0172635
747.482	0.0171924
747.560	0.0171786
747.638	0.0172152
747.716	0.0172124
747.794	0.0170647
747.872	0.0170485
747.950	0.0168932
748.029	0.0170043
748.107	0.0168102
748.185	0.0166635
748.263	0.0166602
748.341	0.0166757
748.419	0.0164970
748.497	0.0164097
748.575	0.0161235
748.654	0.0161163
748.732	0.0160332
748.810	0.0158987
748.888	0.0159575
748.966	0.0159328
749.044	0.0157970
749.122	0.0158598
749.200	0.0158147
749.279	0.0158749
749.357	0.0158182
749.435	0.0159079
749.513	0.0158110
749.591	0.0157892
749.669	0.0160339
749.747	0.0161330
749.825	0.0161387
749.904	0.0162077
749.982	0.0162368
750.060	0.0163334
750.138	0.0163586
750.216	0.0164086
750.294	0.0165734
750.372	0.0164663
750.450	0.0164027
750.529	0.0164330
750.607	0.0166574
750.685	0.0166749
750.763	0.0166000
750.841	0.0165752
750.919	0.0165160
750.997	0.0165427
751.075	0.0163953
751.154	0.0164941
751.232	0.0164790
751.310	0.0166235
751.388	0.0163666
751.466	0.0161349
751.544	0.0160947
751.622	0.0162548
751.700	0.0161422
751.779	0.0160193
751.857	0.0161174
751.935	0.0161752
752.013	0.0160808
752.091	0.0160216
752.169	0.0162056
752.247	0.0159557
752.325	0.0160283
752.404	0.0161080
752.482	0.0160813
752.560	0.0160123
752.638	0.0161835
752.716	0.0162227
752.794	0.0162368
752.872	0.0163361
752.950	0.0163067
753.029	0.0164664
753.107	0.0165095
753.185	0.0165627
753.263	0.0165707
753.341	0.0164567
753.419	0.0165228
753.497	0.0165805
753.575	0.0165737
753.654	0.0166702
753.732	0.0165238
753.810	0.0164964
753.888	0.0165259
753.966	0.0163738
754.044	0.0163834
754.122	0.0162302
754.200	0.0161603
754.279	0.0162495
754.357	0.0161626
754.435	0.0159112
754.513	0.0161751
754.591	0.0159921
754.669	0.0160386
754.747	0.0161056
754.825	0.0162061
754.904	0.0162963
754.982	0.0163225
755.060	0.0163729
755.138	0.0164909
755.216	0.0165204
755.294	0.0166431
755.372	0.0165241
755.450	0.0167702
755.529	0.0166464
755.607	0.0164832
755.685	0.0166602
755.763	0.0165651
755.841	0.0163934
755.919	0.0163345
755.997	0.0162359
756.075	0.0162216
756.154	0.0162084
756.232	0.0160154
756.310	0.0160809
756.388	0.0160372
756.466	0.0158864
756.544	0.0159418
756.622	0.0159472
756.700	0.0159801
756.779	0.0161138
756.857	0.0161436
756.935	0.0161236
757.013	0.0161754
757.091	0.0161974
757.169	0.0162618
757.247	0.0164718
757.325	0.0165758
757.404	0.0164790
757.482	0.0164572
757.560	0.0165977
757.638	0.0164607
757.716	0.0165005
757.794	0.0165189
757.872	0.0165807
757.950	0.0164673
758.029	0.0164158
758.107	0.0163652
758.185	0.0164185
758.263	0.0164046
758.341	0.0164105
758.419	0.0163895
758.497	0.0162387
758.575	0.0163873
758.654	0.0163190
758.732	0.0163536
758.810	0.0163921
758.888	0.0162152
758.966	0.0163396
759.044	0.0161964
759.122	0.0163510
759.200	0.0162257
759.279	0.0162856
759.357	0.0162152
759.435	0.0164133
759.513	0.0164851
759.591	0.0163465
759.669	0.0163943
759.747	0.0163421
759.825	0.0164950
759.904	0.0165051
759.982	0.0164351
760.060	0.0166228
760.138	0.0166545
760.216	0.0166929
760.294	0.0166595
760.372	0.0165524
760.450	0.0165543
760.529	0.0163682
760.607	0.0164683
760.685	0.0163356
760.763	0.0163276
760.841	0.0162286
760.919	0.0161384
760.997	0.0161108
761.075	0.0161254
761.154	0.0162139
761.232	0.0162907
761.310	0.0161867
761.388	0.0161562
761.466	0.0162645
761.544	0.0163232
761.622	0.0163765
761.700	0.0165908
761.779	0.0166383
761.857	0.0165150
761.935	0.0166074
762.013	0.0167573
762.091	0.0166669
762.169	0.0166502
762.247	0.0166666
762.325	0.0165407
762.404	0.0165749
762.482	0.0164483
762.560	0.0163833
762.638	0.0162552
762.716	0.0162384
762.794	0.0160660
762.872	0.0159154
762.950	0.0160974
763.029	0.0161487
763.107	0.0160752
763.185	0.0162338
763.263	0.0161801
763.341	0.0161675
763.419	0.0162337
763.497	0.0164521
763.575	0.0163985
763.654	0.0163982
763.732	0.0165414
763.810	0.0164161
763.888	0.0162370
763.966	0.0163042
764.044	0.0163152
764.122	0.0163686
764.200	0.0162024
764.279	0.0161906
764.357	0.0161665
764.435	0.0162515
764.513	0.0161336
764.591	0.0160517
764.669	0.0159726
764.747	0.0160886
764.825	0.0160756
764.904	0.0159904
764.982	0.0159812
765.060	0.0159486
765.138	0.0160513
765.216	0.0162415
765.294	0.0160155
765.372	0.0161642
765.450	0.0163062
765.529	0.0164344
765.607	0.0165335
765.685	0.0164606
765.763	0.0164684
765.841	0.0165370
765.919	0.0165803
765.997	0.0166335
766.075	0.0165870
766.154	0.0166927
766.232	0.0168517
766.310	0.0165747
766.388	0.0165080
766.466	0.0165674
766.544	0.0164953
766.622	0.0165031
766.700	0.0164703
766.779	0.0162992
766.857	0.0164165
766.935	0.0163393
767.013	0.0163139
767.091	0.0163398
767.169	0.0161758
767.247	0.0163114
767.325	0.0164060
767.404	0.0164597
767.482	0.0163483
767.560	0.0163818
767.638	0.0165714
767.716	0.0165801
767.794	0.0165486
767.872	0.0166325
767.950	0.0166645
768.029	0.0165136
768.107	0.0164764
768.185	0.0165096
768.263	0.0163609
768.341	0.0164902
768.419	0.0164355
768.497	0.0162108
768.575	0.0163026
768.654	0.0161053
768.732	0.0160461
768.810	0.0159304
768.888	0.0159064
768.966	0.0159674
769.044	0.0157388
769.122	0.0157174
769.200	0.0157796
769.279	0.0156939
769.357	0.0156151
769.435	0.0158479
769.513	0.0159190
769.591	0.0159774
769.669	0.0161110
769.747	0.0162524
769.825	0.0162614
769.904	0.0161927
769.982	0.0164143
770.060	0.0164581
770.138	0.0164403
770.216	0.0166087
770.294	0.0165530
770.372	0.0166032
770.450	0.0167165
770.529	0.0167396
770.607	0.0166740
770.685	0.0167290
770.763	0.0167329
770.841	0.0167843
770.919	0.0165947
770.997	0.0165638
771.075	0.0166293
771.154	0.0166358
771.232	0.0165166
771.310	0.0164916
771.388	0.0163211
771.466	0.0166081
771.544	0.0163626
771.622	0.0163283
771.700	0.0162261
771.779	0.0162172
771.857	0.0162579
771.935	0.0161482
772.013	0.0161787
772.091	0.0160623
772.169	0.0160924
772.247	0.0159988
772.325	0.0159266
772.404	0.0159288
772.482	0.0160700
772.560	0.0161497
772.638	0.0157810
772.716	0.0159360
772.794	0.0159895
772.872	0.0159676
772.950	0.0159964
773.029	0.0159158
773.107	0.0159004
773.185	0.0161799
773.263	0.0160748
773.341	0.0160950
773.419	0.0160900
773.497	0.0161064
773.575	0.0161804
773.654	0.0163885
773.732	0.0160268
773.810	0.0162958
773.888	0.0164551
773.966	0.0163782
774.044	0.0164352
774.122	0.0165955
774.200	0.0167070
774.279	0.0166642
774.357	0.0166160
774.435	0.0168353
774.513	0.0168338
774.591	0.0169054
774.669	0.0167456
774.747	0.0168946
774.825	0.0168255
774.904	0.0168171
774.982	0.0168374
775.060	0.0167686
775.138	0.0167178
775.216	0.0169295
775.294	0.0169855
775.372	0.0166458
775.450	0.0165234
775.529	0.0166022
775.607	0.0165794
775.685	0.0165594
775.763	0.0164802
775.841	0.0163296
775.919	0.0163136
775.997	0.0163232
776.075	0.0162243
776.154	0.0161697
776.232	0.0162299
776.310	0.0160583
776.388	0.0161196
776.466	0.0160112
776.544	0.0160085
776.622	0.0159489
776.700	0.0158460
776.779	0.0159676
776.857	0.0159834
776.935	0.0159793
777.013	0.0160600
777.091	0.0161252
777.169	0.0160980
777.247	0.0159502
777.325	0.0159779
777.404	0.0160892
777.482	0.0162089
777.560	0.0162876
777.638	0.0162075
777.716	0.0162393
777.794	0.0161412
777.872	0.0161552
777.950	0.0160907
778.029	0.0160822
778.107	0.0161160
778.185	0.0161759
778.263	0.0162228
778.341	0.0164106
778.419	0.0164326
778.497	0.0163540
778.575	0.0164824
778.654	0.0165061
778.732	0.0164870
778.810	0.0165769
778.888	0.0167068
778.966	0.0167243
779.044	0.0169006
779.122	0.0168826
779.200	0.0169592
779.279	0.0169296
779.357	0.0168879
779.435	0.0169374
779.513	0.0168860
779.591	0.0168623
779.669	0.0169145
779.747	0.0167048
779.825	0.0166932
779.904	0.0167830
779.982	0.0164819
780.060	0.0165247
780.138	0.0165054
780.216	0.0163902
780.294	0.0165518
780.372	0.0163199
780.450	0.0161276
780.529	0.0161823
780.607	0.0163084
780.685	0.0160947
780.763	0.0161663
780.841	0.0159998
780.919	0.0159431
780.997	0.0158901
781.075	0.0157471
781.154	0.0158033
781.232	0.0158071
781.310	0.0158206
781.388	0.0157547
781.466	0.0157873
781.544	0.0158960
781.622	0.0160948
781.700	0.0158929
781.779	0.0158792
781.857	0.0159797
781.935	0.0160256
782.013	0.0161561
782.091	0.0160838
782.169	0.0160493
782.247	0.0161626
782.325	0.0163370
782.404	0.0161936
782.482	0.0163578
782.560	0.0164606
782.638	0.0161921
782.716	0.0164708
782.794	0.0166001
782.872	0.0165244
782.950	0.0167496
783.029	0.0166661
783.107	0.0166695
783.185	0.0168678
783.263	0.0168700
783.341	0.0166345
783.419	0.0169332
783.497	0.0168317
783.575	0.0169605
783.654	0.0169759
783.732	0.0167857
783.810	0.0169363
783.888	0.0168763
783.966	0.0166508
784.044	0.0166905
784.122	0.0167224
784.200	0.0166830
784.279	0.0165339
784.357	0.0164074
784.435	0.0165858
784.513	0.0165894
784.591	0.0164853
784.669	0.0164252
784.747	0.0163965
784.825	0.0163205
784.904	0.0161736
784.982	0.0161794
785.060	0.0161384
785.138	0.0160538
785.216	0.0160023
785.294	0.0159930
785.372	0.0158097
785.450	0.0159941
785.529	0.0159330
785.607	0.0158482
785.685	0.0159159
785.763	0.0159597
785.841	0.0159714
785.919	0.0160316
785.997	0.0159896
786.075	0.0160770
786.154	0.0160070
786.232	0.0160203
786.310	0.0161414
786.388	0.0161205
786.466	0.0162145
786.544	0.0162258
786.622	0.0162433
786.700	0.0164729
786.779	0.0164826
786.857	0.0165209
786.935	0.0165839
787.013	0.0165294
787.091	0.0166494
787.169	0.0167949
787.247	0.0168263
787.325	0.0167077
787.404	0.0166275
787.482	0.0168230
787.560	0.0166120
787.638	0.0165896
787.716	0.0166572
787.794	0.0165882
787.872	0.0164777
787.950	0.0163545
788.029	0.0163961
788.107	0.0164326
788.185	0.0162261
788.263	0.0164043
788.341	0.0162481
788.419	0.0162894
788.497	0.0161391
788.575	0.0161488
788.654	0.0160196
788.732	0.0160694
788.810	0.0159837
788.888	0.0158846
788.966	0.0158772
789.044	0.0158945
789.122	0.0157643
789.200	0.0158075
789.279	0.0156194
789.357	0.0157458
789.435	0.0158111
789.513	0.0159346
789.591	0.0159249
789.669	0.0159478
789.747	0.0160355
789.825	0.0162337
789.904	0.0163347
789.982	0.0163188
790.060	0.0165377
790.138	0.0165725
790.216	0.0166331
790.294	0.0167339
790.372	0.0168164
790.450	0.0168945
790.529	0.0169786
790.607	0.0169595
790.685	0.0170519
790.763	0.0172261
790.841	0.0169312
790.919	0.0169431
790.997	0.0170931
791.075	0.0170219
791.154	0.0171050
791.232	0.0169234
791.310	0.0168533
791.388	0.0168315
791.466	0.0168082
791.544	0.0166120
791.622	0.0166879
791.700	0.0165299
791.779	0.0163893
791.857	0.0164668
791.935	0.0164330
792.013	0.0162132
792.091	0.0163077
792.169	0.0160843
792.247	0.0159747
792.325	0.0161206
792.404	0.0159166
792.482	0.0160175
792.560	0.0160807
792.638	0.0159207
792.716	0.0158688
792.794	0.0157193
792.872	0.0156849
792.950	0.0156907
793.029	0.0157246
793.107	0.0154799
793.185	0.0155169
793.263	0.0155445
793.341	0.0153555
793.419	0.0153915
793.497	0.0154670
793.575	0.0153892
793.654	0.0153614
793.732	0.0154520
793.810	0.0153617
793.888	0.0155371
793.966	0.0156188
794.044	0.0156691
794.122	0.0156816
794.200	0.0157426
794.279	0.0159528
794.357	0.0162400
794.435	0.0162054
794.513	0.0163943
794.591	0.0166331
794.669	0.0166891
794.747	0.0167558
794.825	0.0171239
794.904	0.0171014
794.982	0.0173816
795.060	0.0174963
795.138	0.0174677
795.216	0.0175652
795.294	0.0176424
795.372	0.0176914
795.450	0.0176261
795.529	0.0175606
795.607	0.0174395
795.685	0.0174338
795.763	0.0173664
795.841	0.0172249
795.919	0.0171397
795.997	0.0169826
796.075	0.0169180
796.154	0.0166611
796.232	0.0165263
796.310	0.0164619
796.388	0.0163301
796.466	0.0161871
796.544	0.0160833
796.622	0.0160825
796.700	0.0159491
796.779	0.0158466
796.857	0.0157677
796.935	0.0156769
797.013	0.0156270
797.091	0.0156716
797.169	0.0155766
797.247	0.0153683
797.325	0.0154820
797.404	0.0154398
797.482	0.0153740
797.560	0.0153422
797.638	0.0154323
797.716	0.0152637
797.794	0.0153687
797.872	0.0152517
797.950	0.0152573
798.029	0.0152745
798.107	0.0153937
798.185	0.0154541
798.263	0.0153622
798.341	0.0156231
798.419	0.0154931
798.497	0.0156860
798.575	0.0158221
798.654	0.0158826
798.732	0.0161671
798.810	0.0162378
798.888	0.0163577
798.966	0.0163853
799.044	0.0164271
799.122	0.0166418
799.200	0.0167555
799.279	0.0166706
799.357	0.0169748
799.435	0.0170664
799.513	0.0172444
799.591	0.0173219
799.669	0.0174284
799.747	0.0175256
799.825	0.0177042
799.904	0.0176192
799.982	0.0176683
800.060	0.0177164
800.138	0.0176952
800.216	0.0176679
800.294	0.0177344
800.372	0.0175574
800.450	0.0173438
800.529	0.0172147
800.607	0.0172513
800.685	0.0170862
800.763	0.0169488
800.841	0.0167500
800.919	0.0166185
800.997	0.0164993
801.075	0.0163321
801.154	0.0160934
801.232	0.0160442
801.310	0.0157605
801.388	0.0157731
801.466	0.0157882
801.544	0.0156306
801.622	0.0155417
801.700	0.0154974
801.779	0.0155135
801.857	0.0153853
801.935	0.0154914
802.013	0.0153955
802.091	0.0153780
802.169	0.0154150
802.247	0.0155717
802.325	0.0154716
802.404	0.0154481
802.482	0.0154613
802.560	0.0155756
802.638	0.0154978
802.716	0.0154186
802.794	0.0155108
802.872	0.0153769
802.950	0.0156834
803.029	0.0158061
803.107	0.0157752
803.185	0.0158253
803.263	0.0158031
803.341	0.0159057
803.419	0.0161601
803.497	0.0161921
803.575	0.0163667
803.654	0.0163339
803.732	0.0165186
803.810	0.0166405
803.888	0.0167132
803.966	0.0168262
804.044	0.0168813
804.122	0.0169931
804.200	0.0170663
804.279	0.0171329
804.357	0.0172577
804.435	0.0172366
804.513	0.0171966
804.591	0.0172361
804.669	0.0171805
804.747	0.0173812
804.825	0.0172549
804.904	0.0172559
804.982	0.0171582
805.060	0.0170794
805.138	0.0169559
805.216	0.0168219
805.294	0.0167780
805.372	0.0167748
805.450	0.0167498
805.529	0.0165978
805.607	0.0165768
805.685	0.0165312
805.763	0.0164816
805.841	0.0163952
805.919	0.0161813
805.997	0.0161999
806.075	0.0161324
806.154	0.0161369
806.232	0.0160791
806.310	0.0159637
806.388	0.0159352
806.466	0.0159794
806.544	0.0160442
806.622	0.0159840
806.700	0.0158601
806.779	0.0157395
806.857	0.0159706
806.935	0.0158833
807.013	0.0158192
807.091	0.0158456
807.169	0.0158323
807.247	0.0157902
807.325	0.0158714
807.404	0.0158453
807.482	0.0157985
807.560	0.0156691
807.638	0.0156806
807.716	0.0156750
807.794	0.0157119
807.872	0.0156760
807.950	0.0158258
808.029	0.0158666
808.107	0.0158083
808.185	0.0159454
808.263	0.0159521
808.341	0.0161040
808.419	0.0161282
808.497	0.0163486
808.575	0.0163765
808.654	0.0165918
808.732	0.0166400
808.810	0.0167071
808.888	0.0168044
808.966	0.0168854
809.044	0.0167521
809.122	0.0169096
809.200	0.0168897
809.279	0.0169709
809.357	0.0170808
809.435	0.0168819
809.513	0.0169384
809.591	0.0169746
809.669	0.0168664
809.747	0.0169204
809.825	0.0169167
809.904	0.0166447
809.982	0.0165974
810.060	0.0167428
810.138	0.0165063
810.216	0.0163947
810.294	0.0163581
810.372	0.0164381
810.450	0.0162761
810.529	0.0161987
810.607	0.0161887
810.685	0.0161703
810.763	0.0160475
810.841	0.0161003
810.919	0.0162871
810.997	0.0162140
811.075	0.0162285
811.154	0.0161811
811.232	0.0163042
811.310	0.0162617
811.388	0.0161240
811.466	0.0163416
811.544	0.0162324
811.622	0.0164513
811.700	0.0163045
811.779	0.0162913
811.857	0.0160748
811.935	0.0161157
812.013	0.0161760
812.091	0.0161455
812.169	0.0161332
812.247	0.0160485
812.325	0.0161198
812.404	0.0159986
812.482	0.0159858
812.560	0.0158897
812.638	0.0160212
812.716	0.0159376
812.794	0.0158926
812.872	0.0158366
812.950	0.0158887
813.029	0.0159689
813.107	0.0158865
813.185	0.0158913
813.263	0.0160096
813.341	0.0159998
813.419	0.0160478
813.497	0.0161535
813.575	0.0160904
813.654	0.0160392
813.732	0.0162918
813.810	0.0163412
813.888	0.0163525
813.966	0.0164390
814.044	0.0165270
814.122	0.0163415
814.200	0.0164565
814.279	0.0166805
814.357	0.0165939
814.435	0.0166404
814.513	0.0165285
814.591	0.0165401
814.669	0.0165526
814.747	0.0164795
814.825	0.0165557
814.904	0.0165337
814.982	0.0164973
815.060	0.0165604
815.138	0.0165224
815.216	0.0166932
815.294	0.0165649
815.372	0.0165372
815.450	0.0165881
815.529	0.0166152
815.607	0.0165366
815.685	0.0165453
815.763	0.0165400
815.841	0.0167625
815.919	0.0167410
815.997	0.0165201
816.075	0.0166785
816.154	0.0167095
816.232	0.0166082
816.310	0.0166223
816.388	0.0165100
816.466	0.0164991
816.544	0.0164206
816.622	0.0164784
816.700	0.0165203
816.779	0.0163907
816.857	0.0163316
816.935	0.0162102
817.013	0.0162841
817.091	0.0161729
817.169	0.0161822
817.247	0.0162038
817.325	0.0160456
817.404	0.0160381
817.482	0.0160228
817.560	0.0160563
817.638	0.0159692
817.716	0.0159397
817.794	0.0159255
817.872	0.0159617
817.950	0.0159238
818.029	0.0157645
818.107	0.0157662
818.185	0.0157680
818.263	0.0158263
818.341	0.0156959
818.419	0.0157442
818.497	0.0156757
818.575	0.0156396
818.654	0.0156138
818.732	0.0156728
818.810	0.0158167
818.888	0.0157433
818.966	0.0156978
819.044	0.0156546
819.122	0.0157342
819.200	0.0157851
819.279	0.0159923
819.357	0.0160184
819.435	0.0161697
819.513	0.0163025
819.591	0.0161920
819.669	0.0163128
819.747	0.0164072
819.825	0.0165328
819.904	0.0166273
819.982	0.0168122
820.060	0.0168684
820.138	0.0169922
820.216	0.0170874
820.294	0.0169836
820.372	0.0170123
820.450	0.0172391
820.529	0.0172294
820.607	0.0172205
820.685	0.0172464
820.763	0.0170306
820.841	0.0169443
820.919	0.0169838
820.997	0.0169477
821.075	0.0168963
821.154	0.0168233
821.232	0.0167641
821.310	0.0165755
821.388	0.0165240
821.466	0.0164919
821.544	0.0165398
821.622	0.0163538
821.700	0.0163042
821.779	0.0164271
821.857	0.0161826
821.935	0.0161642
822.013	0.0160983
822.091	0.0161443
822.169	0.0160567
822.247	0.0160735
822.325	0.0160174
822.404	0.0158871
822.482	0.0159007
822.560	0.0158652
822.638	0.0159499
822.716	0.0160561
822.794	0.0158458
822.872	0.0158135
822.950	0.0161246
823.029	0.0158021
823.107	0.0158189
823.185	0.0159363
823.263	0.0157623
823.341	0.0158173
823.419	0.0159001
823.497	0.0158561
823.575	0.0157745
823.654	0.0156599
823.732	0.0158291
823.810	0.0159419
823.888	0.0159189
823.966	0.0159547
824.044	0.0161557
824.122	0.0161661
824.200	0.0159528
824.279	0.0160611
824.357	0.0162101
824.435	0.0163387
824.513	0.0162994
824.591	0.0163425
824.669	0.0166848
824.747	0.0164973
824.825	0.0165856
824.904	0.0166373
824.982	0.0166270
825.060	0.0167384
825.138	0.0168347
825.216	0.0167358
825.294	0.0167204
825.372	0.0168248
825.450	0.0169431
825.529	0.0168519
825.607	0.0168226
825.685	0.0167048
825.763	0.0167111
825.841	0.0167497
825.919	0.0166688
825.997	0.0166357
826.075	0.0167752
826.154	0.0167369
826.232	0.0164044
826.310	0.0165016
826.388	0.0164983
826.466	0.0163912
826.544	0.0163074
826.622	0.0163200
826.700	0.0164846
826.779	0.0163779
826.857	0.0162181
826.935	0.0162112
827.013	0.0162901
827.091	0.0161646
827.169	0.0160764
827.247	0.0161667
827.325	0.0162617
827.404	0.0161633
827.482	0.0161169
827.560	0.0161584
827.638	0.0160302
827.716	0.0159336
827.794	0.0159778
827.872	0.0159220
827.950	0.0159351
828.029	0.0160699
828.107	0.0158610
828.185	0.0159035
828.263	0.0159187
828.341	0.0158860
828.419	0.0158928
828.497	0.0158203
828.575	0.0157921
828.654	0.0158616
828.732	0.0159088
828.810	0.0159596
828.888	0.0159734
828.966	0.0161075
829.044	0.0161587
829.122	0.0161693
829.200	0.0162063
829.279	0.0163232
829.357	0.0163049
829.435	0.0162930
829.513	0.0165836
829.591	0.0165549
829.669	0.0165824
829.747	0.0165404
829.825	0.0166893
829.904	0.0167221
829.982	0.0166277
830.060	0.0167094
830.138	0.0167041
830.216	0.0168679
830.294	0.0166987
830.372	0.0166395
830.450	0.0166418
830.529	0.0166178
830.607	0.0167371
830.685	0.0164025
830.763	0.0164700
830.841	0.0164671
830.919	0.0164856
830.997	0.0162905
831.075	0.0163950
831.154	0.0164859
831.232	0.0163589
831.310	0.0162440
831.388	0.0162759
831.466	0.0161664
831.544	0.0162450
831.622	0.0162408
831.700	0.0163148
831.779	0.0162265
831.857	0.0163290
831.935	0.0162167
832.013	0.0162350
832.091	0.0164529
832.169	0.0162210
832.247	0.0164494
832.325	0.0163887
832.404	0.0162222
832.482	0.0163670
832.560	0.0163918
832.638	0.0163588
832.716	0.0161344
832.794	0.0161852
832.872	0.0161626
832.950	0.0161275
833.029	0.0160739
833.107	0.0160860
833.185	0.0162301
833.263	0.0160506
833.341	0.0160252
833.419	0.0160879
833.497	0.0160365
833.575	0.0160783
833.654	0.0160558
833.732	0.0160163
833.810	0.0161652
833.888	0.0160910
833.966	0.0161777
834.044	0.0162746
834.122	0.0162299
834.200	0.0162928
834.279	0.0163680
834.357	0.0162632
834.435	0.0163348
834.513	0.0163162
834.591	0.0165344
834.669	0.0164520
834.747	0.0164291
834.825	0.0166256
834.904	0.0165398
834.982	0.0164349
835.060	0.0164203
835.138	0.0164232
835.216	0.0166249
835.294	0.0165335
835.372	0.0165055
835.450	0.0164377
835.529	0.0163695
835.607	0.0164496
835.685	0.0163865
835.763	0.0164202
835.841	0.0162996
835.919	0.0163117
835.997	0.0162662
836.075	0.0162522
836.154	0.0163960
836.232	0.0162937
836.310	0.0161834
836.388	0.0162685
836.466	0.0163808
836.544	0.0163750
836.622	0.0163353
836.700	0.0163676
836.779	0.0163650
836.857	0.0163548
836.935	0.0165116
837.013	0.0165260
837.091	0.0164207
837.169	0.0165250
837.247	0.0165139
837.325	0.0165089
837.404	0.0165784
837.482	0.0165255
837.560	0.0164794
837.638	0.0165062
837.716	0.0164454
837.794	0.0164197
837.872	0.0163421
837.950	0.0161469
838.029	0.0163303
838.107	0.0162997
838.185	0.0163789
838.263	0.0163174
838.341	0.0163370
838.419	0.0163903
838.497	0.0163091
838.575	0.0163159
838.654	0.0164341
838.732	0.0162476
838.810	0.0163665
838.888	0.0163944
838.966	0.0162689
839.044	0.0161989
839.122	0.0162369
839.200	0.0162659
839.279	0.0160872
839.357	0.0161955
839.435	0.0161355
839.513	0.0161908
839.591	0.0160349
839.669	0.0161319
839.747	0.0162158
839.825	0.0161233
839.904	0.0160887
839.982	0.0161321
840.060	0.0162674
840.138	0.0162302
840.216	0.0162927
840.294	0.0161008
840.372	0.0160830
840.450	0.0162809
840.529	0.0162359
840.607	0.0163869
840.685	0.0162852
840.763	0.0163117
840.841	0.0163219
840.919	0.0163522
840.997	0.0161880
841.075	0.0163261
841.154	0.0163696
841.232	0.0163769
841.310	0.0163921
841.388	0.0164610
841.466	0.0164731
841.544	0.0163737
841.622	0.0165334
841.700	0.0164577
841.779	0.0164951
841.857	0.0165260
841.935	0.0165637
842.013	0.0163603
842.091	0.0163588
842.169	0.0164251
842.247	0.0165009
842.325	0.0165639
842.404	0.0164671
842.482	0.0165627
842.560	0.0164728
842.638	0.0164032
842.716	0.0164139
842.794	0.0165579
842.872	0.0163927
842.950	0.0164027
843.029	0.0165425
843.107	0.0164972
843.185	0.0164232
843.263	0.0163122
843.341	0.0162991
843.419	0.0164089
843.497	0.0164368
843.575	0.0162533
843.654	0.0163461
843.732	0.0163822
843.810	0.0163328
843.888	0.0163717
843.966	0.0161795
844.044	0.0161654
844.122	0.0162197
844.200	0.0162642
844.279	0.0162721
844.357	0.0161848
844.435	0.0161708
844.513	0.0160147
844.591	0.0160542
844.669	0.0160204
844.747	0.0159436
844.825	0.0160570
844.904	0.0161133
844.982	0.0160236
845.060	0.0161723
845.138	0.0160985
845.216	0.0162363
845.294	0.0160866
845.372	0.0161658
845.450	0.0161295
845.529	0.0163317
845.607	0.0162965
845.685	0.0163858
845.763	0.0162741
845.841	0.0163440
845.919	0.0163524
845.997	0.0162730
846.075	0.0163931
846.154	0.0163786
846.232	0.0164683
846.310	0.0164812
846.388	0.0165753
846.466	0.0165388
846.544	0.0165498
846.622	0.0166322
846.700	0.0166791
846.779	0.0166168
846.857	0.0165588
846.935	0.0166113
847.013	0.0166415
847.091	0.0166730
847.169	0.0166983
847.247	0.0165700
847.325	0.0166234
847.404	0.0165768
847.482	0.0167115
847.560	0.0166231
847.638	0.0165993
847.716	0.0166692
847.794	0.0166327
847.872	0.0165242
847.950	0.0165511
848.029	0.0164499
848.107	0.0164328
848.185	0.0164509
848.263	0.0163219
848.341	0.0163018
848.419	0.0163232
848.497	0.0163393
848.575	0.0163229
848.654	0.0160776
848.732	0.0161327
848.810	0.0161313
848.888	0.0160165
848.966	0.0159599
849.044	0.0159932
849.122	0.0159548
849.200	0.0160697
849.279	0.0160650
849.357	0.0159270
849.435	0.0159371
849.513	0.0158374
849.591	0.0158341
849.669	0.0159653
849.747	0.0160224
849.825	0.0160854
849.904	0.0160319
849.982	0.0160775
850.060	0.0160741
850.138	0.0162694
850.216	0.0162093
850.294	0.0162112
850.372	0.0163767
850.450	0.0163181
850.529	0.0163055
850.607	0.0163368
850.685	0.0164143
850.763	0.0165479
850.841	0.0163744
850.919	0.0165974
850.997	0.0165142
851.075	0.0166093
851.154	0.0164606
851.232	0.0165170
851.310	0.0166010
851.388	0.0164903
851.466	0.0165240
851.544	0.0166131
851.622	0.0166007
851.700	0.0165511
851.779	0.0164107
851.857	0.0164991
851.935	0.0166129
852.013	0.0165440
852.091	0.0164699
852.169	0.0164777
852.247	0.0164819
852.325	0.0164405
852.404	0.0163912
852.482	0.0163288
852.560	0.0163002
852.638	0.0163216
852.716	0.0162596
852.794	0.0165403
852.872	0.0165396
852.950	0.0161419
853.029	0.0163494
853.107	0.0163914
853.185	0.0163777
853.263	0.0161324
853.341	0.0162144
853.419	0.0163011
853.497	0.0161010
853.575	0.0161587
853.654	0.0162311
853.732	0.0161188
853.810	0.0161939
853.888	0.0161779
853.966	0.0160459
854.044	0.0161678
854.122	0.0160822
854.200	0.0160530
854.279	0.0161436
854.357	0.0161107
854.435	0.0161046
854.513	0.0160320
854.591	0.0159953
854.669	0.0160991
854.747	0.0161160
854.825	0.0160107
854.904	0.0161526
854.982	0.0160867
855.060	0.0161814
855.138	0.0162687
855.216	0.0160754
855.294	0.0161800
855.372	0.0161909
855.450	0.0163445
855.529	0.0163113
855.607	0.0162982
855.685	0.0163580
855.763	0.0162670
855.841	0.0164385
855.919	0.0164064
855.997	0.0163599
856.075	0.0165731
856.154	0.0165202
856.232	0.0164759
856.310	0.0165664
856.388	0.0165380
856.466	0.0163417
856.544	0.0164995
856.622	0.0165116
856.700	0.0164252
856.779	0.0166384
856.857	0.0164036
856.935	0.0163589
857.013	0.0164539
857.091	0.0164503
857.169	0.0165134
857.247	0.0164165
857.325	0.0164544
857.404	0.0164722
857.482	0.0163087
857.560	0.0163247
857.638	0.0165208
857.716	0.0165118
857.794	0.0164510
857.872	0.0164404
857.950	0.0163260
858.029	0.0164584
858.107	0.0163879
858.185	0.0164125
858.263	0.0163606
858.341	0.0161874
858.419	0.0162601
858.497	0.0163544
858.575	0.0163012
858.654	0.0161329
858.732	0.0161763
858.810	0.0161432
858.888	0.0160902
858.966	0.0161977
859.044	0.0161430
859.122	0.0162221
859.200	0.0161906
859.279	0.0161855
859.357	0.0161707
859.435	0.0162697
859.513	0.0161977
859.591	0.0162406
859.669	0.0163340
859.747	0.0164372
859.825	0.0162643
859.904	0.0162920
859.982	0.0162330
860.060	0.0162946
860.138	0.0163673
860.216	0.0161311
860.294	0.0160922
860.372	0.0163215
860.450	0.0160817
860.529	0.0161978
860.607	0.0161796
860.685	0.0162560
860.763	0.0163081
860.841	0.0163979
860.919	0.0163333
860.997	0.0165666
861.075	0.0164312
861.154	0.0165021
861.232	0.0165043
861.310	0.0166759
861.388	0.0165405
861.466	0.0164811
861.544	0.0163882
861.622	0.0164079
861.700	0.0165662
861.779	0.0164361
861.857	0.0165581
861.935	0.0164396
862.013	0.0164914
862.091	0.0164619
862.169	0.0164352
862.247	0.0164986
862.325	0.0165568
862.404	0.0165464
862.482	0.0164579
862.560	0.0163843
862.638	0.0164042
862.716	0.0164799
862.794	0.0162299
862.872	0.0161903
862.950	0.0161433
863.029	0.0161077
863.107	0.0161395
863.185	0.0161414
863.263	0.0161285
863.341	0.0160184
863.419	0.0159077
863.497	0.0160750
863.575	0.0161264
863.654	0.0161666
863.732	0.0160780
863.810	0.0161576
863.888	0.0161913
863.966	0.0162118
864.044	0.0162053
864.122	0.0163296
864.200	0.0163606
864.279	0.0162570
864.357	0.0162875
864.435	0.0164769
864.513	0.0163781
864.591	0.0164203
864.669	0.0164552
864.747	0.0165689
864.825	0.0164978
864.904	0.0164217
864.982	0.0164295
865.060	0.0163927
865.138	0.0164491
865.216	0.0164911
865.294	0.0164928
865.372	0.0164217
865.450	0.0164503
865.529	0.0165125
865.607	0.0165615
865.685	0.0163847
865.763	0.0163384
865.841	0.0163853
865.919	0.0163062
865.997	0.0164990
866.075	0.0163965
866.154	0.0163644
866.232	0.0163557
866.310	0.0164991
866.388	0.0164149
866.466	0.0164369
866.544	0.0164295
866.622	0.0162624
866.700	0.0162605
866.779	0.0164156
866.857	0.0162120
866.935	0.0163863
867.013	0.0161955
867.091	0.0162234
867.169	0.0162981
867.247	0.0162358
867.325	0.0162878
867.404	0.0162701
867.482	0.0159444
867.560	0.0159914
867.638	0.0161761
867.716	0.0160580
867.794	0.0160064
867.872	0.0162093
867.950	0.0159662
868.029	0.0160690
868.107	0.0159486
868.185	0.0160397
868.263	0.0161272
868.341	0.0160249
868.419	0.0161787
868.497	0.0162439
868.575	0.0161942
868.654	0.0162977
868.732	0.0163259
868.810	0.0164137
868.888	0.0164983
868.966	0.0164422
869.044	0.0164790
869.122	0.0164771
869.200	0.0164896
869.279	0.0166505
869.357	0.0165586
869.435	0.0165109
869.513	0.0165475
869.591	0.0164845
869.669	0.0164413
869.747	0.0164778
869.825	0.0165082
869.904	0.0165096
869.982	0.0165466
870.060	0.0165620
870.138	0.0165291
870.216	0.0166132
870.294	0.0167140
870.372	0.0165809
870.450	0.0165475
870.529	0.0165605
870.607	0.0165498
870.685	0.0165177
870.763	0.0164819
870.841	0.0163335
870.919	0.0164112
870.997	0.0164279
871.075	0.0164876
871.154	0.0165168
871.232	0.0165041
871.310	0.0162237
871.388	0.0163352
871.466	0.0162897
871.544	0.0163712
871.622	0.0162447
871.700	0.0160413
871.779	0.0159892
871.857	0.0160821
871.935	0.0159631
872.013	0.0158059
872.091	0.0158407
872.169	0.0158150
872.247	0.0158533
872.325	0.0158642
872.404	0.0159220
872.482	0.0160168
872.560	0.0159978
872.638	0.0161517
872.716	0.0162063
872.794	0.0161858
872.872	0.0162305
872.950	0.0162488
873.029	0.0163044
873.107	0.0163293
873.185	0.0163770
873.263	0.0162543
873.341	0.0162225
873.419	0.0161262
873.497	0.0161227
873.575	0.0163088
873.654	0.0163231
873.732	0.0162928
873.810	0.0163828
873.888	0.0163869
873.966	0.0164589
874.044	0.0164002
874.122	0.0165678
874.200	0.0166119
874.279	0.0166734
874.357	0.0167063
874.435	0.0165856
874.513	0.0165316
874.591	0.0167503
874.669	0.0167631
874.747	0.0166593
874.825	0.0167081
874.904	0.0166047
874.982	0.0164826
875.060	0.0164434
875.138	0.0164587
875.216	0.0165124
875.294	0.0163387
875.372	0.0164320
875.450	0.0164417
875.529	0.0164751
875.607	0.0166351
875.685	0.0166318
875.763	0.0165244
875.841	0.0166444
875.919	0.0167013
875.997	0.0167169
876.075	0.0165467
876.154	0.0166138
876.232	0.0164518
876.310	0.0162518
876.388	0.0161638
876.466	0.0160837
876.544	0.0158924
876.622	0.0157291
876.700	0.0157970
876.779	0.0157373
876.857	0.0157108
876.935	0.0155967
877.013	0.0156126
877.091	0.0156499
877.169	0.0156532
877.247	0.0156903
877.325	0.0157694
877.404	0.0159586
877.482	0.0157608
877.560	0.0160266
877.638	0.0160242
877.716	0.0160074
877.794	0.0159246
877.872	0.0160783
877.950	0.0161380
878.029	0.0162426
878.107	0.0163823
878.185	0.0163898
878.263	0.0165222
878.341	0.0166162
878.419	0.0166611
878.497	0.0167467
878.575	0.0168794
878.654	0.0167265
878.732	0.0167155
878.810	0.0166934
878.888	0.0167204
878.966	0.0165291
879.044	0.0166173
879.122	0.0164124
879.200	0.0165466
879.279	0.0162943
879.357	0.0162822
879.435	0.0163494
879.513	0.0163507
879.591	0.0162779
879.669	0.0163173
879.747	0.0162442
879.825	0.0161478
879.904	0.0164010
879.982	0.0163266
880.060	0.0162564
880.138	0.0162872
880.216	0.0162543
880.294	0.0161742
880.372	0.0162844
880.450	0.0163041
880.529	0.0161188
880.607	0.0161975
880.685	0.0161945
880.763	0.0162849
880.841	0.0162350
880.919	0.0164233
880.997	0.0164725
881.075	0.0166183
881.154	0.0166031
881.232	0.0165225
881.310	0.0165913
881.388	0.0165691
881.466	0.0165965
881.544	0.0165079
881.622	0.0164650
881.700	0.0163539
881.779	0.0162363
881.857	0.0164233
881.935	0.0163158
882.013	0.0161323
882.091	0.0161111
882.169	0.0160090
882.247	0.0160871
882.325	0.0160835
882.404	0.0160882
882.482	0.0160036
882.560	0.0161519
882.638	0.0161517
882.716	0.0160355
882.794	0.0160341
882.872	0.0161594
882.950	0.0161350
883.029	0.0160560
883.107	0.0161991
883.185	0.0161295
883.263	0.0162473
883.341	0.0161628
883.419	0.0161591
883.497	0.0161523
883.575	0.0160965
883.654	0.0161649
883.732	0.0161414
883.810	0.0161818
883.888	0.0161172
883.966	0.0161382
884.044	0.0161060
884.122	0.0162247
884.200	0.0161983
884.279	0.0161745
884.357	0.0161182
884.435	0.0162564
884.513	0.0161212
884.591	0.0162668
884.669	0.0163824
884.747	0.0164776
884.825	0.0164986
884.904	0.0165219
884.982	0.0166121
885.060	0.0167266
885.138	0.0168449
885.216	0.0168647
885.294	0.0169216
885.372	0.0169334
885.450	0.0168210
885.529	0.0169110
885.607	0.0169194
885.685	0.0169074
885.763	0.0168667
885.841	0.0167857
885.919	0.0167393
885.997	0.0167004
886.075	0.0167157
886.154	0.0167024
886.232	0.0164711
886.310	0.0164516
886.388	0.0163184
886.466	0.0163087
886.544	0.0161411
886.622	0.0161865
886.700	0.0161234
886.779	0.0160415
886.857	0.0159620
886.935	0.0159900
887.013	0.0157941
887.091	0.0157561
887.169	0.0158727
887.247	0.0158242
887.325	0.0158730
887.404	0.0157915
887.482	0.0158156
887.560	0.0159972
887.638	0.0159331
887.716	0.0161017
887.794	0.0160949
887.872	0.0161681
887.950	0.0161465
888.029	0.0162222
888.107	0.0163586
888.185	0.0164034
888.263	0.0162563
888.341	0.0162541
888.419	0.0161277
888.497	0.0161328
888.575	0.0160927
888.654	0.0160311
888.732	0.0160806
888.810	0.0159638
888.888	0.0159783
888.966	0.0159206
889.044	0.0160294
889.122	0.0159354
889.200	0.0159879
889.279	0.0161189
889.357	0.0162617
889.435	0.0162916
889.513	0.0163812
889.591	0.0165509
889.669	0.0167103
889.747	0.0169694
889.825	0.0168639
889.904	0.0171426
889.982	0.0172197
890.060	0.0171481
890.138	0.0173086
890.216	0.0173048
890.294	0.0171638
890.372	0.0172440
890.450	0.0171704
890.529	0.0170197
890.607	0.0169498
890.685	0.0169195
890.763	0.0167067
890.841	0.0165803
890.919	0.0164764
890.997	0.0164632
891.075	0.0164070
891.154	0.0162358
891.232	0.0161525
891.310	0.0161237
891.388	0.0159280
891.466	0.0159115
891.544	0.0157991
891.622	0.0157359
891.700	0.0157390
891.779	0.0156634
891.857	0.0157043
891.935	0.0157431
892.013	0.0157414
892.091	0.0157484
892.169	0.0155979
892.247	0.0156371
892.325	0.0157598
892.404	0.0158039
892.482	0.0157740
892.560	0.0159029
892.638	0.0162081
892.716	0.0161317
892.794	0.0161714
892.872	0.0161182
892.950	0.0161761
893.029	0.0162715
893.107	0.0163313
893.185	0.0164642
893.263	0.0164345
893.341	0.0164728
893.419	0.0166777
893.497	0.0163774
893.575	0.0163640
893.654	0.0163245
893.732	0.0162728
893.810	0.0164264
893.888	0.0163593
893.966	0.0161823
894.044	0.0162175
894.122	0.0162220
894.200	0.0163029
894.279	0.0163670
894.357	0.0162981
894.435	0.0163516
894.513	0.0163976
894.591	0.0164388
894.669	0.0166325
894.747	0.0167886
894.825	0.0168433
894.904	0.0168196
894.982	0.0169809
895.060	0.0170655
895.138	0.0170509
895.216	0.0170889
895.294	0.0170919
895.372	0.0169769
895.450	0.0167672
895.529	0.0168024
895.607	0.0164879
895.685	0.0163704
895.763	0.0163191
895.841	0.0161020
895.919	0.0160583
895.997	0.0159216
896.075	0.0158772
896.154	0.0157644
896.232	0.0159118
896.310	0.0157678
896.388	0.0157857
896.466	0.0158765
896.544	0.0158634
896.622	0.0158059
896.700	0.0158293
896.779	0.0159643
896.857	0.0160703
896.935	0.0160041
897.013	0.0161562
897.091	0.0161407
897.169	0.0162799
897.247	0.0163485
897.325	0.0163485
897.404	0.0163303
897.482	0.0164893
897.560	0.0166054
897.638	0.0166754
897.716	0.0165987
897.794	0.0166071
897.872	0.0165407
897.950	0.0166222
898.029	0.0166071
898.107	0.0166077
898.185	0.0165302
898.263	0.0165644
898.341	0.0164233
898.419	0.0163863
898.497	0.0163533
898.575	0.0161709
898.654	0.0160545
898.732	0.0160960
898.810	0.0160987
898.888	0.0160503
898.966	0.0160611
899.044	0.0159491
899.122	0.0159627
899.200	0.0160121
899.279	0.0160871
899.357	0.0160911
899.435	0.0161900
899.513	0.0161872
899.591	0.0163812
899.669	0.0164933
899.747	0.0164636
899.825	0.0165855
899.904	0.0166418
899.982	0.0166243
900.060	0.0166885
900.138	0.0168647
900.216	0.0167001
900.294	0.0166414
900.372	0.0165839
900.450	0.0165410
900.529	0.0163956
900.607	0.0162951
900.685	0.0161752
900.763	0.0160206
900.841	0.0160565
900.919	0.0158512
900.997	0.0159744
901.075	0.0159483
901.154	0.0158595
901.232	0.0159558
901.310	0.0159868
901.388	0.0161573
901.466	0.0161548
901.544	0.0162357
901.622	0.0161671
901.700	0.0161150
901.779	0.0163082
901.857	0.0164444
901.935	0.0162019
902.013	0.0163284
902.091	0.0165070
902.169	0.0164218
902.247	0.0163032
902.325	0.0163902
902.404	0.0164088
902.482	0.0163946
902.560	0.0164335
902.638	0.0164031
902.716	0.0163724
902.794	0.0164036
902.872	0.0164993
902.950	0.0164558
903.029	0.0164567
903.107	0.0164314
903.185	0.0163741
903.263	0.0162660
903.341	0.0162595
903.419	0.0161863
903.497	0.0162325
903.575	0.0161590
903.654	0.0160930
903.732	0.0159889
903.810	0.0161185
903.888	0.0160546
903.966	0.0162413
904.044	0.0159885
904.122	0.0162450
904.200	0.0161939
904.279	0.0161204
904.357	0.0161181
904.435	0.0161475
904.513	0.0162118
904.591	0.0162531
904.669	0.0163769
904.747	0.0162994
904.825	0.0164388
904.904	0.0165689
904.982	0.0165426
905.060	0.0163661
905.138	0.0162943
905.216	0.0163692
905.294	0.0162601
905.372	0.0163258
905.450	0.0162351
905.529	0.0162070
905.607	0.0161877
905.685	0.0162789
905.763	0.0160888
905.841	0.0162157
905.919	0.0161827
905.997	0.0162220
906.075	0.0163030
906.154	0.0163438
906.232	0.0163477
906.310	0.0164172
906.388	0.0164584
906.466	0.0165672
906.544	0.0164980
906.622	0.0165276
906.700	0.0165211
906.779	0.0167454
906.857	0.0166448
906.935	0.0165948
907.013	0.0164814
907.091	0.0163615
907.169	0.0164897
907.247	0.0163793
907.325	0.0163316
907.404	0.0162137
907.482	0.0163410
907.560	0.0162860
907.638	0.0163105
907.716	0.0162689
907.794	0.0162055
907.872	0.0161896
907.950	0.0160395
908.029	0.0160972
908.107	0.0162018
908.185	0.0161554
908.263	0.0161350
908.341	0.0162037
908.419	0.0160828
908.497	0.0158989
908.575	0.0160567
908.654	0.0159312
908.732	0.0160638
908.810	0.0160055
908.888	0.0159585
908.966	0.0162044
909.044	0.0161370
909.122	0.0161761
909.200	0.0161470
909.279	0.0161957
909.357	0.0162582
909.435	0.0163681
909.513	0.0163554
909.591	0.0162251
909.669	0.0163507
909.747	0.0163390
909.825	0.0164131
909.904	0.0163956
909.982	0.0163047
910.060	0.0162427
910.138	0.0161971
910.216	0.0163268
910.294	0.0162818
910.372	0.0161016
910.450	0.0160814
910.529	0.0162257
910.607	0.0161427
910.685	0.0162637
910.763	0.0161199
910.841	0.0162920
910.919	0.0164355
910.997	0.0163937
911.075	0.0164390
911.154	0.0164851
911.232	0.0164389
911.310	0.0165283
911.388	0.0165714
911.466	0.0165756
911.544	0.0166161
911.622	0.0166820
911.700	0.0166219
911.779	0.0165553
911.857	0.0165540
911.935	0.0165453
912.013	0.0164553
912.091	0.0164702
912.169	0.0164371
912.247	0.0164162
912.325	0.0162990
912.404	0.0162569
912.482	0.0162617
912.560	0.0162768
912.638	0.0163621
912.716	0.0162839
912.794	0.0161821
912.872	0.0160864
912.950	0.0161794
913.029	0.0162926
913.107	0.0162283
913.185	0.0162553
913.263	0.0162746
913.341	0.0161568
913.419	0.0161009
913.497	0.0161014
913.575	0.0161465
913.654	0.0161366
913.732	0.0161996
913.810	0.0162084
913.888	0.0160445
913.966	0.0161293
914.044	0.0162824
914.122	0.0160333
914.200	0.0161488
914.279	0.0162212
914.357	0.0162449
914.435	0.0162630
914.513	0.0161605
914.591	0.0163246
914.669	0.0163369
914.747	0.0162954
914.825	0.0162135
914.904	0.0162905
914.982	0.0163162
915.060	0.0163361
915.138	0.0163063
915.216	0.0163307
915.294	0.0163030
915.372	0.0162720
915.450	0.0162812
915.529	0.0162287
915.607	0.0163069
915.685	0.0164004
915.763	0.0163204
915.841	0.0163048
915.919	0.0163594
915.997	0.0163705
916.075	0.0165184
916.154	0.0164955
916.232	0.0163628
916.310	0.0164718
916.388	0.0164939
916.466	0.0165427
916.544	0.0165513
916.622	0.0165733
916.700	0.0166076
916.779	0.0165105
916.857	0.0164532
916.935	0.0165766
917.013	0.0165028
917.091	0.0165311
917.169	0.0165030
917.247	0.0166544
917.325	0.0165965
917.404	0.0163815
917.482	0.0164582
917.560	0.0164935
917.638	0.0163609
917.716	0.0163288
917.794	0.0162812
917.872	0.0163174
917.950	0.0162836
918.029	0.0164165
918.107	0.0161853
918.185	0.0160654
918.263	0.0160921
918.341	0.0160078
918.419	0.0159766
918.497	0.0159519
918.575	0.0161049
918.654	0.0159339
918.732	0.0159856
918.810	0.0160027
918.888	0.0160213
918.966	0.0160608
919.044	0.0160159
919.122	0.0161307
919.200	0.0162177
919.279	0.0160858
919.357	0.0163135
919.435	0.0162042
919.513	0.0163223
919.591	0.0165102
919.669	0.0164771
919.747	0.0163343
919.825	0.0162897
919.904	0.0163945
