06/03/2022	14:09:35	Ver.	4.1	UNKNOWN
Optical Delay	599.981738	Delta X		0.078125	Sweeps	1	Scan Rate	0/0
Coordinates	Axis 1	NaN	Axis 2	NaN	Axis 3	NaN	Axis 4	NaN	Axis 5	NaN	Axis 6	0.000000
TX Power	0.000000	RX Power	0.000000

599.982	0.0166116
600.060	0.0167043
600.138	0.0165441
600.216	0.0165537
600.294	0.0165752
600.372	0.0167177
600.450	0.0165608
600.529	0.0165555
600.607	0.0165500
600.685	0.0167003
600.763	0.0164974
600.841	0.0165672
600.919	0.0166164
600.997	0.0166609
601.075	0.0166809
601.154	0.0166098
601.232	0.0165935
601.310	0.0165543
601.388	0.0166203
601.466	0.0165929
601.544	0.0165222
601.622	0.0166148
601.700	0.0165902
601.779	0.0165775
601.857	0.0166636
601.935	0.0166499
602.013	0.0166597
602.091	0.0165592
602.169	0.0166674
602.247	0.0167020
602.325	0.0165959
602.404	0.0165328
602.482	0.0165995
602.560	0.0165768
602.638	0.0164506
602.716	0.0165818
602.794	0.0165397
602.872	0.0165638
602.950	0.0165827
603.029	0.0165986
603.107	0.0165553
603.185	0.0165547
603.263	0.0164560
603.341	0.0165886
603.419	0.0166864
603.497	0.0166348
603.575	0.0166051
603.654	0.0165292
603.732	0.0164633
603.810	0.0166482
603.888	0.0166922
603.966	0.0166885
604.044	0.0165205
604.122	0.0165389
604.200	0.0165441
604.279	0.0166893
604.357	0.0167222
604.435	0.0166319
604.513	0.0166630
604.591	0.0165659
604.669	0.0165709
604.747	0.0166348
604.825	0.0166402
604.904	0.0167026
604.982	0.0165665
605.060	0.0165627
605.138	0.0165987
605.216	0.0166412
605.294	0.0166969
605.372	0.0166384
605.450	0.0166107
605.529	0.0164868
605.607	0.0165829
605.685	0.0165911
605.763	0.0166732
605.841	0.0167155
605.919	0.0164677
605.997	0.0165315
606.075	0.0165260
606.154	0.0166478
606.232	0.0164735
606.310	0.0165762
606.388	0.0166978
606.466	0.0167258
606.544	0.0166525
606.622	0.0166457
606.700	0.0165509
606.779	0.0164981
606.857	0.0166636
606.935	0.0166096
607.013	0.0167193
607.091	0.0166328
607.169	0.0166930
607.247	0.0166640
607.325	0.0165041
607.404	0.0166403
607.482	0.0167047
607.560	0.0165578
607.638	0.0166956
607.716	0.0166291
607.794	0.0166206
607.872	0.0166621
607.950	0.0166126
608.029	0.0167020
608.107	0.0166869
608.185	0.0166747
608.263	0.0166921
608.341	0.0165903
608.419	0.0164541
608.497	0.0166529
608.575	0.0166160
608.654	0.0166683
608.732	0.0166529
608.810	0.0166374
608.888	0.0165512
608.966	0.0166597
609.044	0.0166830
609.122	0.0165865
609.200	0.0166308
609.279	0.0166730
609.357	0.0165096
609.435	0.0167048
609.513	0.0166334
609.591	0.0165518
609.669	0.0165605
609.747	0.0167195
609.825	0.0166103
609.904	0.0165340
609.982	0.0167513
610.060	0.0166161
610.138	0.0165176
610.216	0.0165665
610.294	0.0165171
610.372	0.0165021
610.450	0.0165669
610.529	0.0166300
610.607	0.0166663
610.685	0.0166289
610.763	0.0166270
610.841	0.0166610
610.919	0.0166253
610.997	0.0165371
611.075	0.0165265
611.154	0.0166373
611.232	0.0166509
611.310	0.0166090
611.388	0.0166002
611.466	0.0165955
611.544	0.0166022
611.622	0.0166153
611.700	0.0164846
611.779	0.0165355
611.857	0.0164324
611.935	0.0165093
612.013	0.0165737
612.091	0.0166309
612.169	0.0165548
612.247	0.0165562
612.325	0.0164582
612.404	0.0164751
612.482	0.0164384
612.560	0.0165848
612.638	0.0165125
612.716	0.0164510
612.794	0.0165588
612.872	0.0165031
612.950	0.0166671
613.029	0.0164604
613.107	0.0165500
613.185	0.0165582
613.263	0.0163729
613.341	0.0165241
613.419	0.0166856
613.497	0.0166066
613.575	0.0165063
613.654	0.0165005
613.732	0.0165361
613.810	0.0165195
613.888	0.0165652
613.966	0.0165828
614.044	0.0166166
614.122	0.0166370
614.200	0.0165682
614.279	0.0166063
614.357	0.0165357
614.435	0.0165538
614.513	0.0165675
614.591	0.0167040
614.669	0.0164414
614.747	0.0165557
614.825	0.0165760
614.904	0.0165248
614.982	0.0165958
615.060	0.0165522
615.138	0.0166307
615.216	0.0166164
615.294	0.0165332
615.372	0.0165676
615.450	0.0165892
615.529	0.0165878
615.607	0.0165479
615.685	0.0164813
615.763	0.0165171
615.841	0.0164873
615.919	0.0166660
615.997	0.0164492
616.075	0.0164989
616.154	0.0166242
616.232	0.0165962
616.310	0.0165062
616.388	0.0165191
616.466	0.0165781
616.544	0.0164467
616.622	0.0166497
616.700	0.0165203
616.779	0.0165204
616.857	0.0166444
616.935	0.0167117
617.013	0.0165102
617.091	0.0164769
617.169	0.0166479
617.247	0.0165271
617.325	0.0164510
617.404	0.0164344
617.482	0.0164632
617.560	0.0165811
617.638	0.0165645
617.716	0.0165265
617.794	0.0165300
617.872	0.0163946
617.950	0.0164849
618.029	0.0165844
618.107	0.0166620
618.185	0.0166463
618.263	0.0166186
618.341	0.0164871
618.419	0.0166116
618.497	0.0165064
618.575	0.0164429
618.654	0.0164103
618.732	0.0165726
618.810	0.0164489
618.888	0.0164469
618.966	0.0164910
619.044	0.0165611
619.122	0.0164684
619.200	0.0164883
619.279	0.0164651
619.357	0.0165761
619.435	0.0163937
619.513	0.0165134
619.591	0.0165742
619.669	0.0164362
619.747	0.0165582
619.825	0.0165519
619.904	0.0165720
619.982	0.0164036
620.060	0.0165702
620.138	0.0165147
620.216	0.0166003
620.294	0.0165687
620.372	0.0166238
620.450	0.0166782
620.529	0.0165350
620.607	0.0164545
620.685	0.0165585
620.763	0.0165744
620.841	0.0164754
620.919	0.0166063
620.997	0.0166004
621.075	0.0165926
621.154	0.0166745
621.232	0.0165201
621.310	0.0165292
621.388	0.0165232
621.466	0.0166683
621.544	0.0166489
621.622	0.0167180
621.700	0.0165610
621.779	0.0166257
621.857	0.0166129
621.935	0.0164259
622.013	0.0166008
622.091	0.0168312
622.169	0.0165918
622.247	0.0165910
622.325	0.0165894
622.404	0.0164989
622.482	0.0166537
622.560	0.0166868
622.638	0.0167145
622.716	0.0166972
622.794	0.0166385
622.872	0.0165737
622.950	0.0165469
623.029	0.0165730
623.107	0.0166527
623.185	0.0166900
623.263	0.0166508
623.341	0.0166936
623.419	0.0164799
623.497	0.0165089
623.575	0.0164962
623.654	0.0164196
623.732	0.0167160
623.810	0.0167159
623.888	0.0166492
623.966	0.0164581
624.044	0.0164264
624.122	0.0166888
624.200	0.0165546
624.279	0.0165478
624.357	0.0166079
624.435	0.0167412
624.513	0.0165518
624.591	0.0165619
624.669	0.0165748
624.747	0.0165945
624.825	0.0165856
624.904	0.0166424
624.982	0.0165835
625.060	0.0166806
625.138	0.0166819
625.216	0.0166323
625.294	0.0165829
625.372	0.0166850
625.450	0.0166623
625.529	0.0166264
625.607	0.0165951
625.685	0.0166543
625.763	0.0166756
625.841	0.0166463
625.919	0.0166624
625.997	0.0166768
626.075	0.0163753
626.154	0.0166893
626.232	0.0167547
626.310	0.0166148
626.388	0.0166813
626.466	0.0168087
626.544	0.0165718
626.622	0.0167731
626.700	0.0166332
626.779	0.0166187
626.857	0.0165854
626.935	0.0165938
627.013	0.0167683
627.091	0.0167870
627.169	0.0167548
627.247	0.0166851
627.325	0.0167471
627.404	0.0166756
627.482	0.0167613
627.560	0.0167200
627.638	0.0166293
627.716	0.0167921
627.794	0.0169479
627.872	0.0167242
627.950	0.0167027
628.029	0.0166633
628.107	0.0166700
628.185	0.0167006
628.263	0.0166167
628.341	0.0167156
628.419	0.0167303
628.497	0.0165644
628.575	0.0164891
628.654	0.0167362
628.732	0.0167121
628.810	0.0167085
628.888	0.0166664
628.966	0.0167073
629.044	0.0164749
629.122	0.0165108
629.200	0.0165799
629.279	0.0166081
629.357	0.0166476
629.435	0.0166901
629.513	0.0166962
629.591	0.0165461
629.669	0.0164968
629.747	0.0164928
629.825	0.0166994
629.904	0.0166435
629.982	0.0165755
630.060	0.0165871
630.138	0.0167497
630.216	0.0165936
630.294	0.0165677
630.372	0.0165884
630.450	0.0166875
630.529	0.0167084
630.607	0.0164726
630.685	0.0166537
630.763	0.0166236
630.841	0.0165303
630.919	0.0165195
630.997	0.0166531
631.075	0.0166678
631.154	0.0165672
631.232	0.0165609
631.310	0.0166933
631.388	0.0165066
631.466	0.0166156
631.544	0.0167066
631.622	0.0166884
631.700	0.0165942
631.779	0.0165386
631.857	0.0165808
631.935	0.0167262
632.013	0.0164705
632.091	0.0167238
632.169	0.0165182
632.247	0.0165541
632.325	0.0167068
632.404	0.0166700
632.482	0.0166023
632.560	0.0165351
632.638	0.0165703
632.716	0.0166940
632.794	0.0165755
632.872	0.0166505
632.950	0.0165423
633.029	0.0165414
633.107	0.0166205
633.185	0.0165099
633.263	0.0165691
633.341	0.0164834
633.419	0.0165768
633.497	0.0165555
633.575	0.0165386
633.654	0.0165074
633.732	0.0166065
633.810	0.0165595
633.888	0.0166228
633.966	0.0166003
634.044	0.0165719
634.122	0.0165554
634.200	0.0164682
634.279	0.0166151
634.357	0.0166155
634.435	0.0166729
634.513	0.0165104
634.591	0.0167462
634.669	0.0166028
634.747	0.0166283
634.825	0.0165151
634.904	0.0164102
634.982	0.0164902
635.060	0.0166084
635.138	0.0165597
635.216	0.0167356
635.294	0.0166984
635.372	0.0166007
635.450	0.0165434
635.529	0.0166299
635.607	0.0165820
635.685	0.0165280
635.763	0.0166121
635.841	0.0166185
635.919	0.0165019
635.997	0.0166321
636.075	0.0166182
636.154	0.0165209
636.232	0.0165920
636.310	0.0167089
636.388	0.0165907
636.466	0.0166296
636.544	0.0166183
636.622	0.0165138
636.700	0.0164861
636.779	0.0165510
636.857	0.0167023
636.935	0.0167927
637.013	0.0165424
637.091	0.0165566
637.169	0.0165877
637.247	0.0166629
637.325	0.0165189
637.404	0.0165714
637.482	0.0166684
637.560	0.0166100
637.638	0.0166596
637.716	0.0166670
637.794	0.0165486
637.872	0.0165898
637.950	0.0166138
638.029	0.0165302
638.107	0.0164629
638.185	0.0165191
638.263	0.0165585
638.341	0.0165363
638.419	0.0164962
638.497	0.0165973
638.575	0.0166753
638.654	0.0165614
638.732	0.0165009
638.810	0.0165404
638.888	0.0164748
638.966	0.0166095
639.044	0.0165316
639.122	0.0165547
639.200	0.0164726
639.279	0.0166380
639.357	0.0166528
639.435	0.0164970
639.513	0.0165591
639.591	0.0165411
639.669	0.0166545
639.747	0.0167448
639.825	0.0165520
639.904	0.0165259
639.982	0.0165571
640.060	0.0166480
640.138	0.0166605
640.216	0.0167181
640.294	0.0164777
640.372	0.0165430
640.450	0.0165359
640.529	0.0165301
640.607	0.0166422
640.685	0.0165704
640.763	0.0165075
640.841	0.0167374
640.919	0.0164853
640.997	0.0165939
641.075	0.0165944
641.154	0.0165849
641.232	0.0165173
641.310	0.0166258
641.388	0.0166415
641.466	0.0164719
641.544	0.0166698
641.622	0.0165514
641.700	0.0163988
641.779	0.0166106
641.857	0.0166505
641.935	0.0165662
642.013	0.0165870
642.091	0.0166196
642.169	0.0165294
642.247	0.0166064
642.325	0.0165722
642.404	0.0164484
642.482	0.0166983
642.560	0.0165945
642.638	0.0164696
642.716	0.0166520
642.794	0.0166166
642.872	0.0165564
642.950	0.0164475
643.029	0.0165006
643.107	0.0166550
643.185	0.0165920
643.263	0.0166487
643.341	0.0164723
643.419	0.0163681
643.497	0.0166099
643.575	0.0165842
643.654	0.0165955
643.732	0.0166450
643.810	0.0166467
643.888	0.0166235
643.966	0.0166898
644.044	0.0165877
644.122	0.0166096
644.200	0.0165812
644.279	0.0165152
644.357	0.0163580
644.435	0.0166122
644.513	0.0166391
644.591	0.0166135
644.669	0.0167156
644.747	0.0165251
644.825	0.0164944
644.904	0.0164438
644.982	0.0165328
645.060	0.0165828
645.138	0.0166143
645.216	0.0165090
645.294	0.0165086
645.372	0.0165852
645.450	0.0166600
645.529	0.0165153
645.607	0.0165369
645.685	0.0164869
645.763	0.0165401
645.841	0.0165967
645.919	0.0164619
645.997	0.0166199
646.075	0.0166394
646.154	0.0165061
646.232	0.0167400
646.310	0.0167257
646.388	0.0167006
646.466	0.0168767
646.544	0.0167318
646.622	0.0167326
646.700	0.0166985
646.779	0.0166908
646.857	0.0167514
646.935	0.0169374
647.013	0.0166828
647.091	0.0163457
647.169	0.0164546
647.247	0.0164401
647.325	0.0164287
647.404	0.0163510
647.482	0.0162188
647.560	0.0164347
647.638	0.0164933
647.716	0.0165881
647.794	0.0166612
647.872	0.0168726
647.950	0.0170033
648.029	0.0169662
648.107	0.0169041
648.185	0.0170897
648.263	0.0170470
648.341	0.0169785
648.419	0.0167517
648.497	0.0165720
648.575	0.0165746
648.654	0.0162435
648.732	0.0162874
648.810	0.0160487
648.888	0.0160691
648.966	0.0159538
649.044	0.0160827
649.122	0.0161273
649.200	0.0162473
649.279	0.0166711
649.357	0.0168454
649.435	0.0171178
649.513	0.0173225
649.591	0.0174623
649.669	0.0174499
649.747	0.0175442
649.825	0.0173813
649.904	0.0171654
649.982	0.0169135
650.060	0.0167767
650.138	0.0165634
650.216	0.0163850
650.294	0.0161825
650.372	0.0161271
650.450	0.0158934
650.529	0.0158136
650.607	0.0158825
650.685	0.0158325
650.763	0.0161269
650.841	0.0161865
650.919	0.0163697
650.997	0.0167606
651.075	0.0169442
651.154	0.0171164
651.232	0.0173191
651.310	0.0173338
651.388	0.0172724
651.466	0.0171897
651.544	0.0171054
651.622	0.0170255
651.700	0.0166272
651.779	0.0164972
651.857	0.0162946
651.935	0.0161266
652.013	0.0161958
652.091	0.0163745
652.169	0.0160894
652.247	0.0161826
652.325	0.0163679
652.404	0.0163850
652.482	0.0164803
652.560	0.0166506
652.638	0.0167582
652.716	0.0166968
652.794	0.0169009
652.872	0.0168667
652.950	0.0167371
653.029	0.0166738
653.107	0.0166825
653.185	0.0167731
653.263	0.0167793
653.341	0.0166019
653.419	0.0165213
653.497	0.0166132
653.575	0.0166539
653.654	0.0167155
653.732	0.0168819
653.810	0.0168829
653.888	0.0168282
653.966	0.0170085
654.044	0.0169267
654.122	0.0167289
654.200	0.0166861
654.279	0.0165556
654.357	0.0164639
654.435	0.0164582
654.513	0.0160960
654.591	0.0161366
654.669	0.0161640
654.747	0.0161247
654.825	0.0162437
654.904	0.0163746
654.982	0.0164228
655.060	0.0166302
655.138	0.0166563
655.216	0.0168820
655.294	0.0170173
655.372	0.0170991
655.450	0.0171886
655.529	0.0171927
655.607	0.0169693
655.685	0.0170362
655.763	0.0168486
655.841	0.0168021
655.919	0.0166904
655.997	0.0164025
656.075	0.0163123
656.154	0.0164036
656.232	0.0162706
656.310	0.0162616
656.388	0.0162144
656.466	0.0161082
656.544	0.0160971
656.622	0.0162367
656.700	0.0162662
656.779	0.0163966
656.857	0.0164485
656.935	0.0165446
657.013	0.0166260
657.091	0.0167500
657.169	0.0168881
657.247	0.0169736
657.325	0.0169521
657.404	0.0170207
657.482	0.0169942
657.560	0.0170010
657.638	0.0168976
657.716	0.0168658
657.794	0.0166809
657.872	0.0166046
657.950	0.0166066
658.029	0.0165271
658.107	0.0162830
658.185	0.0162249
658.263	0.0161966
658.341	0.0162836
658.419	0.0162521
658.497	0.0165170
658.575	0.0165681
658.654	0.0167334
658.732	0.0168027
658.810	0.0167287
658.888	0.0168481
658.966	0.0167733
659.044	0.0167829
659.122	0.0166626
659.200	0.0167367
659.279	0.0166417
659.357	0.0166797
659.435	0.0164207
659.513	0.0164380
659.591	0.0165089
659.669	0.0165392
659.747	0.0166062
659.825	0.0165849
659.904	0.0167548
659.982	0.0166539
660.060	0.0166955
660.138	0.0168122
660.216	0.0168468
660.294	0.0167129
660.372	0.0165768
660.450	0.0165288
660.529	0.0163488
660.607	0.0162170
660.685	0.0161900
660.763	0.0162445
660.841	0.0162130
660.919	0.0162419
660.997	0.0162758
661.075	0.0165066
661.154	0.0165259
661.232	0.0165566
661.310	0.0166830
661.388	0.0167947
661.466	0.0168838
661.544	0.0168439
661.622	0.0168555
661.700	0.0167024
661.779	0.0167930
661.857	0.0166029
661.935	0.0164829
662.013	0.0163788
662.091	0.0162779
662.169	0.0161512
662.247	0.0160397
662.325	0.0160998
662.404	0.0160056
662.482	0.0159550
662.560	0.0160068
662.638	0.0162084
662.716	0.0163200
662.794	0.0165005
662.872	0.0165701
662.950	0.0167802
663.029	0.0170065
663.107	0.0170661
663.185	0.0171570
663.263	0.0171422
663.341	0.0172372
663.419	0.0171747
663.497	0.0172395
663.575	0.0171098
663.654	0.0170482
663.732	0.0169699
663.810	0.0168341
663.888	0.0166961
663.966	0.0166579
664.044	0.0163346
664.122	0.0162729
664.200	0.0162780
664.279	0.0162212
664.357	0.0160844
664.435	0.0162091
664.513	0.0161315
664.591	0.0161707
664.669	0.0161530
664.747	0.0162098
664.825	0.0160676
664.904	0.0159691
664.982	0.0159357
665.060	0.0160091
665.138	0.0160032
665.216	0.0159766
665.294	0.0160503
665.372	0.0160909
665.450	0.0159961
665.529	0.0160966
665.607	0.0163227
665.685	0.0163438
665.763	0.0163860
665.841	0.0165126
665.919	0.0166453
665.997	0.0167909
666.075	0.0168211
666.154	0.0170726
666.232	0.0171536
666.310	0.0171397
666.388	0.0173764
666.466	0.0174114
666.544	0.0175204
666.622	0.0173118
666.700	0.0172728
666.779	0.0174155
666.857	0.0174923
666.935	0.0174208
667.013	0.0173696
667.091	0.0173560
667.169	0.0171320
667.247	0.0170003
667.325	0.0168019
667.404	0.0167624
667.482	0.0165018
667.560	0.0162177
667.638	0.0162614
667.716	0.0161750
667.794	0.0160216
667.872	0.0159691
667.950	0.0159399
668.029	0.0158861
668.107	0.0160317
668.185	0.0160934
668.263	0.0159328
668.341	0.0160381
668.419	0.0161433
668.497	0.0161801
668.575	0.0160949
668.654	0.0162398
668.732	0.0162643
668.810	0.0161536
668.888	0.0161180
668.966	0.0161733
669.044	0.0162553
669.122	0.0162615
669.200	0.0163156
669.279	0.0162989
669.357	0.0161343
669.435	0.0163124
669.513	0.0162965
669.591	0.0163171
669.669	0.0164217
669.747	0.0164227
669.825	0.0165337
669.904	0.0164104
669.982	0.0165799
670.060	0.0165194
670.138	0.0166715
670.216	0.0167652
670.294	0.0168382
670.372	0.0168002
670.450	0.0171831
670.529	0.0171352
670.607	0.0171624
670.685	0.0173717
670.763	0.0174241
670.841	0.0172288
670.919	0.0174182
670.997	0.0174482
671.075	0.0174198
671.154	0.0174436
671.232	0.0173905
671.310	0.0173268
671.388	0.0173498
671.466	0.0173396
671.544	0.0173167
671.622	0.0173206
671.700	0.0172559
671.779	0.0172163
671.857	0.0171571
671.935	0.0169661
672.013	0.0169405
672.091	0.0167525
672.169	0.0166494
672.247	0.0163925
672.325	0.0163099
672.404	0.0159504
672.482	0.0157124
672.560	0.0155500
672.638	0.0154236
672.716	0.0152883
672.794	0.0151044
672.872	0.0151981
672.950	0.0152431
673.029	0.0152782
673.107	0.0154162
673.185	0.0156573
673.263	0.0159361
673.341	0.0159495
673.419	0.0162265
673.497	0.0163846
673.575	0.0163223
673.654	0.0165617
673.732	0.0166090
673.810	0.0165558
673.888	0.0166045
673.966	0.0167191
674.044	0.0167611
674.122	0.0167815
674.200	0.0168522
674.279	0.0170058
674.357	0.0171873
674.435	0.0173505
674.513	0.0177905
674.591	0.0179086
674.669	0.0179798
674.747	0.0183227
674.825	0.0182736
674.904	0.0181737
674.982	0.0181712
675.060	0.0179372
675.138	0.0177305
675.216	0.0174611
675.294	0.0170068
675.372	0.0165325
675.450	0.0161858
675.529	0.0158238
675.607	0.0154179
675.685	0.0153056
675.763	0.0150301
675.841	0.0148759
675.919	0.0148367
675.997	0.0148766
676.075	0.0150114
676.154	0.0152458
676.232	0.0152296
676.310	0.0155148
676.388	0.0157778
676.466	0.0161269
676.544	0.0164080
676.622	0.0165043
676.700	0.0168148
676.779	0.0169476
676.857	0.0172665
676.935	0.0173629
677.013	0.0174810
677.091	0.0174532
677.169	0.0176003
677.247	0.0174933
677.325	0.0174448
677.404	0.0173844
677.482	0.0171704
677.560	0.0171964
677.638	0.0172457
677.716	0.0171600
677.794	0.0170345
677.872	0.0170702
677.950	0.0172206
678.029	0.0174242
678.107	0.0173496
678.185	0.0172593
678.263	0.0172620
678.341	0.0173016
678.419	0.0173738
678.497	0.0173436
678.575	0.0172463
678.654	0.0169459
678.732	0.0169653
678.810	0.0167451
678.888	0.0165722
678.966	0.0162811
679.044	0.0162910
679.122	0.0160725
679.200	0.0160826
679.279	0.0159544
679.357	0.0159785
679.435	0.0158311
679.513	0.0158728
679.591	0.0158264
679.669	0.0159477
679.747	0.0159336
679.825	0.0159368
679.904	0.0158236
679.982	0.0158999
680.060	0.0156361
680.138	0.0155701
680.216	0.0152499
680.294	0.0152226
680.372	0.0150065
680.450	0.0148704
680.529	0.0148063
680.607	0.0151134
680.685	0.0152779
680.763	0.0154411
680.841	0.0157805
680.919	0.0161009
680.997	0.0164574
681.075	0.0168628
681.154	0.0171130
681.232	0.0173062
681.310	0.0174847
681.388	0.0175668
681.466	0.0175488
681.544	0.0177710
681.622	0.0176962
681.700	0.0174648
681.779	0.0176093
681.857	0.0175311
681.935	0.0176141
682.013	0.0176389
682.091	0.0175719
682.169	0.0173077
682.247	0.0172382
682.325	0.0168528
682.404	0.0165935
682.482	0.0162494
682.560	0.0157123
682.638	0.0153551
682.716	0.0153320
682.794	0.0152151
682.872	0.0152536
682.950	0.0152717
683.029	0.0152957
683.107	0.0154381
683.185	0.0156434
683.263	0.0159541
683.341	0.0162440
683.419	0.0166302
683.497	0.0168152
683.575	0.0171708
683.654	0.0176412
683.732	0.0178189
683.810	0.0183656
683.888	0.0189728
683.966	0.0195010
684.044	0.0197524
684.122	0.0200903
684.200	0.0204597
684.279	0.0204174
684.357	0.0204315
684.435	0.0202047
684.513	0.0198972
684.591	0.0198237
684.669	0.0193366
684.747	0.0189272
684.825	0.0183414
684.904	0.0176851
684.982	0.0170395
685.060	0.0164911
685.138	0.0157428
685.216	0.0152282
685.294	0.0144823
685.372	0.0138364
685.450	0.0132370
685.529	0.0127782
685.607	0.0123018
685.685	0.0119750
685.763	0.0118755
685.841	0.0114962
685.919	0.0114314
685.997	0.0113248
686.075	0.0114340
686.154	0.0116087
686.232	0.0118926
686.310	0.0118746
686.388	0.0123882
686.466	0.0129389
686.544	0.0133202
686.622	0.0136539
686.700	0.0145473
686.779	0.0151782
686.857	0.0155618
686.935	0.0162749
687.013	0.0167759
687.091	0.0172960
687.169	0.0179408
687.247	0.0184702
687.325	0.0191586
687.404	0.0197200
687.482	0.0202579
687.560	0.0206608
687.638	0.0212410
687.716	0.0215051
687.794	0.0216360
687.872	0.0216537
687.950	0.0214254
688.029	0.0213087
688.107	0.0209879
688.185	0.0202679
688.263	0.0195489
688.341	0.0189840
688.419	0.0182076
688.497	0.0173714
688.575	0.0167685
688.654	0.0162319
688.732	0.0157037
688.810	0.0153405
688.888	0.0149891
688.966	0.0148212
689.044	0.0147472
689.122	0.0147063
689.200	0.0145890
689.279	0.0145525
689.357	0.0144770
689.435	0.0145448
689.513	0.0148791
689.591	0.0152296
689.669	0.0158142
689.747	0.0162502
689.825	0.0167648
689.904	0.0175327
689.982	0.0181900
690.060	0.0188033
690.138	0.0195412
690.216	0.0200698
690.294	0.0204505
690.372	0.0207648
690.450	0.0209603
690.529	0.0209686
690.607	0.0208250
690.685	0.0202461
690.763	0.0197821
690.841	0.0193964
690.919	0.0184092
690.997	0.0177198
691.075	0.0169612
691.154	0.0159680
691.232	0.0150721
691.310	0.0141322
691.388	0.0134113
691.466	0.0129385
691.544	0.0123595
691.622	0.0116950
691.700	0.0115313
691.779	0.0112805
691.857	0.0109296
691.935	0.0106481
692.013	0.0108529
692.091	0.0110477
692.169	0.0109768
692.247	0.0113187
692.325	0.0116133
692.404	0.0119762
692.482	0.0125511
692.560	0.0127203
692.638	0.0132634
692.716	0.0136013
692.794	0.0140135
692.872	0.0147239
692.950	0.0151005
693.029	0.0161384
693.107	0.0169724
693.185	0.0177119
693.263	0.0187491
693.341	0.0197169
693.419	0.0205774
693.497	0.0213383
693.575	0.0220527
693.654	0.0228265
693.732	0.0232256
693.810	0.0232789
693.888	0.0234084
693.966	0.0229622
694.044	0.0225486
694.122	0.0219012
694.200	0.0209843
694.279	0.0199821
694.357	0.0187678
694.435	0.0177139
694.513	0.0165105
694.591	0.0153990
694.669	0.0144029
694.747	0.0134452
694.825	0.0129436
694.904	0.0123773
694.982	0.0120808
695.060	0.0120641
695.138	0.0122448
695.216	0.0126421
695.294	0.0131223
695.372	0.0138620
695.450	0.0146475
695.529	0.0156807
695.607	0.0168233
695.685	0.0177102
695.763	0.0187985
695.841	0.0199593
695.919	0.0210340
695.997	0.0221331
696.075	0.0228548
696.154	0.0236697
696.232	0.0242484
696.310	0.0245731
696.388	0.0246346
696.466	0.0246481
696.544	0.0239949
696.622	0.0233238
696.700	0.0225351
696.779	0.0215108
696.857	0.0204363
696.935	0.0189530
697.013	0.0175859
697.091	0.0162691
697.169	0.0151007
697.247	0.0137595
697.325	0.0125759
697.404	0.0117522
697.482	0.0107823
697.560	0.0101947
697.638	0.00972748
697.716	0.00923859
697.794	0.00918182
697.872	0.00913048
697.950	0.00927124
698.029	0.00949684
698.107	0.00987747
698.185	0.0102499
698.263	0.0105281
698.341	0.0109378
698.419	0.0110541
698.497	0.0112267
698.575	0.0116547
698.654	0.0120157
698.732	0.0123829
698.810	0.0127713
698.888	0.0134238
698.966	0.0138783
699.044	0.0145361
699.122	0.0153811
699.200	0.0159947
699.279	0.0165721
699.357	0.0170440
699.435	0.0175198
699.513	0.0179001
699.591	0.0181336
699.669	0.0183910
699.747	0.0181164
699.825	0.0180910
699.904	0.0177773
699.982	0.0174390
700.060	0.0170118
700.138	0.0166713
700.216	0.0164667
700.294	0.0165858
700.372	0.0168290
700.450	0.0171065
700.529	0.0176295
700.607	0.0184747
700.685	0.0195902
700.763	0.0206831
700.841	0.0219128
700.919	0.0230648
700.997	0.0243267
701.075	0.0252863
701.154	0.0261790
701.232	0.0267126
701.310	0.0269791
701.388	0.0271159
701.466	0.0265995
701.544	0.0263835
701.622	0.0256789
701.700	0.0247153
701.779	0.0236111
701.857	0.0222550
701.935	0.0211391
702.013	0.0198563
702.091	0.0188421
702.169	0.0177034
702.247	0.0165412
702.325	0.0155539
702.404	0.0147117
702.482	0.0139292
702.560	0.0132951
702.638	0.0126521
702.716	0.0120337
702.794	0.0114123
702.872	0.0110236
702.950	0.0104662
703.029	0.0102069
703.107	0.00984795
703.185	0.00960854
703.263	0.00928810
703.341	0.00936005
703.419	0.00928223
703.497	0.00929062
703.575	0.00947693
703.654	0.00977966
703.732	0.0101880
703.810	0.0108033
703.888	0.0113557
703.966	0.0118235
704.044	0.0121620
704.122	0.0130257
704.200	0.0135873
704.279	0.0140388
704.357	0.0144318
704.435	0.0148271
704.513	0.0151850
704.591	0.0154657
704.669	0.0158488
704.747	0.0159467
704.825	0.0161879
704.904	0.0161646
704.982	0.0162918
705.060	0.0163136
705.138	0.0164386
705.216	0.0164999
705.294	0.0164030
705.372	0.0163596
705.450	0.0162731
705.529	0.0161742
705.607	0.0163554
705.685	0.0165444
705.763	0.0168514
705.841	0.0171748
705.919	0.0175300
705.997	0.0180470
706.075	0.0186917
706.154	0.0194891
706.232	0.0200287
706.310	0.0209805
706.388	0.0216763
706.466	0.0222479
706.544	0.0230583
706.622	0.0237080
706.700	0.0241763
706.779	0.0244242
706.857	0.0244894
706.935	0.0247945
707.013	0.0247511
707.091	0.0243589
707.169	0.0239466
707.247	0.0235725
707.325	0.0231197
707.404	0.0223022
707.482	0.0215837
707.560	0.0208858
707.638	0.0196996
707.716	0.0188058
707.794	0.0178764
707.872	0.0169183
707.950	0.0159333
708.029	0.0151909
708.107	0.0142598
708.185	0.0136459
708.263	0.0129552
708.341	0.0126080
708.419	0.0119604
708.497	0.0116170
708.575	0.0113827
708.654	0.0111658
708.732	0.0108564
708.810	0.0107548
708.888	0.0107175
708.966	0.0107646
709.044	0.0107836
709.122	0.0108806
709.200	0.0112559
709.279	0.0115897
709.357	0.0117191
709.435	0.0119397
709.513	0.0123495
709.591	0.0128925
709.669	0.0131217
709.747	0.0135793
709.825	0.0141459
709.904	0.0145005
709.982	0.0150279
710.060	0.0152500
710.138	0.0156236
710.216	0.0159589
710.294	0.0164053
710.372	0.0165082
710.450	0.0166573
710.529	0.0165980
710.607	0.0168511
710.685	0.0167273
710.763	0.0166415
710.841	0.0167282
710.919	0.0166429
710.997	0.0166203
711.075	0.0167532
711.154	0.0168690
711.232	0.0170039
711.310	0.0174230
711.388	0.0177644
711.466	0.0182721
711.544	0.0187412
711.622	0.0193039
711.700	0.0197404
711.779	0.0202484
711.857	0.0207432
711.935	0.0211210
712.013	0.0213985
712.091	0.0216177
712.169	0.0216564
712.247	0.0217303
712.325	0.0216148
712.404	0.0213228
712.482	0.0209241
712.560	0.0206633
712.638	0.0200301
712.716	0.0194778
712.794	0.0188030
712.872	0.0182683
712.950	0.0175943
713.029	0.0170193
713.107	0.0164980
713.185	0.0160972
713.263	0.0159634
713.341	0.0154901
713.419	0.0151889
713.497	0.0152370
713.575	0.0150455
713.654	0.0149976
713.732	0.0149621
713.810	0.0147809
713.888	0.0146573
713.966	0.0144312
714.044	0.0143852
714.122	0.0141634
714.200	0.0140050
714.279	0.0137984
714.357	0.0137266
714.435	0.0133612
714.513	0.0134790
714.591	0.0134291
714.669	0.0133091
714.747	0.0135041
714.825	0.0136601
714.904	0.0137869
714.982	0.0139224
715.060	0.0142912
715.138	0.0144543
715.216	0.0148035
715.294	0.0151810
715.372	0.0156453
715.450	0.0158736
715.529	0.0161302
715.607	0.0166085
715.685	0.0170786
715.763	0.0172890
715.841	0.0175977
715.919	0.0177922
715.997	0.0178380
716.075	0.0180270
716.154	0.0179977
716.232	0.0179808
716.310	0.0178895
716.388	0.0177514
716.466	0.0176430
716.544	0.0176022
716.622	0.0174330
716.700	0.0173468
716.779	0.0172598
716.857	0.0173787
716.935	0.0174646
717.013	0.0174798
717.091	0.0177140
717.169	0.0178519
717.247	0.0180462
717.325	0.0184231
717.404	0.0185051
717.482	0.0188031
717.560	0.0190079
717.638	0.0193696
717.716	0.0192280
717.794	0.0192874
717.872	0.0194063
717.950	0.0192897
718.029	0.0190012
718.107	0.0186813
718.185	0.0184517
718.263	0.0178553
718.341	0.0174708
718.419	0.0172311
718.497	0.0167607
718.575	0.0162227
718.654	0.0160644
718.732	0.0157032
718.810	0.0153963
718.888	0.0152283
718.966	0.0149950
719.044	0.0146083
719.122	0.0146162
719.200	0.0144605
719.279	0.0143478
719.357	0.0142858
719.435	0.0141550
719.513	0.0143619
719.591	0.0142801
719.669	0.0144048
719.747	0.0144598
719.825	0.0146238
719.904	0.0146686
719.982	0.0149075
720.060	0.0149054
720.138	0.0149977
720.216	0.0154620
720.294	0.0155342
720.372	0.0158036
720.450	0.0159610
720.529	0.0159408
720.607	0.0161782
720.685	0.0163677
720.763	0.0164699
720.841	0.0164653
720.919	0.0165350
720.997	0.0164404
721.075	0.0165575
721.154	0.0164918
721.232	0.0165721
721.310	0.0165859
721.388	0.0166204
721.466	0.0166637
721.544	0.0167419
721.622	0.0167098
721.700	0.0168105
721.779	0.0170278
721.857	0.0172050
721.935	0.0172046
722.013	0.0173396
722.091	0.0174330
722.169	0.0175901
722.247	0.0176538
722.325	0.0178132
722.404	0.0178893
722.482	0.0179359
722.560	0.0180279
722.638	0.0181742
722.716	0.0183186
722.794	0.0183726
722.872	0.0182919
722.950	0.0184117
723.029	0.0182628
723.107	0.0182703
723.185	0.0182226
723.263	0.0181926
723.341	0.0181595
723.419	0.0181345
723.497	0.0179900
723.575	0.0178329
723.654	0.0177506
723.732	0.0173969
723.810	0.0174524
723.888	0.0171030
723.966	0.0170298
724.044	0.0169265
724.122	0.0167093
724.200	0.0165971
724.279	0.0165743
724.357	0.0165046
724.435	0.0164764
724.513	0.0163371
724.591	0.0162602
724.669	0.0162817
724.747	0.0160586
724.825	0.0161077
724.904	0.0160194
724.982	0.0157320
725.060	0.0156066
725.138	0.0155807
725.216	0.0155048
725.294	0.0152409
725.372	0.0151276
725.450	0.0151273
725.529	0.0150954
725.607	0.0152194
725.685	0.0150967
725.763	0.0150917
725.841	0.0152375
725.919	0.0153161
725.997	0.0154010
726.075	0.0155882
726.154	0.0156381
726.232	0.0157088
726.310	0.0159444
726.388	0.0160081
726.466	0.0160520
726.544	0.0160348
726.622	0.0160723
726.700	0.0160835
726.779	0.0160542
726.857	0.0161336
726.935	0.0160051
727.013	0.0159277
727.091	0.0157323
727.169	0.0159173
727.247	0.0157651
727.325	0.0157220
727.404	0.0157594
727.482	0.0157529
727.560	0.0157616
727.638	0.0159117
727.716	0.0159874
727.794	0.0160079
727.872	0.0162769
727.950	0.0163522
728.029	0.0165697
728.107	0.0168380
728.185	0.0172580
728.263	0.0174557
728.341	0.0176137
728.419	0.0179580
728.497	0.0182231
728.575	0.0184396
728.654	0.0185622
728.732	0.0189048
728.810	0.0188219
728.888	0.0189753
728.966	0.0191143
729.044	0.0189526
729.122	0.0189903
729.200	0.0188272
729.279	0.0186663
729.357	0.0184183
729.435	0.0181629
729.513	0.0178147
729.591	0.0176130
729.669	0.0172816
729.747	0.0169241
729.825	0.0166650
729.904	0.0163754
729.982	0.0160069
730.060	0.0159380
730.138	0.0157807
730.216	0.0155420
730.294	0.0154282
730.372	0.0155011
730.450	0.0155123
730.529	0.0155367
730.607	0.0154950
730.685	0.0155933
730.763	0.0157702
730.841	0.0159193
730.919	0.0160680
730.997	0.0161191
731.075	0.0163300
731.154	0.0164254
731.232	0.0164372
731.310	0.0164397
731.388	0.0165856
731.466	0.0165318
731.544	0.0165926
731.622	0.0165540
731.700	0.0165047
731.779	0.0166771
731.857	0.0165874
731.935	0.0166930
732.013	0.0167017
732.091	0.0166843
732.169	0.0167474
732.247	0.0167757
732.325	0.0167950
732.404	0.0168681
732.482	0.0167465
732.560	0.0165510
732.638	0.0166164
732.716	0.0164938
732.794	0.0162976
732.872	0.0162672
732.950	0.0161914
733.029	0.0159212
733.107	0.0156823
733.185	0.0154279
733.263	0.0155828
733.341	0.0155492
733.419	0.0155103
733.497	0.0153735
733.575	0.0155406
733.654	0.0156758
733.732	0.0157719
733.810	0.0158994
733.888	0.0161275
733.966	0.0162251
734.044	0.0163149
734.122	0.0165649
734.200	0.0169305
734.279	0.0171058
734.357	0.0172029
734.435	0.0172958
734.513	0.0174529
734.591	0.0175992
734.669	0.0176690
734.747	0.0175545
734.825	0.0176288
734.904	0.0175048
734.982	0.0173449
735.060	0.0172145
735.138	0.0172501
735.216	0.0170293
735.294	0.0168224
735.372	0.0166609
735.450	0.0165649
735.529	0.0165119
735.607	0.0163441
735.685	0.0161948
735.763	0.0160792
735.841	0.0161243
735.919	0.0161903
735.997	0.0163432
736.075	0.0162737
736.154	0.0162940
736.232	0.0164462
736.310	0.0165237
736.388	0.0166108
736.466	0.0165733
736.544	0.0168002
736.622	0.0166743
736.700	0.0164195
736.779	0.0166321
736.857	0.0167944
736.935	0.0166785
737.013	0.0167028
737.091	0.0168470
737.169	0.0168003
737.247	0.0167786
737.325	0.0169517
737.404	0.0170605
737.482	0.0170413
737.560	0.0170119
737.638	0.0173263
737.716	0.0172684
737.794	0.0174400
737.872	0.0173878
737.950	0.0175754
738.029	0.0176241
738.107	0.0174908
738.185	0.0174345
738.263	0.0174702
738.341	0.0172047
738.419	0.0170314
738.497	0.0167956
738.575	0.0165168
738.654	0.0163972
738.732	0.0160882
738.810	0.0157669
738.888	0.0157188
738.966	0.0155544
739.044	0.0155227
739.122	0.0153703
739.200	0.0153990
739.279	0.0153133
739.357	0.0155154
739.435	0.0156076
739.513	0.0156215
739.591	0.0158618
739.669	0.0161334
739.747	0.0163224
739.825	0.0165261
739.904	0.0168250
739.982	0.0168074
740.060	0.0169694
740.138	0.0171967
740.216	0.0172884
740.294	0.0173697
740.372	0.0173279
740.450	0.0172330
740.529	0.0173760
740.607	0.0171478
740.685	0.0170863
740.763	0.0169660
740.841	0.0168956
740.919	0.0165568
740.997	0.0165865
741.075	0.0163898
741.154	0.0162789
741.232	0.0163779
741.310	0.0163324
741.388	0.0160181
741.466	0.0161385
741.544	0.0162054
741.622	0.0161118
741.700	0.0160219
741.779	0.0159772
741.857	0.0159743
741.935	0.0158872
742.013	0.0158143
742.091	0.0159882
742.169	0.0158563
742.247	0.0159368
742.325	0.0158931
742.404	0.0159376
742.482	0.0160679
742.560	0.0162255
742.638	0.0163710
742.716	0.0163688
742.794	0.0165402
742.872	0.0165163
742.950	0.0167426
743.029	0.0169656
743.107	0.0169824
743.185	0.0171165
743.263	0.0172968
743.341	0.0171690
743.419	0.0172891
743.497	0.0172600
743.575	0.0171712
743.654	0.0172507
743.732	0.0173592
743.810	0.0170901
743.888	0.0170862
743.966	0.0169884
744.044	0.0170013
744.122	0.0167205
744.200	0.0168464
744.279	0.0168286
744.357	0.0166152
744.435	0.0166193
744.513	0.0165375
744.591	0.0164452
744.669	0.0164442
744.747	0.0164704
744.825	0.0164565
744.904	0.0164688
744.982	0.0164424
745.060	0.0166676
745.138	0.0166895
745.216	0.0167396
745.294	0.0168987
745.372	0.0169398
745.450	0.0169856
745.529	0.0169273
745.607	0.0169198
745.685	0.0169367
745.763	0.0171198
745.841	0.0169675
745.919	0.0168110
745.997	0.0167690
746.075	0.0168041
746.154	0.0168378
746.232	0.0168340
746.310	0.0168776
746.388	0.0170020
746.466	0.0172189
746.544	0.0169894
746.622	0.0170325
746.700	0.0171385
746.779	0.0171231
746.857	0.0170304
746.935	0.0171776
747.013	0.0171814
747.091	0.0168896
747.169	0.0169530
747.247	0.0167542
747.325	0.0166140
747.404	0.0164207
747.482	0.0161802
747.560	0.0160172
747.638	0.0158031
747.716	0.0156860
747.794	0.0155579
747.872	0.0153220
747.950	0.0152302
748.029	0.0153099
748.107	0.0152573
748.185	0.0152132
748.263	0.0152520
748.341	0.0154662
748.419	0.0157195
748.497	0.0158776
748.575	0.0159811
748.654	0.0160478
748.732	0.0163961
748.810	0.0166276
748.888	0.0167402
748.966	0.0170229
749.044	0.0172083
749.122	0.0172446
749.200	0.0174375
749.279	0.0175197
749.357	0.0175673
749.435	0.0174804
749.513	0.0176236
749.591	0.0174465
749.669	0.0174278
749.747	0.0171320
749.825	0.0169844
749.904	0.0168057
749.982	0.0166901
750.060	0.0165201
750.138	0.0164230
750.216	0.0163542
750.294	0.0161803
750.372	0.0160851
750.450	0.0162959
750.529	0.0160981
750.607	0.0161808
750.685	0.0161611
750.763	0.0162346
750.841	0.0162325
750.919	0.0162576
750.997	0.0162582
751.075	0.0163809
751.154	0.0162881
751.232	0.0164150
751.310	0.0164909
751.388	0.0164632
751.466	0.0166161
751.544	0.0166454
751.622	0.0165579
751.700	0.0166560
751.779	0.0167184
751.857	0.0170366
751.935	0.0171000
752.013	0.0172218
752.091	0.0172755
752.169	0.0173869
752.247	0.0175131
752.325	0.0175626
752.404	0.0177368
752.482	0.0175629
752.560	0.0175814
752.638	0.0174522
752.716	0.0174928
752.794	0.0172822
752.872	0.0173839
752.950	0.0173442
753.029	0.0170701
753.107	0.0169742
753.185	0.0167191
753.263	0.0165660
753.341	0.0165110
753.419	0.0163525
753.497	0.0162661
753.575	0.0162972
753.654	0.0161044
753.732	0.0160372
753.810	0.0158488
753.888	0.0158518
753.966	0.0159173
754.044	0.0159960
754.122	0.0159080
754.200	0.0160126
754.279	0.0161820
754.357	0.0160519
754.435	0.0161222
754.513	0.0161466
754.591	0.0162196
754.669	0.0163281
754.747	0.0164104
754.825	0.0163295
754.904	0.0164790
754.982	0.0165325
755.060	0.0165390
755.138	0.0167518
755.216	0.0166661
755.294	0.0168452
755.372	0.0168125
755.450	0.0168739
755.529	0.0169680
755.607	0.0169321
755.685	0.0169102
755.763	0.0167754
755.841	0.0167683
755.919	0.0169382
755.997	0.0167560
756.075	0.0167462
756.154	0.0166022
756.232	0.0164131
756.310	0.0162563
756.388	0.0161510
756.466	0.0160464
756.544	0.0159404
756.622	0.0158331
756.700	0.0159109
756.779	0.0160229
756.857	0.0158296
756.935	0.0159368
757.013	0.0159371
757.091	0.0161412
757.169	0.0161513
757.247	0.0161568
757.325	0.0163323
757.404	0.0165459
757.482	0.0166447
757.560	0.0167561
757.638	0.0167629
757.716	0.0169169
757.794	0.0169027
757.872	0.0169687
757.950	0.0171668
758.029	0.0171021
758.107	0.0170020
758.185	0.0169910
758.263	0.0169563
758.341	0.0169241
758.419	0.0168329
758.497	0.0167137
758.575	0.0168386
758.654	0.0168355
758.732	0.0167310
758.810	0.0167358
758.888	0.0167874
758.966	0.0165966
759.044	0.0166069
759.122	0.0165708
759.200	0.0164913
759.279	0.0164194
759.357	0.0165244
759.435	0.0165249
759.513	0.0163709
759.591	0.0166097
759.669	0.0164747
759.747	0.0162639
759.825	0.0164267
759.904	0.0164324
759.982	0.0163189
760.060	0.0164220
760.138	0.0164143
760.216	0.0164831
760.294	0.0164342
760.372	0.0163882
760.450	0.0166071
760.529	0.0166405
760.607	0.0166480
760.685	0.0167742
760.763	0.0169061
760.841	0.0168764
760.919	0.0170256
760.997	0.0170541
761.075	0.0172099
761.154	0.0172195
761.232	0.0171709
761.310	0.0172913
761.388	0.0170107
761.466	0.0171106
761.544	0.0171508
761.622	0.0169359
761.700	0.0168483
761.779	0.0168967
761.857	0.0164832
761.935	0.0164474
762.013	0.0162446
762.091	0.0161160
762.169	0.0160043
762.247	0.0159072
762.325	0.0159889
762.404	0.0158477
762.482	0.0159503
762.560	0.0159205
762.638	0.0160095
762.716	0.0160508
762.794	0.0162727
762.872	0.0162906
762.950	0.0162777
763.029	0.0164905
763.107	0.0167012
763.185	0.0167577
763.263	0.0167477
763.341	0.0167603
763.419	0.0167890
763.497	0.0168311
763.575	0.0167205
763.654	0.0165783
763.732	0.0166348
763.810	0.0166370
763.888	0.0166151
763.966	0.0166037
764.044	0.0165650
764.122	0.0163551
764.200	0.0164157
764.279	0.0162963
764.357	0.0163845
764.435	0.0165730
764.513	0.0163730
764.591	0.0164881
764.669	0.0165668
764.747	0.0166357
764.825	0.0165887
764.904	0.0166782
764.982	0.0167030
765.060	0.0167480
765.138	0.0167968
765.216	0.0168211
765.294	0.0167779
765.372	0.0168768
765.450	0.0168307
765.529	0.0167342
765.607	0.0168456
765.685	0.0167444
765.763	0.0166080
765.841	0.0165208
765.919	0.0166306
765.997	0.0164172
766.075	0.0164150
766.154	0.0164100
766.232	0.0163084
766.310	0.0163564
766.388	0.0162502
766.466	0.0164147
766.544	0.0162965
766.622	0.0165041
766.700	0.0165987
766.779	0.0165630
766.857	0.0165135
766.935	0.0166241
767.013	0.0167709
767.091	0.0166897
767.169	0.0167239
767.247	0.0168538
767.325	0.0168719
767.404	0.0167162
767.482	0.0169202
767.560	0.0169652
767.638	0.0168299
767.716	0.0168494
767.794	0.0168491
767.872	0.0168359
767.950	0.0167128
768.029	0.0166926
768.107	0.0167291
768.185	0.0167234
768.263	0.0166444
768.341	0.0167271
768.419	0.0169402
768.497	0.0166814
768.575	0.0167141
768.654	0.0166207
768.732	0.0166142
768.810	0.0167344
768.888	0.0165348
768.966	0.0166499
769.044	0.0167908
769.122	0.0165713
769.200	0.0166356
769.279	0.0167241
769.357	0.0166730
769.435	0.0166551
769.513	0.0166553
769.591	0.0166678
769.669	0.0166407
769.747	0.0166613
769.825	0.0166822
769.904	0.0165543
769.982	0.0167177
770.060	0.0165261
770.138	0.0165579
770.216	0.0163710
770.294	0.0164908
770.372	0.0163002
770.450	0.0162737
770.529	0.0163206
770.607	0.0162728
770.685	0.0161294
770.763	0.0161763
770.841	0.0161810
770.919	0.0162227
770.997	0.0163779
771.075	0.0161890
771.154	0.0163330
771.232	0.0163115
771.310	0.0164805
771.388	0.0165918
771.466	0.0166692
771.544	0.0167283
771.622	0.0167155
771.700	0.0168741
771.779	0.0169535
771.857	0.0169205
771.935	0.0169546
772.013	0.0170123
772.091	0.0171549
772.169	0.0169895
772.247	0.0169521
772.325	0.0170692
772.404	0.0169706
772.482	0.0167562
772.560	0.0167033
772.638	0.0166293
772.716	0.0165906
772.794	0.0165011
772.872	0.0164190
772.950	0.0165624
773.029	0.0165803
773.107	0.0163924
773.185	0.0163054
773.263	0.0164283
773.341	0.0162397
773.419	0.0164941
773.497	0.0164994
773.575	0.0164523
773.654	0.0166553
773.732	0.0167033
773.810	0.0166653
773.888	0.0167164
773.966	0.0167064
774.044	0.0168575
774.122	0.0169042
774.200	0.0166724
774.279	0.0166470
774.357	0.0168105
774.435	0.0167032
774.513	0.0166124
774.591	0.0164182
774.669	0.0165186
774.747	0.0167616
774.825	0.0166312
774.904	0.0165483
774.982	0.0164114
775.060	0.0164345
775.138	0.0164545
775.216	0.0164671
775.294	0.0165094
775.372	0.0163965
775.450	0.0164900
775.529	0.0165449
775.607	0.0163791
775.685	0.0166174
775.763	0.0166940
775.841	0.0165987
775.919	0.0166036
775.997	0.0165902
776.075	0.0166899
776.154	0.0166134
776.232	0.0166131
776.310	0.0167237
776.388	0.0167211
776.466	0.0164290
776.544	0.0166001
776.622	0.0165833
776.700	0.0165703
776.779	0.0165184
776.857	0.0165718
776.935	0.0164556
777.013	0.0165898
777.091	0.0166592
777.169	0.0166194
777.247	0.0167276
777.325	0.0166784
777.404	0.0167030
777.482	0.0165309
777.560	0.0165498
777.638	0.0167825
777.716	0.0167642
777.794	0.0166206
777.872	0.0167529
777.950	0.0166959
778.029	0.0167587
778.107	0.0166106
778.185	0.0165784
778.263	0.0164601
778.341	0.0165973
778.419	0.0165972
778.497	0.0163823
778.575	0.0165594
778.654	0.0164550
778.732	0.0164351
778.810	0.0163117
778.888	0.0163182
778.966	0.0163670
779.044	0.0162869
779.122	0.0163906
779.200	0.0163110
779.279	0.0164658
779.357	0.0164801
779.435	0.0164848
779.513	0.0164735
779.591	0.0163426
779.669	0.0165257
779.747	0.0165369
779.825	0.0163937
779.904	0.0164124
779.982	0.0166254
780.060	0.0164564
780.138	0.0165965
780.216	0.0165554
780.294	0.0165909
780.372	0.0164680
780.450	0.0166554
780.529	0.0168723
780.607	0.0167908
780.685	0.0168158
780.763	0.0167845
780.841	0.0169550
780.919	0.0168799
780.997	0.0169657
781.075	0.0169872
781.154	0.0170387
781.232	0.0170243
781.310	0.0169655
781.388	0.0168903
781.466	0.0168752
781.544	0.0167455
781.622	0.0165801
781.700	0.0164318
781.779	0.0163464
781.857	0.0162602
781.935	0.0161671
782.013	0.0160658
782.091	0.0160204
782.169	0.0160036
782.247	0.0159214
782.325	0.0160431
782.404	0.0159386
782.482	0.0159729
782.560	0.0158678
782.638	0.0159966
782.716	0.0161848
782.794	0.0161251
782.872	0.0162318
782.950	0.0163207
783.029	0.0162682
783.107	0.0162557
783.185	0.0163774
783.263	0.0164926
783.341	0.0165365
783.419	0.0167024
783.497	0.0166051
783.575	0.0165767
783.654	0.0166300
783.732	0.0168497
783.810	0.0169205
783.888	0.0169488
783.966	0.0169276
784.044	0.0167711
784.122	0.0169447
784.200	0.0170650
784.279	0.0170732
784.357	0.0169863
784.435	0.0171284
784.513	0.0169746
784.591	0.0170928
784.669	0.0171211
784.747	0.0170763
784.825	0.0170128
784.904	0.0169669
784.982	0.0168465
785.060	0.0168342
785.138	0.0167499
785.216	0.0167760
785.294	0.0168153
785.372	0.0167261
785.450	0.0166285
785.529	0.0164745
785.607	0.0166225
785.685	0.0167460
785.763	0.0165929
785.841	0.0164831
785.919	0.0166685
785.997	0.0166868
786.075	0.0165847
786.154	0.0166418
786.232	0.0166004
786.310	0.0169566
786.388	0.0169026
786.466	0.0168492
786.544	0.0168637
786.622	0.0169016
786.700	0.0169215
786.779	0.0169272
786.857	0.0170175
786.935	0.0169289
787.013	0.0169020
787.091	0.0167744
787.169	0.0167251
787.247	0.0167348
787.325	0.0166842
787.404	0.0165212
787.482	0.0164423
787.560	0.0162697
787.638	0.0163625
787.716	0.0162526
787.794	0.0161572
787.872	0.0161250
787.950	0.0161040
788.029	0.0160574
788.107	0.0158591
788.185	0.0159280
788.263	0.0158836
788.341	0.0159561
788.419	0.0158989
788.497	0.0158017
788.575	0.0160635
788.654	0.0159623
788.732	0.0159632
788.810	0.0160119
788.888	0.0160739
788.966	0.0160385
789.044	0.0160386
789.122	0.0161832
789.200	0.0162378
789.279	0.0161973
789.357	0.0163405
789.435	0.0164368
789.513	0.0164526
789.591	0.0167152
789.669	0.0168596
789.747	0.0170206
789.825	0.0168233
789.904	0.0170437
789.982	0.0171289
790.060	0.0172881
790.138	0.0174072
790.216	0.0175157
790.294	0.0172718
790.372	0.0172912
790.450	0.0173190
790.529	0.0173699
790.607	0.0173481
790.685	0.0171803
790.763	0.0171189
790.841	0.0171845
790.919	0.0171638
790.997	0.0167669
791.075	0.0167621
791.154	0.0166492
791.232	0.0167188
791.310	0.0165874
791.388	0.0163766
791.466	0.0165508
791.544	0.0165285
791.622	0.0164130
791.700	0.0164153
791.779	0.0165592
791.857	0.0164526
791.935	0.0166346
792.013	0.0166814
792.091	0.0167341
792.169	0.0167429
792.247	0.0167841
792.325	0.0168507
792.404	0.0169858
792.482	0.0169804
792.560	0.0169243
792.638	0.0168410
792.716	0.0168565
792.794	0.0169303
792.872	0.0168674
792.950	0.0167548
793.029	0.0168312
793.107	0.0166743
793.185	0.0166544
793.263	0.0166497
793.341	0.0166607
793.419	0.0165713
793.497	0.0164523
793.575	0.0165305
793.654	0.0165553
793.732	0.0163143
793.810	0.0165238
793.888	0.0163853
793.966	0.0162221
794.044	0.0163074
794.122	0.0162717
794.200	0.0161392
794.279	0.0161130
794.357	0.0160485
794.435	0.0159832
794.513	0.0160880
794.591	0.0159687
794.669	0.0160000
794.747	0.0159535
794.825	0.0157850
794.904	0.0158905
794.982	0.0160100
795.060	0.0158475
795.138	0.0157689
795.216	0.0159525
795.294	0.0159866
795.372	0.0158275
795.450	0.0159586
795.529	0.0161478
795.607	0.0161536
795.685	0.0163200
795.763	0.0164828
795.841	0.0163678
795.919	0.0164722
795.997	0.0165654
796.075	0.0167241
796.154	0.0168041
796.232	0.0168372
796.310	0.0167140
796.388	0.0170600
796.466	0.0169717
796.544	0.0170579
796.622	0.0170963
796.700	0.0170863
796.779	0.0172019
796.857	0.0175005
796.935	0.0174313
797.013	0.0174178
797.091	0.0173541
797.169	0.0175787
797.247	0.0175034
797.325	0.0174020
797.404	0.0173559
797.482	0.0173357
797.560	0.0173228
797.638	0.0172668
797.716	0.0172440
797.794	0.0171792
797.872	0.0170553
797.950	0.0171130
798.029	0.0170663
798.107	0.0168111
798.185	0.0169136
798.263	0.0167242
798.341	0.0166483
798.419	0.0165895
798.497	0.0166649
798.575	0.0164154
798.654	0.0164979
798.732	0.0164587
798.810	0.0163393
798.888	0.0165138
798.966	0.0162730
799.044	0.0162755
799.122	0.0162442
799.200	0.0162409
799.279	0.0162046
799.357	0.0161374
799.435	0.0160684
799.513	0.0159624
799.591	0.0159984
799.669	0.0159452
799.747	0.0159027
799.825	0.0158017
799.904	0.0157728
799.982	0.0158360
800.060	0.0157594
800.138	0.0158727
800.216	0.0157430
800.294	0.0158301
800.372	0.0159277
800.450	0.0159267
800.529	0.0158852
800.607	0.0161368
800.685	0.0160032
800.763	0.0161376
800.841	0.0163889
800.919	0.0162321
800.997	0.0163046
801.075	0.0163789
801.154	0.0165800
801.232	0.0165036
801.310	0.0166786
801.388	0.0167246
801.466	0.0167087
801.544	0.0165965
801.622	0.0167082
801.700	0.0167731
801.779	0.0166325
801.857	0.0168966
801.935	0.0169093
802.013	0.0169403
802.091	0.0168604
802.169	0.0168721
802.247	0.0170166
802.325	0.0169736
802.404	0.0171498
802.482	0.0170879
802.560	0.0171514
802.638	0.0172425
802.716	0.0173763
802.794	0.0173438
802.872	0.0173333
802.950	0.0175063
803.029	0.0174012
803.107	0.0174120
803.185	0.0173744
803.263	0.0172412
803.341	0.0170596
803.419	0.0172103
803.497	0.0170534
803.575	0.0169950
803.654	0.0167706
803.732	0.0167262
803.810	0.0167703
803.888	0.0166109
803.966	0.0165593
804.044	0.0164517
804.122	0.0164185
804.200	0.0165575
804.279	0.0163739
804.357	0.0164069
804.435	0.0163954
804.513	0.0162837
804.591	0.0163438
804.669	0.0165334
804.747	0.0162680
804.825	0.0163275
804.904	0.0163008
804.982	0.0163071
805.060	0.0163868
805.138	0.0161780
805.216	0.0160563
805.294	0.0161020
805.372	0.0159840
805.450	0.0160316
805.529	0.0159785
805.607	0.0159005
805.685	0.0159496
805.763	0.0158907
805.841	0.0160817
805.919	0.0160815
805.997	0.0161328
806.075	0.0162997
806.154	0.0160873
806.232	0.0162394
806.310	0.0163559
806.388	0.0164638
806.466	0.0164427
806.544	0.0166239
806.622	0.0166099
806.700	0.0166550
806.779	0.0168332
806.857	0.0167419
806.935	0.0167818
807.013	0.0167957
807.091	0.0168117
807.169	0.0167220
807.247	0.0169337
807.325	0.0169060
807.404	0.0168987
807.482	0.0170268
807.560	0.0168594
807.638	0.0169308
807.716	0.0169424
807.794	0.0170540
807.872	0.0170681
807.950	0.0169993
808.029	0.0169385
808.107	0.0170758
808.185	0.0172077
808.263	0.0172881
808.341	0.0172021
808.419	0.0170322
808.497	0.0171308
808.575	0.0172013
808.654	0.0171198
808.732	0.0170270
808.810	0.0169041
808.888	0.0169328
808.966	0.0168047
809.044	0.0166875
809.122	0.0167437
809.200	0.0165312
809.279	0.0166118
809.357	0.0164581
809.435	0.0164732
809.513	0.0163701
809.591	0.0163388
809.669	0.0164024
809.747	0.0162131
809.825	0.0164753
809.904	0.0163021
809.982	0.0163596
810.060	0.0163232
810.138	0.0163514
810.216	0.0164049
810.294	0.0164449
810.372	0.0165126
810.450	0.0164513
810.529	0.0164874
810.607	0.0165823
810.685	0.0166863
810.763	0.0165166
810.841	0.0166660
810.919	0.0167083
810.997	0.0164943
811.075	0.0166000
811.154	0.0166353
811.232	0.0165424
811.310	0.0165755
811.388	0.0167028
811.466	0.0166972
811.544	0.0166505
811.622	0.0164959
811.700	0.0164776
811.779	0.0165060
811.857	0.0163603
811.935	0.0163966
812.013	0.0163406
812.091	0.0163648
812.169	0.0163820
812.247	0.0162204
812.325	0.0163477
812.404	0.0163276
812.482	0.0164182
812.560	0.0164448
812.638	0.0164803
812.716	0.0165066
812.794	0.0164132
812.872	0.0164336
812.950	0.0167532
813.029	0.0164671
813.107	0.0165536
813.185	0.0167413
813.263	0.0169375
813.341	0.0168934
813.419	0.0168436
813.497	0.0169362
813.575	0.0169518
813.654	0.0169583
813.732	0.0169922
813.810	0.0169811
813.888	0.0170525
813.966	0.0168642
814.044	0.0168495
814.122	0.0168208
814.200	0.0168745
814.279	0.0168680
814.357	0.0168254
814.435	0.0167142
814.513	0.0167806
814.591	0.0168251
814.669	0.0166669
814.747	0.0167263
814.825	0.0167560
814.904	0.0166898
814.982	0.0164528
815.060	0.0164649
815.138	0.0164172
815.216	0.0165103
815.294	0.0164806
815.372	0.0164270
815.450	0.0164483
815.529	0.0164089
815.607	0.0162757
815.685	0.0163340
815.763	0.0163797
815.841	0.0163499
815.919	0.0163369
815.997	0.0163069
816.075	0.0162672
816.154	0.0163342
816.232	0.0165348
816.310	0.0165569
816.388	0.0165523
816.466	0.0165248
816.544	0.0166217
816.622	0.0166754
816.700	0.0167122
816.779	0.0167213
816.857	0.0167870
816.935	0.0168177
817.013	0.0168177
817.091	0.0169573
817.169	0.0167253
817.247	0.0168320
817.325	0.0166125
817.404	0.0167644
817.482	0.0167529
817.560	0.0167447
817.638	0.0166296
817.716	0.0167471
817.794	0.0165845
817.872	0.0165299
817.950	0.0164293
818.029	0.0163985
818.107	0.0163937
818.185	0.0163015
818.263	0.0162534
818.341	0.0163174
818.419	0.0164933
818.497	0.0162590
818.575	0.0163047
818.654	0.0164088
818.732	0.0164899
818.810	0.0164551
818.888	0.0165532
818.966	0.0165624
819.044	0.0165662
819.122	0.0166270
819.200	0.0167074
819.279	0.0169637
819.357	0.0169272
819.435	0.0169586
819.513	0.0168999
819.591	0.0169379
819.669	0.0170790
819.747	0.0171095
819.825	0.0171883
819.904	0.0170763
819.982	0.0169879
820.060	0.0169659
820.138	0.0169240
820.216	0.0169176
820.294	0.0169572
820.372	0.0169025
820.450	0.0167262
820.529	0.0167976
820.607	0.0165465
820.685	0.0163859
820.763	0.0163533
820.841	0.0162761
820.919	0.0163046
820.997	0.0162442
821.075	0.0161943
821.154	0.0160587
821.232	0.0160060
821.310	0.0161984
821.388	0.0160646
821.466	0.0160451
821.544	0.0161143
821.622	0.0160999
821.700	0.0161827
821.779	0.0164214
821.857	0.0163422
821.935	0.0163609
822.013	0.0165527
822.091	0.0165566
822.169	0.0166206
822.247	0.0167748
822.325	0.0167717
822.404	0.0167525
822.482	0.0168407
822.560	0.0167575
822.638	0.0168020
822.716	0.0167093
822.794	0.0168101
822.872	0.0169289
822.950	0.0167723
823.029	0.0167008
823.107	0.0166499
823.185	0.0165894
823.263	0.0166407
823.341	0.0166941
823.419	0.0166153
823.497	0.0164608
823.575	0.0166329
823.654	0.0166503
823.732	0.0165183
823.810	0.0165810
823.888	0.0164803
823.966	0.0165304
824.044	0.0163969
824.122	0.0163197
824.200	0.0164672
824.279	0.0163569
824.357	0.0165477
824.435	0.0164230
824.513	0.0164017
824.591	0.0164491
824.669	0.0164710
824.747	0.0164080
824.825	0.0165012
824.904	0.0166570
824.982	0.0165345
825.060	0.0164931
825.138	0.0166053
825.216	0.0167191
825.294	0.0167532
825.372	0.0169849
825.450	0.0170947
825.529	0.0169649
825.607	0.0170440
825.685	0.0171491
825.763	0.0171227
825.841	0.0171326
825.919	0.0170867
825.997	0.0170798
826.075	0.0169729
826.154	0.0169375
826.232	0.0169646
826.310	0.0167364
826.388	0.0165418
826.466	0.0167128
826.544	0.0163840
826.622	0.0164918
826.700	0.0162971
826.779	0.0161578
826.857	0.0162030
826.935	0.0162520
827.013	0.0159995
827.091	0.0162142
827.169	0.0162395
827.247	0.0163413
827.325	0.0163065
827.404	0.0162978
827.482	0.0163376
827.560	0.0163717
827.638	0.0164527
827.716	0.0165388
827.794	0.0165966
827.872	0.0167551
827.950	0.0166853
828.029	0.0168321
828.107	0.0168771
828.185	0.0169202
828.263	0.0169049
828.341	0.0168919
828.419	0.0169983
828.497	0.0169930
828.575	0.0169714
828.654	0.0168716
828.732	0.0168899
828.810	0.0169661
828.888	0.0168905
828.966	0.0168434
829.044	0.0167954
829.122	0.0167402
829.200	0.0165042
829.279	0.0165322
829.357	0.0165182
829.435	0.0164768
829.513	0.0164263
829.591	0.0162572
829.669	0.0161560
829.747	0.0162386
829.825	0.0161342
829.904	0.0159457
829.982	0.0159425
830.060	0.0161437
830.138	0.0160564
830.216	0.0163136
830.294	0.0163289
830.372	0.0163024
830.450	0.0162038
830.529	0.0162804
830.607	0.0163855
830.685	0.0163959
830.763	0.0165530
830.841	0.0166904
830.919	0.0166360
830.997	0.0167189
831.075	0.0167090
831.154	0.0168462
831.232	0.0168673
831.310	0.0170225
831.388	0.0169790
831.466	0.0169440
831.544	0.0168206
831.622	0.0168741
831.700	0.0168687
831.779	0.0169629
831.857	0.0168507
831.935	0.0168796
832.013	0.0167547
832.091	0.0167087
832.169	0.0167767
832.247	0.0166497
832.325	0.0166569
832.404	0.0166570
832.482	0.0167713
832.560	0.0167088
832.638	0.0165540
832.716	0.0166578
832.794	0.0167201
832.872	0.0167070
832.950	0.0166083
833.029	0.0166311
833.107	0.0166776
833.185	0.0166014
833.263	0.0167353
833.341	0.0166387
833.419	0.0166669
833.497	0.0165221
833.575	0.0166735
833.654	0.0165929
833.732	0.0166695
833.810	0.0167686
833.888	0.0165876
833.966	0.0167513
834.044	0.0166811
834.122	0.0167113
834.200	0.0167925
834.279	0.0167569
834.357	0.0168262
834.435	0.0168355
834.513	0.0167734
834.591	0.0168468
834.669	0.0169422
834.747	0.0168309
834.825	0.0167373
834.904	0.0168537
834.982	0.0166635
835.060	0.0166351
835.138	0.0166681
835.216	0.0166473
835.294	0.0164649
835.372	0.0165776
835.450	0.0163817
835.529	0.0163410
835.607	0.0163656
835.685	0.0163370
835.763	0.0163519
835.841	0.0162096
835.919	0.0162029
835.997	0.0163228
836.075	0.0162181
836.154	0.0161645
836.232	0.0163276
836.310	0.0162657
836.388	0.0162675
836.466	0.0163336
836.544	0.0163316
836.622	0.0164505
836.700	0.0164597
836.779	0.0164563
836.857	0.0164651
836.935	0.0164769
837.013	0.0165463
837.091	0.0167387
837.169	0.0165372
837.247	0.0167730
837.325	0.0167693
837.404	0.0166147
837.482	0.0168379
837.560	0.0166541
837.638	0.0167706
837.716	0.0167111
837.794	0.0167461
837.872	0.0167443
837.950	0.0166492
838.029	0.0166032
838.107	0.0167014
838.185	0.0167439
838.263	0.0167059
838.341	0.0166377
838.419	0.0167268
838.497	0.0166737
838.575	0.0166058
838.654	0.0166199
838.732	0.0165484
838.810	0.0166415
838.888	0.0165425
838.966	0.0165444
839.044	0.0164966
839.122	0.0165654
839.200	0.0164921
839.279	0.0165504
839.357	0.0166531
839.435	0.0167177
839.513	0.0166531
839.591	0.0166698
839.669	0.0167341
839.747	0.0166788
839.825	0.0167348
839.904	0.0167226
839.982	0.0167714
840.060	0.0167283
840.138	0.0167207
840.216	0.0166879
840.294	0.0167516
840.372	0.0166014
840.450	0.0166802
840.529	0.0165811
840.607	0.0167186
840.685	0.0166483
840.763	0.0168024
840.841	0.0165997
840.919	0.0166225
840.997	0.0166512
841.075	0.0166933
841.154	0.0165475
841.232	0.0165648
841.310	0.0165991
841.388	0.0164725
841.466	0.0164307
841.544	0.0162732
841.622	0.0162911
841.700	0.0162456
841.779	0.0162935
841.857	0.0162836
841.935	0.0163103
842.013	0.0163310
842.091	0.0161325
842.169	0.0163071
842.247	0.0162704
842.325	0.0162714
842.404	0.0162939
842.482	0.0164107
842.560	0.0164192
842.638	0.0164900
842.716	0.0165482
842.794	0.0164640
842.872	0.0164935
842.950	0.0166103
843.029	0.0165131
843.107	0.0167519
843.185	0.0167649
843.263	0.0166702
843.341	0.0168044
843.419	0.0167826
843.497	0.0168031
843.575	0.0169160
843.654	0.0169197
843.732	0.0169057
843.810	0.0169517
843.888	0.0169658
843.966	0.0169214
844.044	0.0170541
844.122	0.0169129
844.200	0.0168475
844.279	0.0169657
844.357	0.0169125
844.435	0.0169041
844.513	0.0167883
844.591	0.0169045
844.669	0.0167901
844.747	0.0167578
844.825	0.0167960
844.904	0.0166884
844.982	0.0167694
845.060	0.0166760
845.138	0.0165881
845.216	0.0164983
845.294	0.0165778
845.372	0.0166437
845.450	0.0166003
845.529	0.0165244
845.607	0.0165966
845.685	0.0166395
845.763	0.0165417
845.841	0.0165480
845.919	0.0167482
845.997	0.0166258
846.075	0.0165111
846.154	0.0165064
846.232	0.0166624
846.310	0.0165754
846.388	0.0164724
846.466	0.0164102
846.544	0.0163440
846.622	0.0164046
846.700	0.0164332
846.779	0.0163448
846.857	0.0162230
846.935	0.0163197
847.013	0.0160995
847.091	0.0161843
847.169	0.0162285
847.247	0.0162766
847.325	0.0163296
847.404	0.0162448
847.482	0.0163293
847.560	0.0164222
847.638	0.0163197
847.716	0.0163416
847.794	0.0164262
847.872	0.0164949
847.950	0.0165990
848.029	0.0166154
848.107	0.0166812
848.185	0.0165691
848.263	0.0167730
848.341	0.0166291
848.419	0.0167599
848.497	0.0167522
848.575	0.0167563
848.654	0.0166985
848.732	0.0166711
848.810	0.0168347
848.888	0.0168133
848.966	0.0167774
849.044	0.0169028
849.122	0.0169735
849.200	0.0170820
849.279	0.0171153
849.357	0.0171770
849.435	0.0171782
849.513	0.0171436
849.591	0.0170576
849.669	0.0170012
849.747	0.0171936
849.825	0.0171508
849.904	0.0170924
849.982	0.0170605
850.060	0.0169329
850.138	0.0169887
850.216	0.0168887
850.294	0.0170068
850.372	0.0169892
850.450	0.0169173
850.529	0.0166888
850.607	0.0169183
850.685	0.0168102
850.763	0.0168175
850.841	0.0168291
850.919	0.0167621
850.997	0.0166696
851.075	0.0166476
851.154	0.0165480
851.232	0.0164485
851.310	0.0164162
851.388	0.0162945
851.466	0.0162238
851.544	0.0163302
851.622	0.0162237
851.700	0.0163335
851.779	0.0162010
851.857	0.0161286
851.935	0.0162106
852.013	0.0161950
852.091	0.0161734
852.169	0.0162055
852.247	0.0162083
852.325	0.0162221
852.404	0.0163422
852.482	0.0164191
852.560	0.0163556
852.638	0.0161545
852.716	0.0161908
852.794	0.0163142
852.872	0.0165093
852.950	0.0165098
853.029	0.0164432
853.107	0.0164584
853.185	0.0164187
853.263	0.0163954
853.341	0.0164268
853.419	0.0164725
853.497	0.0165340
853.575	0.0167130
853.654	0.0164367
853.732	0.0166568
853.810	0.0166927
853.888	0.0166235
853.966	0.0166833
854.044	0.0166640
854.122	0.0167509
854.200	0.0169343
854.279	0.0167743
854.357	0.0167342
854.435	0.0167737
854.513	0.0167860
854.591	0.0167370
854.669	0.0168154
854.747	0.0167940
854.825	0.0168259
854.904	0.0168063
854.982	0.0168234
855.060	0.0168573
855.138	0.0169578
855.216	0.0169013
855.294	0.0169152
855.372	0.0169742
855.450	0.0168914
855.529	0.0170778
855.607	0.0169037
855.685	0.0169373
855.763	0.0170366
855.841	0.0170142
855.919	0.0171254
855.997	0.0169020
856.075	0.0167765
856.154	0.0168456
856.232	0.0167667
856.310	0.0168751
856.388	0.0166976
856.466	0.0168796
856.544	0.0167210
856.622	0.0164946
856.700	0.0165395
856.779	0.0164124
856.857	0.0165798
856.935	0.0165053
857.013	0.0164441
857.091	0.0163033
857.169	0.0163335
857.247	0.0162720
857.325	0.0163110
857.404	0.0161700
857.482	0.0162788
857.560	0.0163321
857.638	0.0164301
857.716	0.0163343
857.794	0.0165226
857.872	0.0165698
857.950	0.0164476
858.029	0.0165469
858.107	0.0164136
858.185	0.0164008
858.263	0.0164622
858.341	0.0164715
858.419	0.0163996
858.497	0.0163641
858.575	0.0163872
858.654	0.0164664
858.732	0.0164709
858.810	0.0164629
858.888	0.0165914
858.966	0.0164406
859.044	0.0164971
859.122	0.0165632
859.200	0.0165752
859.279	0.0165625
859.357	0.0166224
859.435	0.0165929
859.513	0.0165675
859.591	0.0165611
859.669	0.0166846
859.747	0.0167052
859.825	0.0167024
859.904	0.0167622
859.982	0.0165918
860.060	0.0164999
860.138	0.0167626
860.216	0.0166502
860.294	0.0165343
860.372	0.0165228
860.450	0.0164512
860.529	0.0165295
860.607	0.0165796
860.685	0.0164333
860.763	0.0164215
860.841	0.0165643
860.919	0.0166721
860.997	0.0164869
861.075	0.0166268
861.154	0.0168018
861.232	0.0166391
861.310	0.0166351
861.388	0.0166414
861.466	0.0165743
861.544	0.0167186
861.622	0.0166366
861.700	0.0165575
861.779	0.0164842
861.857	0.0164980
861.935	0.0166037
862.013	0.0166475
862.091	0.0166512
862.169	0.0166996
862.247	0.0166369
862.325	0.0167361
862.404	0.0168321
862.482	0.0167683
862.560	0.0166977
862.638	0.0167007
862.716	0.0165771
862.794	0.0165839
862.872	0.0166336
862.950	0.0165966
863.029	0.0164687
863.107	0.0164072
863.185	0.0163184
863.263	0.0163964
863.341	0.0163618
863.419	0.0163978
863.497	0.0163146
863.575	0.0163466
863.654	0.0164568
863.732	0.0162857
863.810	0.0165526
863.888	0.0164477
863.966	0.0165379
864.044	0.0165368
864.122	0.0165513
864.200	0.0165333
864.279	0.0164194
864.357	0.0166106
864.435	0.0166068
864.513	0.0165496
864.591	0.0164761
864.669	0.0165557
864.747	0.0165677
864.825	0.0167338
864.904	0.0166312
864.982	0.0166970
865.060	0.0167053
865.138	0.0166959
865.216	0.0167565
865.294	0.0166660
865.372	0.0166627
865.450	0.0167410
865.529	0.0166788
865.607	0.0167449
865.685	0.0167998
865.763	0.0167464
865.841	0.0168544
865.919	0.0168407
865.997	0.0167165
866.075	0.0166997
866.154	0.0167554
866.232	0.0166473
866.310	0.0166727
866.388	0.0168001
866.466	0.0166805
866.544	0.0167793
866.622	0.0166143
866.700	0.0166248
866.779	0.0165967
866.857	0.0166142
866.935	0.0166911
867.013	0.0164860
867.091	0.0164132
867.169	0.0164237
867.247	0.0165036
867.325	0.0163275
867.404	0.0164914
867.482	0.0162794
867.560	0.0163885
867.638	0.0161550
867.716	0.0163505
867.794	0.0164073
867.872	0.0164671
867.950	0.0164787
868.029	0.0164622
868.107	0.0164781
868.185	0.0165475
868.263	0.0166674
868.341	0.0166626
868.419	0.0167589
868.497	0.0167552
868.575	0.0167739
868.654	0.0167257
868.732	0.0168426
868.810	0.0167803
868.888	0.0166746
868.966	0.0166975
869.044	0.0166928
869.122	0.0166057
869.200	0.0167248
869.279	0.0166735
869.357	0.0166321
869.435	0.0164958
869.513	0.0164973
869.591	0.0164950
869.669	0.0166279
869.747	0.0165540
869.825	0.0165099
869.904	0.0166393
869.982	0.0164785
870.060	0.0164861
870.138	0.0165176
870.216	0.0165057
870.294	0.0165889
870.372	0.0165350
870.450	0.0166031
870.529	0.0165099
870.607	0.0165521
870.685	0.0166005
870.763	0.0167756
870.841	0.0165378
870.919	0.0166550
870.997	0.0166214
871.075	0.0167768
871.154	0.0167841
871.232	0.0166685
871.310	0.0166857
871.388	0.0168003
871.466	0.0166905
871.544	0.0166901
871.622	0.0167165
871.700	0.0165865
871.779	0.0167107
871.857	0.0167774
871.935	0.0166504
872.013	0.0166176
872.091	0.0165572
872.169	0.0166300
872.247	0.0165814
872.325	0.0167044
872.404	0.0165666
872.482	0.0165729
872.560	0.0166210
872.638	0.0168850
872.716	0.0167830
872.794	0.0168642
872.872	0.0166831
872.950	0.0168734
873.029	0.0167648
873.107	0.0167603
873.185	0.0167275
873.263	0.0166649
873.341	0.0166577
873.419	0.0165530
873.497	0.0165573
873.575	0.0166049
873.654	0.0164314
873.732	0.0163503
873.810	0.0163596
873.888	0.0164079
873.966	0.0163853
874.044	0.0163162
874.122	0.0162959
874.200	0.0162190
874.279	0.0164240
874.357	0.0162128
874.435	0.0161788
874.513	0.0162279
874.591	0.0162045
874.669	0.0164322
874.747	0.0164675
874.825	0.0162807
874.904	0.0162859
874.982	0.0164529
875.060	0.0164189
875.138	0.0165794
875.216	0.0165934
875.294	0.0166969
875.372	0.0167343
875.450	0.0167070
875.529	0.0166858
875.607	0.0166676
875.685	0.0168034
875.763	0.0168369
875.841	0.0167921
875.919	0.0168909
875.997	0.0168363
876.075	0.0170032
876.154	0.0169172
876.232	0.0168015
876.310	0.0167947
876.388	0.0168175
876.466	0.0168320
876.544	0.0167243
876.622	0.0167818
876.700	0.0167516
876.779	0.0166246
876.857	0.0167315
876.935	0.0166966
877.013	0.0166360
877.091	0.0165956
877.169	0.0166739
877.247	0.0165606
877.325	0.0164828
877.404	0.0165591
877.482	0.0166429
877.560	0.0166535
877.638	0.0166395
877.716	0.0166075
877.794	0.0166158
877.872	0.0166192
877.950	0.0166091
878.029	0.0166730
878.107	0.0166027
878.185	0.0167308
878.263	0.0167362
878.341	0.0166734
878.419	0.0166695
878.497	0.0167731
878.575	0.0167925
878.654	0.0166429
878.732	0.0167689
878.810	0.0166497
878.888	0.0166208
878.966	0.0165392
879.044	0.0166700
879.122	0.0167265
879.200	0.0167696
879.279	0.0167023
879.357	0.0167060
879.435	0.0166991
879.513	0.0166083
879.591	0.0166111
879.669	0.0166113
879.747	0.0167085
879.825	0.0165688
879.904	0.0163297
879.982	0.0164105
880.060	0.0163338
880.138	0.0162724
880.216	0.0163542
880.294	0.0164786
880.372	0.0162361
880.450	0.0163615
880.529	0.0164531
880.607	0.0164764
880.685	0.0161954
880.763	0.0163071
880.841	0.0164375
880.919	0.0164861
880.997	0.0165139
881.075	0.0164339
881.154	0.0163883
881.232	0.0165646
881.310	0.0164578
881.388	0.0166177
881.466	0.0166900
881.544	0.0166669
881.622	0.0167461
881.700	0.0167899
881.779	0.0169617
881.857	0.0169726
881.935	0.0169730
882.013	0.0170989
882.091	0.0171587
882.169	0.0170093
882.247	0.0169109
882.325	0.0169695
882.404	0.0169942
882.482	0.0167915
882.560	0.0167384
882.638	0.0168353
882.716	0.0165752
882.794	0.0164851
882.872	0.0165297
882.950	0.0164796
883.029	0.0162745
883.107	0.0163441
883.185	0.0163438
883.263	0.0163304
883.341	0.0163094
883.419	0.0163713
883.497	0.0162762
883.575	0.0164397
883.654	0.0162741
883.732	0.0163454
883.810	0.0163715
883.888	0.0164601
883.966	0.0164171
884.044	0.0165237
884.122	0.0164824
884.200	0.0164865
884.279	0.0165009
884.357	0.0166304
884.435	0.0166344
884.513	0.0165262
884.591	0.0166518
884.669	0.0167343
884.747	0.0168307
884.825	0.0168352
884.904	0.0168828
884.982	0.0168685
885.060	0.0168597
885.138	0.0168418
885.216	0.0169948
885.294	0.0169195
885.372	0.0169189
885.450	0.0169916
885.529	0.0168880
885.607	0.0167723
885.685	0.0166377
885.763	0.0167056
885.841	0.0165405
885.919	0.0165575
885.997	0.0164603
886.075	0.0163715
886.154	0.0162933
886.232	0.0163286
886.310	0.0162454
886.388	0.0160789
886.466	0.0161288
886.544	0.0161800
886.622	0.0161337
886.700	0.0163870
886.779	0.0162789
886.857	0.0162817
886.935	0.0162626
887.013	0.0162666
887.091	0.0165160
887.169	0.0166573
887.247	0.0166824
887.325	0.0166985
887.404	0.0168463
887.482	0.0169067
887.560	0.0170451
887.638	0.0171447
887.716	0.0172101
887.794	0.0172077
887.872	0.0173441
887.950	0.0170261
888.029	0.0171634
888.107	0.0172433
888.185	0.0170850
888.263	0.0170126
888.341	0.0169655
888.419	0.0167654
888.497	0.0167656
888.575	0.0167778
888.654	0.0165681
888.732	0.0166212
888.810	0.0163282
888.888	0.0164388
888.966	0.0163225
889.044	0.0162437
889.122	0.0161234
889.200	0.0162366
889.279	0.0162694
889.357	0.0162054
889.435	0.0163768
889.513	0.0162569
889.591	0.0163340
889.669	0.0163654
889.747	0.0163445
889.825	0.0161761
889.904	0.0162875
889.982	0.0163319
890.060	0.0163935
890.138	0.0165356
890.216	0.0164956
890.294	0.0163474
890.372	0.0163413
890.450	0.0163071
890.529	0.0164977
890.607	0.0166222
890.685	0.0166445
890.763	0.0166445
890.841	0.0168465
890.919	0.0167682
890.997	0.0168642
891.075	0.0167107
891.154	0.0168539
891.232	0.0168782
891.310	0.0169458
891.388	0.0168981
891.466	0.0168870
891.544	0.0168240
891.622	0.0168433
891.700	0.0166499
891.779	0.0167445
891.857	0.0165548
891.935	0.0165771
892.013	0.0165286
892.091	0.0163972
892.169	0.0166016
892.247	0.0167131
892.325	0.0165880
892.404	0.0165418
892.482	0.0166455
892.560	0.0168307
892.638	0.0166401
892.716	0.0166891
892.794	0.0170238
892.872	0.0169254
892.950	0.0168631
893.029	0.0168013
893.107	0.0168382
893.185	0.0169069
893.263	0.0167570
893.341	0.0167294
893.419	0.0165974
893.497	0.0167088
893.575	0.0166568
893.654	0.0164996
893.732	0.0163789
893.810	0.0164993
893.888	0.0165128
893.966	0.0165360
894.044	0.0165707
894.122	0.0164540
894.200	0.0165399
894.279	0.0166511
894.357	0.0164922
894.435	0.0164996
894.513	0.0165022
894.591	0.0165147
894.669	0.0165854
894.747	0.0165392
894.825	0.0164063
894.904	0.0164653
894.982	0.0164159
895.060	0.0163571
895.138	0.0163414
895.216	0.0164071
895.294	0.0163826
895.372	0.0163977
895.450	0.0165051
895.529	0.0166051
895.607	0.0167363
895.685	0.0167384
895.763	0.0168327
895.841	0.0169064
895.919	0.0168620
895.997	0.0169125
896.075	0.0170650
896.154	0.0170136
896.232	0.0170246
896.310	0.0169671
896.388	0.0168153
896.466	0.0166501
896.544	0.0165949
896.622	0.0167278
896.700	0.0165979
896.779	0.0165466
896.857	0.0166342
896.935	0.0165753
897.013	0.0165598
897.091	0.0164383
897.169	0.0166090
897.247	0.0164593
897.325	0.0165520
897.404	0.0164923
897.482	0.0163435
897.560	0.0165668
897.638	0.0163567
897.716	0.0165513
897.794	0.0165714
897.872	0.0166196
897.950	0.0166879
898.029	0.0168503
898.107	0.0168060
898.185	0.0168307
898.263	0.0168693
898.341	0.0167407
898.419	0.0167694
898.497	0.0169072
898.575	0.0168165
898.654	0.0166481
898.732	0.0166960
898.810	0.0165762
898.888	0.0165667
898.966	0.0164187
899.044	0.0164480
899.122	0.0165384
899.200	0.0164206
899.279	0.0163477
899.357	0.0164570
899.435	0.0163567
899.513	0.0164565
899.591	0.0165513
899.669	0.0164368
899.747	0.0164818
899.825	0.0164520
899.904	0.0165070
899.982	0.0163322
900.060	0.0166046
900.138	0.0165746
900.216	0.0166048
900.294	0.0164645
900.372	0.0163943
900.450	0.0164577
900.529	0.0164127
900.607	0.0162399
900.685	0.0163685
900.763	0.0164204
900.841	0.0164372
900.919	0.0164403
900.997	0.0165381
901.075	0.0165425
901.154	0.0165570
901.232	0.0168009
901.310	0.0167528
901.388	0.0168542
901.466	0.0167322
901.544	0.0169104
901.622	0.0167638
901.700	0.0168497
901.779	0.0169524
901.857	0.0169439
901.935	0.0169213
902.013	0.0169286
902.091	0.0168391
902.169	0.0167061
902.247	0.0166725
902.325	0.0166624
902.404	0.0165848
902.482	0.0165429
902.560	0.0166139
902.638	0.0165605
902.716	0.0164124
902.794	0.0163495
902.872	0.0165888
902.950	0.0165408
903.029	0.0165897
903.107	0.0165771
903.185	0.0165271
903.263	0.0167368
903.341	0.0167185
903.419	0.0166884
903.497	0.0166969
903.575	0.0166331
903.654	0.0165863
903.732	0.0166100
903.810	0.0166136
903.888	0.0166485
903.966	0.0164890
904.044	0.0165115
904.122	0.0164877
904.200	0.0164223
904.279	0.0164568
904.357	0.0165155
904.435	0.0165406
904.513	0.0164752
904.591	0.0164434
904.669	0.0165532
904.747	0.0163977
904.825	0.0165823
904.904	0.0166942
904.982	0.0166944
905.060	0.0166986
905.138	0.0166705
905.216	0.0166309
905.294	0.0166702
905.372	0.0168717
905.450	0.0167660
905.529	0.0165989
905.607	0.0166705
905.685	0.0165204
905.763	0.0163996
905.841	0.0163999
905.919	0.0164871
905.997	0.0162887
906.075	0.0162709
906.154	0.0163145
906.232	0.0161346
906.310	0.0162036
906.388	0.0163650
906.466	0.0162952
906.544	0.0161504
906.622	0.0161980
906.700	0.0161383
906.779	0.0162537
906.857	0.0163279
906.935	0.0163599
907.013	0.0164253
907.091	0.0163400
907.169	0.0166572
907.247	0.0165780
907.325	0.0165679
907.404	0.0166290
907.482	0.0166933
907.560	0.0167820
907.638	0.0168346
907.716	0.0170644
907.794	0.0170518
907.872	0.0169421
907.950	0.0170427
908.029	0.0170864
908.107	0.0172006
908.185	0.0172753
908.263	0.0172578
908.341	0.0170755
908.419	0.0172205
908.497	0.0172528
908.575	0.0171242
908.654	0.0170541
908.732	0.0170774
908.810	0.0169646
908.888	0.0169798
908.966	0.0169053
909.044	0.0168764
909.122	0.0168244
909.200	0.0168870
909.279	0.0167145
909.357	0.0167619
909.435	0.0167854
909.513	0.0166756
909.591	0.0165910
909.669	0.0166856
909.747	0.0166164
909.825	0.0167236
909.904	0.0166238
909.982	0.0165739
910.060	0.0166425
910.138	0.0165049
910.216	0.0165717
910.294	0.0165546
910.372	0.0164445
910.450	0.0165260
910.529	0.0165207
910.607	0.0165730
910.685	0.0163786
910.763	0.0163741
910.841	0.0163647
910.919	0.0162640
910.997	0.0163656
911.075	0.0164385
911.154	0.0162734
911.232	0.0163765
911.310	0.0164469
911.388	0.0164336
911.466	0.0164282
911.544	0.0164050
911.622	0.0163915
911.700	0.0164796
911.779	0.0164295
911.857	0.0163956
911.935	0.0164770
912.013	0.0165463
912.091	0.0165649
912.169	0.0163850
912.247	0.0163461
912.325	0.0165508
912.404	0.0163657
912.482	0.0163971
912.560	0.0163723
912.638	0.0162757
912.716	0.0165405
912.794	0.0164483
912.872	0.0162995
912.950	0.0163926
913.029	0.0165316
913.107	0.0165188
913.185	0.0165346
913.263	0.0167392
913.341	0.0166856
913.419	0.0167302
913.497	0.0168359
913.575	0.0169519
913.654	0.0170789
913.732	0.0170920
913.810	0.0171094
913.888	0.0172688
913.966	0.0172707
914.044	0.0172073
914.122	0.0172407
914.200	0.0171441
914.279	0.0172130
914.357	0.0172514
914.435	0.0171514
914.513	0.0170077
914.591	0.0170143
914.669	0.0169624
914.747	0.0170241
914.825	0.0168857
914.904	0.0168948
914.982	0.0168085
915.060	0.0167805
915.138	0.0166745
915.216	0.0166013
915.294	0.0166404
915.372	0.0165588
915.450	0.0165865
915.529	0.0165476
915.607	0.0163595
915.685	0.0164262
915.763	0.0164999
915.841	0.0164410
915.919	0.0163602
915.997	0.0162122
916.075	0.0163773
916.154	0.0161777
916.232	0.0161855
916.310	0.0162492
916.388	0.0163183
916.466	0.0162606
916.544	0.0162167
916.622	0.0162479
916.700	0.0162559
916.779	0.0164985
916.857	0.0163545
916.935	0.0163325
917.013	0.0163600
917.091	0.0165801
917.169	0.0165215
917.247	0.0166335
917.325	0.0163991
917.404	0.0164478
917.482	0.0164803
917.560	0.0165589
917.638	0.0165961
917.716	0.0163791
917.794	0.0163685
917.872	0.0163531
917.950	0.0164165
918.029	0.0163894
918.107	0.0163484
918.185	0.0164716
918.263	0.0164259
918.341	0.0163872
918.419	0.0164388
918.497	0.0164671
918.575	0.0165340
918.654	0.0165614
918.732	0.0165527
918.810	0.0166751
918.888	0.0166710
918.966	0.0167930
919.044	0.0167703
919.122	0.0167861
919.200	0.0166862
919.279	0.0167311
919.357	0.0167979
919.435	0.0169125
919.513	0.0168707
919.591	0.0167673
919.669	0.0167031
919.747	0.0168125
919.825	0.0167580
919.904	0.0170016
