06/03/2022	14:10:45	Ver.	4.1	UNKNOWN
Optical Delay	599.981738	Delta X		0.078125	Sweeps	1	Scan Rate	0/0
Coordinates	Axis 1	NaN	Axis 2	NaN	Axis 3	NaN	Axis 4	NaN	Axis 5	NaN	Axis 6	0.000000
TX Power	0.000000	RX Power	0.000000

599.982	0.0165231
600.060	0.0165678
600.138	0.0165543
600.216	0.0165489
600.294	0.0166241
600.372	0.0165435
600.450	0.0166495
600.529	0.0165626
600.607	0.0165649
600.685	0.0165781
600.763	0.0166977
600.841	0.0165226
600.919	0.0166747
600.997	0.0165189
601.075	0.0165126
601.154	0.0165784
601.232	0.0164567
601.310	0.0165781
601.388	0.0166233
601.466	0.0164721
601.544	0.0166161
601.622	0.0165666
601.700	0.0167748
601.779	0.0166500
601.857	0.0164692
601.935	0.0166236
602.013	0.0167374
602.091	0.0165603
602.169	0.0165134
602.247	0.0165090
602.325	0.0166324
602.404	0.0165288
602.482	0.0166219
602.560	0.0166294
602.638	0.0166702
602.716	0.0166969
602.794	0.0165136
602.872	0.0165284
602.950	0.0165417
603.029	0.0165430
603.107	0.0166030
603.185	0.0165530
603.263	0.0166253
603.341	0.0164436
603.419	0.0165407
603.497	0.0165183
603.575	0.0164808
603.654	0.0164118
603.732	0.0165788
603.810	0.0165665
603.888	0.0166348
603.966	0.0165160
604.044	0.0165178
604.122	0.0165737
604.200	0.0165485
604.279	0.0165638
604.357	0.0165668
604.435	0.0166127
604.513	0.0165932
604.591	0.0164920
604.669	0.0167183
604.747	0.0166089
604.825	0.0164576
604.904	0.0167534
604.982	0.0165769
605.060	0.0166769
605.138	0.0166280
605.216	0.0165498
605.294	0.0166109
605.372	0.0165724
605.450	0.0166573
605.529	0.0165519
605.607	0.0166252
605.685	0.0165968
605.763	0.0166958
605.841	0.0166120
605.919	0.0165779
605.997	0.0166077
606.075	0.0166263
606.154	0.0166431
606.232	0.0165379
606.310	0.0166966
606.388	0.0166839
606.466	0.0165450
606.544	0.0166146
606.622	0.0166116
606.700	0.0167222
606.779	0.0167271
606.857	0.0166650
606.935	0.0165991
607.013	0.0165932
607.091	0.0165629
607.169	0.0166103
607.247	0.0166373
607.325	0.0166526
607.404	0.0165612
607.482	0.0164555
607.560	0.0165672
607.638	0.0165619
607.716	0.0166512
607.794	0.0165456
607.872	0.0163827
607.950	0.0165796
608.029	0.0166486
608.107	0.0166082
608.185	0.0166581
608.263	0.0166692
608.341	0.0167300
608.419	0.0166308
608.497	0.0165705
608.575	0.0166580
608.654	0.0166122
608.732	0.0167677
608.810	0.0166348
608.888	0.0166624
608.966	0.0166794
609.044	0.0166395
609.122	0.0166692
609.200	0.0166041
609.279	0.0165461
609.357	0.0166935
609.435	0.0166599
609.513	0.0165752
609.591	0.0166295
609.669	0.0166716
609.747	0.0165698
609.825	0.0166362
609.904	0.0165418
609.982	0.0165465
610.060	0.0167075
610.138	0.0166386
610.216	0.0165813
610.294	0.0165892
610.372	0.0165710
610.450	0.0165833
610.529	0.0166045
610.607	0.0166151
610.685	0.0165799
610.763	0.0166935
610.841	0.0166469
610.919	0.0166640
610.997	0.0166988
611.075	0.0165797
611.154	0.0165028
611.232	0.0166298
611.310	0.0165749
611.388	0.0166030
611.466	0.0166096
611.544	0.0166472
611.622	0.0164825
611.700	0.0166672
611.779	0.0166813
611.857	0.0165344
611.935	0.0166232
612.013	0.0165971
612.091	0.0166598
612.169	0.0165036
612.247	0.0166678
612.325	0.0166112
612.404	0.0165710
612.482	0.0166339
612.560	0.0165727
612.638	0.0167485
612.716	0.0166969
612.794	0.0166696
612.872	0.0166708
612.950	0.0166422
613.029	0.0165816
613.107	0.0166548
613.185	0.0167495
613.263	0.0166345
613.341	0.0166195
613.419	0.0165668
613.497	0.0165351
613.575	0.0163751
613.654	0.0166842
613.732	0.0165660
613.810	0.0165086
613.888	0.0165592
613.966	0.0165785
614.044	0.0164697
614.122	0.0166145
614.200	0.0164460
614.279	0.0166345
614.357	0.0165025
614.435	0.0164756
614.513	0.0165054
614.591	0.0163673
614.669	0.0165678
614.747	0.0164487
614.825	0.0165404
614.904	0.0166343
614.982	0.0166544
615.060	0.0165398
615.138	0.0164809
615.216	0.0165803
615.294	0.0166551
615.372	0.0166145
615.450	0.0164381
615.529	0.0164098
615.607	0.0165891
615.685	0.0166965
615.763	0.0165045
615.841	0.0166808
615.919	0.0166171
615.997	0.0166357
616.075	0.0165612
616.154	0.0166119
616.232	0.0164784
616.310	0.0165072
616.388	0.0164742
616.466	0.0164467
616.544	0.0165695
616.622	0.0165171
616.700	0.0165414
616.779	0.0165198
616.857	0.0164789
616.935	0.0164465
617.013	0.0165432
617.091	0.0164290
617.169	0.0164607
617.247	0.0163832
617.325	0.0165432
617.404	0.0165393
617.482	0.0164573
617.560	0.0165601
617.638	0.0164555
617.716	0.0165287
617.794	0.0163935
617.872	0.0165044
617.950	0.0164995
618.029	0.0166332
618.107	0.0165880
618.185	0.0164470
618.263	0.0164645
618.341	0.0166288
618.419	0.0166277
618.497	0.0166084
618.575	0.0165234
618.654	0.0164952
618.732	0.0165128
618.810	0.0164951
618.888	0.0166863
618.966	0.0166567
619.044	0.0165540
619.122	0.0165131
619.200	0.0165527
619.279	0.0164464
619.357	0.0163983
619.435	0.0165614
619.513	0.0165338
619.591	0.0165866
619.669	0.0166802
619.747	0.0165352
619.825	0.0164883
619.904	0.0164780
619.982	0.0165134
620.060	0.0164049
620.138	0.0166010
620.216	0.0165870
620.294	0.0165144
620.372	0.0165501
620.450	0.0164774
620.529	0.0164159
620.607	0.0164985
620.685	0.0165639
620.763	0.0165810
620.841	0.0165300
620.919	0.0165316
620.997	0.0167094
621.075	0.0164983
621.154	0.0165488
621.232	0.0166179
621.310	0.0166398
621.388	0.0166184
621.466	0.0165373
621.544	0.0166684
621.622	0.0165437
621.700	0.0165962
621.779	0.0166573
621.857	0.0165294
621.935	0.0165019
622.013	0.0166824
622.091	0.0165311
622.169	0.0164986
622.247	0.0165025
622.325	0.0165924
622.404	0.0165676
622.482	0.0166001
622.560	0.0164924
622.638	0.0165352
622.716	0.0166381
622.794	0.0166468
622.872	0.0165282
622.950	0.0165635
623.029	0.0165798
623.107	0.0166026
623.185	0.0165118
623.263	0.0165411
623.341	0.0165537
623.419	0.0165226
623.497	0.0165816
623.575	0.0165327
623.654	0.0165815
623.732	0.0165186
623.810	0.0164433
623.888	0.0164730
623.966	0.0165194
624.044	0.0165362
624.122	0.0165691
624.200	0.0165189
624.279	0.0165858
624.357	0.0165220
624.435	0.0166920
624.513	0.0166090
624.591	0.0165654
624.669	0.0166201
624.747	0.0166978
624.825	0.0165919
624.904	0.0167387
624.982	0.0166785
625.060	0.0165397
625.138	0.0165752
625.216	0.0167216
625.294	0.0165302
625.372	0.0165519
625.450	0.0165346
625.529	0.0165651
625.607	0.0166725
625.685	0.0165675
625.763	0.0165169
625.841	0.0166781
625.919	0.0166806
625.997	0.0166082
626.075	0.0166158
626.154	0.0166246
626.232	0.0167800
626.310	0.0166589
626.388	0.0165762
626.466	0.0165260
626.544	0.0166022
626.622	0.0166945
626.700	0.0165848
626.779	0.0166194
626.857	0.0164526
626.935	0.0166020
627.013	0.0166444
627.091	0.0166851
627.169	0.0166409
627.247	0.0165620
627.325	0.0165604
627.404	0.0164961
627.482	0.0166432
627.560	0.0165591
627.638	0.0165922
627.716	0.0165646
627.794	0.0166357
627.872	0.0166506
627.950	0.0166316
628.029	0.0167679
628.107	0.0164898
628.185	0.0165903
628.263	0.0165995
628.341	0.0166656
628.419	0.0166078
628.497	0.0166321
628.575	0.0165834
628.654	0.0165206
628.732	0.0165035
628.810	0.0165198
628.888	0.0166019
628.966	0.0167863
629.044	0.0165589
629.122	0.0166585
629.200	0.0166127
629.279	0.0166010
629.357	0.0166393
629.435	0.0166300
629.513	0.0166702
629.591	0.0165187
629.669	0.0165421
629.747	0.0166349
629.825	0.0164948
629.904	0.0165691
629.982	0.0165700
630.060	0.0167276
630.138	0.0166604
630.216	0.0167242
630.294	0.0167809
630.372	0.0166118
630.450	0.0165697
630.529	0.0166334
630.607	0.0166180
630.685	0.0167133
630.763	0.0165775
630.841	0.0166873
630.919	0.0165731
630.997	0.0165336
631.075	0.0167229
631.154	0.0167093
631.232	0.0165663
631.310	0.0165835
631.388	0.0166376
631.466	0.0166058
631.544	0.0166344
631.622	0.0167078
631.700	0.0166728
631.779	0.0166003
631.857	0.0166685
631.935	0.0165723
632.013	0.0165820
632.091	0.0166856
632.169	0.0166261
632.247	0.0166849
632.325	0.0166743
632.404	0.0168130
632.482	0.0165498
632.560	0.0165955
632.638	0.0167656
632.716	0.0166689
632.794	0.0167382
632.872	0.0167221
632.950	0.0165479
633.029	0.0165710
633.107	0.0166825
633.185	0.0166235
633.263	0.0166887
633.341	0.0166101
633.419	0.0165710
633.497	0.0165913
633.575	0.0165069
633.654	0.0165469
633.732	0.0166328
633.810	0.0167162
633.888	0.0166457
633.966	0.0165380
634.044	0.0165955
634.122	0.0165155
634.200	0.0165505
634.279	0.0164864
634.357	0.0166733
634.435	0.0167181
634.513	0.0166801
634.591	0.0165561
634.669	0.0166656
634.747	0.0165317
634.825	0.0166936
634.904	0.0166682
634.982	0.0166225
635.060	0.0166320
635.138	0.0166026
635.216	0.0166351
635.294	0.0165251
635.372	0.0165885
635.450	0.0165301
635.529	0.0166163
635.607	0.0166862
635.685	0.0166171
635.763	0.0165119
635.841	0.0165925
635.919	0.0166993
635.997	0.0166516
636.075	0.0167410
636.154	0.0166343
636.232	0.0165166
636.310	0.0166134
636.388	0.0165978
636.466	0.0167136
636.544	0.0166423
636.622	0.0166042
636.700	0.0166577
636.779	0.0167110
636.857	0.0166015
636.935	0.0165907
637.013	0.0166541
637.091	0.0165656
637.169	0.0166590
637.247	0.0166823
637.325	0.0165989
637.404	0.0165042
637.482	0.0166629
637.560	0.0166360
637.638	0.0166550
637.716	0.0166973
637.794	0.0166848
637.872	0.0164842
637.950	0.0166495
638.029	0.0166924
638.107	0.0165946
638.185	0.0165558
638.263	0.0166319
638.341	0.0166193
638.419	0.0166336
638.497	0.0166754
638.575	0.0165263
638.654	0.0165401
638.732	0.0165546
638.810	0.0166499
638.888	0.0164948
638.966	0.0167183
639.044	0.0165724
639.122	0.0165060
639.200	0.0165097
639.279	0.0165941
639.357	0.0166934
639.435	0.0165872
639.513	0.0164044
639.591	0.0166463
639.669	0.0165695
639.747	0.0165522
639.825	0.0164913
639.904	0.0164580
639.982	0.0166310
640.060	0.0165080
640.138	0.0166370
640.216	0.0165887
640.294	0.0164995
640.372	0.0165903
640.450	0.0166923
640.529	0.0165932
640.607	0.0164634
640.685	0.0166679
640.763	0.0164896
640.841	0.0165977
640.919	0.0166080
640.997	0.0165552
641.075	0.0165470
641.154	0.0167440
641.232	0.0165680
641.310	0.0167677
641.388	0.0167917
641.466	0.0167963
641.544	0.0166637
641.622	0.0166314
641.700	0.0167421
641.779	0.0167252
641.857	0.0166443
641.935	0.0167900
642.013	0.0166797
642.091	0.0167411
642.169	0.0165569
642.247	0.0165269
642.325	0.0164223
642.404	0.0163149
642.482	0.0163955
642.560	0.0162061
642.638	0.0160921
642.716	0.0164288
642.794	0.0164640
642.872	0.0166228
642.950	0.0167522
643.029	0.0170667
643.107	0.0169528
643.185	0.0168589
643.263	0.0170137
643.341	0.0170374
643.419	0.0168620
643.497	0.0168822
643.575	0.0167061
643.654	0.0164217
643.732	0.0164814
643.810	0.0163535
643.888	0.0160912
643.966	0.0159711
644.044	0.0158988
644.122	0.0159071
644.200	0.0159672
644.279	0.0162547
644.357	0.0163686
644.435	0.0166836
644.513	0.0170982
644.591	0.0171907
644.669	0.0173686
644.747	0.0173605
644.825	0.0173766
644.904	0.0172330
644.982	0.0171611
645.060	0.0169137
645.138	0.0167264
645.216	0.0165903
645.294	0.0164550
645.372	0.0161641
645.450	0.0160741
645.529	0.0160205
645.607	0.0159234
645.685	0.0157157
645.763	0.0157460
645.841	0.0159246
645.919	0.0160107
645.997	0.0161993
646.075	0.0164055
646.154	0.0166692
646.232	0.0167867
646.310	0.0171429
646.388	0.0172887
646.466	0.0173474
646.544	0.0171226
646.622	0.0169836
646.700	0.0171163
646.779	0.0167792
646.857	0.0164672
646.935	0.0164029
647.013	0.0162868
647.091	0.0161385
647.169	0.0160288
647.247	0.0159719
647.325	0.0160127
647.404	0.0162383
647.482	0.0163865
647.560	0.0165088
647.638	0.0165141
647.716	0.0165342
647.794	0.0166514
647.872	0.0167006
647.950	0.0166922
648.029	0.0166638
648.107	0.0167625
648.185	0.0166708
648.263	0.0166776
648.341	0.0166225
648.419	0.0165643
648.497	0.0166223
648.575	0.0165015
648.654	0.0166303
648.732	0.0167133
648.810	0.0166985
648.888	0.0169671
648.966	0.0168948
649.044	0.0168541
649.122	0.0168262
649.200	0.0168906
649.279	0.0166298
649.357	0.0164149
649.435	0.0163778
649.513	0.0163179
649.591	0.0162304
649.669	0.0160999
649.747	0.0160901
649.825	0.0160390
649.904	0.0160632
649.982	0.0161387
650.060	0.0163099
650.138	0.0164830
650.216	0.0164822
650.294	0.0167639
650.372	0.0168154
650.450	0.0172232
650.529	0.0170747
650.607	0.0170866
650.685	0.0171260
650.763	0.0168153
650.841	0.0167274
650.919	0.0167719
650.997	0.0167484
651.075	0.0166182
651.154	0.0164159
651.232	0.0165218
651.310	0.0163018
651.388	0.0161928
651.466	0.0161419
651.544	0.0162876
651.622	0.0160580
651.700	0.0161095
651.779	0.0164451
651.857	0.0163687
651.935	0.0163602
652.013	0.0166387
652.091	0.0166306
652.169	0.0166794
652.247	0.0168138
652.325	0.0169209
652.404	0.0169114
652.482	0.0168505
652.560	0.0170658
652.638	0.0170248
652.716	0.0169566
652.794	0.0167883
652.872	0.0166029
652.950	0.0165482
653.029	0.0165077
653.107	0.0163470
653.185	0.0162177
653.263	0.0162927
653.341	0.0162071
653.419	0.0161467
653.497	0.0162201
653.575	0.0162362
653.654	0.0165270
653.732	0.0166199
653.810	0.0166965
653.888	0.0166715
653.966	0.0168793
654.044	0.0167319
654.122	0.0167017
654.200	0.0166449
654.279	0.0166729
654.357	0.0166213
654.435	0.0165713
654.513	0.0165044
654.591	0.0166864
654.669	0.0164918
654.747	0.0166250
654.825	0.0168598
654.904	0.0167795
654.982	0.0167065
655.060	0.0168734
655.138	0.0168161
655.216	0.0168297
655.294	0.0168934
655.372	0.0166135
655.450	0.0165891
655.529	0.0165336
655.607	0.0163623
655.685	0.0162960
655.763	0.0161032
655.841	0.0160970
655.919	0.0161320
655.997	0.0161305
656.075	0.0162191
656.154	0.0164300
656.232	0.0165500
656.310	0.0166179
656.388	0.0168503
656.466	0.0168770
656.544	0.0169663
656.622	0.0170103
656.700	0.0171510
656.779	0.0170502
656.857	0.0169658
656.935	0.0171024
657.013	0.0169029
657.091	0.0167030
657.169	0.0166600
657.247	0.0165665
657.325	0.0164708
657.404	0.0164247
657.482	0.0161497
657.560	0.0162389
657.638	0.0163869
657.716	0.0164629
657.794	0.0165419
657.872	0.0165656
657.950	0.0165784
658.029	0.0167758
658.107	0.0169314
658.185	0.0170030
658.263	0.0170662
658.341	0.0171279
658.419	0.0171800
658.497	0.0170982
658.575	0.0169781
658.654	0.0167687
658.732	0.0169061
658.810	0.0166718
658.888	0.0163645
658.966	0.0163669
659.044	0.0162761
659.122	0.0162231
659.200	0.0162769
659.279	0.0162074
659.357	0.0160863
659.435	0.0159202
659.513	0.0160595
659.591	0.0161544
659.669	0.0164397
659.747	0.0164346
659.825	0.0165090
659.904	0.0166008
659.982	0.0167484
660.060	0.0166595
660.138	0.0168145
660.216	0.0170170
660.294	0.0171534
660.372	0.0170567
660.450	0.0172495
660.529	0.0172562
660.607	0.0171423
660.685	0.0171284
660.763	0.0171459
660.841	0.0169942
660.919	0.0168942
660.997	0.0168076
661.075	0.0168346
661.154	0.0166328
661.232	0.0166517
661.310	0.0165813
661.388	0.0163447
661.466	0.0163303
661.544	0.0162193
661.622	0.0162370
661.700	0.0161079
661.779	0.0161940
661.857	0.0162100
661.935	0.0162978
662.013	0.0163201
662.091	0.0162992
662.169	0.0163872
662.247	0.0163931
662.325	0.0165337
662.404	0.0165534
662.482	0.0164046
662.560	0.0162482
662.638	0.0162965
662.716	0.0162548
662.794	0.0162717
662.872	0.0163467
662.950	0.0162557
663.029	0.0164256
663.107	0.0165913
663.185	0.0166792
663.263	0.0168544
663.341	0.0170284
663.419	0.0169970
663.497	0.0170125
663.575	0.0170641
663.654	0.0172001
663.732	0.0171958
663.810	0.0171738
663.888	0.0173185
663.966	0.0172449
664.044	0.0172502
664.122	0.0173325
664.200	0.0171655
664.279	0.0171699
664.357	0.0171030
664.435	0.0170145
664.513	0.0169226
664.591	0.0168807
664.669	0.0166817
664.747	0.0167385
664.825	0.0164848
664.904	0.0163116
664.982	0.0162270
665.060	0.0162043
665.138	0.0161522
665.216	0.0160964
665.294	0.0160580
665.372	0.0159802
665.450	0.0160991
665.529	0.0160626
665.607	0.0160648
665.685	0.0162433
665.763	0.0162494
665.841	0.0163395
665.919	0.0163074
665.997	0.0163683
666.075	0.0162266
666.154	0.0161407
666.232	0.0163197
666.310	0.0163489
666.388	0.0164207
666.466	0.0164359
666.544	0.0163962
666.622	0.0164559
666.700	0.0164129
666.779	0.0164592
666.857	0.0164677
666.935	0.0164582
667.013	0.0163564
667.091	0.0163110
667.169	0.0162870
667.247	0.0162257
667.325	0.0163702
667.404	0.0165980
667.482	0.0163774
667.560	0.0163696
667.638	0.0165437
667.716	0.0163740
667.794	0.0165820
667.872	0.0168719
667.950	0.0168867
668.029	0.0170527
668.107	0.0172655
668.185	0.0174979
668.263	0.0176916
668.341	0.0178608
668.419	0.0180078
668.497	0.0179021
668.575	0.0178887
668.654	0.0180459
668.732	0.0178651
668.810	0.0178770
668.888	0.0175233
668.966	0.0173124
669.044	0.0171478
669.122	0.0166476
669.200	0.0164297
669.279	0.0161881
669.357	0.0161038
669.435	0.0158300
669.513	0.0155521
669.591	0.0153742
669.669	0.0153561
669.747	0.0152992
669.825	0.0154602
669.904	0.0155616
669.982	0.0155280
670.060	0.0155770
670.138	0.0156355
670.216	0.0158700
670.294	0.0159607
670.372	0.0161303
670.450	0.0161240
670.529	0.0161722
670.607	0.0162764
670.685	0.0162780
670.763	0.0163766
670.841	0.0163538
670.919	0.0163965
670.997	0.0164918
671.075	0.0166045
671.154	0.0166291
671.232	0.0164754
671.310	0.0164873
671.388	0.0167564
671.466	0.0168491
671.544	0.0166055
671.622	0.0167339
671.700	0.0169888
671.779	0.0169449
671.857	0.0169273
671.935	0.0172176
672.013	0.0172412
672.091	0.0174136
672.169	0.0173112
672.247	0.0172974
672.325	0.0173257
672.404	0.0172886
672.482	0.0170180
672.560	0.0170565
672.638	0.0168143
672.716	0.0166844
672.794	0.0165361
672.872	0.0162918
672.950	0.0161752
673.029	0.0162022
673.107	0.0161445
673.185	0.0161908
673.263	0.0162757
673.341	0.0163470
673.419	0.0166457
673.497	0.0166841
673.575	0.0165356
673.654	0.0168240
673.732	0.0170011
673.810	0.0168989
673.888	0.0169639
673.966	0.0167618
674.044	0.0166469
674.122	0.0166334
674.200	0.0164602
674.279	0.0162840
674.357	0.0161174
674.435	0.0159908
674.513	0.0158187
674.591	0.0160822
674.669	0.0160291
674.747	0.0161481
674.825	0.0161961
674.904	0.0163565
674.982	0.0164379
675.060	0.0165353
675.138	0.0165661
675.216	0.0168651
675.294	0.0170766
675.372	0.0170770
675.450	0.0172305
675.529	0.0172221
675.607	0.0175006
675.685	0.0175829
675.763	0.0175721
675.841	0.0177101
675.919	0.0176623
675.997	0.0175167
676.075	0.0172811
676.154	0.0169949
676.232	0.0166332
676.310	0.0164501
676.388	0.0160080
676.466	0.0157666
676.544	0.0154833
676.622	0.0151588
676.700	0.0151774
676.779	0.0147636
676.857	0.0148447
676.935	0.0148645
677.013	0.0150257
677.091	0.0152568
677.169	0.0153963
677.247	0.0157983
677.325	0.0162157
677.404	0.0165911
677.482	0.0167390
677.560	0.0171873
677.638	0.0173164
677.716	0.0174778
677.794	0.0175890
677.872	0.0175873
677.950	0.0175845
678.029	0.0175800
678.107	0.0175816
678.185	0.0175378
678.263	0.0172887
678.341	0.0171943
678.419	0.0171873
678.497	0.0170182
678.575	0.0170444
678.654	0.0169095
678.732	0.0170317
678.810	0.0169216
678.888	0.0165057
678.966	0.0165169
679.044	0.0164723
679.122	0.0164795
679.200	0.0163027
679.279	0.0162617
679.357	0.0161760
679.435	0.0162245
679.513	0.0161408
679.591	0.0160997
679.669	0.0160153
679.747	0.0159146
679.825	0.0157860
679.904	0.0156537
679.982	0.0154610
680.060	0.0151126
680.138	0.0149744
680.216	0.0146814
680.294	0.0146545
680.372	0.0147491
680.450	0.0150238
680.529	0.0154303
680.607	0.0158236
680.685	0.0164561
680.763	0.0170863
680.841	0.0178771
680.919	0.0183985
680.997	0.0189357
681.075	0.0192258
681.154	0.0195223
681.232	0.0198114
681.310	0.0195911
681.388	0.0194424
681.466	0.0193547
681.544	0.0190603
681.622	0.0188015
681.700	0.0186085
681.779	0.0184248
681.857	0.0183815
681.935	0.0181731
682.013	0.0181016
682.091	0.0181799
682.169	0.0179878
682.247	0.0177650
682.325	0.0175830
682.404	0.0173415
682.482	0.0168983
682.560	0.0165223
682.638	0.0161826
682.716	0.0155376
682.794	0.0150922
682.872	0.0144965
682.950	0.0138941
683.029	0.0133823
683.107	0.0127892
683.185	0.0124872
683.263	0.0122765
683.341	0.0119802
683.419	0.0119368
683.497	0.0121400
683.575	0.0123433
683.654	0.0127370
683.732	0.0131764
683.810	0.0138860
683.888	0.0144324
683.966	0.0151837
684.044	0.0157360
684.122	0.0163463
684.200	0.0168547
684.279	0.0172825
684.357	0.0175390
684.435	0.0177592
684.513	0.0180560
684.591	0.0181581
684.669	0.0181550
684.747	0.0182416
684.825	0.0185721
684.904	0.0184843
684.982	0.0188426
685.060	0.0189501
685.138	0.0189294
685.216	0.0192203
685.294	0.0193880
685.372	0.0193182
685.450	0.0193834
685.529	0.0193963
685.607	0.0191434
685.685	0.0189584
685.763	0.0187704
685.841	0.0183591
685.919	0.0178029
685.997	0.0172030
686.075	0.0167170
686.154	0.0160355
686.232	0.0153710
686.310	0.0149215
686.388	0.0143045
686.466	0.0139001
686.544	0.0134361
686.622	0.0132878
686.700	0.0131574
686.779	0.0132990
686.857	0.0137001
686.935	0.0140686
687.013	0.0146935
687.091	0.0154707
687.169	0.0161082
687.247	0.0168394
687.325	0.0175790
687.404	0.0183086
687.482	0.0188537
687.560	0.0192041
687.638	0.0195139
687.716	0.0198313
687.794	0.0199534
687.872	0.0201344
687.950	0.0201374
688.029	0.0202356
688.107	0.0201245
688.185	0.0200188
688.263	0.0201871
688.341	0.0200327
688.419	0.0198756
688.497	0.0196720
688.575	0.0194552
688.654	0.0192242
688.732	0.0187608
688.810	0.0181184
688.888	0.0176508
688.966	0.0168877
689.044	0.0162529
689.122	0.0155007
689.200	0.0144886
689.279	0.0136082
689.357	0.0128979
689.435	0.0120190
689.513	0.0114740
689.591	0.0109681
689.669	0.0104642
689.747	0.00999466
689.825	0.00960060
689.904	0.00946404
689.982	0.00947365
690.060	0.00952980
690.138	0.00966049
690.216	0.0100034
690.294	0.0103094
690.372	0.0109384
690.450	0.0116245
690.529	0.0125366
690.607	0.0134334
690.685	0.0145158
690.763	0.0155837
690.841	0.0166015
690.919	0.0175462
690.997	0.0186603
691.075	0.0193016
691.154	0.0202630
691.232	0.0211192
691.310	0.0217983
691.388	0.0224707
691.466	0.0229819
691.544	0.0234451
691.622	0.0235816
691.700	0.0236810
691.779	0.0237856
691.857	0.0236624
691.935	0.0234103
692.013	0.0228971
692.091	0.0223749
692.169	0.0217767
692.247	0.0212551
692.325	0.0205076
692.404	0.0196427
692.482	0.0189370
692.560	0.0182150
692.638	0.0174715
692.716	0.0164202
692.794	0.0158210
692.872	0.0151048
692.950	0.0147021
693.029	0.0139602
693.107	0.0133443
693.185	0.0129956
693.263	0.0123100
693.341	0.0120003
693.419	0.0116940
693.497	0.0115176
693.575	0.0113937
693.654	0.0115640
693.732	0.0118841
693.810	0.0121867
693.888	0.0127651
693.966	0.0135387
694.044	0.0143408
694.122	0.0152451
694.200	0.0162981
694.279	0.0173812
694.357	0.0182641
694.435	0.0191931
694.513	0.0197728
694.591	0.0206236
694.669	0.0213937
694.747	0.0218205
694.825	0.0218766
694.904	0.0220355
694.982	0.0219811
695.060	0.0217609
695.138	0.0213155
695.216	0.0208108
695.294	0.0201721
695.372	0.0196639
695.450	0.0187209
695.529	0.0179401
695.607	0.0168079
695.685	0.0159928
695.763	0.0148489
695.841	0.0138348
695.919	0.0129916
695.997	0.0121019
696.075	0.0111954
696.154	0.0103097
696.232	0.00973663
696.310	0.00926895
696.388	0.00885330
696.466	0.00875839
696.544	0.00880226
696.622	0.00920059
696.700	0.00950302
696.779	0.00996277
696.857	0.0107191
696.935	0.0115627
697.013	0.0125082
697.091	0.0135176
697.169	0.0145472
697.247	0.0156824
697.325	0.0167951
697.404	0.0178419
697.482	0.0186610
697.560	0.0194421
697.638	0.0201675
697.716	0.0207299
697.794	0.0212362
697.872	0.0216516
697.950	0.0218545
698.029	0.0220190
698.107	0.0219533
698.185	0.0219632
698.263	0.0219767
698.341	0.0217413
698.419	0.0214082
698.497	0.0209724
698.575	0.0206154
698.654	0.0202048
698.732	0.0196264
698.810	0.0187872
698.888	0.0181637
698.966	0.0175702
699.044	0.0168904
699.122	0.0161653
699.200	0.0153130
699.279	0.0148124
699.357	0.0144772
699.435	0.0138810
699.513	0.0135902
699.591	0.0135267
699.669	0.0136152
699.747	0.0140318
699.825	0.0143845
699.904	0.0149612
699.982	0.0155654
700.060	0.0163583
700.138	0.0173635
700.216	0.0181315
700.294	0.0191179
700.372	0.0199075
700.450	0.0208079
700.529	0.0214333
700.607	0.0218456
700.685	0.0221589
700.763	0.0222275
700.841	0.0221635
700.919	0.0217255
700.997	0.0213328
701.075	0.0207949
701.154	0.0198079
701.232	0.0189526
701.310	0.0182228
701.388	0.0172274
701.466	0.0163910
701.544	0.0156411
701.622	0.0147001
701.700	0.0140969
701.779	0.0134321
701.857	0.0128609
701.935	0.0124262
702.013	0.0119361
702.091	0.0116251
702.169	0.0112866
702.247	0.0110639
702.325	0.0108645
702.404	0.0105279
702.482	0.0103648
702.560	0.0102380
702.638	0.0102081
702.716	0.0102835
702.794	0.0103132
702.872	0.0103536
702.950	0.0104583
703.029	0.0106556
703.107	0.0111891
703.185	0.0116003
703.263	0.0121619
703.341	0.0128391
703.419	0.0136022
703.497	0.0143357
703.575	0.0151943
703.654	0.0161640
703.732	0.0170008
703.810	0.0178371
703.888	0.0185963
703.966	0.0191804
704.044	0.0195914
704.122	0.0201424
704.200	0.0203402
704.279	0.0202460
704.357	0.0200791
704.435	0.0200370
704.513	0.0199641
704.591	0.0195509
704.669	0.0193427
704.747	0.0191532
704.825	0.0190493
704.904	0.0190710
704.982	0.0191061
705.060	0.0193336
705.138	0.0196581
705.216	0.0198795
705.294	0.0202396
705.372	0.0206408
705.450	0.0209460
705.529	0.0213185
705.607	0.0216653
705.685	0.0219850
705.763	0.0222412
705.841	0.0222019
705.919	0.0222279
705.997	0.0219729
706.075	0.0218568
706.154	0.0212023
706.232	0.0205812
706.310	0.0202668
706.388	0.0197246
706.466	0.0192725
706.544	0.0186646
706.622	0.0183813
706.700	0.0178368
706.779	0.0171791
706.857	0.0168320
706.935	0.0162588
707.013	0.0156786
707.091	0.0150710
707.169	0.0145441
707.247	0.0140343
707.325	0.0133721
707.404	0.0128626
707.482	0.0125368
707.560	0.0122340
707.638	0.0118671
707.716	0.0115005
707.794	0.0113306
707.872	0.0112606
707.950	0.0111530
708.029	0.0112214
708.107	0.0112125
708.185	0.0113728
708.263	0.0115952
708.341	0.0117668
708.419	0.0119272
708.497	0.0121661
708.575	0.0125623
708.654	0.0128386
708.732	0.0131098
708.810	0.0132896
708.888	0.0136626
708.966	0.0137384
709.044	0.0141172
709.122	0.0142814
709.200	0.0144047
709.279	0.0147693
709.357	0.0150220
709.435	0.0154667
709.513	0.0158976
709.591	0.0163177
709.669	0.0167088
709.747	0.0172003
709.825	0.0175739
709.904	0.0178101
709.982	0.0178691
710.060	0.0180589
710.138	0.0179977
710.216	0.0179918
710.294	0.0178708
710.372	0.0177346
710.450	0.0179306
710.529	0.0177501
710.607	0.0178285
710.685	0.0180143
710.763	0.0182001
710.841	0.0184644
710.919	0.0188981
710.997	0.0193285
711.075	0.0198221
711.154	0.0203955
711.232	0.0207755
711.310	0.0213429
711.388	0.0217622
711.466	0.0221900
711.544	0.0225089
711.622	0.0227886
711.700	0.0228630
711.779	0.0228819
711.857	0.0226247
711.935	0.0224120
712.013	0.0218015
712.091	0.0212777
712.169	0.0205105
712.247	0.0199876
712.325	0.0192566
712.404	0.0183981
712.482	0.0175349
712.560	0.0168516
712.638	0.0162227
712.716	0.0156055
712.794	0.0147829
712.872	0.0141758
712.950	0.0137096
713.029	0.0132578
713.107	0.0128346
713.185	0.0125252
713.263	0.0124207
713.341	0.0123905
713.419	0.0121697
713.497	0.0122858
713.575	0.0122978
713.654	0.0123406
713.732	0.0123252
713.810	0.0123373
713.888	0.0125314
713.966	0.0125648
714.044	0.0127262
714.122	0.0129353
714.200	0.0133600
714.279	0.0137190
714.357	0.0138879
714.435	0.0141472
714.513	0.0144881
714.591	0.0147155
714.669	0.0149157
714.747	0.0150731
714.825	0.0153150
714.904	0.0156435
714.982	0.0158717
715.060	0.0160400
715.138	0.0163630
715.216	0.0166706
715.294	0.0170010
715.372	0.0172618
715.450	0.0174458
715.529	0.0176797
715.607	0.0177845
715.685	0.0177634
715.763	0.0177905
715.841	0.0177621
715.919	0.0176931
715.997	0.0177271
716.075	0.0175538
716.154	0.0174295
716.232	0.0176192
716.310	0.0175566
716.388	0.0176005
716.466	0.0174956
716.544	0.0177425
716.622	0.0178316
716.700	0.0178366
716.779	0.0180250
716.857	0.0181515
716.935	0.0184119
717.013	0.0185057
717.091	0.0186822
717.169	0.0188395
717.247	0.0188951
717.325	0.0188972
717.404	0.0188936
717.482	0.0190130
717.560	0.0187768
717.638	0.0186285
717.716	0.0185809
717.794	0.0184886
717.872	0.0180676
717.950	0.0179394
718.029	0.0177672
718.107	0.0173913
718.185	0.0171655
718.263	0.0171379
718.341	0.0168201
718.419	0.0164925
718.497	0.0162768
718.575	0.0159726
718.654	0.0155724
718.732	0.0155075
718.810	0.0153871
718.888	0.0151460
718.966	0.0149726
719.044	0.0148338
719.122	0.0145431
719.200	0.0143994
719.279	0.0143184
719.357	0.0142828
719.435	0.0141906
719.513	0.0142726
719.591	0.0144284
719.669	0.0144135
719.747	0.0145135
719.825	0.0148440
719.904	0.0150423
719.982	0.0152556
720.060	0.0155615
720.138	0.0156583
720.216	0.0159014
720.294	0.0159497
720.372	0.0161595
720.450	0.0163316
720.529	0.0161470
720.607	0.0163988
720.685	0.0165265
720.763	0.0165451
720.841	0.0165508
720.919	0.0166627
720.997	0.0166018
721.075	0.0165958
721.154	0.0165650
721.232	0.0166639
721.310	0.0165506
721.388	0.0166116
721.466	0.0165870
721.544	0.0167322
721.622	0.0168071
721.700	0.0169537
721.779	0.0168900
721.857	0.0169862
721.935	0.0170557
722.013	0.0172622
722.091	0.0175166
722.169	0.0177711
722.247	0.0178807
722.325	0.0180448
722.404	0.0183666
722.482	0.0185162
722.560	0.0184687
722.638	0.0188963
722.716	0.0189028
722.794	0.0188300
722.872	0.0188116
722.950	0.0187751
723.029	0.0185906
723.107	0.0182642
723.185	0.0178936
723.263	0.0174548
723.341	0.0169562
723.419	0.0166356
723.497	0.0165221
723.575	0.0160017
723.654	0.0157390
723.732	0.0157014
723.810	0.0155553
723.888	0.0154301
723.966	0.0153568
724.044	0.0155283
724.122	0.0155160
724.200	0.0156789
724.279	0.0158160
724.357	0.0158521
724.435	0.0159566
724.513	0.0159978
724.591	0.0159502
724.669	0.0158039
724.747	0.0156403
724.825	0.0154997
724.904	0.0153600
724.982	0.0153277
725.060	0.0151285
725.138	0.0150159
725.216	0.0150272
725.294	0.0147356
725.372	0.0146773
725.450	0.0146071
725.529	0.0147545
725.607	0.0148733
725.685	0.0149398
725.763	0.0150278
725.841	0.0152011
725.919	0.0154169
725.997	0.0155906
726.075	0.0158582
726.154	0.0159239
726.232	0.0161351
726.310	0.0163528
726.388	0.0165636
726.466	0.0168569
726.544	0.0168274
726.622	0.0170208
726.700	0.0171281
726.779	0.0172144
726.857	0.0174232
726.935	0.0173841
727.013	0.0176025
727.091	0.0175291
727.169	0.0175126
727.247	0.0177561
727.325	0.0177409
727.404	0.0178157
727.482	0.0178302
727.560	0.0178506
727.638	0.0179265
727.716	0.0178532
727.794	0.0179089
727.872	0.0177824
727.950	0.0178257
728.029	0.0178756
728.107	0.0178239
728.185	0.0179747
728.263	0.0180254
728.341	0.0179276
728.419	0.0179341
728.497	0.0180574
728.575	0.0179662
728.654	0.0179477
728.732	0.0177886
728.810	0.0176215
728.888	0.0175318
728.966	0.0174418
729.044	0.0170209
729.122	0.0168837
729.200	0.0166983
729.279	0.0164571
729.357	0.0164063
729.435	0.0162329
729.513	0.0160484
729.591	0.0158703
729.669	0.0157929
729.747	0.0158380
729.825	0.0158247
729.904	0.0157223
729.982	0.0158103
730.060	0.0157606
730.138	0.0159773
730.216	0.0158804
730.294	0.0159832
730.372	0.0160925
730.450	0.0160921
730.529	0.0160832
730.607	0.0162193
730.685	0.0160709
730.763	0.0160059
730.841	0.0158597
730.919	0.0158725
730.997	0.0159568
731.075	0.0158064
731.154	0.0157056
731.232	0.0156829
731.310	0.0156335
731.388	0.0154989
731.466	0.0154433
731.544	0.0156493
731.622	0.0155766
731.700	0.0156380
731.779	0.0155108
731.857	0.0155253
731.935	0.0154399
732.013	0.0154272
732.091	0.0154400
732.169	0.0152962
732.247	0.0153288
732.325	0.0152833
732.404	0.0155052
732.482	0.0155218
732.560	0.0155616
732.638	0.0158688
732.716	0.0161082
732.794	0.0162920
732.872	0.0164774
732.950	0.0168784
733.029	0.0172280
733.107	0.0172135
733.185	0.0176131
733.263	0.0177846
733.341	0.0178384
733.419	0.0180580
733.497	0.0180806
733.575	0.0182531
733.654	0.0182481
733.732	0.0181818
733.810	0.0181921
733.888	0.0182345
733.966	0.0181873
734.044	0.0179822
734.122	0.0179028
734.200	0.0176964
734.279	0.0176112
734.357	0.0174323
734.435	0.0171235
734.513	0.0171213
734.591	0.0170441
734.669	0.0169714
734.747	0.0169527
734.825	0.0168571
734.904	0.0168169
734.982	0.0169056
735.060	0.0168778
735.138	0.0169505
735.216	0.0169169
735.294	0.0168581
735.372	0.0169918
735.450	0.0171253
735.529	0.0171278
735.607	0.0171407
735.685	0.0171591
735.763	0.0171639
735.841	0.0170322
735.919	0.0170527
735.997	0.0169386
736.075	0.0170280
736.154	0.0167829
736.232	0.0166813
736.310	0.0165855
736.388	0.0165712
736.466	0.0164073
736.544	0.0163100
736.622	0.0162711
736.700	0.0163122
736.779	0.0161186
736.857	0.0160860
736.935	0.0160870
737.013	0.0162597
737.091	0.0160626
737.169	0.0160777
737.247	0.0158913
737.325	0.0159431
737.404	0.0158324
737.482	0.0157978
737.560	0.0157220
737.638	0.0155079
737.716	0.0156432
737.794	0.0155070
737.872	0.0154606
737.950	0.0155908
738.029	0.0154176
738.107	0.0154053
738.185	0.0154914
738.263	0.0155139
738.341	0.0156658
738.419	0.0157402
738.497	0.0158808
738.575	0.0160036
738.654	0.0160355
738.732	0.0161954
738.810	0.0164269
738.888	0.0165417
738.966	0.0166615
739.044	0.0167948
739.122	0.0169611
739.200	0.0169386
739.279	0.0170711
739.357	0.0169991
739.435	0.0169181
739.513	0.0170634
739.591	0.0169442
739.669	0.0168760
739.747	0.0167389
739.825	0.0167326
739.904	0.0166269
739.982	0.0166409
740.060	0.0166107
740.138	0.0165830
740.216	0.0167085
740.294	0.0166637
740.372	0.0164680
740.450	0.0167160
740.529	0.0167130
740.607	0.0166346
740.685	0.0166358
740.763	0.0167660
740.841	0.0168874
740.919	0.0168667
740.997	0.0168451
741.075	0.0168327
741.154	0.0167997
741.232	0.0167813
741.310	0.0166544
741.388	0.0167763
741.466	0.0168663
741.544	0.0168468
741.622	0.0168975
741.700	0.0171586
741.779	0.0170716
741.857	0.0171027
741.935	0.0172902
742.013	0.0175938
742.091	0.0176279
742.169	0.0175790
742.247	0.0177759
742.325	0.0179643
742.404	0.0177979
742.482	0.0179263
742.560	0.0178321
742.638	0.0177390
742.716	0.0176730
742.794	0.0173765
742.872	0.0173626
742.950	0.0169849
743.029	0.0168176
743.107	0.0165511
743.185	0.0162151
743.263	0.0159912
743.341	0.0156735
743.419	0.0154251
743.497	0.0151244
743.575	0.0151433
743.654	0.0150354
743.732	0.0148545
743.810	0.0148539
743.888	0.0149400
743.966	0.0150893
744.044	0.0151614
744.122	0.0152303
744.200	0.0155592
744.279	0.0157590
744.357	0.0161604
744.435	0.0163560
744.513	0.0166587
744.591	0.0169924
744.669	0.0173092
744.747	0.0173659
744.825	0.0174491
744.904	0.0176430
744.982	0.0176225
745.060	0.0176169
745.138	0.0175509
745.216	0.0174104
745.294	0.0172510
745.372	0.0171701
745.450	0.0169386
745.529	0.0167385
745.607	0.0165148
745.685	0.0165261
745.763	0.0163594
745.841	0.0162912
745.919	0.0161205
745.997	0.0159776
746.075	0.0159148
746.154	0.0157772
746.232	0.0159418
746.310	0.0158876
746.388	0.0158912
746.466	0.0159048
746.544	0.0159730
746.622	0.0159606
746.700	0.0159927
746.779	0.0163462
746.857	0.0162886
746.935	0.0162390
747.013	0.0163069
747.091	0.0163145
747.169	0.0164925
747.247	0.0164013
747.325	0.0164516
747.404	0.0165236
747.482	0.0166098
747.560	0.0166404
747.638	0.0169097
747.716	0.0167291
747.794	0.0168288
747.872	0.0169088
747.950	0.0170036
748.029	0.0172511
748.107	0.0172881
748.185	0.0173021
748.263	0.0174214
748.341	0.0174913
748.419	0.0174958
748.497	0.0174026
748.575	0.0172129
748.654	0.0171323
748.732	0.0170296
748.810	0.0171674
748.888	0.0168542
748.966	0.0167056
749.044	0.0167126
749.122	0.0166156
749.200	0.0164275
749.279	0.0164073
749.357	0.0164873
749.435	0.0162013
749.513	0.0162638
749.591	0.0162194
749.669	0.0163473
749.747	0.0162817
749.825	0.0162954
749.904	0.0164344
749.982	0.0164108
750.060	0.0166472
750.138	0.0166351
750.216	0.0166843
750.294	0.0168250
750.372	0.0168520
750.450	0.0168631
750.529	0.0168739
750.607	0.0170559
750.685	0.0169362
750.763	0.0170258
750.841	0.0171812
750.919	0.0169877
750.997	0.0169933
751.075	0.0171603
751.154	0.0172962
751.232	0.0172616
751.310	0.0172031
751.388	0.0171682
751.466	0.0172154
751.544	0.0171249
751.622	0.0171126
751.700	0.0170623
751.779	0.0168477
751.857	0.0168141
751.935	0.0165846
752.013	0.0165302
752.091	0.0163759
752.169	0.0162193
752.247	0.0160856
752.325	0.0159473
752.404	0.0158846
752.482	0.0156006
752.560	0.0157059
752.638	0.0156243
752.716	0.0153304
752.794	0.0154790
752.872	0.0154845
752.950	0.0155143
753.029	0.0156731
753.107	0.0157455
753.185	0.0157586
753.263	0.0161517
753.341	0.0162485
753.419	0.0165971
753.497	0.0167873
753.575	0.0168448
753.654	0.0169994
753.732	0.0170560
753.810	0.0172693
753.888	0.0172950
753.966	0.0173463
754.044	0.0174290
754.122	0.0172861
754.200	0.0174160
754.279	0.0171596
754.357	0.0170902
754.435	0.0169449
754.513	0.0168152
754.591	0.0166545
754.669	0.0165359
754.747	0.0164806
754.825	0.0161990
754.904	0.0161762
754.982	0.0160801
755.060	0.0160172
755.138	0.0160618
755.216	0.0160704
755.294	0.0160156
755.372	0.0160202
755.450	0.0161451
755.529	0.0161192
755.607	0.0161469
755.685	0.0162146
755.763	0.0163662
755.841	0.0164107
755.919	0.0165520
755.997	0.0166381
756.075	0.0167163
756.154	0.0168638
756.232	0.0168423
756.310	0.0169389
756.388	0.0167609
756.466	0.0169114
756.544	0.0171426
756.622	0.0169887
756.700	0.0169722
756.779	0.0170055
756.857	0.0169965
756.935	0.0170338
757.013	0.0170496
757.091	0.0172853
757.169	0.0171104
757.247	0.0171851
757.325	0.0171174
757.404	0.0170896
757.482	0.0172462
757.560	0.0172025
757.638	0.0172615
757.716	0.0171305
757.794	0.0169243
757.872	0.0170164
757.950	0.0169380
758.029	0.0168564
758.107	0.0167196
758.185	0.0164985
758.263	0.0163841
758.341	0.0163274
758.419	0.0163021
758.497	0.0162050
758.575	0.0159868
758.654	0.0160715
758.732	0.0160919
758.810	0.0158838
758.888	0.0160542
758.966	0.0161896
759.044	0.0161701
759.122	0.0162163
759.200	0.0163824
759.279	0.0163871
759.357	0.0165620
759.435	0.0166445
759.513	0.0167344
759.591	0.0168541
759.669	0.0169237
759.747	0.0169168
759.825	0.0169305
759.904	0.0169147
759.982	0.0168877
760.060	0.0168670
760.138	0.0167220
760.216	0.0168903
760.294	0.0167691
760.372	0.0165635
760.450	0.0164900
760.529	0.0165005
760.607	0.0164816
760.685	0.0164323
760.763	0.0162883
760.841	0.0162425
760.919	0.0161988
760.997	0.0161556
761.075	0.0161269
761.154	0.0162015
761.232	0.0162473
761.310	0.0161423
761.388	0.0160881
761.466	0.0161037
761.544	0.0160868
761.622	0.0160121
761.700	0.0161428
761.779	0.0162023
761.857	0.0159793
761.935	0.0160558
762.013	0.0161414
762.091	0.0161665
762.169	0.0162546
762.247	0.0163657
762.325	0.0164845
762.404	0.0164192
762.482	0.0165473
762.560	0.0167638
762.638	0.0167152
762.716	0.0168185
762.794	0.0169122
762.872	0.0170349
762.950	0.0170649
763.029	0.0172219
763.107	0.0173888
763.185	0.0170975
763.263	0.0172143
763.341	0.0172074
763.419	0.0171123
763.497	0.0169460
763.575	0.0170195
763.654	0.0169144
763.732	0.0167226
763.810	0.0165276
763.888	0.0164948
763.966	0.0163924
764.044	0.0162591
764.122	0.0162170
764.200	0.0161770
764.279	0.0161553
764.357	0.0161053
764.435	0.0161401
764.513	0.0160756
764.591	0.0162044
764.669	0.0163323
764.747	0.0164810
764.825	0.0167127
764.904	0.0166326
764.982	0.0168213
765.060	0.0168994
765.138	0.0170671
765.216	0.0171541
765.294	0.0172382
765.372	0.0175090
765.450	0.0174301
765.529	0.0174182
765.607	0.0175313
765.685	0.0175446
765.763	0.0173074
765.841	0.0173563
765.919	0.0171066
765.997	0.0169588
766.075	0.0169998
766.154	0.0166132
766.232	0.0165781
766.310	0.0164339
766.388	0.0162450
766.466	0.0161432
766.544	0.0162508
766.622	0.0161095
766.700	0.0160291
766.779	0.0159406
766.857	0.0160307
766.935	0.0161607
767.013	0.0163129
767.091	0.0163345
767.169	0.0162794
767.247	0.0163469
767.325	0.0165604
767.404	0.0165271
767.482	0.0166512
767.560	0.0167013
767.638	0.0167409
767.716	0.0167958
767.794	0.0166951
767.872	0.0166322
767.950	0.0167566
768.029	0.0166492
768.107	0.0167519
768.185	0.0165394
768.263	0.0165257
768.341	0.0165951
768.419	0.0165398
768.497	0.0165009
768.575	0.0163013
768.654	0.0163856
768.732	0.0165149
768.810	0.0164379
768.888	0.0164509
768.966	0.0163755
769.044	0.0164823
769.122	0.0165463
769.200	0.0164849
769.279	0.0166602
769.357	0.0166389
769.435	0.0165553
769.513	0.0167040
769.591	0.0169174
769.669	0.0168478
769.747	0.0168295
769.825	0.0170081
769.904	0.0169787
769.982	0.0168325
770.060	0.0167485
770.138	0.0167270
770.216	0.0167813
770.294	0.0166251
770.372	0.0165112
770.450	0.0165352
770.529	0.0163791
770.607	0.0163377
770.685	0.0163685
770.763	0.0163022
770.841	0.0163491
770.919	0.0162572
770.997	0.0163856
771.075	0.0165089
771.154	0.0165715
771.232	0.0167339
771.310	0.0168644
771.388	0.0169688
771.466	0.0173056
771.544	0.0172560
771.622	0.0173663
771.700	0.0174832
771.779	0.0172037
771.857	0.0172857
771.935	0.0172945
772.013	0.0172852
772.091	0.0169752
772.169	0.0169377
772.247	0.0167836
772.325	0.0166261
772.404	0.0164285
772.482	0.0164134
772.560	0.0161165
772.638	0.0162907
772.716	0.0161857
772.794	0.0160345
772.872	0.0160148
772.950	0.0159299
773.029	0.0160827
773.107	0.0160056
773.185	0.0159602
773.263	0.0162625
773.341	0.0163351
773.419	0.0163393
773.497	0.0164400
773.575	0.0166028
773.654	0.0167310
773.732	0.0168165
773.810	0.0168596
773.888	0.0169469
773.966	0.0170601
774.044	0.0173164
774.122	0.0171669
774.200	0.0171783
774.279	0.0172736
774.357	0.0173738
774.435	0.0171220
774.513	0.0170186
774.591	0.0170242
774.669	0.0169190
774.747	0.0168916
774.825	0.0168024
774.904	0.0166657
774.982	0.0165120
775.060	0.0163853
775.138	0.0162832
775.216	0.0162310
775.294	0.0163170
775.372	0.0163327
775.450	0.0162003
775.529	0.0161575
775.607	0.0161414
775.685	0.0162664
775.763	0.0163180
775.841	0.0163030
775.919	0.0163142
775.997	0.0163287
776.075	0.0163953
776.154	0.0164674
776.232	0.0165304
776.310	0.0165909
776.388	0.0164287
776.466	0.0163901
776.544	0.0163986
776.622	0.0166299
776.700	0.0165791
776.779	0.0164600
776.857	0.0166293
776.935	0.0165694
777.013	0.0165242
777.091	0.0165072
777.169	0.0164411
777.247	0.0166261
777.325	0.0165848
777.404	0.0165520
777.482	0.0165327
777.560	0.0166278
777.638	0.0167435
777.716	0.0167677
777.794	0.0166998
777.872	0.0168204
777.950	0.0168092
778.029	0.0169427
778.107	0.0169012
778.185	0.0171071
778.263	0.0169453
778.341	0.0169501
778.419	0.0171178
778.497	0.0168125
778.575	0.0169009
778.654	0.0169756
778.732	0.0167119
778.810	0.0167831
778.888	0.0165257
778.966	0.0163486
779.044	0.0165125
779.122	0.0163712
779.200	0.0163569
779.279	0.0162184
779.357	0.0161185
779.435	0.0161296
779.513	0.0160050
779.591	0.0159684
779.669	0.0160410
779.747	0.0159592
779.825	0.0160426
779.904	0.0161067
779.982	0.0161326
780.060	0.0160594
780.138	0.0162882
780.216	0.0164142
780.294	0.0165305
780.372	0.0165903
780.450	0.0165213
780.529	0.0166526
780.607	0.0168105
780.685	0.0168221
780.763	0.0168289
780.841	0.0169088
780.919	0.0168491
780.997	0.0168130
781.075	0.0170284
781.154	0.0169862
781.232	0.0168473
781.310	0.0170084
781.388	0.0169870
781.466	0.0169191
781.544	0.0168947
781.622	0.0169649
781.700	0.0168252
781.779	0.0168200
781.857	0.0168664
781.935	0.0168398
782.013	0.0167553
782.091	0.0167467
782.169	0.0167308
782.247	0.0167673
782.325	0.0167246
782.404	0.0165997
782.482	0.0165439
782.560	0.0166256
782.638	0.0165102
782.716	0.0164944
782.794	0.0165069
782.872	0.0163972
782.950	0.0163409
783.029	0.0163920
783.107	0.0164049
783.185	0.0163504
783.263	0.0163939
783.341	0.0161985
783.419	0.0162350
783.497	0.0163322
783.575	0.0162820
783.654	0.0164381
783.732	0.0164564
783.810	0.0165166
783.888	0.0164776
783.966	0.0166057
784.044	0.0167800
784.122	0.0167979
784.200	0.0167915
784.279	0.0169632
784.357	0.0169176
784.435	0.0169829
784.513	0.0168978
784.591	0.0169117
784.669	0.0169315
784.747	0.0168103
784.825	0.0167487
784.904	0.0167628
784.982	0.0166942
785.060	0.0166394
785.138	0.0165773
785.216	0.0165968
785.294	0.0165399
785.372	0.0165049
785.450	0.0165301
785.529	0.0164764
785.607	0.0162917
785.685	0.0163779
785.763	0.0163703
785.841	0.0162329
785.919	0.0162266
785.997	0.0161680
786.075	0.0162316
786.154	0.0161430
786.232	0.0161573
786.310	0.0161009
786.388	0.0161708
786.466	0.0161106
786.544	0.0160221
786.622	0.0161212
786.700	0.0161866
786.779	0.0161306
786.857	0.0161741
786.935	0.0161749
787.013	0.0161822
787.091	0.0164407
787.169	0.0164239
787.247	0.0165282
787.325	0.0164722
787.404	0.0166113
787.482	0.0167288
787.560	0.0167278
787.638	0.0168971
787.716	0.0168386
787.794	0.0169469
787.872	0.0171709
787.950	0.0170975
788.029	0.0171075
788.107	0.0171010
788.185	0.0171037
788.263	0.0171476
788.341	0.0171896
788.419	0.0170420
788.497	0.0171820
788.575	0.0171178
788.654	0.0172037
788.732	0.0170630
788.810	0.0168668
788.888	0.0169695
788.966	0.0170557
789.044	0.0168916
789.122	0.0169429
789.200	0.0168458
789.279	0.0167129
789.357	0.0167254
789.435	0.0166411
789.513	0.0166000
789.591	0.0164341
789.669	0.0164725
789.747	0.0165087
789.825	0.0163548
789.904	0.0162557
789.982	0.0165085
790.060	0.0163989
790.138	0.0164874
790.216	0.0164672
790.294	0.0164941
790.372	0.0165881
790.450	0.0165954
790.529	0.0165221
790.607	0.0166331
790.685	0.0166456
790.763	0.0166374
790.841	0.0166840
790.919	0.0168169
790.997	0.0167510
791.075	0.0168553
791.154	0.0168764
791.232	0.0167632
791.310	0.0168749
791.388	0.0168434
791.466	0.0168105
791.544	0.0167173
791.622	0.0166351
791.700	0.0166268
791.779	0.0166917
791.857	0.0163763
791.935	0.0165601
792.013	0.0164281
792.091	0.0161779
792.169	0.0161895
792.247	0.0160956
792.325	0.0160923
792.404	0.0160416
792.482	0.0159383
792.560	0.0158942
792.638	0.0158408
792.716	0.0160452
792.794	0.0157832
792.872	0.0158000
792.950	0.0159410
793.029	0.0159384
793.107	0.0160421
793.185	0.0160339
793.263	0.0159559
793.341	0.0163612
793.419	0.0162416
793.497	0.0163069
793.575	0.0163396
793.654	0.0165831
793.732	0.0166264
793.810	0.0165283
793.888	0.0166080
793.966	0.0167555
794.044	0.0168136
794.122	0.0167155
794.200	0.0169695
794.279	0.0169653
794.357	0.0169452
794.435	0.0170934
794.513	0.0169866
794.591	0.0171591
794.669	0.0172311
794.747	0.0172099
794.825	0.0172578
794.904	0.0173112
794.982	0.0174300
795.060	0.0173688
795.138	0.0175124
795.216	0.0173116
795.294	0.0172784
795.372	0.0172383
795.450	0.0172154
795.529	0.0171146
795.607	0.0169061
795.685	0.0169761
795.763	0.0168685
795.841	0.0168323
795.919	0.0167130
795.997	0.0167547
796.075	0.0166471
796.154	0.0166791
796.232	0.0166315
796.310	0.0164894
796.388	0.0164937
796.466	0.0163359
796.544	0.0164906
796.622	0.0165195
796.700	0.0163198
796.779	0.0162437
796.857	0.0164952
796.935	0.0164692
797.013	0.0162555
797.091	0.0164166
797.169	0.0164054
797.247	0.0163621
797.325	0.0164495
797.404	0.0164466
797.482	0.0165926
797.560	0.0165219
797.638	0.0166182
797.716	0.0165224
797.794	0.0165789
797.872	0.0164407
797.950	0.0165233
798.029	0.0165715
798.107	0.0165383
798.185	0.0165824
798.263	0.0166114
798.341	0.0163834
798.419	0.0164925
798.497	0.0163913
798.575	0.0164868
798.654	0.0163755
798.732	0.0162938
798.810	0.0164217
798.888	0.0162642
798.966	0.0162236
799.044	0.0162137
799.122	0.0163246
799.200	0.0161688
799.279	0.0161376
799.357	0.0161257
799.435	0.0160511
799.513	0.0159958
799.591	0.0159312
799.669	0.0160452
799.747	0.0161549
799.825	0.0161397
799.904	0.0162270
799.982	0.0162366
800.060	0.0163150
800.138	0.0163068
800.216	0.0163989
800.294	0.0165306
800.372	0.0166267
800.450	0.0165326
800.529	0.0166608
800.607	0.0169368
800.685	0.0168092
800.763	0.0169175
800.841	0.0170816
800.919	0.0171831
800.997	0.0170816
801.075	0.0171791
801.154	0.0172336
801.232	0.0173582
801.310	0.0173611
801.388	0.0173284
801.466	0.0174997
801.544	0.0171964
801.622	0.0173721
801.700	0.0174219
801.779	0.0173888
801.857	0.0174304
801.935	0.0173916
802.013	0.0171411
802.091	0.0174017
802.169	0.0172447
802.247	0.0171925
802.325	0.0170666
802.404	0.0169765
802.482	0.0169537
802.560	0.0167583
802.638	0.0167825
802.716	0.0165468
802.794	0.0165302
802.872	0.0162738
802.950	0.0162746
803.029	0.0161581
803.107	0.0161149
803.185	0.0159904
803.263	0.0161419
803.341	0.0160320
803.419	0.0159270
803.497	0.0161543
803.575	0.0162270
803.654	0.0160828
803.732	0.0160402
803.810	0.0160704
803.888	0.0161599
803.966	0.0161565
804.044	0.0160870
804.122	0.0161398
804.200	0.0162332
804.279	0.0162650
804.357	0.0161532
804.435	0.0161709
804.513	0.0162299
804.591	0.0162533
804.669	0.0161787
804.747	0.0160759
804.825	0.0162199
804.904	0.0162034
804.982	0.0161679
805.060	0.0162441
805.138	0.0162479
805.216	0.0162926
805.294	0.0162236
805.372	0.0162547
805.450	0.0162717
805.529	0.0161995
805.607	0.0162734
805.685	0.0162778
805.763	0.0163377
805.841	0.0164404
805.919	0.0163708
805.997	0.0165056
806.075	0.0166951
806.154	0.0166399
806.232	0.0165302
806.310	0.0166518
806.388	0.0167831
806.466	0.0168047
806.544	0.0166957
806.622	0.0168169
806.700	0.0168919
806.779	0.0168476
806.857	0.0168691
806.935	0.0169111
807.013	0.0168953
807.091	0.0169461
807.169	0.0169981
807.247	0.0168732
807.325	0.0170439
807.404	0.0170112
807.482	0.0170939
807.560	0.0169913
807.638	0.0169142
807.716	0.0169106
807.794	0.0169202
807.872	0.0168079
807.950	0.0169307
808.029	0.0167379
808.107	0.0168526
808.185	0.0167929
808.263	0.0168430
808.341	0.0169022
808.419	0.0167031
808.497	0.0167156
808.575	0.0168564
808.654	0.0169859
808.732	0.0168061
808.810	0.0168583
808.888	0.0168350
808.966	0.0168589
809.044	0.0168335
809.122	0.0167710
809.200	0.0165561
809.279	0.0166210
809.357	0.0165578
809.435	0.0165480
809.513	0.0164825
809.591	0.0164829
809.669	0.0161729
809.747	0.0162529
809.825	0.0160815
809.904	0.0161031
809.982	0.0161950
810.060	0.0160052
810.138	0.0160628
810.216	0.0160105
810.294	0.0160329
810.372	0.0161022
810.450	0.0162333
810.529	0.0161996
810.607	0.0161543
810.685	0.0162386
810.763	0.0162829
810.841	0.0163059
810.919	0.0165333
810.997	0.0165765
811.075	0.0163740
811.154	0.0166309
811.232	0.0165797
811.310	0.0165063
811.388	0.0164847
811.466	0.0166436
811.544	0.0164847
811.622	0.0166885
811.700	0.0164835
811.779	0.0165320
811.857	0.0165637
811.935	0.0163773
812.013	0.0164534
812.091	0.0165285
812.169	0.0164831
812.247	0.0164061
812.325	0.0164439
812.404	0.0164356
812.482	0.0165319
812.560	0.0165319
812.638	0.0166367
812.716	0.0166123
812.794	0.0167355
812.872	0.0167377
812.950	0.0167086
813.029	0.0168365
813.107	0.0169413
813.185	0.0168469
813.263	0.0167648
813.341	0.0168927
813.419	0.0168458
813.497	0.0168381
813.575	0.0169211
813.654	0.0168091
813.732	0.0168091
813.810	0.0167488
813.888	0.0166825
813.966	0.0167282
814.044	0.0167101
814.122	0.0166515
814.200	0.0165141
814.279	0.0166313
814.357	0.0165203
814.435	0.0164346
814.513	0.0165492
814.591	0.0164732
814.669	0.0164526
814.747	0.0165951
814.825	0.0165484
814.904	0.0164943
814.982	0.0165037
815.060	0.0166610
815.138	0.0166959
815.216	0.0166969
815.294	0.0166187
815.372	0.0166769
815.450	0.0166109
815.529	0.0167322
815.607	0.0166553
815.685	0.0166280
815.763	0.0166708
815.841	0.0166018
815.919	0.0165395
815.997	0.0163876
816.075	0.0165404
816.154	0.0164085
816.232	0.0163554
816.310	0.0164054
816.388	0.0161738
816.466	0.0162424
816.544	0.0162204
816.622	0.0161766
816.700	0.0161255
816.779	0.0162653
816.857	0.0162376
816.935	0.0161993
817.013	0.0163948
817.091	0.0162627
817.169	0.0163464
817.247	0.0164423
817.325	0.0163873
817.404	0.0164917
817.482	0.0165475
817.560	0.0167200
817.638	0.0166421
817.716	0.0166023
817.794	0.0167280
817.872	0.0166624
817.950	0.0168213
818.029	0.0169315
818.107	0.0167514
818.185	0.0170078
818.263	0.0170428
818.341	0.0169882
818.419	0.0169456
818.497	0.0168080
818.575	0.0168386
818.654	0.0167592
818.732	0.0167502
818.810	0.0167598
818.888	0.0167043
818.966	0.0167749
819.044	0.0166732
819.122	0.0164294
819.200	0.0165074
819.279	0.0164542
819.357	0.0165788
819.435	0.0165419
819.513	0.0164355
819.591	0.0165390
819.669	0.0164189
819.747	0.0164437
819.825	0.0163017
819.904	0.0164046
819.982	0.0165217
820.060	0.0163924
820.138	0.0164950
820.216	0.0163866
820.294	0.0163962
820.372	0.0164584
820.450	0.0164581
820.529	0.0163471
820.607	0.0162760
820.685	0.0164624
820.763	0.0165224
820.841	0.0164925
820.919	0.0165237
820.997	0.0165912
821.075	0.0164913
821.154	0.0166463
821.232	0.0165606
821.310	0.0166883
821.388	0.0166605
821.466	0.0167220
821.544	0.0168629
821.622	0.0167282
821.700	0.0167445
821.779	0.0169124
821.857	0.0168607
821.935	0.0166489
822.013	0.0166276
822.091	0.0166805
822.169	0.0165781
822.247	0.0165502
822.325	0.0166028
822.404	0.0163895
822.482	0.0164137
822.560	0.0163784
822.638	0.0163016
822.716	0.0163592
822.794	0.0162169
822.872	0.0162930
822.950	0.0163039
823.029	0.0162389
823.107	0.0163257
823.185	0.0163261
823.263	0.0164782
823.341	0.0164943
823.419	0.0164688
823.497	0.0166670
823.575	0.0168253
823.654	0.0167101
823.732	0.0167067
823.810	0.0168454
823.888	0.0168384
823.966	0.0169889
824.044	0.0169656
824.122	0.0171728
824.200	0.0170127
824.279	0.0170979
824.357	0.0171997
824.435	0.0170341
824.513	0.0169218
824.591	0.0169865
824.669	0.0169127
824.747	0.0170359
824.825	0.0168288
824.904	0.0167320
824.982	0.0167463
825.060	0.0165627
825.138	0.0165244
825.216	0.0165072
825.294	0.0164948
825.372	0.0163922
825.450	0.0162709
825.529	0.0162083
825.607	0.0162661
825.685	0.0162887
825.763	0.0161890
825.841	0.0162399
825.919	0.0160387
825.997	0.0160486
826.075	0.0162130
826.154	0.0162847
826.232	0.0162864
826.310	0.0163007
826.388	0.0162956
826.466	0.0163795
826.544	0.0165432
826.622	0.0165971
826.700	0.0167035
826.779	0.0166440
826.857	0.0167654
826.935	0.0168670
827.013	0.0167439
827.091	0.0167229
827.169	0.0167948
827.247	0.0168275
827.325	0.0166793
827.404	0.0167326
827.482	0.0167149
827.560	0.0165679
827.638	0.0167021
827.716	0.0166544
827.794	0.0165939
827.872	0.0164828
827.950	0.0164054
828.029	0.0164231
828.107	0.0163189
828.185	0.0164742
828.263	0.0164275
828.341	0.0161892
828.419	0.0163810
828.497	0.0162569
828.575	0.0164603
828.654	0.0162175
828.732	0.0162924
828.810	0.0162642
828.888	0.0163335
828.966	0.0163346
829.044	0.0164420
829.122	0.0164042
829.200	0.0164236
829.279	0.0165246
829.357	0.0165692
829.435	0.0166370
829.513	0.0168089
829.591	0.0167894
829.669	0.0166850
829.747	0.0168524
829.825	0.0170316
829.904	0.0170779
829.982	0.0169439
830.060	0.0171819
830.138	0.0170371
830.216	0.0169489
830.294	0.0170647
830.372	0.0170542
830.450	0.0170694
830.529	0.0169130
830.607	0.0168610
830.685	0.0169337
830.763	0.0168446
830.841	0.0168465
830.919	0.0165269
830.997	0.0166240
831.075	0.0165434
831.154	0.0163929
831.232	0.0164463
831.310	0.0164237
831.388	0.0163054
831.466	0.0162518
831.544	0.0161536
831.622	0.0163152
831.700	0.0161531
831.779	0.0162343
831.857	0.0163069
831.935	0.0163360
832.013	0.0162114
832.091	0.0163821
832.169	0.0164420
832.247	0.0164802
832.325	0.0164877
832.404	0.0166823
832.482	0.0165388
832.560	0.0166635
832.638	0.0166419
832.716	0.0167511
832.794	0.0168371
832.872	0.0169034
832.950	0.0169637
833.029	0.0169891
833.107	0.0168024
833.185	0.0167120
833.263	0.0167889
833.341	0.0168685
833.419	0.0169793
833.497	0.0167743
833.575	0.0167287
833.654	0.0167482
833.732	0.0168105
833.810	0.0165749
833.888	0.0164406
833.966	0.0164944
834.044	0.0163940
834.122	0.0164837
834.200	0.0164429
834.279	0.0163488
834.357	0.0162868
834.435	0.0163770
834.513	0.0161540
834.591	0.0161497
834.669	0.0162663
834.747	0.0161292
834.825	0.0162679
834.904	0.0164010
834.982	0.0164159
835.060	0.0161433
835.138	0.0163547
835.216	0.0164783
835.294	0.0163531
835.372	0.0165070
835.450	0.0163591
835.529	0.0164207
835.607	0.0166816
835.685	0.0167451
835.763	0.0167239
835.841	0.0167502
835.919	0.0166755
835.997	0.0167458
836.075	0.0169883
836.154	0.0168726
836.232	0.0167953
836.310	0.0168246
836.388	0.0168347
836.466	0.0168006
836.544	0.0167088
836.622	0.0166214
836.700	0.0166527
836.779	0.0166730
836.857	0.0164813
836.935	0.0164222
837.013	0.0164334
837.091	0.0165524
837.169	0.0165125
837.247	0.0164137
837.325	0.0164894
837.404	0.0164217
837.482	0.0163872
837.560	0.0164666
837.638	0.0164556
837.716	0.0163999
837.794	0.0165644
837.872	0.0165434
837.950	0.0164163
838.029	0.0166301
838.107	0.0166026
838.185	0.0166712
838.263	0.0167258
838.341	0.0165427
838.419	0.0168340
838.497	0.0167981
838.575	0.0166801
838.654	0.0166846
838.732	0.0167084
838.810	0.0167235
838.888	0.0167208
838.966	0.0167490
839.044	0.0167131
839.122	0.0167948
839.200	0.0168939
839.279	0.0168557
839.357	0.0169361
839.435	0.0168463
839.513	0.0168447
839.591	0.0168019
839.669	0.0167852
839.747	0.0167307
839.825	0.0165945
839.904	0.0165533
839.982	0.0165910
840.060	0.0164507
840.138	0.0163102
840.216	0.0163945
840.294	0.0164017
840.372	0.0162009
840.450	0.0161617
840.529	0.0161347
840.607	0.0161954
840.685	0.0161922
840.763	0.0162188
840.841	0.0161926
840.919	0.0162714
840.997	0.0163762
841.075	0.0164471
841.154	0.0165356
841.232	0.0166936
841.310	0.0167702
841.388	0.0167298
841.466	0.0169075
841.544	0.0168790
841.622	0.0168541
841.700	0.0167527
841.779	0.0166738
841.857	0.0169023
841.935	0.0169513
842.013	0.0167722
842.091	0.0167239
842.169	0.0167035
842.247	0.0167342
842.325	0.0166475
842.404	0.0166852
842.482	0.0166283
842.560	0.0165082
842.638	0.0166489
842.716	0.0165929
842.794	0.0166050
842.872	0.0164616
842.950	0.0163989
843.029	0.0164215
843.107	0.0163916
843.185	0.0163268
843.263	0.0164574
843.341	0.0163290
843.419	0.0164312
843.497	0.0164735
843.575	0.0165547
843.654	0.0163560
843.732	0.0165589
843.810	0.0165871
843.888	0.0164981
843.966	0.0166294
844.044	0.0167374
844.122	0.0166917
844.200	0.0167580
844.279	0.0168750
844.357	0.0167527
844.435	0.0167674
844.513	0.0167808
844.591	0.0168227
844.669	0.0169046
844.747	0.0167921
844.825	0.0167456
844.904	0.0168430
844.982	0.0167383
845.060	0.0166933
845.138	0.0164798
845.216	0.0167068
845.294	0.0167124
845.372	0.0165483
845.450	0.0165038
845.529	0.0165199
845.607	0.0166386
845.685	0.0164552
845.763	0.0165215
845.841	0.0165651
845.919	0.0164155
845.997	0.0165459
846.075	0.0163024
846.154	0.0162686
846.232	0.0162681
846.310	0.0161980
846.388	0.0162354
846.466	0.0163173
846.544	0.0162935
846.622	0.0163844
846.700	0.0161813
846.779	0.0161797
846.857	0.0163297
846.935	0.0163773
847.013	0.0163201
847.091	0.0165010
847.169	0.0165720
847.247	0.0165761
847.325	0.0165573
847.404	0.0166821
847.482	0.0167181
847.560	0.0167887
847.638	0.0168953
847.716	0.0169537
847.794	0.0168852
847.872	0.0168947
847.950	0.0168246
848.029	0.0169830
848.107	0.0169499
848.185	0.0168391
848.263	0.0169615
848.341	0.0168111
848.419	0.0167470
848.497	0.0168666
848.575	0.0168737
848.654	0.0169105
848.732	0.0168946
848.810	0.0167838
848.888	0.0167953
848.966	0.0167431
849.044	0.0165565
849.122	0.0164871
849.200	0.0166214
849.279	0.0166721
849.357	0.0165282
849.435	0.0164552
849.513	0.0164533
849.591	0.0164386
849.669	0.0163795
849.747	0.0165076
849.825	0.0165820
849.904	0.0163718
849.982	0.0165130
850.060	0.0165213
850.138	0.0163667
850.216	0.0163830
850.294	0.0165517
850.372	0.0166174
850.450	0.0164915
850.529	0.0164470
850.607	0.0165762
850.685	0.0164740
850.763	0.0164989
850.841	0.0164223
850.919	0.0164425
850.997	0.0164447
851.075	0.0164063
851.154	0.0165158
851.232	0.0162635
851.310	0.0163499
851.388	0.0163185
851.466	0.0162917
851.544	0.0163140
851.622	0.0162215
851.700	0.0161675
851.779	0.0160785
851.857	0.0161124
851.935	0.0161764
852.013	0.0161731
852.091	0.0162689
852.169	0.0161996
852.247	0.0162287
852.325	0.0163163
852.404	0.0163663
852.482	0.0165020
852.560	0.0163906
852.638	0.0164787
852.716	0.0167053
852.794	0.0165168
852.872	0.0168082
852.950	0.0165897
853.029	0.0166341
853.107	0.0166621
853.185	0.0166980
853.263	0.0167510
853.341	0.0168905
853.419	0.0168291
853.497	0.0167641
853.575	0.0167199
853.654	0.0168516
853.732	0.0169164
853.810	0.0168628
853.888	0.0169855
853.966	0.0169077
854.044	0.0169588
854.122	0.0169710
854.200	0.0170126
854.279	0.0170343
854.357	0.0169900
854.435	0.0170117
854.513	0.0170013
854.591	0.0170541
854.669	0.0170829
854.747	0.0171085
854.825	0.0168843
854.904	0.0169382
854.982	0.0168772
855.060	0.0169602
855.138	0.0169134
855.216	0.0167492
855.294	0.0166434
855.372	0.0165182
855.450	0.0164091
855.529	0.0162715
855.607	0.0163314
855.685	0.0162260
855.763	0.0162763
855.841	0.0163047
855.919	0.0164347
855.997	0.0163638
856.075	0.0163058
856.154	0.0163657
856.232	0.0164776
856.310	0.0163071
856.388	0.0163874
856.466	0.0162792
856.544	0.0163146
856.622	0.0163666
856.700	0.0163612
856.779	0.0163211
856.857	0.0162046
856.935	0.0162714
857.013	0.0161924
857.091	0.0161945
857.169	0.0163002
857.247	0.0163267
857.325	0.0162910
857.404	0.0163293
857.482	0.0162129
857.560	0.0163649
857.638	0.0164073
857.716	0.0164111
857.794	0.0163249
857.872	0.0162440
857.950	0.0164177
858.029	0.0164042
858.107	0.0163161
858.185	0.0163309
858.263	0.0163531
858.341	0.0164418
858.419	0.0163264
858.497	0.0162357
858.575	0.0163811
858.654	0.0164464
858.732	0.0164760
858.810	0.0165202
858.888	0.0164699
858.966	0.0166817
859.044	0.0165421
859.122	0.0166807
859.200	0.0166693
859.279	0.0166117
859.357	0.0166615
859.435	0.0168060
859.513	0.0169053
859.591	0.0169428
859.669	0.0168359
859.747	0.0170346
859.825	0.0168896
859.904	0.0170325
859.982	0.0170795
860.060	0.0169773
860.138	0.0169941
860.216	0.0170655
860.294	0.0169823
860.372	0.0169035
860.450	0.0168355
860.529	0.0169042
860.607	0.0168628
860.685	0.0168044
860.763	0.0167290
860.841	0.0166616
860.919	0.0165928
860.997	0.0167284
861.075	0.0164906
861.154	0.0164654
861.232	0.0163919
861.310	0.0165504
861.388	0.0164880
861.466	0.0163802
861.544	0.0162819
861.622	0.0164790
861.700	0.0164775
861.779	0.0164027
861.857	0.0163455
861.935	0.0163669
862.013	0.0165233
862.091	0.0164536
862.169	0.0164293
862.247	0.0163679
862.325	0.0165672
862.404	0.0166042
862.482	0.0164172
862.560	0.0164803
862.638	0.0164504
862.716	0.0164568
862.794	0.0164902
862.872	0.0164259
862.950	0.0163573
863.029	0.0165204
863.107	0.0166341
863.185	0.0164735
863.263	0.0165137
863.341	0.0165004
863.419	0.0165691
863.497	0.0166525
863.575	0.0166610
863.654	0.0165218
863.732	0.0166379
863.810	0.0166459
863.888	0.0166493
863.966	0.0166759
864.044	0.0166823
864.122	0.0167606
864.200	0.0167271
864.279	0.0165763
864.357	0.0164803
864.435	0.0165807
864.513	0.0165476
864.591	0.0164645
864.669	0.0163683
864.747	0.0164358
864.825	0.0165015
864.904	0.0166389
864.982	0.0165053
865.060	0.0164635
865.138	0.0165319
865.216	0.0166200
865.294	0.0168209
865.372	0.0167310
865.450	0.0167110
865.529	0.0166571
865.607	0.0166875
865.685	0.0166946
865.763	0.0166841
865.841	0.0166096
865.919	0.0167537
865.997	0.0166824
866.075	0.0168351
866.154	0.0167656
866.232	0.0167912
866.310	0.0168953
866.388	0.0168233
866.466	0.0167482
866.544	0.0168150
866.622	0.0167850
866.700	0.0168379
866.779	0.0167389
866.857	0.0167214
866.935	0.0168337
867.013	0.0166196
867.091	0.0166105
867.169	0.0166059
867.247	0.0166451
867.325	0.0167719
867.404	0.0165620
867.482	0.0166314
867.560	0.0166702
867.638	0.0165263
867.716	0.0165074
867.794	0.0166507
867.872	0.0165483
867.950	0.0165253
868.029	0.0165160
868.107	0.0164130
868.185	0.0164532
868.263	0.0162741
868.341	0.0164175
868.419	0.0163673
868.497	0.0164546
868.575	0.0163313
868.654	0.0164168
868.732	0.0166071
868.810	0.0164915
868.888	0.0164930
868.966	0.0165057
869.044	0.0165733
869.122	0.0164997
869.200	0.0166042
869.279	0.0166032
869.357	0.0165833
869.435	0.0165822
869.513	0.0166582
869.591	0.0166523
869.669	0.0165069
869.747	0.0164796
869.825	0.0164117
869.904	0.0164330
869.982	0.0164002
870.060	0.0164419
870.138	0.0163552
870.216	0.0164751
870.294	0.0164605
870.372	0.0164305
870.450	0.0163100
870.529	0.0166234
870.607	0.0166649
870.685	0.0164985
870.763	0.0166862
870.841	0.0166434
870.919	0.0166157
870.997	0.0167419
871.075	0.0169027
871.154	0.0168535
871.232	0.0167166
871.310	0.0166812
871.388	0.0165543
871.466	0.0167185
871.544	0.0165776
871.622	0.0166832
871.700	0.0166087
871.779	0.0164249
871.857	0.0164422
871.935	0.0164063
872.013	0.0162962
872.091	0.0164965
872.169	0.0165192
872.247	0.0165931
872.325	0.0164881
872.404	0.0165916
872.482	0.0166479
872.560	0.0168033
872.638	0.0168817
872.716	0.0167626
872.794	0.0167049
872.872	0.0168627
872.950	0.0168562
873.029	0.0168320
873.107	0.0166663
873.185	0.0166319
873.263	0.0165843
873.341	0.0164664
873.419	0.0164695
873.497	0.0164582
873.575	0.0164075
873.654	0.0164208
873.732	0.0164224
873.810	0.0164476
873.888	0.0165714
873.966	0.0165485
874.044	0.0164217
874.122	0.0164350
874.200	0.0164302
874.279	0.0163798
874.357	0.0164649
874.435	0.0164198
874.513	0.0163638
874.591	0.0162949
874.669	0.0163822
874.747	0.0162410
874.825	0.0162285
874.904	0.0163860
874.982	0.0163565
875.060	0.0163422
875.138	0.0163264
875.216	0.0164362
875.294	0.0164070
875.372	0.0163945
875.450	0.0164762
875.529	0.0165601
875.607	0.0165479
875.685	0.0167340
875.763	0.0166418
875.841	0.0166515
875.919	0.0167065
875.997	0.0167104
876.075	0.0166692
876.154	0.0165542
876.232	0.0166054
876.310	0.0167355
876.388	0.0166708
876.466	0.0166619
876.544	0.0166918
876.622	0.0166282
876.700	0.0164946
876.779	0.0166350
876.857	0.0166677
876.935	0.0166689
877.013	0.0167278
877.091	0.0168514
877.169	0.0167966
877.247	0.0167911
877.325	0.0166217
877.404	0.0166821
877.482	0.0165595
877.560	0.0167956
877.638	0.0167250
877.716	0.0165283
877.794	0.0164490
877.872	0.0164339
877.950	0.0164498
878.029	0.0165164
878.107	0.0163773
878.185	0.0162785
878.263	0.0162418
878.341	0.0162502
878.419	0.0162347
878.497	0.0162444
878.575	0.0163779
878.654	0.0163540
878.732	0.0164385
878.810	0.0165283
878.888	0.0165193
878.966	0.0165131
879.044	0.0165714
879.122	0.0165764
879.200	0.0165441
879.279	0.0165485
879.357	0.0166607
879.435	0.0166286
879.513	0.0167568
879.591	0.0166203
879.669	0.0166969
879.747	0.0167355
879.825	0.0167370
879.904	0.0168522
879.982	0.0168155
880.060	0.0168420
880.138	0.0168041
880.216	0.0168663
880.294	0.0167220
880.372	0.0167881
880.450	0.0167771
880.529	0.0166954
880.607	0.0165457
880.685	0.0165258
880.763	0.0164636
880.841	0.0163412
880.919	0.0162989
880.997	0.0162092
881.075	0.0162926
881.154	0.0161852
881.232	0.0161401
881.310	0.0161089
881.388	0.0161445
881.466	0.0161206
881.544	0.0162313
881.622	0.0163210
881.700	0.0163523
881.779	0.0162638
881.857	0.0163862
881.935	0.0162949
882.013	0.0164624
882.091	0.0164453
882.169	0.0165308
882.247	0.0166773
882.325	0.0166032
882.404	0.0167285
882.482	0.0167321
882.560	0.0166334
882.638	0.0166469
882.716	0.0168524
882.794	0.0168448
882.872	0.0168459
882.950	0.0169149
883.029	0.0169057
883.107	0.0168623
883.185	0.0168142
883.263	0.0167792
883.341	0.0168181
883.419	0.0167876
883.497	0.0166646
883.575	0.0167216
883.654	0.0167845
883.732	0.0165720
883.810	0.0167564
883.888	0.0165160
883.966	0.0163013
884.044	0.0164307
884.122	0.0163790
884.200	0.0163667
884.279	0.0164340
884.357	0.0163142
884.435	0.0163927
884.513	0.0163020
884.591	0.0162872
884.669	0.0163603
884.747	0.0163306
884.825	0.0162149
884.904	0.0161627
884.982	0.0162665
885.060	0.0162847
885.138	0.0162485
885.216	0.0161911
885.294	0.0162545
885.372	0.0163380
885.450	0.0165086
885.529	0.0164870
885.607	0.0166719
885.685	0.0165933
885.763	0.0166277
885.841	0.0169264
885.919	0.0169018
885.997	0.0170102
886.075	0.0169937
886.154	0.0170708
886.232	0.0171220
886.310	0.0170126
886.388	0.0170538
886.466	0.0170878
886.544	0.0169124
886.622	0.0171087
886.700	0.0169801
886.779	0.0169003
886.857	0.0168139
886.935	0.0167570
887.013	0.0167153
887.091	0.0165270
887.169	0.0164874
887.247	0.0163596
887.325	0.0164140
887.404	0.0164042
887.482	0.0163615
887.560	0.0162518
887.638	0.0161389
887.716	0.0162267
887.794	0.0162441
887.872	0.0161622
887.950	0.0161870
888.029	0.0161765
888.107	0.0163165
888.185	0.0163171
888.263	0.0163314
888.341	0.0163065
888.419	0.0162912
888.497	0.0163419
888.575	0.0165807
888.654	0.0165808
888.732	0.0166798
888.810	0.0167049
888.888	0.0168137
888.966	0.0168020
889.044	0.0169183
889.122	0.0169175
889.200	0.0168758
889.279	0.0169032
889.357	0.0168441
889.435	0.0169094
889.513	0.0167992
889.591	0.0168022
889.669	0.0167360
889.747	0.0166971
889.825	0.0167256
889.904	0.0168214
889.982	0.0166406
890.060	0.0167228
890.138	0.0166386
890.216	0.0164404
890.294	0.0165704
890.372	0.0164034
890.450	0.0165417
890.529	0.0165251
890.607	0.0162953
890.685	0.0163136
890.763	0.0164857
890.841	0.0165145
890.919	0.0162776
890.997	0.0162562
891.075	0.0163418
891.154	0.0163615
891.232	0.0162327
891.310	0.0163866
891.388	0.0164185
891.466	0.0164459
891.544	0.0166605
891.622	0.0166240
891.700	0.0167128
891.779	0.0167859
891.857	0.0168784
891.935	0.0168027
892.013	0.0168549
892.091	0.0169652
892.169	0.0169954
892.247	0.0169024
892.325	0.0168806
892.404	0.0168070
892.482	0.0169969
892.560	0.0169461
892.638	0.0167271
892.716	0.0167843
892.794	0.0168816
892.872	0.0168504
892.950	0.0167679
893.029	0.0168130
893.107	0.0167847
893.185	0.0167465
893.263	0.0166835
893.341	0.0167144
893.419	0.0167110
893.497	0.0165101
893.575	0.0165884
893.654	0.0165592
893.732	0.0164649
893.810	0.0163779
893.888	0.0164093
893.966	0.0164560
894.044	0.0162900
894.122	0.0162953
894.200	0.0162401
894.279	0.0161524
894.357	0.0161839
894.435	0.0162777
894.513	0.0162928
894.591	0.0161972
894.669	0.0161634
894.747	0.0162646
894.825	0.0163900
894.904	0.0163636
894.982	0.0164347
895.060	0.0166329
895.138	0.0166006
895.216	0.0166828
895.294	0.0167938
895.372	0.0166418
895.450	0.0167776
895.529	0.0168580
895.607	0.0167773
895.685	0.0168295
895.763	0.0169048
895.841	0.0167618
895.919	0.0166834
895.997	0.0166878
896.075	0.0166475
896.154	0.0167091
896.232	0.0165845
896.310	0.0166129
896.388	0.0165916
896.466	0.0165453
896.544	0.0165853
896.622	0.0165102
896.700	0.0164101
896.779	0.0164444
896.857	0.0165412
896.935	0.0164307
897.013	0.0164291
897.091	0.0166055
897.169	0.0163870
897.247	0.0164008
897.325	0.0166085
897.404	0.0165570
897.482	0.0165302
897.560	0.0166435
897.638	0.0165791
897.716	0.0166142
897.794	0.0165478
897.872	0.0165900
897.950	0.0166440
898.029	0.0165752
898.107	0.0164844
898.185	0.0164950
898.263	0.0166096
898.341	0.0165799
898.419	0.0165391
898.497	0.0166239
898.575	0.0166429
898.654	0.0165597
898.732	0.0168235
898.810	0.0167463
898.888	0.0168956
898.966	0.0168342
899.044	0.0168510
899.122	0.0168175
899.200	0.0167908
899.279	0.0166930
899.357	0.0168349
899.435	0.0167287
899.513	0.0166963
899.591	0.0165690
899.669	0.0165946
899.747	0.0165762
899.825	0.0165627
899.904	0.0164953
899.982	0.0165183
900.060	0.0164466
900.138	0.0165931
900.216	0.0165968
900.294	0.0164536
900.372	0.0165804
900.450	0.0166089
900.529	0.0165667
900.607	0.0165160
900.685	0.0165707
900.763	0.0165510
900.841	0.0165034
900.919	0.0164619
900.997	0.0164085
901.075	0.0164624
901.154	0.0163031
901.232	0.0163171
901.310	0.0164304
901.388	0.0164017
901.466	0.0163265
901.544	0.0164337
901.622	0.0164800
901.700	0.0165162
901.779	0.0164537
901.857	0.0165026
901.935	0.0165142
902.013	0.0166027
902.091	0.0163776
902.169	0.0165656
902.247	0.0166734
902.325	0.0165127
902.404	0.0164527
902.482	0.0165112
902.560	0.0164314
902.638	0.0165076
902.716	0.0164959
902.794	0.0165575
902.872	0.0166235
902.950	0.0166254
903.029	0.0164346
903.107	0.0165777
903.185	0.0166037
903.263	0.0163901
903.341	0.0164290
903.419	0.0164709
903.497	0.0166021
903.575	0.0166498
903.654	0.0165868
903.732	0.0166243
903.810	0.0165626
903.888	0.0165829
903.966	0.0166587
904.044	0.0166175
904.122	0.0165681
904.200	0.0165372
904.279	0.0163989
904.357	0.0165852
904.435	0.0165296
904.513	0.0164825
904.591	0.0164268
904.669	0.0164261
904.747	0.0166200
904.825	0.0165495
904.904	0.0164723
904.982	0.0165145
905.060	0.0164727
905.138	0.0165453
905.216	0.0165994
905.294	0.0166013
905.372	0.0164615
905.450	0.0165583
905.529	0.0166612
905.607	0.0164771
905.685	0.0164729
905.763	0.0166634
905.841	0.0166249
905.919	0.0165670
905.997	0.0165964
906.075	0.0165322
906.154	0.0164671
906.232	0.0165063
906.310	0.0166283
906.388	0.0165421
906.466	0.0164244
906.544	0.0164412
906.622	0.0163612
906.700	0.0164108
906.779	0.0164857
906.857	0.0165086
906.935	0.0165058
907.013	0.0165346
907.091	0.0165507
907.169	0.0165900
907.247	0.0166579
907.325	0.0167529
907.404	0.0165290
907.482	0.0166559
907.560	0.0168568
907.638	0.0168346
907.716	0.0168192
907.794	0.0168147
907.872	0.0168430
907.950	0.0168427
908.029	0.0167358
908.107	0.0165955
908.185	0.0166200
908.263	0.0167120
908.341	0.0167209
908.419	0.0165748
908.497	0.0166292
908.575	0.0166251
908.654	0.0166129
908.732	0.0166778
908.810	0.0165745
908.888	0.0166387
908.966	0.0166567
909.044	0.0165609
909.122	0.0165779
909.200	0.0166643
909.279	0.0166314
909.357	0.0165665
909.435	0.0166750
909.513	0.0165681
909.591	0.0164690
909.669	0.0163728
909.747	0.0163256
909.825	0.0163807
909.904	0.0164256
909.982	0.0163560
910.060	0.0161895
910.138	0.0162954
910.216	0.0162170
910.294	0.0163147
910.372	0.0163243
910.450	0.0163249
910.529	0.0162109
910.607	0.0161472
910.685	0.0163112
910.763	0.0161182
910.841	0.0162641
910.919	0.0161923
910.997	0.0162568
911.075	0.0162550
911.154	0.0163641
911.232	0.0164350
911.310	0.0162872
911.388	0.0163426
911.466	0.0165200
911.544	0.0163403
911.622	0.0165672
911.700	0.0164319
911.779	0.0165945
911.857	0.0168628
911.935	0.0168587
912.013	0.0168456
912.091	0.0169901
912.169	0.0169852
912.247	0.0169054
912.325	0.0169453
912.404	0.0167974
912.482	0.0169765
912.560	0.0170483
912.638	0.0170093
912.716	0.0169866
912.794	0.0169302
912.872	0.0169807
912.950	0.0168777
913.029	0.0168874
913.107	0.0170587
913.185	0.0168828
913.263	0.0168948
913.341	0.0167446
913.419	0.0167155
913.497	0.0167113
913.575	0.0168454
913.654	0.0166859
913.732	0.0167413
913.810	0.0167880
913.888	0.0166563
913.966	0.0168270
914.044	0.0167432
914.122	0.0165746
914.200	0.0165810
914.279	0.0166875
914.357	0.0165637
914.435	0.0166557
914.513	0.0166215
914.591	0.0166138
914.669	0.0166669
914.747	0.0166355
914.825	0.0164664
914.904	0.0163954
914.982	0.0163129
915.060	0.0163384
915.138	0.0163075
915.216	0.0164977
915.294	0.0162822
915.372	0.0161556
915.450	0.0163170
915.529	0.0161075
915.607	0.0161745
915.685	0.0163876
915.763	0.0164225
915.841	0.0162527
915.919	0.0163203
915.997	0.0163279
916.075	0.0163487
916.154	0.0164566
916.232	0.0164249
916.310	0.0166527
916.388	0.0164505
916.466	0.0163943
916.544	0.0165091
916.622	0.0164703
916.700	0.0163990
916.779	0.0163660
916.857	0.0163084
916.935	0.0163998
917.013	0.0163170
917.091	0.0163148
917.169	0.0164095
917.247	0.0164722
917.325	0.0165677
917.404	0.0164671
917.482	0.0165356
917.560	0.0164286
917.638	0.0163906
917.716	0.0165205
917.794	0.0166355
917.872	0.0165534
917.950	0.0167876
918.029	0.0167518
918.107	0.0168453
918.185	0.0169288
918.263	0.0168520
918.341	0.0169307
918.419	0.0168874
918.497	0.0169778
918.575	0.0169039
918.654	0.0168822
918.732	0.0168484
918.810	0.0170210
918.888	0.0170351
918.966	0.0168602
919.044	0.0168525
919.122	0.0167271
919.200	0.0169531
919.279	0.0168105
919.357	0.0168705
919.435	0.0166652
919.513	0.0167950
919.591	0.0167237
919.669	0.0167094
919.747	0.0166744
919.825	0.0165448
919.904	0.0165300
