06/03/2022	13:53:24	Ver.	4.1	UNKNOWN
Optical Delay	599.988409	Delta X		0.078125	Sweeps	1	Scan Rate	0/0
Coordinates	Axis 1	NaN	Axis 2	NaN	Axis 3	NaN	Axis 4	NaN	Axis 5	NaN	Axis 6	0.000000
TX Power	0.000000	RX Power	0.000000

599.988	0.0165979
600.067	0.0165666
600.145	0.0164765
600.223	0.0166311
600.301	0.0165993
600.379	0.0165530
600.457	0.0165338
600.535	0.0166646
600.613	0.0165691
600.692	0.0164409
600.770	0.0165869
600.848	0.0167284
600.926	0.0165060
601.004	0.0165807
601.082	0.0166737
601.160	0.0165406
601.238	0.0165221
601.317	0.0165404
601.395	0.0166227
601.473	0.0166478
601.551	0.0165649
601.629	0.0166796
601.707	0.0166950
601.785	0.0165813
601.863	0.0165340
601.942	0.0165643
602.020	0.0164373
602.098	0.0165878
602.176	0.0166424
602.254	0.0165876
602.332	0.0167014
602.410	0.0165733
602.488	0.0165478
602.567	0.0165187
602.645	0.0164989
602.723	0.0166324
602.801	0.0166930
602.879	0.0165768
602.957	0.0165760
603.035	0.0165225
603.113	0.0165884
603.192	0.0166130
603.270	0.0167815
603.348	0.0166442
603.426	0.0165446
603.504	0.0166376
603.582	0.0166776
603.660	0.0166386
603.738	0.0165150
603.817	0.0165943
603.895	0.0166815
603.973	0.0166881
604.051	0.0166133
604.129	0.0166441
604.207	0.0166980
604.285	0.0167052
604.363	0.0166566
604.442	0.0166016
604.520	0.0165639
604.598	0.0165600
604.676	0.0165849
604.754	0.0165630
604.832	0.0166758
604.910	0.0165951
604.988	0.0165807
605.067	0.0167124
605.145	0.0166405
605.223	0.0166535
605.301	0.0165380
605.379	0.0166714
605.457	0.0166656
605.535	0.0166260
605.613	0.0164869
605.692	0.0166469
605.770	0.0166687
605.848	0.0165723
605.926	0.0165988
606.004	0.0167071
606.082	0.0166047
606.160	0.0167234
606.238	0.0165984
606.317	0.0165695
606.395	0.0164729
606.473	0.0166286
606.551	0.0167856
606.629	0.0165635
606.707	0.0165176
606.785	0.0165885
606.863	0.0166679
606.942	0.0164785
607.020	0.0166078
607.098	0.0165070
607.176	0.0166273
607.254	0.0166267
607.332	0.0165839
607.410	0.0167200
607.488	0.0167335
607.567	0.0166429
607.645	0.0166719
607.723	0.0166078
607.801	0.0166546
607.879	0.0165648
607.957	0.0165294
608.035	0.0165707
608.113	0.0164011
608.192	0.0166580
608.270	0.0166933
608.348	0.0166483
608.426	0.0164767
608.504	0.0166374
608.582	0.0165674
608.660	0.0165832
608.738	0.0165192
608.817	0.0166278
608.895	0.0166389
608.973	0.0165408
609.051	0.0166527
609.129	0.0166476
609.207	0.0165678
609.285	0.0164749
609.363	0.0165779
609.442	0.0166284
609.520	0.0165967
609.598	0.0166083
609.676	0.0165877
609.754	0.0166106
609.832	0.0164882
609.910	0.0165786
609.988	0.0165593
610.067	0.0166767
610.145	0.0166669
610.223	0.0165770
610.301	0.0165587
610.379	0.0166301
610.457	0.0167396
610.535	0.0167446
610.613	0.0166520
610.692	0.0166047
610.770	0.0166237
610.848	0.0166095
610.926	0.0166660
611.004	0.0166309
611.082	0.0164374
611.160	0.0165319
611.238	0.0165878
611.317	0.0166218
611.395	0.0166690
611.473	0.0165435
611.551	0.0167087
611.629	0.0165810
611.707	0.0165368
611.785	0.0165815
611.863	0.0165401
611.942	0.0166441
612.020	0.0165478
612.098	0.0166409
612.176	0.0165716
612.254	0.0165878
612.332	0.0165946
612.410	0.0165604
612.488	0.0166418
612.567	0.0166355
612.645	0.0165877
612.723	0.0166714
612.801	0.0166742
612.879	0.0166568
612.957	0.0165194
613.035	0.0166685
613.113	0.0166559
613.192	0.0165923
613.270	0.0165276
613.348	0.0165636
613.426	0.0165508
613.504	0.0166893
613.582	0.0164951
613.660	0.0166079
613.738	0.0166187
613.817	0.0165966
613.895	0.0166302
613.973	0.0165965
614.051	0.0165970
614.129	0.0165384
614.207	0.0165080
614.285	0.0166609
614.363	0.0165496
614.442	0.0164220
614.520	0.0165205
614.598	0.0166000
614.676	0.0165262
614.754	0.0165800
614.832	0.0166084
614.910	0.0164875
614.988	0.0165919
615.067	0.0166458
615.145	0.0167033
615.223	0.0166451
615.301	0.0165787
615.379	0.0165768
615.457	0.0166595
615.535	0.0166582
615.613	0.0165299
615.692	0.0165533
615.770	0.0164301
615.848	0.0165342
615.926	0.0165121
616.004	0.0166302
616.082	0.0165148
616.160	0.0164799
616.238	0.0164870
616.317	0.0165388
616.395	0.0165198
616.473	0.0165226
616.551	0.0165160
616.629	0.0166580
616.707	0.0164975
616.785	0.0165035
616.863	0.0165045
616.942	0.0165015
617.020	0.0165717
617.098	0.0164919
617.176	0.0165320
617.254	0.0164590
617.332	0.0164802
617.410	0.0165205
617.488	0.0166177
617.567	0.0165421
617.645	0.0166543
617.723	0.0166441
617.801	0.0166214
617.879	0.0166022
617.957	0.0166209
618.035	0.0165694
618.113	0.0164528
618.192	0.0164862
618.270	0.0166274
618.348	0.0165259
618.426	0.0166235
618.504	0.0166330
618.582	0.0166515
618.660	0.0164282
618.738	0.0165716
618.817	0.0165080
618.895	0.0165089
618.973	0.0166093
619.051	0.0164197
619.129	0.0165857
619.207	0.0166591
619.285	0.0165013
619.363	0.0166342
619.442	0.0166492
619.520	0.0166624
619.598	0.0164039
619.676	0.0165917
619.754	0.0165809
619.832	0.0165308
619.910	0.0164994
619.988	0.0165781
620.067	0.0165430
620.145	0.0166283
620.223	0.0165827
620.301	0.0165913
620.379	0.0166096
620.457	0.0166480
620.535	0.0165567
620.613	0.0165225
620.692	0.0164413
620.770	0.0166572
620.848	0.0165075
620.926	0.0165485
621.004	0.0165977
621.082	0.0165752
621.160	0.0165835
621.238	0.0165575
621.317	0.0166307
621.395	0.0166109
621.473	0.0165715
621.551	0.0165736
621.629	0.0166715
621.707	0.0166299
621.785	0.0166290
621.863	0.0166164
621.942	0.0166047
622.020	0.0165877
622.098	0.0165767
622.176	0.0166705
622.254	0.0164992
622.332	0.0166199
622.410	0.0164775
622.488	0.0165823
622.567	0.0165123
622.645	0.0165414
622.723	0.0164841
622.801	0.0164654
622.879	0.0166268
622.957	0.0165736
623.035	0.0165224
623.113	0.0165293
623.192	0.0165611
623.270	0.0164767
623.348	0.0164991
623.426	0.0165815
623.504	0.0164629
623.582	0.0165393
623.660	0.0165421
623.738	0.0165380
623.817	0.0166116
623.895	0.0166273
623.973	0.0166214
624.051	0.0166425
624.129	0.0166158
624.207	0.0163872
624.285	0.0166624
624.363	0.0164658
624.442	0.0165332
624.520	0.0165622
624.598	0.0165826
624.676	0.0165364
624.754	0.0166605
624.832	0.0165664
624.910	0.0166026
624.988	0.0165294
625.067	0.0167111
625.145	0.0167015
625.223	0.0164505
625.301	0.0166127
625.379	0.0166837
625.457	0.0165492
625.535	0.0165194
625.613	0.0166398
625.692	0.0165482
625.770	0.0166866
625.848	0.0165158
625.926	0.0165241
626.004	0.0164589
626.082	0.0164300
626.160	0.0165940
626.238	0.0166133
626.317	0.0164352
626.395	0.0165515
626.473	0.0165047
626.551	0.0165440
626.629	0.0164964
626.707	0.0164885
626.785	0.0164893
626.863	0.0166154
626.942	0.0164602
627.020	0.0164681
627.098	0.0165771
627.176	0.0164656
627.254	0.0165412
627.332	0.0165897
627.410	0.0165727
627.488	0.0165485
627.567	0.0166148
627.645	0.0166090
627.723	0.0165668
627.801	0.0165152
627.879	0.0164333
627.957	0.0164423
628.035	0.0164169
628.113	0.0164974
628.192	0.0166518
628.270	0.0166464
628.348	0.0166287
628.426	0.0165500
628.504	0.0164589
628.582	0.0166426
628.660	0.0166176
628.738	0.0165395
628.817	0.0166708
628.895	0.0166501
628.973	0.0165858
629.051	0.0165633
629.129	0.0166286
629.207	0.0165398
629.285	0.0165755
629.363	0.0166533
629.442	0.0166887
629.520	0.0165676
629.598	0.0165593
629.676	0.0165759
629.754	0.0166326
629.832	0.0166439
629.910	0.0165459
629.988	0.0164877
630.067	0.0166092
630.145	0.0166573
630.223	0.0164120
630.301	0.0165161
630.379	0.0166149
630.457	0.0166386
630.535	0.0165646
630.613	0.0164858
630.692	0.0165097
630.770	0.0163902
630.848	0.0164784
630.926	0.0166060
631.004	0.0166370
631.082	0.0165911
631.160	0.0165420
631.238	0.0165690
631.317	0.0166595
631.395	0.0165121
631.473	0.0165717
631.551	0.0165618
631.629	0.0165418
631.707	0.0165714
631.785	0.0166537
631.863	0.0164675
631.942	0.0165444
632.020	0.0165298
632.098	0.0165910
632.176	0.0165367
632.254	0.0165238
632.332	0.0165775
632.410	0.0165504
632.488	0.0166194
632.567	0.0165158
632.645	0.0163744
632.723	0.0164981
632.801	0.0166631
632.879	0.0166106
632.957	0.0165589
633.035	0.0164848
633.113	0.0166722
633.192	0.0165876
633.270	0.0165759
633.348	0.0164719
633.426	0.0166152
633.504	0.0165429
633.582	0.0165757
633.660	0.0166125
633.738	0.0166435
633.817	0.0167518
633.895	0.0165885
633.973	0.0166150
634.051	0.0165968
634.129	0.0166010
634.207	0.0165661
634.285	0.0165565
634.363	0.0166378
634.442	0.0166152
634.520	0.0164517
634.598	0.0165171
634.676	0.0166258
634.754	0.0165797
634.832	0.0166627
634.910	0.0166328
634.988	0.0164456
635.067	0.0164835
635.145	0.0166190
635.223	0.0164303
635.301	0.0165041
635.379	0.0167617
635.457	0.0164842
635.535	0.0165202
635.613	0.0166203
635.692	0.0164793
635.770	0.0165952
635.848	0.0164056
635.926	0.0165204
636.004	0.0165937
636.082	0.0166145
636.160	0.0165190
636.238	0.0166407
636.317	0.0165765
636.395	0.0165529
636.473	0.0166092
636.551	0.0166206
636.629	0.0164566
636.707	0.0166536
636.785	0.0165414
636.863	0.0164309
636.942	0.0166206
637.020	0.0164612
637.098	0.0164462
637.176	0.0165509
637.254	0.0165368
637.332	0.0164928
637.410	0.0165997
637.488	0.0165463
637.567	0.0166413
637.645	0.0165916
637.723	0.0164746
637.801	0.0166586
637.879	0.0165585
637.957	0.0164978
638.035	0.0165795
638.113	0.0166267
638.192	0.0166425
638.270	0.0165665
638.348	0.0164466
638.426	0.0165303
638.504	0.0164363
638.582	0.0166537
638.660	0.0165463
638.738	0.0165761
638.817	0.0166850
638.895	0.0165308
638.973	0.0165055
639.051	0.0166614
639.129	0.0165455
639.207	0.0165858
639.285	0.0165256
639.363	0.0166805
639.442	0.0165715
639.520	0.0166209
639.598	0.0166006
639.676	0.0164897
639.754	0.0164948
639.832	0.0166156
639.910	0.0165398
639.988	0.0164376
640.067	0.0165662
640.145	0.0165044
640.223	0.0165141
640.301	0.0165242
640.379	0.0164902
640.457	0.0166328
640.535	0.0166818
640.613	0.0164948
640.692	0.0166018
640.770	0.0164990
640.848	0.0167409
640.926	0.0166325
641.004	0.0166645
641.082	0.0164931
641.160	0.0165462
641.238	0.0166192
641.317	0.0166065
641.395	0.0166322
641.473	0.0164892
641.551	0.0163359
641.629	0.0166405
641.707	0.0166488
641.785	0.0166044
641.863	0.0165758
641.942	0.0165131
642.020	0.0165708
642.098	0.0164876
642.176	0.0165292
642.254	0.0165440
642.332	0.0164743
642.410	0.0165175
642.488	0.0166046
642.567	0.0165219
642.645	0.0165358
642.723	0.0165926
642.801	0.0165900
642.879	0.0165775
642.957	0.0165554
643.035	0.0166588
643.113	0.0165698
643.192	0.0165819
643.270	0.0166291
643.348	0.0164705
643.426	0.0164362
643.504	0.0164928
643.582	0.0165336
643.660	0.0166196
643.738	0.0165291
643.817	0.0164824
643.895	0.0164981
643.973	0.0166330
644.051	0.0166949
644.129	0.0164821
644.207	0.0165305
644.285	0.0165267
644.363	0.0164663
644.442	0.0166658
644.520	0.0164236
644.598	0.0164909
644.676	0.0166542
644.754	0.0166385
644.832	0.0165164
644.910	0.0166344
644.988	0.0166214
645.067	0.0164670
645.145	0.0165274
645.223	0.0165899
645.301	0.0165681
645.379	0.0166017
645.457	0.0166624
645.535	0.0165359
645.613	0.0166134
645.692	0.0165121
645.770	0.0165311
645.848	0.0165746
645.926	0.0165696
646.004	0.0164564
646.082	0.0165810
646.160	0.0165638
646.238	0.0165232
646.317	0.0165685
646.395	0.0165873
646.473	0.0165237
646.551	0.0165163
646.629	0.0165578
646.707	0.0165938
646.785	0.0165622
646.863	0.0165440
646.942	0.0165742
647.020	0.0165439
647.098	0.0166227
647.176	0.0165012
647.254	0.0165778
647.332	0.0166278
647.410	0.0164970
647.488	0.0165292
647.567	0.0165594
647.645	0.0167138
647.723	0.0164371
647.801	0.0163914
647.879	0.0164811
647.957	0.0164685
648.035	0.0165738
648.113	0.0165484
648.192	0.0165325
648.270	0.0166002
648.348	0.0165302
648.426	0.0165794
648.504	0.0165929
648.582	0.0165481
648.660	0.0165624
648.738	0.0166366
648.817	0.0165098
648.895	0.0165394
648.973	0.0165253
649.051	0.0164342
649.129	0.0166290
649.207	0.0166101
649.285	0.0165044
649.363	0.0167122
649.442	0.0166411
649.520	0.0164735
649.598	0.0165393
649.676	0.0166512
649.754	0.0165927
649.832	0.0166926
649.910	0.0165114
649.988	0.0164857
650.067	0.0166151
650.145	0.0166003
650.223	0.0166110
650.301	0.0166007
650.379	0.0165201
650.457	0.0165198
650.535	0.0165804
650.613	0.0165664
650.692	0.0165224
650.770	0.0165771
650.848	0.0165125
650.926	0.0164951
651.004	0.0165973
651.082	0.0166090
651.160	0.0165886
651.238	0.0165611
651.317	0.0165525
651.395	0.0165501
651.473	0.0165932
651.551	0.0166597
651.629	0.0167103
651.707	0.0164799
651.785	0.0164828
651.863	0.0166254
651.942	0.0167257
652.020	0.0165323
652.098	0.0165608
652.176	0.0166167
652.254	0.0166888
652.332	0.0166026
652.410	0.0165729
652.488	0.0166460
652.567	0.0165511
652.645	0.0166463
652.723	0.0166444
652.801	0.0164993
652.879	0.0165205
652.957	0.0164386
653.035	0.0165884
653.113	0.0164985
653.192	0.0165711
653.270	0.0165856
653.348	0.0165575
653.426	0.0165412
653.504	0.0165654
653.582	0.0164852
653.660	0.0164907
653.738	0.0166554
653.817	0.0165255
653.895	0.0165324
653.973	0.0166209
654.051	0.0165502
654.129	0.0166800
654.207	0.0166447
654.285	0.0166139
654.363	0.0164756
654.442	0.0165602
654.520	0.0165303
654.598	0.0165504
654.676	0.0166059
654.754	0.0166573
654.832	0.0165868
654.910	0.0164394
654.988	0.0165419
655.067	0.0167453
655.145	0.0165427
655.223	0.0165447
655.301	0.0165742
655.379	0.0166240
655.457	0.0166629
655.535	0.0165910
655.613	0.0166495
655.692	0.0165605
655.770	0.0165635
655.848	0.0165913
655.926	0.0166143
656.004	0.0165670
656.082	0.0164815
656.160	0.0165855
656.238	0.0165677
656.317	0.0165874
656.395	0.0166619
656.473	0.0166074
656.551	0.0166096
656.629	0.0165546
656.707	0.0166479
656.785	0.0164898
656.863	0.0165928
656.942	0.0166292
657.020	0.0166301
657.098	0.0167551
657.176	0.0166477
657.254	0.0165091
657.332	0.0164571
657.410	0.0164714
657.488	0.0166566
657.567	0.0166518
657.645	0.0166161
657.723	0.0166005
657.801	0.0166846
657.879	0.0166265
657.957	0.0165101
658.035	0.0166241
658.113	0.0166127
658.192	0.0166058
658.270	0.0165179
658.348	0.0166572
658.426	0.0165650
658.504	0.0166375
658.582	0.0164955
658.660	0.0165765
658.738	0.0166075
658.817	0.0165021
658.895	0.0165379
658.973	0.0166245
659.051	0.0165511
659.129	0.0165785
659.207	0.0167056
659.285	0.0165741
659.363	0.0165000
659.442	0.0165886
659.520	0.0167537
659.598	0.0165388
659.676	0.0165683
659.754	0.0166254
659.832	0.0164735
659.910	0.0165391
659.988	0.0165352
660.067	0.0165144
660.145	0.0164375
660.223	0.0167132
660.301	0.0166241
660.379	0.0165997
660.457	0.0166679
660.535	0.0167158
660.613	0.0166410
660.692	0.0165102
660.770	0.0165882
660.848	0.0166765
660.926	0.0165312
661.004	0.0165206
661.082	0.0166475
661.160	0.0166130
661.238	0.0165230
661.317	0.0165946
661.395	0.0166637
661.473	0.0166296
661.551	0.0165346
661.629	0.0164873
661.707	0.0165577
661.785	0.0167302
661.863	0.0166468
661.942	0.0164870
662.020	0.0165119
662.098	0.0166339
662.176	0.0166280
662.254	0.0165796
662.332	0.0165730
662.410	0.0165685
662.488	0.0167729
662.567	0.0166286
662.645	0.0165395
662.723	0.0165331
662.801	0.0165437
662.879	0.0164330
662.957	0.0165512
663.035	0.0166502
663.113	0.0165352
663.192	0.0166621
663.270	0.0165454
663.348	0.0164893
663.426	0.0165417
663.504	0.0166786
663.582	0.0165449
663.660	0.0166152
663.738	0.0166701
663.817	0.0166798
663.895	0.0166441
663.973	0.0165874
664.051	0.0166650
664.129	0.0165977
664.207	0.0165393
664.285	0.0164272
664.363	0.0166074
664.442	0.0165919
664.520	0.0165721
664.598	0.0166335
664.676	0.0165199
664.754	0.0166001
664.832	0.0166852
664.910	0.0164793
664.988	0.0165231
665.067	0.0165746
665.145	0.0164677
665.223	0.0165061
665.301	0.0166338
665.379	0.0165006
665.457	0.0166201
665.535	0.0165643
665.613	0.0165251
665.692	0.0165890
665.770	0.0165517
665.848	0.0165601
665.926	0.0165048
666.004	0.0164549
666.082	0.0165429
666.160	0.0164804
666.238	0.0167255
666.317	0.0165165
666.395	0.0164436
666.473	0.0166068
666.551	0.0165921
666.629	0.0165617
666.707	0.0165276
666.785	0.0165716
666.863	0.0165953
666.942	0.0166563
667.020	0.0165222
667.098	0.0165397
667.176	0.0165898
667.254	0.0165051
667.332	0.0165308
667.410	0.0164426
667.488	0.0166041
667.567	0.0165216
667.645	0.0163921
667.723	0.0165990
667.801	0.0164736
667.879	0.0165490
667.957	0.0166031
668.035	0.0165976
668.113	0.0165777
668.192	0.0166735
668.270	0.0165508
668.348	0.0165783
668.426	0.0166144
668.504	0.0165365
668.582	0.0165862
668.660	0.0167562
668.738	0.0166158
668.817	0.0165222
668.895	0.0167091
668.973	0.0165876
669.051	0.0164638
669.129	0.0166092
669.207	0.0165711
669.285	0.0165374
669.363	0.0166492
669.442	0.0166040
669.520	0.0164005
669.598	0.0165995
669.676	0.0165761
669.754	0.0165909
669.832	0.0164973
669.910	0.0165708
669.988	0.0164294
670.067	0.0165489
670.145	0.0165800
670.223	0.0165166
670.301	0.0165656
670.379	0.0165893
670.457	0.0165470
670.535	0.0164342
670.613	0.0166132
670.692	0.0165830
670.770	0.0166586
670.848	0.0166607
670.926	0.0165035
671.004	0.0164496
671.082	0.0165421
671.160	0.0166473
671.238	0.0165962
671.317	0.0164317
671.395	0.0165583
671.473	0.0166512
671.551	0.0164589
671.629	0.0165057
671.707	0.0166247
671.785	0.0165784
671.863	0.0164243
671.942	0.0164574
672.020	0.0166180
672.098	0.0166286
672.176	0.0164783
672.254	0.0164983
672.332	0.0165327
672.410	0.0165272
672.488	0.0164421
672.567	0.0166677
672.645	0.0165636
672.723	0.0166679
672.801	0.0166013
672.879	0.0165974
672.957	0.0166407
673.035	0.0164719
673.113	0.0164051
673.192	0.0165488
673.270	0.0166506
673.348	0.0165308
673.426	0.0165601
673.504	0.0165976
673.582	0.0165648
673.660	0.0165887
673.738	0.0166000
673.817	0.0165500
673.895	0.0165666
673.973	0.0165345
674.051	0.0165943
674.129	0.0166379
674.207	0.0166615
674.285	0.0165755
674.363	0.0165411
674.442	0.0165867
674.520	0.0165066
674.598	0.0165538
674.676	0.0166351
674.754	0.0165419
674.832	0.0165368
674.910	0.0165067
674.988	0.0164475
675.067	0.0164899
675.145	0.0167103
675.223	0.0165968
675.301	0.0165742
675.379	0.0165401
675.457	0.0165890
675.535	0.0164635
675.613	0.0164825
675.692	0.0163879
675.770	0.0164056
675.848	0.0165070
675.926	0.0166691
676.004	0.0166068
676.082	0.0164340
676.160	0.0165351
676.238	0.0166270
676.317	0.0164252
676.395	0.0164243
676.473	0.0165178
676.551	0.0166370
676.629	0.0164744
676.707	0.0165083
676.785	0.0165347
676.863	0.0167231
676.942	0.0166042
677.020	0.0165613
677.098	0.0165621
677.176	0.0165913
677.254	0.0166624
677.332	0.0164819
677.410	0.0165900
677.488	0.0165568
677.567	0.0165859
677.645	0.0165462
677.723	0.0165340
677.801	0.0165332
677.879	0.0165946
677.957	0.0166109
678.035	0.0164839
678.113	0.0164355
678.192	0.0165160
678.270	0.0166618
678.348	0.0165367
678.426	0.0165514
678.504	0.0165177
678.582	0.0165182
678.660	0.0163696
678.738	0.0166588
678.817	0.0166418
678.895	0.0165571
678.973	0.0165151
679.051	0.0165501
679.129	0.0166586
679.207	0.0166246
679.285	0.0165906
679.363	0.0165797
679.442	0.0164993
679.520	0.0164684
679.598	0.0165023
679.676	0.0165489
679.754	0.0165322
679.832	0.0165716
679.910	0.0165465
679.988	0.0165209
680.067	0.0166367
680.145	0.0167150
680.223	0.0165812
680.301	0.0165417
680.379	0.0166204
680.457	0.0166576
680.535	0.0166705
680.613	0.0166968
680.692	0.0167858
680.770	0.0165895
680.848	0.0166748
680.926	0.0165804
681.004	0.0165360
681.082	0.0165928
681.160	0.0166651
681.238	0.0166245
681.317	0.0165350
681.395	0.0166895
681.473	0.0166576
681.551	0.0165614
681.629	0.0167107
681.707	0.0165887
681.785	0.0167017
681.863	0.0166156
681.942	0.0167896
682.020	0.0166331
682.098	0.0166096
682.176	0.0167097
682.254	0.0164919
682.332	0.0166105
682.410	0.0165788
682.488	0.0166547
682.567	0.0166660
682.645	0.0166126
682.723	0.0166940
682.801	0.0165926
682.879	0.0164478
682.957	0.0166522
683.035	0.0166451
683.113	0.0166956
683.192	0.0167415
683.270	0.0164840
683.348	0.0165570
683.426	0.0166605
683.504	0.0165394
683.582	0.0167123
683.660	0.0165750
683.738	0.0165887
683.817	0.0165333
683.895	0.0166890
683.973	0.0167471
684.051	0.0165932
684.129	0.0166721
684.207	0.0166790
684.285	0.0165438
684.363	0.0166267
684.442	0.0166865
684.520	0.0166181
684.598	0.0166560
684.676	0.0165813
684.754	0.0166166
684.832	0.0165923
684.910	0.0165750
684.988	0.0165371
685.067	0.0165717
685.145	0.0166362
685.223	0.0166557
685.301	0.0166734
685.379	0.0164775
685.457	0.0163829
685.535	0.0166492
685.613	0.0165962
685.692	0.0166098
685.770	0.0165398
685.848	0.0166599
685.926	0.0164052
686.004	0.0164349
686.082	0.0166187
686.160	0.0163898
686.238	0.0165716
686.317	0.0166196
686.395	0.0164240
686.473	0.0165540
686.551	0.0165271
686.629	0.0165173
686.707	0.0163708
686.785	0.0165760
686.863	0.0166089
686.942	0.0166143
687.020	0.0165931
687.098	0.0165273
687.176	0.0165521
687.254	0.0164949
687.332	0.0165634
687.410	0.0164989
687.488	0.0164606
687.567	0.0165788
687.645	0.0164915
687.723	0.0165050
687.801	0.0165424
687.879	0.0164563
687.957	0.0165194
688.035	0.0165379
688.113	0.0165822
688.192	0.0166257
688.270	0.0165330
688.348	0.0165908
688.426	0.0165223
688.504	0.0165175
688.582	0.0166091
688.660	0.0166106
688.738	0.0164634
688.817	0.0166349
688.895	0.0164854
688.973	0.0164996
689.051	0.0166655
689.129	0.0166367
689.207	0.0166276
689.285	0.0166357
689.363	0.0165498
689.442	0.0166351
689.520	0.0165508
689.598	0.0166455
689.676	0.0165414
689.754	0.0165214
689.832	0.0165122
689.910	0.0166368
689.988	0.0164340
690.067	0.0163450
690.145	0.0164415
690.223	0.0163480
690.301	0.0165875
690.379	0.0166476
690.457	0.0167731
690.535	0.0168980
690.613	0.0170072
690.692	0.0169999
690.770	0.0170814
690.848	0.0170241
690.926	0.0169018
691.004	0.0166727
691.082	0.0163952
691.160	0.0161930
691.238	0.0161249
691.317	0.0158713
691.395	0.0158977
691.473	0.0160782
691.551	0.0162372
691.629	0.0164366
691.707	0.0168209
691.785	0.0171606
691.863	0.0171449
691.942	0.0173832
692.020	0.0175001
692.098	0.0173462
692.176	0.0171389
692.254	0.0170495
692.332	0.0167682
692.410	0.0165456
692.488	0.0162054
692.567	0.0159698
692.645	0.0158405
692.723	0.0159753
692.801	0.0160313
692.879	0.0161855
692.957	0.0163654
693.035	0.0165697
693.113	0.0167492
693.192	0.0168657
693.270	0.0171175
693.348	0.0171427
693.426	0.0171217
693.504	0.0172061
693.582	0.0170918
693.660	0.0170642
693.738	0.0167991
693.817	0.0167957
693.895	0.0166847
693.973	0.0164008
694.051	0.0162510
694.129	0.0161338
694.207	0.0160367
694.285	0.0160287
694.363	0.0161259
694.442	0.0160777
694.520	0.0161125
694.598	0.0161256
694.676	0.0163784
694.754	0.0164555
694.832	0.0166112
694.910	0.0167728
694.988	0.0167000
695.067	0.0169163
695.145	0.0168903
695.223	0.0169112
695.301	0.0169528
695.379	0.0168707
695.457	0.0168890
695.535	0.0167747
695.613	0.0165387
695.692	0.0165693
695.770	0.0166228
695.848	0.0167119
695.926	0.0165343
696.004	0.0165936
696.082	0.0165553
696.160	0.0166296
696.238	0.0167327
696.317	0.0168294
696.395	0.0168048
696.473	0.0169097
696.551	0.0170383
696.629	0.0169173
696.707	0.0169719
696.785	0.0167938
696.863	0.0168532
696.942	0.0167550
697.020	0.0166187
697.098	0.0164705
697.176	0.0163239
697.254	0.0162832
697.332	0.0161449
697.410	0.0158979
697.488	0.0158740
697.567	0.0158485
697.645	0.0158768
697.723	0.0157461
697.801	0.0159816
697.879	0.0161688
697.957	0.0161935
698.035	0.0162756
698.113	0.0165814
698.192	0.0166882
698.270	0.0169868
698.348	0.0171025
698.426	0.0171918
698.504	0.0172160
698.582	0.0173326
698.660	0.0173579
698.738	0.0173600
698.817	0.0171320
698.895	0.0169821
698.973	0.0171088
699.051	0.0169215
699.129	0.0167944
699.207	0.0166598
699.285	0.0166579
699.363	0.0165440
699.442	0.0165530
699.520	0.0164392
699.598	0.0163447
699.676	0.0162817
699.754	0.0164066
699.832	0.0164744
699.910	0.0163055
699.988	0.0162739
700.067	0.0162366
700.145	0.0162662
700.223	0.0163064
700.301	0.0163113
700.379	0.0164288
700.457	0.0164519
700.535	0.0164424
700.613	0.0166527
700.692	0.0167137
700.770	0.0166273
700.848	0.0167336
700.926	0.0166026
701.004	0.0167208
701.082	0.0167600
701.160	0.0166216
701.238	0.0166544
701.317	0.0166211
701.395	0.0165194
701.473	0.0165682
701.551	0.0164734
701.629	0.0166087
701.707	0.0166807
701.785	0.0165755
701.863	0.0166361
701.942	0.0166533
702.020	0.0166330
702.098	0.0166598
702.176	0.0167739
702.254	0.0168094
702.332	0.0168375
702.410	0.0168163
702.488	0.0168375
702.567	0.0167376
702.645	0.0167282
702.723	0.0168800
702.801	0.0169245
702.879	0.0167923
702.957	0.0167126
703.035	0.0166915
703.113	0.0165067
703.192	0.0167377
703.270	0.0165681
703.348	0.0164496
703.426	0.0163583
703.504	0.0163614
703.582	0.0163218
703.660	0.0164330
703.738	0.0163474
703.817	0.0162860
703.895	0.0163501
703.973	0.0163979
704.051	0.0163607
704.129	0.0164404
704.207	0.0162813
704.285	0.0165137
704.363	0.0164581
704.442	0.0163747
704.520	0.0163941
704.598	0.0164264
704.676	0.0165530
704.754	0.0165137
704.832	0.0165803
704.910	0.0165350
704.988	0.0166025
705.067	0.0166931
705.145	0.0166788
705.223	0.0166322
705.301	0.0166010
705.379	0.0165143
705.457	0.0166395
705.535	0.0165063
705.613	0.0166112
705.692	0.0164124
705.770	0.0164556
705.848	0.0164762
705.926	0.0164390
706.004	0.0164608
706.082	0.0165196
706.160	0.0166200
706.238	0.0166486
706.317	0.0165849
706.395	0.0166599
706.473	0.0167281
706.551	0.0167999
706.629	0.0168891
706.707	0.0170283
706.785	0.0168064
706.863	0.0168845
706.942	0.0169732
707.020	0.0168443
707.098	0.0168098
707.176	0.0167197
707.254	0.0166862
707.332	0.0166375
707.410	0.0165722
707.488	0.0165388
707.567	0.0165633
707.645	0.0164049
707.723	0.0164808
707.801	0.0163757
707.879	0.0165479
707.957	0.0163937
708.035	0.0164023
708.113	0.0165760
708.192	0.0165560
708.270	0.0165130
708.348	0.0164696
708.426	0.0166119
708.504	0.0165302
708.582	0.0166372
708.660	0.0166051
708.738	0.0166544
708.817	0.0166335
708.895	0.0164723
708.973	0.0165310
709.051	0.0164747
709.129	0.0165632
709.207	0.0165289
709.285	0.0163849
709.363	0.0164419
709.442	0.0162628
709.520	0.0164204
709.598	0.0163094
709.676	0.0164219
709.754	0.0164449
709.832	0.0164623
709.910	0.0164967
709.988	0.0166074
710.067	0.0166259
710.145	0.0166774
710.223	0.0167810
710.301	0.0167818
710.379	0.0168581
710.457	0.0168689
710.535	0.0167600
710.613	0.0169115
710.692	0.0168249
710.770	0.0168214
710.848	0.0169080
710.926	0.0169452
711.004	0.0167720
711.082	0.0166959
711.160	0.0167759
711.238	0.0168398
711.317	0.0168574
711.395	0.0167386
711.473	0.0167010
711.551	0.0165836
711.629	0.0165917
711.707	0.0165933
711.785	0.0165984
711.863	0.0165600
711.942	0.0166399
712.020	0.0165231
712.098	0.0165737
712.176	0.0165758
712.254	0.0165975
712.332	0.0165764
712.410	0.0165161
712.488	0.0166679
712.567	0.0167712
712.645	0.0166467
712.723	0.0167085
712.801	0.0167162
712.879	0.0166180
712.957	0.0164571
713.035	0.0165492
713.113	0.0164603
713.192	0.0163837
713.270	0.0164108
713.348	0.0163268
713.426	0.0162782
713.504	0.0162368
713.582	0.0162882
713.660	0.0162565
713.738	0.0162763
713.817	0.0162503
713.895	0.0163392
713.973	0.0163923
714.051	0.0163193
714.129	0.0164335
714.207	0.0165744
714.285	0.0164162
714.363	0.0163397
714.442	0.0165511
714.520	0.0166630
714.598	0.0166063
714.676	0.0164350
714.754	0.0165858
714.832	0.0164859
714.910	0.0164639
714.988	0.0164970
715.067	0.0164602
715.145	0.0164611
715.223	0.0163762
715.301	0.0166161
715.379	0.0166401
715.457	0.0164484
715.535	0.0166420
715.613	0.0164381
715.692	0.0165032
715.770	0.0166788
715.848	0.0165377
715.926	0.0165735
716.004	0.0164772
716.082	0.0166730
716.160	0.0167776
716.238	0.0165476
716.317	0.0164417
716.395	0.0165533
716.473	0.0165471
716.551	0.0166724
716.629	0.0165976
716.707	0.0166014
716.785	0.0165564
716.863	0.0165627
716.942	0.0165255
717.020	0.0165660
717.098	0.0165863
717.176	0.0166829
717.254	0.0166264
717.332	0.0167092
717.410	0.0168538
717.488	0.0167014
717.567	0.0167011
717.645	0.0167909
717.723	0.0168534
717.801	0.0168421
717.879	0.0168214
717.957	0.0167023
718.035	0.0167603
718.113	0.0168852
718.192	0.0168452
718.270	0.0165955
718.348	0.0166058
718.426	0.0165843
718.504	0.0166051
718.582	0.0165759
718.660	0.0165561
718.738	0.0165292
718.817	0.0165411
718.895	0.0165002
718.973	0.0165639
719.051	0.0163013
719.129	0.0164463
719.207	0.0164691
719.285	0.0164696
719.363	0.0164742
719.442	0.0166256
719.520	0.0165151
719.598	0.0165848
719.676	0.0165363
719.754	0.0165443
719.832	0.0165461
719.910	0.0165197
719.988	0.0164890
720.067	0.0165375
720.145	0.0165009
720.223	0.0166229
720.301	0.0166248
720.379	0.0165565
720.457	0.0165718
720.535	0.0166103
720.613	0.0167255
720.692	0.0166811
720.770	0.0166728
720.848	0.0166036
720.926	0.0166071
721.004	0.0166704
721.082	0.0165816
721.160	0.0163689
721.238	0.0165031
721.317	0.0166282
721.395	0.0165988
721.473	0.0166271
721.551	0.0164845
721.629	0.0166811
721.707	0.0166643
721.785	0.0166724
721.863	0.0166748
721.942	0.0165910
722.020	0.0167108
722.098	0.0166496
722.176	0.0165284
722.254	0.0164996
722.332	0.0166924
722.410	0.0166634
722.488	0.0165061
722.567	0.0164475
722.645	0.0164306
722.723	0.0165446
722.801	0.0166685
722.879	0.0164948
722.957	0.0164285
723.035	0.0166950
723.113	0.0166286
723.192	0.0165965
723.270	0.0165279
723.348	0.0166270
723.426	0.0167377
723.504	0.0165860
723.582	0.0166151
723.660	0.0166112
723.738	0.0166386
723.817	0.0166630
723.895	0.0165688
723.973	0.0164343
724.051	0.0164714
724.129	0.0165266
724.207	0.0165283
724.285	0.0165263
724.363	0.0164404
724.442	0.0167081
724.520	0.0165360
724.598	0.0165819
724.676	0.0166833
724.754	0.0164857
724.832	0.0166365
724.910	0.0167181
724.988	0.0166530
725.067	0.0167758
725.145	0.0166901
725.223	0.0167760
725.301	0.0166183
725.379	0.0167529
725.457	0.0166534
725.535	0.0168124
725.613	0.0166002
725.692	0.0166743
725.770	0.0165318
725.848	0.0165150
725.926	0.0166077
726.004	0.0164803
726.082	0.0164700
726.160	0.0167291
726.238	0.0166382
726.317	0.0166868
726.395	0.0166015
726.473	0.0164497
726.551	0.0166713
726.629	0.0167297
726.707	0.0164240
726.785	0.0167761
726.863	0.0167513
726.942	0.0167306
727.020	0.0166498
727.098	0.0166474
727.176	0.0165997
727.254	0.0166448
727.332	0.0165677
727.410	0.0165045
727.488	0.0166658
727.567	0.0164053
727.645	0.0164719
727.723	0.0165520
727.801	0.0166000
727.879	0.0165285
727.957	0.0162519
728.035	0.0164604
728.113	0.0165636
728.192	0.0164864
728.270	0.0165155
728.348	0.0165678
728.426	0.0165068
728.504	0.0164134
728.582	0.0165360
728.660	0.0165421
728.738	0.0165191
728.817	0.0164187
728.895	0.0166020
728.973	0.0165741
729.051	0.0165139
729.129	0.0165495
729.207	0.0166349
729.285	0.0166476
729.363	0.0166224
729.442	0.0166532
729.520	0.0165665
729.598	0.0167787
729.676	0.0166534
729.754	0.0168365
729.832	0.0167492
729.910	0.0165970
729.988	0.0167354
730.067	0.0166375
730.145	0.0165943
730.223	0.0165623
730.301	0.0166598
730.379	0.0166835
730.457	0.0166777
730.535	0.0166247
730.613	0.0165028
730.692	0.0164213
730.770	0.0165072
730.848	0.0167212
730.926	0.0165916
731.004	0.0165455
731.082	0.0167216
731.160	0.0167499
731.238	0.0166768
731.317	0.0166226
731.395	0.0167922
731.473	0.0166370
731.551	0.0167966
731.629	0.0167091
731.707	0.0165813
731.785	0.0166711
731.863	0.0165900
731.942	0.0166622
732.020	0.0166005
732.098	0.0165617
732.176	0.0166268
732.254	0.0166953
732.332	0.0166539
732.410	0.0166686
732.488	0.0165959
732.567	0.0167498
732.645	0.0166609
732.723	0.0167318
732.801	0.0166964
732.879	0.0166115
732.957	0.0166107
733.035	0.0167188
733.113	0.0166139
733.192	0.0165871
733.270	0.0165369
733.348	0.0166252
733.426	0.0165546
733.504	0.0166057
733.582	0.0166690
733.660	0.0165962
733.738	0.0167374
733.817	0.0166778
733.895	0.0166656
733.973	0.0166466
734.051	0.0165408
734.129	0.0165752
734.207	0.0165284
734.285	0.0165416
734.363	0.0165095
734.442	0.0166247
734.520	0.0164580
734.598	0.0164832
734.676	0.0166289
734.754	0.0166229
734.832	0.0165417
734.910	0.0163995
734.988	0.0165328
735.067	0.0165680
735.145	0.0164870
735.223	0.0165162
735.301	0.0165459
735.379	0.0165939
735.457	0.0164895
735.535	0.0166087
735.613	0.0165783
735.692	0.0165214
735.770	0.0165351
735.848	0.0166406
735.926	0.0165115
736.004	0.0165831
736.082	0.0166463
736.160	0.0165120
736.238	0.0165511
736.317	0.0166359
736.395	0.0166589
736.473	0.0166773
736.551	0.0166780
736.629	0.0165833
736.707	0.0167184
736.785	0.0167739
736.863	0.0166580
736.942	0.0166235
737.020	0.0166285
737.098	0.0166099
737.176	0.0165463
737.254	0.0166823
737.332	0.0166210
737.410	0.0166432
737.488	0.0165882
737.567	0.0165578
737.645	0.0164737
737.723	0.0164462
737.801	0.0165805
737.879	0.0166117
737.957	0.0164902
738.035	0.0166515
738.113	0.0165361
738.192	0.0165546
738.270	0.0165045
738.348	0.0166541
738.426	0.0165389
738.504	0.0164785
738.582	0.0165694
738.660	0.0165649
738.738	0.0165724
738.817	0.0166288
738.895	0.0165124
738.973	0.0166008
739.051	0.0166636
739.129	0.0165298
739.207	0.0167078
739.285	0.0166647
739.363	0.0165363
739.442	0.0167934
739.520	0.0166340
739.598	0.0166243
739.676	0.0164515
739.754	0.0165531
739.832	0.0166692
739.910	0.0165551
739.988	0.0164821
740.067	0.0166348
740.145	0.0165891
740.223	0.0165886
740.301	0.0164816
740.379	0.0165509
740.457	0.0164557
740.535	0.0165783
740.613	0.0166712
740.692	0.0165431
740.770	0.0164851
740.848	0.0164112
740.926	0.0165918
741.004	0.0164700
741.082	0.0165015
741.160	0.0166202
741.238	0.0165487
741.317	0.0165540
741.395	0.0164882
741.473	0.0165437
741.551	0.0165142
741.629	0.0165133
741.707	0.0165890
741.785	0.0164079
741.863	0.0166401
741.942	0.0167030
742.020	0.0165690
742.098	0.0166467
742.176	0.0166321
742.254	0.0165639
742.332	0.0163523
742.410	0.0166105
742.488	0.0165247
742.567	0.0165852
742.645	0.0164639
742.723	0.0165237
742.801	0.0164617
742.879	0.0163985
742.957	0.0164837
743.035	0.0164185
743.113	0.0164816
743.192	0.0166135
743.270	0.0166678
743.348	0.0165179
743.426	0.0166303
743.504	0.0165379
743.582	0.0164600
743.660	0.0164138
743.738	0.0164870
743.817	0.0165795
743.895	0.0164931
743.973	0.0164594
744.051	0.0165907
744.129	0.0165688
744.207	0.0164947
744.285	0.0166405
744.363	0.0165854
744.442	0.0166203
744.520	0.0165437
744.598	0.0165254
744.676	0.0164886
744.754	0.0165328
744.832	0.0165734
744.910	0.0166164
744.988	0.0165791
745.067	0.0166578
745.145	0.0166125
745.223	0.0165056
745.301	0.0165647
745.379	0.0165424
745.457	0.0165087
745.535	0.0164395
745.613	0.0165931
745.692	0.0164381
745.770	0.0165694
745.848	0.0166946
745.926	0.0165385
746.004	0.0164764
746.082	0.0165598
746.160	0.0165845
746.238	0.0165308
746.317	0.0164497
746.395	0.0165898
746.473	0.0165251
746.551	0.0164395
746.629	0.0165813
746.707	0.0165205
746.785	0.0166104
746.863	0.0165969
746.942	0.0165668
747.020	0.0164409
747.098	0.0166018
747.176	0.0166565
747.254	0.0164368
747.332	0.0165166
747.410	0.0165281
747.488	0.0164791
747.567	0.0164961
747.645	0.0165030
747.723	0.0166129
747.801	0.0164883
747.879	0.0164430
747.957	0.0166740
748.035	0.0167224
748.113	0.0166155
748.192	0.0166319
748.270	0.0167737
748.348	0.0165923
748.426	0.0165567
748.504	0.0167416
748.582	0.0166503
748.660	0.0165515
748.738	0.0165328
748.817	0.0166167
748.895	0.0164561
748.973	0.0165935
749.051	0.0167789
749.129	0.0165798
749.207	0.0166048
749.285	0.0165615
749.363	0.0166378
749.442	0.0165293
749.520	0.0165638
749.598	0.0167408
749.676	0.0167607
749.754	0.0164974
749.832	0.0166502
749.910	0.0166096
749.988	0.0166540
750.067	0.0165849
750.145	0.0166199
750.223	0.0164959
750.301	0.0166171
750.379	0.0164804
750.457	0.0165475
750.535	0.0165755
750.613	0.0163988
750.692	0.0164985
750.770	0.0165818
750.848	0.0165526
750.926	0.0164980
751.004	0.0165408
751.082	0.0165000
751.160	0.0164708
751.238	0.0166940
751.317	0.0165696
751.395	0.0164907
751.473	0.0165940
751.551	0.0165682
751.629	0.0165077
751.707	0.0167116
751.785	0.0165607
751.863	0.0166354
751.942	0.0165969
752.020	0.0167284
752.098	0.0166029
752.176	0.0165419
752.254	0.0165346
752.332	0.0164480
752.410	0.0165411
752.488	0.0165992
752.567	0.0164532
752.645	0.0165082
752.723	0.0165743
752.801	0.0164795
752.879	0.0165137
752.957	0.0163943
753.035	0.0163822
753.113	0.0165222
753.192	0.0164287
753.270	0.0164727
753.348	0.0166214
753.426	0.0164848
753.504	0.0164511
753.582	0.0165096
753.660	0.0166601
753.738	0.0166757
753.817	0.0166091
753.895	0.0164568
753.973	0.0165458
754.051	0.0164594
754.129	0.0164647
754.207	0.0165209
754.285	0.0166698
754.363	0.0165341
754.442	0.0165268
754.520	0.0165842
754.598	0.0164546
754.676	0.0165826
754.754	0.0166164
754.832	0.0165964
754.910	0.0166299
754.988	0.0167353
755.067	0.0165038
755.145	0.0165548
755.223	0.0166290
755.301	0.0163616
755.379	0.0165965
755.457	0.0165858
755.535	0.0166289
755.613	0.0165773
755.692	0.0166507
755.770	0.0165319
755.848	0.0164396
755.926	0.0165477
756.004	0.0165453
756.082	0.0165236
756.160	0.0164915
756.238	0.0164719
756.317	0.0164936
756.395	0.0164288
756.473	0.0165164
756.551	0.0166740
756.629	0.0164314
756.707	0.0164880
756.785	0.0166405
756.863	0.0166441
756.942	0.0165996
757.020	0.0166272
757.098	0.0165459
757.176	0.0166230
757.254	0.0165625
757.332	0.0165063
757.410	0.0166502
757.488	0.0166127
757.567	0.0165077
757.645	0.0164797
757.723	0.0165363
757.801	0.0165527
757.879	0.0165909
757.957	0.0166688
758.035	0.0165784
758.113	0.0166024
758.192	0.0164723
758.270	0.0165616
758.348	0.0166097
758.426	0.0165951
758.504	0.0165414
758.582	0.0166979
758.660	0.0165884
758.738	0.0165627
758.817	0.0165521
758.895	0.0167000
758.973	0.0166736
759.051	0.0164195
759.129	0.0164551
759.207	0.0165235
759.285	0.0165633
759.363	0.0165258
759.442	0.0165261
759.520	0.0165594
759.598	0.0164573
759.676	0.0166582
759.754	0.0165278
759.832	0.0165283
759.910	0.0164715
759.988	0.0165884
760.067	0.0165607
760.145	0.0165418
760.223	0.0165826
760.301	0.0167151
760.379	0.0166624
760.457	0.0166242
760.535	0.0166435
760.613	0.0166140
760.692	0.0164980
760.770	0.0164807
760.848	0.0166064
760.926	0.0165610
761.004	0.0165752
761.082	0.0165353
761.160	0.0165594
761.238	0.0165880
761.317	0.0165032
761.395	0.0165325
761.473	0.0165797
761.551	0.0165299
761.629	0.0165804
761.707	0.0167089
761.785	0.0166560
761.863	0.0166745
761.942	0.0167152
762.020	0.0166067
762.098	0.0166737
762.176	0.0168264
762.254	0.0166008
762.332	0.0167314
762.410	0.0165823
762.488	0.0165530
762.567	0.0164474
762.645	0.0165696
762.723	0.0165285
762.801	0.0166533
762.879	0.0165562
762.957	0.0164897
763.035	0.0166026
763.113	0.0164861
763.192	0.0164292
763.270	0.0165589
763.348	0.0165391
763.426	0.0166116
763.504	0.0165102
763.582	0.0165726
763.660	0.0166200
763.738	0.0166100
763.817	0.0166004
763.895	0.0165970
763.973	0.0167191
764.051	0.0165467
764.129	0.0165449
764.207	0.0165974
764.285	0.0165926
764.363	0.0166083
764.442	0.0165688
764.520	0.0165401
764.598	0.0166018
764.676	0.0166932
764.754	0.0166029
764.832	0.0166264
764.910	0.0166589
764.988	0.0165443
765.067	0.0165276
765.145	0.0166383
765.223	0.0165137
765.301	0.0164899
765.379	0.0164824
765.457	0.0165946
765.535	0.0166296
765.613	0.0166029
765.692	0.0166374
765.770	0.0166216
765.848	0.0166726
765.926	0.0165541
766.004	0.0166148
766.082	0.0166206
766.160	0.0165466
766.238	0.0165477
766.317	0.0165255
766.395	0.0166617
766.473	0.0165315
766.551	0.0165137
766.629	0.0165220
766.707	0.0165375
766.785	0.0166466
766.863	0.0165434
766.942	0.0165207
767.020	0.0164349
767.098	0.0164844
767.176	0.0166141
767.254	0.0165314
767.332	0.0166264
767.410	0.0165819
767.488	0.0165987
767.567	0.0165959
767.645	0.0164932
767.723	0.0166521
767.801	0.0164782
767.879	0.0164692
767.957	0.0165125
768.035	0.0166681
768.113	0.0165198
768.192	0.0166810
768.270	0.0165398
768.348	0.0164993
768.426	0.0166607
768.504	0.0165459
768.582	0.0165610
768.660	0.0164705
768.738	0.0166811
768.817	0.0165163
768.895	0.0165173
768.973	0.0166109
769.051	0.0165979
769.129	0.0165036
769.207	0.0165389
769.285	0.0166171
769.363	0.0167882
769.442	0.0166526
769.520	0.0165695
769.598	0.0165653
769.676	0.0165497
769.754	0.0166367
769.832	0.0163816
769.910	0.0165159
769.988	0.0166000
770.067	0.0166380
770.145	0.0164105
770.223	0.0164797
770.301	0.0164758
770.379	0.0165142
770.457	0.0164721
770.535	0.0164796
770.613	0.0164321
770.692	0.0164777
770.770	0.0166538
770.848	0.0166435
770.926	0.0165720
771.004	0.0165565
771.082	0.0164714
771.160	0.0165173
771.238	0.0166121
771.317	0.0165940
771.395	0.0167231
771.473	0.0167197
771.551	0.0167362
771.629	0.0166556
771.707	0.0165991
771.785	0.0166325
771.863	0.0165929
771.942	0.0167944
772.020	0.0165047
772.098	0.0165705
772.176	0.0166485
772.254	0.0165284
772.332	0.0165405
772.410	0.0165598
772.488	0.0165832
772.567	0.0164839
772.645	0.0167476
772.723	0.0165594
772.801	0.0164747
772.879	0.0166952
772.957	0.0163977
773.035	0.0166206
773.113	0.0166100
773.192	0.0166062
773.270	0.0166164
773.348	0.0165871
773.426	0.0165684
773.504	0.0166013
773.582	0.0165919
773.660	0.0166026
773.738	0.0165325
773.817	0.0166280
773.895	0.0166434
773.973	0.0165582
774.051	0.0166257
774.129	0.0165862
774.207	0.0164742
774.285	0.0165271
774.363	0.0165388
774.442	0.0165067
774.520	0.0165613
774.598	0.0164385
774.676	0.0164162
774.754	0.0165146
774.832	0.0165203
774.910	0.0164593
774.988	0.0165096
775.067	0.0166220
775.145	0.0165539
775.223	0.0165403
775.301	0.0164919
775.379	0.0166960
775.457	0.0166089
775.535	0.0165971
775.613	0.0166620
775.692	0.0165991
775.770	0.0166213
775.848	0.0165108
775.926	0.0167237
776.004	0.0165830
776.082	0.0165283
776.160	0.0166011
776.238	0.0165781
776.317	0.0167313
776.395	0.0164748
776.473	0.0166055
776.551	0.0165657
776.629	0.0165047
776.707	0.0165024
776.785	0.0164931
776.863	0.0165815
776.942	0.0166014
777.020	0.0165277
777.098	0.0165418
777.176	0.0165961
777.254	0.0164846
777.332	0.0165402
777.410	0.0164804
777.488	0.0164668
777.567	0.0165702
777.645	0.0166738
777.723	0.0165063
777.801	0.0166054
777.879	0.0165730
777.957	0.0166109
778.035	0.0167155
778.113	0.0164847
778.192	0.0165688
778.270	0.0166398
778.348	0.0165421
778.426	0.0165557
778.504	0.0166072
778.582	0.0165807
778.660	0.0165218
778.738	0.0165314
778.817	0.0166120
778.895	0.0165470
778.973	0.0166271
779.051	0.0166173
779.129	0.0164799
779.207	0.0166050
779.285	0.0164796
779.363	0.0164895
779.442	0.0164306
779.520	0.0164043
779.598	0.0164941
779.676	0.0165636
779.754	0.0165529
779.832	0.0164851
779.910	0.0164014
779.988	0.0165340
780.067	0.0165300
780.145	0.0166533
780.223	0.0166853
780.301	0.0166006
780.379	0.0167340
780.457	0.0166321
780.535	0.0167210
780.613	0.0167198
780.692	0.0166121
780.770	0.0166747
780.848	0.0165398
780.926	0.0165193
781.004	0.0164935
781.082	0.0165063
781.160	0.0165532
781.238	0.0166626
781.317	0.0164922
781.395	0.0163776
781.473	0.0165067
781.551	0.0165432
781.629	0.0164043
781.707	0.0165271
781.785	0.0164819
781.863	0.0165626
781.942	0.0165514
782.020	0.0164436
782.098	0.0163551
782.176	0.0165077
782.254	0.0166032
782.332	0.0164510
782.410	0.0165961
782.488	0.0165694
782.567	0.0165641
782.645	0.0165446
782.723	0.0166033
782.801	0.0166823
782.879	0.0166308
782.957	0.0166085
783.035	0.0166943
783.113	0.0166606
783.192	0.0167646
783.270	0.0167223
783.348	0.0166223
783.426	0.0166535
783.504	0.0165806
783.582	0.0165090
783.660	0.0167838
783.738	0.0165668
783.817	0.0165916
783.895	0.0165855
783.973	0.0165625
784.051	0.0165306
784.129	0.0166005
784.207	0.0165406
784.285	0.0166197
784.363	0.0166106
784.442	0.0165028
784.520	0.0164120
784.598	0.0164983
784.676	0.0165658
784.754	0.0165049
784.832	0.0165990
784.910	0.0164796
784.988	0.0164831
785.067	0.0164861
785.145	0.0166040
785.223	0.0165253
785.301	0.0166017
785.379	0.0166490
785.457	0.0164612
785.535	0.0166201
785.613	0.0164835
785.692	0.0165603
785.770	0.0165987
785.848	0.0165871
785.926	0.0166193
786.004	0.0164970
786.082	0.0166062
786.160	0.0166266
786.238	0.0165862
786.317	0.0166457
786.395	0.0165165
786.473	0.0165651
786.551	0.0165533
786.629	0.0166085
786.707	0.0166476
786.785	0.0165427
786.863	0.0166850
786.942	0.0166202
787.020	0.0164423
787.098	0.0165995
787.176	0.0165558
787.254	0.0165369
787.332	0.0165944
787.410	0.0165491
787.488	0.0165020
787.567	0.0163899
787.645	0.0165073
787.723	0.0164516
787.801	0.0166213
787.879	0.0166092
787.957	0.0166212
788.035	0.0166598
788.113	0.0166071
788.192	0.0166930
788.270	0.0165039
788.348	0.0165620
788.426	0.0164241
788.504	0.0165333
788.582	0.0165417
788.660	0.0166261
788.738	0.0165542
788.817	0.0165369
788.895	0.0166148
788.973	0.0166598
789.051	0.0166516
789.129	0.0166093
789.207	0.0166902
789.285	0.0166557
789.363	0.0166915
789.442	0.0165413
789.520	0.0166650
789.598	0.0165392
789.676	0.0166492
789.754	0.0165150
789.832	0.0165705
789.910	0.0166726
789.988	0.0164764
790.067	0.0165274
790.145	0.0165815
790.223	0.0164421
790.301	0.0165769
790.379	0.0164490
790.457	0.0164469
790.535	0.0164503
790.613	0.0164716
790.692	0.0166229
790.770	0.0165334
790.848	0.0164968
790.926	0.0165773
791.004	0.0165192
791.082	0.0165959
791.160	0.0165311
791.238	0.0167471
791.317	0.0164775
791.395	0.0165756
791.473	0.0166908
791.551	0.0166634
791.629	0.0166776
791.707	0.0166010
791.785	0.0165388
791.863	0.0167274
791.942	0.0165939
792.020	0.0166078
792.098	0.0167651
792.176	0.0166383
792.254	0.0166022
792.332	0.0166876
792.410	0.0166861
792.488	0.0167249
792.567	0.0166422
792.645	0.0165463
792.723	0.0165747
792.801	0.0165948
792.879	0.0164639
792.957	0.0166742
793.035	0.0166664
793.113	0.0166148
793.192	0.0166305
793.270	0.0164695
793.348	0.0165608
793.426	0.0166330
793.504	0.0165334
793.582	0.0165880
793.660	0.0165195
793.738	0.0166219
793.817	0.0165633
793.895	0.0165228
793.973	0.0167210
794.051	0.0167101
794.129	0.0166163
794.207	0.0167619
794.285	0.0167072
794.363	0.0166158
794.442	0.0166769
794.520	0.0167033
794.598	0.0168104
794.676	0.0166755
794.754	0.0166563
794.832	0.0168053
794.910	0.0167186
794.988	0.0167272
795.067	0.0166203
795.145	0.0166051
795.223	0.0164445
795.301	0.0166074
795.379	0.0166817
795.457	0.0166494
795.535	0.0167439
795.613	0.0165177
795.692	0.0165793
795.770	0.0164635
795.848	0.0167140
795.926	0.0166929
796.004	0.0166186
796.082	0.0166605
796.160	0.0165895
796.238	0.0166897
796.317	0.0165076
796.395	0.0164517
796.473	0.0166607
796.551	0.0165888
796.629	0.0165318
796.707	0.0164809
796.785	0.0166586
796.863	0.0166935
796.942	0.0167280
797.020	0.0166247
797.098	0.0166203
797.176	0.0166256
797.254	0.0165199
797.332	0.0164502
797.410	0.0167286
797.488	0.0165939
797.567	0.0165940
797.645	0.0166436
797.723	0.0165024
797.801	0.0164301
797.879	0.0165263
797.957	0.0164948
798.035	0.0165638
798.113	0.0165707
798.192	0.0164709
798.270	0.0166071
798.348	0.0167087
798.426	0.0166398
798.504	0.0166667
798.582	0.0166611
798.660	0.0166440
798.738	0.0166565
798.817	0.0166409
798.895	0.0167011
798.973	0.0167005
799.051	0.0165417
799.129	0.0165709
799.207	0.0165768
799.285	0.0166288
799.363	0.0166797
799.442	0.0166243
799.520	0.0164877
799.598	0.0163844
799.676	0.0165539
799.754	0.0165127
799.832	0.0165299
799.910	0.0164967
799.988	0.0165667
800.067	0.0166890
800.145	0.0165812
800.223	0.0164829
800.301	0.0165527
800.379	0.0165697
800.457	0.0165574
800.535	0.0165694
800.613	0.0165742
800.692	0.0164986
800.770	0.0165593
800.848	0.0165242
800.926	0.0166563
801.004	0.0167197
801.082	0.0165697
801.160	0.0164558
801.238	0.0166426
801.317	0.0167764
801.395	0.0166370
801.473	0.0165845
801.551	0.0165365
801.629	0.0165840
801.707	0.0166198
801.785	0.0165614
801.863	0.0166463
801.942	0.0165715
802.020	0.0166664
802.098	0.0165298
802.176	0.0166443
802.254	0.0165426
802.332	0.0165774
802.410	0.0165923
802.488	0.0165434
802.567	0.0167529
802.645	0.0166937
802.723	0.0165660
802.801	0.0165616
802.879	0.0166223
802.957	0.0167211
803.035	0.0166894
803.113	0.0165777
803.192	0.0165205
803.270	0.0165007
803.348	0.0166931
803.426	0.0166769
803.504	0.0165906
803.582	0.0166084
803.660	0.0165913
803.738	0.0166349
803.817	0.0165874
803.895	0.0165636
803.973	0.0164891
804.051	0.0165841
804.129	0.0166718
804.207	0.0166514
804.285	0.0165076
804.363	0.0165288
804.442	0.0167059
804.520	0.0165659
804.598	0.0165447
804.676	0.0163839
804.754	0.0165314
804.832	0.0165938
804.910	0.0165017
804.988	0.0165495
805.067	0.0165510
805.145	0.0166641
805.223	0.0166228
805.301	0.0166124
805.379	0.0166073
805.457	0.0166425
805.535	0.0165322
805.613	0.0165692
805.692	0.0166498
805.770	0.0164896
805.848	0.0166183
805.926	0.0166411
806.004	0.0165688
806.082	0.0165416
806.160	0.0164565
806.238	0.0164089
806.317	0.0163746
806.395	0.0164567
806.473	0.0164943
806.551	0.0165451
806.629	0.0165083
806.707	0.0166783
806.785	0.0166237
806.863	0.0164513
806.942	0.0165405
807.020	0.0164947
807.098	0.0165890
807.176	0.0167183
807.254	0.0166808
807.332	0.0166039
807.410	0.0165971
807.488	0.0167020
807.567	0.0165591
807.645	0.0166284
807.723	0.0166901
807.801	0.0165906
807.879	0.0165659
807.957	0.0165798
808.035	0.0164277
808.113	0.0165789
808.192	0.0164597
808.270	0.0165976
808.348	0.0165638
808.426	0.0165144
808.504	0.0165675
808.582	0.0165739
808.660	0.0165632
808.738	0.0166341
808.817	0.0166264
808.895	0.0165206
808.973	0.0164358
809.051	0.0165060
809.129	0.0165796
809.207	0.0164450
809.285	0.0165314
809.363	0.0164597
809.442	0.0165171
809.520	0.0164957
809.598	0.0165337
809.676	0.0167316
809.754	0.0164533
809.832	0.0163995
809.910	0.0166196
809.988	0.0166908
810.067	0.0166711
810.145	0.0165209
810.223	0.0165588
810.301	0.0165751
810.379	0.0166195
810.457	0.0165224
810.535	0.0165168
810.613	0.0165251
810.692	0.0164375
810.770	0.0165578
810.848	0.0166579
810.926	0.0166433
811.004	0.0164943
811.082	0.0166158
811.160	0.0165993
811.238	0.0165043
811.317	0.0164777
811.395	0.0164772
811.473	0.0165843
811.551	0.0166961
811.629	0.0165652
811.707	0.0164985
811.785	0.0166520
811.863	0.0166283
811.942	0.0166389
812.020	0.0166657
812.098	0.0166101
812.176	0.0165226
812.254	0.0165034
812.332	0.0165184
812.410	0.0165911
812.488	0.0165921
812.567	0.0166834
812.645	0.0164180
812.723	0.0163665
812.801	0.0167453
812.879	0.0167292
812.957	0.0165668
813.035	0.0165954
813.113	0.0164327
813.192	0.0164816
813.270	0.0166045
813.348	0.0165722
813.426	0.0166279
813.504	0.0165012
813.582	0.0166009
813.660	0.0165305
813.738	0.0165148
813.817	0.0166846
813.895	0.0166369
813.973	0.0165456
814.051	0.0166615
814.129	0.0167146
814.207	0.0166128
814.285	0.0166933
814.363	0.0164684
814.442	0.0166928
814.520	0.0167070
814.598	0.0165124
814.676	0.0165884
814.754	0.0166164
814.832	0.0166400
814.910	0.0166480
814.988	0.0166557
815.067	0.0166470
815.145	0.0165468
815.223	0.0164762
815.301	0.0166239
815.379	0.0165323
815.457	0.0166792
815.535	0.0165287
815.613	0.0165965
815.692	0.0164887
815.770	0.0166764
815.848	0.0166127
815.926	0.0165150
816.004	0.0167043
816.082	0.0165128
816.160	0.0166463
816.238	0.0165984
816.317	0.0164989
816.395	0.0166054
816.473	0.0165417
816.551	0.0165974
816.629	0.0165925
816.707	0.0165794
816.785	0.0164871
816.863	0.0166183
816.942	0.0166322
817.020	0.0165965
817.098	0.0165487
817.176	0.0166037
817.254	0.0166792
817.332	0.0165883
817.410	0.0166599
817.488	0.0165468
817.567	0.0165910
817.645	0.0164812
817.723	0.0166532
817.801	0.0166482
817.879	0.0166199
817.957	0.0166690
818.035	0.0165942
818.113	0.0166848
818.192	0.0164645
818.270	0.0165554
818.348	0.0165292
818.426	0.0165237
818.504	0.0163513
818.582	0.0166795
818.660	0.0165795
818.738	0.0165794
818.817	0.0166079
818.895	0.0166119
818.973	0.0165881
819.051	0.0166298
819.129	0.0164320
819.207	0.0164840
819.285	0.0164655
819.363	0.0165268
819.442	0.0164408
819.520	0.0164182
819.598	0.0165620
819.676	0.0166586
819.754	0.0165530
819.832	0.0165797
819.910	0.0166560
819.988	0.0166076
820.067	0.0165454
820.145	0.0166836
820.223	0.0165820
820.301	0.0165690
820.379	0.0166281
820.457	0.0165326
820.535	0.0166107
820.613	0.0167143
820.692	0.0166914
820.770	0.0164826
820.848	0.0166953
820.926	0.0166040
821.004	0.0165448
821.082	0.0167271
821.160	0.0165785
821.238	0.0166053
821.317	0.0165340
821.395	0.0165296
821.473	0.0166765
821.551	0.0165814
821.629	0.0165628
821.707	0.0165873
821.785	0.0165698
821.863	0.0165356
821.942	0.0166238
822.020	0.0164821
822.098	0.0164966
822.176	0.0165421
822.254	0.0165201
822.332	0.0164875
822.410	0.0165200
822.488	0.0166251
822.567	0.0164559
822.645	0.0163892
822.723	0.0166554
822.801	0.0166598
822.879	0.0164047
822.957	0.0165230
823.035	0.0167001
823.113	0.0167652
823.192	0.0166151
823.270	0.0166393
823.348	0.0164663
823.426	0.0166295
823.504	0.0165662
823.582	0.0165030
823.660	0.0166922
823.738	0.0164508
823.817	0.0165451
823.895	0.0167152
823.973	0.0166299
824.051	0.0166512
824.129	0.0166732
824.207	0.0165536
824.285	0.0164764
824.363	0.0164591
824.442	0.0165334
824.520	0.0166030
824.598	0.0165488
824.676	0.0165654
824.754	0.0165866
824.832	0.0165121
824.910	0.0165320
824.988	0.0165079
825.067	0.0166397
825.145	0.0166383
825.223	0.0165935
825.301	0.0166313
825.379	0.0165250
825.457	0.0166450
825.535	0.0166580
825.613	0.0166884
825.692	0.0167347
825.770	0.0167478
825.848	0.0166026
825.926	0.0165721
826.004	0.0166447
826.082	0.0165759
826.160	0.0165746
826.238	0.0166075
826.317	0.0165642
826.395	0.0165390
826.473	0.0165790
826.551	0.0165900
826.629	0.0164378
826.707	0.0165248
826.785	0.0165320
826.863	0.0164947
826.942	0.0166377
827.020	0.0166795
827.098	0.0165607
827.176	0.0166183
827.254	0.0165228
827.332	0.0166415
827.410	0.0167038
827.488	0.0165231
827.567	0.0164873
827.645	0.0165845
827.723	0.0165108
827.801	0.0166489
827.879	0.0167122
827.957	0.0165844
828.035	0.0164285
828.113	0.0165136
828.192	0.0165767
828.270	0.0166584
828.348	0.0165909
828.426	0.0165263
828.504	0.0165337
828.582	0.0165765
828.660	0.0165030
828.738	0.0165070
828.817	0.0165998
828.895	0.0165624
828.973	0.0165382
829.051	0.0165545
829.129	0.0165433
829.207	0.0165088
829.285	0.0165520
829.363	0.0165744
829.442	0.0165601
829.520	0.0165910
829.598	0.0168107
829.676	0.0165938
829.754	0.0165849
829.832	0.0165530
829.910	0.0165272
829.988	0.0165830
830.067	0.0164192
830.145	0.0165877
830.223	0.0165513
830.301	0.0165776
830.379	0.0166145
830.457	0.0165370
830.535	0.0165662
830.613	0.0166250
830.692	0.0165535
830.770	0.0164909
830.848	0.0166094
830.926	0.0164013
831.004	0.0165464
831.082	0.0165247
831.160	0.0166111
831.238	0.0167181
831.317	0.0165823
831.395	0.0165849
831.473	0.0166228
831.551	0.0165778
831.629	0.0165936
831.707	0.0166326
831.785	0.0166364
831.863	0.0166817
831.942	0.0166175
832.020	0.0165945
832.098	0.0166219
832.176	0.0166300
832.254	0.0166031
832.332	0.0165597
832.410	0.0166293
832.488	0.0165180
832.567	0.0165342
832.645	0.0167065
832.723	0.0166796
832.801	0.0165643
832.879	0.0165631
832.957	0.0165942
833.035	0.0166147
833.113	0.0165836
833.192	0.0166563
833.270	0.0166028
833.348	0.0166968
833.426	0.0166846
833.504	0.0166225
833.582	0.0166746
833.660	0.0165099
833.738	0.0166682
833.817	0.0164843
833.895	0.0165589
833.973	0.0165960
834.051	0.0166168
834.129	0.0165788
834.207	0.0167106
834.285	0.0166004
834.363	0.0165392
834.442	0.0165677
834.520	0.0166446
834.598	0.0166199
834.676	0.0166553
834.754	0.0165613
834.832	0.0164606
834.910	0.0165149
834.988	0.0165064
835.067	0.0166631
835.145	0.0165102
835.223	0.0164740
835.301	0.0165515
835.379	0.0165092
835.457	0.0166986
835.535	0.0166088
835.613	0.0164309
835.692	0.0163581
835.770	0.0164457
835.848	0.0165965
835.926	0.0165789
836.004	0.0165209
836.082	0.0165993
836.160	0.0165945
836.238	0.0166202
836.317	0.0166304
836.395	0.0164592
836.473	0.0165958
836.551	0.0165353
836.629	0.0164955
836.707	0.0165710
836.785	0.0164845
836.863	0.0165561
836.942	0.0166301
837.020	0.0165886
837.098	0.0164243
837.176	0.0166234
837.254	0.0166137
837.332	0.0166351
837.410	0.0166502
837.488	0.0165240
837.567	0.0165184
837.645	0.0166927
837.723	0.0164906
837.801	0.0165233
837.879	0.0167429
837.957	0.0165093
838.035	0.0166335
838.113	0.0165312
838.192	0.0165164
838.270	0.0166059
838.348	0.0166787
838.426	0.0166225
838.504	0.0165629
838.582	0.0167192
838.660	0.0165215
838.738	0.0164196
838.817	0.0166180
838.895	0.0167360
838.973	0.0166361
839.051	0.0166013
839.129	0.0165790
839.207	0.0166595
839.285	0.0165665
839.363	0.0163776
839.442	0.0166773
839.520	0.0165781
839.598	0.0166900
839.676	0.0164931
839.754	0.0165479
839.832	0.0165326
839.910	0.0166000
839.988	0.0166525
840.067	0.0167446
840.145	0.0166199
840.223	0.0165393
840.301	0.0166279
840.379	0.0165786
840.457	0.0166746
840.535	0.0165583
840.613	0.0164651
840.692	0.0165218
840.770	0.0165874
840.848	0.0166340
840.926	0.0166305
841.004	0.0165541
841.082	0.0166019
841.160	0.0165007
841.238	0.0166164
841.317	0.0165469
841.395	0.0165070
841.473	0.0166479
841.551	0.0166032
841.629	0.0165608
841.707	0.0165380
841.785	0.0166195
841.863	0.0164806
841.942	0.0166356
842.020	0.0165287
842.098	0.0166721
842.176	0.0165736
842.254	0.0164921
842.332	0.0165968
842.410	0.0166335
842.488	0.0165697
842.567	0.0166696
842.645	0.0165697
842.723	0.0165784
842.801	0.0166619
842.879	0.0165852
842.957	0.0164986
843.035	0.0164237
843.113	0.0165170
843.192	0.0166605
843.270	0.0166119
843.348	0.0167953
843.426	0.0166442
843.504	0.0164146
843.582	0.0166136
843.660	0.0166285
843.738	0.0164536
843.817	0.0166661
843.895	0.0166666
843.973	0.0165980
844.051	0.0166502
844.129	0.0164999
844.207	0.0165359
844.285	0.0164827
844.363	0.0164608
844.442	0.0165983
844.520	0.0164993
844.598	0.0165952
844.676	0.0167558
844.754	0.0166924
844.832	0.0166855
844.910	0.0165087
844.988	0.0167254
845.067	0.0166510
845.145	0.0165040
845.223	0.0165220
845.301	0.0165242
845.379	0.0166214
845.457	0.0166615
845.535	0.0165347
845.613	0.0165682
845.692	0.0165574
845.770	0.0164481
845.848	0.0164610
845.926	0.0166063
846.004	0.0167162
846.082	0.0166389
846.160	0.0165298
846.238	0.0165146
846.317	0.0164818
846.395	0.0165588
846.473	0.0164428
846.551	0.0165347
846.629	0.0166786
846.707	0.0166089
846.785	0.0165459
846.863	0.0166025
846.942	0.0164948
847.020	0.0165405
847.098	0.0165012
847.176	0.0164713
847.254	0.0163969
847.332	0.0167305
847.410	0.0165790
847.488	0.0166296
847.567	0.0166099
847.645	0.0165374
847.723	0.0164225
847.801	0.0165737
847.879	0.0165798
847.957	0.0165603
848.035	0.0164722
848.113	0.0164799
848.192	0.0165431
848.270	0.0165387
848.348	0.0164959
848.426	0.0164077
848.504	0.0164322
848.582	0.0165376
848.660	0.0165532
848.738	0.0165453
848.817	0.0165440
848.895	0.0164468
848.973	0.0165491
849.051	0.0165818
849.129	0.0165950
849.207	0.0166441
849.285	0.0165462
849.363	0.0164475
849.442	0.0165694
849.520	0.0166058
849.598	0.0167181
849.676	0.0165954
849.754	0.0166092
849.832	0.0165118
849.910	0.0164989
849.988	0.0166085
850.067	0.0166228
850.145	0.0165531
850.223	0.0166402
850.301	0.0166810
850.379	0.0165971
850.457	0.0165454
850.535	0.0165054
850.613	0.0165837
850.692	0.0167133
850.770	0.0166800
850.848	0.0167245
850.926	0.0166211
851.004	0.0165885
851.082	0.0166068
851.160	0.0165723
851.238	0.0165239
851.317	0.0165467
851.395	0.0165993
851.473	0.0166755
851.551	0.0165254
851.629	0.0166977
851.707	0.0165594
851.785	0.0164633
851.863	0.0164615
851.942	0.0167523
852.020	0.0164674
852.098	0.0165498
852.176	0.0164790
852.254	0.0164326
852.332	0.0164433
852.410	0.0166026
852.488	0.0165291
852.567	0.0165126
852.645	0.0166286
852.723	0.0165462
852.801	0.0166454
852.879	0.0166405
852.957	0.0166093
853.035	0.0166426
853.113	0.0164962
853.192	0.0166232
853.270	0.0166639
853.348	0.0166480
853.426	0.0166581
853.504	0.0167036
853.582	0.0166866
853.660	0.0166180
853.738	0.0166045
853.817	0.0166241
853.895	0.0166226
853.973	0.0166757
854.051	0.0166752
854.129	0.0166162
854.207	0.0167127
854.285	0.0166576
854.363	0.0164901
854.442	0.0166592
854.520	0.0164507
854.598	0.0166902
854.676	0.0166709
854.754	0.0166795
854.832	0.0166969
854.910	0.0166336
854.988	0.0166259
855.067	0.0167989
855.145	0.0165102
855.223	0.0166244
855.301	0.0166094
855.379	0.0166790
855.457	0.0165978
855.535	0.0165443
855.613	0.0165958
855.692	0.0167258
855.770	0.0165767
855.848	0.0166325
855.926	0.0166511
856.004	0.0165451
856.082	0.0166534
856.160	0.0165002
856.238	0.0165470
856.317	0.0165590
856.395	0.0165507
856.473	0.0166175
856.551	0.0164883
856.629	0.0165504
856.707	0.0166404
856.785	0.0166085
856.863	0.0164445
856.942	0.0165695
857.020	0.0166180
857.098	0.0165289
857.176	0.0165508
857.254	0.0165594
857.332	0.0165282
857.410	0.0165183
857.488	0.0165759
857.567	0.0166167
857.645	0.0164843
857.723	0.0166219
857.801	0.0165864
857.879	0.0166764
857.957	0.0165836
858.035	0.0165564
858.113	0.0164992
858.192	0.0165582
858.270	0.0165189
858.348	0.0166148
858.426	0.0165925
858.504	0.0165791
858.582	0.0165763
858.660	0.0165891
858.738	0.0165353
858.817	0.0166376
858.895	0.0165707
858.973	0.0166735
859.051	0.0165038
859.129	0.0165107
859.207	0.0165141
859.285	0.0167473
859.363	0.0165866
859.442	0.0166331
859.520	0.0166021
859.598	0.0165012
859.676	0.0167381
859.754	0.0166486
859.832	0.0165231
859.910	0.0166041
859.988	0.0166947
860.067	0.0165536
860.145	0.0165850
860.223	0.0166315
860.301	0.0166299
860.379	0.0166436
860.457	0.0165448
860.535	0.0165609
860.613	0.0167137
860.692	0.0166622
860.770	0.0166998
860.848	0.0167626
860.926	0.0167684
861.004	0.0166309
861.082	0.0166371
861.160	0.0166370
861.238	0.0165363
861.317	0.0165968
861.395	0.0166501
861.473	0.0166973
861.551	0.0165598
861.629	0.0165998
861.707	0.0166241
861.785	0.0165836
861.863	0.0166276
861.942	0.0166167
862.020	0.0166013
862.098	0.0166113
862.176	0.0165427
862.254	0.0166232
862.332	0.0167115
862.410	0.0165628
862.488	0.0167231
862.567	0.0165784
862.645	0.0165477
862.723	0.0165917
862.801	0.0165590
862.879	0.0166512
862.957	0.0165989
863.035	0.0167575
863.113	0.0165903
863.192	0.0166665
863.270	0.0165122
863.348	0.0166107
863.426	0.0167090
863.504	0.0165366
863.582	0.0164982
863.660	0.0165459
863.738	0.0165546
863.817	0.0165929
863.895	0.0165966
863.973	0.0165661
864.051	0.0165744
864.129	0.0166388
864.207	0.0167154
864.285	0.0165477
864.363	0.0165985
864.442	0.0165961
864.520	0.0165383
864.598	0.0166234
864.676	0.0165482
864.754	0.0165230
864.832	0.0165471
864.910	0.0165812
864.988	0.0165115
865.067	0.0165353
865.145	0.0166245
865.223	0.0166473
865.301	0.0164886
865.379	0.0166163
865.457	0.0166832
865.535	0.0166530
865.613	0.0165379
865.692	0.0166231
865.770	0.0166019
865.848	0.0166669
865.926	0.0165613
866.004	0.0165676
866.082	0.0165475
866.160	0.0165999
866.238	0.0166560
866.317	0.0165845
866.395	0.0166496
866.473	0.0165804
866.551	0.0165337
866.629	0.0165258
866.707	0.0165107
866.785	0.0165829
866.863	0.0167090
866.942	0.0166017
867.020	0.0165455
867.098	0.0166185
867.176	0.0165184
867.254	0.0165046
867.332	0.0165341
867.410	0.0164629
867.488	0.0165894
867.567	0.0165965
867.645	0.0166801
867.723	0.0165278
867.801	0.0166501
867.879	0.0165968
867.957	0.0165331
868.035	0.0165267
868.113	0.0165484
868.192	0.0165916
868.270	0.0165989
868.348	0.0165963
868.426	0.0165866
868.504	0.0166004
868.582	0.0164832
868.660	0.0166212
868.738	0.0165903
868.817	0.0165982
868.895	0.0167662
868.973	0.0165827
869.051	0.0166782
869.129	0.0166071
869.207	0.0166106
869.285	0.0166599
869.363	0.0165208
869.442	0.0165970
869.520	0.0166059
869.598	0.0167604
869.676	0.0167066
869.754	0.0165580
869.832	0.0166418
869.910	0.0164895
869.988	0.0166525
870.067	0.0165820
870.145	0.0165740
870.223	0.0164910
870.301	0.0165904
870.379	0.0165468
870.457	0.0164750
870.535	0.0166318
870.613	0.0165848
870.692	0.0165731
870.770	0.0165223
870.848	0.0164606
870.926	0.0166226
871.004	0.0166609
871.082	0.0165842
871.160	0.0166149
871.238	0.0165035
871.317	0.0166314
871.395	0.0165348
871.473	0.0165489
871.551	0.0166301
871.629	0.0167736
871.707	0.0166008
871.785	0.0166913
871.863	0.0166326
871.942	0.0165189
872.020	0.0164594
872.098	0.0165974
872.176	0.0165012
872.254	0.0165986
872.332	0.0165049
872.410	0.0166358
872.488	0.0165627
872.567	0.0165484
872.645	0.0165302
872.723	0.0164736
872.801	0.0165961
872.879	0.0165252
872.957	0.0165697
873.035	0.0164994
873.113	0.0166467
873.192	0.0164635
873.270	0.0165228
873.348	0.0164513
873.426	0.0165405
873.504	0.0166714
873.582	0.0165972
873.660	0.0165852
873.738	0.0165889
873.817	0.0166122
873.895	0.0165636
873.973	0.0166875
874.051	0.0167970
874.129	0.0166106
874.207	0.0166644
874.285	0.0164759
874.363	0.0165604
874.442	0.0166827
874.520	0.0166911
874.598	0.0165936
874.676	0.0164816
874.754	0.0165519
874.832	0.0165132
874.910	0.0164980
874.988	0.0165777
875.067	0.0165765
875.145	0.0166421
875.223	0.0164824
875.301	0.0165419
875.379	0.0165106
875.457	0.0166499
875.535	0.0165112
875.613	0.0165784
875.692	0.0165472
875.770	0.0166415
875.848	0.0166113
875.926	0.0165755
876.004	0.0166783
876.082	0.0166328
876.160	0.0166475
876.238	0.0166183
876.317	0.0166875
876.395	0.0165937
876.473	0.0166425
876.551	0.0164525
876.629	0.0165363
876.707	0.0165942
876.785	0.0166037
876.863	0.0166493
876.942	0.0164988
877.020	0.0165598
877.098	0.0166134
877.176	0.0165123
877.254	0.0166947
877.332	0.0164776
877.410	0.0165723
877.488	0.0166498
877.567	0.0164881
877.645	0.0166008
877.723	0.0166473
877.801	0.0164574
877.879	0.0165553
877.957	0.0166781
878.035	0.0165427
878.113	0.0167441
878.192	0.0165870
878.270	0.0166408
878.348	0.0167720
878.426	0.0165449
878.504	0.0166579
878.582	0.0165777
878.660	0.0166217
878.738	0.0166060
878.817	0.0166821
878.895	0.0167694
878.973	0.0166509
879.051	0.0165947
879.129	0.0167091
879.207	0.0165987
879.285	0.0166165
879.363	0.0165660
879.442	0.0164248
879.520	0.0165542
879.598	0.0166756
879.676	0.0165585
879.754	0.0166807
879.832	0.0166225
879.910	0.0165556
879.988	0.0167600
880.067	0.0165731
880.145	0.0166141
880.223	0.0165645
880.301	0.0166199
880.379	0.0165859
880.457	0.0165569
880.535	0.0166798
880.613	0.0166385
880.692	0.0166717
880.770	0.0165562
880.848	0.0166184
880.926	0.0166273
881.004	0.0166096
881.082	0.0166016
881.160	0.0164783
881.238	0.0167413
881.317	0.0166957
881.395	0.0165192
881.473	0.0165434
881.551	0.0164564
881.629	0.0165541
881.707	0.0165739
881.785	0.0165472
881.863	0.0166113
881.942	0.0165786
882.020	0.0166454
882.098	0.0166099
882.176	0.0165997
882.254	0.0166632
882.332	0.0166796
882.410	0.0166865
882.488	0.0166131
882.567	0.0165604
882.645	0.0165224
882.723	0.0164569
882.801	0.0164747
882.879	0.0165472
882.957	0.0164545
883.035	0.0165311
883.113	0.0165772
883.192	0.0164771
883.270	0.0166077
883.348	0.0167550
883.426	0.0167451
883.504	0.0167066
883.582	0.0167812
883.660	0.0167334
883.738	0.0167776
883.817	0.0165514
883.895	0.0166940
883.973	0.0167023
884.051	0.0165954
884.129	0.0165333
884.207	0.0164212
884.285	0.0164824
884.363	0.0164150
884.442	0.0165190
884.520	0.0166138
884.598	0.0166917
884.676	0.0166485
884.754	0.0166472
884.832	0.0166965
884.910	0.0166444
884.988	0.0166146
885.067	0.0166504
885.145	0.0167658
885.223	0.0166619
885.301	0.0165169
885.379	0.0165427
885.457	0.0164270
885.535	0.0164393
885.613	0.0166169
885.692	0.0166833
885.770	0.0166268
885.848	0.0164522
885.926	0.0165100
886.004	0.0165237
886.082	0.0165681
886.160	0.0168088
886.238	0.0166003
886.317	0.0167344
886.395	0.0166720
886.473	0.0167844
886.551	0.0167879
886.629	0.0166322
886.707	0.0165797
886.785	0.0167852
886.863	0.0166696
886.942	0.0165971
887.020	0.0166373
887.098	0.0165664
887.176	0.0166066
887.254	0.0165560
887.332	0.0165260
887.410	0.0164938
887.488	0.0166603
887.567	0.0165328
887.645	0.0164758
887.723	0.0166454
887.801	0.0166335
887.879	0.0165530
887.957	0.0166120
888.035	0.0165473
888.113	0.0165718
888.192	0.0166227
888.270	0.0165202
888.348	0.0165910
888.426	0.0166471
888.504	0.0166180
888.582	0.0164922
888.660	0.0166871
888.738	0.0166378
888.817	0.0165183
888.895	0.0166619
888.973	0.0166331
889.051	0.0167226
889.129	0.0165499
889.207	0.0166260
889.285	0.0165489
889.363	0.0165507
889.442	0.0165407
889.520	0.0166729
889.598	0.0165546
889.676	0.0167067
889.754	0.0168454
889.832	0.0166947
889.910	0.0165894
889.988	0.0165568
890.067	0.0166272
890.145	0.0166217
890.223	0.0165732
890.301	0.0163742
890.379	0.0164158
890.457	0.0164575
890.535	0.0166515
890.613	0.0165911
890.692	0.0165202
890.770	0.0164173
890.848	0.0163268
890.926	0.0163545
891.004	0.0165023
891.082	0.0166069
891.160	0.0164169
891.238	0.0166748
891.317	0.0164973
891.395	0.0165405
891.473	0.0165244
891.551	0.0165614
891.629	0.0165753
891.707	0.0166402
891.785	0.0167469
891.863	0.0166270
891.942	0.0166780
892.020	0.0165926
892.098	0.0165919
892.176	0.0166699
892.254	0.0166829
892.332	0.0167248
892.410	0.0167516
892.488	0.0167827
892.567	0.0166746
892.645	0.0166348
892.723	0.0166755
892.801	0.0165726
892.879	0.0166662
892.957	0.0166209
893.035	0.0165832
893.113	0.0166708
893.192	0.0166801
893.270	0.0164997
893.348	0.0165741
893.426	0.0166480
893.504	0.0165393
893.582	0.0164713
893.660	0.0165308
893.738	0.0164651
893.817	0.0164137
893.895	0.0165988
893.973	0.0165577
894.051	0.0166595
894.129	0.0165307
894.207	0.0165441
894.285	0.0165042
894.363	0.0164598
894.442	0.0165242
894.520	0.0163657
894.598	0.0164388
894.676	0.0164416
894.754	0.0165038
894.832	0.0165596
894.910	0.0164062
894.988	0.0165181
895.067	0.0164490
895.145	0.0166798
895.223	0.0167068
895.301	0.0165785
895.379	0.0165791
895.457	0.0164314
895.535	0.0164983
895.613	0.0166240
895.692	0.0165570
895.770	0.0166227
895.848	0.0167137
895.926	0.0165727
896.004	0.0165804
896.082	0.0166586
896.160	0.0166114
896.238	0.0164972
896.317	0.0166467
896.395	0.0166204
896.473	0.0165841
896.551	0.0166020
896.629	0.0165026
896.707	0.0166029
896.785	0.0166299
896.863	0.0165304
896.942	0.0166294
897.020	0.0164712
897.098	0.0166020
897.176	0.0165678
897.254	0.0165450
897.332	0.0165964
897.410	0.0166188
897.488	0.0165044
897.567	0.0164914
897.645	0.0165487
897.723	0.0164978
897.801	0.0164997
897.879	0.0165939
897.957	0.0165987
898.035	0.0165180
898.113	0.0167034
898.192	0.0167007
898.270	0.0165670
898.348	0.0164904
898.426	0.0165841
898.504	0.0167464
898.582	0.0166404
898.660	0.0166096
898.738	0.0166064
898.817	0.0166881
898.895	0.0165409
898.973	0.0166904
899.051	0.0166616
899.129	0.0165563
899.207	0.0166166
899.285	0.0165467
899.363	0.0165569
899.442	0.0166852
899.520	0.0166380
899.598	0.0165985
899.676	0.0164861
899.754	0.0166118
899.832	0.0166724
899.910	0.0167036
899.988	0.0165060
900.067	0.0165395
900.145	0.0165759
900.223	0.0167360
900.301	0.0166257
900.379	0.0165501
900.457	0.0166570
900.535	0.0165455
900.613	0.0166040
900.692	0.0164917
900.770	0.0165849
900.848	0.0166251
900.926	0.0166417
901.004	0.0166019
901.082	0.0165601
901.160	0.0164877
901.238	0.0166194
901.317	0.0165292
901.395	0.0165045
901.473	0.0165587
901.551	0.0164349
901.629	0.0164812
901.707	0.0165064
901.785	0.0165658
901.863	0.0165785
901.942	0.0164974
902.020	0.0165266
902.098	0.0165242
902.176	0.0165797
902.254	0.0167253
902.332	0.0165862
902.410	0.0165639
902.488	0.0166545
902.567	0.0164333
902.645	0.0164808
902.723	0.0166825
902.801	0.0165799
902.879	0.0165972
902.957	0.0164671
903.035	0.0166523
903.113	0.0166586
903.192	0.0166438
903.270	0.0165561
903.348	0.0164726
903.426	0.0165512
903.504	0.0165190
903.582	0.0164864
903.660	0.0166243
903.738	0.0165427
903.817	0.0165827
903.895	0.0165915
903.973	0.0164487
904.051	0.0166014
904.129	0.0166135
904.207	0.0165328
904.285	0.0164823
904.363	0.0164955
904.442	0.0166252
904.520	0.0165087
904.598	0.0165685
904.676	0.0165713
904.754	0.0165250
904.832	0.0165829
904.910	0.0164937
904.988	0.0165151
905.067	0.0164835
905.145	0.0166022
905.223	0.0166939
905.301	0.0165548
905.379	0.0165843
905.457	0.0165668
905.535	0.0166144
905.613	0.0165490
905.692	0.0164960
905.770	0.0164700
905.848	0.0165627
905.926	0.0165156
906.004	0.0164569
906.082	0.0163683
906.160	0.0164074
906.238	0.0165723
906.317	0.0165300
906.395	0.0164655
906.473	0.0165162
906.551	0.0166344
906.629	0.0166330
906.707	0.0165305
906.785	0.0165169
906.863	0.0165189
906.942	0.0164559
907.020	0.0166941
907.098	0.0167267
907.176	0.0166260
907.254	0.0165730
907.332	0.0165078
907.410	0.0166589
907.488	0.0164484
907.567	0.0166656
907.645	0.0165663
907.723	0.0165632
907.801	0.0166262
907.879	0.0166101
907.957	0.0165701
908.035	0.0167316
908.113	0.0166883
908.192	0.0165353
908.270	0.0165541
908.348	0.0166073
908.426	0.0166225
908.504	0.0166391
908.582	0.0165923
908.660	0.0165364
908.738	0.0165298
908.817	0.0165104
908.895	0.0165278
908.973	0.0167275
909.051	0.0166384
909.129	0.0165205
909.207	0.0163741
909.285	0.0165423
909.363	0.0166544
909.442	0.0166666
909.520	0.0165308
909.598	0.0167744
909.676	0.0164930
909.754	0.0164909
909.832	0.0165607
909.910	0.0165886
909.988	0.0163968
910.067	0.0164764
910.145	0.0166984
910.223	0.0165334
910.301	0.0165521
910.379	0.0166035
910.457	0.0166425
910.535	0.0165080
910.613	0.0164182
910.692	0.0166637
910.770	0.0165751
910.848	0.0165229
910.926	0.0166035
911.004	0.0165511
911.082	0.0165208
911.160	0.0165284
911.238	0.0166123
911.317	0.0165398
911.395	0.0165512
911.473	0.0166025
911.551	0.0167090
911.629	0.0166459
911.707	0.0166313
911.785	0.0166296
911.863	0.0166517
911.942	0.0165894
912.020	0.0166062
912.098	0.0165498
912.176	0.0165512
912.254	0.0166328
912.332	0.0166360
912.410	0.0164843
912.488	0.0166241
912.567	0.0165019
912.645	0.0164970
912.723	0.0165393
912.801	0.0164194
912.879	0.0165156
912.957	0.0165611
913.035	0.0165805
913.113	0.0163718
913.192	0.0165345
913.270	0.0167145
913.348	0.0167162
913.426	0.0165350
913.504	0.0164520
913.582	0.0166650
913.660	0.0165968
913.738	0.0166905
913.817	0.0165990
913.895	0.0166227
913.973	0.0165882
914.051	0.0165208
914.129	0.0165314
914.207	0.0165301
914.285	0.0165958
914.363	0.0166319
914.442	0.0165479
914.520	0.0166948
914.598	0.0165495
914.676	0.0165691
914.754	0.0165482
914.832	0.0165697
914.910	0.0165345
914.988	0.0165708
915.067	0.0166216
915.145	0.0166177
915.223	0.0166472
915.301	0.0166362
915.379	0.0165570
915.457	0.0166102
915.535	0.0166106
915.613	0.0164990
915.692	0.0165421
915.770	0.0166163
915.848	0.0164925
915.926	0.0165516
916.004	0.0165693
916.082	0.0164938
916.160	0.0165763
916.238	0.0165210
916.317	0.0165316
916.395	0.0165269
916.473	0.0166222
916.551	0.0164967
916.629	0.0164041
916.707	0.0164624
916.785	0.0163914
916.863	0.0165669
916.942	0.0164602
917.020	0.0163578
917.098	0.0165012
917.176	0.0165529
917.254	0.0165886
917.332	0.0164574
917.410	0.0164944
917.488	0.0166299
917.567	0.0165018
917.645	0.0166179
917.723	0.0164943
917.801	0.0165137
917.879	0.0165794
917.957	0.0165025
918.035	0.0165229
918.113	0.0164940
918.192	0.0166265
918.270	0.0165284
918.348	0.0166381
918.426	0.0164928
918.504	0.0166604
918.582	0.0166307
918.660	0.0164376
918.738	0.0164915
918.817	0.0165993
918.895	0.0165641
918.973	0.0166081
919.051	0.0166035
919.129	0.0165719
919.207	0.0165436
919.285	0.0165118
919.363	0.0165871
919.442	0.0165127
919.520	0.0164822
919.598	0.0166181
919.676	0.0166090
919.754	0.0166187
919.832	0.0165221
919.910	0.0164994
