06/03/2022	14:13:50	Ver.	4.1	UNKNOWN
Optical Delay	599.981738	Delta X		0.078125	Sweeps	1	Scan Rate	0/0
Coordinates	Axis 1	NaN	Axis 2	NaN	Axis 3	NaN	Axis 4	NaN	Axis 5	NaN	Axis 6	0.000000
TX Power	0.000000	RX Power	0.000000

599.982	0.0164250
600.060	0.0163457
600.138	0.0164560
600.216	0.0164561
600.294	0.0165217
600.372	0.0165289
600.450	0.0165186
600.529	0.0164731
600.607	0.0165118
600.685	0.0164952
600.763	0.0165336
600.841	0.0165564
600.919	0.0164555
600.997	0.0163767
601.075	0.0164732
601.154	0.0164492
601.232	0.0163998
601.310	0.0165208
601.388	0.0165400
601.466	0.0164896
601.544	0.0165469
601.622	0.0164055
601.700	0.0164468
601.779	0.0164117
601.857	0.0164772
601.935	0.0164664
602.013	0.0164430
602.091	0.0163856
602.169	0.0166143
602.247	0.0166133
602.325	0.0163767
602.404	0.0163625
602.482	0.0165393
602.560	0.0164062
602.638	0.0164919
602.716	0.0164429
602.794	0.0165093
602.872	0.0164237
602.950	0.0164359
603.029	0.0163956
603.107	0.0165140
603.185	0.0164097
603.263	0.0163102
603.341	0.0164341
603.419	0.0164737
603.497	0.0162731
603.575	0.0163705
603.654	0.0163958
603.732	0.0163757
603.810	0.0162752
603.888	0.0164522
603.966	0.0164439
604.044	0.0164644
604.122	0.0163551
604.200	0.0163915
604.279	0.0163439
604.357	0.0164041
604.435	0.0163991
604.513	0.0162898
604.591	0.0163766
604.669	0.0163780
604.747	0.0164072
604.825	0.0163533
604.904	0.0164081
604.982	0.0164434
605.060	0.0165419
605.138	0.0163654
605.216	0.0165064
605.294	0.0164927
605.372	0.0163889
605.450	0.0164886
605.529	0.0163949
605.607	0.0164077
605.685	0.0164046
605.763	0.0164527
605.841	0.0165253
605.919	0.0162999
605.997	0.0164141
606.075	0.0165079
606.154	0.0163774
606.232	0.0163428
606.310	0.0165109
606.388	0.0164437
606.466	0.0164565
606.544	0.0163405
606.622	0.0164069
606.700	0.0163872
606.779	0.0163786
606.857	0.0164088
606.935	0.0164912
607.013	0.0164337
607.091	0.0164857
607.169	0.0164330
607.247	0.0163478
607.325	0.0164639
607.404	0.0164835
607.482	0.0162880
607.560	0.0164983
607.638	0.0163291
607.716	0.0163550
607.794	0.0164120
607.872	0.0164635
607.950	0.0164629
608.029	0.0165363
608.107	0.0164690
608.185	0.0164252
608.263	0.0163323
608.341	0.0164343
608.419	0.0163953
608.497	0.0164394
608.575	0.0163940
608.654	0.0164701
608.732	0.0164233
608.810	0.0165025
608.888	0.0163308
608.966	0.0163892
609.044	0.0163987
609.122	0.0164536
609.200	0.0165396
609.279	0.0164381
609.357	0.0164300
609.435	0.0165464
609.513	0.0164970
609.591	0.0164742
609.669	0.0164646
609.747	0.0162685
609.825	0.0163893
609.904	0.0164819
609.982	0.0163656
610.060	0.0165121
610.138	0.0164903
610.216	0.0164310
610.294	0.0163622
610.372	0.0164786
610.450	0.0165645
610.529	0.0164679
610.607	0.0164341
610.685	0.0163498
610.763	0.0165709
610.841	0.0165450
610.919	0.0165059
610.997	0.0164175
611.075	0.0164167
611.154	0.0164753
611.232	0.0165076
611.310	0.0164707
611.388	0.0165040
611.466	0.0164436
611.544	0.0165023
611.622	0.0164474
611.700	0.0163973
611.779	0.0164746
611.857	0.0164622
611.935	0.0164440
612.013	0.0165822
612.091	0.0164487
612.169	0.0165850
612.247	0.0165115
612.325	0.0163783
612.404	0.0165176
612.482	0.0164763
612.560	0.0165366
612.638	0.0165475
612.716	0.0164417
612.794	0.0164892
612.872	0.0164809
612.950	0.0164326
613.029	0.0163670
613.107	0.0165133
613.185	0.0165117
613.263	0.0163778
613.341	0.0164249
613.419	0.0163853
613.497	0.0164068
613.575	0.0164258
613.654	0.0164239
613.732	0.0165121
613.810	0.0164365
613.888	0.0165147
613.966	0.0164560
614.044	0.0163815
614.122	0.0163194
614.200	0.0165927
614.279	0.0164083
614.357	0.0164439
614.435	0.0165121
614.513	0.0163625
614.591	0.0164086
614.669	0.0164444
614.747	0.0164551
614.825	0.0163730
614.904	0.0165208
614.982	0.0164901
615.060	0.0164307
615.138	0.0163679
615.216	0.0164374
615.294	0.0165363
615.372	0.0165269
615.450	0.0164462
615.529	0.0165453
615.607	0.0165482
615.685	0.0164532
615.763	0.0164095
615.841	0.0164450
615.919	0.0165247
615.997	0.0164547
616.075	0.0164299
616.154	0.0164077
616.232	0.0163914
616.310	0.0165307
616.388	0.0165192
616.466	0.0164953
616.544	0.0165420
616.622	0.0163844
616.700	0.0164059
616.779	0.0165713
616.857	0.0163886
616.935	0.0163946
617.013	0.0163505
617.091	0.0164431
617.169	0.0164193
617.247	0.0164890
617.325	0.0165619
617.404	0.0164227
617.482	0.0164264
617.560	0.0164782
617.638	0.0164761
617.716	0.0164205
617.794	0.0166058
617.872	0.0164729
617.950	0.0163673
618.029	0.0164748
618.107	0.0164853
618.185	0.0165653
618.263	0.0163192
618.341	0.0165381
618.419	0.0165473
618.497	0.0164666
618.575	0.0165585
618.654	0.0165275
618.732	0.0165029
618.810	0.0164505
618.888	0.0164770
618.966	0.0164346
619.044	0.0165559
619.122	0.0165091
619.200	0.0164315
619.279	0.0164704
619.357	0.0165527
619.435	0.0164552
619.513	0.0165334
619.591	0.0165146
619.669	0.0163786
619.747	0.0165407
619.825	0.0163242
619.904	0.0163817
619.982	0.0165729
620.060	0.0166359
620.138	0.0165178
620.216	0.0164483
620.294	0.0165079
620.372	0.0164435
620.450	0.0166074
620.529	0.0165810
620.607	0.0165509
620.685	0.0164343
620.763	0.0165657
620.841	0.0164823
620.919	0.0165904
620.997	0.0164177
621.075	0.0163924
621.154	0.0163713
621.232	0.0165481
621.310	0.0165187
621.388	0.0164858
621.466	0.0165176
621.544	0.0164342
621.622	0.0164085
621.700	0.0164184
621.779	0.0164091
621.857	0.0164365
621.935	0.0164114
622.013	0.0163925
622.091	0.0165250
622.169	0.0164986
622.247	0.0163514
622.325	0.0164984
622.404	0.0165310
622.482	0.0164680
622.560	0.0164104
622.638	0.0164501
622.716	0.0165405
622.794	0.0163834
622.872	0.0164738
622.950	0.0163687
623.029	0.0165030
623.107	0.0165576
623.185	0.0166279
623.263	0.0165385
623.341	0.0164426
623.419	0.0163744
623.497	0.0164648
623.575	0.0164034
623.654	0.0164283
623.732	0.0165901
623.810	0.0165531
623.888	0.0163416
623.966	0.0163208
624.044	0.0163660
624.122	0.0164413
624.200	0.0163703
624.279	0.0164693
624.357	0.0164703
624.435	0.0162972
624.513	0.0163686
624.591	0.0164456
624.669	0.0164224
624.747	0.0164726
624.825	0.0163366
624.904	0.0162534
624.982	0.0164629
625.060	0.0164753
625.138	0.0162632
625.216	0.0163180
625.294	0.0164730
625.372	0.0162879
625.450	0.0162715
625.529	0.0162887
625.607	0.0165131
625.685	0.0162669
625.763	0.0163163
625.841	0.0164824
625.919	0.0163562
625.997	0.0162708
626.075	0.0163749
626.154	0.0164817
626.232	0.0163193
626.310	0.0164928
626.388	0.0163179
626.466	0.0163729
626.544	0.0162614
626.622	0.0163680
626.700	0.0164079
626.779	0.0164641
626.857	0.0164652
626.935	0.0164845
627.013	0.0164390
627.091	0.0165665
627.169	0.0165818
627.247	0.0163548
627.325	0.0164508
627.404	0.0165158
627.482	0.0165816
627.560	0.0164272
627.638	0.0163585
627.716	0.0164375
627.794	0.0164083
627.872	0.0164610
627.950	0.0164641
628.029	0.0164626
628.107	0.0165454
628.185	0.0167148
628.263	0.0165089
628.341	0.0165292
628.419	0.0164902
628.497	0.0166704
628.575	0.0165309
628.654	0.0166293
628.732	0.0164603
628.810	0.0164964
628.888	0.0163299
628.966	0.0163790
629.044	0.0164615
629.122	0.0162851
629.200	0.0161015
629.279	0.0161313
629.357	0.0161109
629.435	0.0161578
629.513	0.0161917
629.591	0.0163005
629.669	0.0163136
629.747	0.0166033
629.825	0.0166938
629.904	0.0167710
629.982	0.0170201
630.060	0.0169404
630.138	0.0169304
630.216	0.0169641
630.294	0.0166342
630.372	0.0166117
630.450	0.0163724
630.529	0.0161555
630.607	0.0160358
630.685	0.0158672
630.763	0.0158176
630.841	0.0157606
630.919	0.0159457
630.997	0.0158998
631.075	0.0162160
631.154	0.0165959
631.232	0.0167213
631.310	0.0169002
631.388	0.0170968
631.466	0.0172330
631.544	0.0172571
631.622	0.0172658
631.700	0.0172128
631.779	0.0171680
631.857	0.0168418
631.935	0.0166833
632.013	0.0162537
632.091	0.0161530
632.169	0.0159254
632.247	0.0156866
632.325	0.0157226
632.404	0.0155981
632.482	0.0156761
632.560	0.0157366
632.638	0.0157299
632.716	0.0160799
632.794	0.0163938
632.872	0.0163764
632.950	0.0165163
633.029	0.0168430
633.107	0.0169545
633.185	0.0171092
633.263	0.0170515
633.341	0.0170860
633.419	0.0168293
633.497	0.0169294
633.575	0.0167281
633.654	0.0163239
633.732	0.0161406
633.810	0.0159784
633.888	0.0157819
633.966	0.0157269
634.044	0.0158485
634.122	0.0160471
634.200	0.0161623
634.279	0.0163651
634.357	0.0165192
634.435	0.0166682
634.513	0.0167379
634.591	0.0168837
634.669	0.0168237
634.747	0.0167671
634.825	0.0167272
634.904	0.0166295
634.982	0.0166250
635.060	0.0164379
635.138	0.0165865
635.216	0.0163863
635.294	0.0165136
635.372	0.0165106
635.450	0.0166267
635.529	0.0168583
635.607	0.0166267
635.685	0.0167261
635.763	0.0167587
635.841	0.0166740
635.919	0.0165372
635.997	0.0166188
636.075	0.0164684
636.154	0.0164610
636.232	0.0162137
636.310	0.0161818
636.388	0.0161048
636.466	0.0160805
636.544	0.0159566
636.622	0.0161275
636.700	0.0161845
636.779	0.0160635
636.857	0.0161207
636.935	0.0164451
637.013	0.0165303
637.091	0.0165974
637.169	0.0168529
637.247	0.0168118
637.325	0.0168908
637.404	0.0169604
637.482	0.0168790
637.560	0.0167184
637.638	0.0166048
637.716	0.0164972
637.794	0.0164689
637.872	0.0164133
637.950	0.0163417
638.029	0.0161180
638.107	0.0161423
638.185	0.0162023
638.263	0.0161610
638.341	0.0161157
638.419	0.0161221
638.497	0.0162415
638.575	0.0161278
638.654	0.0162231
638.732	0.0163665
638.810	0.0165108
638.888	0.0164323
638.966	0.0165545
639.044	0.0167264
639.122	0.0168011
639.200	0.0168551
639.279	0.0168105
639.357	0.0170048
639.435	0.0166361
639.513	0.0166431
639.591	0.0166653
639.669	0.0165070
639.747	0.0164468
639.825	0.0163660
639.904	0.0161668
639.982	0.0161205
640.060	0.0160210
640.138	0.0161387
640.216	0.0160780
640.294	0.0163206
640.372	0.0163339
640.450	0.0163488
640.529	0.0165883
640.607	0.0166216
640.685	0.0167739
640.763	0.0168176
640.841	0.0168112
640.919	0.0166336
640.997	0.0165924
641.075	0.0164340
641.154	0.0164499
641.232	0.0162887
641.310	0.0164516
641.388	0.0163924
641.466	0.0162705
641.544	0.0164606
641.622	0.0165845
641.700	0.0166773
641.779	0.0166583
641.857	0.0167879
641.935	0.0168268
642.013	0.0167233
642.091	0.0168002
642.169	0.0167134
642.247	0.0166148
642.325	0.0164074
642.404	0.0161633
642.482	0.0161027
642.560	0.0160458
642.638	0.0160067
642.716	0.0159750
642.794	0.0159820
642.872	0.0160585
642.950	0.0162094
643.029	0.0163917
643.107	0.0164083
643.185	0.0167132
643.263	0.0167812
643.341	0.0167947
643.419	0.0170130
643.497	0.0170161
643.575	0.0168819
643.654	0.0168737
643.732	0.0168353
643.810	0.0167907
643.888	0.0166619
643.966	0.0166350
644.044	0.0163927
644.122	0.0161366
644.200	0.0161236
644.279	0.0161417
644.357	0.0158415
644.435	0.0158846
644.513	0.0160201
644.591	0.0158810
644.669	0.0160649
644.747	0.0163804
644.825	0.0166190
644.904	0.0166217
644.982	0.0168571
645.060	0.0168997
645.138	0.0170505
645.216	0.0170518
645.294	0.0170147
645.372	0.0168626
645.450	0.0167500
645.529	0.0164826
645.607	0.0164658
645.685	0.0164296
645.763	0.0163090
645.841	0.0160972
645.919	0.0160731
645.997	0.0160989
646.075	0.0162135
646.154	0.0161691
646.232	0.0160831
646.310	0.0162369
646.388	0.0162027
646.466	0.0162105
646.544	0.0163456
646.622	0.0164631
646.700	0.0165196
646.779	0.0164563
646.857	0.0164458
646.935	0.0166863
647.013	0.0165905
647.091	0.0165307
647.169	0.0166224
647.247	0.0165667
647.325	0.0165482
647.404	0.0165974
647.482	0.0166113
647.560	0.0166310
647.638	0.0164048
647.716	0.0165511
647.794	0.0165677
647.872	0.0164818
647.950	0.0163905
648.029	0.0161882
648.107	0.0161634
648.185	0.0162939
648.263	0.0161370
648.341	0.0162319
648.419	0.0162424
648.497	0.0163599
648.575	0.0164944
648.654	0.0164523
648.732	0.0164922
648.810	0.0166582
648.888	0.0165890
648.966	0.0165261
649.044	0.0166273
649.122	0.0166161
649.200	0.0165413
649.279	0.0166755
649.357	0.0164969
649.435	0.0164664
649.513	0.0163519
649.591	0.0163612
649.669	0.0163326
649.747	0.0163153
649.825	0.0163139
649.904	0.0162960
649.982	0.0163927
650.060	0.0163380
650.138	0.0164269
650.216	0.0164386
650.294	0.0164613
650.372	0.0165604
650.450	0.0164034
650.529	0.0165640
650.607	0.0164961
650.685	0.0165875
650.763	0.0165057
650.841	0.0164292
650.919	0.0164197
650.997	0.0163902
651.075	0.0165539
651.154	0.0164812
651.232	0.0166283
651.310	0.0166874
651.388	0.0164739
651.466	0.0164236
651.544	0.0165510
651.622	0.0164557
651.700	0.0163362
651.779	0.0163274
651.857	0.0162163
651.935	0.0161928
652.013	0.0163465
652.091	0.0162232
652.169	0.0163513
652.247	0.0163418
652.325	0.0164077
652.404	0.0164343
652.482	0.0164410
652.560	0.0163641
652.638	0.0163546
652.716	0.0163264
652.794	0.0163557
652.872	0.0164223
652.950	0.0164365
653.029	0.0163442
653.107	0.0164423
653.185	0.0164004
653.263	0.0165382
653.341	0.0165247
653.419	0.0165171
653.497	0.0166227
653.575	0.0167059
653.654	0.0168087
653.732	0.0169411
653.810	0.0168849
653.888	0.0167728
653.966	0.0169630
654.044	0.0168018
654.122	0.0168021
654.200	0.0165671
654.279	0.0165291
654.357	0.0163597
654.435	0.0161271
654.513	0.0160631
654.591	0.0160360
654.669	0.0158759
654.747	0.0158150
654.825	0.0159489
654.904	0.0157208
654.982	0.0160407
655.060	0.0160449
655.138	0.0161345
655.216	0.0163596
655.294	0.0163850
655.372	0.0164997
655.450	0.0165369
655.529	0.0164212
655.607	0.0166140
655.685	0.0165503
655.763	0.0166264
655.841	0.0164781
655.919	0.0165498
655.997	0.0165439
656.075	0.0165473
656.154	0.0164860
656.232	0.0165607
656.310	0.0164958
656.388	0.0164732
656.466	0.0167365
656.544	0.0166787
656.622	0.0167691
656.700	0.0168328
656.779	0.0169988
656.857	0.0170026
656.935	0.0170220
657.013	0.0169424
657.091	0.0167692
657.169	0.0169254
657.247	0.0169361
657.325	0.0167609
657.404	0.0166574
657.482	0.0164932
657.560	0.0164493
657.638	0.0163669
657.716	0.0161151
657.794	0.0159365
657.872	0.0160113
657.950	0.0158437
658.029	0.0159939
658.107	0.0158982
658.185	0.0158768
658.263	0.0159217
658.341	0.0159916
658.419	0.0161283
658.497	0.0162074
658.575	0.0162146
658.654	0.0163844
658.732	0.0164059
658.810	0.0164887
658.888	0.0164054
658.966	0.0166674
659.044	0.0165636
659.122	0.0165923
659.200	0.0165894
659.279	0.0164835
659.357	0.0165467
659.435	0.0165015
659.513	0.0164180
659.591	0.0164156
659.669	0.0163684
659.747	0.0162582
659.825	0.0164242
659.904	0.0162223
659.982	0.0161576
660.060	0.0161607
660.138	0.0161800
660.216	0.0160361
660.294	0.0161866
660.372	0.0160440
660.450	0.0161259
660.529	0.0161705
660.607	0.0159775
660.685	0.0161546
660.763	0.0163142
660.841	0.0165139
660.919	0.0164510
660.997	0.0166683
661.075	0.0167464
661.154	0.0167895
661.232	0.0170113
661.310	0.0170610
661.388	0.0171198
661.466	0.0172371
661.544	0.0170982
661.622	0.0171742
661.700	0.0170705
661.779	0.0170177
661.857	0.0171047
661.935	0.0168748
662.013	0.0167519
662.091	0.0165536
662.169	0.0163318
662.247	0.0163896
662.325	0.0162032
662.404	0.0162215
662.482	0.0161021
662.560	0.0160274
662.638	0.0160773
662.716	0.0160030
662.794	0.0161586
662.872	0.0162272
662.950	0.0160364
663.029	0.0160792
663.107	0.0161750
663.185	0.0160179
663.263	0.0160873
663.341	0.0160918
663.419	0.0160706
663.497	0.0162208
663.575	0.0161317
663.654	0.0160578
663.732	0.0160021
663.810	0.0161363
663.888	0.0161866
663.966	0.0161005
664.044	0.0160991
664.122	0.0161545
664.200	0.0161742
664.279	0.0162871
664.357	0.0162750
664.435	0.0161488
664.513	0.0162885
664.591	0.0164675
664.669	0.0162780
664.747	0.0162934
664.825	0.0163271
664.904	0.0164864
664.982	0.0166798
665.060	0.0166196
665.138	0.0167828
665.216	0.0168172
665.294	0.0168264
665.372	0.0171018
665.450	0.0170626
665.529	0.0172799
665.607	0.0169994
665.685	0.0170969
665.763	0.0169987
665.841	0.0170462
665.919	0.0168804
665.997	0.0168442
666.075	0.0168567
666.154	0.0166897
666.232	0.0166473
666.310	0.0166137
666.388	0.0163567
666.466	0.0164011
666.544	0.0162731
666.622	0.0162924
666.700	0.0162557
666.779	0.0160919
666.857	0.0161467
666.935	0.0160267
667.013	0.0159519
667.091	0.0161032
667.169	0.0163269
667.247	0.0162246
667.325	0.0164184
667.404	0.0163943
667.482	0.0165027
667.560	0.0165114
667.638	0.0166652
667.716	0.0168022
667.794	0.0168340
667.872	0.0167779
667.950	0.0167500
668.029	0.0166257
668.107	0.0164010
668.185	0.0165952
668.263	0.0162683
668.341	0.0162422
668.419	0.0162258
668.497	0.0161096
668.575	0.0160711
668.654	0.0160492
668.732	0.0158508
668.810	0.0159066
668.888	0.0159399
668.966	0.0160195
669.044	0.0161713
669.122	0.0162139
669.200	0.0161954
669.279	0.0162137
669.357	0.0163731
669.435	0.0164367
669.513	0.0164381
669.591	0.0166356
669.669	0.0166154
669.747	0.0166045
669.825	0.0166010
669.904	0.0164271
669.982	0.0164975
670.060	0.0166020
670.138	0.0165306
670.216	0.0166386
670.294	0.0166395
670.372	0.0166569
670.450	0.0167132
670.529	0.0168338
670.607	0.0166734
670.685	0.0166369
670.763	0.0165987
670.841	0.0165665
670.919	0.0164600
670.997	0.0162732
671.075	0.0161634
671.154	0.0159863
671.232	0.0159184
671.310	0.0159724
671.388	0.0159486
671.466	0.0159158
671.544	0.0160188
671.622	0.0161471
671.700	0.0164357
671.779	0.0165515
671.857	0.0168971
671.935	0.0171313
672.013	0.0171581
672.091	0.0173793
672.169	0.0174580
672.247	0.0174809
672.325	0.0174320
672.404	0.0172429
672.482	0.0171931
672.560	0.0169517
672.638	0.0167300
672.716	0.0163333
672.794	0.0160873
672.872	0.0158035
672.950	0.0157379
673.029	0.0157239
673.107	0.0155838
673.185	0.0154872
673.263	0.0155762
673.341	0.0157214
673.419	0.0159794
673.497	0.0160854
673.575	0.0161735
673.654	0.0163859
673.732	0.0165997
673.810	0.0166579
673.888	0.0167500
673.966	0.0168712
674.044	0.0170795
674.122	0.0169888
674.200	0.0170441
674.279	0.0169427
674.357	0.0170424
674.435	0.0171421
674.513	0.0170087
674.591	0.0170174
674.669	0.0169569
674.747	0.0169873
674.825	0.0167729
674.904	0.0166632
674.982	0.0166528
675.060	0.0165762
675.138	0.0163822
675.216	0.0163618
675.294	0.0162458
675.372	0.0160280
675.450	0.0160077
675.529	0.0160073
675.607	0.0162165
675.685	0.0160210
675.763	0.0161642
675.841	0.0161752
675.919	0.0162257
675.997	0.0163527
676.075	0.0163972
676.154	0.0163681
676.232	0.0165643
676.310	0.0163377
676.388	0.0164644
676.466	0.0164131
676.544	0.0163652
676.622	0.0162238
676.700	0.0160859
676.779	0.0161283
676.857	0.0161395
676.935	0.0162043
677.013	0.0162127
677.091	0.0161967
677.169	0.0161005
677.247	0.0163017
677.325	0.0164484
677.404	0.0166982
677.482	0.0166378
677.560	0.0167861
677.638	0.0169695
677.716	0.0170219
677.794	0.0171358
677.872	0.0172366
677.950	0.0170660
678.029	0.0170683
678.107	0.0170540
678.185	0.0168163
678.263	0.0165795
678.341	0.0165253
678.419	0.0159612
678.497	0.0158572
678.575	0.0156903
678.654	0.0155061
678.732	0.0154346
678.810	0.0153143
678.888	0.0155006
678.966	0.0154720
679.044	0.0155892
679.122	0.0156230
679.200	0.0157958
679.279	0.0160783
679.357	0.0163319
679.435	0.0164715
679.513	0.0165560
679.591	0.0167891
679.669	0.0170438
679.747	0.0174461
679.825	0.0174327
679.904	0.0177107
679.982	0.0176599
680.060	0.0178144
680.138	0.0177457
680.216	0.0179778
680.294	0.0177836
680.372	0.0174705
680.450	0.0172908
680.529	0.0171198
680.607	0.0168757
680.685	0.0165890
680.763	0.0161677
680.841	0.0159471
680.919	0.0158705
680.997	0.0158720
681.075	0.0156955
681.154	0.0157890
681.232	0.0160870
681.310	0.0161059
681.388	0.0161246
681.466	0.0164171
681.544	0.0164548
681.622	0.0167817
681.700	0.0168061
681.779	0.0166768
681.857	0.0167170
681.935	0.0166277
682.013	0.0165892
682.091	0.0164888
682.169	0.0161897
682.247	0.0161436
682.325	0.0159056
682.404	0.0157544
682.482	0.0155199
682.560	0.0152622
682.638	0.0151683
682.716	0.0150462
682.794	0.0151315
682.872	0.0151307
682.950	0.0153349
683.029	0.0153159
683.107	0.0155091
683.185	0.0156647
683.263	0.0160875
683.341	0.0163540
683.419	0.0163762
683.497	0.0168014
683.575	0.0170520
683.654	0.0173390
683.732	0.0172713
683.810	0.0174277
683.888	0.0176026
683.966	0.0175269
684.044	0.0175276
684.122	0.0175037
684.200	0.0170406
684.279	0.0167413
684.357	0.0164786
684.435	0.0161643
684.513	0.0160349
684.591	0.0157804
684.669	0.0157509
684.747	0.0156988
684.825	0.0156178
684.904	0.0159695
684.982	0.0162206
685.060	0.0165237
685.138	0.0167890
685.216	0.0168347
685.294	0.0171037
685.372	0.0171568
685.450	0.0171829
685.529	0.0170878
685.607	0.0169565
685.685	0.0166918
685.763	0.0164709
685.841	0.0161564
685.919	0.0159153
685.997	0.0157757
686.075	0.0155204
686.154	0.0153367
686.232	0.0151595
686.310	0.0152695
686.388	0.0150979
686.466	0.0152678
686.544	0.0153081
686.622	0.0153707
686.700	0.0154967
686.779	0.0157615
686.857	0.0158237
686.935	0.0159468
687.013	0.0162483
687.091	0.0165047
687.169	0.0168004
687.247	0.0169190
687.325	0.0172387
687.404	0.0177161
687.482	0.0179521
687.560	0.0184100
687.638	0.0184269
687.716	0.0188633
687.794	0.0191592
687.872	0.0192493
687.950	0.0193217
688.029	0.0194401
688.107	0.0191827
688.185	0.0190364
688.263	0.0187920
688.341	0.0187154
688.419	0.0183401
688.497	0.0179296
688.575	0.0174406
688.654	0.0170456
688.732	0.0165669
688.810	0.0161748
688.888	0.0156403
688.966	0.0152678
689.044	0.0148379
689.122	0.0146247
689.200	0.0142589
689.279	0.0139987
689.357	0.0142050
689.435	0.0140193
689.513	0.0139278
689.591	0.0139968
689.669	0.0141637
689.747	0.0143520
689.825	0.0145573
689.904	0.0147101
689.982	0.0149745
690.060	0.0152939
690.138	0.0155893
690.216	0.0159527
690.294	0.0162095
690.372	0.0162924
690.450	0.0166013
690.529	0.0167807
690.607	0.0169342
690.685	0.0168920
690.763	0.0168451
690.841	0.0166087
690.919	0.0164855
690.997	0.0163590
691.075	0.0161189
691.154	0.0159898
691.232	0.0158421
691.310	0.0156744
691.388	0.0155832
691.466	0.0154237
691.544	0.0154565
691.622	0.0155784
691.700	0.0156251
691.779	0.0156791
691.857	0.0158083
691.935	0.0159352
692.013	0.0161370
692.091	0.0163066
692.169	0.0166305
692.247	0.0169361
692.325	0.0171752
692.404	0.0174980
692.482	0.0179108
692.560	0.0181469
692.638	0.0184781
692.716	0.0187243
692.794	0.0189962
692.872	0.0192044
692.950	0.0192912
693.029	0.0191226
693.107	0.0191529
693.185	0.0189603
693.263	0.0186093
693.341	0.0181583
693.419	0.0176629
693.497	0.0171570
693.575	0.0165653
693.654	0.0161688
693.732	0.0155854
693.810	0.0153138
693.888	0.0150826
693.966	0.0146774
694.044	0.0144487
694.122	0.0144378
694.200	0.0144261
694.279	0.0145570
694.357	0.0147536
694.435	0.0149450
694.513	0.0152601
694.591	0.0157742
694.669	0.0160626
694.747	0.0163462
694.825	0.0167686
694.904	0.0170144
694.982	0.0173841
695.060	0.0175050
695.138	0.0176806
695.216	0.0179324
695.294	0.0179419
695.372	0.0178818
695.450	0.0178159
695.529	0.0177258
695.607	0.0176601
695.685	0.0175234
695.763	0.0172980
695.841	0.0170993
695.919	0.0168399
695.997	0.0168496
696.075	0.0166573
696.154	0.0164265
696.232	0.0164092
696.310	0.0163318
696.388	0.0163133
696.466	0.0163248
696.544	0.0163819
696.622	0.0162610
696.700	0.0163396
696.779	0.0164427
696.857	0.0164136
696.935	0.0163277
697.013	0.0165051
697.091	0.0163766
697.169	0.0163921
697.247	0.0161901
697.325	0.0159812
697.404	0.0158411
697.482	0.0156987
697.560	0.0156169
697.638	0.0151234
697.716	0.0151794
697.794	0.0149715
697.872	0.0146671
697.950	0.0146373
698.029	0.0146290
698.107	0.0144070
698.185	0.0141710
698.263	0.0142010
698.341	0.0140289
698.419	0.0139699
698.497	0.0136173
698.575	0.0133879
698.654	0.0134499
698.732	0.0134013
698.810	0.0134464
698.888	0.0135333
698.966	0.0137140
699.044	0.0138754
699.122	0.0143468
699.200	0.0148611
699.279	0.0152843
699.357	0.0158927
699.435	0.0168208
699.513	0.0175058
699.591	0.0180852
699.669	0.0188975
699.747	0.0196115
699.825	0.0201740
699.904	0.0208059
699.982	0.0212952
700.060	0.0217959
700.138	0.0220261
700.216	0.0221726
700.294	0.0221716
700.372	0.0221482
700.450	0.0219233
700.529	0.0216456
700.607	0.0211848
700.685	0.0205176
700.763	0.0201289
700.841	0.0194937
700.919	0.0189680
700.997	0.0182288
701.075	0.0176119
701.154	0.0170689
701.232	0.0166138
701.310	0.0160258
701.388	0.0156071
701.466	0.0151838
701.544	0.0148979
701.622	0.0143805
701.700	0.0143018
701.779	0.0139698
701.857	0.0137509
701.935	0.0137016
702.013	0.0135197
702.091	0.0134541
702.169	0.0133913
702.247	0.0134296
702.325	0.0135244
702.404	0.0135760
702.482	0.0136674
702.560	0.0138698
702.638	0.0139924
702.716	0.0141757
702.794	0.0143818
702.872	0.0146478
702.950	0.0149291
703.029	0.0152814
703.107	0.0156766
703.185	0.0160472
703.263	0.0165527
703.341	0.0167333
703.419	0.0170061
703.497	0.0172339
703.575	0.0176217
703.654	0.0176995
703.732	0.0176466
703.810	0.0177392
703.888	0.0176564
703.966	0.0175761
704.044	0.0174656
704.122	0.0172416
704.200	0.0171510
704.279	0.0170530
704.357	0.0168321
704.435	0.0165144
704.513	0.0163197
704.591	0.0161934
704.669	0.0160007
704.747	0.0157253
704.825	0.0157943
704.904	0.0155478
704.982	0.0153983
705.060	0.0152719
705.138	0.0151990
705.216	0.0152377
705.294	0.0150594
705.372	0.0148103
705.450	0.0148875
705.529	0.0147691
705.607	0.0146844
705.685	0.0144975
705.763	0.0147140
705.841	0.0147755
705.919	0.0148473
705.997	0.0149640
706.075	0.0151307
706.154	0.0152029
706.232	0.0155181
706.310	0.0157784
706.388	0.0162984
706.466	0.0165710
706.544	0.0170870
706.622	0.0173938
706.700	0.0179131
706.779	0.0182777
706.857	0.0187201
706.935	0.0190604
707.013	0.0193489
707.091	0.0197581
707.169	0.0201579
707.247	0.0203941
707.325	0.0207809
707.404	0.0210692
707.482	0.0213167
707.560	0.0212122
707.638	0.0211784
707.716	0.0210593
707.794	0.0208727
707.872	0.0206145
707.950	0.0202074
708.029	0.0195590
708.107	0.0189456
708.185	0.0181740
708.263	0.0176189
708.341	0.0168365
708.419	0.0161033
708.497	0.0152135
708.575	0.0143619
708.654	0.0138872
708.732	0.0130743
708.810	0.0125051
708.888	0.0120863
708.966	0.0115648
709.044	0.0113757
709.122	0.0111037
709.200	0.0112119
709.279	0.0113531
709.357	0.0115005
709.435	0.0117107
709.513	0.0121881
709.591	0.0128380
709.669	0.0134074
709.747	0.0140877
709.825	0.0148775
709.904	0.0156684
709.982	0.0164609
710.060	0.0171299
710.138	0.0180212
710.216	0.0188117
710.294	0.0193931
710.372	0.0199126
710.450	0.0204433
710.529	0.0207371
710.607	0.0208630
710.685	0.0211221
710.763	0.0212299
710.841	0.0211219
710.919	0.0208965
710.997	0.0207172
711.075	0.0204470
711.154	0.0199862
711.232	0.0193240
711.310	0.0186189
711.388	0.0178007
711.466	0.0170399
711.544	0.0162507
711.622	0.0154559
711.700	0.0147018
711.779	0.0138434
711.857	0.0132397
711.935	0.0126646
712.013	0.0121419
712.091	0.0117797
712.169	0.0115662
712.247	0.0114633
712.325	0.0111369
712.404	0.0111728
712.482	0.0113478
712.560	0.0114504
712.638	0.0115891
712.716	0.0120924
712.794	0.0121779
712.872	0.0127106
712.950	0.0130462
713.029	0.0134914
713.107	0.0140421
713.185	0.0144407
713.263	0.0149361
713.341	0.0155104
713.419	0.0161536
713.497	0.0166954
713.575	0.0172955
713.654	0.0179025
713.732	0.0185844
713.810	0.0191466
713.888	0.0198827
713.966	0.0204508
714.044	0.0209680
714.122	0.0216148
714.200	0.0219025
714.279	0.0221732
714.357	0.0224106
714.435	0.0224884
714.513	0.0224865
714.591	0.0223560
714.669	0.0221516
714.747	0.0219514
714.825	0.0215968
714.904	0.0211301
714.982	0.0205626
715.060	0.0198744
715.138	0.0189539
715.216	0.0184785
715.294	0.0177779
715.372	0.0169209
715.450	0.0161987
715.529	0.0155251
715.607	0.0149161
715.685	0.0145453
715.763	0.0139285
715.841	0.0134201
715.919	0.0133910
715.997	0.0133197
716.075	0.0131731
716.154	0.0133239
716.232	0.0136242
716.310	0.0138078
716.388	0.0140675
716.466	0.0145446
716.544	0.0150117
716.622	0.0152591
716.700	0.0155814
716.779	0.0158791
716.857	0.0163599
716.935	0.0165434
717.013	0.0169849
717.091	0.0172623
717.169	0.0172520
717.247	0.0174526
717.325	0.0175331
717.404	0.0176567
717.482	0.0175409
717.560	0.0173552
717.638	0.0170593
717.716	0.0169714
717.794	0.0169227
717.872	0.0164804
717.950	0.0162640
718.029	0.0160134
718.107	0.0156394
718.185	0.0154581
718.263	0.0151879
718.341	0.0148423
718.419	0.0145979
718.497	0.0142911
718.575	0.0141621
718.654	0.0137218
718.732	0.0135109
718.810	0.0132233
718.888	0.0129230
718.966	0.0127856
719.044	0.0126205
719.122	0.0123995
719.200	0.0122253
719.279	0.0122736
719.357	0.0122952
719.435	0.0124046
719.513	0.0126613
719.591	0.0127853
719.669	0.0132748
719.747	0.0137967
719.825	0.0142354
719.904	0.0148437
719.982	0.0153429
720.060	0.0161707
720.138	0.0168661
720.216	0.0174390
720.294	0.0179842
720.372	0.0187318
720.450	0.0193764
720.529	0.0199001
720.607	0.0203387
720.685	0.0208274
720.763	0.0212589
720.841	0.0216293
720.919	0.0217124
720.997	0.0218257
721.075	0.0219976
721.154	0.0217905
721.232	0.0217926
721.310	0.0217229
721.388	0.0214237
721.466	0.0209830
721.544	0.0206205
721.622	0.0200869
721.700	0.0196431
721.779	0.0190256
721.857	0.0185649
721.935	0.0179797
722.013	0.0174784
722.091	0.0171760
722.169	0.0167981
722.247	0.0163136
722.325	0.0161264
722.404	0.0160915
722.482	0.0157841
722.560	0.0155133
722.638	0.0155555
722.716	0.0154137
722.794	0.0152283
722.872	0.0152697
722.950	0.0150904
723.029	0.0148527
723.107	0.0149143
723.185	0.0149646
723.263	0.0149820
723.341	0.0151749
723.419	0.0153130
723.497	0.0152917
723.575	0.0153684
723.654	0.0155048
723.732	0.0154595
723.810	0.0155634
723.888	0.0154843
723.966	0.0153111
724.044	0.0153607
724.122	0.0153539
724.200	0.0152618
724.279	0.0153535
724.357	0.0151149
724.435	0.0149895
724.513	0.0150521
724.591	0.0150086
724.669	0.0151487
724.747	0.0151340
724.825	0.0151774
724.904	0.0148717
724.982	0.0149107
725.060	0.0148927
725.138	0.0149715
725.216	0.0149027
725.294	0.0146061
725.372	0.0146154
725.450	0.0144008
725.529	0.0144967
725.607	0.0143974
725.685	0.0142634
725.763	0.0141895
725.841	0.0140972
725.919	0.0140636
725.997	0.0142841
726.075	0.0142209
726.154	0.0141618
726.232	0.0143456
726.310	0.0145337
726.388	0.0148735
726.466	0.0151945
726.544	0.0155536
726.622	0.0160142
726.700	0.0165194
726.779	0.0169935
726.857	0.0174096
726.935	0.0181013
727.013	0.0186046
727.091	0.0190706
727.169	0.0194279
727.247	0.0198566
727.325	0.0201645
727.404	0.0200764
727.482	0.0201357
727.560	0.0202563
727.638	0.0202790
727.716	0.0202173
727.794	0.0201357
727.872	0.0200606
727.950	0.0195863
728.029	0.0194679
728.107	0.0190638
728.185	0.0187560
728.263	0.0186190
728.341	0.0181179
728.419	0.0180346
728.497	0.0178880
728.575	0.0174415
728.654	0.0173912
728.732	0.0170617
728.810	0.0169669
728.888	0.0169199
728.966	0.0168727
729.044	0.0167087
729.122	0.0166395
729.200	0.0166773
729.279	0.0167405
729.357	0.0165300
729.435	0.0165058
729.513	0.0163803
729.591	0.0164082
729.669	0.0161968
729.747	0.0161346
729.825	0.0159212
729.904	0.0158612
729.982	0.0155391
730.060	0.0151617
730.138	0.0151174
730.216	0.0148492
730.294	0.0147776
730.372	0.0144483
730.450	0.0143970
730.529	0.0142699
730.607	0.0142258
730.685	0.0145136
730.763	0.0145969
730.841	0.0145503
730.919	0.0148240
730.997	0.0149951
731.075	0.0152895
731.154	0.0156853
731.232	0.0159325
731.310	0.0161001
731.388	0.0162691
731.466	0.0164609
731.544	0.0166415
731.622	0.0165191
731.700	0.0165101
731.779	0.0164818
731.857	0.0163095
731.935	0.0161756
732.013	0.0160177
732.091	0.0157563
732.169	0.0156117
732.247	0.0154375
732.325	0.0153656
732.404	0.0153191
732.482	0.0151427
732.560	0.0151762
732.638	0.0151381
732.716	0.0151419
732.794	0.0153530
732.872	0.0154904
732.950	0.0154455
733.029	0.0155538
733.107	0.0158551
733.185	0.0160658
733.263	0.0164243
733.341	0.0165918
733.419	0.0167982
733.497	0.0170371
733.575	0.0171391
733.654	0.0174229
733.732	0.0174412
733.810	0.0176403
733.888	0.0177444
733.966	0.0177451
734.044	0.0177421
734.122	0.0176450
734.200	0.0177989
734.279	0.0177470
734.357	0.0174883
734.435	0.0175031
734.513	0.0173883
734.591	0.0172710
734.669	0.0173325
734.747	0.0172176
734.825	0.0172063
734.904	0.0172388
734.982	0.0172256
735.060	0.0172018
735.138	0.0173077
735.216	0.0174057
735.294	0.0173343
735.372	0.0173883
735.450	0.0175210
735.529	0.0174268
735.607	0.0175034
735.685	0.0175504
735.763	0.0175735
735.841	0.0173317
735.919	0.0173466
735.997	0.0172525
736.075	0.0171313
736.154	0.0169095
736.232	0.0166603
736.310	0.0164893
736.388	0.0162917
736.466	0.0159605
736.544	0.0156725
736.622	0.0156110
736.700	0.0156685
736.779	0.0155275
736.857	0.0152890
736.935	0.0152497
737.013	0.0150751
737.091	0.0151519
737.169	0.0153474
737.247	0.0154494
737.325	0.0155006
737.404	0.0158175
737.482	0.0158138
737.560	0.0159956
737.638	0.0161778
737.716	0.0163341
737.794	0.0164840
737.872	0.0165316
737.950	0.0165805
738.029	0.0164417
738.107	0.0165022
738.185	0.0164848
738.263	0.0165297
738.341	0.0163103
738.419	0.0162005
738.497	0.0162408
738.575	0.0162775
738.654	0.0160397
738.732	0.0159676
738.810	0.0159800
738.888	0.0159466
738.966	0.0159488
739.044	0.0160580
739.122	0.0160589
739.200	0.0161047
739.279	0.0160320
739.357	0.0161237
739.435	0.0160597
739.513	0.0161378
739.591	0.0164223
739.669	0.0163863
739.747	0.0165260
739.825	0.0166497
739.904	0.0167339
739.982	0.0167668
740.060	0.0168580
740.138	0.0169257
740.216	0.0169395
740.294	0.0170409
740.372	0.0170766
740.450	0.0170322
740.529	0.0168414
740.607	0.0167187
740.685	0.0166396
740.763	0.0162843
740.841	0.0162514
740.919	0.0160863
740.997	0.0159733
741.075	0.0159064
741.154	0.0156369
741.232	0.0156384
741.310	0.0157578
741.388	0.0157273
741.466	0.0156981
741.544	0.0160122
741.622	0.0159319
741.700	0.0162322
741.779	0.0165450
741.857	0.0165903
741.935	0.0168491
742.013	0.0169003
742.091	0.0170683
742.169	0.0172153
742.247	0.0172719
742.325	0.0172541
742.404	0.0173394
742.482	0.0171973
742.560	0.0171056
742.638	0.0170994
742.716	0.0168759
742.794	0.0167826
742.872	0.0166447
742.950	0.0165633
743.029	0.0164324
743.107	0.0161839
743.185	0.0161958
743.263	0.0162143
743.341	0.0161205
743.419	0.0161029
743.497	0.0159931
743.575	0.0158682
743.654	0.0160355
743.732	0.0161332
743.810	0.0164156
743.888	0.0163351
743.966	0.0164300
744.044	0.0165541
744.122	0.0167087
744.200	0.0169564
744.279	0.0169116
744.357	0.0169893
744.435	0.0170583
744.513	0.0171090
744.591	0.0169044
744.669	0.0168951
744.747	0.0169585
744.825	0.0168948
744.904	0.0165005
744.982	0.0165839
745.060	0.0164338
745.138	0.0163430
745.216	0.0161896
745.294	0.0161419
745.372	0.0160964
745.450	0.0160232
745.529	0.0159285
745.607	0.0159995
745.685	0.0161107
745.763	0.0162082
745.841	0.0162677
745.919	0.0163700
745.997	0.0166447
746.075	0.0167226
746.154	0.0168961
746.232	0.0169784
746.310	0.0171716
746.388	0.0172437
746.466	0.0171910
746.544	0.0174200
746.622	0.0173178
746.700	0.0171985
746.779	0.0171900
746.857	0.0171491
746.935	0.0167635
747.013	0.0167780
747.091	0.0165675
747.169	0.0160843
747.247	0.0160562
747.325	0.0158551
747.404	0.0156930
747.482	0.0154741
747.560	0.0152819
747.638	0.0153382
747.716	0.0152569
747.794	0.0152076
747.872	0.0152382
747.950	0.0154552
748.029	0.0155293
748.107	0.0155805
748.185	0.0156533
748.263	0.0159041
748.341	0.0160208
748.419	0.0162483
748.497	0.0163448
748.575	0.0164152
748.654	0.0164293
748.732	0.0165914
748.810	0.0166294
748.888	0.0162717
748.966	0.0165900
749.044	0.0165582
749.122	0.0163106
749.200	0.0161674
749.279	0.0162066
749.357	0.0160807
749.435	0.0160044
749.513	0.0159927
749.591	0.0159635
749.669	0.0160179
749.747	0.0159230
749.825	0.0159060
749.904	0.0161418
749.982	0.0162265
750.060	0.0160553
750.138	0.0161550
750.216	0.0163399
750.294	0.0164892
750.372	0.0167910
750.450	0.0168768
750.529	0.0169424
750.607	0.0172079
750.685	0.0173685
750.763	0.0173943
750.841	0.0174171
750.919	0.0174678
750.997	0.0173917
751.075	0.0173261
751.154	0.0173609
751.232	0.0172910
751.310	0.0170539
751.388	0.0169254
751.466	0.0168641
751.544	0.0165874
751.622	0.0166042
751.700	0.0165434
751.779	0.0163622
751.857	0.0162415
751.935	0.0162727
752.013	0.0161607
752.091	0.0162461
752.169	0.0161768
752.247	0.0163850
752.325	0.0165079
752.404	0.0165049
752.482	0.0167661
752.560	0.0167483
752.638	0.0169423
752.716	0.0171503
752.794	0.0172500
752.872	0.0171039
752.950	0.0171146
753.029	0.0172441
753.107	0.0172279
753.185	0.0171976
753.263	0.0171264
753.341	0.0169561
753.419	0.0168182
753.497	0.0167042
753.575	0.0164892
753.654	0.0163787
753.732	0.0160239
753.810	0.0159540
753.888	0.0160326
753.966	0.0157075
754.044	0.0155900
754.122	0.0156467
754.200	0.0156151
754.279	0.0155441
754.357	0.0156105
754.435	0.0155995
754.513	0.0156824
754.591	0.0158106
754.669	0.0160066
754.747	0.0160866
754.825	0.0160799
754.904	0.0162550
754.982	0.0163444
755.060	0.0163676
755.138	0.0164919
755.216	0.0165312
755.294	0.0165189
755.372	0.0163908
755.450	0.0162112
755.529	0.0162170
755.607	0.0162420
755.685	0.0160049
755.763	0.0161658
755.841	0.0161074
755.919	0.0160234
755.997	0.0158436
756.075	0.0159232
756.154	0.0158613
756.232	0.0158962
756.310	0.0158991
756.388	0.0159972
756.466	0.0162267
756.544	0.0162463
756.622	0.0163061
756.700	0.0163544
756.779	0.0163422
756.857	0.0164084
756.935	0.0164944
757.013	0.0166276
757.091	0.0166502
757.169	0.0167342
757.247	0.0167422
757.325	0.0165864
757.404	0.0167146
757.482	0.0166822
757.560	0.0167486
757.638	0.0166449
757.716	0.0166487
757.794	0.0166729
757.872	0.0166862
757.950	0.0167336
758.029	0.0167663
758.107	0.0168138
758.185	0.0167741
758.263	0.0168099
758.341	0.0167163
758.419	0.0168876
758.497	0.0170374
758.575	0.0169830
758.654	0.0168950
758.732	0.0170489
758.810	0.0170782
758.888	0.0170169
758.966	0.0170924
759.044	0.0171417
759.122	0.0171516
759.200	0.0172118
759.279	0.0170679
759.357	0.0169408
759.435	0.0168728
759.513	0.0167747
759.591	0.0165730
759.669	0.0166489
759.747	0.0164460
759.825	0.0162423
759.904	0.0161103
759.982	0.0160889
760.060	0.0159613
760.138	0.0159946
760.216	0.0159099
760.294	0.0160429
760.372	0.0158680
760.450	0.0160514
760.529	0.0160507
760.607	0.0163188
760.685	0.0161891
760.763	0.0162336
760.841	0.0164243
760.919	0.0163456
760.997	0.0165393
761.075	0.0164606
761.154	0.0164774
761.232	0.0165710
761.310	0.0165474
761.388	0.0166739
761.466	0.0166365
761.544	0.0163155
761.622	0.0164580
761.700	0.0164431
761.779	0.0162637
761.857	0.0162411
761.935	0.0162124
762.013	0.0160552
762.091	0.0159813
762.169	0.0159746
762.247	0.0157840
762.325	0.0159618
762.404	0.0158549
762.482	0.0158323
762.560	0.0159035
762.638	0.0160248
762.716	0.0159834
762.794	0.0160565
762.872	0.0160551
762.950	0.0162832
763.029	0.0162701
763.107	0.0162986
763.185	0.0163761
763.263	0.0166380
763.341	0.0164421
763.419	0.0163435
763.497	0.0165324
763.575	0.0165498
763.654	0.0165591
763.732	0.0165299
763.810	0.0164481
763.888	0.0163398
763.966	0.0164981
764.044	0.0164976
764.122	0.0165115
764.200	0.0164125
764.279	0.0164027
764.357	0.0164757
764.435	0.0166188
764.513	0.0165427
764.591	0.0165419
764.669	0.0165792
764.747	0.0165548
764.825	0.0165684
764.904	0.0167230
764.982	0.0166756
765.060	0.0166111
765.138	0.0166977
765.216	0.0167089
765.294	0.0168330
765.372	0.0166738
765.450	0.0167010
765.529	0.0169181
765.607	0.0166444
765.685	0.0165317
765.763	0.0166808
765.841	0.0167043
765.919	0.0165121
765.997	0.0166151
766.075	0.0164412
766.154	0.0164896
766.232	0.0165024
766.310	0.0164977
766.388	0.0164222
766.466	0.0163121
766.544	0.0164187
766.622	0.0163881
766.700	0.0164952
766.779	0.0164649
766.857	0.0165772
766.935	0.0166225
767.013	0.0165965
767.091	0.0167736
767.169	0.0167946
767.247	0.0166525
767.325	0.0168066
767.404	0.0169493
767.482	0.0167671
767.560	0.0166778
767.638	0.0167885
767.716	0.0165680
767.794	0.0164443
767.872	0.0165296
767.950	0.0165504
768.029	0.0164162
768.107	0.0164342
768.185	0.0163566
768.263	0.0165063
768.341	0.0165058
768.419	0.0164507
768.497	0.0164191
768.575	0.0163811
768.654	0.0163469
768.732	0.0165450
768.810	0.0164753
768.888	0.0164719
768.966	0.0163638
769.044	0.0163605
769.122	0.0163828
769.200	0.0163863
769.279	0.0164315
769.357	0.0163130
769.435	0.0161783
769.513	0.0163706
769.591	0.0162729
769.669	0.0162730
769.747	0.0161773
769.825	0.0161629
769.904	0.0161342
769.982	0.0159991
770.060	0.0160738
770.138	0.0161820
770.216	0.0162315
770.294	0.0160753
770.372	0.0162308
770.450	0.0161819
770.529	0.0162192
770.607	0.0163937
770.685	0.0163742
770.763	0.0162902
770.841	0.0165398
770.919	0.0165733
770.997	0.0166442
771.075	0.0166534
771.154	0.0166464
771.232	0.0165926
771.310	0.0166139
771.388	0.0165911
771.466	0.0167095
771.544	0.0167646
771.622	0.0166433
771.700	0.0166330
771.779	0.0165868
771.857	0.0165440
771.935	0.0163936
772.013	0.0164917
772.091	0.0163533
772.169	0.0163802
772.247	0.0165380
772.325	0.0164294
772.404	0.0163303
772.482	0.0164373
772.560	0.0164700
772.638	0.0164043
772.716	0.0164443
772.794	0.0164008
772.872	0.0165108
772.950	0.0163792
773.029	0.0164886
773.107	0.0163645
773.185	0.0164709
773.263	0.0166631
773.341	0.0164654
773.419	0.0167077
773.497	0.0166395
773.575	0.0165461
773.654	0.0165902
773.732	0.0165846
773.810	0.0165611
773.888	0.0167698
773.966	0.0165946
774.044	0.0165034
774.122	0.0164570
774.200	0.0165652
774.279	0.0165860
774.357	0.0164766
774.435	0.0164861
774.513	0.0163290
774.591	0.0163719
774.669	0.0163412
774.747	0.0160738
774.825	0.0162529
774.904	0.0163441
774.982	0.0163480
775.060	0.0163264
775.138	0.0162951
775.216	0.0164598
775.294	0.0164414
775.372	0.0162555
775.450	0.0163333
775.529	0.0164600
775.607	0.0164017
775.685	0.0164436
775.763	0.0164272
775.841	0.0165822
775.919	0.0166407
775.997	0.0165594
776.075	0.0166370
776.154	0.0165534
776.232	0.0165950
776.310	0.0166510
776.388	0.0166636
776.466	0.0164560
776.544	0.0164183
776.622	0.0164719
776.700	0.0164944
776.779	0.0164038
776.857	0.0163251
776.935	0.0163518
777.013	0.0163674
777.091	0.0163731
777.169	0.0163212
777.247	0.0163595
777.325	0.0161842
777.404	0.0165009
777.482	0.0163984
777.560	0.0164433
777.638	0.0164726
777.716	0.0163915
777.794	0.0165343
777.872	0.0165526
777.950	0.0165321
778.029	0.0163644
778.107	0.0165020
778.185	0.0164694
778.263	0.0163160
778.341	0.0162440
778.419	0.0163265
778.497	0.0162258
778.575	0.0160980
778.654	0.0160452
778.732	0.0161306
778.810	0.0161972
778.888	0.0162685
778.966	0.0161677
779.044	0.0162292
779.122	0.0161355
779.200	0.0162085
779.279	0.0162685
779.357	0.0162156
779.435	0.0162057
779.513	0.0163454
779.591	0.0164028
779.669	0.0164400
779.747	0.0163811
779.825	0.0164635
779.904	0.0166441
779.982	0.0165676
780.060	0.0165169
780.138	0.0163450
780.216	0.0164122
780.294	0.0164902
780.372	0.0163231
780.450	0.0163883
780.529	0.0162878
780.607	0.0163620
780.685	0.0162505
780.763	0.0162967
780.841	0.0162794
780.919	0.0162367
780.997	0.0162766
781.075	0.0163659
781.154	0.0163242
781.232	0.0164017
781.310	0.0164262
781.388	0.0164197
781.466	0.0164101
781.544	0.0163679
781.622	0.0164291
781.700	0.0164260
781.779	0.0165803
781.857	0.0164325
781.935	0.0163613
782.013	0.0164122
782.091	0.0165415
782.169	0.0165310
782.247	0.0164803
782.325	0.0165363
782.404	0.0164934
782.482	0.0166193
782.560	0.0165253
782.638	0.0164400
782.716	0.0164709
782.794	0.0165848
782.872	0.0164920
782.950	0.0166357
783.029	0.0165101
783.107	0.0165871
783.185	0.0165370
783.263	0.0165552
783.341	0.0167667
783.419	0.0166526
783.497	0.0167012
783.575	0.0166869
783.654	0.0166546
783.732	0.0168728
783.810	0.0168638
783.888	0.0167654
783.966	0.0164989
784.044	0.0166154
784.122	0.0166061
784.200	0.0166306
784.279	0.0166615
784.357	0.0165625
784.435	0.0164929
784.513	0.0164362
784.591	0.0162756
784.669	0.0164001
784.747	0.0164695
784.825	0.0162939
784.904	0.0163327
784.982	0.0163770
785.060	0.0163239
785.138	0.0165212
785.216	0.0163320
785.294	0.0163429
785.372	0.0163510
785.450	0.0163379
785.529	0.0163936
785.607	0.0164157
785.685	0.0164668
785.763	0.0164965
785.841	0.0165853
785.919	0.0164932
785.997	0.0165041
786.075	0.0165501
786.154	0.0165349
786.232	0.0165656
786.310	0.0164492
786.388	0.0163767
786.466	0.0164391
786.544	0.0163268
786.622	0.0164250
786.700	0.0163896
786.779	0.0161890
786.857	0.0161268
786.935	0.0161546
787.013	0.0161407
787.091	0.0161382
787.169	0.0159611
787.247	0.0161883
787.325	0.0159529
787.404	0.0158948
787.482	0.0159749
787.560	0.0160713
787.638	0.0160915
787.716	0.0159961
787.794	0.0161261
787.872	0.0161480
787.950	0.0160860
788.029	0.0161227
788.107	0.0162794
788.185	0.0161995
788.263	0.0163181
788.341	0.0164747
788.419	0.0163792
788.497	0.0164609
788.575	0.0166124
788.654	0.0166859
788.732	0.0166051
788.810	0.0166881
788.888	0.0168844
788.966	0.0169953
789.044	0.0168983
789.122	0.0170063
789.200	0.0169883
789.279	0.0170001
789.357	0.0170522
789.435	0.0170057
789.513	0.0169678
789.591	0.0171485
789.669	0.0168381
789.747	0.0168378
789.825	0.0170480
789.904	0.0169352
789.982	0.0169434
790.060	0.0168729
790.138	0.0168657
790.216	0.0169278
790.294	0.0167718
790.372	0.0167786
790.450	0.0166476
790.529	0.0166295
790.607	0.0166929
790.685	0.0163725
790.763	0.0163943
790.841	0.0165768
790.919	0.0164502
790.997	0.0165108
791.075	0.0164330
791.154	0.0164086
791.232	0.0162759
791.310	0.0164431
791.388	0.0164637
791.466	0.0163893
791.544	0.0164173
791.622	0.0163853
791.700	0.0163935
791.779	0.0164061
791.857	0.0163607
791.935	0.0163544
792.013	0.0164051
792.091	0.0164596
792.169	0.0163385
792.247	0.0163570
792.325	0.0164223
792.404	0.0163582
792.482	0.0164070
792.560	0.0164125
792.638	0.0164581
792.716	0.0164969
792.794	0.0163388
792.872	0.0162151
792.950	0.0163523
793.029	0.0162659
793.107	0.0163571
793.185	0.0162456
793.263	0.0161974
793.341	0.0160697
793.419	0.0162929
793.497	0.0162496
793.575	0.0162463
793.654	0.0162685
793.732	0.0162890
793.810	0.0162681
793.888	0.0164420
793.966	0.0162821
794.044	0.0165136
794.122	0.0162905
794.200	0.0163464
794.279	0.0163721
794.357	0.0163227
794.435	0.0162959
794.513	0.0162816
794.591	0.0163156
794.669	0.0162773
794.747	0.0162051
794.825	0.0161794
794.904	0.0160849
794.982	0.0160840
795.060	0.0160831
795.138	0.0160722
795.216	0.0160867
795.294	0.0161980
795.372	0.0160723
795.450	0.0161840
795.529	0.0161462
795.607	0.0161614
795.685	0.0163063
795.763	0.0163077
795.841	0.0165152
795.919	0.0164657
795.997	0.0165083
796.075	0.0165971
796.154	0.0166618
796.232	0.0166795
796.310	0.0168344
796.388	0.0168568
796.466	0.0169336
796.544	0.0168655
796.622	0.0169107
796.700	0.0170760
796.779	0.0169894
796.857	0.0168651
796.935	0.0169125
797.013	0.0169082
797.091	0.0168321
797.169	0.0168317
797.247	0.0167841
797.325	0.0167947
797.404	0.0168731
797.482	0.0168265
797.560	0.0167507
797.638	0.0167844
797.716	0.0167429
797.794	0.0167599
797.872	0.0167441
797.950	0.0167121
798.029	0.0166206
798.107	0.0164742
798.185	0.0167028
798.263	0.0165421
798.341	0.0163356
798.419	0.0165027
798.497	0.0163037
798.575	0.0161883
798.654	0.0161597
798.732	0.0161301
798.810	0.0161135
798.888	0.0159689
798.966	0.0157982
799.044	0.0158702
799.122	0.0157998
799.200	0.0158264
799.279	0.0158440
799.357	0.0158818
799.435	0.0159311
799.513	0.0159422
799.591	0.0159783
799.669	0.0162203
799.747	0.0162250
799.825	0.0161273
799.904	0.0162767
799.982	0.0162450
800.060	0.0164314
800.138	0.0165321
800.216	0.0165627
800.294	0.0166075
800.372	0.0164407
800.450	0.0164695
800.529	0.0165427
800.607	0.0165867
800.685	0.0164163
800.763	0.0165003
800.841	0.0163939
800.919	0.0164902
800.997	0.0163176
801.075	0.0162261
801.154	0.0163425
801.232	0.0163024
801.310	0.0162282
801.388	0.0160546
801.466	0.0161353
801.544	0.0161073
801.622	0.0160590
801.700	0.0161266
801.779	0.0161838
801.857	0.0162728
801.935	0.0162649
802.013	0.0163534
802.091	0.0163119
802.169	0.0162794
802.247	0.0163756
802.325	0.0164495
802.404	0.0163911
802.482	0.0165293
802.560	0.0163840
802.638	0.0164151
802.716	0.0166183
802.794	0.0164674
802.872	0.0164895
802.950	0.0166952
803.029	0.0166228
803.107	0.0166471
803.185	0.0165668
803.263	0.0166362
803.341	0.0167318
803.419	0.0166258
803.497	0.0166573
803.575	0.0168478
803.654	0.0166308
803.732	0.0167131
803.810	0.0169883
803.888	0.0169530
803.966	0.0168787
804.044	0.0168938
804.122	0.0169044
804.200	0.0168853
804.279	0.0169434
804.357	0.0169642
804.435	0.0169867
804.513	0.0169071
804.591	0.0167445
804.669	0.0168176
804.747	0.0168524
804.825	0.0166265
804.904	0.0163946
804.982	0.0164011
805.060	0.0163633
805.138	0.0162127
805.216	0.0162234
805.294	0.0161074
805.372	0.0160484
805.450	0.0159308
805.529	0.0159575
805.607	0.0160234
805.685	0.0159567
805.763	0.0158335
805.841	0.0158070
805.919	0.0159921
805.997	0.0159958
806.075	0.0160086
806.154	0.0160668
806.232	0.0163161
806.310	0.0165264
806.388	0.0165296
806.466	0.0165321
806.544	0.0166988
806.622	0.0166405
806.700	0.0165897
806.779	0.0168504
806.857	0.0168130
806.935	0.0167545
807.013	0.0167027
807.091	0.0166174
807.169	0.0166405
807.247	0.0165846
807.325	0.0164381
807.404	0.0165932
807.482	0.0163839
807.560	0.0163921
807.638	0.0162086
807.716	0.0164127
807.794	0.0163025
807.872	0.0159872
807.950	0.0161834
808.029	0.0161488
808.107	0.0159869
808.185	0.0158829
808.263	0.0160165
808.341	0.0158746
808.419	0.0160641
808.497	0.0159433
808.575	0.0159492
808.654	0.0159805
808.732	0.0159135
808.810	0.0160269
808.888	0.0161102
808.966	0.0160239
809.044	0.0161127
809.122	0.0162125
809.200	0.0161028
809.279	0.0160848
809.357	0.0162206
809.435	0.0164751
809.513	0.0162685
809.591	0.0163284
809.669	0.0164782
809.747	0.0164658
809.825	0.0166466
809.904	0.0166181
809.982	0.0166887
810.060	0.0168612
810.138	0.0168777
810.216	0.0168642
810.294	0.0169982
810.372	0.0170493
810.450	0.0170542
810.529	0.0169956
810.607	0.0171284
810.685	0.0170859
810.763	0.0171200
810.841	0.0170977
810.919	0.0170055
810.997	0.0169997
811.075	0.0170416
811.154	0.0169901
811.232	0.0169089
811.310	0.0168262
811.388	0.0168537
811.466	0.0167854
811.544	0.0167873
811.622	0.0165911
811.700	0.0165982
811.779	0.0165214
811.857	0.0166665
811.935	0.0165592
812.013	0.0164446
812.091	0.0164615
812.169	0.0163387
812.247	0.0164124
812.325	0.0163417
812.404	0.0161568
812.482	0.0163744
812.560	0.0163662
812.638	0.0162493
812.716	0.0161243
812.794	0.0161543
812.872	0.0161787
812.950	0.0162867
813.029	0.0161494
813.107	0.0161198
813.185	0.0161429
813.263	0.0161090
813.341	0.0160647
813.419	0.0161983
813.497	0.0163323
813.575	0.0163046
813.654	0.0163263
813.732	0.0161685
813.810	0.0163478
813.888	0.0163760
813.966	0.0163824
814.044	0.0163921
814.122	0.0164653
814.200	0.0164585
814.279	0.0163782
814.357	0.0163956
814.435	0.0164027
814.513	0.0163926
814.591	0.0163046
814.669	0.0163213
814.747	0.0161564
814.825	0.0162241
814.904	0.0161992
814.982	0.0162727
815.060	0.0163085
815.138	0.0162749
815.216	0.0161987
815.294	0.0163048
815.372	0.0160461
815.450	0.0160721
815.529	0.0162975
815.607	0.0162651
815.685	0.0161578
815.763	0.0162307
815.841	0.0162354
815.919	0.0161880
815.997	0.0161359
816.075	0.0161828
816.154	0.0162064
816.232	0.0162865
816.310	0.0161645
816.388	0.0163370
816.466	0.0163738
816.544	0.0164265
816.622	0.0165163
816.700	0.0166132
816.779	0.0167173
816.857	0.0167301
816.935	0.0167004
817.013	0.0167162
817.091	0.0166711
817.169	0.0168562
817.247	0.0168191
817.325	0.0167886
817.404	0.0170080
817.482	0.0169664
817.560	0.0169269
817.638	0.0169286
817.716	0.0169147
817.794	0.0168791
817.872	0.0168768
817.950	0.0168614
818.029	0.0169166
818.107	0.0168945
818.185	0.0169147
818.263	0.0168286
818.341	0.0167290
818.419	0.0168876
818.497	0.0167450
818.575	0.0166334
818.654	0.0168588
818.732	0.0166961
818.810	0.0167123
818.888	0.0168738
818.966	0.0168313
819.044	0.0168346
819.122	0.0166293
819.200	0.0165340
819.279	0.0165058
819.357	0.0165104
819.435	0.0164621
819.513	0.0164853
819.591	0.0163178
819.669	0.0162343
819.747	0.0161579
819.825	0.0162608
819.904	0.0160669
819.982	0.0161105
820.060	0.0159760
820.138	0.0159496
820.216	0.0159597
820.294	0.0160406
820.372	0.0159811
820.450	0.0158197
820.529	0.0158128
820.607	0.0157786
820.685	0.0160522
820.763	0.0160543
820.841	0.0159638
820.919	0.0161864
820.997	0.0161216
821.075	0.0160515
821.154	0.0160934
821.232	0.0161137
821.310	0.0162347
821.388	0.0161755
821.466	0.0162312
821.544	0.0160688
821.622	0.0162482
821.700	0.0162700
821.779	0.0163909
821.857	0.0164584
821.935	0.0163049
822.013	0.0163233
822.091	0.0163779
822.169	0.0163898
822.247	0.0161850
822.325	0.0164203
822.404	0.0165536
822.482	0.0165839
822.560	0.0165524
822.638	0.0164671
822.716	0.0164705
822.794	0.0164956
822.872	0.0164841
822.950	0.0166706
823.029	0.0165700
823.107	0.0164707
823.185	0.0166402
823.263	0.0165342
823.341	0.0164029
823.419	0.0164704
823.497	0.0166348
823.575	0.0163950
823.654	0.0164323
823.732	0.0164480
823.810	0.0163943
823.888	0.0164353
823.966	0.0163502
824.044	0.0162826
824.122	0.0162965
824.200	0.0164104
824.279	0.0164238
824.357	0.0165819
824.435	0.0164312
824.513	0.0165356
824.591	0.0166166
824.669	0.0165714
824.747	0.0166598
824.825	0.0166013
824.904	0.0166440
824.982	0.0167535
825.060	0.0167109
825.138	0.0166721
825.216	0.0167510
825.294	0.0167649
825.372	0.0167326
825.450	0.0166075
825.529	0.0166519
825.607	0.0165163
825.685	0.0165147
825.763	0.0165797
825.841	0.0165794
825.919	0.0163308
825.997	0.0162479
826.075	0.0163768
826.154	0.0164413
826.232	0.0163258
826.310	0.0165279
826.388	0.0163967
826.466	0.0163530
826.544	0.0163814
826.622	0.0164262
826.700	0.0163842
826.779	0.0162460
826.857	0.0163212
826.935	0.0164458
827.013	0.0162705
827.091	0.0161848
827.169	0.0163099
827.247	0.0162437
827.325	0.0161649
827.404	0.0162144
827.482	0.0162814
827.560	0.0162951
827.638	0.0163194
827.716	0.0162914
827.794	0.0163285
827.872	0.0163291
827.950	0.0163411
828.029	0.0162707
828.107	0.0166172
828.185	0.0163705
828.263	0.0162827
828.341	0.0163068
828.419	0.0163493
828.497	0.0163661
828.575	0.0163956
828.654	0.0163168
828.732	0.0163319
828.810	0.0162143
828.888	0.0162196
828.966	0.0163206
829.044	0.0162329
829.122	0.0163268
829.200	0.0164598
829.279	0.0163885
829.357	0.0165434
829.435	0.0166693
829.513	0.0165490
829.591	0.0164417
829.669	0.0164764
829.747	0.0165648
829.825	0.0165657
829.904	0.0166425
829.982	0.0164754
830.060	0.0165415
830.138	0.0165334
830.216	0.0164931
830.294	0.0164915
830.372	0.0162215
830.450	0.0162060
830.529	0.0162963
830.607	0.0163060
830.685	0.0162260
830.763	0.0162225
830.841	0.0164334
830.919	0.0164232
830.997	0.0164244
831.075	0.0164454
831.154	0.0165425
831.232	0.0166515
831.310	0.0167877
831.388	0.0168599
831.466	0.0168093
831.544	0.0166719
831.622	0.0166830
831.700	0.0166587
831.779	0.0166521
831.857	0.0167419
831.935	0.0167481
832.013	0.0167950
832.091	0.0167393
832.169	0.0166105
832.247	0.0169000
832.325	0.0167043
832.404	0.0165663
832.482	0.0165737
832.560	0.0167038
832.638	0.0168004
832.716	0.0166441
832.794	0.0167228
832.872	0.0165722
832.950	0.0164045
833.029	0.0166158
833.107	0.0163660
833.185	0.0164670
833.263	0.0166116
833.341	0.0164297
833.419	0.0165108
833.497	0.0164857
833.575	0.0166932
833.654	0.0165007
833.732	0.0165009
833.810	0.0165529
833.888	0.0164338
833.966	0.0166019
834.044	0.0166451
834.122	0.0165364
834.200	0.0166536
834.279	0.0165318
834.357	0.0166673
834.435	0.0167486
834.513	0.0166172
834.591	0.0164928
834.669	0.0164150
834.747	0.0164754
834.825	0.0166682
834.904	0.0164576
834.982	0.0163046
835.060	0.0163200
835.138	0.0162797
835.216	0.0163784
835.294	0.0161770
835.372	0.0162048
835.450	0.0163683
835.529	0.0163219
835.607	0.0162485
835.685	0.0164996
835.763	0.0164951
835.841	0.0163835
835.919	0.0166089
835.997	0.0165582
836.075	0.0165759
836.154	0.0166635
836.232	0.0165796
836.310	0.0163991
836.388	0.0164779
836.466	0.0165349
836.544	0.0164508
836.622	0.0165099
836.700	0.0164600
836.779	0.0165076
836.857	0.0165542
836.935	0.0164443
837.013	0.0164004
837.091	0.0165335
837.169	0.0164585
837.247	0.0165005
837.325	0.0164203
837.404	0.0163921
837.482	0.0163869
837.560	0.0163641
837.638	0.0165346
837.716	0.0164399
837.794	0.0164224
837.872	0.0164918
837.950	0.0164480
838.029	0.0165197
838.107	0.0165009
838.185	0.0164660
838.263	0.0164503
838.341	0.0164581
838.419	0.0164407
838.497	0.0163675
838.575	0.0165467
838.654	0.0164994
838.732	0.0164084
838.810	0.0163644
838.888	0.0163454
838.966	0.0164135
839.044	0.0163201
839.122	0.0162882
839.200	0.0163763
839.279	0.0166322
839.357	0.0166677
839.435	0.0165071
839.513	0.0165759
839.591	0.0166551
839.669	0.0165758
839.747	0.0165966
839.825	0.0166469
839.904	0.0165536
839.982	0.0165421
840.060	0.0167021
840.138	0.0166079
840.216	0.0164408
840.294	0.0163873
840.372	0.0164045
840.450	0.0162877
840.529	0.0164326
840.607	0.0163869
840.685	0.0164745
840.763	0.0165232
840.841	0.0162826
840.919	0.0164206
840.997	0.0164886
841.075	0.0163413
841.154	0.0162772
841.232	0.0162650
841.310	0.0163467
841.388	0.0163236
841.466	0.0162843
841.544	0.0163470
841.622	0.0164269
841.700	0.0162474
841.779	0.0161790
841.857	0.0162936
841.935	0.0164421
842.013	0.0161846
842.091	0.0161512
842.169	0.0162715
842.247	0.0161517
842.325	0.0162596
842.404	0.0162392
842.482	0.0162377
842.560	0.0162875
842.638	0.0163068
842.716	0.0165275
842.794	0.0164213
842.872	0.0165831
842.950	0.0166060
843.029	0.0166969
843.107	0.0166918
843.185	0.0167439
843.263	0.0166841
843.341	0.0165935
843.419	0.0166570
843.497	0.0166319
843.575	0.0165468
843.654	0.0166005
843.732	0.0165961
843.810	0.0165554
843.888	0.0165112
843.966	0.0165459
844.044	0.0165167
844.122	0.0165086
844.200	0.0165239
844.279	0.0164653
844.357	0.0165317
844.435	0.0163879
844.513	0.0164979
844.591	0.0164777
844.669	0.0165142
844.747	0.0163568
844.825	0.0163357
844.904	0.0161085
844.982	0.0162054
845.060	0.0161434
845.138	0.0161924
845.216	0.0161509
845.294	0.0162164
845.372	0.0161768
845.450	0.0161484
845.529	0.0160594
845.607	0.0161829
845.685	0.0162155
845.763	0.0161485
845.841	0.0161623
845.919	0.0161271
845.997	0.0163975
846.075	0.0163833
846.154	0.0163531
846.232	0.0164958
846.310	0.0164789
846.388	0.0164996
846.466	0.0165910
846.544	0.0166332
846.622	0.0165098
846.700	0.0163630
846.779	0.0164200
846.857	0.0163422
846.935	0.0165276
847.013	0.0164643
847.091	0.0162733
847.169	0.0160299
847.247	0.0161749
847.325	0.0161741
847.404	0.0160337
847.482	0.0161539
847.560	0.0160111
847.638	0.0159615
847.716	0.0162023
847.794	0.0161462
847.872	0.0161794
847.950	0.0161984
848.029	0.0163197
848.107	0.0164077
848.185	0.0164157
848.263	0.0164999
848.341	0.0164812
848.419	0.0166186
848.497	0.0165005
848.575	0.0165888
848.654	0.0166652
848.732	0.0167885
848.810	0.0166852
848.888	0.0166561
848.966	0.0167476
849.044	0.0166432
849.122	0.0165955
849.200	0.0165174
849.279	0.0166115
849.357	0.0167009
849.435	0.0165509
849.513	0.0166409
849.591	0.0166411
849.669	0.0165598
849.747	0.0165710
849.825	0.0164869
849.904	0.0165761
849.982	0.0165051
850.060	0.0166831
850.138	0.0167048
850.216	0.0164436
850.294	0.0165501
850.372	0.0167310
850.450	0.0166027
850.529	0.0166036
850.607	0.0165049
850.685	0.0164633
850.763	0.0164320
850.841	0.0165333
850.919	0.0162967
850.997	0.0162209
851.075	0.0162209
851.154	0.0162589
851.232	0.0161501
851.310	0.0160576
851.388	0.0161370
851.466	0.0160287
851.544	0.0159857
851.622	0.0160815
851.700	0.0162636
851.779	0.0161803
851.857	0.0161455
851.935	0.0160828
852.013	0.0161044
852.091	0.0161488
852.169	0.0162161
852.247	0.0162592
852.325	0.0161617
852.404	0.0163853
852.482	0.0163185
852.560	0.0163338
852.638	0.0163354
852.716	0.0164034
852.794	0.0163063
852.872	0.0164741
852.950	0.0165364
853.029	0.0164780
853.107	0.0164571
853.185	0.0164585
853.263	0.0165688
853.341	0.0164670
853.419	0.0165085
853.497	0.0164014
853.575	0.0164098
853.654	0.0165466
853.732	0.0165101
853.810	0.0162829
853.888	0.0164319
853.966	0.0163043
854.044	0.0162640
854.122	0.0163720
854.200	0.0162791
854.279	0.0163688
854.357	0.0164849
854.435	0.0164920
854.513	0.0164511
854.591	0.0164254
854.669	0.0164655
854.747	0.0164845
854.825	0.0165013
854.904	0.0164896
854.982	0.0166833
855.060	0.0166441
855.138	0.0167629
855.216	0.0166214
855.294	0.0165641
855.372	0.0167494
855.450	0.0165984
855.529	0.0165302
855.607	0.0165910
855.685	0.0165578
855.763	0.0164419
855.841	0.0165116
855.919	0.0164196
855.997	0.0163625
856.075	0.0164599
856.154	0.0164204
856.232	0.0164658
856.310	0.0163581
856.388	0.0163877
856.466	0.0164564
856.544	0.0164442
856.622	0.0163904
856.700	0.0164798
856.779	0.0165456
856.857	0.0164364
856.935	0.0163721
857.013	0.0164352
857.091	0.0163633
857.169	0.0165227
857.247	0.0165337
857.325	0.0164913
857.404	0.0164008
857.482	0.0164505
857.560	0.0163375
857.638	0.0165356
857.716	0.0165602
857.794	0.0165306
857.872	0.0164918
857.950	0.0164444
858.029	0.0165179
858.107	0.0164588
858.185	0.0164381
858.263	0.0163662
858.341	0.0164069
858.419	0.0165160
858.497	0.0163436
858.575	0.0164345
858.654	0.0164963
858.732	0.0163270
858.810	0.0164336
858.888	0.0164862
858.966	0.0165552
859.044	0.0164013
859.122	0.0164503
859.200	0.0164778
859.279	0.0166308
859.357	0.0164353
859.435	0.0163658
859.513	0.0165511
859.591	0.0165424
859.669	0.0164241
859.747	0.0164481
859.825	0.0163346
859.904	0.0163555
859.982	0.0161454
860.060	0.0163677
860.138	0.0163486
860.216	0.0162302
860.294	0.0163119
860.372	0.0163105
860.450	0.0162302
860.529	0.0162440
860.607	0.0163575
860.685	0.0163829
860.763	0.0163889
860.841	0.0164072
860.919	0.0164285
860.997	0.0165411
861.075	0.0165118
861.154	0.0165402
861.232	0.0164986
861.310	0.0164929
861.388	0.0165342
861.466	0.0165577
861.544	0.0164964
861.622	0.0165511
861.700	0.0165571
861.779	0.0165643
861.857	0.0164958
861.935	0.0164009
862.013	0.0163882
862.091	0.0163754
862.169	0.0162994
862.247	0.0164970
862.325	0.0163715
862.404	0.0163116
862.482	0.0163081
862.560	0.0162730
862.638	0.0162181
862.716	0.0161903
862.794	0.0162181
862.872	0.0162114
862.950	0.0161707
863.029	0.0162167
863.107	0.0162992
863.185	0.0163533
863.263	0.0163594
863.341	0.0162957
863.419	0.0164433
863.497	0.0166073
863.575	0.0165460
863.654	0.0165715
863.732	0.0166357
863.810	0.0167870
863.888	0.0166971
863.966	0.0167361
864.044	0.0168631
864.122	0.0168233
864.200	0.0168291
864.279	0.0166875
864.357	0.0167099
864.435	0.0168259
864.513	0.0166961
864.591	0.0166499
864.669	0.0167904
864.747	0.0165703
864.825	0.0163853
864.904	0.0164838
864.982	0.0164240
865.060	0.0165155
865.138	0.0164692
865.216	0.0165146
865.294	0.0164713
865.372	0.0165154
865.450	0.0165383
865.529	0.0166099
865.607	0.0164759
865.685	0.0165022
865.763	0.0163718
865.841	0.0164281
865.919	0.0165202
865.997	0.0163928
866.075	0.0163779
866.154	0.0164339
866.232	0.0162271
866.310	0.0161809
866.388	0.0164345
866.466	0.0165289
866.544	0.0163641
866.622	0.0163099
866.700	0.0163750
866.779	0.0163301
866.857	0.0162749
866.935	0.0163982
867.013	0.0163583
867.091	0.0162437
867.169	0.0162733
867.247	0.0163490
867.325	0.0164798
867.404	0.0164501
867.482	0.0163178
867.560	0.0164602
867.638	0.0163775
867.716	0.0165791
867.794	0.0165211
867.872	0.0165720
867.950	0.0164304
868.029	0.0165179
868.107	0.0165117
868.185	0.0164465
868.263	0.0163396
868.341	0.0163986
868.419	0.0164040
868.497	0.0164375
868.575	0.0165269
868.654	0.0164446
868.732	0.0162885
868.810	0.0164397
868.888	0.0163493
868.966	0.0164903
869.044	0.0163850
869.122	0.0165405
869.200	0.0164956
869.279	0.0164199
869.357	0.0164014
869.435	0.0163587
869.513	0.0163706
869.591	0.0164136
869.669	0.0162926
869.747	0.0164011
869.825	0.0165373
869.904	0.0163517
869.982	0.0163644
870.060	0.0165037
870.138	0.0164216
870.216	0.0163949
870.294	0.0164222
870.372	0.0163246
870.450	0.0163860
870.529	0.0165257
870.607	0.0163828
870.685	0.0162807
870.763	0.0164750
870.841	0.0165939
870.919	0.0165975
870.997	0.0164745
871.075	0.0166208
871.154	0.0164368
871.232	0.0166157
871.310	0.0164610
871.388	0.0164743
871.466	0.0165325
871.544	0.0165070
871.622	0.0165583
871.700	0.0164565
871.779	0.0164955
871.857	0.0163972
871.935	0.0164357
872.013	0.0165034
872.091	0.0163834
872.169	0.0164162
872.247	0.0163462
872.325	0.0163194
872.404	0.0164677
872.482	0.0164761
872.560	0.0162158
872.638	0.0161865
872.716	0.0162614
872.794	0.0163661
872.872	0.0160736
872.950	0.0163962
873.029	0.0162569
873.107	0.0162912
873.185	0.0164256
873.263	0.0164276
873.341	0.0165205
873.419	0.0163390
873.497	0.0164812
873.575	0.0164740
873.654	0.0163641
873.732	0.0164444
873.810	0.0163479
873.888	0.0163573
873.966	0.0163943
874.044	0.0161354
874.122	0.0162326
874.200	0.0163486
874.279	0.0163567
874.357	0.0161485
874.435	0.0161834
874.513	0.0163251
874.591	0.0164135
874.669	0.0163066
874.747	0.0162619
874.825	0.0164686
874.904	0.0163934
874.982	0.0164529
875.060	0.0164532
875.138	0.0164056
875.216	0.0165299
875.294	0.0166028
875.372	0.0164262
875.450	0.0164279
875.529	0.0164656
875.607	0.0164651
875.685	0.0165921
875.763	0.0163631
875.841	0.0164436
875.919	0.0164552
875.997	0.0163743
876.075	0.0164621
876.154	0.0162636
876.232	0.0161723
876.310	0.0162039
876.388	0.0162765
876.466	0.0163119
876.544	0.0163398
876.622	0.0162336
876.700	0.0162837
876.779	0.0164113
876.857	0.0163862
876.935	0.0162503
877.013	0.0163723
877.091	0.0164239
877.169	0.0163750
877.247	0.0162653
877.325	0.0163570
877.404	0.0164431
877.482	0.0162375
877.560	0.0162431
877.638	0.0164520
877.716	0.0162312
877.794	0.0163816
877.872	0.0163766
877.950	0.0162715
878.029	0.0161489
878.107	0.0163523
878.185	0.0164282
878.263	0.0164095
878.341	0.0164182
878.419	0.0163242
878.497	0.0162614
878.575	0.0162157
878.654	0.0163143
878.732	0.0164091
878.810	0.0164807
878.888	0.0164613
878.966	0.0164335
879.044	0.0163304
879.122	0.0164535
879.200	0.0164573
879.279	0.0164046
879.357	0.0164450
879.435	0.0164695
879.513	0.0165136
879.591	0.0165710
879.669	0.0165452
879.747	0.0165636
879.825	0.0165040
879.904	0.0164682
879.982	0.0166454
880.060	0.0165240
880.138	0.0164526
880.216	0.0163556
880.294	0.0164117
880.372	0.0165726
880.450	0.0163982
880.529	0.0164278
880.607	0.0164527
880.685	0.0163454
880.763	0.0163622
880.841	0.0162322
880.919	0.0163674
880.997	0.0163499
881.075	0.0164935
881.154	0.0164823
881.232	0.0164330
881.310	0.0164150
881.388	0.0165235
881.466	0.0165630
881.544	0.0165714
881.622	0.0164836
881.700	0.0166028
881.779	0.0164918
881.857	0.0164785
881.935	0.0166192
882.013	0.0164799
882.091	0.0164664
882.169	0.0165912
882.247	0.0165768
882.325	0.0165214
882.404	0.0165339
882.482	0.0165072
882.560	0.0163293
882.638	0.0163457
882.716	0.0165025
882.794	0.0162704
882.872	0.0162519
882.950	0.0163448
883.029	0.0162046
883.107	0.0164928
883.185	0.0163456
883.263	0.0163020
883.341	0.0165150
883.419	0.0163456
883.497	0.0162968
883.575	0.0164584
883.654	0.0163245
883.732	0.0163025
883.810	0.0164050
883.888	0.0164841
883.966	0.0165114
884.044	0.0162927
884.122	0.0164401
884.200	0.0163470
884.279	0.0164614
884.357	0.0165572
884.435	0.0166129
884.513	0.0164912
884.591	0.0164799
884.669	0.0165079
884.747	0.0165526
884.825	0.0165720
884.904	0.0166162
884.982	0.0165273
885.060	0.0164996
885.138	0.0165879
885.216	0.0163804
885.294	0.0165440
885.372	0.0164425
885.450	0.0162546
885.529	0.0164305
885.607	0.0163801
885.685	0.0162848
885.763	0.0163425
885.841	0.0164345
885.919	0.0163249
885.997	0.0163499
886.075	0.0162793
886.154	0.0164202
886.232	0.0164719
886.310	0.0165952
886.388	0.0163956
886.466	0.0165012
886.544	0.0167250
886.622	0.0165710
886.700	0.0165443
886.779	0.0166733
886.857	0.0164581
886.935	0.0164957
887.013	0.0165534
887.091	0.0165462
887.169	0.0164732
887.247	0.0165332
887.325	0.0165672
887.404	0.0167340
887.482	0.0166277
887.560	0.0164935
887.638	0.0164073
887.716	0.0164326
887.794	0.0164680
887.872	0.0165067
887.950	0.0165690
888.029	0.0164503
888.107	0.0163298
888.185	0.0165214
888.263	0.0163789
888.341	0.0164861
888.419	0.0165991
888.497	0.0165339
888.575	0.0163083
888.654	0.0164983
888.732	0.0164698
888.810	0.0165962
888.888	0.0165385
888.966	0.0164582
889.044	0.0165817
889.122	0.0166060
889.200	0.0166023
889.279	0.0166686
889.357	0.0166132
889.435	0.0165442
889.513	0.0166228
889.591	0.0163772
889.669	0.0165073
889.747	0.0163903
889.825	0.0164964
889.904	0.0164066
889.982	0.0162143
890.060	0.0163275
890.138	0.0162284
890.216	0.0163380
890.294	0.0162791
890.372	0.0161711
890.450	0.0161702
890.529	0.0162359
890.607	0.0161351
890.685	0.0162016
890.763	0.0161826
890.841	0.0161306
890.919	0.0162220
890.997	0.0163242
891.075	0.0164591
891.154	0.0163527
891.232	0.0163415
891.310	0.0165705
891.388	0.0165491
891.466	0.0166450
891.544	0.0166639
891.622	0.0167200
891.700	0.0167558
891.779	0.0168136
891.857	0.0169052
891.935	0.0168127
892.013	0.0168153
892.091	0.0167216
892.169	0.0166805
892.247	0.0166963
892.325	0.0166642
892.404	0.0166023
892.482	0.0164919
892.560	0.0164363
892.638	0.0164061
892.716	0.0165411
892.794	0.0164300
892.872	0.0164455
892.950	0.0163449
893.029	0.0163243
893.107	0.0164234
893.185	0.0162811
893.263	0.0161605
893.341	0.0161926
893.419	0.0163334
893.497	0.0162088
893.575	0.0163630
893.654	0.0162665
893.732	0.0162946
893.810	0.0162543
893.888	0.0163611
893.966	0.0164781
894.044	0.0164645
894.122	0.0164362
894.200	0.0164333
894.279	0.0165185
894.357	0.0164915
894.435	0.0165098
894.513	0.0164741
894.591	0.0165443
894.669	0.0166058
894.747	0.0166020
894.825	0.0166290
894.904	0.0164639
894.982	0.0165181
895.060	0.0165506
895.138	0.0165328
895.216	0.0165159
895.294	0.0164310
895.372	0.0165152
895.450	0.0163970
895.529	0.0163802
895.607	0.0162708
895.685	0.0162235
895.763	0.0163692
895.841	0.0163683
895.919	0.0162714
895.997	0.0163487
896.075	0.0163765
896.154	0.0163526
896.232	0.0163187
896.310	0.0163284
896.388	0.0163107
896.466	0.0163654
896.544	0.0164225
896.622	0.0164223
896.700	0.0163325
896.779	0.0164542
896.857	0.0164469
896.935	0.0163950
897.013	0.0164532
897.091	0.0163968
897.169	0.0164415
897.247	0.0163466
897.325	0.0164758
897.404	0.0163935
897.482	0.0164874
897.560	0.0164790
897.638	0.0162745
897.716	0.0163397
897.794	0.0165114
897.872	0.0163634
897.950	0.0164243
898.029	0.0164700
898.107	0.0165638
898.185	0.0164860
898.263	0.0166444
898.341	0.0165004
898.419	0.0165235
898.497	0.0166703
898.575	0.0165619
898.654	0.0165482
898.732	0.0164764
898.810	0.0165453
898.888	0.0165466
898.966	0.0165257
899.044	0.0164830
899.122	0.0164752
899.200	0.0166096
899.279	0.0164418
899.357	0.0164297
899.435	0.0163843
899.513	0.0163513
899.591	0.0162730
899.669	0.0163377
899.747	0.0163746
899.825	0.0163390
899.904	0.0162260
899.982	0.0163046
900.060	0.0162214
900.138	0.0163132
900.216	0.0162316
900.294	0.0162802
900.372	0.0162497
900.450	0.0163580
900.529	0.0163584
900.607	0.0161519
900.685	0.0162940
900.763	0.0163749
900.841	0.0162220
900.919	0.0162392
900.997	0.0163848
901.075	0.0163301
901.154	0.0162695
901.232	0.0163973
901.310	0.0163263
901.388	0.0164513
901.466	0.0164163
901.544	0.0164386
901.622	0.0164115
901.700	0.0165273
901.779	0.0166014
901.857	0.0167270
901.935	0.0167013
902.013	0.0166644
902.091	0.0167285
902.169	0.0166221
902.247	0.0167422
902.325	0.0166371
902.404	0.0166920
902.482	0.0165042
902.560	0.0164786
902.638	0.0165668
902.716	0.0164719
902.794	0.0162716
902.872	0.0163602
902.950	0.0163312
903.029	0.0162237
903.107	0.0162000
903.185	0.0163351
903.263	0.0162854
903.341	0.0161713
903.419	0.0161459
903.497	0.0161980
903.575	0.0160202
903.654	0.0159267
903.732	0.0160303
903.810	0.0160623
903.888	0.0160880
903.966	0.0160365
904.044	0.0159817
904.122	0.0160526
904.200	0.0162698
904.279	0.0161848
904.357	0.0161179
904.435	0.0162234
904.513	0.0163052
904.591	0.0162193
904.669	0.0162550
904.747	0.0161281
904.825	0.0162198
904.904	0.0163618
904.982	0.0163589
905.060	0.0163483
905.138	0.0164211
905.216	0.0164732
905.294	0.0163898
905.372	0.0163195
905.450	0.0165188
905.529	0.0165282
905.607	0.0166525
905.685	0.0165526
905.763	0.0166278
905.841	0.0166860
905.919	0.0167535
905.997	0.0164842
906.075	0.0166042
906.154	0.0166289
906.232	0.0165311
906.310	0.0164820
906.388	0.0165013
906.466	0.0164700
906.544	0.0164551
906.622	0.0165276
906.700	0.0165077
906.779	0.0163760
906.857	0.0163867
906.935	0.0163742
907.013	0.0163188
907.091	0.0163244
907.169	0.0163593
907.247	0.0161494
907.325	0.0161938
907.404	0.0162135
907.482	0.0161300
907.560	0.0161887
907.638	0.0161674
907.716	0.0162820
907.794	0.0163628
907.872	0.0162025
907.950	0.0163941
908.029	0.0162468
908.107	0.0163108
908.185	0.0165564
908.263	0.0165141
908.341	0.0163628
908.419	0.0164471
908.497	0.0165706
908.575	0.0166289
908.654	0.0166673
908.732	0.0166137
908.810	0.0165057
908.888	0.0167382
908.966	0.0166567
909.044	0.0165871
909.122	0.0165391
909.200	0.0166674
909.279	0.0166309
909.357	0.0167078
909.435	0.0166016
909.513	0.0166470
909.591	0.0165800
909.669	0.0164929
909.747	0.0164774
909.825	0.0164060
909.904	0.0164721
909.982	0.0165135
910.060	0.0164011
910.138	0.0163667
910.216	0.0163512
910.294	0.0162349
910.372	0.0162323
910.450	0.0162000
910.529	0.0162273
910.607	0.0161710
910.685	0.0161749
910.763	0.0160735
910.841	0.0161511
910.919	0.0160427
910.997	0.0160146
911.075	0.0161479
911.154	0.0162440
911.232	0.0161633
911.310	0.0161832
911.388	0.0162983
911.466	0.0162924
911.544	0.0163626
911.622	0.0165383
911.700	0.0165463
911.779	0.0164394
911.857	0.0164922
911.935	0.0165857
912.013	0.0166724
912.091	0.0166425
912.169	0.0166863
912.247	0.0167184
912.325	0.0166469
912.404	0.0167524
912.482	0.0168749
912.560	0.0168784
912.638	0.0168407
912.716	0.0166562
912.794	0.0165748
912.872	0.0166073
912.950	0.0165844
913.029	0.0165664
913.107	0.0166279
913.185	0.0167094
913.263	0.0166257
913.341	0.0164046
913.419	0.0165421
913.497	0.0166315
913.575	0.0165987
913.654	0.0164825
913.732	0.0166576
913.810	0.0166016
913.888	0.0164465
913.966	0.0164890
914.044	0.0165115
914.122	0.0164259
914.200	0.0165442
914.279	0.0166428
914.357	0.0164865
914.435	0.0164356
914.513	0.0165163
914.591	0.0165084
914.669	0.0164072
914.747	0.0164654
914.825	0.0163744
914.904	0.0162891
914.982	0.0164867
915.060	0.0165026
915.138	0.0164735
915.216	0.0164543
915.294	0.0163123
915.372	0.0164967
915.450	0.0164668
915.529	0.0165446
915.607	0.0163579
915.685	0.0163152
915.763	0.0162426
915.841	0.0163067
915.919	0.0165674
915.997	0.0165491
916.075	0.0164964
916.154	0.0164046
916.232	0.0163851
916.310	0.0164001
916.388	0.0165258
916.466	0.0164783
916.544	0.0166096
916.622	0.0164307
916.700	0.0163823
916.779	0.0165269
916.857	0.0163932
916.935	0.0164515
917.013	0.0164076
917.091	0.0164400
917.169	0.0163884
917.247	0.0163586
917.325	0.0163304
917.404	0.0165362
917.482	0.0165512
917.560	0.0165453
917.638	0.0165170
917.716	0.0165926
917.794	0.0164645
917.872	0.0164450
917.950	0.0165295
918.029	0.0165962
918.107	0.0164692
918.185	0.0165310
918.263	0.0166154
918.341	0.0165372
918.419	0.0164645
918.497	0.0165854
918.575	0.0164989
918.654	0.0166211
918.732	0.0166447
918.810	0.0166142
918.888	0.0166835
918.966	0.0166010
919.044	0.0164693
919.122	0.0165568
919.200	0.0165340
919.279	0.0165010
919.357	0.0164313
919.435	0.0164127
919.513	0.0163654
919.591	0.0164129
919.669	0.0163836
919.747	0.0163029
919.825	0.0163000
919.904	0.0162360
