06/03/2022	14:15:25	Ver.	4.1	UNKNOWN
Optical Delay	599.981738	Delta X		0.078125	Sweeps	1	Scan Rate	0/0
Coordinates	Axis 1	NaN	Axis 2	NaN	Axis 3	NaN	Axis 4	NaN	Axis 5	NaN	Axis 6	0.000000
TX Power	0.000000	RX Power	0.000000

599.982	0.0167177
600.060	0.0165572
600.138	0.0166140
600.216	0.0168094
600.294	0.0167791
600.372	0.0168200
600.450	0.0166135
600.529	0.0167471
600.607	0.0167500
600.685	0.0167104
600.763	0.0167141
600.841	0.0167876
600.919	0.0166784
600.997	0.0167943
601.075	0.0167326
601.154	0.0167711
601.232	0.0167102
601.310	0.0167998
601.388	0.0167213
601.466	0.0167113
601.544	0.0167033
601.622	0.0169292
601.700	0.0167316
601.779	0.0166917
601.857	0.0167342
601.935	0.0166402
602.013	0.0167061
602.091	0.0166181
602.169	0.0167263
602.247	0.0167681
602.325	0.0166815
602.404	0.0166262
602.482	0.0166547
602.560	0.0167561
602.638	0.0166492
602.716	0.0166244
602.794	0.0166564
602.872	0.0167283
602.950	0.0166859
603.029	0.0167242
603.107	0.0166335
603.185	0.0165510
603.263	0.0166799
603.341	0.0166902
603.419	0.0166944
603.497	0.0167245
603.575	0.0166502
603.654	0.0166891
603.732	0.0167764
603.810	0.0167777
603.888	0.0167439
603.966	0.0165565
604.044	0.0167619
604.122	0.0168203
604.200	0.0167271
604.279	0.0166634
604.357	0.0167828
604.435	0.0166780
604.513	0.0166948
604.591	0.0167242
604.669	0.0168018
604.747	0.0167502
604.825	0.0165960
604.904	0.0167940
604.982	0.0166761
605.060	0.0166737
605.138	0.0165639
605.216	0.0166385
605.294	0.0166404
605.372	0.0167229
605.450	0.0167142
605.529	0.0167416
605.607	0.0165406
605.685	0.0167070
605.763	0.0167712
605.841	0.0165327
605.919	0.0165350
605.997	0.0165977
606.075	0.0167994
606.154	0.0166138
606.232	0.0166438
606.310	0.0165208
606.388	0.0166199
606.466	0.0166168
606.544	0.0166226
606.622	0.0166142
606.700	0.0167073
606.779	0.0166784
606.857	0.0166849
606.935	0.0165956
607.013	0.0166384
607.091	0.0165459
607.169	0.0167092
607.247	0.0166574
607.325	0.0164621
607.404	0.0165140
607.482	0.0166019
607.560	0.0167561
607.638	0.0165855
607.716	0.0165159
607.794	0.0166925
607.872	0.0166473
607.950	0.0166428
608.029	0.0166613
608.107	0.0166121
608.185	0.0165156
608.263	0.0164184
608.341	0.0166248
608.419	0.0166763
608.497	0.0165327
608.575	0.0167170
608.654	0.0165561
608.732	0.0166627
608.810	0.0164774
608.888	0.0166074
608.966	0.0166826
609.044	0.0166351
609.122	0.0166793
609.200	0.0165450
609.279	0.0165211
609.357	0.0167721
609.435	0.0165659
609.513	0.0167255
609.591	0.0166633
609.669	0.0166376
609.747	0.0165665
609.825	0.0165388
609.904	0.0167693
609.982	0.0165879
610.060	0.0166542
610.138	0.0167053
610.216	0.0166611
610.294	0.0166591
610.372	0.0166181
610.450	0.0166479
610.529	0.0165610
610.607	0.0166526
610.685	0.0167308
610.763	0.0166827
610.841	0.0167332
610.919	0.0166641
610.997	0.0166928
611.075	0.0166724
611.154	0.0167912
611.232	0.0165952
611.310	0.0166923
611.388	0.0166496
611.466	0.0166085
611.544	0.0166536
611.622	0.0167339
611.700	0.0167303
611.779	0.0167783
611.857	0.0165935
611.935	0.0167437
612.013	0.0166064
612.091	0.0166618
612.169	0.0166523
612.247	0.0165790
612.325	0.0166060
612.404	0.0165897
612.482	0.0167041
612.560	0.0167430
612.638	0.0165837
612.716	0.0166277
612.794	0.0167692
612.872	0.0166467
612.950	0.0166160
613.029	0.0167457
613.107	0.0166290
613.185	0.0165821
613.263	0.0166067
613.341	0.0165289
613.419	0.0166476
613.497	0.0167254
613.575	0.0166410
613.654	0.0165963
613.732	0.0165836
613.810	0.0165147
613.888	0.0166634
613.966	0.0164646
614.044	0.0166811
614.122	0.0166853
614.200	0.0166816
614.279	0.0166428
614.357	0.0167512
614.435	0.0166666
614.513	0.0165247
614.591	0.0164960
614.669	0.0165792
614.747	0.0166628
614.825	0.0167052
614.904	0.0166312
614.982	0.0166135
615.060	0.0165686
615.138	0.0166607
615.216	0.0167339
615.294	0.0166619
615.372	0.0166161
615.450	0.0165925
615.529	0.0165755
615.607	0.0166211
615.685	0.0166002
615.763	0.0166770
615.841	0.0166247
615.919	0.0166891
615.997	0.0166040
616.075	0.0166395
616.154	0.0166839
616.232	0.0164850
616.310	0.0165176
616.388	0.0167278
616.466	0.0167474
616.544	0.0166478
616.622	0.0166409
616.700	0.0166268
616.779	0.0165994
616.857	0.0167444
616.935	0.0165216
617.013	0.0165810
617.091	0.0166902
617.169	0.0167165
617.247	0.0165697
617.325	0.0165701
617.404	0.0166643
617.482	0.0166003
617.560	0.0167045
617.638	0.0166991
617.716	0.0167458
617.794	0.0167327
617.872	0.0166677
617.950	0.0166342
618.029	0.0165236
618.107	0.0165787
618.185	0.0166779
618.263	0.0166727
618.341	0.0166582
618.419	0.0166408
618.497	0.0165392
618.575	0.0166702
618.654	0.0165755
618.732	0.0166719
618.810	0.0168195
618.888	0.0166765
618.966	0.0166456
619.044	0.0166245
619.122	0.0165730
619.200	0.0165891
619.279	0.0166510
619.357	0.0166679
619.435	0.0166335
619.513	0.0166434
619.591	0.0166679
619.669	0.0166606
619.747	0.0168211
619.825	0.0168232
619.904	0.0165958
619.982	0.0167268
620.060	0.0167120
620.138	0.0165577
620.216	0.0166898
620.294	0.0166695
620.372	0.0166668
620.450	0.0166645
620.529	0.0166782
620.607	0.0167226
620.685	0.0166201
620.763	0.0166650
620.841	0.0168005
620.919	0.0167339
620.997	0.0167303
621.075	0.0168036
621.154	0.0168491
621.232	0.0168111
621.310	0.0168545
621.388	0.0166883
621.466	0.0166842
621.544	0.0167564
621.622	0.0166604
621.700	0.0166533
621.779	0.0166723
621.857	0.0166621
621.935	0.0165782
622.013	0.0165596
622.091	0.0165541
622.169	0.0165645
622.247	0.0165160
622.325	0.0166125
622.404	0.0167514
622.482	0.0167207
622.560	0.0170023
622.638	0.0169603
622.716	0.0170779
622.794	0.0171759
622.872	0.0170959
622.950	0.0168562
623.029	0.0166367
623.107	0.0167229
623.185	0.0164130
623.263	0.0162347
623.341	0.0161921
623.419	0.0161936
623.497	0.0160152
623.575	0.0162139
623.654	0.0162988
623.732	0.0165327
623.810	0.0166455
623.888	0.0166278
623.966	0.0168758
624.044	0.0170459
624.122	0.0171738
624.200	0.0172405
624.279	0.0171811
624.357	0.0171352
624.435	0.0170228
624.513	0.0169915
624.591	0.0168820
624.669	0.0164713
624.747	0.0163309
624.825	0.0162540
624.904	0.0161214
624.982	0.0160861
625.060	0.0159108
625.138	0.0160070
625.216	0.0158641
625.294	0.0161185
625.372	0.0162331
625.450	0.0165913
625.529	0.0165231
625.607	0.0167533
625.685	0.0169812
625.763	0.0170387
625.841	0.0170891
625.919	0.0170522
625.997	0.0170363
626.075	0.0169147
626.154	0.0170396
626.232	0.0168020
626.310	0.0165506
626.388	0.0164341
626.466	0.0161047
626.544	0.0160806
626.622	0.0161297
626.700	0.0162324
626.779	0.0162425
626.857	0.0163889
626.935	0.0165129
627.013	0.0165671
627.091	0.0167347
627.169	0.0169397
627.247	0.0168501
627.325	0.0168231
627.404	0.0169418
627.482	0.0168251
627.560	0.0166613
627.638	0.0166970
627.716	0.0167992
627.794	0.0167139
627.872	0.0165124
627.950	0.0166563
628.029	0.0166325
628.107	0.0167360
628.185	0.0167563
628.263	0.0169001
628.341	0.0168674
628.419	0.0168356
628.497	0.0168305
628.575	0.0168649
628.654	0.0166717
628.732	0.0166598
628.810	0.0166662
628.888	0.0166312
628.966	0.0164816
629.044	0.0163253
629.122	0.0162789
629.200	0.0163995
629.279	0.0163129
629.357	0.0162841
629.435	0.0163044
629.513	0.0165031
629.591	0.0165636
629.669	0.0166977
629.747	0.0168128
629.825	0.0167937
629.904	0.0170415
629.982	0.0169774
630.060	0.0169913
630.138	0.0169824
630.216	0.0168646
630.294	0.0167934
630.372	0.0166666
630.450	0.0166830
630.529	0.0166739
630.607	0.0165824
630.685	0.0164489
630.763	0.0165559
630.841	0.0164875
630.919	0.0164569
630.997	0.0163560
631.075	0.0165034
631.154	0.0164361
631.232	0.0165376
631.310	0.0164484
631.388	0.0164783
631.466	0.0166826
631.544	0.0165935
631.622	0.0167355
631.700	0.0168472
631.779	0.0168549
631.857	0.0168055
631.935	0.0169865
632.013	0.0169847
632.091	0.0169066
632.169	0.0168557
632.247	0.0169701
632.325	0.0168208
632.404	0.0165862
632.482	0.0166584
632.560	0.0164843
632.638	0.0164082
632.716	0.0165179
632.794	0.0164365
632.872	0.0164635
632.950	0.0165592
633.029	0.0168050
633.107	0.0168130
633.185	0.0168658
633.263	0.0169872
633.341	0.0170182
633.419	0.0168269
633.497	0.0170626
633.575	0.0169650
633.654	0.0169105
633.732	0.0168452
633.810	0.0167323
633.888	0.0165784
633.966	0.0167229
634.044	0.0167361
634.122	0.0167616
634.200	0.0166106
634.279	0.0167201
634.357	0.0168222
634.435	0.0168840
634.513	0.0169221
634.591	0.0168620
634.669	0.0169273
634.747	0.0168297
634.825	0.0167344
634.904	0.0166659
634.982	0.0164812
635.060	0.0163817
635.138	0.0162782
635.216	0.0163263
635.294	0.0162475
635.372	0.0162450
635.450	0.0162505
635.529	0.0162904
635.607	0.0163618
635.685	0.0164541
635.763	0.0165932
635.841	0.0167644
635.919	0.0168180
635.997	0.0169378
636.075	0.0168862
636.154	0.0169037
636.232	0.0170934
636.310	0.0169404
636.388	0.0167907
636.466	0.0166985
636.544	0.0167316
636.622	0.0167868
636.700	0.0164667
636.779	0.0165244
636.857	0.0164036
636.935	0.0164053
637.013	0.0162958
637.091	0.0162988
637.169	0.0162475
637.247	0.0163883
637.325	0.0164089
637.404	0.0166021
637.482	0.0167937
637.560	0.0169718
637.638	0.0170831
637.716	0.0171841
637.794	0.0171454
637.872	0.0171929
637.950	0.0172538
638.029	0.0169841
638.107	0.0168604
638.185	0.0167584
638.263	0.0168407
638.341	0.0165319
638.419	0.0164986
638.497	0.0165464
638.575	0.0164252
638.654	0.0164465
638.732	0.0163233
638.810	0.0164401
638.888	0.0164165
638.966	0.0165381
639.044	0.0164472
639.122	0.0165755
639.200	0.0167020
639.279	0.0165788
639.357	0.0167148
639.435	0.0167651
639.513	0.0167507
639.591	0.0169270
639.669	0.0166284
639.747	0.0169180
639.825	0.0168909
639.904	0.0168402
639.982	0.0168526
640.060	0.0168188
640.138	0.0167365
640.216	0.0168713
640.294	0.0167687
640.372	0.0168262
640.450	0.0167664
640.529	0.0167673
640.607	0.0167301
640.685	0.0167262
640.763	0.0166057
640.841	0.0165857
640.919	0.0164895
640.997	0.0165247
641.075	0.0165640
641.154	0.0165518
641.232	0.0167550
641.310	0.0167202
641.388	0.0168281
641.466	0.0167859
641.544	0.0167791
641.622	0.0167752
641.700	0.0167474
641.779	0.0167337
641.857	0.0167878
641.935	0.0168011
642.013	0.0168398
642.091	0.0166851
642.169	0.0166750
642.247	0.0166973
642.325	0.0165504
642.404	0.0166666
642.482	0.0166336
642.560	0.0166022
642.638	0.0165133
642.716	0.0165683
642.794	0.0167714
642.872	0.0169272
642.950	0.0167264
643.029	0.0166978
643.107	0.0167702
643.185	0.0167780
643.263	0.0167941
643.341	0.0168037
643.419	0.0166481
643.497	0.0168002
643.575	0.0167248
643.654	0.0167252
643.732	0.0168164
643.810	0.0167934
643.888	0.0169414
643.966	0.0168877
644.044	0.0167892
644.122	0.0167766
644.200	0.0166843
644.279	0.0166550
644.357	0.0166394
644.435	0.0165581
644.513	0.0166215
644.591	0.0165511
644.669	0.0165498
644.747	0.0166742
644.825	0.0167509
644.904	0.0166447
644.982	0.0165948
645.060	0.0167079
645.138	0.0167233
645.216	0.0165868
645.294	0.0165730
645.372	0.0166231
645.450	0.0165514
645.529	0.0165929
645.607	0.0165726
645.685	0.0167818
645.763	0.0166064
645.841	0.0166074
645.919	0.0165734
645.997	0.0166238
646.075	0.0165854
646.154	0.0165884
646.232	0.0165688
646.310	0.0166512
646.388	0.0166427
646.466	0.0167895
646.544	0.0168302
646.622	0.0168471
646.700	0.0167840
646.779	0.0169398
646.857	0.0168656
646.935	0.0167422
647.013	0.0166220
647.091	0.0165789
647.169	0.0165081
647.247	0.0164599
647.325	0.0164722
647.404	0.0165034
647.482	0.0164022
647.560	0.0165006
647.638	0.0164536
647.716	0.0165274
647.794	0.0166224
647.872	0.0166730
647.950	0.0168310
648.029	0.0168158
648.107	0.0168571
648.185	0.0169794
648.263	0.0169766
648.341	0.0167690
648.419	0.0166977
648.497	0.0167150
648.575	0.0165908
648.654	0.0166051
648.732	0.0165749
648.810	0.0164297
648.888	0.0162890
648.966	0.0163130
649.044	0.0162716
649.122	0.0165185
649.200	0.0165255
649.279	0.0166250
649.357	0.0166505
649.435	0.0167295
649.513	0.0167401
649.591	0.0168761
649.669	0.0168826
649.747	0.0169253
649.825	0.0169458
649.904	0.0170251
649.982	0.0170624
650.060	0.0168369
650.138	0.0168383
650.216	0.0168028
650.294	0.0166972
650.372	0.0165919
650.450	0.0166293
650.529	0.0165639
650.607	0.0162648
650.685	0.0162331
650.763	0.0163940
650.841	0.0162891
650.919	0.0161810
650.997	0.0161986
651.075	0.0163110
651.154	0.0161541
651.232	0.0163374
651.310	0.0164016
651.388	0.0163041
651.466	0.0164693
651.544	0.0163416
651.622	0.0164996
651.700	0.0165281
651.779	0.0165833
651.857	0.0167437
651.935	0.0168164
652.013	0.0168169
652.091	0.0167870
652.169	0.0167468
652.247	0.0167815
652.325	0.0167757
652.404	0.0168811
652.482	0.0168797
652.560	0.0168565
652.638	0.0170074
652.716	0.0168990
652.794	0.0167589
652.872	0.0169077
652.950	0.0168752
653.029	0.0168629
653.107	0.0168315
653.185	0.0168951
653.263	0.0167864
653.341	0.0167752
653.419	0.0167809
653.497	0.0167956
653.575	0.0166548
653.654	0.0167856
653.732	0.0166441
653.810	0.0165752
653.888	0.0166219
653.966	0.0167514
654.044	0.0167231
654.122	0.0166375
654.200	0.0166599
654.279	0.0165334
654.357	0.0166035
654.435	0.0165356
654.513	0.0165873
654.591	0.0165432
654.669	0.0164983
654.747	0.0164385
654.825	0.0165031
654.904	0.0165160
654.982	0.0165582
655.060	0.0164762
655.138	0.0164967
655.216	0.0166468
655.294	0.0165136
655.372	0.0164600
655.450	0.0165372
655.529	0.0166577
655.607	0.0166642
655.685	0.0166072
655.763	0.0165333
655.841	0.0165405
655.919	0.0166591
655.997	0.0165457
656.075	0.0165029
656.154	0.0165799
656.232	0.0164993
656.310	0.0164967
656.388	0.0164905
656.466	0.0166145
656.544	0.0166727
656.622	0.0165781
656.700	0.0166164
656.779	0.0168624
656.857	0.0168578
656.935	0.0168227
657.013	0.0169946
657.091	0.0169669
657.169	0.0170480
657.247	0.0171315
657.325	0.0171727
657.404	0.0170552
657.482	0.0170719
657.560	0.0171724
657.638	0.0172365
657.716	0.0173066
657.794	0.0170511
657.872	0.0170158
657.950	0.0170214
658.029	0.0168822
658.107	0.0167711
658.185	0.0166440
658.263	0.0166183
658.341	0.0168098
658.419	0.0164950
658.497	0.0162747
658.575	0.0163105
658.654	0.0163066
658.732	0.0162614
658.810	0.0161399
658.888	0.0161905
658.966	0.0162392
659.044	0.0163931
659.122	0.0163333
659.200	0.0163329
659.279	0.0162597
659.357	0.0166418
659.435	0.0166919
659.513	0.0166317
659.591	0.0167477
659.669	0.0167950
659.747	0.0168237
659.825	0.0168823
659.904	0.0168581
659.982	0.0168088
660.060	0.0167423
660.138	0.0168713
660.216	0.0167300
660.294	0.0166490
660.372	0.0166111
660.450	0.0167638
660.529	0.0167157
660.607	0.0166177
660.685	0.0167493
660.763	0.0164223
660.841	0.0165536
660.919	0.0165260
660.997	0.0164999
661.075	0.0164928
661.154	0.0164362
661.232	0.0166814
661.310	0.0165271
661.388	0.0166430
661.466	0.0166459
661.544	0.0166927
661.622	0.0168274
661.700	0.0166808
661.779	0.0167918
661.857	0.0168111
661.935	0.0168107
662.013	0.0167554
662.091	0.0168925
662.169	0.0168641
662.247	0.0169278
662.325	0.0169384
662.404	0.0168388
662.482	0.0167858
662.560	0.0168066
662.638	0.0168077
662.716	0.0167489
662.794	0.0168370
662.872	0.0167675
662.950	0.0168941
663.029	0.0169582
663.107	0.0168336
663.185	0.0168203
663.263	0.0170675
663.341	0.0170090
663.419	0.0169563
663.497	0.0170594
663.575	0.0169456
663.654	0.0171169
663.732	0.0168800
663.810	0.0168763
663.888	0.0167962
663.966	0.0168101
664.044	0.0165707
664.122	0.0166064
664.200	0.0165545
664.279	0.0165111
664.357	0.0165365
664.435	0.0164402
664.513	0.0164124
664.591	0.0165468
664.669	0.0165070
664.747	0.0165132
664.825	0.0164764
664.904	0.0163459
664.982	0.0164857
665.060	0.0165096
665.138	0.0164810
665.216	0.0164677
665.294	0.0165044
665.372	0.0164393
665.450	0.0164053
665.529	0.0162447
665.607	0.0162285
665.685	0.0161330
665.763	0.0162067
665.841	0.0159128
665.919	0.0158305
665.997	0.0159377
666.075	0.0160505
666.154	0.0157871
666.232	0.0160822
666.310	0.0159081
666.388	0.0160954
666.466	0.0161853
666.544	0.0163167
666.622	0.0164181
666.700	0.0165672
666.779	0.0165784
666.857	0.0168044
666.935	0.0169864
667.013	0.0171638
667.091	0.0174709
667.169	0.0174773
667.247	0.0174694
667.325	0.0174822
667.404	0.0179316
667.482	0.0178537
667.560	0.0177232
667.638	0.0177869
667.716	0.0178848
667.794	0.0179429
667.872	0.0177052
667.950	0.0175871
668.029	0.0173632
668.107	0.0173090
668.185	0.0171217
668.263	0.0168019
668.341	0.0165903
668.419	0.0164104
668.497	0.0162053
668.575	0.0159991
668.654	0.0158281
668.732	0.0156816
668.810	0.0155399
668.888	0.0154353
668.966	0.0154326
669.044	0.0155894
669.122	0.0154084
669.200	0.0154065
669.279	0.0156126
669.357	0.0156955
669.435	0.0157587
669.513	0.0159748
669.591	0.0160500
669.669	0.0162965
669.747	0.0166242
669.825	0.0167114
669.904	0.0169078
669.982	0.0169884
670.060	0.0173167
670.138	0.0173076
670.216	0.0173073
670.294	0.0174591
670.372	0.0172769
670.450	0.0172401
670.529	0.0172793
670.607	0.0172585
670.685	0.0172104
670.763	0.0171670
670.841	0.0170010
670.919	0.0172428
670.997	0.0172469
671.075	0.0172192
671.154	0.0173460
671.232	0.0171460
671.310	0.0174113
671.388	0.0173380
671.466	0.0173877
671.544	0.0174264
671.622	0.0171197
671.700	0.0169966
671.779	0.0167216
671.857	0.0165099
671.935	0.0163676
672.013	0.0160004
672.091	0.0157058
672.169	0.0155456
672.247	0.0152615
672.325	0.0150639
672.404	0.0149659
672.482	0.0149906
672.560	0.0149296
672.638	0.0149850
672.716	0.0151117
672.794	0.0153650
672.872	0.0155893
672.950	0.0158681
673.029	0.0161516
673.107	0.0164159
673.185	0.0166596
673.263	0.0167300
673.341	0.0169675
673.419	0.0171606
673.497	0.0172345
673.575	0.0173943
673.654	0.0174741
673.732	0.0175922
673.810	0.0176292
673.888	0.0175724
673.966	0.0175720
674.044	0.0174934
674.122	0.0174974
674.200	0.0173804
674.279	0.0173432
674.357	0.0173528
674.435	0.0169000
674.513	0.0170450
674.591	0.0170145
674.669	0.0168702
674.747	0.0167830
674.825	0.0166855
674.904	0.0166637
674.982	0.0166973
675.060	0.0167167
675.138	0.0168237
675.216	0.0168627
675.294	0.0167543
675.372	0.0166685
675.450	0.0167944
675.529	0.0166728
675.607	0.0167096
675.685	0.0166555
675.763	0.0167764
675.841	0.0166718
675.919	0.0165327
675.997	0.0165807
676.075	0.0165373
676.154	0.0164828
676.232	0.0164134
676.310	0.0166485
676.388	0.0167095
676.466	0.0166286
676.544	0.0169395
676.622	0.0169533
676.700	0.0169780
676.779	0.0171146
676.857	0.0173353
676.935	0.0173425
677.013	0.0172411
677.091	0.0172955
677.169	0.0174698
677.247	0.0174379
677.325	0.0170853
677.404	0.0171521
677.482	0.0170744
677.560	0.0168845
677.638	0.0165349
677.716	0.0164302
677.794	0.0163297
677.872	0.0162937
677.950	0.0159698
678.029	0.0157878
678.107	0.0158847
678.185	0.0158113
678.263	0.0158536
678.341	0.0158624
678.419	0.0158305
678.497	0.0158601
678.575	0.0161933
678.654	0.0162788
678.732	0.0165571
678.810	0.0167558
678.888	0.0168820
678.966	0.0169804
679.044	0.0172098
679.122	0.0174564
679.200	0.0173284
679.279	0.0174329
679.357	0.0173080
679.435	0.0172579
679.513	0.0172944
679.591	0.0171865
679.669	0.0170731
679.747	0.0168401
679.825	0.0168612
679.904	0.0168354
679.982	0.0166263
680.060	0.0168214
680.138	0.0167416
680.216	0.0166795
680.294	0.0165443
680.372	0.0164798
680.450	0.0165383
680.529	0.0165081
680.607	0.0164750
680.685	0.0164644
680.763	0.0164204
680.841	0.0164793
680.919	0.0163197
680.997	0.0166268
681.075	0.0166690
681.154	0.0166774
681.232	0.0166383
681.310	0.0169614
681.388	0.0169447
681.466	0.0168474
681.544	0.0169335
681.622	0.0168779
681.700	0.0165704
681.779	0.0165715
681.857	0.0165215
681.935	0.0163328
682.013	0.0163377
682.091	0.0163856
682.169	0.0165095
682.247	0.0161626
682.325	0.0162624
682.404	0.0164764
682.482	0.0165722
682.560	0.0166742
682.638	0.0167326
682.716	0.0169840
682.794	0.0170254
682.872	0.0168736
682.950	0.0172504
683.029	0.0172188
683.107	0.0172053
683.185	0.0172052
683.263	0.0171865
683.341	0.0170335
683.419	0.0171343
683.497	0.0172793
683.575	0.0172567
683.654	0.0171516
683.732	0.0170990
683.810	0.0170513
683.888	0.0169156
683.966	0.0169099
684.044	0.0168338
684.122	0.0167950
684.200	0.0167152
684.279	0.0168028
684.357	0.0168829
684.435	0.0168579
684.513	0.0167738
684.591	0.0169954
684.669	0.0171281
684.747	0.0170078
684.825	0.0169600
684.904	0.0168942
684.982	0.0170274
685.060	0.0170668
685.138	0.0168468
685.216	0.0167037
685.294	0.0166846
685.372	0.0165123
685.450	0.0162379
685.529	0.0158991
685.607	0.0158674
685.685	0.0155769
685.763	0.0151863
685.841	0.0151979
685.919	0.0149146
685.997	0.0149430
686.075	0.0150819
686.154	0.0151209
686.232	0.0151934
686.310	0.0152387
686.388	0.0155633
686.466	0.0158630
686.544	0.0159029
686.622	0.0161677
686.700	0.0164114
686.779	0.0166761
686.857	0.0168262
686.935	0.0171028
687.013	0.0172902
687.091	0.0174986
687.169	0.0177271
687.247	0.0178634
687.325	0.0181486
687.404	0.0182476
687.482	0.0182829
687.560	0.0183496
687.638	0.0183729
687.716	0.0181947
687.794	0.0181010
687.872	0.0179453
687.950	0.0176213
688.029	0.0175489
688.107	0.0171965
688.185	0.0169176
688.263	0.0167601
688.341	0.0164245
688.419	0.0163142
688.497	0.0159885
688.575	0.0158367
688.654	0.0155870
688.732	0.0155492
688.810	0.0154721
688.888	0.0153740
688.966	0.0154211
689.044	0.0152101
689.122	0.0153511
689.200	0.0153730
689.279	0.0155382
689.357	0.0154922
689.435	0.0156940
689.513	0.0160139
689.591	0.0161462
689.669	0.0161628
689.747	0.0162611
689.825	0.0165543
689.904	0.0166445
689.982	0.0166856
690.060	0.0168477
690.138	0.0167050
690.216	0.0167838
690.294	0.0170244
690.372	0.0169479
690.450	0.0168930
690.529	0.0169716
690.607	0.0170565
690.685	0.0170861
690.763	0.0171490
690.841	0.0171986
690.919	0.0173690
690.997	0.0174751
691.075	0.0174555
691.154	0.0175890
691.232	0.0175735
691.310	0.0178231
691.388	0.0178377
691.466	0.0180034
691.544	0.0180486
691.622	0.0180665
691.700	0.0182033
691.779	0.0181878
691.857	0.0183546
691.935	0.0182729
692.013	0.0183424
692.091	0.0184890
692.169	0.0183396
692.247	0.0183178
692.325	0.0180740
692.404	0.0178596
692.482	0.0176777
692.560	0.0173447
692.638	0.0169598
692.716	0.0165193
692.794	0.0161777
692.872	0.0156823
692.950	0.0154257
693.029	0.0150056
693.107	0.0146920
693.185	0.0144863
693.263	0.0144398
693.341	0.0140850
693.419	0.0141888
693.497	0.0142896
693.575	0.0143426
693.654	0.0144204
693.732	0.0146504
693.810	0.0149218
693.888	0.0150803
693.966	0.0153674
694.044	0.0155135
694.122	0.0157701
694.200	0.0161916
694.279	0.0164684
694.357	0.0166551
694.435	0.0167992
694.513	0.0170393
694.591	0.0172198
694.669	0.0173077
694.747	0.0174943
694.825	0.0173901
694.904	0.0174413
694.982	0.0174689
695.060	0.0172256
695.138	0.0172072
695.216	0.0171680
695.294	0.0170839
695.372	0.0167520
695.450	0.0165857
695.529	0.0165617
695.607	0.0165470
695.685	0.0165781
695.763	0.0165154
695.841	0.0163554
695.919	0.0164327
695.997	0.0165503
696.075	0.0164872
696.154	0.0166823
696.232	0.0167561
696.310	0.0168017
696.388	0.0167886
696.466	0.0169621
696.544	0.0169978
696.622	0.0170804
696.700	0.0173569
696.779	0.0174028
696.857	0.0175479
696.935	0.0175505
697.013	0.0176125
697.091	0.0178248
697.169	0.0178490
697.247	0.0177393
697.325	0.0178185
697.404	0.0179430
697.482	0.0177715
697.560	0.0177500
697.638	0.0177586
697.716	0.0176067
697.794	0.0175866
697.872	0.0175964
697.950	0.0173550
698.029	0.0173001
698.107	0.0170556
698.185	0.0168943
698.263	0.0166273
698.341	0.0163614
698.419	0.0162539
698.497	0.0160836
698.575	0.0158739
698.654	0.0157030
698.732	0.0155999
698.810	0.0156306
698.888	0.0155943
698.966	0.0156391
699.044	0.0156653
699.122	0.0156658
699.200	0.0158579
699.279	0.0160503
699.357	0.0162298
699.435	0.0164553
699.513	0.0164215
699.591	0.0168242
699.669	0.0168609
699.747	0.0169695
699.825	0.0170882
699.904	0.0170513
699.982	0.0170973
700.060	0.0168513
700.138	0.0168071
700.216	0.0167221
700.294	0.0165251
700.372	0.0165026
700.450	0.0164483
700.529	0.0162489
700.607	0.0162486
700.685	0.0161420
700.763	0.0160463
700.841	0.0160781
700.919	0.0162102
700.997	0.0160259
701.075	0.0163006
701.154	0.0163005
701.232	0.0162801
701.310	0.0164734
701.388	0.0165546
701.466	0.0165167
701.544	0.0166220
701.622	0.0167113
701.700	0.0167693
701.779	0.0167806
701.857	0.0168118
701.935	0.0169413
702.013	0.0168235
702.091	0.0166106
702.169	0.0166283
702.247	0.0165479
702.325	0.0164308
702.404	0.0162354
702.482	0.0160114
702.560	0.0160109
702.638	0.0159562
702.716	0.0157755
702.794	0.0158748
702.872	0.0159185
702.950	0.0157958
703.029	0.0157048
703.107	0.0156769
703.185	0.0158528
703.263	0.0157563
703.341	0.0156036
703.419	0.0156528
703.497	0.0157761
703.575	0.0156690
703.654	0.0156905
703.732	0.0158570
703.810	0.0160082
703.888	0.0163074
703.966	0.0162244
704.044	0.0168778
704.122	0.0170585
704.200	0.0174062
704.279	0.0177435
704.357	0.0181723
704.435	0.0186983
704.513	0.0190456
704.591	0.0191618
704.669	0.0195432
704.747	0.0198679
704.825	0.0199830
704.904	0.0198876
704.982	0.0199540
705.060	0.0198498
705.138	0.0198660
705.216	0.0196210
705.294	0.0192976
705.372	0.0189223
705.450	0.0187020
705.529	0.0183855
705.607	0.0179658
705.685	0.0174522
705.763	0.0172507
705.841	0.0169123
705.919	0.0165127
705.997	0.0161977
706.075	0.0156628
706.154	0.0155019
706.232	0.0153009
706.310	0.0149682
706.388	0.0147618
706.466	0.0144470
706.544	0.0144867
706.622	0.0144488
706.700	0.0143356
706.779	0.0145007
706.857	0.0144586
706.935	0.0146024
707.013	0.0147876
707.091	0.0149493
707.169	0.0150386
707.247	0.0154359
707.325	0.0155266
707.404	0.0157227
707.482	0.0159243
707.560	0.0160386
707.638	0.0162372
707.716	0.0163980
707.794	0.0164137
707.872	0.0164459
707.950	0.0164574
708.029	0.0164413
708.107	0.0162559
708.185	0.0161653
708.263	0.0162240
708.341	0.0160461
708.419	0.0159846
708.497	0.0161321
708.575	0.0159512
708.654	0.0160180
708.732	0.0159570
708.810	0.0160138
708.888	0.0160583
708.966	0.0162541
709.044	0.0163684
709.122	0.0166122
709.200	0.0167010
709.279	0.0168320
709.357	0.0170301
709.435	0.0171816
709.513	0.0171725
709.591	0.0172147
709.669	0.0170428
709.747	0.0170919
709.825	0.0170821
709.904	0.0170586
709.982	0.0169522
710.060	0.0169108
710.138	0.0168782
710.216	0.0169405
710.294	0.0167923
710.372	0.0166721
710.450	0.0166055
710.529	0.0165421
710.607	0.0165641
710.685	0.0164857
710.763	0.0165332
710.841	0.0164148
710.919	0.0165893
710.997	0.0166048
711.075	0.0168246
711.154	0.0170457
711.232	0.0172334
711.310	0.0175336
711.388	0.0176608
711.466	0.0181110
711.544	0.0183978
711.622	0.0186088
711.700	0.0186875
711.779	0.0189521
711.857	0.0189544
711.935	0.0189922
712.013	0.0190642
712.091	0.0191322
712.169	0.0189252
712.247	0.0188335
712.325	0.0187376
712.404	0.0185100
712.482	0.0181310
712.560	0.0180753
712.638	0.0179230
712.716	0.0176859
712.794	0.0173115
712.872	0.0170353
712.950	0.0167789
713.029	0.0164884
713.107	0.0160482
713.185	0.0156136
713.263	0.0153310
713.341	0.0151149
713.419	0.0146896
713.497	0.0142166
713.575	0.0140264
713.654	0.0139150
713.732	0.0136292
713.810	0.0133408
713.888	0.0132536
713.966	0.0133463
714.044	0.0132852
714.122	0.0135970
714.200	0.0136473
714.279	0.0141242
714.357	0.0145356
714.435	0.0147282
714.513	0.0151937
714.591	0.0155303
714.669	0.0160618
714.747	0.0164119
714.825	0.0169032
714.904	0.0173749
714.982	0.0176907
715.060	0.0179749
715.138	0.0184642
715.216	0.0185733
715.294	0.0187303
715.372	0.0187766
715.450	0.0188804
715.529	0.0188898
715.607	0.0189086
715.685	0.0187928
715.763	0.0185318
715.841	0.0183122
715.919	0.0183453
715.997	0.0180177
716.075	0.0177971
716.154	0.0176821
716.232	0.0174886
716.310	0.0172091
716.388	0.0169052
716.466	0.0165257
716.544	0.0162640
716.622	0.0158608
716.700	0.0156493
716.779	0.0153485
716.857	0.0150840
716.935	0.0148474
717.013	0.0147118
717.091	0.0145629
717.169	0.0143701
717.247	0.0143935
717.325	0.0142809
717.404	0.0143149
717.482	0.0145659
717.560	0.0144805
717.638	0.0145578
717.716	0.0148055
717.794	0.0150241
717.872	0.0150174
717.950	0.0153813
718.029	0.0154539
718.107	0.0158083
718.185	0.0159450
718.263	0.0163455
718.341	0.0166444
718.419	0.0170562
718.497	0.0174164
718.575	0.0177107
718.654	0.0179506
718.732	0.0182175
718.810	0.0185049
718.888	0.0187903
718.966	0.0190910
719.044	0.0193636
719.122	0.0194936
719.200	0.0195069
719.279	0.0198745
719.357	0.0199522
719.435	0.0200124
719.513	0.0199205
719.591	0.0199441
719.669	0.0197184
719.747	0.0197285
719.825	0.0195128
719.904	0.0193675
719.982	0.0190929
720.060	0.0188615
720.138	0.0184847
720.216	0.0179551
720.294	0.0176106
720.372	0.0172262
720.450	0.0167101
720.529	0.0160419
720.607	0.0156776
720.685	0.0152016
720.763	0.0148097
720.841	0.0144370
720.919	0.0142187
720.997	0.0137272
721.075	0.0135608
721.154	0.0133498
721.232	0.0132202
721.310	0.0132211
721.388	0.0134175
721.466	0.0134922
721.544	0.0136826
721.622	0.0140930
721.700	0.0144068
721.779	0.0146140
721.857	0.0151746
721.935	0.0156775
722.013	0.0161281
722.091	0.0164368
722.169	0.0167760
722.247	0.0172348
722.325	0.0175455
722.404	0.0178139
722.482	0.0180899
722.560	0.0182911
722.638	0.0183125
722.716	0.0185103
722.794	0.0184106
722.872	0.0182566
722.950	0.0184840
723.029	0.0181644
723.107	0.0179919
723.185	0.0177158
723.263	0.0174148
723.341	0.0168910
723.419	0.0168672
723.497	0.0163612
723.575	0.0159961
723.654	0.0155744
723.732	0.0150595
723.810	0.0148820
723.888	0.0145365
723.966	0.0143832
724.044	0.0142635
724.122	0.0139850
724.200	0.0138605
724.279	0.0137845
724.357	0.0138934
724.435	0.0138551
724.513	0.0140229
724.591	0.0141699
724.669	0.0142316
724.747	0.0143543
724.825	0.0146983
724.904	0.0149040
724.982	0.0152685
725.060	0.0157246
725.138	0.0160237
725.216	0.0165533
725.294	0.0169221
725.372	0.0172900
725.450	0.0176304
725.529	0.0181181
725.607	0.0184206
725.685	0.0187825
725.763	0.0190965
725.841	0.0194467
725.919	0.0196970
725.997	0.0199352
726.075	0.0199880
726.154	0.0203606
726.232	0.0205249
726.310	0.0207419
726.388	0.0207333
726.466	0.0207000
726.544	0.0205721
726.622	0.0204777
726.700	0.0200591
726.779	0.0198446
726.857	0.0194802
726.935	0.0190798
727.013	0.0185735
727.091	0.0183060
727.169	0.0175758
727.247	0.0171961
727.325	0.0166230
727.404	0.0160373
727.482	0.0158138
727.560	0.0153729
727.638	0.0148495
727.716	0.0146158
727.794	0.0144533
727.872	0.0143156
727.950	0.0141542
728.029	0.0140748
728.107	0.0141033
728.185	0.0141660
728.263	0.0144696
728.341	0.0147476
728.419	0.0146951
728.497	0.0149716
728.575	0.0151957
728.654	0.0156403
728.732	0.0159302
728.810	0.0159518
728.888	0.0161360
728.966	0.0162846
729.044	0.0162730
729.122	0.0163393
729.200	0.0164204
729.279	0.0164333
729.357	0.0165253
729.435	0.0165307
729.513	0.0164408
729.591	0.0163016
729.669	0.0163891
729.747	0.0163802
729.825	0.0161130
729.904	0.0160741
729.982	0.0160784
730.060	0.0159978
730.138	0.0161824
730.216	0.0162096
730.294	0.0159827
730.372	0.0158889
730.450	0.0160278
730.529	0.0159435
730.607	0.0156103
730.685	0.0155430
730.763	0.0154895
730.841	0.0154616
730.919	0.0152017
730.997	0.0150738
731.075	0.0149397
731.154	0.0147430
731.232	0.0146432
731.310	0.0146199
731.388	0.0147216
731.466	0.0147887
731.544	0.0149741
731.622	0.0152208
731.700	0.0153426
731.779	0.0156529
731.857	0.0159171
731.935	0.0161976
732.013	0.0164884
732.091	0.0169489
732.169	0.0171654
732.247	0.0174515
732.325	0.0179207
732.404	0.0183438
732.482	0.0187314
732.560	0.0190851
732.638	0.0192519
732.716	0.0195646
732.794	0.0198744
732.872	0.0201249
732.950	0.0204121
733.029	0.0205684
733.107	0.0205618
733.185	0.0204350
733.263	0.0203829
733.341	0.0204246
733.419	0.0202793
733.497	0.0200659
733.575	0.0196909
733.654	0.0193798
733.732	0.0188710
733.810	0.0183732
733.888	0.0180973
733.966	0.0176952
734.044	0.0173531
734.122	0.0170097
734.200	0.0166696
734.279	0.0161458
734.357	0.0161331
734.435	0.0158387
734.513	0.0156007
734.591	0.0156079
734.669	0.0154491
734.747	0.0152195
734.825	0.0153090
734.904	0.0152477
734.982	0.0153667
735.060	0.0154240
735.138	0.0153249
735.216	0.0153615
735.294	0.0153805
735.372	0.0153797
735.450	0.0155640
735.529	0.0156733
735.607	0.0157239
735.685	0.0158964
735.763	0.0156566
735.841	0.0157586
735.919	0.0157792
735.997	0.0159821
736.075	0.0157677
736.154	0.0158730
736.232	0.0158069
736.310	0.0158799
736.388	0.0159306
736.466	0.0158358
736.544	0.0160356
736.622	0.0160210
736.700	0.0158997
736.779	0.0160538
736.857	0.0161343
736.935	0.0158834
737.013	0.0161089
737.091	0.0160965
737.169	0.0160510
737.247	0.0161652
737.325	0.0160743
737.404	0.0159965
737.482	0.0158527
737.560	0.0158262
737.638	0.0155803
737.716	0.0154719
737.794	0.0154475
737.872	0.0152248
737.950	0.0152659
738.029	0.0151971
738.107	0.0150878
738.185	0.0152282
738.263	0.0152382
738.341	0.0153880
738.419	0.0153934
738.497	0.0156694
738.575	0.0158957
738.654	0.0160588
738.732	0.0163761
738.810	0.0167176
738.888	0.0170328
738.966	0.0173357
739.044	0.0175761
739.122	0.0178004
739.200	0.0182523
739.279	0.0184299
739.357	0.0186869
739.435	0.0189889
739.513	0.0191592
739.591	0.0193351
739.669	0.0192760
739.747	0.0194763
739.825	0.0193555
739.904	0.0194653
739.982	0.0193141
740.060	0.0193185
740.138	0.0191448
740.216	0.0189739
740.294	0.0186133
740.372	0.0185273
740.450	0.0183334
740.529	0.0180890
740.607	0.0178819
740.685	0.0177257
740.763	0.0174797
740.841	0.0170831
740.919	0.0169044
740.997	0.0168103
741.075	0.0166380
741.154	0.0165683
741.232	0.0163561
741.310	0.0163840
741.388	0.0164314
741.466	0.0162162
741.544	0.0162109
741.622	0.0162033
741.700	0.0161314
741.779	0.0161597
741.857	0.0159142
741.935	0.0158346
742.013	0.0158391
742.091	0.0158824
742.169	0.0156976
742.247	0.0156441
742.325	0.0155700
742.404	0.0156285
742.482	0.0156605
742.560	0.0155254
742.638	0.0154763
742.716	0.0155638
742.794	0.0155894
742.872	0.0156425
742.950	0.0156486
743.029	0.0156870
743.107	0.0158052
743.185	0.0158700
743.263	0.0160718
743.341	0.0161980
743.419	0.0162637
743.497	0.0162444
743.575	0.0163361
743.654	0.0164723
743.732	0.0164986
743.810	0.0165758
743.888	0.0165007
743.966	0.0164239
744.044	0.0162895
744.122	0.0161389
744.200	0.0162682
744.279	0.0162206
744.357	0.0159226
744.435	0.0158398
744.513	0.0159154
744.591	0.0157018
744.669	0.0157592
744.747	0.0156557
744.825	0.0156315
744.904	0.0155449
744.982	0.0155956
745.060	0.0155341
745.138	0.0156367
745.216	0.0156359
745.294	0.0157610
745.372	0.0160400
745.450	0.0161076
745.529	0.0161610
745.607	0.0164803
745.685	0.0165744
745.763	0.0167307
745.841	0.0170352
745.919	0.0172471
745.997	0.0173338
746.075	0.0174678
746.154	0.0174997
746.232	0.0175810
746.310	0.0176740
746.388	0.0176932
746.466	0.0176845
746.544	0.0178123
746.622	0.0177238
746.700	0.0175546
746.779	0.0176372
746.857	0.0175512
746.935	0.0173556
747.013	0.0174444
747.091	0.0174426
747.169	0.0174918
747.247	0.0172186
747.325	0.0174210
747.404	0.0175216
747.482	0.0175327
747.560	0.0175284
747.638	0.0176227
747.716	0.0176620
747.794	0.0177979
747.872	0.0175648
747.950	0.0175751
748.029	0.0175568
748.107	0.0174590
748.185	0.0173470
748.263	0.0172823
748.341	0.0170446
748.419	0.0169112
748.497	0.0168057
748.575	0.0166547
748.654	0.0164646
748.732	0.0163023
748.810	0.0162917
748.888	0.0161585
748.966	0.0160825
749.044	0.0160258
749.122	0.0159145
749.200	0.0158881
749.279	0.0157542
749.357	0.0159086
749.435	0.0158909
749.513	0.0158821
749.591	0.0159269
749.669	0.0159974
749.747	0.0161092
749.825	0.0163216
749.904	0.0162739
749.982	0.0163231
750.060	0.0162527
750.138	0.0163322
750.216	0.0162978
750.294	0.0164404
750.372	0.0164703
750.450	0.0163809
750.529	0.0162526
750.607	0.0163005
750.685	0.0162810
750.763	0.0163649
750.841	0.0162890
750.919	0.0161141
750.997	0.0162918
751.075	0.0160844
751.154	0.0161150
751.232	0.0162255
751.310	0.0163042
751.388	0.0161538
751.466	0.0162003
751.544	0.0162600
751.622	0.0163175
751.700	0.0162016
751.779	0.0164667
751.857	0.0165322
751.935	0.0165748
752.013	0.0167490
752.091	0.0168743
752.169	0.0167493
752.247	0.0169048
752.325	0.0169461
752.404	0.0169075
752.482	0.0170500
752.560	0.0168008
752.638	0.0166809
752.716	0.0167325
752.794	0.0168224
752.872	0.0166135
752.950	0.0165408
753.029	0.0165329
753.107	0.0164005
753.185	0.0163911
753.263	0.0163848
753.341	0.0162543
753.419	0.0162864
753.497	0.0163799
753.575	0.0165108
753.654	0.0165271
753.732	0.0164972
753.810	0.0166748
753.888	0.0167566
753.966	0.0169614
754.044	0.0169317
754.122	0.0170948
754.200	0.0170969
754.279	0.0172671
754.357	0.0173417
754.435	0.0173342
754.513	0.0173088
754.591	0.0173351
754.669	0.0173851
754.747	0.0174017
754.825	0.0173943
754.904	0.0173518
754.982	0.0173582
755.060	0.0171952
755.138	0.0172995
755.216	0.0172371
755.294	0.0171010
755.372	0.0172252
755.450	0.0170269
755.529	0.0170902
755.607	0.0169727
755.685	0.0169043
755.763	0.0170454
755.841	0.0170415
755.919	0.0168475
755.997	0.0168530
756.075	0.0169160
756.154	0.0168462
756.232	0.0167855
756.310	0.0169063
756.388	0.0168875
756.466	0.0167858
756.544	0.0168590
756.622	0.0169558
756.700	0.0167458
756.779	0.0165852
756.857	0.0165118
756.935	0.0164767
757.013	0.0163918
757.091	0.0163317
757.169	0.0161743
757.247	0.0162711
757.325	0.0162450
757.404	0.0161254
757.482	0.0159344
757.560	0.0160170
757.638	0.0160390
757.716	0.0162106
757.794	0.0160422
757.872	0.0162032
757.950	0.0161615
758.029	0.0162790
758.107	0.0163624
758.185	0.0165290
758.263	0.0166392
758.341	0.0167719
758.419	0.0167014
758.497	0.0170483
758.575	0.0170631
758.654	0.0170084
758.732	0.0171114
758.810	0.0171440
758.888	0.0171730
758.966	0.0170173
759.044	0.0169841
759.122	0.0169070
759.200	0.0167792
759.279	0.0167328
759.357	0.0168330
759.435	0.0166559
759.513	0.0165238
759.591	0.0163611
759.669	0.0163279
759.747	0.0162925
759.825	0.0163259
759.904	0.0163441
759.982	0.0165257
760.060	0.0164283
760.138	0.0163998
760.216	0.0167725
760.294	0.0165258
760.372	0.0167476
760.450	0.0168170
760.529	0.0168486
760.607	0.0168742
760.685	0.0168913
760.763	0.0168826
760.841	0.0167978
760.919	0.0167966
760.997	0.0165957
761.075	0.0166348
761.154	0.0166013
761.232	0.0164428
761.310	0.0164106
761.388	0.0162274
761.466	0.0161275
761.544	0.0159389
761.622	0.0160146
761.700	0.0160821
761.779	0.0159847
761.857	0.0158943
761.935	0.0160845
762.013	0.0162385
762.091	0.0160566
762.169	0.0162677
762.247	0.0165424
762.325	0.0166081
762.404	0.0167702
762.482	0.0170199
762.560	0.0170358
762.638	0.0172400
762.716	0.0173300
762.794	0.0175009
762.872	0.0175582
762.950	0.0176144
763.029	0.0176363
763.107	0.0177868
763.185	0.0177268
763.263	0.0177266
763.341	0.0175229
763.419	0.0172616
763.497	0.0172232
763.575	0.0172158
763.654	0.0170874
763.732	0.0169383
763.810	0.0167473
763.888	0.0166623
763.966	0.0165865
764.044	0.0164241
764.122	0.0164767
764.200	0.0163383
764.279	0.0161965
764.357	0.0162499
764.435	0.0163049
764.513	0.0163955
764.591	0.0162785
764.669	0.0163479
764.747	0.0163509
764.825	0.0165030
764.904	0.0165024
764.982	0.0166634
765.060	0.0165076
765.138	0.0167174
765.216	0.0166892
765.294	0.0168325
765.372	0.0168594
765.450	0.0167290
765.529	0.0167875
765.607	0.0165406
765.685	0.0165902
765.763	0.0164511
765.841	0.0163271
765.919	0.0164341
765.997	0.0162946
766.075	0.0162991
766.154	0.0161632
766.232	0.0161382
766.310	0.0161806
766.388	0.0161949
766.466	0.0162259
766.544	0.0162662
766.622	0.0162828
766.700	0.0163957
766.779	0.0164288
766.857	0.0166151
766.935	0.0166714
767.013	0.0167493
767.091	0.0168200
767.169	0.0169321
767.247	0.0169510
767.325	0.0168649
767.404	0.0169631
767.482	0.0169243
767.560	0.0168178
767.638	0.0168759
767.716	0.0166801
767.794	0.0167233
767.872	0.0166677
767.950	0.0165311
768.029	0.0165227
768.107	0.0164278
768.185	0.0163001
768.263	0.0162143
768.341	0.0161143
768.419	0.0163203
768.497	0.0161357
768.575	0.0159411
768.654	0.0160856
768.732	0.0162121
768.810	0.0162452
768.888	0.0161998
768.966	0.0163018
769.044	0.0164103
769.122	0.0164895
769.200	0.0166502
769.279	0.0166714
769.357	0.0167372
769.435	0.0168228
769.513	0.0169291
769.591	0.0168670
769.669	0.0169267
769.747	0.0170284
769.825	0.0170703
769.904	0.0169990
769.982	0.0168970
770.060	0.0168581
770.138	0.0169780
770.216	0.0169053
770.294	0.0169253
770.372	0.0168198
770.450	0.0169779
770.529	0.0166180
770.607	0.0168507
770.685	0.0168948
770.763	0.0168484
770.841	0.0169678
770.919	0.0168066
770.997	0.0169179
771.075	0.0169221
771.154	0.0170851
771.232	0.0170715
771.310	0.0170999
771.388	0.0173037
771.466	0.0173969
771.544	0.0172101
771.622	0.0172227
771.700	0.0171357
771.779	0.0170840
771.857	0.0169891
771.935	0.0170660
772.013	0.0169733
772.091	0.0169190
772.169	0.0165804
772.247	0.0166024
772.325	0.0165285
772.404	0.0164444
772.482	0.0163432
772.560	0.0163511
772.638	0.0163776
772.716	0.0161429
772.794	0.0161958
772.872	0.0162301
772.950	0.0163854
773.029	0.0162958
773.107	0.0162565
773.185	0.0164615
773.263	0.0165534
773.341	0.0164616
773.419	0.0167749
773.497	0.0169286
773.575	0.0167864
773.654	0.0168733
773.732	0.0168631
773.810	0.0168481
773.888	0.0167924
773.966	0.0166119
774.044	0.0166954
774.122	0.0167382
774.200	0.0166410
774.279	0.0164665
774.357	0.0165212
774.435	0.0162186
774.513	0.0162166
774.591	0.0161021
774.669	0.0161401
774.747	0.0160854
774.825	0.0161448
774.904	0.0160960
774.982	0.0161915
775.060	0.0161790
775.138	0.0162432
775.216	0.0163972
775.294	0.0163792
775.372	0.0163907
775.450	0.0163780
775.529	0.0165345
775.607	0.0166369
775.685	0.0167079
775.763	0.0168059
775.841	0.0169702
775.919	0.0168066
775.997	0.0170564
776.075	0.0169229
776.154	0.0169937
776.232	0.0170461
776.310	0.0171143
776.388	0.0169597
776.466	0.0169777
776.544	0.0169218
776.622	0.0167825
776.700	0.0167846
776.779	0.0168085
776.857	0.0165121
776.935	0.0165263
777.013	0.0164728
777.091	0.0162273
777.169	0.0165662
777.247	0.0165300
777.325	0.0163063
777.404	0.0164577
777.482	0.0164060
777.560	0.0165830
777.638	0.0165813
777.716	0.0166586
777.794	0.0166264
777.872	0.0167547
777.950	0.0168547
778.029	0.0169215
778.107	0.0169804
778.185	0.0169478
778.263	0.0169324
778.341	0.0170383
778.419	0.0170924
778.497	0.0168674
778.575	0.0169100
778.654	0.0169276
778.732	0.0169689
778.810	0.0167986
778.888	0.0167463
778.966	0.0168284
779.044	0.0166931
779.122	0.0165403
779.200	0.0166521
779.279	0.0167020
779.357	0.0165162
779.435	0.0165541
779.513	0.0165558
779.591	0.0164315
779.669	0.0165083
779.747	0.0165544
779.825	0.0165459
779.904	0.0166562
779.982	0.0165785
780.060	0.0166850
780.138	0.0165627
780.216	0.0166658
780.294	0.0169253
780.372	0.0168854
780.450	0.0168557
780.529	0.0167622
780.607	0.0169406
780.685	0.0168972
780.763	0.0169229
780.841	0.0167960
780.919	0.0168272
780.997	0.0167691
781.075	0.0167321
781.154	0.0166995
781.232	0.0167206
781.310	0.0167338
781.388	0.0164230
781.466	0.0166841
781.544	0.0164001
781.622	0.0163982
781.700	0.0163137
781.779	0.0164560
781.857	0.0163955
781.935	0.0163393
782.013	0.0163680
782.091	0.0165000
782.169	0.0163739
782.247	0.0163712
782.325	0.0163765
782.404	0.0163805
782.482	0.0164790
782.560	0.0165169
782.638	0.0166277
782.716	0.0167841
782.794	0.0166286
782.872	0.0167968
782.950	0.0168289
783.029	0.0167037
783.107	0.0168750
783.185	0.0168391
783.263	0.0169318
783.341	0.0168516
783.419	0.0167485
783.497	0.0167628
783.575	0.0166881
783.654	0.0166523
783.732	0.0166687
783.810	0.0166426
783.888	0.0166746
783.966	0.0168388
784.044	0.0165784
784.122	0.0166276
784.200	0.0164653
784.279	0.0166686
784.357	0.0164834
784.435	0.0164915
784.513	0.0165450
784.591	0.0165871
784.669	0.0164896
784.747	0.0165298
784.825	0.0165758
784.904	0.0164436
784.982	0.0165131
785.060	0.0163414
785.138	0.0164844
785.216	0.0166049
785.294	0.0165077
785.372	0.0164874
785.450	0.0165885
785.529	0.0166322
785.607	0.0167068
785.685	0.0165926
785.763	0.0166403
785.841	0.0167184
785.919	0.0167108
785.997	0.0166997
786.075	0.0169327
786.154	0.0168591
786.232	0.0166989
786.310	0.0166229
786.388	0.0168342
786.466	0.0168522
786.544	0.0169227
786.622	0.0168366
786.700	0.0167981
786.779	0.0166785
786.857	0.0166701
786.935	0.0167969
787.013	0.0167940
787.091	0.0167596
787.169	0.0167926
787.247	0.0167677
787.325	0.0167681
787.404	0.0166561
787.482	0.0165244
787.560	0.0167188
787.638	0.0166218
787.716	0.0165620
787.794	0.0166062
787.872	0.0164635
787.950	0.0165196
788.029	0.0165078
788.107	0.0165133
788.185	0.0164468
788.263	0.0165033
788.341	0.0164999
788.419	0.0166486
788.497	0.0166184
788.575	0.0167733
788.654	0.0167034
788.732	0.0168597
788.810	0.0167240
788.888	0.0167384
788.966	0.0169052
789.044	0.0167885
789.122	0.0166445
789.200	0.0167994
789.279	0.0168591
789.357	0.0168446
789.435	0.0168895
789.513	0.0167107
789.591	0.0167854
789.669	0.0167599
789.747	0.0166280
789.825	0.0167010
789.904	0.0165926
789.982	0.0165146
790.060	0.0167621
790.138	0.0166073
790.216	0.0165018
790.294	0.0165761
790.372	0.0165139
790.450	0.0165014
790.529	0.0164791
790.607	0.0166327
790.685	0.0165722
790.763	0.0165819
790.841	0.0164536
790.919	0.0163523
790.997	0.0165392
791.075	0.0164575
791.154	0.0163014
791.232	0.0164919
791.310	0.0164050
791.388	0.0163287
791.466	0.0163660
791.544	0.0163113
791.622	0.0160999
791.700	0.0162589
791.779	0.0162975
791.857	0.0164029
791.935	0.0163046
792.013	0.0161642
792.091	0.0163570
792.169	0.0164991
792.247	0.0163895
792.325	0.0164189
792.404	0.0163123
792.482	0.0163297
792.560	0.0162186
792.638	0.0161748
792.716	0.0164376
792.794	0.0163744
792.872	0.0163887
792.950	0.0162079
793.029	0.0163346
793.107	0.0164157
793.185	0.0165243
793.263	0.0165159
793.341	0.0165733
793.419	0.0165076
793.497	0.0167722
793.575	0.0167410
793.654	0.0167749
793.732	0.0169496
793.810	0.0168797
793.888	0.0169321
793.966	0.0169380
794.044	0.0168300
794.122	0.0168407
794.200	0.0171351
794.279	0.0170473
794.357	0.0170731
794.435	0.0170132
794.513	0.0168835
794.591	0.0169066
794.669	0.0169544
794.747	0.0169208
794.825	0.0168407
794.904	0.0168104
794.982	0.0168598
795.060	0.0166437
795.138	0.0166619
795.216	0.0166759
795.294	0.0165550
795.372	0.0165081
795.450	0.0165594
795.529	0.0165845
795.607	0.0164742
795.685	0.0166277
795.763	0.0165960
795.841	0.0164861
795.919	0.0166001
795.997	0.0164324
796.075	0.0165636
796.154	0.0166225
796.232	0.0165587
796.310	0.0166019
796.388	0.0165687
796.466	0.0167097
796.544	0.0165775
796.622	0.0165886
796.700	0.0165424
796.779	0.0167330
796.857	0.0166345
796.935	0.0166176
797.013	0.0167369
797.091	0.0165499
797.169	0.0165292
797.247	0.0166200
797.325	0.0165800
797.404	0.0166402
797.482	0.0166711
797.560	0.0167690
797.638	0.0167879
797.716	0.0166379
797.794	0.0167007
797.872	0.0167471
797.950	0.0167713
798.029	0.0168939
798.107	0.0167442
798.185	0.0166903
798.263	0.0166254
798.341	0.0166649
798.419	0.0166232
798.497	0.0165691
798.575	0.0167164
798.654	0.0166784
798.732	0.0168293
798.810	0.0165794
798.888	0.0167622
798.966	0.0167050
799.044	0.0167171
799.122	0.0166586
799.200	0.0167059
799.279	0.0168002
799.357	0.0167629
799.435	0.0167155
799.513	0.0166508
799.591	0.0165345
799.669	0.0164638
799.747	0.0165432
799.825	0.0165438
799.904	0.0164206
799.982	0.0165359
800.060	0.0164630
800.138	0.0164505
800.216	0.0164658
800.294	0.0164790
800.372	0.0165015
800.450	0.0166755
800.529	0.0166982
800.607	0.0167200
800.685	0.0167484
800.763	0.0168579
800.841	0.0168844
800.919	0.0169924
800.997	0.0169704
801.075	0.0171011
801.154	0.0170557
801.232	0.0171222
801.310	0.0171790
801.388	0.0171513
801.466	0.0171855
801.544	0.0172646
801.622	0.0169547
801.700	0.0172156
801.779	0.0168828
801.857	0.0169814
801.935	0.0169743
802.013	0.0170201
802.091	0.0167150
802.169	0.0168303
802.247	0.0168925
802.325	0.0167865
802.404	0.0166415
802.482	0.0167471
802.560	0.0166615
802.638	0.0167167
802.716	0.0166611
802.794	0.0166482
802.872	0.0167236
802.950	0.0165916
803.029	0.0164851
803.107	0.0166116
803.185	0.0165762
803.263	0.0165150
803.341	0.0164316
803.419	0.0165186
803.497	0.0164971
803.575	0.0165704
803.654	0.0166797
803.732	0.0164594
803.810	0.0165412
803.888	0.0165778
803.966	0.0165548
804.044	0.0166395
804.122	0.0165889
804.200	0.0166257
804.279	0.0164774
804.357	0.0164344
804.435	0.0165548
804.513	0.0165235
804.591	0.0165255
804.669	0.0165672
804.747	0.0166065
804.825	0.0167150
804.904	0.0166853
804.982	0.0167204
805.060	0.0167332
805.138	0.0167437
805.216	0.0166358
805.294	0.0168771
805.372	0.0168152
805.450	0.0167421
805.529	0.0168511
805.607	0.0168946
805.685	0.0168331
805.763	0.0167810
805.841	0.0168390
805.919	0.0168797
805.997	0.0168922
806.075	0.0167435
806.154	0.0166799
806.232	0.0167406
806.310	0.0167400
806.388	0.0166200
806.466	0.0165913
806.544	0.0165382
806.622	0.0166928
806.700	0.0166489
806.779	0.0165974
806.857	0.0165900
806.935	0.0165731
807.013	0.0165478
807.091	0.0164893
807.169	0.0165952
807.247	0.0165202
807.325	0.0166122
807.404	0.0164661
807.482	0.0165430
807.560	0.0166950
807.638	0.0166080
807.716	0.0165310
807.794	0.0166771
807.872	0.0167245
807.950	0.0165562
808.029	0.0167480
808.107	0.0168154
808.185	0.0167166
808.263	0.0169114
808.341	0.0167407
808.419	0.0166707
808.497	0.0165487
808.575	0.0166388
808.654	0.0165948
808.732	0.0165395
808.810	0.0164870
808.888	0.0166080
808.966	0.0167113
809.044	0.0165620
809.122	0.0165687
809.200	0.0165568
809.279	0.0167525
809.357	0.0166507
809.435	0.0165340
809.513	0.0165856
809.591	0.0168533
809.669	0.0166470
809.747	0.0165851
809.825	0.0166508
809.904	0.0168013
809.982	0.0167167
810.060	0.0167280
810.138	0.0166532
810.216	0.0165582
810.294	0.0163959
810.372	0.0165371
810.450	0.0165994
810.529	0.0165139
810.607	0.0164660
810.685	0.0165924
810.763	0.0165356
810.841	0.0164725
810.919	0.0166085
810.997	0.0164642
811.075	0.0165730
811.154	0.0165771
811.232	0.0165367
811.310	0.0167559
811.388	0.0167162
811.466	0.0168069
811.544	0.0168440
811.622	0.0169110
811.700	0.0169389
811.779	0.0168849
811.857	0.0169427
811.935	0.0170222
812.013	0.0170633
812.091	0.0169410
812.169	0.0169911
812.247	0.0169270
812.325	0.0168416
812.404	0.0169378
812.482	0.0167091
812.560	0.0168445
812.638	0.0167324
812.716	0.0167352
812.794	0.0167122
812.872	0.0166870
812.950	0.0166589
813.029	0.0164907
813.107	0.0165907
813.185	0.0164761
813.263	0.0164799
813.341	0.0164772
813.419	0.0164066
813.497	0.0164680
813.575	0.0163280
813.654	0.0162642
813.732	0.0161694
813.810	0.0164043
813.888	0.0163591
813.966	0.0162644
814.044	0.0163903
814.122	0.0164753
814.200	0.0165882
814.279	0.0164801
814.357	0.0165152
814.435	0.0164661
814.513	0.0166006
814.591	0.0167932
814.669	0.0167239
814.747	0.0167462
814.825	0.0167927
814.904	0.0167407
814.982	0.0169529
815.060	0.0168291
815.138	0.0168376
815.216	0.0167075
815.294	0.0168178
815.372	0.0167957
815.450	0.0167471
815.529	0.0168170
815.607	0.0168530
815.685	0.0167410
815.763	0.0167574
815.841	0.0167033
815.919	0.0167089
815.997	0.0166650
816.075	0.0165781
816.154	0.0165623
816.232	0.0165741
816.310	0.0165462
816.388	0.0166805
816.466	0.0165582
816.544	0.0165318
816.622	0.0165805
816.700	0.0166259
816.779	0.0167303
816.857	0.0165804
816.935	0.0164655
817.013	0.0165379
817.091	0.0165574
817.169	0.0163974
817.247	0.0164700
817.325	0.0164331
817.404	0.0162861
817.482	0.0163957
817.560	0.0163448
817.638	0.0162223
817.716	0.0162264
817.794	0.0164152
817.872	0.0163608
817.950	0.0163776
818.029	0.0162868
818.107	0.0164921
818.185	0.0164957
818.263	0.0165347
818.341	0.0165644
818.419	0.0166725
818.497	0.0167184
818.575	0.0168732
818.654	0.0168508
818.732	0.0168227
818.810	0.0168073
818.888	0.0169204
818.966	0.0171462
819.044	0.0169991
819.122	0.0167975
819.200	0.0170065
819.279	0.0168413
819.357	0.0169048
819.435	0.0169129
819.513	0.0169128
819.591	0.0167989
819.669	0.0167200
819.747	0.0166957
819.825	0.0165809
819.904	0.0164554
819.982	0.0164233
820.060	0.0164185
820.138	0.0164012
820.216	0.0162688
820.294	0.0162446
820.372	0.0163486
820.450	0.0164880
820.529	0.0164964
820.607	0.0164861
820.685	0.0163548
820.763	0.0164366
820.841	0.0165086
820.919	0.0166599
820.997	0.0166505
821.075	0.0165659
821.154	0.0165977
821.232	0.0167479
821.310	0.0168028
821.388	0.0168353
821.466	0.0166979
821.544	0.0167884
821.622	0.0167677
821.700	0.0167778
821.779	0.0168071
821.857	0.0167532
821.935	0.0168983
822.013	0.0169222
822.091	0.0169619
822.169	0.0169698
822.247	0.0168822
822.325	0.0169008
822.404	0.0169074
822.482	0.0169959
822.560	0.0169313
822.638	0.0171357
822.716	0.0171396
822.794	0.0170117
822.872	0.0170679
822.950	0.0170226
823.029	0.0169422
823.107	0.0169088
823.185	0.0168651
823.263	0.0168600
823.341	0.0168289
823.419	0.0168172
823.497	0.0169210
823.575	0.0169214
823.654	0.0169062
823.732	0.0168307
823.810	0.0167662
823.888	0.0167585
823.966	0.0166247
824.044	0.0167818
824.122	0.0167786
824.200	0.0165709
824.279	0.0166806
824.357	0.0165425
824.435	0.0164427
824.513	0.0165562
824.591	0.0163979
824.669	0.0162701
824.747	0.0165362
824.825	0.0163840
824.904	0.0164231
824.982	0.0163747
825.060	0.0163853
825.138	0.0165466
825.216	0.0164905
825.294	0.0163750
825.372	0.0165665
825.450	0.0165358
825.529	0.0166004
825.607	0.0167117
825.685	0.0164193
825.763	0.0164889
825.841	0.0164874
825.919	0.0166326
825.997	0.0166113
826.075	0.0165597
826.154	0.0166459
826.232	0.0167133
826.310	0.0165150
826.388	0.0166588
826.466	0.0166162
826.544	0.0167387
826.622	0.0166608
826.700	0.0167480
826.779	0.0167921
826.857	0.0169249
826.935	0.0169115
827.013	0.0169544
827.091	0.0168861
827.169	0.0168729
827.247	0.0169127
827.325	0.0168703
827.404	0.0167356
827.482	0.0166756
827.560	0.0166941
827.638	0.0165853
827.716	0.0168016
827.794	0.0165388
827.872	0.0166236
827.950	0.0164925
828.029	0.0166254
828.107	0.0166245
828.185	0.0166306
828.263	0.0165828
828.341	0.0165826
828.419	0.0166624
828.497	0.0169131
828.575	0.0168149
828.654	0.0168050
828.732	0.0168382
828.810	0.0169075
828.888	0.0168541
828.966	0.0169677
829.044	0.0169088
829.122	0.0168906
829.200	0.0167707
829.279	0.0167841
829.357	0.0168126
829.435	0.0168282
829.513	0.0167770
829.591	0.0168510
829.669	0.0167851
829.747	0.0169364
829.825	0.0168544
829.904	0.0166984
829.982	0.0168367
830.060	0.0169171
830.138	0.0167648
830.216	0.0168414
830.294	0.0167385
830.372	0.0168117
830.450	0.0167618
830.529	0.0168001
830.607	0.0167643
830.685	0.0167726
830.763	0.0166965
830.841	0.0168707
830.919	0.0167413
830.997	0.0167407
831.075	0.0166412
831.154	0.0166387
831.232	0.0165664
831.310	0.0166138
831.388	0.0166920
831.466	0.0165678
831.544	0.0165069
831.622	0.0163835
831.700	0.0163842
831.779	0.0164685
831.857	0.0164888
831.935	0.0163708
832.013	0.0164084
832.091	0.0164441
832.169	0.0164222
832.247	0.0164060
832.325	0.0163143
832.404	0.0164182
832.482	0.0164921
832.560	0.0166052
832.638	0.0163839
832.716	0.0162778
832.794	0.0164491
832.872	0.0165610
832.950	0.0163499
833.029	0.0164085
833.107	0.0165016
833.185	0.0165586
833.263	0.0165092
833.341	0.0166005
833.419	0.0166730
833.497	0.0166137
833.575	0.0167535
833.654	0.0167743
833.732	0.0168537
833.810	0.0167330
833.888	0.0168012
833.966	0.0170140
834.044	0.0169070
834.122	0.0169556
834.200	0.0170419
834.279	0.0170599
834.357	0.0169881
834.435	0.0168546
834.513	0.0170609
834.591	0.0169325
834.669	0.0169498
834.747	0.0167682
834.825	0.0167474
834.904	0.0167513
834.982	0.0166828
835.060	0.0166556
835.138	0.0166466
835.216	0.0166398
835.294	0.0166914
835.372	0.0167944
835.450	0.0169447
835.529	0.0169096
835.607	0.0169232
835.685	0.0170145
835.763	0.0170714
835.841	0.0169698
835.919	0.0168430
835.997	0.0169761
836.075	0.0169956
836.154	0.0169279
836.232	0.0167993
836.310	0.0169489
836.388	0.0168185
836.466	0.0168008
836.544	0.0168818
836.622	0.0169677
836.700	0.0169001
836.779	0.0167202
836.857	0.0169205
836.935	0.0169829
837.013	0.0167968
837.091	0.0168505
837.169	0.0167346
837.247	0.0168794
837.325	0.0169080
837.404	0.0168449
837.482	0.0168557
837.560	0.0168135
837.638	0.0167725
837.716	0.0165614
837.794	0.0164855
837.872	0.0166243
837.950	0.0165995
838.029	0.0165628
838.107	0.0165213
838.185	0.0163292
838.263	0.0164683
838.341	0.0165480
838.419	0.0164989
838.497	0.0164515
838.575	0.0164255
838.654	0.0166289
838.732	0.0165420
838.810	0.0163985
838.888	0.0163477
838.966	0.0165321
839.044	0.0165188
839.122	0.0164539
839.200	0.0164915
839.279	0.0164266
839.357	0.0163280
839.435	0.0163694
839.513	0.0163939
839.591	0.0163634
839.669	0.0163258
839.747	0.0162334
839.825	0.0165022
839.904	0.0164564
839.982	0.0164114
840.060	0.0163100
840.138	0.0162733
840.216	0.0164037
840.294	0.0164612
840.372	0.0164742
840.450	0.0165482
840.529	0.0164582
840.607	0.0164874
840.685	0.0165260
840.763	0.0165157
840.841	0.0165313
840.919	0.0166444
840.997	0.0165821
841.075	0.0165848
841.154	0.0165936
841.232	0.0167912
841.310	0.0167020
841.388	0.0167083
841.466	0.0168105
841.544	0.0167805
841.622	0.0167798
841.700	0.0167614
841.779	0.0168633
841.857	0.0168269
841.935	0.0167647
842.013	0.0168060
842.091	0.0168376
842.169	0.0167524
842.247	0.0167249
842.325	0.0168756
842.404	0.0167652
842.482	0.0167435
842.560	0.0167019
842.638	0.0166737
842.716	0.0166170
842.794	0.0166061
842.872	0.0166669
842.950	0.0166657
843.029	0.0166373
843.107	0.0165308
843.185	0.0165308
843.263	0.0165190
843.341	0.0166865
843.419	0.0166111
843.497	0.0167064
843.575	0.0166946
843.654	0.0165623
843.732	0.0166663
843.810	0.0167487
843.888	0.0167002
843.966	0.0169046
844.044	0.0167519
844.122	0.0167533
844.200	0.0168301
844.279	0.0167943
844.357	0.0167014
844.435	0.0168758
844.513	0.0167592
844.591	0.0166282
844.669	0.0165943
844.747	0.0166552
844.825	0.0165987
844.904	0.0163969
844.982	0.0164169
845.060	0.0165957
845.138	0.0164815
845.216	0.0165221
845.294	0.0164385
845.372	0.0163905
845.450	0.0163471
845.529	0.0164575
845.607	0.0165281
845.685	0.0163803
845.763	0.0164639
845.841	0.0164162
845.919	0.0165052
845.997	0.0164868
846.075	0.0164165
846.154	0.0166492
846.232	0.0164305
846.310	0.0165475
846.388	0.0165285
846.466	0.0165900
846.544	0.0164792
846.622	0.0162671
846.700	0.0164825
846.779	0.0163959
846.857	0.0165231
846.935	0.0164964
847.013	0.0163979
847.091	0.0164500
847.169	0.0165208
847.247	0.0164008
847.325	0.0164825
847.404	0.0164169
847.482	0.0164025
847.560	0.0164370
847.638	0.0164252
847.716	0.0165887
847.794	0.0166627
847.872	0.0165874
847.950	0.0166109
848.029	0.0164536
848.107	0.0166551
848.185	0.0166581
848.263	0.0167159
848.341	0.0167393
848.419	0.0167456
848.497	0.0169581
848.575	0.0168049
848.654	0.0167587
848.732	0.0168187
848.810	0.0168678
848.888	0.0169567
848.966	0.0167074
849.044	0.0168640
849.122	0.0167413
849.200	0.0168072
849.279	0.0168346
849.357	0.0168225
849.435	0.0168633
849.513	0.0166917
849.591	0.0166956
849.669	0.0167319
849.747	0.0167347
849.825	0.0166028
849.904	0.0165726
849.982	0.0166169
850.060	0.0166860
850.138	0.0166854
850.216	0.0165574
850.294	0.0166972
850.372	0.0165980
850.450	0.0167325
850.529	0.0166843
850.607	0.0166637
850.685	0.0166759
850.763	0.0166149
850.841	0.0165421
850.919	0.0165157
850.997	0.0165695
851.075	0.0166013
851.154	0.0167487
851.232	0.0166166
851.310	0.0166733
851.388	0.0166600
851.466	0.0166702
851.544	0.0166069
851.622	0.0167134
851.700	0.0164678
851.779	0.0165769
851.857	0.0166905
851.935	0.0167125
852.013	0.0167841
852.091	0.0167533
852.169	0.0167297
852.247	0.0167415
852.325	0.0166119
852.404	0.0165447
852.482	0.0167889
852.560	0.0167056
852.638	0.0166203
852.716	0.0165603
852.794	0.0166711
852.872	0.0166093
852.950	0.0167009
853.029	0.0168125
853.107	0.0167039
853.185	0.0166837
853.263	0.0165224
853.341	0.0166767
853.419	0.0166291
853.497	0.0166564
853.575	0.0167918
853.654	0.0168777
853.732	0.0168814
853.810	0.0167745
853.888	0.0166369
853.966	0.0167784
854.044	0.0167995
854.122	0.0167605
854.200	0.0168658
854.279	0.0168198
854.357	0.0167944
854.435	0.0167590
854.513	0.0165964
854.591	0.0166896
854.669	0.0167360
854.747	0.0167513
854.825	0.0167075
854.904	0.0165471
854.982	0.0166060
855.060	0.0167422
855.138	0.0166980
855.216	0.0165691
855.294	0.0165496
855.372	0.0165946
855.450	0.0165226
855.529	0.0165071
855.607	0.0164114
855.685	0.0165063
855.763	0.0165303
855.841	0.0166077
855.919	0.0166128
855.997	0.0165801
856.075	0.0165206
856.154	0.0165921
856.232	0.0166343
856.310	0.0165218
856.388	0.0166583
856.466	0.0166723
856.544	0.0165527
856.622	0.0167103
856.700	0.0166692
856.779	0.0166473
856.857	0.0166914
856.935	0.0166497
857.013	0.0165690
857.091	0.0166844
857.169	0.0166674
857.247	0.0165660
857.325	0.0167239
857.404	0.0167471
857.482	0.0165592
857.560	0.0167256
857.638	0.0167368
857.716	0.0166414
857.794	0.0167342
857.872	0.0165923
857.950	0.0168462
858.029	0.0166972
858.107	0.0167585
858.185	0.0167646
858.263	0.0168584
858.341	0.0167457
858.419	0.0169225
858.497	0.0168356
858.575	0.0169969
858.654	0.0168186
858.732	0.0167719
858.810	0.0168553
858.888	0.0167437
858.966	0.0167715
859.044	0.0167991
859.122	0.0167355
859.200	0.0167574
859.279	0.0167047
859.357	0.0168350
859.435	0.0167075
859.513	0.0167035
859.591	0.0166959
859.669	0.0165546
859.747	0.0167872
859.825	0.0168063
859.904	0.0166720
859.982	0.0166296
860.060	0.0166950
860.138	0.0165556
860.216	0.0165765
860.294	0.0165723
860.372	0.0166551
860.450	0.0166498
860.529	0.0166759
860.607	0.0167379
860.685	0.0165634
860.763	0.0166164
860.841	0.0166553
860.919	0.0167574
860.997	0.0167426
861.075	0.0167636
861.154	0.0167068
861.232	0.0167181
861.310	0.0167970
861.388	0.0168380
861.466	0.0166352
861.544	0.0167442
861.622	0.0166582
861.700	0.0167070
861.779	0.0166515
861.857	0.0166653
861.935	0.0165741
862.013	0.0167017
862.091	0.0167065
862.169	0.0166560
862.247	0.0166145
862.325	0.0165680
862.404	0.0166373
862.482	0.0167168
862.560	0.0165913
862.638	0.0166420
862.716	0.0166195
862.794	0.0166991
862.872	0.0166093
862.950	0.0166747
863.029	0.0167805
863.107	0.0166969
863.185	0.0167274
863.263	0.0166537
863.341	0.0167329
863.419	0.0166667
863.497	0.0165735
863.575	0.0165277
863.654	0.0166585
863.732	0.0166538
863.810	0.0165354
863.888	0.0165669
863.966	0.0165955
864.044	0.0165271
864.122	0.0166840
864.200	0.0166286
864.279	0.0167084
864.357	0.0165034
864.435	0.0167053
864.513	0.0166547
864.591	0.0167041
864.669	0.0167055
864.747	0.0167483
864.825	0.0168423
864.904	0.0167860
864.982	0.0167677
865.060	0.0166970
865.138	0.0166115
865.216	0.0166991
865.294	0.0167197
865.372	0.0166899
865.450	0.0167329
865.529	0.0166090
865.607	0.0166244
865.685	0.0165359
865.763	0.0166536
865.841	0.0166295
865.919	0.0165273
865.997	0.0166162
866.075	0.0165803
866.154	0.0165475
866.232	0.0165657
866.310	0.0165509
866.388	0.0165520
866.466	0.0163905
866.544	0.0165951
866.622	0.0165841
866.700	0.0166168
866.779	0.0166747
866.857	0.0165396
866.935	0.0166260
867.013	0.0167231
867.091	0.0166798
867.169	0.0166212
867.247	0.0167603
867.325	0.0167026
867.404	0.0166695
867.482	0.0167066
867.560	0.0165723
867.638	0.0165083
867.716	0.0165366
867.794	0.0165150
867.872	0.0166150
867.950	0.0165893
868.029	0.0166459
868.107	0.0165617
868.185	0.0165697
868.263	0.0165758
868.341	0.0166006
868.419	0.0167296
868.497	0.0167001
868.575	0.0165602
868.654	0.0167775
868.732	0.0167472
868.810	0.0166449
868.888	0.0166902
868.966	0.0166839
869.044	0.0167562
869.122	0.0167581
869.200	0.0165340
869.279	0.0165361
869.357	0.0165235
869.435	0.0165730
869.513	0.0165623
869.591	0.0165060
869.669	0.0165605
869.747	0.0163599
869.825	0.0165048
869.904	0.0164790
869.982	0.0164619
870.060	0.0164005
870.138	0.0164863
870.216	0.0163444
870.294	0.0165327
870.372	0.0165653
870.450	0.0164580
870.529	0.0165398
870.607	0.0164862
870.685	0.0164897
870.763	0.0165808
870.841	0.0164220
870.919	0.0163927
870.997	0.0164265
871.075	0.0163474
871.154	0.0165625
871.232	0.0164919
871.310	0.0162701
871.388	0.0164693
871.466	0.0164827
871.544	0.0165385
871.622	0.0163789
871.700	0.0163948
871.779	0.0164085
871.857	0.0162240
871.935	0.0164379
872.013	0.0163999
872.091	0.0163022
872.169	0.0164566
872.247	0.0164963
872.325	0.0165348
872.404	0.0164008
872.482	0.0163543
872.560	0.0165327
872.638	0.0165577
872.716	0.0165462
872.794	0.0166032
872.872	0.0166180
872.950	0.0165757
873.029	0.0166340
873.107	0.0165857
873.185	0.0166735
873.263	0.0166345
873.341	0.0166835
873.419	0.0165831
873.497	0.0165667
873.575	0.0165746
873.654	0.0165932
873.732	0.0166950
873.810	0.0166023
873.888	0.0165399
873.966	0.0164703
874.044	0.0166671
874.122	0.0166288
874.200	0.0166994
874.279	0.0167100
874.357	0.0164935
874.435	0.0167629
874.513	0.0167114
874.591	0.0166387
874.669	0.0166773
874.747	0.0165908
874.825	0.0166830
874.904	0.0167176
874.982	0.0166953
875.060	0.0165334
875.138	0.0166665
875.216	0.0167108
875.294	0.0166876
875.372	0.0166828
875.450	0.0168341
875.529	0.0167600
875.607	0.0168026
875.685	0.0167317
875.763	0.0166238
875.841	0.0168423
875.919	0.0167820
875.997	0.0166221
876.075	0.0166937
876.154	0.0167862
876.232	0.0166231
876.310	0.0166830
876.388	0.0166039
876.466	0.0165222
876.544	0.0166067
876.622	0.0166140
876.700	0.0165130
876.779	0.0164383
876.857	0.0164913
876.935	0.0165720
877.013	0.0165569
877.091	0.0164367
877.169	0.0163762
877.247	0.0165462
877.325	0.0165287
877.404	0.0165025
877.482	0.0163895
877.560	0.0164247
877.638	0.0165131
877.716	0.0165280
877.794	0.0166416
877.872	0.0166656
877.950	0.0166887
878.029	0.0166759
878.107	0.0166726
878.185	0.0166968
878.263	0.0166669
878.341	0.0167358
878.419	0.0168094
878.497	0.0168013
878.575	0.0168433
878.654	0.0167008
878.732	0.0167313
878.810	0.0167620
878.888	0.0167783
878.966	0.0168327
879.044	0.0166327
879.122	0.0168060
879.200	0.0166860
879.279	0.0166043
879.357	0.0167265
879.435	0.0165886
879.513	0.0167100
879.591	0.0166508
879.669	0.0165302
879.747	0.0166422
879.825	0.0166450
879.904	0.0167356
879.982	0.0166122
880.060	0.0167143
880.138	0.0165817
880.216	0.0166121
880.294	0.0167976
880.372	0.0167706
880.450	0.0168249
880.529	0.0168389
880.607	0.0167596
880.685	0.0168427
880.763	0.0168877
880.841	0.0168773
880.919	0.0167612
880.997	0.0168761
881.075	0.0167272
881.154	0.0167667
881.232	0.0169531
881.310	0.0168082
881.388	0.0167793
881.466	0.0168960
881.544	0.0168278
881.622	0.0168142
881.700	0.0167764
881.779	0.0167302
881.857	0.0166247
881.935	0.0166993
882.013	0.0166885
882.091	0.0169001
882.169	0.0167050
882.247	0.0167891
882.325	0.0167207
882.404	0.0166908
882.482	0.0168221
882.560	0.0167773
882.638	0.0167716
882.716	0.0167632
882.794	0.0169422
882.872	0.0167651
882.950	0.0166570
883.029	0.0168925
883.107	0.0169061
883.185	0.0170042
883.263	0.0168988
883.341	0.0168388
883.419	0.0167686
883.497	0.0168867
883.575	0.0168987
883.654	0.0168404
883.732	0.0167442
883.810	0.0168361
883.888	0.0168034
883.966	0.0167108
884.044	0.0165491
884.122	0.0167258
884.200	0.0167818
884.279	0.0165955
884.357	0.0166534
884.435	0.0166948
884.513	0.0166650
884.591	0.0166266
884.669	0.0165321
884.747	0.0165247
884.825	0.0165233
884.904	0.0165633
884.982	0.0165563
885.060	0.0166045
885.138	0.0165627
885.216	0.0166089
885.294	0.0166188
885.372	0.0166721
885.450	0.0166618
885.529	0.0164300
885.607	0.0164999
885.685	0.0167957
885.763	0.0166625
885.841	0.0165290
885.919	0.0165884
885.997	0.0165563
886.075	0.0165476
886.154	0.0164877
886.232	0.0164209
886.310	0.0165701
886.388	0.0164654
886.466	0.0164604
886.544	0.0166083
886.622	0.0165388
886.700	0.0165461
886.779	0.0165164
886.857	0.0164599
886.935	0.0166280
887.013	0.0164211
887.091	0.0165663
887.169	0.0165707
887.247	0.0166198
887.325	0.0166759
887.404	0.0165338
887.482	0.0165530
887.560	0.0166682
887.638	0.0166652
887.716	0.0166846
887.794	0.0165578
887.872	0.0165866
887.950	0.0167417
888.029	0.0166058
888.107	0.0166079
888.185	0.0165792
888.263	0.0165901
888.341	0.0167064
888.419	0.0168022
888.497	0.0166815
888.575	0.0166562
888.654	0.0167632
888.732	0.0166161
888.810	0.0165411
888.888	0.0167233
888.966	0.0166805
889.044	0.0166390
889.122	0.0166950
889.200	0.0166869
889.279	0.0166595
889.357	0.0166742
889.435	0.0166587
889.513	0.0165860
889.591	0.0166437
889.669	0.0165652
889.747	0.0165224
889.825	0.0165662
889.904	0.0165754
889.982	0.0166409
890.060	0.0165068
890.138	0.0166000
890.216	0.0166370
890.294	0.0165546
890.372	0.0164742
890.450	0.0165211
890.529	0.0166445
890.607	0.0166051
890.685	0.0166730
890.763	0.0167386
890.841	0.0166736
890.919	0.0167064
890.997	0.0167648
891.075	0.0167305
891.154	0.0167961
891.232	0.0167168
891.310	0.0166777
891.388	0.0167278
891.466	0.0168987
891.544	0.0166359
891.622	0.0166675
891.700	0.0166450
891.779	0.0165446
891.857	0.0166336
891.935	0.0165913
892.013	0.0166415
892.091	0.0163816
892.169	0.0165130
892.247	0.0163777
892.325	0.0164262
892.404	0.0165061
892.482	0.0163187
892.560	0.0164701
892.638	0.0163998
892.716	0.0163022
892.794	0.0163670
892.872	0.0163785
892.950	0.0163449
893.029	0.0163726
893.107	0.0165112
893.185	0.0164675
893.263	0.0163007
893.341	0.0165369
893.419	0.0164127
893.497	0.0164667
893.575	0.0165834
893.654	0.0163734
893.732	0.0166280
893.810	0.0166106
893.888	0.0166033
893.966	0.0166537
894.044	0.0166773
894.122	0.0166048
894.200	0.0166702
894.279	0.0165386
894.357	0.0165991
894.435	0.0166529
894.513	0.0166103
894.591	0.0165853
894.669	0.0166046
894.747	0.0166080
894.825	0.0165833
894.904	0.0165305
894.982	0.0165471
895.060	0.0164967
895.138	0.0165181
895.216	0.0165264
895.294	0.0165082
895.372	0.0163776
895.450	0.0163083
895.529	0.0164555
895.607	0.0165870
895.685	0.0166595
895.763	0.0166923
895.841	0.0164867
895.919	0.0165814
895.997	0.0167502
896.075	0.0168031
896.154	0.0167625
896.232	0.0168990
896.310	0.0170105
896.388	0.0169196
896.466	0.0168520
896.544	0.0167828
896.622	0.0169060
896.700	0.0169957
896.779	0.0169418
896.857	0.0167461
896.935	0.0168560
897.013	0.0167406
897.091	0.0167360
897.169	0.0166263
897.247	0.0165665
897.325	0.0166032
897.404	0.0166692
897.482	0.0165945
897.560	0.0165451
897.638	0.0164872
897.716	0.0164423
897.794	0.0165206
897.872	0.0165044
897.950	0.0165934
898.029	0.0166844
898.107	0.0166590
898.185	0.0165844
898.263	0.0165942
898.341	0.0166592
898.419	0.0167885
898.497	0.0165784
898.575	0.0166408
898.654	0.0167478
898.732	0.0166547
898.810	0.0167958
898.888	0.0168382
898.966	0.0168323
899.044	0.0168817
899.122	0.0168053
899.200	0.0166936
899.279	0.0167731
899.357	0.0168150
899.435	0.0166621
899.513	0.0167552
899.591	0.0167081
899.669	0.0166943
899.747	0.0166096
899.825	0.0166371
899.904	0.0165901
899.982	0.0165373
900.060	0.0165762
900.138	0.0165054
900.216	0.0165633
900.294	0.0164599
900.372	0.0165715
900.450	0.0164390
900.529	0.0163677
900.607	0.0165136
900.685	0.0164515
900.763	0.0164500
900.841	0.0165788
900.919	0.0166406
900.997	0.0165781
901.075	0.0166667
901.154	0.0166273
901.232	0.0167394
901.310	0.0168875
901.388	0.0167596
901.466	0.0167757
901.544	0.0167961
901.622	0.0168694
901.700	0.0168402
901.779	0.0168417
901.857	0.0168101
901.935	0.0166203
902.013	0.0168150
902.091	0.0168376
902.169	0.0167500
902.247	0.0167027
902.325	0.0166801
902.404	0.0167297
902.482	0.0167181
902.560	0.0166203
902.638	0.0165701
902.716	0.0166018
902.794	0.0166613
902.872	0.0166097
902.950	0.0166610
903.029	0.0166988
903.107	0.0166352
903.185	0.0168102
903.263	0.0167666
903.341	0.0167972
903.419	0.0168864
903.497	0.0168742
903.575	0.0168417
903.654	0.0168950
903.732	0.0167748
903.810	0.0168823
903.888	0.0168148
903.966	0.0168396
904.044	0.0167202
904.122	0.0168783
904.200	0.0167892
904.279	0.0166716
904.357	0.0167596
904.435	0.0167995
904.513	0.0166062
904.591	0.0165617
904.669	0.0166661
904.747	0.0165288
904.825	0.0167739
904.904	0.0166116
904.982	0.0165528
905.060	0.0165696
905.138	0.0165424
905.216	0.0166765
905.294	0.0166700
905.372	0.0165785
905.450	0.0164767
905.529	0.0164713
905.607	0.0166109
905.685	0.0164545
905.763	0.0164828
905.841	0.0165804
905.919	0.0165697
905.997	0.0166919
906.075	0.0167016
906.154	0.0167904
906.232	0.0167319
906.310	0.0169115
906.388	0.0168851
906.466	0.0168143
906.544	0.0170049
906.622	0.0169388
906.700	0.0168069
906.779	0.0168967
906.857	0.0168964
906.935	0.0168988
907.013	0.0167290
907.091	0.0167809
907.169	0.0167976
907.247	0.0167677
907.325	0.0167879
907.404	0.0167624
907.482	0.0167556
907.560	0.0165933
907.638	0.0165038
907.716	0.0165012
907.794	0.0165710
907.872	0.0165395
907.950	0.0166631
908.029	0.0165022
908.107	0.0166309
908.185	0.0166050
908.263	0.0166327
908.341	0.0166714
908.419	0.0165713
908.497	0.0167269
908.575	0.0166322
908.654	0.0166644
908.732	0.0166934
908.810	0.0165831
908.888	0.0167558
908.966	0.0167236
909.044	0.0167133
909.122	0.0164822
909.200	0.0167818
909.279	0.0168121
909.357	0.0166787
909.435	0.0166555
909.513	0.0166679
909.591	0.0166971
909.669	0.0166916
909.747	0.0166627
909.825	0.0166151
909.904	0.0167297
909.982	0.0166641
910.060	0.0167223
910.138	0.0166675
910.216	0.0165825
910.294	0.0167301
910.372	0.0165627
910.450	0.0165474
910.529	0.0165611
910.607	0.0166391
910.685	0.0166438
910.763	0.0167089
910.841	0.0167062
910.919	0.0168375
910.997	0.0167870
911.075	0.0168014
911.154	0.0169087
911.232	0.0168166
911.310	0.0169548
911.388	0.0169724
911.466	0.0168987
911.544	0.0168088
911.622	0.0168353
911.700	0.0168709
911.779	0.0168539
911.857	0.0167817
911.935	0.0167122
912.013	0.0166914
912.091	0.0167017
912.169	0.0167040
912.247	0.0166457
912.325	0.0166412
912.404	0.0165710
912.482	0.0166203
912.560	0.0165848
912.638	0.0164486
912.716	0.0165136
912.794	0.0166342
912.872	0.0164800
912.950	0.0165011
913.029	0.0165500
913.107	0.0165596
913.185	0.0167740
913.263	0.0164507
913.341	0.0165750
913.419	0.0166428
913.497	0.0166699
913.575	0.0167078
913.654	0.0168674
913.732	0.0168185
913.810	0.0168954
913.888	0.0168979
913.966	0.0168519
914.044	0.0168433
914.122	0.0167657
914.200	0.0168539
914.279	0.0168107
914.357	0.0168822
914.435	0.0167160
914.513	0.0167455
914.591	0.0167278
914.669	0.0166951
914.747	0.0167328
914.825	0.0166395
914.904	0.0165324
914.982	0.0163969
915.060	0.0165710
915.138	0.0165768
915.216	0.0166360
915.294	0.0164178
915.372	0.0163856
915.450	0.0163137
915.529	0.0163427
915.607	0.0163570
915.685	0.0164680
915.763	0.0163617
915.841	0.0163764
915.919	0.0163480
915.997	0.0163225
916.075	0.0163218
916.154	0.0163842
916.232	0.0163449
916.310	0.0165263
916.388	0.0164576
916.466	0.0164393
916.544	0.0165681
916.622	0.0165295
916.700	0.0165610
916.779	0.0165659
916.857	0.0165500
916.935	0.0167107
917.013	0.0166173
917.091	0.0167303
917.169	0.0166480
917.247	0.0168446
917.325	0.0166960
917.404	0.0167695
917.482	0.0167435
917.560	0.0168925
917.638	0.0168884
917.716	0.0170038
917.794	0.0169450
917.872	0.0167887
917.950	0.0167923
918.029	0.0167751
918.107	0.0170278
918.185	0.0168752
918.263	0.0168708
918.341	0.0170081
918.419	0.0168817
918.497	0.0168288
918.575	0.0167874
918.654	0.0168143
918.732	0.0166930
918.810	0.0165901
918.888	0.0166615
918.966	0.0167091
919.044	0.0166298
919.122	0.0165379
919.200	0.0166825
919.279	0.0166881
919.357	0.0164478
919.435	0.0166161
919.513	0.0165295
919.591	0.0165383
919.669	0.0166192
919.747	0.0167313
919.825	0.0166329
919.904	0.0165511
