06/03/2022	14:15:55	Ver.	4.1	UNKNOWN
Optical Delay	599.981738	Delta X		0.078125	Sweeps	1	Scan Rate	0/0
Coordinates	Axis 1	NaN	Axis 2	NaN	Axis 3	NaN	Axis 4	NaN	Axis 5	NaN	Axis 6	0.000000
TX Power	0.000000	RX Power	0.000000

599.982	0.0170413
600.060	0.0170359
600.138	0.0170620
600.216	0.0171183
600.294	0.0170374
600.372	0.0172050
600.450	0.0170309
600.529	0.0170631
600.607	0.0170694
600.685	0.0170657
600.763	0.0170258
600.841	0.0170161
600.919	0.0171200
600.997	0.0171557
601.075	0.0171568
601.154	0.0169988
601.232	0.0170905
601.310	0.0170617
601.388	0.0171188
601.466	0.0170525
601.544	0.0169551
601.622	0.0170579
601.700	0.0171009
601.779	0.0170346
601.857	0.0170840
601.935	0.0170639
602.013	0.0170539
602.091	0.0170966
602.169	0.0170238
602.247	0.0170848
602.325	0.0171699
602.404	0.0171210
602.482	0.0171501
602.560	0.0170637
602.638	0.0171014
602.716	0.0172590
602.794	0.0170350
602.872	0.0169740
602.950	0.0170004
603.029	0.0169508
603.107	0.0170525
603.185	0.0169778
603.263	0.0171181
603.341	0.0169688
603.419	0.0170463
603.497	0.0170797
603.575	0.0172003
603.654	0.0171079
603.732	0.0170785
603.810	0.0170480
603.888	0.0170795
603.966	0.0171433
604.044	0.0171313
604.122	0.0170373
604.200	0.0172306
604.279	0.0170499
604.357	0.0169937
604.435	0.0169908
604.513	0.0170352
604.591	0.0170055
604.669	0.0170154
604.747	0.0169782
604.825	0.0170641
604.904	0.0170557
604.982	0.0170457
605.060	0.0171603
605.138	0.0171299
605.216	0.0171584
605.294	0.0170931
605.372	0.0171901
605.450	0.0171658
605.529	0.0171452
605.607	0.0170831
605.685	0.0170686
605.763	0.0171302
605.841	0.0171755
605.919	0.0170790
605.997	0.0170481
606.075	0.0171727
606.154	0.0171284
606.232	0.0171751
606.310	0.0170099
606.388	0.0170281
606.466	0.0171649
606.544	0.0171505
606.622	0.0170557
606.700	0.0171044
606.779	0.0171059
606.857	0.0170811
606.935	0.0170098
607.013	0.0170695
607.091	0.0171311
607.169	0.0170470
607.247	0.0168771
607.325	0.0170346
607.404	0.0171278
607.482	0.0170700
607.560	0.0170313
607.638	0.0171077
607.716	0.0171635
607.794	0.0170882
607.872	0.0170560
607.950	0.0169812
608.029	0.0170791
608.107	0.0171429
608.185	0.0172101
608.263	0.0171445
608.341	0.0171036
608.419	0.0171075
608.497	0.0170801
608.575	0.0170578
608.654	0.0171057
608.732	0.0171631
608.810	0.0171024
608.888	0.0171262
608.966	0.0171439
609.044	0.0171568
609.122	0.0170722
609.200	0.0170948
609.279	0.0171158
609.357	0.0169755
609.435	0.0170853
609.513	0.0170992
609.591	0.0169910
609.669	0.0170253
609.747	0.0171809
609.825	0.0171101
609.904	0.0171906
609.982	0.0170488
610.060	0.0172523
610.138	0.0169935
610.216	0.0169585
610.294	0.0170768
610.372	0.0170624
610.450	0.0170188
610.529	0.0171771
610.607	0.0171281
610.685	0.0171311
610.763	0.0170393
610.841	0.0171852
610.919	0.0172746
610.997	0.0171223
611.075	0.0171641
611.154	0.0170353
611.232	0.0169437
611.310	0.0170667
611.388	0.0171003
611.466	0.0170678
611.544	0.0171353
611.622	0.0169589
611.700	0.0170204
611.779	0.0170618
611.857	0.0170069
611.935	0.0169602
612.013	0.0170707
612.091	0.0171321
612.169	0.0171635
612.247	0.0170364
612.325	0.0171674
612.404	0.0169845
612.482	0.0170217
612.560	0.0171378
612.638	0.0170972
612.716	0.0170589
612.794	0.0171045
612.872	0.0169659
612.950	0.0170197
613.029	0.0170686
613.107	0.0171085
613.185	0.0171588
613.263	0.0171056
613.341	0.0170287
613.419	0.0169524
613.497	0.0169133
613.575	0.0169650
613.654	0.0169599
613.732	0.0169979
613.810	0.0170771
613.888	0.0170863
613.966	0.0169987
614.044	0.0170595
614.122	0.0172317
614.200	0.0170557
614.279	0.0169926
614.357	0.0169851
614.435	0.0170402
614.513	0.0171290
614.591	0.0170341
614.669	0.0169781
614.747	0.0170068
614.825	0.0171055
614.904	0.0170979
614.982	0.0171491
615.060	0.0168908
615.138	0.0168895
615.216	0.0170631
615.294	0.0171337
615.372	0.0170481
615.450	0.0170208
615.529	0.0170885
615.607	0.0171500
615.685	0.0171250
615.763	0.0171195
615.841	0.0168926
615.919	0.0170688
615.997	0.0171032
616.075	0.0169740
616.154	0.0170477
616.232	0.0171179
616.310	0.0171254
616.388	0.0170042
616.466	0.0171375
616.544	0.0170712
616.622	0.0170271
616.700	0.0170464
616.779	0.0169771
616.857	0.0169772
616.935	0.0170496
617.013	0.0169987
617.091	0.0170622
617.169	0.0168406
617.247	0.0169984
617.325	0.0169072
617.404	0.0170116
617.482	0.0170853
617.560	0.0169879
617.638	0.0171044
617.716	0.0171104
617.794	0.0171199
617.872	0.0169292
617.950	0.0169379
618.029	0.0169891
618.107	0.0170412
618.185	0.0169348
618.263	0.0170502
618.341	0.0169858
618.419	0.0170110
618.497	0.0169995
618.575	0.0170096
618.654	0.0169624
618.732	0.0171609
618.810	0.0170560
618.888	0.0170131
618.966	0.0170787
619.044	0.0170523
619.122	0.0169482
619.200	0.0171345
619.279	0.0170148
619.357	0.0169387
619.435	0.0169896
619.513	0.0169663
619.591	0.0170106
619.669	0.0169474
619.747	0.0168304
619.825	0.0167329
619.904	0.0168680
619.982	0.0167957
620.060	0.0167587
620.138	0.0170014
620.216	0.0170712
620.294	0.0170583
620.372	0.0171590
620.450	0.0171164
620.529	0.0172506
620.607	0.0174110
620.685	0.0174885
620.763	0.0172552
620.841	0.0173205
620.919	0.0172186
620.997	0.0169350
621.075	0.0168909
621.154	0.0166810
621.232	0.0166341
621.310	0.0167136
621.388	0.0166303
621.466	0.0166445
621.544	0.0167225
621.622	0.0169627
621.700	0.0170554
621.779	0.0170227
621.857	0.0172396
621.935	0.0174340
622.013	0.0174173
622.091	0.0174957
622.169	0.0175552
622.247	0.0177039
622.325	0.0175740
622.404	0.0174210
622.482	0.0173775
622.560	0.0172098
622.638	0.0168538
622.716	0.0168118
622.794	0.0166111
622.872	0.0165329
622.950	0.0166212
623.029	0.0164153
623.107	0.0165347
623.185	0.0166919
623.263	0.0167899
623.341	0.0169689
623.419	0.0170227
623.497	0.0171028
623.575	0.0174065
623.654	0.0173849
623.732	0.0174442
623.810	0.0174304
623.888	0.0175774
623.966	0.0174523
624.044	0.0173491
624.122	0.0170667
624.200	0.0170692
624.279	0.0168233
624.357	0.0167694
624.435	0.0166455
624.513	0.0166929
624.591	0.0167159
624.669	0.0166886
624.747	0.0168185
624.825	0.0169338
624.904	0.0170416
624.982	0.0172070
625.060	0.0171314
625.138	0.0172553
625.216	0.0173823
625.294	0.0172375
625.372	0.0170974
625.450	0.0171204
625.529	0.0169762
625.607	0.0169853
625.685	0.0170820
625.763	0.0170664
625.841	0.0170511
625.919	0.0171844
625.997	0.0171507
626.075	0.0171281
626.154	0.0172639
626.232	0.0173171
626.310	0.0172326
626.388	0.0172994
626.466	0.0172968
626.544	0.0171864
626.622	0.0171983
626.700	0.0170828
626.779	0.0169892
626.857	0.0170284
626.935	0.0169090
627.013	0.0167266
627.091	0.0168226
627.169	0.0168239
627.247	0.0168848
627.325	0.0167995
627.404	0.0167212
627.482	0.0169321
627.560	0.0170567
627.638	0.0171597
627.716	0.0173373
627.794	0.0173797
627.872	0.0172614
627.950	0.0174207
628.029	0.0172165
628.107	0.0173618
628.185	0.0171358
628.263	0.0171397
628.341	0.0171571
628.419	0.0169887
628.497	0.0170268
628.575	0.0169970
628.654	0.0168363
628.732	0.0168150
628.810	0.0168332
628.888	0.0169824
628.966	0.0168422
629.044	0.0168167
629.122	0.0169720
629.200	0.0168501
629.279	0.0170469
629.357	0.0171089
629.435	0.0171133
629.513	0.0171432
629.591	0.0171593
629.669	0.0173511
629.747	0.0173814
629.825	0.0174459
629.904	0.0172764
629.982	0.0174673
630.060	0.0174020
630.138	0.0172850
630.216	0.0171188
630.294	0.0171078
630.372	0.0172204
630.450	0.0170015
630.529	0.0168690
630.607	0.0169069
630.685	0.0169270
630.763	0.0169319
630.841	0.0170072
630.919	0.0170391
630.997	0.0170278
631.075	0.0172863
631.154	0.0172262
631.232	0.0172664
631.310	0.0171967
631.388	0.0172154
631.466	0.0170679
631.544	0.0173325
631.622	0.0172522
631.700	0.0172607
631.779	0.0169791
631.857	0.0169512
631.935	0.0169285
632.013	0.0171100
632.091	0.0169669
632.169	0.0169593
632.247	0.0170699
632.325	0.0171645
632.404	0.0171919
632.482	0.0172688
632.560	0.0173633
632.638	0.0172132
632.716	0.0171606
632.794	0.0170856
632.872	0.0169685
632.950	0.0169688
633.029	0.0168452
633.107	0.0167209
633.185	0.0167616
633.263	0.0167988
633.341	0.0168538
633.419	0.0168282
633.497	0.0169781
633.575	0.0172444
633.654	0.0172800
633.732	0.0172701
633.810	0.0173409
633.888	0.0173354
633.966	0.0175061
634.044	0.0175269
634.122	0.0174971
634.200	0.0174732
634.279	0.0173236
634.357	0.0172643
634.435	0.0171287
634.513	0.0170633
634.591	0.0168815
634.669	0.0168600
634.747	0.0168111
634.825	0.0167757
634.904	0.0166936
634.982	0.0167437
635.060	0.0166483
635.138	0.0167103
635.216	0.0168671
635.294	0.0169524
635.372	0.0170877
635.450	0.0172012
635.529	0.0173322
635.607	0.0172985
635.685	0.0174066
635.763	0.0174940
635.841	0.0173589
635.919	0.0174812
635.997	0.0173299
636.075	0.0171346
636.154	0.0170397
636.232	0.0169669
636.310	0.0168398
636.388	0.0167530
636.466	0.0167129
636.544	0.0168845
636.622	0.0168511
636.700	0.0166672
636.779	0.0166852
636.857	0.0168991
636.935	0.0169212
637.013	0.0168877
637.091	0.0168935
637.169	0.0169416
637.247	0.0170363
637.325	0.0171312
637.404	0.0172055
637.482	0.0170709
637.560	0.0171352
637.638	0.0173129
637.716	0.0172527
637.794	0.0170551
637.872	0.0171336
637.950	0.0168726
638.029	0.0170398
638.107	0.0170433
638.185	0.0172065
638.263	0.0170940
638.341	0.0171436
638.419	0.0170481
638.497	0.0169756
638.575	0.0170837
638.654	0.0169685
638.732	0.0168893
638.810	0.0168315
638.888	0.0169654
638.966	0.0169209
639.044	0.0170257
639.122	0.0170333
639.200	0.0170210
639.279	0.0171204
639.357	0.0170625
639.435	0.0171452
639.513	0.0171261
639.591	0.0172306
639.669	0.0172073
639.747	0.0171607
639.825	0.0171785
639.904	0.0171666
639.982	0.0170891
640.060	0.0171223
640.138	0.0170105
640.216	0.0170423
640.294	0.0169156
640.372	0.0168692
640.450	0.0170552
640.529	0.0169574
640.607	0.0169200
640.685	0.0168268
640.763	0.0168475
640.841	0.0170466
640.919	0.0170790
640.997	0.0170905
641.075	0.0169820
641.154	0.0169821
641.232	0.0170394
641.310	0.0169844
641.388	0.0168948
641.466	0.0168983
641.544	0.0170319
641.622	0.0171095
641.700	0.0170334
641.779	0.0171640
641.857	0.0170099
641.935	0.0170419
642.013	0.0171768
642.091	0.0170861
642.169	0.0168280
642.247	0.0168452
642.325	0.0168233
642.404	0.0168558
642.482	0.0169279
642.560	0.0168219
642.638	0.0168984
642.716	0.0170938
642.794	0.0171451
642.872	0.0170019
642.950	0.0170575
643.029	0.0170344
643.107	0.0170068
643.185	0.0171235
643.263	0.0171309
643.341	0.0168957
643.419	0.0169862
643.497	0.0170833
643.575	0.0170870
643.654	0.0169541
643.732	0.0169836
643.810	0.0169739
643.888	0.0169132
643.966	0.0170148
644.044	0.0171574
644.122	0.0171168
644.200	0.0172207
644.279	0.0173003
644.357	0.0171447
644.435	0.0170140
644.513	0.0170805
644.591	0.0171259
644.669	0.0171601
644.747	0.0172584
644.825	0.0172125
644.904	0.0170885
644.982	0.0170219
645.060	0.0168317
645.138	0.0169773
645.216	0.0168814
645.294	0.0169066
645.372	0.0169856
645.450	0.0170244
645.529	0.0170885
645.607	0.0171278
645.685	0.0172009
645.763	0.0171087
645.841	0.0173241
645.919	0.0174123
645.997	0.0174454
646.075	0.0174263
646.154	0.0173350
646.232	0.0173695
646.310	0.0174677
646.388	0.0173966
646.466	0.0172733
646.544	0.0171616
646.622	0.0170695
646.700	0.0170217
646.779	0.0170008
646.857	0.0169090
646.935	0.0168772
647.013	0.0168572
647.091	0.0170487
647.169	0.0169241
647.247	0.0170592
647.325	0.0170681
647.404	0.0169905
647.482	0.0170821
647.560	0.0171199
647.638	0.0172423
647.716	0.0172734
647.794	0.0172975
647.872	0.0172387
647.950	0.0172830
648.029	0.0171676
648.107	0.0172678
648.185	0.0171578
648.263	0.0171761
648.341	0.0172028
648.419	0.0170993
648.497	0.0172005
648.575	0.0171099
648.654	0.0172160
648.732	0.0171683
648.810	0.0171819
648.888	0.0171188
648.966	0.0171535
649.044	0.0172108
649.122	0.0172283
649.200	0.0170872
649.279	0.0170147
649.357	0.0171269
649.435	0.0170164
649.513	0.0170443
649.591	0.0171381
649.669	0.0169286
649.747	0.0168948
649.825	0.0169254
649.904	0.0169406
649.982	0.0167944
650.060	0.0167128
650.138	0.0168575
650.216	0.0168981
650.294	0.0169369
650.372	0.0167216
650.450	0.0169144
650.529	0.0168623
650.607	0.0167796
650.685	0.0169642
650.763	0.0169337
650.841	0.0170344
650.919	0.0169926
650.997	0.0170713
651.075	0.0170647
651.154	0.0169377
651.232	0.0172010
651.310	0.0173623
651.388	0.0173104
651.466	0.0172832
651.544	0.0173171
651.622	0.0173685
651.700	0.0173589
651.779	0.0175795
651.857	0.0174268
651.935	0.0174381
652.013	0.0174284
652.091	0.0175647
652.169	0.0174144
652.247	0.0172978
652.325	0.0171996
652.404	0.0172593
652.482	0.0172378
652.560	0.0172934
652.638	0.0170053
652.716	0.0169643
652.794	0.0169970
652.872	0.0169767
652.950	0.0168544
653.029	0.0169434
653.107	0.0169496
653.185	0.0169328
653.263	0.0170800
653.341	0.0169714
653.419	0.0169916
653.497	0.0172351
653.575	0.0172175
653.654	0.0171199
653.732	0.0172981
653.810	0.0171845
653.888	0.0171552
653.966	0.0172137
654.044	0.0169843
654.122	0.0167751
654.200	0.0169632
654.279	0.0168027
654.357	0.0170493
654.435	0.0168365
654.513	0.0168214
654.591	0.0167991
654.669	0.0166824
654.747	0.0166555
654.825	0.0166949
654.904	0.0168333
654.982	0.0167278
655.060	0.0168241
655.138	0.0168331
655.216	0.0167795
655.294	0.0166639
655.372	0.0168060
655.450	0.0169417
655.529	0.0168684
655.607	0.0170806
655.685	0.0171815
655.763	0.0170974
655.841	0.0171230
655.919	0.0172831
655.997	0.0173421
656.075	0.0172134
656.154	0.0173062
656.232	0.0173238
656.310	0.0173598
656.388	0.0173865
656.466	0.0173975
656.544	0.0174066
656.622	0.0173736
656.700	0.0173929
656.779	0.0173323
656.857	0.0174193
656.935	0.0174630
657.013	0.0173573
657.091	0.0172864
657.169	0.0172668
657.247	0.0171978
657.325	0.0172224
657.404	0.0171529
657.482	0.0170533
657.560	0.0169482
657.638	0.0168684
657.716	0.0167999
657.794	0.0167657
657.872	0.0167063
657.950	0.0165320
658.029	0.0165933
658.107	0.0166765
658.185	0.0166598
658.263	0.0166327
658.341	0.0166831
658.419	0.0167419
658.497	0.0167374
658.575	0.0169484
658.654	0.0169000
658.732	0.0168768
658.810	0.0171194
658.888	0.0170282
658.966	0.0171314
659.044	0.0172926
659.122	0.0172535
659.200	0.0174377
659.279	0.0175172
659.357	0.0173845
659.435	0.0174909
659.513	0.0172369
659.591	0.0174936
659.669	0.0173215
659.747	0.0173437
659.825	0.0171793
659.904	0.0170748
659.982	0.0171943
660.060	0.0170676
660.138	0.0169687
660.216	0.0170399
660.294	0.0167970
660.372	0.0168073
660.450	0.0167673
660.529	0.0166714
660.607	0.0166450
660.685	0.0165144
660.763	0.0166621
660.841	0.0166860
660.919	0.0167619
660.997	0.0167715
661.075	0.0168741
661.154	0.0169828
661.232	0.0170731
661.310	0.0170895
661.388	0.0170979
661.466	0.0172633
661.544	0.0173770
661.622	0.0172160
661.700	0.0172213
661.779	0.0171869
661.857	0.0173250
661.935	0.0173555
662.013	0.0173114
662.091	0.0173294
662.169	0.0173440
662.247	0.0172888
662.325	0.0174818
662.404	0.0173958
662.482	0.0174270
662.560	0.0175017
662.638	0.0174249
662.716	0.0173998
662.794	0.0173808
662.872	0.0172742
662.950	0.0172855
663.029	0.0173545
663.107	0.0171909
663.185	0.0171280
663.263	0.0171111
663.341	0.0170843
663.419	0.0170335
663.497	0.0170605
663.575	0.0168919
663.654	0.0168673
663.732	0.0168562
663.810	0.0168906
663.888	0.0169694
663.966	0.0169152
664.044	0.0167545
664.122	0.0168475
664.200	0.0168423
664.279	0.0169516
664.357	0.0169003
664.435	0.0169704
664.513	0.0170072
664.591	0.0168903
664.669	0.0171378
664.747	0.0171867
664.825	0.0171156
664.904	0.0170403
664.982	0.0172139
665.060	0.0170966
665.138	0.0170804
665.216	0.0169850
665.294	0.0170457
665.372	0.0168652
665.450	0.0167794
665.529	0.0168488
665.607	0.0166018
665.685	0.0167966
665.763	0.0168362
665.841	0.0166879
665.919	0.0167739
665.997	0.0168742
666.075	0.0170124
666.154	0.0170028
666.232	0.0172315
666.310	0.0173674
666.388	0.0175481
666.466	0.0175096
666.544	0.0176130
666.622	0.0178876
666.700	0.0179221
666.779	0.0180451
666.857	0.0179959
666.935	0.0179804
667.013	0.0180406
667.091	0.0180011
667.169	0.0179100
667.247	0.0177489
667.325	0.0177670
667.404	0.0175365
667.482	0.0174458
667.560	0.0172865
667.638	0.0171248
667.716	0.0170218
667.794	0.0167561
667.872	0.0167465
667.950	0.0166469
668.029	0.0165018
668.107	0.0163837
668.185	0.0162549
668.263	0.0160939
668.341	0.0161853
668.419	0.0161879
668.497	0.0158600
668.575	0.0160295
668.654	0.0160625
668.732	0.0161082
668.810	0.0163234
668.888	0.0164504
668.966	0.0165215
669.044	0.0166581
669.122	0.0169027
669.200	0.0170121
669.279	0.0170588
669.357	0.0171711
669.435	0.0174036
669.513	0.0175712
669.591	0.0176876
669.669	0.0177605
669.747	0.0179005
669.825	0.0180694
669.904	0.0180997
669.982	0.0181552
670.060	0.0181764
670.138	0.0182006
670.216	0.0182017
670.294	0.0181445
670.372	0.0179620
670.450	0.0178124
670.529	0.0176516
670.607	0.0173549
670.685	0.0173488
670.763	0.0173283
670.841	0.0172243
670.919	0.0168999
670.997	0.0170090
671.075	0.0166620
671.154	0.0167912
671.232	0.0168369
671.310	0.0167468
671.388	0.0167351
671.466	0.0166815
671.544	0.0166394
671.622	0.0168481
671.700	0.0166663
671.779	0.0163721
671.857	0.0162883
671.935	0.0162557
672.013	0.0160057
672.091	0.0159795
672.169	0.0158031
672.247	0.0155299
672.325	0.0155086
672.404	0.0155173
672.482	0.0156872
672.560	0.0158483
672.638	0.0158157
672.716	0.0162689
672.794	0.0164557
672.872	0.0168655
672.950	0.0170797
673.029	0.0174235
673.107	0.0177003
673.185	0.0179812
673.263	0.0180791
673.341	0.0182199
673.419	0.0182997
673.497	0.0184827
673.575	0.0187443
673.654	0.0184981
673.732	0.0184332
673.810	0.0183250
673.888	0.0182539
673.966	0.0180046
674.044	0.0178938
674.122	0.0176875
674.200	0.0176275
674.279	0.0172809
674.357	0.0171297
674.435	0.0169187
674.513	0.0168063
674.591	0.0167640
674.669	0.0167317
674.747	0.0165304
674.825	0.0164185
674.904	0.0164745
674.982	0.0165378
675.060	0.0165128
675.138	0.0166074
675.216	0.0166372
675.294	0.0167833
675.372	0.0168803
675.450	0.0169206
675.529	0.0169604
675.607	0.0170025
675.685	0.0172098
675.763	0.0173209
675.841	0.0170991
675.919	0.0171843
675.997	0.0171548
676.075	0.0173017
676.154	0.0174033
676.232	0.0171761
676.310	0.0172055
676.388	0.0174293
676.466	0.0172344
676.544	0.0173998
676.622	0.0173995
676.700	0.0174151
676.779	0.0174660
676.857	0.0174177
676.935	0.0175175
677.013	0.0174457
677.091	0.0174297
677.169	0.0173634
677.247	0.0173803
677.325	0.0170969
677.404	0.0170006
677.482	0.0167808
677.560	0.0166477
677.638	0.0165449
677.716	0.0163604
677.794	0.0161151
677.872	0.0160770
677.950	0.0159527
678.029	0.0158963
678.107	0.0157596
678.185	0.0158900
678.263	0.0159264
678.341	0.0160056
678.419	0.0161870
678.497	0.0163023
678.575	0.0165069
678.654	0.0163754
678.732	0.0166058
678.810	0.0168002
678.888	0.0170049
678.966	0.0170016
679.044	0.0172486
679.122	0.0173459
679.200	0.0173206
679.279	0.0174945
679.357	0.0175793
679.435	0.0177020
679.513	0.0177414
679.591	0.0176994
679.669	0.0176801
679.747	0.0176945
679.825	0.0178455
679.904	0.0179325
679.982	0.0177780
680.060	0.0177757
680.138	0.0179536
680.216	0.0179052
680.294	0.0179601
680.372	0.0178130
680.450	0.0177724
680.529	0.0177151
680.607	0.0175973
680.685	0.0174875
680.763	0.0174458
680.841	0.0173539
680.919	0.0172233
680.997	0.0171436
681.075	0.0170708
681.154	0.0168977
681.232	0.0169370
681.310	0.0168556
681.388	0.0167029
681.466	0.0166350
681.544	0.0167890
681.622	0.0166007
681.700	0.0165598
681.779	0.0165388
681.857	0.0164666
681.935	0.0162827
682.013	0.0162267
682.091	0.0161298
682.169	0.0161702
682.247	0.0161925
682.325	0.0161377
682.404	0.0163801
682.482	0.0163431
682.560	0.0166647
682.638	0.0169305
682.716	0.0169673
682.794	0.0174689
682.872	0.0178228
682.950	0.0180114
683.029	0.0182552
683.107	0.0184972
683.185	0.0185959
683.263	0.0186466
683.341	0.0185807
683.419	0.0187315
683.497	0.0186197
683.575	0.0184362
683.654	0.0182571
683.732	0.0179766
683.810	0.0177998
683.888	0.0174147
683.966	0.0170235
684.044	0.0167565
684.122	0.0166251
684.200	0.0163689
684.279	0.0162601
684.357	0.0161124
684.435	0.0161477
684.513	0.0160233
684.591	0.0161413
684.669	0.0162985
684.747	0.0163210
684.825	0.0164199
684.904	0.0164715
684.982	0.0166000
685.060	0.0167350
685.138	0.0167733
685.216	0.0169054
685.294	0.0167999
685.372	0.0169412
685.450	0.0169406
685.529	0.0168171
685.607	0.0168717
685.685	0.0168777
685.763	0.0169022
685.841	0.0167043
685.919	0.0165527
685.997	0.0164994
686.075	0.0163175
686.154	0.0162936
686.232	0.0162556
686.310	0.0163525
686.388	0.0162462
686.466	0.0163943
686.544	0.0162631
686.622	0.0167487
686.700	0.0167313
686.779	0.0169302
686.857	0.0173497
686.935	0.0172594
687.013	0.0175826
687.091	0.0179474
687.169	0.0181419
687.247	0.0182610
687.325	0.0184915
687.404	0.0184069
687.482	0.0186886
687.560	0.0187508
687.638	0.0187485
687.716	0.0187909
687.794	0.0186298
687.872	0.0185518
687.950	0.0183363
688.029	0.0182420
688.107	0.0180819
688.185	0.0177534
688.263	0.0174101
688.341	0.0171901
688.419	0.0169955
688.497	0.0167944
688.575	0.0166640
688.654	0.0164742
688.732	0.0163580
688.810	0.0162451
688.888	0.0162445
688.966	0.0162847
689.044	0.0162161
689.122	0.0162689
689.200	0.0162701
689.279	0.0163028
689.357	0.0162176
689.435	0.0160600
689.513	0.0162445
689.591	0.0161804
689.669	0.0162055
689.747	0.0161942
689.825	0.0162817
689.904	0.0161635
689.982	0.0162637
690.060	0.0163232
690.138	0.0164764
690.216	0.0165421
690.294	0.0168642
690.372	0.0171050
690.450	0.0172141
690.529	0.0174140
690.607	0.0175562
690.685	0.0176870
690.763	0.0178635
690.841	0.0177751
690.919	0.0177187
690.997	0.0178629
691.075	0.0178503
691.154	0.0178065
691.232	0.0177462
691.310	0.0174998
691.388	0.0174734
691.466	0.0176842
691.544	0.0175535
691.622	0.0175903
691.700	0.0175222
691.779	0.0176465
691.857	0.0176580
691.935	0.0175820
692.013	0.0176724
692.091	0.0177012
692.169	0.0177267
692.247	0.0177998
692.325	0.0176308
692.404	0.0176641
692.482	0.0176505
692.560	0.0176184
692.638	0.0174905
692.716	0.0175323
692.794	0.0173133
692.872	0.0170435
692.950	0.0167911
693.029	0.0165934
693.107	0.0162782
693.185	0.0159648
693.263	0.0158038
693.341	0.0153728
693.419	0.0153413
693.497	0.0154123
693.575	0.0154305
693.654	0.0153641
693.732	0.0155435
693.810	0.0156720
693.888	0.0158810
693.966	0.0160713
694.044	0.0162913
694.122	0.0164379
694.200	0.0165727
694.279	0.0166917
694.357	0.0167505
694.435	0.0169236
694.513	0.0170080
694.591	0.0170393
694.669	0.0170826
694.747	0.0171493
694.825	0.0171682
694.904	0.0171651
694.982	0.0173341
695.060	0.0171569
695.138	0.0173746
695.216	0.0171971
695.294	0.0172491
695.372	0.0174270
695.450	0.0172108
695.529	0.0173120
695.607	0.0174438
695.685	0.0174144
695.763	0.0172544
695.841	0.0176107
695.919	0.0175938
695.997	0.0176342
696.075	0.0177512
696.154	0.0178548
696.232	0.0180521
696.310	0.0180048
696.388	0.0180985
696.466	0.0181944
696.544	0.0181387
696.622	0.0182245
696.700	0.0181454
696.779	0.0181364
696.857	0.0181181
696.935	0.0181490
697.013	0.0180444
697.091	0.0179636
697.169	0.0179282
697.247	0.0178972
697.325	0.0178013
697.404	0.0177622
697.482	0.0176866
697.560	0.0174873
697.638	0.0174165
697.716	0.0174348
697.794	0.0172385
697.872	0.0172509
697.950	0.0171364
698.029	0.0171069
698.107	0.0167820
698.185	0.0166510
698.263	0.0165177
698.341	0.0163096
698.419	0.0162480
698.497	0.0161004
698.575	0.0160069
698.654	0.0160146
698.732	0.0160683
698.810	0.0158736
698.888	0.0158816
698.966	0.0161042
699.044	0.0162140
699.122	0.0162856
699.200	0.0163482
699.279	0.0163578
699.357	0.0163528
699.435	0.0163991
699.513	0.0165441
699.591	0.0166010
699.669	0.0165984
699.747	0.0165954
699.825	0.0165346
699.904	0.0166111
699.982	0.0167247
700.060	0.0166462
700.138	0.0164831
700.216	0.0166228
700.294	0.0166801
700.372	0.0165542
700.450	0.0164810
700.529	0.0166468
700.607	0.0168569
700.685	0.0167707
700.763	0.0170033
700.841	0.0169865
700.919	0.0173561
700.997	0.0175590
701.075	0.0176719
701.154	0.0179187
701.232	0.0179927
701.310	0.0181774
701.388	0.0181968
701.466	0.0183939
701.544	0.0183488
701.622	0.0182243
701.700	0.0181268
701.779	0.0179079
701.857	0.0177850
701.935	0.0174786
702.013	0.0170473
702.091	0.0166535
702.169	0.0163930
702.247	0.0162370
702.325	0.0158712
702.404	0.0156393
702.482	0.0156141
702.560	0.0153423
702.638	0.0152178
702.716	0.0153329
702.794	0.0154593
702.872	0.0157716
702.950	0.0162100
703.029	0.0163229
703.107	0.0167009
703.185	0.0169810
703.263	0.0173896
703.341	0.0178359
703.419	0.0180101
703.497	0.0184549
703.575	0.0186845
703.654	0.0189571
703.732	0.0189441
703.810	0.0187904
703.888	0.0186813
703.966	0.0185915
704.044	0.0185889
704.122	0.0185545
704.200	0.0184473
704.279	0.0181983
704.357	0.0179929
704.435	0.0182375
704.513	0.0180697
704.591	0.0178821
704.669	0.0178670
704.747	0.0176903
704.825	0.0176875
704.904	0.0174330
704.982	0.0173622
705.060	0.0169798
705.138	0.0169411
705.216	0.0167661
705.294	0.0164760
705.372	0.0163371
705.450	0.0162913
705.529	0.0161910
705.607	0.0160405
705.685	0.0161011
705.763	0.0160670
705.841	0.0160249
705.919	0.0161347
705.997	0.0161870
706.075	0.0161678
706.154	0.0165733
706.232	0.0166727
706.310	0.0167164
706.388	0.0167943
706.466	0.0169450
706.544	0.0170135
706.622	0.0171690
706.700	0.0172630
706.779	0.0171478
706.857	0.0172148
706.935	0.0169534
707.013	0.0169807
707.091	0.0167234
707.169	0.0165954
707.247	0.0164828
707.325	0.0164796
707.404	0.0163800
707.482	0.0162411
707.560	0.0161468
707.638	0.0161436
707.716	0.0163126
707.794	0.0162578
707.872	0.0161932
707.950	0.0162054
708.029	0.0162222
708.107	0.0162749
708.185	0.0161868
708.263	0.0161205
708.341	0.0161839
708.419	0.0160580
708.497	0.0162197
708.575	0.0163660
708.654	0.0165037
708.732	0.0165862
708.810	0.0168340
708.888	0.0168878
708.966	0.0169309
709.044	0.0171288
709.122	0.0172015
709.200	0.0171594
709.279	0.0172634
709.357	0.0171790
709.435	0.0170885
709.513	0.0170435
709.591	0.0169962
709.669	0.0168709
709.747	0.0168070
709.825	0.0167134
709.904	0.0167650
709.982	0.0166920
710.060	0.0168049
710.138	0.0169953
710.216	0.0172097
710.294	0.0173888
710.372	0.0175661
710.450	0.0178322
710.529	0.0181154
710.607	0.0183450
710.685	0.0185350
710.763	0.0188089
710.841	0.0190128
710.919	0.0191490
710.997	0.0192323
711.075	0.0194411
711.154	0.0193842
711.232	0.0194865
711.310	0.0196752
711.388	0.0195580
711.466	0.0194620
711.544	0.0196129
711.622	0.0193813
711.700	0.0192281
711.779	0.0189108
711.857	0.0185971
711.935	0.0184380
712.013	0.0180501
712.091	0.0176386
712.169	0.0173806
712.247	0.0170584
712.325	0.0167117
712.404	0.0163930
712.482	0.0162588
712.560	0.0160252
712.638	0.0156953
712.716	0.0154668
712.794	0.0151620
712.872	0.0150488
712.950	0.0148713
713.029	0.0148554
713.107	0.0147099
713.185	0.0144550
713.263	0.0144465
713.341	0.0144559
713.419	0.0143170
713.497	0.0144482
713.575	0.0144851
713.654	0.0144539
713.732	0.0145700
713.810	0.0147824
713.888	0.0149524
713.966	0.0153397
714.044	0.0156165
714.122	0.0158539
714.200	0.0162113
714.279	0.0165960
714.357	0.0168399
714.435	0.0172801
714.513	0.0176357
714.591	0.0178344
714.669	0.0180850
714.747	0.0183041
714.825	0.0183265
714.904	0.0185654
714.982	0.0187363
715.060	0.0185532
715.138	0.0185607
715.216	0.0183371
715.294	0.0182872
715.372	0.0181442
715.450	0.0179877
715.529	0.0178655
715.607	0.0176484
715.685	0.0174741
715.763	0.0173022
715.841	0.0173140
715.919	0.0172459
715.997	0.0172742
716.075	0.0170390
716.154	0.0172059
716.232	0.0170908
716.310	0.0169675
716.388	0.0170024
716.466	0.0170326
716.544	0.0169482
716.622	0.0168137
716.700	0.0166141
716.779	0.0164653
716.857	0.0162978
716.935	0.0161878
717.013	0.0161897
717.091	0.0159899
717.169	0.0158024
717.247	0.0158825
717.325	0.0160413
717.404	0.0160423
717.482	0.0160694
717.560	0.0163045
717.638	0.0163943
717.716	0.0165644
717.794	0.0167961
717.872	0.0168656
717.950	0.0170084
718.029	0.0173279
718.107	0.0176289
718.185	0.0176785
718.263	0.0178361
718.341	0.0181368
718.419	0.0183548
718.497	0.0185986
718.575	0.0187086
718.654	0.0190154
718.732	0.0190775
718.810	0.0191344
718.888	0.0192633
718.966	0.0193654
719.044	0.0193533
719.122	0.0192107
719.200	0.0191743
719.279	0.0190780
719.357	0.0190065
719.435	0.0186940
719.513	0.0185781
719.591	0.0183959
719.669	0.0180927
719.747	0.0177366
719.825	0.0175217
719.904	0.0172356
719.982	0.0168716
720.060	0.0165668
720.138	0.0160963
720.216	0.0155960
720.294	0.0155463
720.372	0.0154026
720.450	0.0150723
720.529	0.0147496
720.607	0.0145856
720.685	0.0145731
720.763	0.0144196
720.841	0.0143883
720.919	0.0142251
720.997	0.0143724
721.075	0.0144196
721.154	0.0147060
721.232	0.0148776
721.310	0.0150231
721.388	0.0151897
721.466	0.0156850
721.544	0.0161639
721.622	0.0165153
721.700	0.0169221
721.779	0.0174664
721.857	0.0176342
721.935	0.0181904
722.013	0.0183900
722.091	0.0187951
722.169	0.0190428
722.247	0.0192924
722.325	0.0193011
722.404	0.0193353
722.482	0.0193177
722.560	0.0191707
722.638	0.0191039
722.716	0.0188811
722.794	0.0185920
722.872	0.0183894
722.950	0.0181020
723.029	0.0177336
723.107	0.0175309
723.185	0.0169730
723.263	0.0166879
723.341	0.0164576
723.419	0.0160459
723.497	0.0156927
723.575	0.0156407
723.654	0.0155001
723.732	0.0153735
723.810	0.0151875
723.888	0.0150501
723.966	0.0149444
724.044	0.0150307
724.122	0.0150442
724.200	0.0150736
724.279	0.0151550
724.357	0.0153197
724.435	0.0154036
724.513	0.0156932
724.591	0.0158825
724.669	0.0160349
724.747	0.0162382
724.825	0.0166318
724.904	0.0169772
724.982	0.0172459
725.060	0.0176440
725.138	0.0179131
725.216	0.0182632
725.294	0.0186563
725.372	0.0190111
725.450	0.0192833
725.529	0.0194512
725.607	0.0195802
725.685	0.0197576
725.763	0.0197472
725.841	0.0198494
725.919	0.0198956
725.997	0.0198304
726.075	0.0200738
726.154	0.0199216
726.232	0.0198328
726.310	0.0199559
726.388	0.0197327
726.466	0.0194974
726.544	0.0193346
726.622	0.0191584
726.700	0.0190163
726.779	0.0185198
726.857	0.0182458
726.935	0.0179231
727.013	0.0176421
727.091	0.0171159
727.169	0.0168495
727.247	0.0164988
727.325	0.0160036
727.404	0.0158639
727.482	0.0156400
727.560	0.0151109
727.638	0.0151222
727.716	0.0150128
727.794	0.0148949
727.872	0.0146178
727.950	0.0147084
728.029	0.0147318
728.107	0.0149187
728.185	0.0148656
728.263	0.0150408
728.341	0.0152421
728.419	0.0155263
728.497	0.0156139
728.575	0.0159981
728.654	0.0161903
728.732	0.0163653
728.810	0.0164369
728.888	0.0166857
728.966	0.0169839
729.044	0.0169868
729.122	0.0172194
729.200	0.0175266
729.279	0.0176073
729.357	0.0177499
729.435	0.0178764
729.513	0.0177489
729.591	0.0178924
729.669	0.0179211
729.747	0.0179471
729.825	0.0178750
729.904	0.0177009
729.982	0.0175869
730.060	0.0171883
730.138	0.0171344
730.216	0.0167825
730.294	0.0164760
730.372	0.0161588
730.450	0.0159008
730.529	0.0156088
730.607	0.0153802
730.685	0.0152496
730.763	0.0150926
730.841	0.0150597
730.919	0.0148068
730.997	0.0149329
731.075	0.0150797
731.154	0.0153567
731.232	0.0153069
731.310	0.0154627
731.388	0.0156046
731.466	0.0158043
731.544	0.0159811
731.622	0.0162487
731.700	0.0164987
731.779	0.0168802
731.857	0.0170448
731.935	0.0173587
732.013	0.0176855
732.091	0.0180193
732.169	0.0182181
732.247	0.0185616
732.325	0.0188280
732.404	0.0191084
732.482	0.0195068
732.560	0.0197296
732.638	0.0200889
732.716	0.0200651
732.794	0.0202942
732.872	0.0204374
732.950	0.0204395
733.029	0.0205640
733.107	0.0205148
733.185	0.0204650
733.263	0.0202979
733.341	0.0200574
733.419	0.0197400
733.497	0.0196436
733.575	0.0190935
733.654	0.0187309
733.732	0.0183118
733.810	0.0177492
733.888	0.0174157
733.966	0.0170373
734.044	0.0165286
734.122	0.0163198
734.200	0.0160324
734.279	0.0155352
734.357	0.0153239
734.435	0.0151614
734.513	0.0151219
734.591	0.0150016
734.669	0.0149974
734.747	0.0150402
734.825	0.0151006
734.904	0.0150575
734.982	0.0152306
735.060	0.0154446
735.138	0.0156248
735.216	0.0156820
735.294	0.0159377
735.372	0.0159470
735.450	0.0161504
735.529	0.0162198
735.607	0.0162539
735.685	0.0163439
735.763	0.0163828
735.841	0.0164252
735.919	0.0165460
735.997	0.0164872
736.075	0.0165909
736.154	0.0166656
736.232	0.0165954
736.310	0.0166116
736.388	0.0165553
736.466	0.0165035
736.544	0.0165388
736.622	0.0166756
736.700	0.0166289
736.779	0.0166447
736.857	0.0167152
736.935	0.0166650
737.013	0.0165536
737.091	0.0165752
737.169	0.0165697
737.247	0.0165363
737.325	0.0165230
737.404	0.0161781
737.482	0.0162743
737.560	0.0160487
737.638	0.0159732
737.716	0.0157700
737.794	0.0157793
737.872	0.0157354
737.950	0.0155534
738.029	0.0155625
738.107	0.0156709
738.185	0.0156763
738.263	0.0159813
738.341	0.0159988
738.419	0.0160609
738.497	0.0166033
738.575	0.0166235
738.654	0.0167735
738.732	0.0171463
738.810	0.0173855
738.888	0.0175391
738.966	0.0177993
739.044	0.0181122
739.122	0.0183550
739.200	0.0186658
739.279	0.0188921
739.357	0.0193233
739.435	0.0195256
739.513	0.0197132
739.591	0.0198924
739.669	0.0201112
739.747	0.0201422
739.825	0.0201503
739.904	0.0201450
739.982	0.0201275
740.060	0.0199190
740.138	0.0198148
740.216	0.0195594
740.294	0.0191856
740.372	0.0189389
740.450	0.0184956
740.529	0.0183763
740.607	0.0179007
740.685	0.0175936
740.763	0.0172885
740.841	0.0169408
740.919	0.0167435
740.997	0.0163420
741.075	0.0161671
741.154	0.0161028
741.232	0.0160879
741.310	0.0160501
741.388	0.0158119
741.466	0.0158889
741.544	0.0158969
741.622	0.0159595
741.700	0.0159027
741.779	0.0161198
741.857	0.0160894
741.935	0.0161475
742.013	0.0160443
742.091	0.0160930
742.169	0.0159689
742.247	0.0162158
742.325	0.0162247
742.404	0.0161491
742.482	0.0162067
742.560	0.0163309
742.638	0.0163000
742.716	0.0161899
742.794	0.0163628
742.872	0.0163572
742.950	0.0164137
743.029	0.0165847
743.107	0.0164857
743.185	0.0165390
743.263	0.0165737
743.341	0.0166052
743.419	0.0167426
743.497	0.0168058
743.575	0.0166485
743.654	0.0167420
743.732	0.0168148
743.810	0.0167158
743.888	0.0167563
743.966	0.0168275
744.044	0.0165731
744.122	0.0164503
744.200	0.0165753
744.279	0.0164245
744.357	0.0165080
744.435	0.0162680
744.513	0.0161949
744.591	0.0161956
744.669	0.0160928
744.747	0.0160732
744.825	0.0162010
744.904	0.0160426
744.982	0.0163141
745.060	0.0162554
745.138	0.0164819
745.216	0.0165272
745.294	0.0166749
745.372	0.0168527
745.450	0.0171107
745.529	0.0174065
745.607	0.0174986
745.685	0.0178172
745.763	0.0180257
745.841	0.0180785
745.919	0.0183647
745.997	0.0185995
746.075	0.0186430
746.154	0.0186805
746.232	0.0188080
746.310	0.0189095
746.388	0.0190131
746.466	0.0188552
746.544	0.0188973
746.622	0.0188200
746.700	0.0188455
746.779	0.0188277
746.857	0.0185676
746.935	0.0186397
747.013	0.0183435
747.091	0.0182820
747.169	0.0182571
747.247	0.0180522
747.325	0.0180759
747.404	0.0178965
747.482	0.0177055
747.560	0.0178033
747.638	0.0176102
747.716	0.0174850
747.794	0.0175617
747.872	0.0172379
747.950	0.0170831
748.029	0.0170568
748.107	0.0170156
748.185	0.0170017
748.263	0.0168721
748.341	0.0168932
748.419	0.0167906
748.497	0.0167401
748.575	0.0166117
748.654	0.0166197
748.732	0.0167139
748.810	0.0166137
748.888	0.0164371
748.966	0.0163470
749.044	0.0164694
749.122	0.0164551
749.200	0.0164188
749.279	0.0164239
749.357	0.0163363
749.435	0.0162752
749.513	0.0164054
749.591	0.0165201
749.669	0.0162861
749.747	0.0162582
749.825	0.0163983
749.904	0.0164442
749.982	0.0164237
750.060	0.0164298
750.138	0.0165787
750.216	0.0166061
750.294	0.0166273
750.372	0.0167399
750.450	0.0167815
750.529	0.0167702
750.607	0.0168426
750.685	0.0168736
750.763	0.0168436
750.841	0.0168211
750.919	0.0167799
750.997	0.0167422
751.075	0.0167563
751.154	0.0166666
751.232	0.0166949
751.310	0.0166800
751.388	0.0165501
751.466	0.0166163
751.544	0.0166144
751.622	0.0165309
751.700	0.0165060
751.779	0.0164149
751.857	0.0167335
751.935	0.0167638
752.013	0.0167418
752.091	0.0167113
752.169	0.0167708
752.247	0.0168008
752.325	0.0167860
752.404	0.0170250
752.482	0.0169657
752.560	0.0170481
752.638	0.0171288
752.716	0.0171649
752.794	0.0171462
752.872	0.0173656
752.950	0.0174180
753.029	0.0175143
753.107	0.0174474
753.185	0.0175031
753.263	0.0174284
753.341	0.0176527
753.419	0.0176173
753.497	0.0177174
753.575	0.0176359
753.654	0.0176517
753.732	0.0177096
753.810	0.0177853
753.888	0.0177023
753.966	0.0177637
754.044	0.0179053
754.122	0.0177124
754.200	0.0177996
754.279	0.0179359
754.357	0.0178706
754.435	0.0179553
754.513	0.0179561
754.591	0.0180067
754.669	0.0180061
754.747	0.0179895
754.825	0.0179471
754.904	0.0179070
754.982	0.0179025
755.060	0.0176796
755.138	0.0174898
755.216	0.0172918
755.294	0.0172885
755.372	0.0171272
755.450	0.0169956
755.529	0.0169048
755.607	0.0167826
755.685	0.0165985
755.763	0.0166220
755.841	0.0165384
755.919	0.0165475
755.997	0.0164867
756.075	0.0165258
756.154	0.0165401
756.232	0.0166120
756.310	0.0164771
756.388	0.0165295
756.466	0.0166563
756.544	0.0165350
756.622	0.0165666
756.700	0.0168635
756.779	0.0168018
756.857	0.0166362
756.935	0.0166863
757.013	0.0167642
757.091	0.0168459
757.169	0.0166141
757.247	0.0167731
757.325	0.0167520
757.404	0.0167990
757.482	0.0168835
757.560	0.0168795
757.638	0.0168981
757.716	0.0168464
757.794	0.0170227
757.872	0.0169282
757.950	0.0170226
758.029	0.0169086
758.107	0.0168837
758.185	0.0169168
758.263	0.0168472
758.341	0.0167317
758.419	0.0167715
758.497	0.0167816
758.575	0.0168400
758.654	0.0169260
758.732	0.0167510
758.810	0.0167952
758.888	0.0168392
758.966	0.0169424
759.044	0.0170643
759.122	0.0171568
759.200	0.0172023
759.279	0.0171053
759.357	0.0171380
759.435	0.0172322
759.513	0.0170576
759.591	0.0170699
759.669	0.0171377
759.747	0.0171709
759.825	0.0170924
759.904	0.0170266
759.982	0.0170477
760.060	0.0170403
760.138	0.0169925
760.216	0.0169387
760.294	0.0170804
760.372	0.0169800
760.450	0.0169426
760.529	0.0170901
760.607	0.0168848
760.685	0.0169270
760.763	0.0170673
760.841	0.0169198
760.919	0.0169144
760.997	0.0169926
761.075	0.0169998
761.154	0.0171088
761.232	0.0170843
761.310	0.0170403
761.388	0.0172001
761.466	0.0172322
761.544	0.0172926
761.622	0.0173411
761.700	0.0173871
761.779	0.0173338
761.857	0.0173196
761.935	0.0173207
762.013	0.0173757
762.091	0.0175295
762.169	0.0175959
762.247	0.0176558
762.325	0.0175565
762.404	0.0175725
762.482	0.0175232
762.560	0.0176892
762.638	0.0177001
762.716	0.0176868
762.794	0.0176331
762.872	0.0176012
762.950	0.0176328
763.029	0.0176352
763.107	0.0177336
763.185	0.0175114
763.263	0.0174410
763.341	0.0174216
763.419	0.0172671
763.497	0.0173003
763.575	0.0170943
763.654	0.0169009
763.732	0.0168588
763.810	0.0167645
763.888	0.0166133
763.966	0.0165088
764.044	0.0165038
764.122	0.0163080
764.200	0.0162270
764.279	0.0163626
764.357	0.0163792
764.435	0.0163652
764.513	0.0164518
764.591	0.0164154
764.669	0.0165663
764.747	0.0166422
764.825	0.0167665
764.904	0.0168628
764.982	0.0169348
765.060	0.0169638
765.138	0.0171337
765.216	0.0169411
765.294	0.0171251
765.372	0.0172560
765.450	0.0173445
765.529	0.0172344
765.607	0.0171461
765.685	0.0171836
765.763	0.0170332
765.841	0.0169083
765.919	0.0168224
765.997	0.0167917
766.075	0.0166688
766.154	0.0166956
766.232	0.0168707
766.310	0.0166781
766.388	0.0167726
766.466	0.0168153
766.544	0.0168833
766.622	0.0169009
766.700	0.0169118
766.779	0.0169914
766.857	0.0172462
766.935	0.0172375
767.013	0.0173323
767.091	0.0172320
767.169	0.0173525
767.247	0.0175102
767.325	0.0173182
767.404	0.0174449
767.482	0.0173151
767.560	0.0173061
767.638	0.0172440
767.716	0.0171397
767.794	0.0169204
767.872	0.0170541
767.950	0.0168092
768.029	0.0166681
768.107	0.0167439
768.185	0.0166902
768.263	0.0165117
768.341	0.0165839
768.419	0.0165430
768.497	0.0165759
768.575	0.0167379
768.654	0.0167784
768.732	0.0168256
768.810	0.0168250
768.888	0.0169267
768.966	0.0169683
769.044	0.0170375
769.122	0.0171667
769.200	0.0173688
769.279	0.0172977
769.357	0.0175143
769.435	0.0175993
769.513	0.0175698
769.591	0.0177268
769.669	0.0176665
769.747	0.0177510
769.825	0.0177108
769.904	0.0176934
769.982	0.0176668
770.060	0.0174426
770.138	0.0175534
770.216	0.0175225
770.294	0.0174813
770.372	0.0172664
770.450	0.0172732
770.529	0.0171025
770.607	0.0172336
770.685	0.0171165
770.763	0.0169500
770.841	0.0170014
770.919	0.0170486
770.997	0.0170484
771.075	0.0169717
771.154	0.0168875
771.232	0.0169436
771.310	0.0169825
771.388	0.0170908
771.466	0.0169074
771.544	0.0169868
771.622	0.0168559
771.700	0.0168994
771.779	0.0170512
771.857	0.0170646
771.935	0.0170442
772.013	0.0169643
772.091	0.0172128
772.169	0.0169785
772.247	0.0169511
772.325	0.0170555
772.404	0.0168705
772.482	0.0169310
772.560	0.0169096
772.638	0.0169126
772.716	0.0169255
772.794	0.0169043
772.872	0.0169544
772.950	0.0169370
773.029	0.0171033
773.107	0.0171102
773.185	0.0171353
773.263	0.0169839
773.341	0.0169858
773.419	0.0169345
773.497	0.0170399
773.575	0.0170991
773.654	0.0172163
773.732	0.0169542
773.810	0.0169359
773.888	0.0170317
773.966	0.0171336
774.044	0.0170324
774.122	0.0169518
774.200	0.0167818
774.279	0.0169497
774.357	0.0168987
774.435	0.0167996
774.513	0.0167088
774.591	0.0167199
774.669	0.0166371
774.747	0.0166914
774.825	0.0165540
774.904	0.0167355
774.982	0.0167422
775.060	0.0166214
775.138	0.0165717
775.216	0.0165910
775.294	0.0167870
775.372	0.0166496
775.450	0.0167443
775.529	0.0166811
775.607	0.0167111
775.685	0.0169012
775.763	0.0169122
775.841	0.0169302
775.919	0.0171128
775.997	0.0171719
776.075	0.0172601
776.154	0.0172459
776.232	0.0172972
776.310	0.0173092
776.388	0.0172773
776.466	0.0172993
776.544	0.0171774
776.622	0.0171344
776.700	0.0171588
776.779	0.0171416
776.857	0.0170241
776.935	0.0171375
777.013	0.0170390
777.091	0.0169698
777.169	0.0169660
777.247	0.0170206
777.325	0.0170350
777.404	0.0169603
777.482	0.0169036
777.560	0.0170990
777.638	0.0171828
777.716	0.0172236
777.794	0.0173003
777.872	0.0171762
777.950	0.0172948
778.029	0.0173933
778.107	0.0172921
778.185	0.0173209
778.263	0.0174652
778.341	0.0174605
778.419	0.0173280
778.497	0.0172255
778.575	0.0172683
778.654	0.0170689
778.732	0.0170934
778.810	0.0170824
778.888	0.0169512
778.966	0.0168208
779.044	0.0167867
779.122	0.0167777
779.200	0.0167388
779.279	0.0166070
779.357	0.0166088
779.435	0.0165684
779.513	0.0166963
779.591	0.0167415
779.669	0.0167316
779.747	0.0166945
779.825	0.0168286
779.904	0.0169577
779.982	0.0169244
780.060	0.0170921
780.138	0.0171362
780.216	0.0171690
780.294	0.0170753
780.372	0.0172610
780.450	0.0172042
780.529	0.0174339
780.607	0.0172482
780.685	0.0171570
780.763	0.0171492
780.841	0.0170411
780.919	0.0169839
780.997	0.0170080
781.075	0.0169297
781.154	0.0168431
781.232	0.0168012
781.310	0.0166800
781.388	0.0165720
781.466	0.0164883
781.544	0.0166385
781.622	0.0164980
781.700	0.0165355
781.779	0.0164065
781.857	0.0165127
781.935	0.0165024
782.013	0.0163251
782.091	0.0165601
782.169	0.0166071
782.247	0.0166354
782.325	0.0165895
782.404	0.0167873
782.482	0.0168199
782.560	0.0168841
782.638	0.0168263
782.716	0.0167862
782.794	0.0169843
782.872	0.0169395
782.950	0.0170177
783.029	0.0170951
783.107	0.0171590
783.185	0.0170823
783.263	0.0170703
783.341	0.0170506
783.419	0.0171361
783.497	0.0168795
783.575	0.0168793
783.654	0.0168249
783.732	0.0170300
783.810	0.0168457
783.888	0.0169128
783.966	0.0170628
784.044	0.0167848
784.122	0.0167234
784.200	0.0165983
784.279	0.0168607
784.357	0.0168668
784.435	0.0168188
784.513	0.0168980
784.591	0.0170295
784.669	0.0169758
784.747	0.0171199
784.825	0.0171801
784.904	0.0173628
784.982	0.0174090
785.060	0.0174396
785.138	0.0173174
785.216	0.0174180
785.294	0.0174391
785.372	0.0173802
785.450	0.0174032
785.529	0.0174100
785.607	0.0173779
785.685	0.0173588
785.763	0.0172713
785.841	0.0172685
785.919	0.0173003
785.997	0.0171765
786.075	0.0171169
786.154	0.0169561
786.232	0.0170146
786.310	0.0171027
786.388	0.0169876
786.466	0.0170609
786.544	0.0171008
786.622	0.0171311
786.700	0.0169424
786.779	0.0170239
786.857	0.0168967
786.935	0.0170979
787.013	0.0169853
787.091	0.0170364
787.169	0.0169913
787.247	0.0170190
787.325	0.0170010
787.404	0.0169860
787.482	0.0169837
787.560	0.0169704
787.638	0.0169675
787.716	0.0170996
787.794	0.0170020
787.872	0.0170148
787.950	0.0171142
788.029	0.0169930
788.107	0.0170786
788.185	0.0168301
788.263	0.0169503
788.341	0.0170206
788.419	0.0170837
788.497	0.0169250
788.575	0.0169417
788.654	0.0170336
788.732	0.0168827
788.810	0.0170780
788.888	0.0170979
788.966	0.0170227
789.044	0.0170469
789.122	0.0170429
789.200	0.0171269
789.279	0.0172043
789.357	0.0170291
789.435	0.0172985
789.513	0.0171552
789.591	0.0172285
789.669	0.0172919
789.747	0.0172283
789.825	0.0171908
789.904	0.0172919
789.982	0.0171989
790.060	0.0170551
790.138	0.0171587
790.216	0.0171894
790.294	0.0172720
790.372	0.0172215
790.450	0.0171522
790.529	0.0170054
790.607	0.0170786
790.685	0.0171616
790.763	0.0170696
790.841	0.0170654
790.919	0.0169669
790.997	0.0171030
791.075	0.0169556
791.154	0.0169617
791.232	0.0170000
791.310	0.0169840
791.388	0.0169740
791.466	0.0168494
791.544	0.0169260
791.622	0.0170356
791.700	0.0169946
791.779	0.0170063
791.857	0.0169437
791.935	0.0169687
792.013	0.0168005
792.091	0.0168281
792.169	0.0168802
792.247	0.0171242
792.325	0.0170099
792.404	0.0169197
792.482	0.0170367
792.560	0.0171225
792.638	0.0172092
792.716	0.0171170
792.794	0.0171194
792.872	0.0171239
792.950	0.0171937
793.029	0.0172528
793.107	0.0173071
793.185	0.0173689
793.263	0.0173902
793.341	0.0173367
793.419	0.0173853
793.497	0.0174689
793.575	0.0174225
793.654	0.0174187
793.732	0.0173528
793.810	0.0175017
793.888	0.0175183
793.966	0.0175314
794.044	0.0174522
794.122	0.0174519
794.200	0.0174184
794.279	0.0173431
794.357	0.0171964
794.435	0.0172858
794.513	0.0170972
794.591	0.0171309
794.669	0.0169911
794.747	0.0170319
794.825	0.0169576
794.904	0.0168604
794.982	0.0168806
795.060	0.0169087
795.138	0.0168014
795.216	0.0166003
795.294	0.0167009
795.372	0.0167699
795.450	0.0167142
795.529	0.0167152
795.607	0.0167471
795.685	0.0167434
795.763	0.0167047
795.841	0.0168097
795.919	0.0168536
795.997	0.0169952
796.075	0.0170255
796.154	0.0170300
796.232	0.0170352
796.310	0.0171458
796.388	0.0172121
796.466	0.0171126
796.544	0.0170335
796.622	0.0170553
796.700	0.0170544
796.779	0.0172015
796.857	0.0170564
796.935	0.0171262
797.013	0.0171117
797.091	0.0169308
797.169	0.0170170
797.247	0.0168720
797.325	0.0167996
797.404	0.0168753
797.482	0.0168777
797.560	0.0168109
797.638	0.0167523
797.716	0.0169588
797.794	0.0170188
797.872	0.0169633
797.950	0.0167743
798.029	0.0170046
798.107	0.0170241
798.185	0.0170261
798.263	0.0170317
798.341	0.0169981
798.419	0.0170793
798.497	0.0170753
798.575	0.0172103
798.654	0.0170109
798.732	0.0170568
798.810	0.0169431
798.888	0.0169185
798.966	0.0169725
799.044	0.0169265
799.122	0.0168164
799.200	0.0168397
799.279	0.0167024
799.357	0.0168339
799.435	0.0166200
799.513	0.0166912
799.591	0.0167014
799.669	0.0166380
799.747	0.0166574
799.825	0.0165499
799.904	0.0167434
799.982	0.0169257
800.060	0.0168064
800.138	0.0168922
800.216	0.0168951
800.294	0.0170020
800.372	0.0171000
800.450	0.0170573
800.529	0.0170596
800.607	0.0173414
800.685	0.0174438
800.763	0.0173410
800.841	0.0174299
800.919	0.0175671
800.997	0.0173959
801.075	0.0174326
801.154	0.0175103
801.232	0.0174486
801.310	0.0173803
801.388	0.0173521
801.466	0.0173825
801.544	0.0173290
801.622	0.0172194
801.700	0.0172692
801.779	0.0171001
801.857	0.0171511
801.935	0.0170683
802.013	0.0171087
802.091	0.0170181
802.169	0.0170247
802.247	0.0168115
802.325	0.0169887
802.404	0.0169588
802.482	0.0168539
802.560	0.0169015
802.638	0.0168291
802.716	0.0168791
802.794	0.0167945
802.872	0.0168928
802.950	0.0169536
803.029	0.0168676
803.107	0.0170108
803.185	0.0168613
803.263	0.0167885
803.341	0.0167960
803.419	0.0169106
803.497	0.0167886
803.575	0.0168802
803.654	0.0167802
803.732	0.0168526
803.810	0.0168430
803.888	0.0168600
803.966	0.0168439
804.044	0.0168669
804.122	0.0169205
804.200	0.0169196
804.279	0.0168350
804.357	0.0169557
804.435	0.0169104
804.513	0.0168656
804.591	0.0170183
804.669	0.0169457
804.747	0.0168257
804.825	0.0169619
804.904	0.0170444
804.982	0.0171581
805.060	0.0169556
805.138	0.0171588
805.216	0.0172044
805.294	0.0170461
805.372	0.0171514
805.450	0.0170351
805.529	0.0170123
805.607	0.0172044
805.685	0.0172472
805.763	0.0173264
805.841	0.0171838
805.919	0.0172119
805.997	0.0172321
806.075	0.0170332
806.154	0.0171471
806.232	0.0170917
806.310	0.0169507
806.388	0.0169251
806.466	0.0170264
806.544	0.0168656
806.622	0.0168070
806.700	0.0170119
806.779	0.0168241
806.857	0.0167354
806.935	0.0167120
807.013	0.0167545
807.091	0.0168372
807.169	0.0169127
807.247	0.0168172
807.325	0.0167347
807.404	0.0167374
807.482	0.0168626
807.560	0.0168439
807.638	0.0169760
807.716	0.0169565
807.794	0.0170014
807.872	0.0170408
807.950	0.0170397
808.029	0.0171101
808.107	0.0169948
808.185	0.0170004
808.263	0.0170181
808.341	0.0171588
808.419	0.0170197
808.497	0.0171216
808.575	0.0170922
808.654	0.0170888
808.732	0.0170374
808.810	0.0171343
808.888	0.0169251
808.966	0.0170964
809.044	0.0171414
809.122	0.0169861
809.200	0.0170038
809.279	0.0170444
809.357	0.0170013
809.435	0.0171405
809.513	0.0170142
809.591	0.0170074
809.669	0.0170494
809.747	0.0170945
809.825	0.0168955
809.904	0.0170139
809.982	0.0169588
810.060	0.0169691
810.138	0.0170211
810.216	0.0171138
810.294	0.0168937
810.372	0.0169224
810.450	0.0170124
810.529	0.0169986
810.607	0.0170343
810.685	0.0171761
810.763	0.0170670
810.841	0.0170194
810.919	0.0169939
810.997	0.0171160
811.075	0.0170629
811.154	0.0169424
811.232	0.0170151
811.310	0.0170441
811.388	0.0170335
811.466	0.0170035
811.544	0.0170016
811.622	0.0170293
811.700	0.0171561
811.779	0.0172401
811.857	0.0171938
811.935	0.0171139
812.013	0.0170824
812.091	0.0171634
812.169	0.0171613
812.247	0.0171984
812.325	0.0172860
812.404	0.0170917
812.482	0.0170712
812.560	0.0172622
812.638	0.0172546
812.716	0.0171930
812.794	0.0171042
812.872	0.0171651
812.950	0.0170531
813.029	0.0170538
813.107	0.0171579
813.185	0.0170334
813.263	0.0170442
813.341	0.0171352
813.419	0.0172295
813.497	0.0170976
813.575	0.0171010
813.654	0.0171144
813.732	0.0170073
813.810	0.0169831
813.888	0.0170039
813.966	0.0170966
814.044	0.0170813
814.122	0.0170361
814.200	0.0170795
814.279	0.0171857
814.357	0.0172184
814.435	0.0170093
814.513	0.0171082
814.591	0.0172709
814.669	0.0172819
814.747	0.0172394
814.825	0.0173576
814.904	0.0170934
814.982	0.0172592
815.060	0.0172926
815.138	0.0174043
815.216	0.0171715
815.294	0.0171828
815.372	0.0172466
815.450	0.0171967
815.529	0.0172890
815.607	0.0170744
815.685	0.0169644
815.763	0.0172265
815.841	0.0170338
815.919	0.0170339
815.997	0.0170203
816.075	0.0170514
816.154	0.0171508
816.232	0.0170815
816.310	0.0168980
816.388	0.0171401
816.466	0.0171007
816.544	0.0171651
816.622	0.0170331
816.700	0.0171862
816.779	0.0170710
816.857	0.0170712
816.935	0.0171913
817.013	0.0171995
817.091	0.0170231
817.169	0.0169541
817.247	0.0170041
817.325	0.0169669
817.404	0.0168852
817.482	0.0169488
817.560	0.0169350
817.638	0.0168163
817.716	0.0168069
817.794	0.0167377
817.872	0.0168104
817.950	0.0167901
818.029	0.0168941
818.107	0.0168886
818.185	0.0170824
818.263	0.0170313
818.341	0.0171769
818.419	0.0172962
818.497	0.0173115
818.575	0.0172754
818.654	0.0174470
818.732	0.0174947
818.810	0.0174943
818.888	0.0175415
818.966	0.0174957
819.044	0.0174776
819.122	0.0174659
819.200	0.0173824
819.279	0.0173248
819.357	0.0171954
819.435	0.0170841
819.513	0.0170039
819.591	0.0171787
819.669	0.0169407
819.747	0.0168720
819.825	0.0169506
819.904	0.0170098
819.982	0.0168425
820.060	0.0168195
820.138	0.0168517
820.216	0.0168604
820.294	0.0167635
820.372	0.0167374
820.450	0.0170132
820.529	0.0168962
820.607	0.0169805
820.685	0.0170992
820.763	0.0170040
820.841	0.0169772
820.919	0.0171282
820.997	0.0171794
821.075	0.0170730
821.154	0.0170395
821.232	0.0171356
821.310	0.0171032
821.388	0.0171791
821.466	0.0172345
821.544	0.0173028
821.622	0.0173418
821.700	0.0173417
821.779	0.0173846
821.857	0.0174730
821.935	0.0173530
822.013	0.0173322
822.091	0.0172480
822.169	0.0172794
822.247	0.0173182
822.325	0.0172866
822.404	0.0173206
822.482	0.0172815
822.560	0.0171912
822.638	0.0172775
822.716	0.0173569
822.794	0.0173536
822.872	0.0171973
822.950	0.0173006
823.029	0.0173184
823.107	0.0173653
823.185	0.0172377
823.263	0.0172317
823.341	0.0173064
823.419	0.0172602
823.497	0.0170999
823.575	0.0170859
823.654	0.0169469
823.732	0.0170069
823.810	0.0170932
823.888	0.0170653
823.966	0.0170578
824.044	0.0169136
824.122	0.0169135
824.200	0.0167867
824.279	0.0168998
824.357	0.0167865
824.435	0.0167255
824.513	0.0167319
824.591	0.0168581
824.669	0.0168810
824.747	0.0167728
824.825	0.0169059
824.904	0.0168462
824.982	0.0170102
825.060	0.0169572
825.138	0.0169573
825.216	0.0170744
825.294	0.0170265
825.372	0.0170743
825.450	0.0169701
825.529	0.0170338
825.607	0.0170249
825.685	0.0170004
825.763	0.0170512
825.841	0.0171011
825.919	0.0171362
825.997	0.0172446
826.075	0.0172646
826.154	0.0171960
826.232	0.0171468
826.310	0.0172016
826.388	0.0170569
826.466	0.0170789
826.544	0.0171625
826.622	0.0170501
826.700	0.0170097
826.779	0.0169018
826.857	0.0168774
826.935	0.0168597
827.013	0.0167427
827.091	0.0169125
827.169	0.0169406
827.247	0.0166820
827.325	0.0168726
827.404	0.0169134
827.482	0.0170004
827.560	0.0170180
827.638	0.0169477
827.716	0.0170447
827.794	0.0171015
827.872	0.0170273
827.950	0.0170711
828.029	0.0172091
828.107	0.0170980
828.185	0.0172913
828.263	0.0171412
828.341	0.0172767
828.419	0.0173538
828.497	0.0172063
828.575	0.0172652
828.654	0.0172623
828.732	0.0173024
828.810	0.0172833
828.888	0.0172213
828.966	0.0171929
829.044	0.0172877
829.122	0.0172377
829.200	0.0172746
829.279	0.0172378
829.357	0.0171338
829.435	0.0170853
829.513	0.0172742
829.591	0.0171288
829.669	0.0172144
829.747	0.0173291
829.825	0.0171590
829.904	0.0171638
829.982	0.0171880
830.060	0.0173363
830.138	0.0172565
830.216	0.0173014
830.294	0.0172742
830.372	0.0171076
830.450	0.0170882
830.529	0.0172165
830.607	0.0171047
830.685	0.0170905
830.763	0.0168880
830.841	0.0168707
830.919	0.0167979
830.997	0.0167700
831.075	0.0166946
831.154	0.0167913
831.232	0.0165862
831.310	0.0167310
831.388	0.0167399
831.466	0.0166966
831.544	0.0166722
831.622	0.0167444
831.700	0.0167645
831.779	0.0168894
831.857	0.0169210
831.935	0.0167365
832.013	0.0168483
832.091	0.0169412
832.169	0.0171110
832.247	0.0168487
832.325	0.0168891
832.404	0.0169572
832.482	0.0168977
832.560	0.0168892
832.638	0.0170029
832.716	0.0168898
832.794	0.0168192
832.872	0.0167504
832.950	0.0168896
833.029	0.0168086
833.107	0.0167765
833.185	0.0168899
833.263	0.0169284
833.341	0.0169415
833.419	0.0168426
833.497	0.0170017
833.575	0.0169882
833.654	0.0171167
833.732	0.0170188
833.810	0.0169843
833.888	0.0171842
833.966	0.0171370
834.044	0.0171803
834.122	0.0169038
834.200	0.0168932
834.279	0.0169771
834.357	0.0169477
834.435	0.0169836
834.513	0.0168623
834.591	0.0169350
834.669	0.0170254
834.747	0.0169939
834.825	0.0169486
834.904	0.0169252
834.982	0.0169540
835.060	0.0169198
835.138	0.0170638
835.216	0.0169946
835.294	0.0169195
835.372	0.0171243
835.450	0.0171299
835.529	0.0171608
835.607	0.0171684
835.685	0.0170901
835.763	0.0171219
835.841	0.0172710
835.919	0.0171342
835.997	0.0172118
836.075	0.0172744
836.154	0.0173233
836.232	0.0172066
836.310	0.0171680
836.388	0.0171841
836.466	0.0172796
836.544	0.0173434
836.622	0.0172522
836.700	0.0172720
836.779	0.0172337
836.857	0.0172682
836.935	0.0173090
837.013	0.0172643
837.091	0.0172119
837.169	0.0172011
837.247	0.0171858
837.325	0.0172549
837.404	0.0172245
837.482	0.0170310
837.560	0.0171168
837.638	0.0171523
837.716	0.0170573
837.794	0.0169920
837.872	0.0169266
837.950	0.0169893
838.029	0.0170216
838.107	0.0169408
838.185	0.0169254
838.263	0.0168858
838.341	0.0168948
838.419	0.0169736
838.497	0.0167673
838.575	0.0167258
838.654	0.0168953
838.732	0.0168522
838.810	0.0167510
838.888	0.0166503
838.966	0.0168951
839.044	0.0169290
839.122	0.0167844
839.200	0.0167996
839.279	0.0168395
839.357	0.0166799
839.435	0.0167619
839.513	0.0168124
839.591	0.0168893
839.669	0.0168676
839.747	0.0168764
839.825	0.0170004
839.904	0.0169705
839.982	0.0170229
840.060	0.0170775
840.138	0.0169406
840.216	0.0168945
840.294	0.0171069
840.372	0.0172266
840.450	0.0170393
840.529	0.0172159
840.607	0.0171400
840.685	0.0172054
840.763	0.0172305
840.841	0.0173376
840.919	0.0170405
840.997	0.0173048
841.075	0.0171628
841.154	0.0172797
841.232	0.0170874
841.310	0.0172523
841.388	0.0171865
841.466	0.0172623
841.544	0.0173294
841.622	0.0173069
841.700	0.0171878
841.779	0.0171685
841.857	0.0172823
841.935	0.0172432
842.013	0.0172225
842.091	0.0172521
842.169	0.0173500
842.247	0.0171530
842.325	0.0170753
842.404	0.0170789
842.482	0.0171647
842.560	0.0171696
842.638	0.0172178
842.716	0.0170586
842.794	0.0171325
842.872	0.0170415
842.950	0.0171315
843.029	0.0171768
843.107	0.0171379
843.185	0.0171799
843.263	0.0173288
843.341	0.0171963
843.419	0.0172034
843.497	0.0171690
843.575	0.0172469
843.654	0.0174472
843.732	0.0172660
843.810	0.0173761
843.888	0.0173449
843.966	0.0173301
844.044	0.0173119
844.122	0.0173039
844.200	0.0173400
844.279	0.0173888
844.357	0.0173617
844.435	0.0172494
844.513	0.0172311
844.591	0.0172867
844.669	0.0171101
844.747	0.0173455
844.825	0.0171232
844.904	0.0172020
844.982	0.0171005
845.060	0.0171053
845.138	0.0170057
845.216	0.0171152
845.294	0.0170761
845.372	0.0169747
845.450	0.0170983
845.529	0.0171664
845.607	0.0170288
845.685	0.0169509
845.763	0.0169083
845.841	0.0169950
845.919	0.0169025
845.997	0.0169254
846.075	0.0168941
846.154	0.0168556
846.232	0.0169102
846.310	0.0170286
846.388	0.0168497
846.466	0.0168930
846.544	0.0169511
846.622	0.0169218
846.700	0.0168536
846.779	0.0167977
846.857	0.0167842
846.935	0.0169952
847.013	0.0169646
847.091	0.0167950
847.169	0.0169204
847.247	0.0169016
847.325	0.0169613
847.404	0.0168883
847.482	0.0169273
847.560	0.0168818
847.638	0.0168339
847.716	0.0170674
847.794	0.0170814
847.872	0.0170364
847.950	0.0170078
848.029	0.0170577
848.107	0.0173140
848.185	0.0172314
848.263	0.0170931
848.341	0.0171449
848.419	0.0172487
848.497	0.0173213
848.575	0.0172251
848.654	0.0173373
848.732	0.0172613
848.810	0.0173189
848.888	0.0171992
848.966	0.0173030
849.044	0.0173331
849.122	0.0173802
849.200	0.0173174
849.279	0.0171850
849.357	0.0173056
849.435	0.0173099
849.513	0.0172151
849.591	0.0171951
849.669	0.0171677
849.747	0.0173271
849.825	0.0171861
849.904	0.0170085
849.982	0.0171294
850.060	0.0173752
850.138	0.0170975
850.216	0.0170615
850.294	0.0171124
850.372	0.0172221
850.450	0.0171898
850.529	0.0171734
850.607	0.0172154
850.685	0.0170287
850.763	0.0171113
850.841	0.0170224
850.919	0.0170009
850.997	0.0171830
851.075	0.0172061
851.154	0.0171859
851.232	0.0171226
851.310	0.0171010
851.388	0.0169445
851.466	0.0171715
851.544	0.0171769
851.622	0.0170847
851.700	0.0170335
851.779	0.0169705
851.857	0.0170689
851.935	0.0171620
852.013	0.0169794
852.091	0.0170892
852.169	0.0171159
852.247	0.0170882
852.325	0.0170853
852.404	0.0170716
852.482	0.0171088
852.560	0.0170014
852.638	0.0170730
852.716	0.0170238
852.794	0.0171304
852.872	0.0169829
852.950	0.0169702
853.029	0.0170563
853.107	0.0169582
853.185	0.0170727
853.263	0.0170351
853.341	0.0170315
853.419	0.0169869
853.497	0.0170176
853.575	0.0168807
853.654	0.0170060
853.732	0.0171433
853.810	0.0169910
853.888	0.0170179
853.966	0.0169347
854.044	0.0170959
854.122	0.0170320
854.200	0.0169944
854.279	0.0169848
854.357	0.0171278
854.435	0.0172745
854.513	0.0171075
854.591	0.0170068
854.669	0.0170960
854.747	0.0170094
854.825	0.0170417
854.904	0.0171503
854.982	0.0171872
855.060	0.0171229
855.138	0.0171630
855.216	0.0170594
855.294	0.0171783
855.372	0.0171814
855.450	0.0171229
855.529	0.0171414
855.607	0.0171680
855.685	0.0171265
855.763	0.0170802
855.841	0.0172005
855.919	0.0172773
855.997	0.0171615
856.075	0.0170109
856.154	0.0169970
856.232	0.0170971
856.310	0.0169585
856.388	0.0170038
856.466	0.0171355
856.544	0.0171819
856.622	0.0171798
856.700	0.0170279
856.779	0.0169932
856.857	0.0171313
856.935	0.0169051
857.013	0.0169276
857.091	0.0169680
857.169	0.0170215
857.247	0.0169881
857.325	0.0170158
857.404	0.0169193
857.482	0.0168114
857.560	0.0168235
857.638	0.0167254
857.716	0.0168630
857.794	0.0168718
857.872	0.0168784
857.950	0.0169175
858.029	0.0169769
858.107	0.0169742
858.185	0.0170377
858.263	0.0170260
858.341	0.0168914
858.419	0.0171249
858.497	0.0170686
858.575	0.0170724
858.654	0.0171170
858.732	0.0170427
858.810	0.0170393
858.888	0.0169298
858.966	0.0170138
859.044	0.0170204
859.122	0.0169865
859.200	0.0167977
859.279	0.0170169
859.357	0.0170245
859.435	0.0168879
859.513	0.0169545
859.591	0.0171703
859.669	0.0171140
859.747	0.0170524
859.825	0.0170847
859.904	0.0170389
859.982	0.0169396
860.060	0.0169010
860.138	0.0170043
860.216	0.0170151
860.294	0.0169733
860.372	0.0169643
860.450	0.0169690
860.529	0.0170194
860.607	0.0169460
860.685	0.0170144
860.763	0.0170110
860.841	0.0170203
860.919	0.0170586
860.997	0.0169285
861.075	0.0170311
861.154	0.0168698
861.232	0.0170016
861.310	0.0168471
861.388	0.0169046
861.466	0.0169212
861.544	0.0168723
861.622	0.0170169
861.700	0.0168229
861.779	0.0167360
861.857	0.0168853
861.935	0.0168071
862.013	0.0169994
862.091	0.0168958
862.169	0.0168565
862.247	0.0169395
862.325	0.0168890
862.404	0.0169377
862.482	0.0168755
862.560	0.0168224
862.638	0.0168615
862.716	0.0168142
862.794	0.0168745
862.872	0.0169865
862.950	0.0168867
863.029	0.0170178
863.107	0.0169390
863.185	0.0170271
863.263	0.0170344
863.341	0.0169607
863.419	0.0168697
863.497	0.0170033
863.575	0.0168976
863.654	0.0168278
863.732	0.0168181
863.810	0.0167744
863.888	0.0168822
863.966	0.0167770
864.044	0.0168201
864.122	0.0169582
864.200	0.0168645
864.279	0.0167794
864.357	0.0169054
864.435	0.0169530
864.513	0.0169593
864.591	0.0170518
864.669	0.0171223
864.747	0.0170799
864.825	0.0171164
864.904	0.0172337
864.982	0.0171576
865.060	0.0170684
865.138	0.0170776
865.216	0.0169512
865.294	0.0171727
865.372	0.0170747
865.450	0.0171157
865.529	0.0171657
865.607	0.0169218
865.685	0.0171166
865.763	0.0169336
865.841	0.0169587
865.919	0.0169357
865.997	0.0168552
866.075	0.0167816
866.154	0.0167265
866.232	0.0169057
866.310	0.0168544
866.388	0.0168941
866.466	0.0170174
866.544	0.0170396
866.622	0.0168909
866.700	0.0169640
866.779	0.0171394
866.857	0.0170784
866.935	0.0171983
867.013	0.0172095
867.091	0.0170364
867.169	0.0171793
867.247	0.0172179
867.325	0.0172604
867.404	0.0171906
867.482	0.0171233
867.560	0.0173487
867.638	0.0173130
867.716	0.0172375
867.794	0.0170038
867.872	0.0172150
867.950	0.0171593
868.029	0.0171654
868.107	0.0171999
868.185	0.0172277
868.263	0.0171939
868.341	0.0172115
868.419	0.0172615
868.497	0.0172348
868.575	0.0173874
868.654	0.0172744
868.732	0.0172015
868.810	0.0171814
868.888	0.0171990
868.966	0.0172498
869.044	0.0171597
869.122	0.0171644
869.200	0.0171970
869.279	0.0170975
869.357	0.0170847
869.435	0.0170747
869.513	0.0170544
869.591	0.0170332
869.669	0.0168626
869.747	0.0170300
869.825	0.0170122
869.904	0.0171252
869.982	0.0171135
870.060	0.0170460
870.138	0.0171130
870.216	0.0170287
870.294	0.0170904
870.372	0.0171241
870.450	0.0171245
870.529	0.0171609
870.607	0.0170435
870.685	0.0170384
870.763	0.0173003
870.841	0.0171257
870.919	0.0170951
870.997	0.0170986
871.075	0.0171246
871.154	0.0170740
871.232	0.0170692
871.310	0.0171056
871.388	0.0172740
871.466	0.0172095
871.544	0.0171364
871.622	0.0172958
871.700	0.0170807
871.779	0.0171444
871.857	0.0173248
871.935	0.0172866
872.013	0.0172636
872.091	0.0172742
872.169	0.0170963
872.247	0.0171294
872.325	0.0172062
872.404	0.0170926
872.482	0.0170648
872.560	0.0172637
872.638	0.0171060
872.716	0.0171422
872.794	0.0170646
872.872	0.0170297
872.950	0.0171418
873.029	0.0172048
873.107	0.0170853
873.185	0.0171004
873.263	0.0170227
873.341	0.0170432
873.419	0.0171945
873.497	0.0170457
873.575	0.0171236
873.654	0.0171374
873.732	0.0169347
873.810	0.0170586
873.888	0.0171325
873.966	0.0171266
874.044	0.0169870
874.122	0.0171409
874.200	0.0170575
874.279	0.0170140
874.357	0.0171977
874.435	0.0170565
874.513	0.0170992
874.591	0.0172070
874.669	0.0171193
874.747	0.0170649
874.825	0.0172653
874.904	0.0173260
874.982	0.0172247
875.060	0.0172032
875.138	0.0171712
875.216	0.0171324
875.294	0.0170429
875.372	0.0170547
875.450	0.0170355
875.529	0.0169526
875.607	0.0169476
875.685	0.0171416
875.763	0.0171046
875.841	0.0170246
875.919	0.0170876
875.997	0.0170923
876.075	0.0171043
876.154	0.0171024
876.232	0.0170486
876.310	0.0169470
876.388	0.0169254
876.466	0.0169256
876.544	0.0169823
876.622	0.0170335
876.700	0.0169563
876.779	0.0169282
876.857	0.0169673
876.935	0.0169358
877.013	0.0169087
877.091	0.0169374
877.169	0.0169672
877.247	0.0169194
877.325	0.0169774
877.404	0.0170067
877.482	0.0170006
877.560	0.0168465
877.638	0.0170256
877.716	0.0169616
877.794	0.0169934
877.872	0.0168105
877.950	0.0169969
878.029	0.0169231
878.107	0.0169354
878.185	0.0169554
878.263	0.0170084
878.341	0.0167036
878.419	0.0167304
878.497	0.0169236
878.575	0.0170042
878.654	0.0169170
878.732	0.0168412
878.810	0.0168742
878.888	0.0168916
878.966	0.0168855
879.044	0.0168269
879.122	0.0168808
879.200	0.0168760
879.279	0.0169425
879.357	0.0168585
879.435	0.0168716
879.513	0.0168282
879.591	0.0168685
879.669	0.0168166
879.747	0.0168800
879.825	0.0168697
879.904	0.0168699
879.982	0.0168842
880.060	0.0169527
880.138	0.0168220
880.216	0.0168554
880.294	0.0169640
880.372	0.0169131
880.450	0.0168227
880.529	0.0169144
880.607	0.0169958
880.685	0.0170329
880.763	0.0171419
880.841	0.0170050
880.919	0.0171330
880.997	0.0170650
881.075	0.0172273
881.154	0.0170640
881.232	0.0170827
881.310	0.0169695
881.388	0.0169978
881.466	0.0169485
881.544	0.0169387
881.622	0.0170097
881.700	0.0168552
881.779	0.0169676
881.857	0.0169822
881.935	0.0169808
882.013	0.0170002
882.091	0.0168967
882.169	0.0169154
882.247	0.0170327
882.325	0.0170680
882.404	0.0170131
882.482	0.0169659
882.560	0.0169509
882.638	0.0170004
882.716	0.0169983
882.794	0.0170845
882.872	0.0168636
882.950	0.0169981
883.029	0.0168867
883.107	0.0169035
883.185	0.0168796
883.263	0.0167389
883.341	0.0168182
883.419	0.0169617
883.497	0.0168899
883.575	0.0168536
883.654	0.0170041
883.732	0.0169812
883.810	0.0170003
883.888	0.0169994
883.966	0.0168734
884.044	0.0170804
884.122	0.0171507
884.200	0.0169758
884.279	0.0170631
884.357	0.0170849
884.435	0.0169321
884.513	0.0168890
884.591	0.0170042
884.669	0.0169516
884.747	0.0170272
884.825	0.0168718
884.904	0.0169017
884.982	0.0169563
885.060	0.0168775
885.138	0.0169715
885.216	0.0168282
885.294	0.0168568
885.372	0.0170036
885.450	0.0168904
885.529	0.0169933
885.607	0.0169535
885.685	0.0168224
885.763	0.0169136
885.841	0.0168957
885.919	0.0169248
885.997	0.0168293
886.075	0.0167270
886.154	0.0167947
886.232	0.0168989
886.310	0.0167796
886.388	0.0166441
886.466	0.0167526
886.544	0.0167871
886.622	0.0168049
886.700	0.0168398
886.779	0.0168562
886.857	0.0168222
886.935	0.0168651
887.013	0.0168399
887.091	0.0167844
887.169	0.0169227
887.247	0.0169447
887.325	0.0169730
887.404	0.0171458
887.482	0.0169413
887.560	0.0170256
887.638	0.0170792
887.716	0.0171144
887.794	0.0170746
887.872	0.0170214
887.950	0.0171216
888.029	0.0171854
888.107	0.0170981
888.185	0.0171193
888.263	0.0170387
888.341	0.0171335
888.419	0.0170901
888.497	0.0170764
888.575	0.0172243
888.654	0.0170383
888.732	0.0171401
888.810	0.0170920
888.888	0.0170456
888.966	0.0170728
889.044	0.0170988
889.122	0.0170168
889.200	0.0171458
889.279	0.0171656
889.357	0.0171826
889.435	0.0171394
889.513	0.0171440
889.591	0.0170745
889.669	0.0171754
889.747	0.0172155
889.825	0.0171636
889.904	0.0173011
889.982	0.0172699
890.060	0.0172659
890.138	0.0173100
890.216	0.0172756
890.294	0.0171424
890.372	0.0172121
890.450	0.0170899
890.529	0.0170862
890.607	0.0172659
890.685	0.0172867
890.763	0.0171448
890.841	0.0171179
890.919	0.0170507
890.997	0.0169743
891.075	0.0170933
891.154	0.0172527
891.232	0.0171731
891.310	0.0170555
891.388	0.0171502
891.466	0.0171217
891.544	0.0170408
891.622	0.0169469
891.700	0.0169383
891.779	0.0169844
891.857	0.0168093
891.935	0.0168851
892.013	0.0168546
892.091	0.0170432
892.169	0.0170325
892.247	0.0170177
892.325	0.0168736
892.404	0.0169408
892.482	0.0168517
892.560	0.0170434
892.638	0.0170317
892.716	0.0169817
892.794	0.0170231
892.872	0.0170105
892.950	0.0171031
893.029	0.0171108
893.107	0.0170375
893.185	0.0171239
893.263	0.0171295
893.341	0.0170287
893.419	0.0169928
893.497	0.0170126
893.575	0.0171042
893.654	0.0168668
893.732	0.0169736
893.810	0.0170231
893.888	0.0169860
893.966	0.0169327
894.044	0.0168646
894.122	0.0168734
894.200	0.0169032
894.279	0.0170786
894.357	0.0170412
894.435	0.0168736
894.513	0.0169386
894.591	0.0170581
894.669	0.0170770
894.747	0.0169505
894.825	0.0169385
894.904	0.0171253
894.982	0.0172369
895.060	0.0172188
895.138	0.0171862
895.216	0.0171758
895.294	0.0173258
895.372	0.0172546
895.450	0.0172540
895.529	0.0170779
895.607	0.0171272
895.685	0.0171367
895.763	0.0170379
895.841	0.0170769
895.919	0.0171382
895.997	0.0172003
896.075	0.0170217
896.154	0.0171169
896.232	0.0171797
896.310	0.0171307
896.388	0.0171193
896.466	0.0171062
896.544	0.0171609
896.622	0.0171100
896.700	0.0169682
896.779	0.0169981
896.857	0.0169164
896.935	0.0169466
897.013	0.0170013
897.091	0.0169771
897.169	0.0170528
897.247	0.0169833
897.325	0.0169601
897.404	0.0171030
897.482	0.0170949
897.560	0.0171075
897.638	0.0170337
897.716	0.0170609
897.794	0.0173079
897.872	0.0172198
897.950	0.0171541
898.029	0.0172574
898.107	0.0171803
898.185	0.0171825
898.263	0.0173701
898.341	0.0172080
898.419	0.0170576
898.497	0.0171066
898.575	0.0172286
898.654	0.0171793
898.732	0.0171211
898.810	0.0170874
898.888	0.0170031
898.966	0.0170280
899.044	0.0170303
899.122	0.0169572
899.200	0.0168810
899.279	0.0168567
899.357	0.0167863
899.435	0.0168715
899.513	0.0168102
899.591	0.0168690
899.669	0.0167532
899.747	0.0166936
899.825	0.0168358
899.904	0.0168763
899.982	0.0169170
900.060	0.0167516
900.138	0.0168604
900.216	0.0170216
900.294	0.0169185
900.372	0.0169022
900.450	0.0169180
900.529	0.0170226
900.607	0.0170851
900.685	0.0169816
900.763	0.0170438
900.841	0.0171176
900.919	0.0171359
900.997	0.0170916
901.075	0.0171706
901.154	0.0170756
901.232	0.0170261
901.310	0.0169993
901.388	0.0170438
901.466	0.0168697
901.544	0.0168494
901.622	0.0170244
901.700	0.0169701
901.779	0.0169073
901.857	0.0169496
901.935	0.0170264
902.013	0.0168711
902.091	0.0169244
902.169	0.0169393
902.247	0.0169105
902.325	0.0170774
902.404	0.0170311
902.482	0.0170296
902.560	0.0170973
902.638	0.0170544
902.716	0.0171052
902.794	0.0170733
902.872	0.0171133
902.950	0.0171532
903.029	0.0170300
903.107	0.0170964
903.185	0.0172559
903.263	0.0171182
903.341	0.0171320
903.419	0.0171890
903.497	0.0171567
903.575	0.0169610
903.654	0.0170892
903.732	0.0170779
903.810	0.0171563
903.888	0.0169656
903.966	0.0168055
904.044	0.0168902
904.122	0.0169730
904.200	0.0170084
904.279	0.0168864
904.357	0.0169341
904.435	0.0170444
904.513	0.0169593
904.591	0.0169756
904.669	0.0169424
904.747	0.0169413
904.825	0.0170815
904.904	0.0171284
904.982	0.0170999
905.060	0.0171622
905.138	0.0169999
905.216	0.0170982
905.294	0.0171487
905.372	0.0171323
905.450	0.0171624
905.529	0.0172104
905.607	0.0170448
905.685	0.0170374
905.763	0.0170335
905.841	0.0170578
905.919	0.0170992
905.997	0.0171197
906.075	0.0172504
906.154	0.0171295
906.232	0.0170658
906.310	0.0170159
906.388	0.0171442
906.466	0.0170222
906.544	0.0171342
906.622	0.0169789
906.700	0.0169457
906.779	0.0169804
906.857	0.0169250
906.935	0.0168143
907.013	0.0169128
907.091	0.0167487
907.169	0.0168555
907.247	0.0166779
907.325	0.0168043
907.404	0.0167766
907.482	0.0168950
907.560	0.0167854
907.638	0.0167496
907.716	0.0169404
907.794	0.0168984
907.872	0.0169555
907.950	0.0170515
908.029	0.0171311
908.107	0.0170930
908.185	0.0171037
908.263	0.0172131
908.341	0.0171841
908.419	0.0172829
908.497	0.0172074
908.575	0.0172504
908.654	0.0171823
908.732	0.0172282
908.810	0.0172109
908.888	0.0172427
908.966	0.0171568
909.044	0.0169473
909.122	0.0171015
909.200	0.0171352
909.279	0.0172018
909.357	0.0171151
909.435	0.0172160
909.513	0.0171668
909.591	0.0171232
909.669	0.0170982
909.747	0.0169540
909.825	0.0171166
909.904	0.0170930
909.982	0.0171713
910.060	0.0171492
910.138	0.0169843
910.216	0.0169422
910.294	0.0171446
910.372	0.0170957
910.450	0.0171568
910.529	0.0171084
910.607	0.0170226
910.685	0.0170351
910.763	0.0169827
910.841	0.0170058
910.919	0.0169701
910.997	0.0169729
911.075	0.0170004
911.154	0.0169726
911.232	0.0169835
911.310	0.0169981
911.388	0.0169822
911.466	0.0168744
911.544	0.0170016
911.622	0.0169967
911.700	0.0169936
911.779	0.0169809
911.857	0.0170138
911.935	0.0170073
912.013	0.0170708
912.091	0.0170293
912.169	0.0170978
912.247	0.0170888
912.325	0.0170309
912.404	0.0170007
912.482	0.0171237
912.560	0.0171687
912.638	0.0170823
912.716	0.0171211
912.794	0.0173512
912.872	0.0173862
912.950	0.0172996
913.029	0.0173689
913.107	0.0172768
913.185	0.0173731
913.263	0.0173042
913.341	0.0172978
913.419	0.0173782
913.497	0.0173881
913.575	0.0173949
913.654	0.0173987
913.732	0.0173991
913.810	0.0173164
913.888	0.0174363
913.966	0.0171524
914.044	0.0171376
914.122	0.0172232
914.200	0.0172552
914.279	0.0171764
914.357	0.0169711
914.435	0.0170504
914.513	0.0170223
914.591	0.0169832
914.669	0.0167362
914.747	0.0168025
914.825	0.0169064
914.904	0.0168136
914.982	0.0168083
915.060	0.0168013
915.138	0.0168388
915.216	0.0167877
915.294	0.0169962
915.372	0.0169653
915.450	0.0168005
915.529	0.0168697
915.607	0.0170463
915.685	0.0167661
915.763	0.0168932
915.841	0.0169006
915.919	0.0168170
915.997	0.0169807
916.075	0.0169609
916.154	0.0169153
916.232	0.0168503
916.310	0.0168913
916.388	0.0170504
916.466	0.0167510
916.544	0.0169881
916.622	0.0169781
916.700	0.0170470
916.779	0.0171044
916.857	0.0169431
916.935	0.0169759
917.013	0.0170915
917.091	0.0172440
917.169	0.0171698
917.247	0.0172270
917.325	0.0172380
917.404	0.0173209
917.482	0.0173563
917.560	0.0172743
917.638	0.0173937
917.716	0.0173294
917.794	0.0173797
917.872	0.0173412
917.950	0.0173898
918.029	0.0174331
918.107	0.0173465
918.185	0.0172300
918.263	0.0172564
918.341	0.0173022
918.419	0.0171523
918.497	0.0172859
918.575	0.0172512
918.654	0.0172828
918.732	0.0171499
918.810	0.0170639
918.888	0.0170570
918.966	0.0169438
919.044	0.0170351
919.122	0.0170148
919.200	0.0168037
919.279	0.0168491
919.357	0.0169936
919.435	0.0168755
919.513	0.0168381
919.591	0.0167779
919.669	0.0169802
919.747	0.0170118
919.825	0.0167803
919.904	0.0170013
