05/25/2022	18:59:23	Ver.	4.1	UNKNOWN
Optical Delay	599.988409	Delta X		0.078125	Sweeps	1	Scan Rate	0/0
Coordinates	Axis 1	NaN	Axis 2	NaN	Axis 3	NaN	Axis 4	NaN	Axis 5	NaN	Axis 6	0.000000
TX Power	0.000000	RX Power	0.000000

599.988	0.0157691
600.067	0.0158305
600.145	0.0156147
600.223	0.0157849
600.301	0.0158275
600.379	0.0157494
600.457	0.0157219
600.535	0.0157286
600.613	0.0157629
600.692	0.0157176
600.770	0.0157887
600.848	0.0158463
600.926	0.0157482
601.004	0.0157564
601.082	0.0158346
601.160	0.0157382
601.238	0.0158643
601.317	0.0157383
601.395	0.0156828
601.473	0.0157696
601.551	0.0156149
601.629	0.0157325
601.707	0.0156574
601.785	0.0157621
601.863	0.0158833
601.942	0.0158089
602.020	0.0157822
602.098	0.0156744
602.176	0.0157323
602.254	0.0158449
602.332	0.0157478
602.410	0.0157222
602.488	0.0158730
602.567	0.0157341
602.645	0.0157942
602.723	0.0157182
602.801	0.0157634
602.879	0.0158455
602.957	0.0158434
603.035	0.0157389
603.113	0.0158936
603.192	0.0157354
603.270	0.0158428
603.348	0.0158100
603.426	0.0157686
603.504	0.0159047
603.582	0.0157664
603.660	0.0157955
603.738	0.0158632
603.817	0.0157570
603.895	0.0159084
603.973	0.0159349
604.051	0.0157104
604.129	0.0157594
604.207	0.0158447
604.285	0.0159100
604.363	0.0157698
604.442	0.0157581
604.520	0.0157343
604.598	0.0157467
604.676	0.0157982
604.754	0.0157469
604.832	0.0157439
604.910	0.0157387
604.988	0.0157915
605.067	0.0159410
605.145	0.0157591
605.223	0.0159115
605.301	0.0159097
605.379	0.0156022
605.457	0.0159493
605.535	0.0158069
605.613	0.0158606
605.692	0.0158123
605.770	0.0157694
605.848	0.0157877
605.926	0.0158037
606.004	0.0158020
606.082	0.0156691
606.160	0.0156347
606.238	0.0156567
606.317	0.0158926
606.395	0.0157338
606.473	0.0157687
606.551	0.0157636
606.629	0.0157058
606.707	0.0157102
606.785	0.0157899
606.863	0.0158942
606.942	0.0158573
607.020	0.0157246
607.098	0.0157251
607.176	0.0157482
607.254	0.0158862
607.332	0.0158923
607.410	0.0157368
607.488	0.0157995
607.567	0.0157261
607.645	0.0158045
607.723	0.0157842
607.801	0.0157548
607.879	0.0157368
607.957	0.0158041
608.035	0.0158569
608.113	0.0158524
608.192	0.0158251
608.270	0.0158807
608.348	0.0158364
608.426	0.0158375
608.504	0.0158943
608.582	0.0158970
608.660	0.0157536
608.738	0.0157684
608.817	0.0158573
608.895	0.0158415
608.973	0.0157702
609.051	0.0157298
609.129	0.0157410
609.207	0.0156156
609.285	0.0156758
609.363	0.0156213
609.442	0.0157014
609.520	0.0155132
609.598	0.0156216
609.676	0.0155437
609.754	0.0156033
609.832	0.0157368
609.910	0.0157161
609.988	0.0156386
610.067	0.0157116
610.145	0.0157949
610.223	0.0157533
610.301	0.0158025
610.379	0.0159139
610.457	0.0157823
610.535	0.0159085
610.613	0.0159690
610.692	0.0158955
610.770	0.0160533
610.848	0.0159396
610.926	0.0161206
611.004	0.0160140
611.082	0.0158778
611.160	0.0159669
611.238	0.0159969
611.317	0.0158663
611.395	0.0159761
611.473	0.0159557
611.551	0.0158147
611.629	0.0159798
611.707	0.0158492
611.785	0.0155850
611.863	0.0156244
611.942	0.0157020
612.020	0.0157030
612.098	0.0156982
612.176	0.0155320
612.254	0.0156825
612.332	0.0156827
612.410	0.0154940
612.488	0.0155216
612.567	0.0155450
612.645	0.0155526
612.723	0.0155142
612.801	0.0154292
612.879	0.0155877
612.957	0.0157244
613.035	0.0156987
613.113	0.0154815
613.192	0.0157095
613.270	0.0157131
613.348	0.0157890
613.426	0.0157774
613.504	0.0157990
613.582	0.0157345
613.660	0.0157935
613.738	0.0156959
613.817	0.0157950
613.895	0.0157932
613.973	0.0157563
614.051	0.0158793
614.129	0.0158453
614.207	0.0158094
614.285	0.0157553
614.363	0.0157828
614.442	0.0157861
614.520	0.0159929
614.598	0.0158363
614.676	0.0159339
614.754	0.0158344
614.832	0.0158959
614.910	0.0157891
614.988	0.0158190
615.067	0.0160630
615.145	0.0158494
615.223	0.0158621
615.301	0.0157771
615.379	0.0159042
615.457	0.0157428
615.535	0.0158217
615.613	0.0158326
615.692	0.0158379
615.770	0.0157409
615.848	0.0157835
615.926	0.0157684
616.004	0.0158234
616.082	0.0157744
616.160	0.0158585
616.238	0.0157079
616.317	0.0157498
616.395	0.0156867
616.473	0.0158282
616.551	0.0156527
616.629	0.0158062
616.707	0.0157834
616.785	0.0156102
616.863	0.0157617
616.942	0.0157320
617.020	0.0157760
617.098	0.0156770
617.176	0.0156404
617.254	0.0156102
617.332	0.0157647
617.410	0.0156822
617.488	0.0155807
617.567	0.0156501
617.645	0.0157880
617.723	0.0156518
617.801	0.0158164
617.879	0.0157627
617.957	0.0156921
618.035	0.0156149
618.113	0.0157117
618.192	0.0157875
618.270	0.0158766
618.348	0.0157136
618.426	0.0156045
618.504	0.0156582
618.582	0.0156744
618.660	0.0155387
618.738	0.0157002
618.817	0.0158173
618.895	0.0157350
618.973	0.0157687
619.051	0.0159226
619.129	0.0158933
619.207	0.0158450
619.285	0.0156847
619.363	0.0158630
619.442	0.0159696
619.520	0.0157856
619.598	0.0158392
619.676	0.0158055
619.754	0.0158406
619.832	0.0158624
619.910	0.0158474
619.988	0.0157352
620.067	0.0158824
620.145	0.0157475
620.223	0.0157205
620.301	0.0158748
620.379	0.0156545
620.457	0.0157436
620.535	0.0159659
620.613	0.0158918
620.692	0.0157028
620.770	0.0157996
620.848	0.0158204
620.926	0.0157639
621.004	0.0157982
621.082	0.0157917
621.160	0.0158437
621.238	0.0158344
621.317	0.0159197
621.395	0.0157203
621.473	0.0158951
621.551	0.0158308
621.629	0.0158601
621.707	0.0156545
621.785	0.0158839
621.863	0.0158498
621.942	0.0158572
622.020	0.0157892
622.098	0.0158805
622.176	0.0156900
622.254	0.0157169
622.332	0.0159312
622.410	0.0157462
622.488	0.0156963
622.567	0.0158549
622.645	0.0158562
622.723	0.0158979
622.801	0.0158035
622.879	0.0156128
622.957	0.0156887
623.035	0.0158094
623.113	0.0157125
623.192	0.0157574
623.270	0.0156942
623.348	0.0156374
623.426	0.0157997
623.504	0.0157879
623.582	0.0156903
623.660	0.0157321
623.738	0.0157861
623.817	0.0157743
623.895	0.0157632
623.973	0.0157431
624.051	0.0158438
624.129	0.0157724
624.207	0.0157557
624.285	0.0158945
624.363	0.0157242
624.442	0.0156287
624.520	0.0157199
624.598	0.0157663
624.676	0.0157302
624.754	0.0156134
624.832	0.0157547
624.910	0.0157162
624.988	0.0156965
625.067	0.0156646
625.145	0.0156131
625.223	0.0157371
625.301	0.0157824
625.379	0.0156792
625.457	0.0157525
625.535	0.0157262
625.613	0.0157272
625.692	0.0156406
625.770	0.0158392
625.848	0.0158425
625.926	0.0157648
626.004	0.0157436
626.082	0.0157719
626.160	0.0157786
626.238	0.0158351
626.317	0.0157754
626.395	0.0157078
626.473	0.0157953
626.551	0.0158728
626.629	0.0158922
626.707	0.0157908
626.785	0.0157648
626.863	0.0156644
626.942	0.0156129
627.020	0.0159064
627.098	0.0158649
627.176	0.0157021
627.254	0.0157772
627.332	0.0157633
627.410	0.0157564
627.488	0.0157822
627.567	0.0157489
627.645	0.0157327
627.723	0.0158529
627.801	0.0157317
627.879	0.0157456
627.957	0.0157728
628.035	0.0158031
628.113	0.0158120
628.192	0.0158266
628.270	0.0156229
628.348	0.0158666
628.426	0.0158257
628.504	0.0158124
628.582	0.0158639
628.660	0.0158141
628.738	0.0156912
628.817	0.0157070
628.895	0.0157502
628.973	0.0157559
629.051	0.0156930
629.129	0.0157069
629.207	0.0157793
629.285	0.0158047
629.363	0.0158173
629.442	0.0157396
629.520	0.0156969
629.598	0.0157293
629.676	0.0157265
629.754	0.0159335
629.832	0.0157611
629.910	0.0157598
629.988	0.0156706
630.067	0.0156789
630.145	0.0158002
630.223	0.0158750
630.301	0.0157576
630.379	0.0156218
630.457	0.0158646
630.535	0.0157140
630.613	0.0157181
630.692	0.0157455
630.770	0.0158422
630.848	0.0158220
630.926	0.0156503
631.004	0.0156866
631.082	0.0158806
631.160	0.0157780
631.238	0.0157602
631.317	0.0156949
631.395	0.0158100
631.473	0.0156496
631.551	0.0157285
631.629	0.0157849
631.707	0.0157435
631.785	0.0158105
631.863	0.0156735
631.942	0.0157049
632.020	0.0158677
632.098	0.0158037
632.176	0.0156673
632.254	0.0156995
632.332	0.0156388
632.410	0.0157127
632.488	0.0158370
632.567	0.0158125
632.645	0.0157268
632.723	0.0156937
632.801	0.0158568
632.879	0.0157871
632.957	0.0156395
633.035	0.0157596
633.113	0.0157082
633.192	0.0157626
633.270	0.0158228
633.348	0.0157674
633.426	0.0157909
633.504	0.0157511
633.582	0.0157941
633.660	0.0158139
633.738	0.0158276
633.817	0.0157723
633.895	0.0156698
633.973	0.0157294
634.051	0.0158527
634.129	0.0158419
634.207	0.0158232
634.285	0.0158031
634.363	0.0157829
634.442	0.0157506
634.520	0.0158582
634.598	0.0157195
634.676	0.0158112
634.754	0.0157987
634.832	0.0157851
634.910	0.0158218
634.988	0.0158380
635.067	0.0158313
635.145	0.0155907
635.223	0.0157591
635.301	0.0156147
635.379	0.0157179
635.457	0.0158928
635.535	0.0158466
635.613	0.0157319
635.692	0.0157874
635.770	0.0156696
635.848	0.0158113
635.926	0.0159055
636.004	0.0158124
636.082	0.0158887
636.160	0.0158670
636.238	0.0157259
636.317	0.0157832
636.395	0.0157910
636.473	0.0158257
636.551	0.0157388
636.629	0.0157642
636.707	0.0157151
636.785	0.0158969
636.863	0.0158155
636.942	0.0158253
637.020	0.0157816
637.098	0.0156931
637.176	0.0157303
637.254	0.0157176
637.332	0.0157434
637.410	0.0158068
637.488	0.0157020
637.567	0.0156819
637.645	0.0156929
637.723	0.0157286
637.801	0.0157124
637.879	0.0157314
637.957	0.0158135
638.035	0.0157731
638.113	0.0157458
638.192	0.0157513
638.270	0.0157308
638.348	0.0156913
638.426	0.0156710
638.504	0.0158363
638.582	0.0157642
638.660	0.0157793
638.738	0.0157925
638.817	0.0158446
638.895	0.0158492
638.973	0.0157347
639.051	0.0158150
639.129	0.0157856
639.207	0.0156934
639.285	0.0157115
639.363	0.0157848
639.442	0.0157881
639.520	0.0157989
639.598	0.0159209
639.676	0.0158178
639.754	0.0157530
639.832	0.0156694
639.910	0.0158331
639.988	0.0157876
640.067	0.0157127
640.145	0.0157076
640.223	0.0158366
640.301	0.0158335
640.379	0.0158449
640.457	0.0157787
640.535	0.0158791
640.613	0.0159216
640.692	0.0158560
640.770	0.0156673
640.848	0.0158673
640.926	0.0158292
641.004	0.0157994
641.082	0.0158503
641.160	0.0157125
641.238	0.0157430
641.317	0.0158316
641.395	0.0158610
641.473	0.0158965
641.551	0.0156909
641.629	0.0158939
641.707	0.0158600
641.785	0.0158389
641.863	0.0158102
641.942	0.0157925
642.020	0.0157247
642.098	0.0157360
642.176	0.0157679
642.254	0.0158380
642.332	0.0156646
642.410	0.0157980
642.488	0.0157322
642.567	0.0157928
642.645	0.0158799
642.723	0.0157201
642.801	0.0158015
642.879	0.0159464
642.957	0.0158154
643.035	0.0158012
643.113	0.0157688
643.192	0.0158547
643.270	0.0158551
643.348	0.0158961
643.426	0.0158844
643.504	0.0157879
643.582	0.0158012
643.660	0.0157645
643.738	0.0158952
643.817	0.0157353
643.895	0.0158312
643.973	0.0158848
644.051	0.0158049
644.129	0.0157410
644.207	0.0157877
644.285	0.0156564
644.363	0.0158077
644.442	0.0159109
644.520	0.0158370
644.598	0.0157047
644.676	0.0158112
644.754	0.0157118
644.832	0.0158269
644.910	0.0156892
644.988	0.0157977
645.067	0.0157769
645.145	0.0157547
645.223	0.0158550
645.301	0.0157434
645.379	0.0157359
645.457	0.0158701
645.535	0.0156541
645.613	0.0157110
645.692	0.0158150
645.770	0.0158062
645.848	0.0157117
645.926	0.0157670
646.004	0.0158044
646.082	0.0156777
646.160	0.0157807
646.238	0.0157970
646.317	0.0158574
646.395	0.0157788
646.473	0.0157040
646.551	0.0157438
646.629	0.0157060
646.707	0.0158358
646.785	0.0158297
646.863	0.0156886
646.942	0.0159497
647.020	0.0158797
647.098	0.0156313
647.176	0.0157634
647.254	0.0158420
647.332	0.0157749
647.410	0.0157676
647.488	0.0157485
647.567	0.0158038
647.645	0.0156892
647.723	0.0158788
647.801	0.0158741
647.879	0.0156456
647.957	0.0158177
648.035	0.0157227
648.113	0.0157346
648.192	0.0157122
648.270	0.0158039
648.348	0.0157206
648.426	0.0158420
648.504	0.0158183
648.582	0.0157100
648.660	0.0157943
648.738	0.0158250
648.817	0.0158041
648.895	0.0157810
648.973	0.0158688
649.051	0.0157555
649.129	0.0159048
649.207	0.0158478
649.285	0.0157508
649.363	0.0158907
649.442	0.0157836
649.520	0.0157924
649.598	0.0157865
649.676	0.0158313
649.754	0.0157451
649.832	0.0157702
649.910	0.0158875
649.988	0.0158203
650.067	0.0158320
650.145	0.0158674
650.223	0.0159212
650.301	0.0156813
650.379	0.0157928
650.457	0.0157040
650.535	0.0158538
650.613	0.0157954
650.692	0.0157218
650.770	0.0157621
650.848	0.0157288
650.926	0.0156976
651.004	0.0159000
651.082	0.0158714
651.160	0.0157572
651.238	0.0157049
651.317	0.0158551
651.395	0.0156828
651.473	0.0156784
651.551	0.0159290
651.629	0.0156874
651.707	0.0158340
651.785	0.0157722
651.863	0.0158047
651.942	0.0157304
652.020	0.0157040
652.098	0.0157391
652.176	0.0156954
652.254	0.0157496
652.332	0.0158853
652.410	0.0159012
652.488	0.0156250
652.567	0.0157602
652.645	0.0158286
652.723	0.0158871
652.801	0.0157991
652.879	0.0157747
652.957	0.0156760
653.035	0.0158311
653.113	0.0157619
653.192	0.0158562
653.270	0.0157840
653.348	0.0156428
653.426	0.0159260
653.504	0.0157684
653.582	0.0157899
653.660	0.0156285
653.738	0.0157188
653.817	0.0159386
653.895	0.0157033
653.973	0.0158401
654.051	0.0158038
654.129	0.0157292
654.207	0.0157385
654.285	0.0157799
654.363	0.0156202
654.442	0.0156266
654.520	0.0158950
654.598	0.0158497
654.676	0.0157654
654.754	0.0158853
654.832	0.0158405
654.910	0.0157623
654.988	0.0157462
655.067	0.0158042
655.145	0.0156969
655.223	0.0157495
655.301	0.0158139
655.379	0.0157338
655.457	0.0157748
655.535	0.0157115
655.613	0.0158736
655.692	0.0156651
655.770	0.0157360
655.848	0.0158288
655.926	0.0156402
656.004	0.0158198
656.082	0.0157348
656.160	0.0156934
656.238	0.0155987
656.317	0.0156928
656.395	0.0157379
656.473	0.0156991
656.551	0.0157339
656.629	0.0157896
656.707	0.0157741
656.785	0.0157647
656.863	0.0157958
656.942	0.0157902
657.020	0.0158721
657.098	0.0158836
657.176	0.0157939
657.254	0.0157238
657.332	0.0158120
657.410	0.0158555
657.488	0.0158061
657.567	0.0158846
657.645	0.0157119
657.723	0.0158433
657.801	0.0157439
657.879	0.0159907
657.957	0.0157449
658.035	0.0157450
658.113	0.0158201
658.192	0.0158260
658.270	0.0157539
658.348	0.0158338
658.426	0.0158556
658.504	0.0158755
658.582	0.0156730
658.660	0.0157277
658.738	0.0158028
658.817	0.0157481
658.895	0.0156859
658.973	0.0157590
659.051	0.0157954
659.129	0.0156927
659.207	0.0158053
659.285	0.0158664
659.363	0.0157652
659.442	0.0157962
659.520	0.0157887
659.598	0.0156867
659.676	0.0156277
659.754	0.0159509
659.832	0.0158393
659.910	0.0156886
659.988	0.0157158
660.067	0.0157853
660.145	0.0157066
660.223	0.0157938
660.301	0.0157719
660.379	0.0156569
660.457	0.0157923
660.535	0.0157901
660.613	0.0158762
660.692	0.0158385
660.770	0.0157452
660.848	0.0157453
660.926	0.0156264
661.004	0.0157297
661.082	0.0158467
661.160	0.0157248
661.238	0.0157774
661.317	0.0159086
661.395	0.0157480
661.473	0.0157533
661.551	0.0157510
661.629	0.0157848
661.707	0.0157857
661.785	0.0158445
661.863	0.0157358
661.942	0.0158337
662.020	0.0158749
662.098	0.0157355
662.176	0.0157012
662.254	0.0157697
662.332	0.0158636
662.410	0.0157151
662.488	0.0157078
662.567	0.0157104
662.645	0.0159173
662.723	0.0158280
662.801	0.0156818
662.879	0.0156541
662.957	0.0156271
663.035	0.0158994
663.113	0.0156355
663.192	0.0158308
663.270	0.0158415
663.348	0.0157281
663.426	0.0156500
663.504	0.0156901
663.582	0.0157555
663.660	0.0157596
663.738	0.0158182
663.817	0.0157964
663.895	0.0157849
663.973	0.0159470
664.051	0.0157751
664.129	0.0157902
664.207	0.0157716
664.285	0.0157256
664.363	0.0158409
664.442	0.0157113
664.520	0.0157755
664.598	0.0158652
664.676	0.0158788
664.754	0.0158078
664.832	0.0158659
664.910	0.0158121
664.988	0.0159418
665.067	0.0156919
665.145	0.0157402
665.223	0.0157703
665.301	0.0158408
665.379	0.0157043
665.457	0.0158234
665.535	0.0157475
665.613	0.0157623
665.692	0.0157758
665.770	0.0158393
665.848	0.0158397
665.926	0.0157095
666.004	0.0157209
666.082	0.0157594
666.160	0.0157936
666.238	0.0158228
666.317	0.0157787
666.395	0.0157416
666.473	0.0157728
666.551	0.0157688
666.629	0.0158225
666.707	0.0157899
666.785	0.0157291
666.863	0.0157676
666.942	0.0159016
667.020	0.0157504
667.098	0.0157761
667.176	0.0158575
667.254	0.0157982
667.332	0.0158347
667.410	0.0157504
667.488	0.0157975
667.567	0.0158036
667.645	0.0158764
667.723	0.0158102
667.801	0.0158421
667.879	0.0156882
667.957	0.0157893
668.035	0.0157693
668.113	0.0158047
668.192	0.0156908
668.270	0.0157967
668.348	0.0157350
668.426	0.0157951
668.504	0.0157557
668.582	0.0157587
668.660	0.0157812
668.738	0.0158868
668.817	0.0157713
668.895	0.0158023
668.973	0.0158389
669.051	0.0157126
669.129	0.0157119
669.207	0.0158082
669.285	0.0157158
669.363	0.0158141
669.442	0.0157675
669.520	0.0156387
669.598	0.0157686
669.676	0.0159063
669.754	0.0157000
669.832	0.0158303
669.910	0.0159217
669.988	0.0157967
670.067	0.0159061
670.145	0.0158250
670.223	0.0157612
670.301	0.0158973
670.379	0.0158273
670.457	0.0159565
670.535	0.0158418
670.613	0.0158067
670.692	0.0158598
670.770	0.0158516
670.848	0.0159000
670.926	0.0159537
671.004	0.0159318
671.082	0.0159897
671.160	0.0159204
671.238	0.0157422
671.317	0.0157204
671.395	0.0159341
671.473	0.0158241
671.551	0.0157971
671.629	0.0158319
671.707	0.0157938
671.785	0.0157410
671.863	0.0156850
671.942	0.0157652
672.020	0.0157596
672.098	0.0157958
672.176	0.0156629
672.254	0.0156815
672.332	0.0157159
672.410	0.0157309
672.488	0.0158027
672.567	0.0158480
672.645	0.0157697
672.723	0.0157712
672.801	0.0156994
672.879	0.0158160
672.957	0.0157723
673.035	0.0157201
673.113	0.0157600
673.192	0.0156865
673.270	0.0157162
673.348	0.0156842
673.426	0.0156693
673.504	0.0156691
673.582	0.0156904
673.660	0.0156827
673.738	0.0156169
673.817	0.0157313
673.895	0.0158156
673.973	0.0155661
674.051	0.0157264
674.129	0.0156713
674.207	0.0156333
674.285	0.0157056
674.363	0.0156695
674.442	0.0157169
674.520	0.0155254
674.598	0.0156361
674.676	0.0155584
674.754	0.0157065
674.832	0.0155218
674.910	0.0156850
674.988	0.0156712
675.067	0.0156187
675.145	0.0156532
675.223	0.0156184
675.301	0.0156651
675.379	0.0155518
675.457	0.0154831
675.535	0.0156986
675.613	0.0157527
675.692	0.0156955
675.770	0.0157640
675.848	0.0157967
675.926	0.0157392
676.004	0.0155505
676.082	0.0157748
676.160	0.0157420
676.238	0.0157545
676.317	0.0157343
676.395	0.0158418
676.473	0.0155331
676.551	0.0155951
676.629	0.0156529
676.707	0.0156223
676.785	0.0154871
676.863	0.0155163
676.942	0.0155725
677.020	0.0155714
677.098	0.0156139
677.176	0.0155845
677.254	0.0155430
677.332	0.0155772
677.410	0.0155670
677.488	0.0156129
677.567	0.0156743
677.645	0.0155869
677.723	0.0156113
677.801	0.0157148
677.879	0.0156059
677.957	0.0157159
678.035	0.0158295
678.113	0.0157119
678.192	0.0158537
678.270	0.0158828
678.348	0.0157487
678.426	0.0159062
678.504	0.0157852
678.582	0.0158060
678.660	0.0157796
678.738	0.0157995
678.817	0.0158365
678.895	0.0159128
678.973	0.0159612
679.051	0.0158999
679.129	0.0159469
679.207	0.0157834
679.285	0.0158173
679.363	0.0158784
679.442	0.0158170
679.520	0.0158147
679.598	0.0158234
679.676	0.0159457
679.754	0.0158948
679.832	0.0158295
679.910	0.0158969
679.988	0.0157742
680.067	0.0157500
680.145	0.0157993
680.223	0.0158192
680.301	0.0158832
680.379	0.0157088
680.457	0.0156973
680.535	0.0157748
680.613	0.0158030
680.692	0.0156320
680.770	0.0159555
680.848	0.0159643
680.926	0.0158694
681.004	0.0160429
681.082	0.0158344
681.160	0.0157672
681.238	0.0159646
681.317	0.0159328
681.395	0.0159789
681.473	0.0160209
681.551	0.0159270
681.629	0.0161246
681.707	0.0160703
681.785	0.0160616
681.863	0.0157820
681.942	0.0159791
682.020	0.0160520
682.098	0.0160170
682.176	0.0160796
682.254	0.0158590
682.332	0.0160566
682.410	0.0160172
682.488	0.0160938
682.567	0.0159084
682.645	0.0159306
682.723	0.0158658
682.801	0.0158396
682.879	0.0158931
682.957	0.0159382
683.035	0.0159867
683.113	0.0159673
683.192	0.0158332
683.270	0.0158255
683.348	0.0158514
683.426	0.0158391
683.504	0.0158228
683.582	0.0158448
683.660	0.0157497
683.738	0.0159674
683.817	0.0158652
683.895	0.0158109
683.973	0.0157784
684.051	0.0158278
684.129	0.0158034
684.207	0.0159699
684.285	0.0158195
684.363	0.0159453
684.442	0.0159386
684.520	0.0158439
684.598	0.0157876
684.676	0.0160134
684.754	0.0159150
684.832	0.0158942
684.910	0.0158083
684.988	0.0157646
685.067	0.0158121
685.145	0.0157760
685.223	0.0158245
685.301	0.0158775
685.379	0.0157194
685.457	0.0157047
685.535	0.0156034
685.613	0.0156719
685.692	0.0156261
685.770	0.0156964
685.848	0.0155339
685.926	0.0157090
686.004	0.0156808
686.082	0.0157539
686.160	0.0157162
686.238	0.0155232
686.317	0.0155661
686.395	0.0154798
686.473	0.0154378
686.551	0.0152750
686.629	0.0152362
686.707	0.0150816
686.785	0.0147799
686.863	0.0145214
686.942	0.0141209
687.020	0.0140790
687.098	0.0142080
687.176	0.0144874
687.254	0.0156763
687.332	0.0171337
687.410	0.0192253
687.488	0.0214992
687.567	0.0241664
687.645	0.0263813
687.723	0.0282938
687.801	0.0293180
687.879	0.0293459
687.957	0.0277785
688.035	0.0252827
688.113	0.0216395
688.192	0.0169760
688.270	0.0117851
688.348	0.00615730
688.426	0.000926590
688.504	-0.00398026
688.582	-0.00839790
688.660	-0.0117701
688.738	-0.0140102
688.817	-0.0149723
688.895	-0.0146015
688.973	-0.0129533
689.051	-0.0101437
689.129	-0.00633957
689.207	-0.00181473
689.285	0.00344025
689.363	0.00911827
689.442	0.0149330
689.520	0.0208047
689.598	0.0264655
689.676	0.0319939
689.754	0.0371197
689.832	0.0420638
689.910	0.0465269
689.988	0.0507313
690.067	0.0540499
690.145	0.0564967
690.223	0.0581741
690.301	0.0587373
690.379	0.0583167
690.457	0.0566737
690.535	0.0539790
690.613	0.0499784
690.692	0.0452878
690.770	0.0398526
690.848	0.0336247
690.926	0.0270034
691.004	0.0202872
691.082	0.0132599
691.160	0.00634521
691.238	-0.000131302
691.317	-0.00650612
691.395	-0.0122827
691.473	-0.0171281
691.551	-0.0213819
691.629	-0.0247309
691.707	-0.0269912
691.785	-0.0285394
691.863	-0.0288791
691.942	-0.0281201
692.020	-0.0266827
692.098	-0.0242198
692.176	-0.0212833
692.254	-0.0176472
692.332	-0.0137901
692.410	-0.00945389
692.488	-0.00485176
692.567	-0.000350189
692.645	0.00402367
692.723	0.00839554
692.801	0.0124853
692.879	0.0159139
692.957	0.0191885
693.035	0.0221157
693.113	0.0244343
693.192	0.0264785
693.270	0.0284045
693.348	0.0300689
693.426	0.0314951
693.504	0.0329375
693.582	0.0341383
693.660	0.0353483
693.738	0.0364485
693.817	0.0375742
693.895	0.0386974
693.973	0.0395231
694.051	0.0402050
694.129	0.0407423
694.207	0.0413039
694.285	0.0413789
694.363	0.0410734
694.442	0.0403764
694.520	0.0397864
694.598	0.0385509
694.676	0.0371893
694.754	0.0356520
694.832	0.0340176
694.910	0.0320855
694.988	0.0298800
695.067	0.0276925
695.145	0.0255565
695.223	0.0232939
695.301	0.0209402
695.379	0.0187929
695.457	0.0168422
695.535	0.0146593
695.613	0.0124905
695.692	0.0106892
695.770	0.00878532
695.848	0.00709091
695.926	0.00561279
696.004	0.00407310
696.082	0.00294350
696.160	0.00187447
696.238	0.000853653
696.317	0.0000591278
696.395	-0.000835419
696.473	-0.00133141
696.551	-0.00178955
696.629	-0.00203728
696.707	-0.00241371
696.785	-0.00267982
696.863	-0.00276489
696.942	-0.00281715
697.020	-0.00267220
697.098	-0.00262260
697.176	-0.00239838
697.254	-0.00181259
697.332	-0.00105507
697.410	-0.000388260
697.488	0.000634232
697.567	0.00185555
697.645	0.00315201
697.723	0.00451889
697.801	0.00599594
697.879	0.00767601
697.957	0.00956490
698.035	0.0112740
698.113	0.0130445
698.192	0.0147041
698.270	0.0163382
698.348	0.0179079
698.426	0.0191068
698.504	0.0204076
698.582	0.0215309
698.660	0.0222786
698.738	0.0230657
698.817	0.0236148
698.895	0.0240458
698.973	0.0243813
699.051	0.0244829
699.129	0.0246346
699.207	0.0247860
699.285	0.0248843
699.363	0.0245843
699.442	0.0242846
699.520	0.0241065
699.598	0.0237537
699.676	0.0238069
699.754	0.0237609
699.832	0.0236518
699.910	0.0238345
699.988	0.0238818
700.067	0.0242907
700.145	0.0247498
700.223	0.0251846
700.301	0.0257399
700.379	0.0263900
700.457	0.0269505
700.535	0.0274686
700.613	0.0277911
700.692	0.0280975
700.770	0.0280859
700.848	0.0280958
700.926	0.0277551
701.004	0.0271008
701.082	0.0261983
701.160	0.0251604
701.238	0.0239558
701.317	0.0222208
701.395	0.0208539
701.473	0.0191895
701.551	0.0178098
701.629	0.0161297
701.707	0.0146535
701.785	0.0133475
701.863	0.0121116
701.942	0.0107024
702.020	0.00961891
702.098	0.00862686
702.176	0.00763191
702.254	0.00699242
702.332	0.00636993
702.410	0.00602699
702.488	0.00599602
702.567	0.00596596
702.645	0.00602859
702.723	0.00638283
702.801	0.00677826
702.879	0.00752411
702.957	0.00790619
703.035	0.00842026
703.113	0.00867355
703.192	0.00910591
703.270	0.00939011
703.348	0.00958069
703.426	0.00979240
703.504	0.00978531
703.582	0.00965630
703.660	0.00932121
703.738	0.00923035
703.817	0.00871330
703.895	0.00834633
703.973	0.00799446
704.051	0.00764412
704.129	0.00752411
704.207	0.00750969
704.285	0.00766037
704.363	0.00805550
704.442	0.00862236
704.520	0.00942162
704.598	0.00995560
704.676	0.0110336
704.754	0.0118879
704.832	0.0128461
704.910	0.0138509
704.988	0.0146971
705.067	0.0155766
705.145	0.0165888
705.223	0.0175768
705.301	0.0184753
705.379	0.0192767
705.457	0.0198766
705.535	0.0202399
705.613	0.0207175
705.692	0.0210668
705.770	0.0213779
705.848	0.0214579
705.926	0.0214495
706.004	0.0214796
706.082	0.0215437
706.160	0.0214771
706.238	0.0215736
706.317	0.0213567
706.395	0.0211463
706.473	0.0210994
706.551	0.0208965
706.629	0.0207828
706.707	0.0204784
706.785	0.0203458
706.863	0.0202959
706.942	0.0203780
707.020	0.0203004
707.098	0.0204638
707.176	0.0206073
707.254	0.0205645
707.332	0.0204997
707.410	0.0208425
707.488	0.0207969
707.567	0.0210483
707.645	0.0211424
707.723	0.0213095
707.801	0.0212127
707.879	0.0214250
707.957	0.0213924
708.035	0.0212286
708.113	0.0211183
708.192	0.0207471
708.270	0.0204039
708.348	0.0198953
708.426	0.0193452
708.504	0.0186305
708.582	0.0178819
708.660	0.0170102
708.738	0.0163189
708.817	0.0157278
708.895	0.0150945
708.973	0.0143524
709.051	0.0136703
709.129	0.0130243
709.207	0.0126624
709.285	0.0122235
709.363	0.0118273
709.442	0.0115707
709.520	0.0113402
709.598	0.0112998
709.676	0.0112642
709.754	0.0114458
709.832	0.0113876
709.910	0.0112655
709.988	0.0115116
710.067	0.0117503
710.145	0.0117052
710.223	0.0119566
710.301	0.0119668
710.379	0.0120370
710.457	0.0122475
710.535	0.0124333
710.613	0.0125430
710.692	0.0126464
710.770	0.0127441
710.848	0.0127426
710.926	0.0126668
711.004	0.0125706
711.082	0.0124487
711.160	0.0123974
711.238	0.0121428
711.317	0.0120357
711.395	0.0119562
711.473	0.0118178
711.551	0.0116727
711.629	0.0115015
711.707	0.0115475
711.785	0.0114974
711.863	0.0115887
711.942	0.0116788
712.020	0.0118925
712.098	0.0122473
712.176	0.0125935
712.254	0.0130297
712.332	0.0135014
712.410	0.0140873
712.488	0.0144138
712.567	0.0149818
712.645	0.0155434
712.723	0.0161017
712.801	0.0163860
712.879	0.0168443
712.957	0.0173347
713.035	0.0175917
713.113	0.0179964
713.192	0.0182849
713.270	0.0186572
713.348	0.0189126
713.426	0.0192672
713.504	0.0193855
713.582	0.0194041
713.660	0.0195112
713.738	0.0195280
713.817	0.0194128
713.895	0.0192341
713.973	0.0192104
714.051	0.0189905
714.129	0.0186862
714.207	0.0184595
714.285	0.0182212
714.363	0.0180693
714.442	0.0177449
714.520	0.0177470
714.598	0.0177504
714.676	0.0179211
714.754	0.0178568
714.832	0.0180868
714.910	0.0183134
714.988	0.0183948
715.067	0.0187856
715.145	0.0192197
715.223	0.0194175
715.301	0.0196225
715.379	0.0198158
715.457	0.0198653
715.535	0.0200347
715.613	0.0200351
715.692	0.0198504
715.770	0.0196880
715.848	0.0193542
715.926	0.0190188
716.004	0.0185038
716.082	0.0181474
716.160	0.0176519
716.238	0.0171889
716.317	0.0166374
716.395	0.0161231
716.473	0.0157104
716.551	0.0154386
716.629	0.0151968
716.707	0.0147322
716.785	0.0145305
716.863	0.0143874
716.942	0.0142766
717.020	0.0141966
717.098	0.0140980
717.176	0.0140981
717.254	0.0141196
717.332	0.0140826
717.410	0.0140015
717.488	0.0139766
717.567	0.0139841
717.645	0.0140505
717.723	0.0139095
717.801	0.0140824
717.879	0.0140160
717.957	0.0140345
718.035	0.0139664
718.113	0.0139533
718.192	0.0139706
718.270	0.0140781
718.348	0.0139525
718.426	0.0136189
718.504	0.0135820
718.582	0.0135272
718.660	0.0133775
718.738	0.0131904
718.817	0.0130498
718.895	0.0128424
718.973	0.0125592
719.051	0.0124381
719.129	0.0122952
719.207	0.0119720
719.285	0.0118286
719.363	0.0117973
719.442	0.0116902
719.520	0.0115530
719.598	0.0115620
719.676	0.0115847
719.754	0.0118706
719.832	0.0122567
719.910	0.0123165
719.988	0.0127049
720.067	0.0131319
720.145	0.0137801
720.223	0.0140972
720.301	0.0145254
720.379	0.0148187
720.457	0.0152609
720.535	0.0156808
720.613	0.0162283
720.692	0.0163927
720.770	0.0167322
720.848	0.0169702
720.926	0.0172197
721.004	0.0173231
721.082	0.0175593
721.160	0.0177512
721.238	0.0177054
721.317	0.0176920
721.395	0.0177068
721.473	0.0176983
721.551	0.0176808
721.629	0.0176567
721.707	0.0175629
721.785	0.0177480
721.863	0.0175896
721.942	0.0175886
722.020	0.0175779
722.098	0.0175655
722.176	0.0177323
722.254	0.0176720
722.332	0.0178468
722.410	0.0180460
722.488	0.0183326
722.567	0.0184887
722.645	0.0186690
722.723	0.0190794
722.801	0.0193598
722.879	0.0196369
722.957	0.0198934
723.035	0.0200604
723.113	0.0203028
723.192	0.0203105
723.270	0.0203084
723.348	0.0203030
723.426	0.0198646
723.504	0.0196062
723.582	0.0193397
723.660	0.0189030
723.738	0.0185458
723.817	0.0180615
723.895	0.0174435
723.973	0.0170911
724.051	0.0166760
724.129	0.0164263
724.207	0.0159656
724.285	0.0157099
724.363	0.0155333
724.442	0.0151856
724.520	0.0149783
724.598	0.0148169
724.676	0.0146870
724.754	0.0145753
724.832	0.0143832
724.910	0.0142769
724.988	0.0141603
725.067	0.0139892
725.145	0.0142066
725.223	0.0142264
725.301	0.0140317
725.379	0.0141343
725.457	0.0141991
725.535	0.0141976
725.613	0.0144152
725.692	0.0145105
725.770	0.0146015
725.848	0.0145318
725.926	0.0144395
726.004	0.0146443
726.082	0.0145100
726.160	0.0144317
726.238	0.0143382
726.317	0.0140860
726.395	0.0139416
726.473	0.0139635
726.551	0.0137340
726.629	0.0133810
726.707	0.0132670
726.785	0.0130328
726.863	0.0127497
726.942	0.0124789
727.020	0.0123203
727.098	0.0120325
727.176	0.0119332
727.254	0.0118665
727.332	0.0118563
727.410	0.0116621
727.488	0.0117689
727.567	0.0119482
727.645	0.0121691
727.723	0.0124677
727.801	0.0125776
727.879	0.0128727
727.957	0.0134422
728.035	0.0139043
728.113	0.0142844
728.192	0.0145752
728.270	0.0149076
728.348	0.0153309
728.426	0.0155669
728.504	0.0159669
728.582	0.0162889
728.660	0.0163963
728.738	0.0166044
728.817	0.0167891
728.895	0.0169182
728.973	0.0172012
729.051	0.0171338
729.129	0.0174411
729.207	0.0173823
729.285	0.0174861
729.363	0.0177597
729.442	0.0176958
729.520	0.0178626
729.598	0.0179889
729.676	0.0178294
729.754	0.0180920
729.832	0.0181085
729.910	0.0179693
729.988	0.0180652
730.067	0.0180949
730.145	0.0182038
730.223	0.0182052
730.301	0.0180910
730.379	0.0181446
730.457	0.0181943
730.535	0.0180227
730.613	0.0181124
730.692	0.0182762
730.770	0.0183574
730.848	0.0185356
730.926	0.0185560
731.004	0.0188019
731.082	0.0191496
731.160	0.0191273
731.238	0.0191383
731.317	0.0192108
731.395	0.0191781
731.473	0.0187691
731.551	0.0188552
731.629	0.0184192
731.707	0.0180982
731.785	0.0179943
731.863	0.0175747
731.942	0.0171333
732.020	0.0167954
732.098	0.0163737
732.176	0.0160345
732.254	0.0156033
732.332	0.0151572
732.410	0.0147379
732.488	0.0145454
732.567	0.0143068
732.645	0.0141885
732.723	0.0139794
732.801	0.0140034
732.879	0.0138969
732.957	0.0136743
733.035	0.0136513
733.113	0.0137978
733.192	0.0137476
733.270	0.0136824
733.348	0.0137563
733.426	0.0138143
733.504	0.0140958
733.582	0.0142245
733.660	0.0143533
733.738	0.0143952
733.817	0.0143150
733.895	0.0145876
733.973	0.0145793
734.051	0.0144501
734.129	0.0144286
734.207	0.0143219
734.285	0.0143137
734.363	0.0142612
734.442	0.0141994
734.520	0.0141564
734.598	0.0139984
734.676	0.0139375
734.754	0.0138025
734.832	0.0137145
734.910	0.0136704
734.988	0.0137222
735.067	0.0136102
735.145	0.0136431
735.223	0.0136689
735.301	0.0135314
735.379	0.0136645
735.457	0.0137738
735.535	0.0138995
735.613	0.0140581
735.692	0.0141010
735.770	0.0143394
735.848	0.0145183
735.926	0.0147356
736.004	0.0150306
736.082	0.0150874
736.160	0.0154225
736.238	0.0155474
736.317	0.0157726
736.395	0.0159853
736.473	0.0162230
736.551	0.0163062
736.629	0.0163661
736.707	0.0166156
736.785	0.0167259
736.863	0.0168941
736.942	0.0169681
737.020	0.0171426
737.098	0.0172426
737.176	0.0173167
737.254	0.0173439
737.332	0.0173212
737.410	0.0172458
737.488	0.0172511
737.567	0.0171495
737.645	0.0169942
737.723	0.0171744
737.801	0.0169982
737.879	0.0167217
737.957	0.0168102
738.035	0.0165610
738.113	0.0165649
738.192	0.0165531
738.270	0.0166552
738.348	0.0165588
738.426	0.0167088
738.504	0.0168577
738.582	0.0170778
738.660	0.0172367
738.738	0.0173833
738.817	0.0176983
738.895	0.0178393
738.973	0.0180322
739.051	0.0180989
739.129	0.0184868
739.207	0.0183959
739.285	0.0183847
739.363	0.0184669
739.442	0.0184077
739.520	0.0183586
739.598	0.0180353
739.676	0.0177957
739.754	0.0175553
739.832	0.0174101
739.910	0.0170940
739.988	0.0168230
740.067	0.0164860
740.145	0.0161464
740.223	0.0158829
740.301	0.0155466
740.379	0.0153641
740.457	0.0148551
740.535	0.0145244
740.613	0.0143911
740.692	0.0140002
740.770	0.0138398
740.848	0.0137830
740.926	0.0136082
741.004	0.0135278
741.082	0.0133996
741.160	0.0133672
741.238	0.0133398
741.317	0.0134369
741.395	0.0134100
741.473	0.0134740
741.551	0.0134264
741.629	0.0136916
741.707	0.0137959
741.785	0.0139572
741.863	0.0141933
741.942	0.0142048
742.020	0.0145972
742.098	0.0147824
742.176	0.0148975
742.254	0.0149446
742.332	0.0150233
742.410	0.0153034
742.488	0.0152983
742.567	0.0153706
742.645	0.0153227
742.723	0.0154942
742.801	0.0154037
742.879	0.0152979
742.957	0.0153380
743.035	0.0152116
743.113	0.0151649
743.192	0.0150639
743.270	0.0151824
743.348	0.0151600
743.426	0.0149712
743.504	0.0150456
743.582	0.0152377
743.660	0.0150587
743.738	0.0151209
743.817	0.0154684
743.895	0.0153380
743.973	0.0155624
744.051	0.0156920
744.129	0.0158345
744.207	0.0160682
744.285	0.0159460
744.363	0.0160281
744.442	0.0160193
744.520	0.0162601
744.598	0.0162013
744.676	0.0162801
744.754	0.0161689
744.832	0.0161757
744.910	0.0162524
744.988	0.0161852
745.067	0.0161404
745.145	0.0162315
745.223	0.0162035
745.301	0.0161136
745.379	0.0161312
745.457	0.0163818
745.535	0.0163355
745.613	0.0164019
745.692	0.0164215
745.770	0.0164431
745.848	0.0164561
745.926	0.0165062
746.004	0.0165698
746.082	0.0165919
746.160	0.0167027
746.238	0.0167184
746.317	0.0166737
746.395	0.0167275
746.473	0.0168163
746.551	0.0168247
746.629	0.0168987
746.707	0.0166840
746.785	0.0168487
746.863	0.0169263
746.942	0.0170165
747.020	0.0170789
747.098	0.0170858
747.176	0.0172446
747.254	0.0171935
747.332	0.0171362
747.410	0.0170421
747.488	0.0171587
747.567	0.0171944
747.645	0.0167558
747.723	0.0166895
747.801	0.0166586
747.879	0.0165211
747.957	0.0162878
748.035	0.0160561
748.113	0.0160413
748.192	0.0159090
748.270	0.0155019
748.348	0.0154549
748.426	0.0153599
748.504	0.0151623
748.582	0.0149580
748.660	0.0149057
748.738	0.0149385
748.817	0.0148283
748.895	0.0148053
748.973	0.0148055
749.051	0.0148049
749.129	0.0148969
749.207	0.0150968
749.285	0.0151888
749.363	0.0151428
749.442	0.0151700
749.520	0.0153121
749.598	0.0152029
749.676	0.0153857
749.754	0.0154326
749.832	0.0155284
749.910	0.0154987
749.988	0.0154977
750.067	0.0155514
750.145	0.0154498
750.223	0.0153614
750.301	0.0152982
750.379	0.0153345
750.457	0.0152538
750.535	0.0151630
750.613	0.0152288
750.692	0.0150984
750.770	0.0149440
750.848	0.0149051
750.926	0.0147644
751.004	0.0146956
751.082	0.0145274
751.160	0.0145840
751.238	0.0143976
751.317	0.0145096
751.395	0.0144846
751.473	0.0144561
751.551	0.0143999
751.629	0.0144270
751.707	0.0145552
751.785	0.0147185
751.863	0.0148534
751.942	0.0147954
752.020	0.0151450
752.098	0.0151895
752.176	0.0153482
752.254	0.0154446
752.332	0.0157035
752.410	0.0156689
752.488	0.0160039
752.567	0.0160725
752.645	0.0160265
752.723	0.0161693
752.801	0.0162725
752.879	0.0163505
752.957	0.0163623
753.035	0.0164991
753.113	0.0165565
753.192	0.0165285
753.270	0.0167165
753.348	0.0167873
753.426	0.0167592
753.504	0.0169220
753.582	0.0168201
753.660	0.0169054
753.738	0.0166639
753.817	0.0166059
753.895	0.0165245
753.973	0.0164055
754.051	0.0164544
754.129	0.0163980
754.207	0.0162916
754.285	0.0160809
754.363	0.0161506
754.442	0.0161823
754.520	0.0161514
754.598	0.0162395
754.676	0.0162548
754.754	0.0162760
754.832	0.0162273
754.910	0.0163850
754.988	0.0164556
755.067	0.0165453
755.145	0.0165066
755.223	0.0166333
755.301	0.0166789
755.379	0.0164772
755.457	0.0166472
755.535	0.0165864
755.613	0.0165554
755.692	0.0164495
755.770	0.0161788
755.848	0.0162345
755.926	0.0159521
756.004	0.0159952
756.082	0.0156994
756.160	0.0154895
756.238	0.0153537
756.317	0.0152717
756.395	0.0153525
756.473	0.0151167
756.551	0.0151586
756.629	0.0150928
756.707	0.0149638
756.785	0.0150603
756.863	0.0151527
756.942	0.0151142
757.020	0.0151157
757.098	0.0150892
757.176	0.0153337
757.254	0.0153421
757.332	0.0153500
757.410	0.0152418
757.488	0.0154042
757.567	0.0155795
757.645	0.0154967
757.723	0.0153488
757.801	0.0156075
757.879	0.0155865
757.957	0.0156693
758.035	0.0157329
758.113	0.0157619
758.192	0.0156157
758.270	0.0157609
758.348	0.0156694
758.426	0.0158389
758.504	0.0159689
758.582	0.0159164
758.660	0.0159406
758.738	0.0158911
758.817	0.0156488
758.895	0.0157905
758.973	0.0156032
759.051	0.0156246
759.129	0.0153919
759.207	0.0154380
759.285	0.0153901
759.363	0.0151911
759.442	0.0149292
759.520	0.0151139
759.598	0.0150613
759.676	0.0148172
759.754	0.0149966
759.832	0.0149210
759.910	0.0149634
759.988	0.0149978
760.067	0.0149366
760.145	0.0151044
760.223	0.0152096
760.301	0.0152087
760.379	0.0153828
760.457	0.0155472
760.535	0.0155699
760.613	0.0155818
760.692	0.0156969
760.770	0.0157579
760.848	0.0158965
760.926	0.0157819
761.004	0.0157259
761.082	0.0158487
761.160	0.0158332
761.238	0.0158855
761.317	0.0159863
761.395	0.0159240
761.473	0.0159692
761.551	0.0158893
761.629	0.0159453
761.707	0.0159285
761.785	0.0157970
761.863	0.0159927
761.942	0.0159396
762.020	0.0159509
762.098	0.0158845
762.176	0.0158015
762.254	0.0159161
762.332	0.0158982
762.410	0.0157962
762.488	0.0160755
762.567	0.0161617
762.645	0.0163242
762.723	0.0162405
762.801	0.0163587
762.879	0.0165926
762.957	0.0164159
763.035	0.0166452
763.113	0.0166590
763.192	0.0166969
763.270	0.0167413
763.348	0.0168003
763.426	0.0167693
763.504	0.0169283
763.582	0.0169151
763.660	0.0168188
763.738	0.0167816
763.817	0.0167785
763.895	0.0167878
763.973	0.0166627
764.051	0.0165871
764.129	0.0163538
764.207	0.0163018
764.285	0.0161103
764.363	0.0161768
764.442	0.0159257
764.520	0.0157232
764.598	0.0156862
764.676	0.0153442
764.754	0.0152352
764.832	0.0152924
764.910	0.0149635
764.988	0.0149529
765.067	0.0150643
765.145	0.0149712
765.223	0.0148995
765.301	0.0150047
765.379	0.0149945
765.457	0.0151602
765.535	0.0151611
765.613	0.0152704
765.692	0.0152389
765.770	0.0153294
765.848	0.0155378
765.926	0.0154261
766.004	0.0153944
766.082	0.0155771
766.160	0.0155423
766.238	0.0154565
766.317	0.0156066
766.395	0.0155508
766.473	0.0155242
766.551	0.0155238
766.629	0.0155540
766.707	0.0156283
766.785	0.0155023
766.863	0.0155759
766.942	0.0155979
767.020	0.0155923
767.098	0.0156095
767.176	0.0153963
767.254	0.0152980
767.332	0.0153008
767.410	0.0152135
767.488	0.0152197
767.567	0.0151445
767.645	0.0149852
767.723	0.0149135
767.801	0.0148419
767.879	0.0147911
767.957	0.0150056
768.035	0.0151125
768.113	0.0150997
768.192	0.0152994
768.270	0.0153452
768.348	0.0153333
768.426	0.0154205
768.504	0.0155278
768.582	0.0158318
768.660	0.0160194
768.738	0.0159613
768.817	0.0160060
768.895	0.0162325
768.973	0.0164036
769.051	0.0162989
769.129	0.0164207
769.207	0.0165513
769.285	0.0165551
769.363	0.0164977
769.442	0.0165013
769.520	0.0166932
769.598	0.0165993
769.676	0.0165773
769.754	0.0165625
769.832	0.0163810
769.910	0.0161759
769.988	0.0162157
770.067	0.0161034
770.145	0.0159261
770.223	0.0158799
770.301	0.0160150
770.379	0.0157527
770.457	0.0156651
770.535	0.0156618
770.613	0.0157536
770.692	0.0155220
770.770	0.0156708
770.848	0.0155704
770.926	0.0156914
771.004	0.0156976
771.082	0.0157996
771.160	0.0157472
771.238	0.0156780
771.317	0.0159352
771.395	0.0159480
771.473	0.0161142
771.551	0.0160027
771.629	0.0161109
771.707	0.0160584
771.785	0.0160696
771.863	0.0160755
771.942	0.0160854
772.020	0.0160696
772.098	0.0159650
772.176	0.0160033
772.254	0.0160049
772.332	0.0158457
772.410	0.0157598
772.488	0.0157088
772.567	0.0157510
772.645	0.0156845
772.723	0.0157138
772.801	0.0157410
772.879	0.0157150
772.957	0.0157714
773.035	0.0157449
773.113	0.0157391
773.192	0.0157459
773.270	0.0156841
773.348	0.0157616
773.426	0.0157741
773.504	0.0158220
773.582	0.0158337
773.660	0.0158957
773.738	0.0157503
773.817	0.0158421
773.895	0.0157507
773.973	0.0159212
774.051	0.0158808
774.129	0.0155989
774.207	0.0156805
774.285	0.0157106
774.363	0.0158376
774.442	0.0157759
774.520	0.0156264
774.598	0.0157996
774.676	0.0157224
774.754	0.0156030
774.832	0.0154729
774.910	0.0156167
774.988	0.0155555
775.067	0.0154499
775.145	0.0155267
775.223	0.0152864
775.301	0.0151617
775.379	0.0151488
775.457	0.0152456
775.535	0.0150374
775.613	0.0149969
775.692	0.0152174
775.770	0.0151524
775.848	0.0150500
775.926	0.0151115
776.004	0.0152583
776.082	0.0152410
776.160	0.0151406
776.238	0.0151408
776.317	0.0153650
776.395	0.0153927
776.473	0.0154673
776.551	0.0154748
776.629	0.0154621
776.707	0.0157123
776.785	0.0156670
776.863	0.0156097
776.942	0.0157283
777.020	0.0157662
777.098	0.0157562
777.176	0.0158132
777.254	0.0158067
777.332	0.0157925
777.410	0.0158550
777.488	0.0158755
777.567	0.0159813
777.645	0.0161169
777.723	0.0160563
777.801	0.0160847
777.879	0.0162941
777.957	0.0161672
778.035	0.0163210
778.113	0.0162908
778.192	0.0162696
778.270	0.0162331
778.348	0.0162510
778.426	0.0160572
778.504	0.0161825
778.582	0.0161630
778.660	0.0161515
778.738	0.0161195
778.817	0.0161482
778.895	0.0160603
778.973	0.0161546
779.051	0.0160835
779.129	0.0160076
779.207	0.0160877
779.285	0.0161330
779.363	0.0161176
779.442	0.0161778
779.520	0.0160870
779.598	0.0161491
779.676	0.0161559
779.754	0.0163210
779.832	0.0163143
779.910	0.0163095
779.988	0.0162836
780.067	0.0164200
780.145	0.0161948
780.223	0.0161540
780.301	0.0160653
780.379	0.0161349
780.457	0.0161821
780.535	0.0159595
780.613	0.0159087
780.692	0.0158791
780.770	0.0159259
780.848	0.0158401
780.926	0.0157180
781.004	0.0157667
781.082	0.0158579
781.160	0.0157690
781.238	0.0157903
781.317	0.0158417
781.395	0.0157442
781.473	0.0156396
781.551	0.0157147
781.629	0.0157126
781.707	0.0157298
781.785	0.0157144
781.863	0.0155905
781.942	0.0155811
782.020	0.0156709
782.098	0.0156148
782.176	0.0154676
782.254	0.0156113
782.332	0.0154812
782.410	0.0154357
782.488	0.0154782
782.567	0.0154681
782.645	0.0154948
782.723	0.0154001
782.801	0.0152897
782.879	0.0152283
782.957	0.0154737
783.035	0.0153480
783.113	0.0153017
783.192	0.0153078
783.270	0.0153488
783.348	0.0153922
783.426	0.0153703
783.504	0.0154409
783.582	0.0154061
783.660	0.0155689
783.738	0.0157338
783.817	0.0158866
783.895	0.0160471
783.973	0.0160239
784.051	0.0161708
784.129	0.0161722
784.207	0.0163243
784.285	0.0161826
784.363	0.0161931
784.442	0.0161074
784.520	0.0160435
784.598	0.0158813
784.676	0.0154604
784.754	0.0151053
784.832	0.0150314
784.910	0.0145746
784.988	0.0142718
785.067	0.0139169
785.145	0.0137925
785.223	0.0137389
785.301	0.0137404
785.379	0.0135654
785.457	0.0137500
785.535	0.0137192
785.613	0.0139644
785.692	0.0141550
785.770	0.0142764
785.848	0.0145515
785.926	0.0149734
786.004	0.0156172
786.082	0.0160049
786.160	0.0166633
786.238	0.0172865
786.317	0.0179873
786.395	0.0187003
786.473	0.0192007
786.551	0.0197569
786.629	0.0199499
786.707	0.0203182
786.785	0.0203655
786.863	0.0206567
786.942	0.0205235
787.020	0.0203828
787.098	0.0201379
787.176	0.0197095
787.254	0.0193006
787.332	0.0186977
787.410	0.0181795
787.488	0.0174699
787.567	0.0170061
787.645	0.0162902
787.723	0.0157441
787.801	0.0148595
787.879	0.0141489
787.957	0.0137057
788.035	0.0132395
788.113	0.0125686
788.192	0.0122498
788.270	0.0117743
788.348	0.0115516
788.426	0.0111785
788.504	0.0111140
788.582	0.0111552
788.660	0.0110137
788.738	0.0111514
788.817	0.0112096
788.895	0.0114185
788.973	0.0117661
789.051	0.0120065
789.129	0.0125657
789.207	0.0128285
789.285	0.0132056
789.363	0.0136871
789.442	0.0141397
789.520	0.0145670
789.598	0.0148572
789.676	0.0152674
789.754	0.0157072
789.832	0.0161640
789.910	0.0166026
789.988	0.0171223
790.067	0.0173750
790.145	0.0178506
790.223	0.0181210
790.301	0.0183553
790.379	0.0187778
790.457	0.0189180
790.535	0.0191089
790.613	0.0193350
790.692	0.0194688
790.770	0.0194098
790.848	0.0195708
790.926	0.0196394
791.004	0.0197105
791.082	0.0195415
791.160	0.0193768
791.238	0.0194234
791.317	0.0193284
791.395	0.0190145
791.473	0.0187650
791.551	0.0185735
791.629	0.0181956
791.707	0.0180681
791.785	0.0174046
791.863	0.0170132
791.942	0.0166933
792.020	0.0163286
792.098	0.0158097
792.176	0.0154500
792.254	0.0151427
792.332	0.0149065
792.410	0.0144096
792.488	0.0141617
792.567	0.0138666
792.645	0.0137154
792.723	0.0136831
792.801	0.0134583
792.879	0.0134042
792.957	0.0132020
793.035	0.0131138
793.113	0.0129794
793.192	0.0128614
793.270	0.0127816
793.348	0.0127550
793.426	0.0127194
793.504	0.0124863
793.582	0.0124627
793.660	0.0123330
793.738	0.0123810
793.817	0.0123138
793.895	0.0122668
793.973	0.0124004
794.051	0.0125417
794.129	0.0127941
794.207	0.0129205
794.285	0.0132681
794.363	0.0136120
794.442	0.0138113
794.520	0.0141322
794.598	0.0145123
794.676	0.0147786
794.754	0.0152435
794.832	0.0156802
794.910	0.0159418
794.988	0.0164330
795.067	0.0164939
795.145	0.0167771
795.223	0.0169761
795.301	0.0172679
795.379	0.0175810
795.457	0.0174879
795.535	0.0176719
795.613	0.0176603
795.692	0.0177223
795.770	0.0179125
795.848	0.0180492
795.926	0.0180687
796.004	0.0181643
796.082	0.0182185
796.160	0.0183614
796.238	0.0182549
796.317	0.0184129
796.395	0.0183924
796.473	0.0184058
796.551	0.0184321
796.629	0.0184724
796.707	0.0182871
796.785	0.0183155
796.863	0.0183181
796.942	0.0181905
797.020	0.0181031
797.098	0.0180663
797.176	0.0178462
797.254	0.0175722
797.332	0.0174030
797.410	0.0172874
797.488	0.0169881
797.567	0.0168084
797.645	0.0166703
797.723	0.0163892
797.801	0.0163512
797.879	0.0161441
797.957	0.0158859
798.035	0.0158175
798.113	0.0156065
798.192	0.0154332
798.270	0.0153011
798.348	0.0150943
798.426	0.0149095
798.504	0.0148544
798.582	0.0147629
798.660	0.0145849
798.738	0.0142861
798.817	0.0142189
798.895	0.0140845
798.973	0.0139517
799.051	0.0139346
799.129	0.0137659
799.207	0.0138371
799.285	0.0136356
799.363	0.0136584
799.442	0.0136147
799.520	0.0136086
799.598	0.0137048
799.676	0.0136852
799.754	0.0138145
799.832	0.0137322
799.910	0.0136044
799.988	0.0137572
800.067	0.0138663
800.145	0.0138368
800.223	0.0139021
800.301	0.0140707
800.379	0.0140049
800.457	0.0139719
800.535	0.0140236
800.613	0.0140427
800.692	0.0141737
800.770	0.0142844
800.848	0.0143629
800.926	0.0144682
801.004	0.0146159
801.082	0.0148049
801.160	0.0149074
801.238	0.0152202
801.317	0.0154527
801.395	0.0154637
801.473	0.0157235
801.551	0.0160262
801.629	0.0161002
801.707	0.0162739
801.785	0.0165962
801.863	0.0166818
801.942	0.0168652
802.020	0.0170484
802.098	0.0171447
802.176	0.0173023
802.254	0.0174672
802.332	0.0176707
802.410	0.0178574
802.488	0.0177930
802.567	0.0178551
802.645	0.0180718
802.723	0.0178647
802.801	0.0179956
802.879	0.0179233
802.957	0.0179718
803.035	0.0179985
803.113	0.0178437
803.192	0.0177644
803.270	0.0175851
803.348	0.0172824
803.426	0.0172489
803.504	0.0171159
803.582	0.0169589
803.660	0.0166944
803.738	0.0166751
803.817	0.0165968
803.895	0.0163403
803.973	0.0162119
804.051	0.0162070
804.129	0.0161407
804.207	0.0159000
804.285	0.0158459
804.363	0.0157490
804.442	0.0156458
804.520	0.0157792
804.598	0.0156257
804.676	0.0156522
804.754	0.0155560
804.832	0.0155518
804.910	0.0155968
804.988	0.0154198
805.067	0.0152958
805.145	0.0153928
805.223	0.0151871
805.301	0.0151872
805.379	0.0151902
805.457	0.0151963
805.535	0.0151292
805.613	0.0150417
805.692	0.0150502
805.770	0.0150423
805.848	0.0151065
805.926	0.0151063
806.004	0.0149155
806.082	0.0150697
806.160	0.0150868
806.238	0.0150932
806.317	0.0151533
806.395	0.0150962
806.473	0.0150909
806.551	0.0153214
806.629	0.0154008
806.707	0.0153693
806.785	0.0153762
806.863	0.0154824
806.942	0.0155263
807.020	0.0156530
807.098	0.0155407
807.176	0.0154937
807.254	0.0155250
807.332	0.0154498
807.410	0.0153136
807.488	0.0152977
807.567	0.0152798
807.645	0.0152829
807.723	0.0152354
807.801	0.0150354
807.879	0.0152275
807.957	0.0151610
808.035	0.0152526
808.113	0.0152773
808.192	0.0152635
808.270	0.0152591
808.348	0.0152243
808.426	0.0153295
808.504	0.0151541
808.582	0.0151834
808.660	0.0152623
808.738	0.0151032
808.817	0.0150101
808.895	0.0149756
808.973	0.0150864
809.051	0.0151864
809.129	0.0152359
809.207	0.0154019
809.285	0.0155142
809.363	0.0154984
809.442	0.0158135
809.520	0.0158365
809.598	0.0159467
809.676	0.0161269
809.754	0.0161816
809.832	0.0162676
809.910	0.0162967
809.988	0.0163061
810.067	0.0163564
810.145	0.0163361
810.223	0.0164782
810.301	0.0164925
810.379	0.0165367
810.457	0.0164393
810.535	0.0162974
810.613	0.0163358
810.692	0.0162538
810.770	0.0163357
810.848	0.0162994
810.926	0.0164090
811.004	0.0164551
811.082	0.0163167
811.160	0.0163435
811.238	0.0164536
811.317	0.0165427
811.395	0.0164368
811.473	0.0166178
811.551	0.0165545
811.629	0.0165359
811.707	0.0167934
811.785	0.0167846
811.863	0.0166045
811.942	0.0166653
812.020	0.0166882
812.098	0.0167377
812.176	0.0166616
812.254	0.0164644
812.332	0.0164971
812.410	0.0165801
812.488	0.0163432
812.567	0.0161910
812.645	0.0160991
812.723	0.0158722
812.801	0.0159122
812.879	0.0157495
812.957	0.0156037
813.035	0.0154742
813.113	0.0153182
813.192	0.0153501
813.270	0.0152481
813.348	0.0153260
813.426	0.0151791
813.504	0.0150995
813.582	0.0151786
813.660	0.0153452
813.738	0.0153825
813.817	0.0154387
813.895	0.0153387
813.973	0.0154736
814.051	0.0156868
814.129	0.0157112
814.207	0.0158613
814.285	0.0158251
814.363	0.0160362
814.442	0.0160700
814.520	0.0160440
814.598	0.0158876
814.676	0.0158900
814.754	0.0158371
814.832	0.0156637
814.910	0.0154314
814.988	0.0152589
815.067	0.0152761
815.145	0.0150272
815.223	0.0148080
815.301	0.0145376
815.379	0.0143525
815.457	0.0143063
815.535	0.0143391
815.613	0.0143121
815.692	0.0142076
815.770	0.0143871
815.848	0.0143897
815.926	0.0146352
816.004	0.0147495
816.082	0.0148327
816.160	0.0148335
816.238	0.0150517
816.317	0.0152327
816.395	0.0154124
816.473	0.0156661
816.551	0.0155813
816.629	0.0158707
816.707	0.0159034
816.785	0.0161191
816.863	0.0161041
816.942	0.0161322
817.020	0.0164057
817.098	0.0163912
817.176	0.0162038
817.254	0.0162710
817.332	0.0162058
817.410	0.0163205
817.488	0.0161927
817.567	0.0161030
817.645	0.0160408
817.723	0.0160865
817.801	0.0159364
817.879	0.0159295
817.957	0.0159010
818.035	0.0157935
818.113	0.0158400
818.192	0.0157622
818.270	0.0156694
818.348	0.0155586
818.426	0.0157172
818.504	0.0156683
818.582	0.0155915
818.660	0.0156963
818.738	0.0156758
818.817	0.0157693
818.895	0.0157106
818.973	0.0157839
819.051	0.0157471
819.129	0.0159762
819.207	0.0161194
819.285	0.0161356
819.363	0.0163600
819.442	0.0163383
819.520	0.0165781
819.598	0.0168447
819.676	0.0168773
819.754	0.0168236
819.832	0.0170393
819.910	0.0170357
819.988	0.0170803
820.067	0.0172715
820.145	0.0172800
820.223	0.0171897
820.301	0.0170357
820.379	0.0168230
820.457	0.0168012
820.535	0.0166763
820.613	0.0165269
820.692	0.0163590
820.770	0.0161499
820.848	0.0160643
820.926	0.0157390
821.004	0.0157101
821.082	0.0156004
821.160	0.0155985
821.238	0.0152497
821.317	0.0152657
821.395	0.0151885
821.473	0.0150751
821.551	0.0150381
821.629	0.0151170
821.707	0.0152583
821.785	0.0151653
821.863	0.0151551
821.942	0.0151859
822.020	0.0151491
822.098	0.0152099
822.176	0.0151978
822.254	0.0152209
822.332	0.0152827
822.410	0.0154199
822.488	0.0154976
822.567	0.0153195
822.645	0.0154382
822.723	0.0154598
822.801	0.0155785
822.879	0.0156063
822.957	0.0156393
823.035	0.0157120
823.113	0.0155939
823.192	0.0156114
823.270	0.0157139
823.348	0.0156723
823.426	0.0156393
823.504	0.0154202
823.582	0.0152127
823.660	0.0153200
823.738	0.0153534
823.817	0.0153284
823.895	0.0151355
823.973	0.0150951
824.051	0.0148581
824.129	0.0148424
824.207	0.0149040
824.285	0.0147787
824.363	0.0147825
824.442	0.0148040
824.520	0.0147890
824.598	0.0147572
824.676	0.0148689
824.754	0.0148749
824.832	0.0148997
824.910	0.0150519
824.988	0.0152783
825.067	0.0151505
825.145	0.0153072
825.223	0.0155827
825.301	0.0156326
825.379	0.0157492
825.457	0.0158749
825.535	0.0157439
825.613	0.0158915
825.692	0.0160457
825.770	0.0159895
825.848	0.0160965
825.926	0.0163373
826.004	0.0162350
826.082	0.0162495
826.160	0.0162250
826.238	0.0162981
826.317	0.0162206
826.395	0.0162660
826.473	0.0163625
826.551	0.0162570
826.629	0.0162955
826.707	0.0163392
826.785	0.0164239
826.863	0.0164156
826.942	0.0166006
827.020	0.0165962
827.098	0.0166752
827.176	0.0167425
827.254	0.0167228
827.332	0.0167847
827.410	0.0167493
827.488	0.0167467
827.567	0.0168009
827.645	0.0169036
827.723	0.0168006
827.801	0.0167633
827.879	0.0167016
827.957	0.0166804
828.035	0.0167016
828.113	0.0167130
828.192	0.0165820
828.270	0.0164693
828.348	0.0164214
828.426	0.0162419
828.504	0.0161625
828.582	0.0161526
828.660	0.0159588
828.738	0.0159584
828.817	0.0157842
828.895	0.0157042
828.973	0.0156324
829.051	0.0154328
829.129	0.0153134
829.207	0.0153235
829.285	0.0152409
829.363	0.0152030
829.442	0.0151229
829.520	0.0149929
829.598	0.0148589
829.676	0.0149450
829.754	0.0149120
829.832	0.0147847
829.910	0.0148370
829.988	0.0148843
830.067	0.0147991
830.145	0.0146421
830.223	0.0146316
830.301	0.0148296
830.379	0.0147101
830.457	0.0148312
830.535	0.0148342
830.613	0.0147540
830.692	0.0148309
830.770	0.0148698
830.848	0.0149066
830.926	0.0150344
831.004	0.0150059
831.082	0.0151052
831.160	0.0151955
831.238	0.0151591
831.317	0.0151045
831.395	0.0153735
831.473	0.0153886
831.551	0.0153892
831.629	0.0154888
831.707	0.0156493
831.785	0.0157751
831.863	0.0157562
831.942	0.0159722
832.020	0.0158976
832.098	0.0161755
832.176	0.0164063
832.254	0.0164278
832.332	0.0165080
832.410	0.0165335
832.488	0.0165135
832.567	0.0164799
832.645	0.0165739
832.723	0.0165777
832.801	0.0165697
832.879	0.0165627
832.957	0.0165057
833.035	0.0164986
833.113	0.0163459
833.192	0.0163564
833.270	0.0164601
833.348	0.0162798
833.426	0.0162280
833.504	0.0161462
833.582	0.0161047
833.660	0.0159208
833.738	0.0158392
833.817	0.0158075
833.895	0.0156764
833.973	0.0156441
834.051	0.0155786
834.129	0.0156118
834.207	0.0155683
834.285	0.0155374
834.363	0.0153861
834.442	0.0153000
834.520	0.0153780
834.598	0.0152325
834.676	0.0152636
834.754	0.0152000
834.832	0.0153946
834.910	0.0153620
834.988	0.0153770
835.067	0.0153829
835.145	0.0154704
835.223	0.0153471
835.301	0.0152287
835.379	0.0154567
835.457	0.0156389
835.535	0.0156857
835.613	0.0156188
835.692	0.0156187
835.770	0.0157619
835.848	0.0156979
835.926	0.0157986
836.004	0.0159347
836.082	0.0158505
836.160	0.0157418
836.238	0.0159721
836.317	0.0161449
836.395	0.0161038
836.473	0.0159210
836.551	0.0159176
836.629	0.0160018
836.707	0.0161700
836.785	0.0160477
836.863	0.0160630
836.942	0.0160286
837.020	0.0161018
837.098	0.0161650
837.176	0.0161709
837.254	0.0161210
837.332	0.0162018
837.410	0.0161655
837.488	0.0161037
837.567	0.0160386
837.645	0.0160201
837.723	0.0159666
837.801	0.0159686
837.879	0.0160452
837.957	0.0159003
838.035	0.0159334
838.113	0.0159212
838.192	0.0158280
838.270	0.0156791
838.348	0.0158015
838.426	0.0158894
838.504	0.0159565
838.582	0.0160083
838.660	0.0160042
838.738	0.0160172
838.817	0.0161530
838.895	0.0160519
838.973	0.0159738
839.051	0.0159075
839.129	0.0159313
839.207	0.0159497
839.285	0.0157555
839.363	0.0157592
839.442	0.0157313
839.520	0.0155827
839.598	0.0155561
839.676	0.0154743
839.754	0.0153561
839.832	0.0152415
839.910	0.0152892
839.988	0.0150497
840.067	0.0150750
840.145	0.0151311
840.223	0.0149928
840.301	0.0150162
840.379	0.0151109
840.457	0.0151616
840.535	0.0150404
840.613	0.0151514
840.692	0.0150953
840.770	0.0151929
840.848	0.0153501
840.926	0.0153197
841.004	0.0154453
841.082	0.0154338
841.160	0.0154494
841.238	0.0155177
841.317	0.0155209
841.395	0.0155376
841.473	0.0155885
841.551	0.0155629
841.629	0.0153873
841.707	0.0155158
841.785	0.0155166
841.863	0.0156146
841.942	0.0155600
842.020	0.0155527
842.098	0.0155727
842.176	0.0156892
842.254	0.0156261
842.332	0.0156548
842.410	0.0157949
842.488	0.0156176
842.567	0.0157516
842.645	0.0157564
842.723	0.0159509
842.801	0.0159590
842.879	0.0159952
842.957	0.0159901
843.035	0.0159647
843.113	0.0161121
843.192	0.0160300
843.270	0.0162735
843.348	0.0163635
843.426	0.0163866
843.504	0.0164043
843.582	0.0164040
843.660	0.0164528
843.738	0.0164625
843.817	0.0165250
843.895	0.0165495
843.973	0.0165816
844.051	0.0166521
844.129	0.0164259
844.207	0.0165405
844.285	0.0165495
844.363	0.0166273
844.442	0.0164455
844.520	0.0164301
844.598	0.0164625
844.676	0.0162977
844.754	0.0162804
844.832	0.0162929
844.910	0.0162002
844.988	0.0161291
845.067	0.0160966
845.145	0.0159295
845.223	0.0160232
845.301	0.0158135
845.379	0.0158939
845.457	0.0157141
845.535	0.0156423
845.613	0.0155874
845.692	0.0154552
845.770	0.0154644
845.848	0.0155113
845.926	0.0154627
846.004	0.0154723
846.082	0.0156251
846.160	0.0154402
846.238	0.0154082
846.317	0.0154395
846.395	0.0155380
846.473	0.0153883
846.551	0.0154739
846.629	0.0154370
846.707	0.0154005
846.785	0.0155785
846.863	0.0153702
846.942	0.0154101
847.020	0.0153854
847.098	0.0153790
847.176	0.0153266
847.254	0.0153718
847.332	0.0154471
847.410	0.0153182
847.488	0.0154754
847.567	0.0153854
847.645	0.0153764
847.723	0.0154903
847.801	0.0154266
847.879	0.0153775
847.957	0.0153897
848.035	0.0154081
848.113	0.0152860
848.192	0.0152833
848.270	0.0154211
848.348	0.0154415
848.426	0.0152055
848.504	0.0152790
848.582	0.0154116
848.660	0.0155284
848.738	0.0153945
848.817	0.0154670
848.895	0.0154584
848.973	0.0155445
849.051	0.0156244
849.129	0.0156657
849.207	0.0156557
849.285	0.0160554
849.363	0.0161665
849.442	0.0162800
849.520	0.0162737
849.598	0.0164240
849.676	0.0164355
849.754	0.0164225
849.832	0.0162733
849.910	0.0163445
849.988	0.0164261
850.067	0.0164061
850.145	0.0164103
850.223	0.0163029
850.301	0.0163884
850.379	0.0163946
850.457	0.0162347
850.535	0.0162038
850.613	0.0162015
850.692	0.0162159
850.770	0.0161700
850.848	0.0162218
850.926	0.0161411
851.004	0.0160605
851.082	0.0159830
851.160	0.0158399
851.238	0.0158056
851.317	0.0158006
851.395	0.0157669
851.473	0.0158105
851.551	0.0157199
851.629	0.0157063
851.707	0.0156219
851.785	0.0155129
851.863	0.0155585
851.942	0.0155416
852.020	0.0155637
852.098	0.0153510
852.176	0.0154314
852.254	0.0156560
852.332	0.0155726
852.410	0.0153992
852.488	0.0155363
852.567	0.0156083
852.645	0.0155738
852.723	0.0156357
852.801	0.0157655
852.879	0.0158534
852.957	0.0158192
853.035	0.0158501
853.113	0.0157896
853.192	0.0156847
853.270	0.0158405
853.348	0.0157928
853.426	0.0158456
853.504	0.0159480
853.582	0.0159063
853.660	0.0159744
853.738	0.0159660
853.817	0.0159089
853.895	0.0159822
853.973	0.0160975
854.051	0.0161236
854.129	0.0160633
854.207	0.0160590
854.285	0.0160604
854.363	0.0160888
854.442	0.0158897
854.520	0.0159620
854.598	0.0158917
854.676	0.0159143
854.754	0.0158849
854.832	0.0157567
854.910	0.0157845
854.988	0.0158270
855.067	0.0156876
855.145	0.0156710
855.223	0.0157470
855.301	0.0156213
855.379	0.0155753
855.457	0.0156367
855.535	0.0157499
855.613	0.0155858
855.692	0.0155016
855.770	0.0155253
855.848	0.0156777
855.926	0.0155264
856.004	0.0155002
856.082	0.0156019
856.160	0.0157037
856.238	0.0157253
856.317	0.0156075
856.395	0.0157206
856.473	0.0155694
856.551	0.0156335
856.629	0.0157109
856.707	0.0156945
856.785	0.0156956
856.863	0.0156229
856.942	0.0156464
857.020	0.0157892
857.098	0.0156202
857.176	0.0156650
857.254	0.0154782
857.332	0.0155770
857.410	0.0155630
857.488	0.0155109
857.567	0.0156716
857.645	0.0155959
857.723	0.0156078
857.801	0.0156568
857.879	0.0157650
857.957	0.0158594
858.035	0.0158364
858.113	0.0157229
858.192	0.0157813
858.270	0.0158574
858.348	0.0158559
858.426	0.0158760
858.504	0.0158772
858.582	0.0157294
858.660	0.0158260
858.738	0.0158057
858.817	0.0156055
858.895	0.0156416
858.973	0.0156456
859.051	0.0156232
859.129	0.0155802
859.207	0.0156627
859.285	0.0155540
859.363	0.0155583
859.442	0.0155297
859.520	0.0155706
859.598	0.0156671
859.676	0.0156434
859.754	0.0156443
859.832	0.0156268
859.910	0.0155684
859.988	0.0156671
860.067	0.0156849
860.145	0.0158685
860.223	0.0157444
860.301	0.0158611
860.379	0.0159904
860.457	0.0161017
860.535	0.0160701
860.613	0.0161304
860.692	0.0162329
860.770	0.0163099
860.848	0.0162493
860.926	0.0163343
861.004	0.0162457
861.082	0.0162347
861.160	0.0163090
861.238	0.0162145
861.317	0.0161186
861.395	0.0162640
861.473	0.0160944
861.551	0.0162408
861.629	0.0162189
861.707	0.0161353
861.785	0.0160502
861.863	0.0160833
861.942	0.0159889
862.020	0.0158346
862.098	0.0158453
862.176	0.0159126
862.254	0.0157204
862.332	0.0156794
862.410	0.0157365
862.488	0.0157541
862.567	0.0154681
862.645	0.0156148
862.723	0.0155370
862.801	0.0154489
862.879	0.0154422
862.957	0.0154433
863.035	0.0155150
863.113	0.0154704
863.192	0.0154677
863.270	0.0155366
863.348	0.0155572
863.426	0.0154880
863.504	0.0156998
863.582	0.0156145
863.660	0.0154908
863.738	0.0154442
863.817	0.0153100
863.895	0.0153014
863.973	0.0152615
864.051	0.0152921
864.129	0.0152409
864.207	0.0152347
864.285	0.0153502
864.363	0.0154868
864.442	0.0155953
864.520	0.0154787
864.598	0.0154939
864.676	0.0156026
864.754	0.0155524
864.832	0.0153815
864.910	0.0154333
864.988	0.0155711
865.067	0.0153471
865.145	0.0152864
865.223	0.0153832
865.301	0.0153497
865.379	0.0151091
865.457	0.0151553
865.535	0.0154092
865.613	0.0154739
865.692	0.0156759
865.770	0.0157272
865.848	0.0157788
865.926	0.0158631
866.004	0.0159714
866.082	0.0161335
866.160	0.0160788
866.238	0.0161620
866.317	0.0162996
866.395	0.0161813
866.473	0.0162222
866.551	0.0161152
866.629	0.0161426
866.707	0.0161887
866.785	0.0162537
866.863	0.0160192
866.942	0.0160030
867.020	0.0160355
867.098	0.0161224
867.176	0.0161119
867.254	0.0161050
867.332	0.0160066
867.410	0.0160482
867.488	0.0161492
867.567	0.0160486
867.645	0.0158600
867.723	0.0162128
867.801	0.0160027
867.879	0.0161166
867.957	0.0159061
868.035	0.0159315
868.113	0.0158887
868.192	0.0158671
868.270	0.0158298
868.348	0.0158288
868.426	0.0156598
868.504	0.0156530
868.582	0.0157174
868.660	0.0157157
868.738	0.0155734
868.817	0.0155748
868.895	0.0155932
868.973	0.0154488
869.051	0.0154700
869.129	0.0155173
869.207	0.0156310
869.285	0.0156757
869.363	0.0157215
869.442	0.0155764
869.520	0.0156940
869.598	0.0157210
869.676	0.0158136
869.754	0.0157342
869.832	0.0157838
869.910	0.0158742
869.988	0.0159568
870.067	0.0159384
870.145	0.0159298
870.223	0.0159892
870.301	0.0160315
870.379	0.0160004
870.457	0.0159207
870.535	0.0158325
870.613	0.0158839
870.692	0.0159061
870.770	0.0158501
870.848	0.0158758
870.926	0.0159296
871.004	0.0158421
871.082	0.0158895
871.160	0.0157708
871.238	0.0157255
871.317	0.0156711
871.395	0.0158004
871.473	0.0157898
871.551	0.0156264
871.629	0.0156535
871.707	0.0156641
871.785	0.0156103
871.863	0.0157247
871.942	0.0155453
872.020	0.0155292
872.098	0.0156034
872.176	0.0155677
872.254	0.0156599
872.332	0.0155703
872.410	0.0155025
872.488	0.0156567
872.567	0.0155657
872.645	0.0156091
872.723	0.0155626
872.801	0.0155525
872.879	0.0156023
872.957	0.0155131
873.035	0.0156196
873.113	0.0155958
873.192	0.0154867
873.270	0.0154524
873.348	0.0153759
873.426	0.0155240
873.504	0.0155878
873.582	0.0155361
873.660	0.0154051
873.738	0.0154702
873.817	0.0155328
873.895	0.0155140
873.973	0.0154208
874.051	0.0154808
874.129	0.0155798
874.207	0.0154483
874.285	0.0155485
874.363	0.0157074
874.442	0.0155501
874.520	0.0156526
874.598	0.0154842
874.676	0.0156839
874.754	0.0157836
874.832	0.0157207
874.910	0.0158285
874.988	0.0158086
875.067	0.0157052
875.145	0.0157512
875.223	0.0155822
875.301	0.0157882
875.379	0.0156662
875.457	0.0156198
875.535	0.0156153
875.613	0.0157585
875.692	0.0156850
875.770	0.0157814
875.848	0.0156934
875.926	0.0157293
876.004	0.0156562
876.082	0.0156036
876.160	0.0159384
876.238	0.0160733
876.317	0.0158895
876.395	0.0159902
876.473	0.0161485
876.551	0.0160560
876.629	0.0161646
876.707	0.0163114
876.785	0.0162881
876.863	0.0163327
876.942	0.0163234
877.020	0.0164333
877.098	0.0164690
877.176	0.0165063
877.254	0.0163133
877.332	0.0164186
877.410	0.0162999
877.488	0.0161938
877.567	0.0161626
877.645	0.0160683
877.723	0.0160988
877.801	0.0160107
877.879	0.0160707
877.957	0.0158720
878.035	0.0159051
878.113	0.0158972
878.192	0.0157430
878.270	0.0157368
878.348	0.0155799
878.426	0.0154785
878.504	0.0153573
878.582	0.0154776
878.660	0.0154394
878.738	0.0153067
878.817	0.0154082
878.895	0.0153257
878.973	0.0153848
879.051	0.0155235
879.129	0.0157884
879.207	0.0157760
879.285	0.0162491
879.363	0.0163338
879.442	0.0164137
879.520	0.0164087
879.598	0.0163805
879.676	0.0163486
879.754	0.0160693
879.832	0.0157867
879.910	0.0152621
879.988	0.0147301
880.067	0.0143092
880.145	0.0137827
880.223	0.0132370
880.301	0.0129058
880.379	0.0126526
880.457	0.0127520
880.535	0.0130758
880.613	0.0132472
880.692	0.0136406
880.770	0.0142535
880.848	0.0151231
880.926	0.0157083
881.004	0.0166035
881.082	0.0171632
881.160	0.0178561
881.238	0.0183022
881.317	0.0187860
881.395	0.0191271
881.473	0.0193143
881.551	0.0192670
881.629	0.0192458
881.707	0.0191143
881.785	0.0190320
881.863	0.0186555
881.942	0.0182799
882.020	0.0176604
882.098	0.0172574
882.176	0.0166515
882.254	0.0160651
882.332	0.0152007
882.410	0.0145867
882.488	0.0141602
882.567	0.0135448
882.645	0.0130357
882.723	0.0126319
882.801	0.0124674
882.879	0.0122148
882.957	0.0121407
883.035	0.0120592
883.113	0.0121246
883.192	0.0124290
883.270	0.0126662
883.348	0.0129054
883.426	0.0131591
883.504	0.0135011
883.582	0.0138514
883.660	0.0142796
883.738	0.0147909
883.817	0.0151759
883.895	0.0156871
883.973	0.0160316
884.051	0.0164639
884.129	0.0169118
884.207	0.0173612
884.285	0.0177077
884.363	0.0179655
884.442	0.0181409
884.520	0.0183504
884.598	0.0183151
884.676	0.0183443
884.754	0.0182918
884.832	0.0181942
884.910	0.0180168
884.988	0.0179868
885.067	0.0178477
885.145	0.0176957
885.223	0.0173348
885.301	0.0172324
885.379	0.0169888
885.457	0.0167577
885.535	0.0164124
885.613	0.0161452
885.692	0.0159887
885.770	0.0159058
885.848	0.0156292
885.926	0.0155890
886.004	0.0153864
886.082	0.0153742
886.160	0.0154037
886.238	0.0154334
886.317	0.0153601
886.395	0.0155604
886.473	0.0157130
886.551	0.0157165
886.629	0.0156773
886.707	0.0157542
886.785	0.0156007
886.863	0.0153995
886.942	0.0154213
887.020	0.0154670
887.098	0.0153226
887.176	0.0152953
887.254	0.0149663
887.332	0.0150000
887.410	0.0147479
887.488	0.0148132
887.567	0.0146992
887.645	0.0145145
887.723	0.0145570
887.801	0.0145995
887.879	0.0146518
887.957	0.0147346
888.035	0.0148350
888.113	0.0147809
888.192	0.0147812
888.270	0.0150452
888.348	0.0151960
888.426	0.0154166
888.504	0.0153792
888.582	0.0157032
888.660	0.0157801
888.738	0.0158314
888.817	0.0158722
888.895	0.0161524
888.973	0.0160582
889.051	0.0162064
889.129	0.0160863
889.207	0.0161954
889.285	0.0162867
889.363	0.0163103
889.442	0.0162105
889.520	0.0162685
889.598	0.0161064
889.676	0.0162582
889.754	0.0161119
889.832	0.0162353
889.910	0.0162758
889.988	0.0162697
890.067	0.0162325
890.145	0.0161642
890.223	0.0160767
890.301	0.0161608
890.379	0.0162069
890.457	0.0160740
890.535	0.0160166
890.613	0.0159968
890.692	0.0157132
890.770	0.0156306
890.848	0.0154710
890.926	0.0152535
891.004	0.0153120
891.082	0.0151324
891.160	0.0149562
891.238	0.0149564
891.317	0.0148456
891.395	0.0149304
891.473	0.0149888
891.551	0.0148852
891.629	0.0148711
891.707	0.0149564
891.785	0.0149600
891.863	0.0151413
891.942	0.0151503
892.020	0.0152674
892.098	0.0154120
892.176	0.0155927
892.254	0.0156725
892.332	0.0157523
892.410	0.0157514
892.488	0.0160065
892.567	0.0159761
892.645	0.0158685
892.723	0.0160677
892.801	0.0161850
892.879	0.0159013
892.957	0.0158224
893.035	0.0157568
893.113	0.0157784
893.192	0.0157687
893.270	0.0157837
893.348	0.0157153
893.426	0.0157729
893.504	0.0157025
893.582	0.0159613
893.660	0.0158794
893.738	0.0157474
893.817	0.0159504
893.895	0.0160619
893.973	0.0160236
894.051	0.0161974
894.129	0.0163546
894.207	0.0165067
894.285	0.0166573
894.363	0.0167173
894.442	0.0168584
894.520	0.0170448
894.598	0.0171457
894.676	0.0172257
894.754	0.0171367
894.832	0.0172585
894.910	0.0170745
894.988	0.0171333
895.067	0.0169094
895.145	0.0168768
895.223	0.0167900
895.301	0.0165681
895.379	0.0162762
895.457	0.0159884
895.535	0.0159630
895.613	0.0156737
895.692	0.0155369
895.770	0.0154458
895.848	0.0152574
895.926	0.0152216
896.004	0.0151360
896.082	0.0149462
896.160	0.0149148
896.238	0.0149213
896.317	0.0150056
896.395	0.0150404
896.473	0.0149923
896.551	0.0150848
896.629	0.0149713
896.707	0.0151254
896.785	0.0151530
896.863	0.0151914
896.942	0.0150929
897.020	0.0151626
897.098	0.0152153
897.176	0.0152778
897.254	0.0152720
897.332	0.0151500
897.410	0.0153943
897.488	0.0153408
897.567	0.0154000
897.645	0.0153873
897.723	0.0152516
897.801	0.0154100
897.879	0.0152901
897.957	0.0151928
898.035	0.0152363
898.113	0.0150053
898.192	0.0148587
898.270	0.0147029
898.348	0.0146333
898.426	0.0145727
898.504	0.0145914
898.582	0.0144858
898.660	0.0141590
898.738	0.0142750
898.817	0.0143880
898.895	0.0142446
898.973	0.0143185
899.051	0.0145830
899.129	0.0147357
899.207	0.0148266
899.285	0.0151518
899.363	0.0153273
899.442	0.0155888
899.520	0.0159347
899.598	0.0162337
899.676	0.0165134
899.754	0.0167705
899.832	0.0170342
899.910	0.0171078
899.988	0.0173766
900.067	0.0174000
900.145	0.0175806
900.223	0.0175755
900.301	0.0177742
900.379	0.0176417
900.457	0.0175168
900.535	0.0174829
900.613	0.0173557
900.692	0.0173862
900.770	0.0174027
900.848	0.0171940
900.926	0.0170049
901.004	0.0168739
901.082	0.0167689
901.160	0.0165228
901.238	0.0164645
901.317	0.0163582
901.395	0.0162144
901.473	0.0160867
901.551	0.0159812
901.629	0.0158620
901.707	0.0157216
901.785	0.0156639
901.863	0.0157389
901.942	0.0156670
902.020	0.0156127
902.098	0.0156840
902.176	0.0157857
902.254	0.0155988
902.332	0.0155263
902.410	0.0155446
902.488	0.0157086
902.567	0.0156005
902.645	0.0155619
902.723	0.0156672
902.801	0.0158281
902.879	0.0158112
902.957	0.0157890
903.035	0.0157808
903.113	0.0156413
903.192	0.0157882
903.270	0.0156823
903.348	0.0156619
903.426	0.0155824
903.504	0.0154300
903.582	0.0153330
903.660	0.0152778
903.738	0.0153806
903.817	0.0153487
903.895	0.0153082
903.973	0.0151617
904.051	0.0152181
904.129	0.0151382
904.207	0.0150784
904.285	0.0150334
904.363	0.0148914
904.442	0.0150666
904.520	0.0150922
904.598	0.0149012
904.676	0.0148656
904.754	0.0149899
904.832	0.0148573
904.910	0.0149873
904.988	0.0149977
905.067	0.0149717
905.145	0.0151073
905.223	0.0152330
905.301	0.0152541
905.379	0.0151437
905.457	0.0152534
905.535	0.0153387
905.613	0.0152299
905.692	0.0152527
905.770	0.0152560
905.848	0.0151833
905.926	0.0151811
906.004	0.0151655
906.082	0.0151874
906.160	0.0152645
906.238	0.0152591
906.317	0.0151288
906.395	0.0152911
906.473	0.0151996
906.551	0.0154588
906.629	0.0154247
906.707	0.0156200
906.785	0.0157347
906.863	0.0158285
906.942	0.0158607
907.020	0.0160838
907.098	0.0160271
907.176	0.0162314
907.254	0.0163979
907.332	0.0163678
907.410	0.0164220
907.488	0.0164934
907.567	0.0167231
907.645	0.0165940
907.723	0.0168092
907.801	0.0168533
907.879	0.0168684
907.957	0.0167567
908.035	0.0167342
908.113	0.0167146
908.192	0.0168575
908.270	0.0167865
908.348	0.0167125
908.426	0.0165769
908.504	0.0164326
908.582	0.0164217
908.660	0.0162480
908.738	0.0162029
908.817	0.0160725
908.895	0.0160670
908.973	0.0159676
909.051	0.0158688
909.129	0.0158027
909.207	0.0158897
909.285	0.0161070
909.363	0.0161600
909.442	0.0162698
909.520	0.0163311
909.598	0.0165287
909.676	0.0164113
909.754	0.0165277
909.832	0.0165138
909.910	0.0163394
909.988	0.0163221
910.067	0.0161424
910.145	0.0160527
910.223	0.0159605
910.301	0.0158217
910.379	0.0156307
910.457	0.0153230
910.535	0.0150586
910.613	0.0145737
910.692	0.0141548
910.770	0.0137714
910.848	0.0133297
910.926	0.0130518
911.004	0.0128410
911.082	0.0126784
911.160	0.0126199
911.238	0.0125421
911.317	0.0125819
911.395	0.0128155
911.473	0.0132893
911.551	0.0135447
911.629	0.0139473
911.707	0.0147319
911.785	0.0155566
911.863	0.0165813
911.942	0.0171921
912.020	0.0180189
912.098	0.0189190
912.176	0.0198569
912.254	0.0206967
912.332	0.0213128
912.410	0.0217960
912.488	0.0222694
912.567	0.0225898
912.645	0.0222620
912.723	0.0222639
912.801	0.0218153
912.879	0.0210971
912.957	0.0203017
913.035	0.0191618
913.113	0.0180745
913.192	0.0167881
913.270	0.0156610
913.348	0.0143132
913.426	0.0129881
913.504	0.0116156
913.582	0.0105766
913.660	0.00958717
913.738	0.00868149
913.817	0.00813461
913.895	0.00758995
913.973	0.00732300
914.051	0.00720993
914.129	0.00729218
914.207	0.00775009
914.285	0.00828979
914.363	0.00895538
914.442	0.00959778
914.520	0.0103036
914.598	0.0111958
914.676	0.0121056
914.754	0.0130472
914.832	0.0140127
914.910	0.0148451
914.988	0.0157337
915.067	0.0166823
915.145	0.0174046
915.223	0.0181885
915.301	0.0187859
915.379	0.0193510
915.457	0.0195811
915.535	0.0202986
915.613	0.0203862
915.692	0.0206105
915.770	0.0208337
915.848	0.0209378
915.926	0.0211584
916.004	0.0212598
916.082	0.0211211
916.160	0.0210145
916.238	0.0209203
916.317	0.0208627
916.395	0.0207150
916.473	0.0204773
916.551	0.0202856
916.629	0.0200111
916.707	0.0197352
916.785	0.0195682
916.863	0.0191590
916.942	0.0187542
917.020	0.0185156
917.098	0.0180476
917.176	0.0176077
917.254	0.0173606
917.332	0.0170597
917.410	0.0165767
917.488	0.0159385
917.567	0.0155091
917.645	0.0152060
917.723	0.0147594
917.801	0.0143892
917.879	0.0138796
917.957	0.0134706
918.035	0.0131998
918.113	0.0129662
918.192	0.0126646
918.270	0.0122782
918.348	0.0120737
918.426	0.0118504
918.504	0.0117637
918.582	0.0116467
918.660	0.0114373
918.738	0.0114321
918.817	0.0115366
918.895	0.0114657
918.973	0.0114753
919.051	0.0118088
919.129	0.0118832
919.207	0.0119512
919.285	0.0122353
919.363	0.0124389
919.442	0.0126102
919.520	0.0129122
919.598	0.0132040
919.676	0.0132956
919.754	0.0137724
919.832	0.0140807
919.910	0.0143332
