05/25/2022	19:13:09	Ver.	4.1	UNKNOWN
Optical Delay	599.988409	Delta X		0.078125	Sweeps	1	Scan Rate	0/0
Coordinates	Axis 1	NaN	Axis 2	NaN	Axis 3	NaN	Axis 4	NaN	Axis 5	NaN	Axis 6	0.000000
TX Power	0.000000	RX Power	0.000000

599.988	0.0173315
600.067	0.0173505
600.145	0.0173530
600.223	0.0173038
600.301	0.0173495
600.379	0.0171913
600.457	0.0173940
600.535	0.0173979
600.613	0.0173536
600.692	0.0173423
600.770	0.0172836
600.848	0.0173150
600.926	0.0172887
601.004	0.0172918
601.082	0.0173283
601.160	0.0172511
601.238	0.0173731
601.317	0.0173087
601.395	0.0172944
601.473	0.0172165
601.551	0.0173083
601.629	0.0172079
601.707	0.0173836
601.785	0.0173966
601.863	0.0172519
601.942	0.0173022
602.020	0.0173335
602.098	0.0174136
602.176	0.0173354
602.254	0.0172188
602.332	0.0173522
602.410	0.0174424
602.488	0.0173421
602.567	0.0174250
602.645	0.0173018
602.723	0.0172937
602.801	0.0173524
602.879	0.0173170
602.957	0.0174255
603.035	0.0173536
603.113	0.0173209
603.192	0.0173335
603.270	0.0173770
603.348	0.0172153
603.426	0.0172775
603.504	0.0173350
603.582	0.0173762
603.660	0.0173845
603.738	0.0174300
603.817	0.0174860
603.895	0.0173065
603.973	0.0174057
604.051	0.0173396
604.129	0.0172395
604.207	0.0173850
604.285	0.0172797
604.363	0.0173011
604.442	0.0174138
604.520	0.0172025
604.598	0.0173827
604.676	0.0173338
604.754	0.0173966
604.832	0.0174347
604.910	0.0172108
604.988	0.0173369
605.067	0.0173438
605.145	0.0174949
605.223	0.0172530
605.301	0.0172000
605.379	0.0172880
605.457	0.0174460
605.535	0.0173521
605.613	0.0174293
605.692	0.0173586
605.770	0.0174313
605.848	0.0173147
605.926	0.0174815
606.004	0.0172559
606.082	0.0173897
606.160	0.0174034
606.238	0.0172842
606.317	0.0172681
606.395	0.0173001
606.473	0.0173090
606.551	0.0173527
606.629	0.0174146
606.707	0.0173676
606.785	0.0172519
606.863	0.0172837
606.942	0.0173328
607.020	0.0173685
607.098	0.0173516
607.176	0.0173696
607.254	0.0173006
607.332	0.0174785
607.410	0.0172417
607.488	0.0173471
607.567	0.0172836
607.645	0.0174055
607.723	0.0172961
607.801	0.0172395
607.879	0.0173143
607.957	0.0173967
608.035	0.0174447
608.113	0.0172789
608.192	0.0173942
608.270	0.0175166
608.348	0.0172513
608.426	0.0173277
608.504	0.0173577
608.582	0.0174708
608.660	0.0173428
608.738	0.0173837
608.817	0.0174261
608.895	0.0173354
608.973	0.0172626
609.051	0.0172314
609.129	0.0173975
609.207	0.0172380
609.285	0.0172919
609.363	0.0172177
609.442	0.0172687
609.520	0.0172002
609.598	0.0170563
609.676	0.0171122
609.754	0.0172511
609.832	0.0172739
609.910	0.0172188
609.988	0.0171453
610.067	0.0172628
610.145	0.0174155
610.223	0.0173506
610.301	0.0173658
610.379	0.0173689
610.457	0.0172189
610.535	0.0173832
610.613	0.0175259
610.692	0.0174405
610.770	0.0174669
610.848	0.0174450
610.926	0.0174684
611.004	0.0175113
611.082	0.0175233
611.160	0.0174731
611.238	0.0173486
611.317	0.0173902
611.395	0.0174846
611.473	0.0172304
611.551	0.0174560
611.629	0.0174716
611.707	0.0173239
611.785	0.0173681
611.863	0.0172593
611.942	0.0172714
612.020	0.0172971
612.098	0.0170798
612.176	0.0171856
612.254	0.0171525
612.332	0.0171083
612.410	0.0172431
612.488	0.0171786
612.567	0.0172122
612.645	0.0171751
612.723	0.0171480
612.801	0.0171474
612.879	0.0171770
612.957	0.0170900
613.035	0.0172136
613.113	0.0174604
613.192	0.0173240
613.270	0.0173429
613.348	0.0172848
613.426	0.0173486
613.504	0.0173035
613.582	0.0173089
613.660	0.0173351
613.738	0.0172672
613.817	0.0173644
613.895	0.0172810
613.973	0.0173186
614.051	0.0173936
614.129	0.0173707
614.207	0.0174818
614.285	0.0172954
614.363	0.0174536
614.442	0.0174231
614.520	0.0174870
614.598	0.0172836
614.676	0.0173975
614.754	0.0173866
614.832	0.0173873
614.910	0.0175105
614.988	0.0173755
615.067	0.0174012
615.145	0.0172411
615.223	0.0173141
615.301	0.0173127
615.379	0.0173921
615.457	0.0174823
615.535	0.0174780
615.613	0.0173066
615.692	0.0174208
615.770	0.0173036
615.848	0.0173805
615.926	0.0174982
616.004	0.0173560
616.082	0.0173005
616.160	0.0173056
616.238	0.0172397
616.317	0.0173117
616.395	0.0173580
616.473	0.0173485
616.551	0.0174119
616.629	0.0172478
616.707	0.0173004
616.785	0.0173303
616.863	0.0173552
616.942	0.0173563
617.020	0.0174216
617.098	0.0172903
617.176	0.0172230
617.254	0.0173022
617.332	0.0173669
617.410	0.0172030
617.488	0.0171286
617.567	0.0172430
617.645	0.0172297
617.723	0.0173148
617.801	0.0173432
617.879	0.0172331
617.957	0.0172375
618.035	0.0174603
618.113	0.0173381
618.192	0.0172543
618.270	0.0173219
618.348	0.0173192
618.426	0.0173386
618.504	0.0173879
618.582	0.0173523
618.660	0.0172927
618.738	0.0173635
618.817	0.0174056
618.895	0.0172473
618.973	0.0173809
619.051	0.0172725
619.129	0.0172893
619.207	0.0173469
619.285	0.0173795
619.363	0.0173779
619.442	0.0173125
619.520	0.0173842
619.598	0.0172580
619.676	0.0174653
619.754	0.0173171
619.832	0.0172863
619.910	0.0173963
619.988	0.0174180
620.067	0.0173971
620.145	0.0173447
620.223	0.0174452
620.301	0.0173417
620.379	0.0174149
620.457	0.0173125
620.535	0.0174323
620.613	0.0175024
620.692	0.0173695
620.770	0.0172853
620.848	0.0173902
620.926	0.0173933
621.004	0.0173145
621.082	0.0172565
621.160	0.0175648
621.238	0.0174565
621.317	0.0174457
621.395	0.0173849
621.473	0.0174323
621.551	0.0174619
621.629	0.0172964
621.707	0.0173086
621.785	0.0174412
621.863	0.0173591
621.942	0.0174539
622.020	0.0173222
622.098	0.0173024
622.176	0.0173236
622.254	0.0172606
622.332	0.0174078
622.410	0.0174059
622.488	0.0173112
622.567	0.0173051
622.645	0.0172476
622.723	0.0172621
622.801	0.0172799
622.879	0.0173447
622.957	0.0172346
623.035	0.0172050
623.113	0.0173481
623.192	0.0173955
623.270	0.0172277
623.348	0.0172190
623.426	0.0173946
623.504	0.0172242
623.582	0.0173036
623.660	0.0173328
623.738	0.0174162
623.817	0.0173565
623.895	0.0172623
623.973	0.0173292
624.051	0.0173230
624.129	0.0172718
624.207	0.0174014
624.285	0.0172517
624.363	0.0172607
624.442	0.0171938
624.520	0.0171649
624.598	0.0173421
624.676	0.0173250
624.754	0.0173746
624.832	0.0173083
624.910	0.0173914
624.988	0.0172875
625.067	0.0173010
625.145	0.0173003
625.223	0.0171925
625.301	0.0173089
625.379	0.0174245
625.457	0.0173675
625.535	0.0173311
625.613	0.0173227
625.692	0.0174539
625.770	0.0172820
625.848	0.0172335
625.926	0.0174502
626.004	0.0173559
626.082	0.0172884
626.160	0.0173746
626.238	0.0173079
626.317	0.0173323
626.395	0.0173996
626.473	0.0173296
626.551	0.0172825
626.629	0.0173844
626.707	0.0173252
626.785	0.0173619
626.863	0.0174534
626.942	0.0172221
627.020	0.0174136
627.098	0.0174293
627.176	0.0173085
627.254	0.0173621
627.332	0.0171774
627.410	0.0173141
627.488	0.0174910
627.567	0.0173545
627.645	0.0172790
627.723	0.0174049
627.801	0.0172959
627.879	0.0174207
627.957	0.0173813
628.035	0.0172841
628.113	0.0173910
628.192	0.0175114
628.270	0.0174030
628.348	0.0173463
628.426	0.0172504
628.504	0.0173610
628.582	0.0174624
628.660	0.0173738
628.738	0.0174554
628.817	0.0174617
628.895	0.0173349
628.973	0.0173669
629.051	0.0174381
629.129	0.0172614
629.207	0.0173858
629.285	0.0172642
629.363	0.0174382
629.442	0.0174008
629.520	0.0173324
629.598	0.0173668
629.676	0.0173349
629.754	0.0173821
629.832	0.0173850
629.910	0.0172928
629.988	0.0173341
630.067	0.0172264
630.145	0.0172759
630.223	0.0173520
630.301	0.0174305
630.379	0.0172815
630.457	0.0173702
630.535	0.0174874
630.613	0.0172247
630.692	0.0173045
630.770	0.0173033
630.848	0.0172927
630.926	0.0173539
631.004	0.0173077
631.082	0.0172690
631.160	0.0173470
631.238	0.0172896
631.317	0.0174232
631.395	0.0173248
631.473	0.0174301
631.551	0.0173952
631.629	0.0174126
631.707	0.0173668
631.785	0.0172785
631.863	0.0173183
631.942	0.0174226
632.020	0.0173360
632.098	0.0173498
632.176	0.0173320
632.254	0.0172655
632.332	0.0173322
632.410	0.0171927
632.488	0.0173426
632.567	0.0173693
632.645	0.0172372
632.723	0.0174191
632.801	0.0173594
632.879	0.0173397
632.957	0.0172842
633.035	0.0173226
633.113	0.0173884
633.192	0.0174201
633.270	0.0172591
633.348	0.0173257
633.426	0.0172317
633.504	0.0172156
633.582	0.0174150
633.660	0.0173147
633.738	0.0173948
633.817	0.0173148
633.895	0.0174245
633.973	0.0174337
634.051	0.0174047
634.129	0.0174569
634.207	0.0173189
634.285	0.0173740
634.363	0.0172541
634.442	0.0173859
634.520	0.0173550
634.598	0.0173377
634.676	0.0174658
634.754	0.0173323
634.832	0.0172291
634.910	0.0172542
634.988	0.0173548
635.067	0.0173335
635.145	0.0174272
635.223	0.0173520
635.301	0.0173806
635.379	0.0174477
635.457	0.0173346
635.535	0.0172569
635.613	0.0173292
635.692	0.0173406
635.770	0.0173949
635.848	0.0174756
635.926	0.0174023
636.004	0.0173112
636.082	0.0173722
636.160	0.0172934
636.238	0.0174873
636.317	0.0173991
636.395	0.0171614
636.473	0.0173518
636.551	0.0174345
636.629	0.0173524
636.707	0.0173326
636.785	0.0173629
636.863	0.0174939
636.942	0.0173064
637.020	0.0173397
637.098	0.0173078
637.176	0.0172601
637.254	0.0173648
637.332	0.0174205
637.410	0.0173869
637.488	0.0172432
637.567	0.0173436
637.645	0.0173814
637.723	0.0173589
637.801	0.0172255
637.879	0.0174526
637.957	0.0172669
638.035	0.0173594
638.113	0.0172951
638.192	0.0172622
638.270	0.0171793
638.348	0.0172012
638.426	0.0172550
638.504	0.0174461
638.582	0.0173820
638.660	0.0173811
638.738	0.0172855
638.817	0.0172980
638.895	0.0173470
638.973	0.0173850
639.051	0.0172694
639.129	0.0173644
639.207	0.0173703
639.285	0.0173123
639.363	0.0172038
639.442	0.0173756
639.520	0.0174603
639.598	0.0172672
639.676	0.0173665
639.754	0.0174647
639.832	0.0174121
639.910	0.0173927
639.988	0.0172480
640.067	0.0173254
640.145	0.0173203
640.223	0.0173956
640.301	0.0173693
640.379	0.0172836
640.457	0.0172501
640.535	0.0173112
640.613	0.0173993
640.692	0.0174427
640.770	0.0171848
640.848	0.0174008
640.926	0.0173431
641.004	0.0172427
641.082	0.0175124
641.160	0.0174393
641.238	0.0172501
641.317	0.0172919
641.395	0.0173233
641.473	0.0173980
641.551	0.0171395
641.629	0.0172329
641.707	0.0174325
641.785	0.0173151
641.863	0.0173280
641.942	0.0172574
642.020	0.0172630
642.098	0.0174504
642.176	0.0173795
642.254	0.0174058
642.332	0.0173706
642.410	0.0174063
642.488	0.0173455
642.567	0.0174356
642.645	0.0173825
642.723	0.0172822
642.801	0.0172594
642.879	0.0173215
642.957	0.0173932
643.035	0.0173730
643.113	0.0173872
643.192	0.0173975
643.270	0.0174716
643.348	0.0173000
643.426	0.0173724
643.504	0.0174094
643.582	0.0172916
643.660	0.0173814
643.738	0.0173307
643.817	0.0173996
643.895	0.0174845
643.973	0.0174271
644.051	0.0173290
644.129	0.0172644
644.207	0.0174240
644.285	0.0173804
644.363	0.0172891
644.442	0.0172929
644.520	0.0172220
644.598	0.0172388
644.676	0.0173760
644.754	0.0173950
644.832	0.0172929
644.910	0.0173146
644.988	0.0173482
645.067	0.0172148
645.145	0.0173741
645.223	0.0174343
645.301	0.0171906
645.379	0.0172874
645.457	0.0174133
645.535	0.0173464
645.613	0.0174879
645.692	0.0172540
645.770	0.0173241
645.848	0.0174081
645.926	0.0174079
646.004	0.0173528
646.082	0.0173679
646.160	0.0173602
646.238	0.0173239
646.317	0.0171586
646.395	0.0172680
646.473	0.0172461
646.551	0.0172650
646.629	0.0173055
646.707	0.0173965
646.785	0.0173862
646.863	0.0173221
646.942	0.0171976
647.020	0.0173178
647.098	0.0172304
647.176	0.0172974
647.254	0.0173470
647.332	0.0173563
647.410	0.0172702
647.488	0.0172479
647.567	0.0172949
647.645	0.0173479
647.723	0.0173857
647.801	0.0173983
647.879	0.0173797
647.957	0.0172028
648.035	0.0171618
648.113	0.0172327
648.192	0.0172460
648.270	0.0173338
648.348	0.0174344
648.426	0.0174134
648.504	0.0172505
648.582	0.0173515
648.660	0.0173236
648.738	0.0172562
648.817	0.0172777
648.895	0.0174521
648.973	0.0173753
649.051	0.0171782
649.129	0.0173156
649.207	0.0173897
649.285	0.0173048
649.363	0.0172932
649.442	0.0173603
649.520	0.0172227
649.598	0.0173128
649.676	0.0172687
649.754	0.0173830
649.832	0.0172617
649.910	0.0172266
649.988	0.0174049
650.067	0.0173250
650.145	0.0174064
650.223	0.0173976
650.301	0.0172816
650.379	0.0173342
650.457	0.0171943
650.535	0.0173580
650.613	0.0173309
650.692	0.0172926
650.770	0.0173316
650.848	0.0173251
650.926	0.0173445
651.004	0.0174569
651.082	0.0172894
651.160	0.0172662
651.238	0.0173812
651.317	0.0172165
651.395	0.0173819
651.473	0.0172038
651.551	0.0172397
651.629	0.0173623
651.707	0.0174013
651.785	0.0173557
651.863	0.0172035
651.942	0.0172753
652.020	0.0173545
652.098	0.0173074
652.176	0.0173751
652.254	0.0173124
652.332	0.0173280
652.410	0.0173107
652.488	0.0174449
652.567	0.0173653
652.645	0.0174046
652.723	0.0172521
652.801	0.0171500
652.879	0.0173560
652.957	0.0174083
653.035	0.0172900
653.113	0.0171780
653.192	0.0172270
653.270	0.0172017
653.348	0.0171694
653.426	0.0173362
653.504	0.0173833
653.582	0.0172942
653.660	0.0172699
653.738	0.0173103
653.817	0.0174645
653.895	0.0172424
653.973	0.0171338
654.051	0.0172374
654.129	0.0173450
654.207	0.0171946
654.285	0.0172649
654.363	0.0174245
654.442	0.0173499
654.520	0.0171561
654.598	0.0171391
654.676	0.0174168
654.754	0.0172768
654.832	0.0173024
654.910	0.0175252
654.988	0.0173216
655.067	0.0173705
655.145	0.0173049
655.223	0.0172289
655.301	0.0173450
655.379	0.0172668
655.457	0.0174087
655.535	0.0171662
655.613	0.0174380
655.692	0.0172276
655.770	0.0172778
655.848	0.0172940
655.926	0.0172652
656.004	0.0174133
656.082	0.0173678
656.160	0.0172102
656.238	0.0173129
656.317	0.0173795
656.395	0.0174665
656.473	0.0172911
656.551	0.0172894
656.629	0.0173043
656.707	0.0171545
656.785	0.0172079
656.863	0.0174220
656.942	0.0173497
657.020	0.0172359
657.098	0.0171433
657.176	0.0173492
657.254	0.0173142
657.332	0.0173161
657.410	0.0174219
657.488	0.0171829
657.567	0.0173297
657.645	0.0172841
657.723	0.0173296
657.801	0.0172919
657.879	0.0173331
657.957	0.0173499
658.035	0.0173643
658.113	0.0173763
658.192	0.0174259
658.270	0.0172595
658.348	0.0173310
658.426	0.0174290
658.504	0.0174296
658.582	0.0173827
658.660	0.0173074
658.738	0.0173467
658.817	0.0174615
658.895	0.0172321
658.973	0.0174316
659.051	0.0174549
659.129	0.0173299
659.207	0.0173991
659.285	0.0173535
659.363	0.0172895
659.442	0.0172539
659.520	0.0174608
659.598	0.0173224
659.676	0.0174407
659.754	0.0173779
659.832	0.0172707
659.910	0.0172768
659.988	0.0173446
660.067	0.0173109
660.145	0.0175043
660.223	0.0173457
660.301	0.0172330
660.379	0.0172237
660.457	0.0173007
660.535	0.0173443
660.613	0.0173962
660.692	0.0174136
660.770	0.0172446
660.848	0.0172723
660.926	0.0175053
661.004	0.0173277
661.082	0.0173211
661.160	0.0173218
661.238	0.0172455
661.317	0.0171744
661.395	0.0172921
661.473	0.0173842
661.551	0.0173342
661.629	0.0173022
661.707	0.0173668
661.785	0.0172584
661.863	0.0173379
661.942	0.0172046
662.020	0.0172782
662.098	0.0172190
662.176	0.0173241
662.254	0.0172840
662.332	0.0173286
662.410	0.0174562
662.488	0.0172813
662.567	0.0172160
662.645	0.0173616
662.723	0.0172751
662.801	0.0174290
662.879	0.0173808
662.957	0.0172803
663.035	0.0172781
663.113	0.0172894
663.192	0.0171881
663.270	0.0172158
663.348	0.0173816
663.426	0.0173371
663.504	0.0172471
663.582	0.0172494
663.660	0.0172486
663.738	0.0172239
663.817	0.0174067
663.895	0.0173087
663.973	0.0173069
664.051	0.0172961
664.129	0.0172781
664.207	0.0172925
664.285	0.0172963
664.363	0.0173437
664.442	0.0173060
664.520	0.0174163
664.598	0.0173640
664.676	0.0173492
664.754	0.0173615
664.832	0.0173351
664.910	0.0171778
664.988	0.0172961
665.067	0.0174010
665.145	0.0173664
665.223	0.0173268
665.301	0.0174629
665.379	0.0174319
665.457	0.0172621
665.535	0.0172529
665.613	0.0172422
665.692	0.0173473
665.770	0.0173977
665.848	0.0172127
665.926	0.0172775
666.004	0.0172960
666.082	0.0173122
666.160	0.0172561
666.238	0.0173569
666.317	0.0173095
666.395	0.0172538
666.473	0.0172378
666.551	0.0173294
666.629	0.0173808
666.707	0.0173128
666.785	0.0173248
666.863	0.0172186
666.942	0.0172727
667.020	0.0172990
667.098	0.0172670
667.176	0.0173373
667.254	0.0173512
667.332	0.0174154
667.410	0.0174746
667.488	0.0173921
667.567	0.0171684
667.645	0.0173027
667.723	0.0173605
667.801	0.0173464
667.879	0.0173330
667.957	0.0174770
668.035	0.0174477
668.113	0.0173881
668.192	0.0173345
668.270	0.0172038
668.348	0.0171672
668.426	0.0173862
668.504	0.0174162
668.582	0.0173006
668.660	0.0173067
668.738	0.0172922
668.817	0.0173463
668.895	0.0172073
668.973	0.0174163
669.051	0.0173125
669.129	0.0174400
669.207	0.0172014
669.285	0.0172993
669.363	0.0173753
669.442	0.0173878
669.520	0.0173367
669.598	0.0172774
669.676	0.0172716
669.754	0.0174622
669.832	0.0173602
669.910	0.0174511
669.988	0.0172193
670.067	0.0173354
670.145	0.0174381
670.223	0.0174348
670.301	0.0173631
670.379	0.0172279
670.457	0.0173441
670.535	0.0174116
670.613	0.0173483
670.692	0.0171875
670.770	0.0173298
670.848	0.0174906
670.926	0.0175306
671.004	0.0171842
671.082	0.0174181
671.160	0.0174444
671.238	0.0172010
671.317	0.0174369
671.395	0.0173418
671.473	0.0173983
671.551	0.0173307
671.629	0.0174921
671.707	0.0173562
671.785	0.0173878
671.863	0.0174550
671.942	0.0173835
672.020	0.0174631
672.098	0.0173058
672.176	0.0172810
672.254	0.0173389
672.332	0.0173680
672.410	0.0174340
672.488	0.0174261
672.567	0.0173249
672.645	0.0172934
672.723	0.0172467
672.801	0.0173100
672.879	0.0173767
672.957	0.0173268
673.035	0.0174275
673.113	0.0171663
673.192	0.0171574
673.270	0.0173077
673.348	0.0172731
673.426	0.0172380
673.504	0.0173512
673.582	0.0171220
673.660	0.0172005
673.738	0.0170751
673.817	0.0171426
673.895	0.0171523
673.973	0.0172201
674.051	0.0171829
674.129	0.0172167
674.207	0.0172819
674.285	0.0171156
674.363	0.0170443
674.442	0.0172848
674.520	0.0172823
674.598	0.0173239
674.676	0.0171605
674.754	0.0170898
674.832	0.0173241
674.910	0.0172093
674.988	0.0172371
675.067	0.0171915
675.145	0.0171848
675.223	0.0172340
675.301	0.0171456
675.379	0.0172231
675.457	0.0170683
675.535	0.0171851
675.613	0.0171353
675.692	0.0171358
675.770	0.0172198
675.848	0.0171673
675.926	0.0171750
676.004	0.0172778
676.082	0.0172122
676.160	0.0173138
676.238	0.0171247
676.317	0.0173051
676.395	0.0172662
676.473	0.0172173
676.551	0.0170132
676.629	0.0171318
676.707	0.0171111
676.785	0.0171809
676.863	0.0171601
676.942	0.0170464
677.020	0.0169996
677.098	0.0171984
677.176	0.0170645
677.254	0.0172134
677.332	0.0172437
677.410	0.0170541
677.488	0.0170585
677.567	0.0172746
677.645	0.0171152
677.723	0.0171461
677.801	0.0172161
677.879	0.0172823
677.957	0.0173606
678.035	0.0172836
678.113	0.0172275
678.192	0.0173656
678.270	0.0172355
678.348	0.0173545
678.426	0.0172984
678.504	0.0173438
678.582	0.0175121
678.660	0.0173705
678.738	0.0173383
678.817	0.0174194
678.895	0.0175539
678.973	0.0174543
679.051	0.0175275
679.129	0.0174213
679.207	0.0174204
679.285	0.0173845
679.363	0.0173570
679.442	0.0174113
679.520	0.0173276
679.598	0.0173463
679.676	0.0174310
679.754	0.0173525
679.832	0.0174435
679.910	0.0173736
679.988	0.0173771
680.067	0.0172580
680.145	0.0173311
680.223	0.0173737
680.301	0.0173594
680.379	0.0173677
680.457	0.0172422
680.535	0.0173901
680.613	0.0173447
680.692	0.0173261
680.770	0.0174309
680.848	0.0174030
680.926	0.0174537
681.004	0.0174460
681.082	0.0174418
681.160	0.0174766
681.238	0.0174246
681.317	0.0174416
681.395	0.0174683
681.473	0.0175368
681.551	0.0175695
681.629	0.0175114
681.707	0.0175241
681.785	0.0175079
681.863	0.0173733
681.942	0.0174136
682.020	0.0174579
682.098	0.0175335
682.176	0.0174888
682.254	0.0175361
682.332	0.0175107
682.410	0.0174802
682.488	0.0174905
682.567	0.0176391
682.645	0.0174151
682.723	0.0174883
682.801	0.0174479
682.879	0.0174256
682.957	0.0173403
683.035	0.0175016
683.113	0.0175167
683.192	0.0173924
683.270	0.0173376
683.348	0.0174031
683.426	0.0174146
683.504	0.0174924
683.582	0.0174423
683.660	0.0173822
683.738	0.0176010
683.817	0.0173617
683.895	0.0174007
683.973	0.0173843
684.051	0.0174628
684.129	0.0173782
684.207	0.0173793
684.285	0.0174313
684.363	0.0174764
684.442	0.0174403
684.520	0.0174838
684.598	0.0173426
684.676	0.0174194
684.754	0.0174900
684.832	0.0175635
684.910	0.0174066
684.988	0.0175091
685.067	0.0175412
685.145	0.0174012
685.223	0.0173466
685.301	0.0174497
685.379	0.0173524
685.457	0.0172744
685.535	0.0172589
685.613	0.0174036
685.692	0.0171005
685.770	0.0171970
685.848	0.0171677
685.926	0.0172044
686.004	0.0172706
686.082	0.0171767
686.160	0.0171571
686.238	0.0172276
686.317	0.0171133
686.395	0.0171072
686.473	0.0170489
686.551	0.0169025
686.629	0.0168821
686.707	0.0168011
686.785	0.0167842
686.863	0.0164393
686.942	0.0162546
687.020	0.0160702
687.098	0.0162054
687.176	0.0164487
687.254	0.0169641
687.332	0.0178346
687.410	0.0191476
687.488	0.0206065
687.567	0.0224632
687.645	0.0240952
687.723	0.0255008
687.801	0.0263948
687.879	0.0269098
687.957	0.0266331
688.035	0.0253542
688.113	0.0233932
688.192	0.0207014
688.270	0.0174516
688.348	0.0136781
688.426	0.00979980
688.504	0.00583275
688.582	0.00205475
688.660	-0.00121582
688.738	-0.00381302
688.817	-0.00554749
688.895	-0.00632614
688.973	-0.00629265
689.051	-0.00515915
689.129	-0.00280815
689.207	0.000270538
689.285	0.00372971
689.363	0.00802803
689.442	0.0126674
689.520	0.0176979
689.598	0.0223974
689.676	0.0271296
689.754	0.0316656
689.832	0.0359647
689.910	0.0397093
689.988	0.0433064
690.067	0.0462206
690.145	0.0481725
690.223	0.0498288
690.301	0.0506096
690.379	0.0502936
690.457	0.0492767
690.535	0.0475156
690.613	0.0449684
690.692	0.0418635
690.770	0.0377913
690.848	0.0333619
690.926	0.0284385
691.004	0.0232079
691.082	0.0178456
691.160	0.0125388
691.238	0.00718590
691.317	0.00223976
691.395	-0.00234901
691.473	-0.00655014
691.551	-0.0100301
691.629	-0.0129559
691.707	-0.0148631
691.785	-0.0162650
691.863	-0.0166141
691.942	-0.0162007
692.020	-0.0150562
692.098	-0.0132841
692.176	-0.0109527
692.254	-0.00796593
692.332	-0.00484726
692.410	-0.00134323
692.488	0.00199333
692.567	0.00550430
692.645	0.00905525
692.723	0.0122633
692.801	0.0151473
692.879	0.0179630
692.957	0.0203221
693.035	0.0221438
693.113	0.0238216
693.192	0.0251830
693.270	0.0264638
693.348	0.0272984
693.426	0.0280283
693.504	0.0287959
693.582	0.0292349
693.660	0.0298804
693.738	0.0304732
693.817	0.0309282
693.895	0.0314780
693.973	0.0318073
694.051	0.0322202
694.129	0.0326141
694.207	0.0329765
694.285	0.0331096
694.363	0.0330860
694.442	0.0330296
694.520	0.0327746
694.598	0.0323457
694.676	0.0318449
694.754	0.0312290
694.832	0.0303203
694.910	0.0293521
694.988	0.0284606
695.067	0.0273021
695.145	0.0260756
695.223	0.0248711
695.301	0.0235368
695.379	0.0221402
695.457	0.0208290
695.535	0.0194236
695.613	0.0179561
695.692	0.0165118
695.770	0.0151905
695.848	0.0140287
695.926	0.0127689
696.004	0.0115113
696.082	0.0103934
696.160	0.00931160
696.238	0.00844864
696.317	0.00780334
696.395	0.00702011
696.473	0.00619125
696.551	0.00558571
696.629	0.00519318
696.707	0.00475151
696.785	0.00444122
696.863	0.00427353
696.942	0.00396736
697.020	0.00401894
697.098	0.00398155
697.176	0.00420021
697.254	0.00438034
697.332	0.00481323
697.410	0.00539299
697.488	0.00595169
697.567	0.00659477
697.645	0.00747627
697.723	0.00851730
697.801	0.00950417
697.879	0.0104845
697.957	0.0118013
698.035	0.0130703
698.113	0.0141190
698.192	0.0154053
698.270	0.0165186
698.348	0.0176327
698.426	0.0187812
698.504	0.0195403
698.582	0.0203240
698.660	0.0209135
698.738	0.0216252
698.817	0.0218805
698.895	0.0221751
698.973	0.0224113
699.051	0.0225589
699.129	0.0225410
699.207	0.0224314
699.285	0.0224842
699.363	0.0221915
699.442	0.0219649
699.520	0.0217241
699.598	0.0216550
699.676	0.0214351
699.754	0.0214120
699.832	0.0214155
699.910	0.0214225
699.988	0.0216837
700.067	0.0220408
700.145	0.0223956
700.223	0.0229380
700.301	0.0236736
700.379	0.0241251
700.457	0.0246561
700.535	0.0253580
700.613	0.0259409
700.692	0.0263896
700.770	0.0266347
700.848	0.0268587
700.926	0.0268415
701.004	0.0266750
701.082	0.0261895
701.160	0.0258475
701.238	0.0248479
701.317	0.0239686
701.395	0.0229706
701.473	0.0218758
701.551	0.0208871
701.629	0.0197875
701.707	0.0185722
701.785	0.0173674
701.863	0.0163935
701.942	0.0153506
702.020	0.0143600
702.098	0.0135696
702.176	0.0127443
702.254	0.0120987
702.332	0.0115472
702.410	0.0112206
702.488	0.0110505
702.567	0.0109393
702.645	0.0109952
702.723	0.0112603
702.801	0.0116058
702.879	0.0120124
702.957	0.0123002
703.035	0.0127676
703.113	0.0131167
703.192	0.0132949
703.270	0.0136187
703.348	0.0139981
703.426	0.0138248
703.504	0.0138763
703.582	0.0137886
703.660	0.0135252
703.738	0.0131720
703.817	0.0128178
703.895	0.0123003
703.973	0.0118993
704.051	0.0113702
704.129	0.0109310
704.207	0.0107913
704.285	0.0106656
704.363	0.0105899
704.442	0.0106599
704.520	0.0109635
704.598	0.0113495
704.676	0.0119440
704.754	0.0124103
704.832	0.0130116
704.910	0.0138379
704.988	0.0145897
705.067	0.0154473
705.145	0.0162103
705.223	0.0170464
705.301	0.0178270
705.379	0.0184955
705.457	0.0191952
705.535	0.0196923
705.613	0.0202604
705.692	0.0206326
705.770	0.0210333
705.848	0.0211390
705.926	0.0213588
706.004	0.0214606
706.082	0.0214897
706.160	0.0214218
706.238	0.0213107
706.317	0.0213626
706.395	0.0212593
706.473	0.0210474
706.551	0.0208954
706.629	0.0205383
706.707	0.0204987
706.785	0.0204704
706.863	0.0202358
706.942	0.0202321
707.020	0.0202406
707.098	0.0201637
707.176	0.0201720
707.254	0.0203284
707.332	0.0204327
707.410	0.0205589
707.488	0.0205796
707.567	0.0207786
707.645	0.0209238
707.723	0.0211697
707.801	0.0212347
707.879	0.0213359
707.957	0.0215261
708.035	0.0215571
708.113	0.0215440
708.192	0.0214429
708.270	0.0212566
708.348	0.0212279
708.426	0.0206533
708.504	0.0203640
708.582	0.0200578
708.660	0.0194773
708.738	0.0191247
708.817	0.0187054
708.895	0.0181562
708.973	0.0176459
709.051	0.0170671
709.129	0.0165231
709.207	0.0161760
709.285	0.0158119
709.363	0.0154404
709.442	0.0153367
709.520	0.0149715
709.598	0.0147376
709.676	0.0147252
709.754	0.0148691
709.832	0.0147955
709.910	0.0145873
709.988	0.0149586
710.067	0.0150097
710.145	0.0148374
710.223	0.0151156
710.301	0.0151447
710.379	0.0152671
710.457	0.0152862
710.535	0.0153234
710.613	0.0154153
710.692	0.0155038
710.770	0.0155318
710.848	0.0153557
710.926	0.0154827
711.004	0.0152280
711.082	0.0152391
711.160	0.0150503
711.238	0.0148362
711.317	0.0146889
711.395	0.0144084
711.473	0.0143476
711.551	0.0142518
711.629	0.0139645
711.707	0.0137701
711.785	0.0136996
711.863	0.0135971
711.942	0.0136777
712.020	0.0136670
712.098	0.0138366
712.176	0.0139138
712.254	0.0142330
712.332	0.0145206
712.410	0.0148577
712.488	0.0152458
712.567	0.0157635
712.645	0.0161161
712.723	0.0164128
712.801	0.0169655
712.879	0.0174431
712.957	0.0177704
713.035	0.0180186
713.113	0.0183280
713.192	0.0188297
713.270	0.0190073
713.348	0.0192677
713.426	0.0193491
713.504	0.0195619
713.582	0.0196022
713.660	0.0196215
713.738	0.0197083
713.817	0.0196998
713.895	0.0196085
713.973	0.0194888
714.051	0.0192621
714.129	0.0191560
714.207	0.0190142
714.285	0.0188812
714.363	0.0187992
714.442	0.0186016
714.520	0.0185933
714.598	0.0183620
714.676	0.0185275
714.754	0.0187099
714.832	0.0186391
714.910	0.0189235
714.988	0.0190935
715.067	0.0193938
715.145	0.0195530
715.223	0.0198940
715.301	0.0200948
715.379	0.0202332
715.457	0.0206309
715.535	0.0205323
715.613	0.0207749
715.692	0.0208503
715.770	0.0206567
715.848	0.0205475
715.926	0.0202461
716.004	0.0200631
716.082	0.0197707
716.160	0.0192866
716.238	0.0188667
716.317	0.0187502
716.395	0.0182587
716.473	0.0179379
716.551	0.0176442
716.629	0.0173046
716.707	0.0171050
716.785	0.0169070
716.863	0.0165822
716.942	0.0167367
717.020	0.0164565
717.098	0.0162591
717.176	0.0163876
717.254	0.0163691
717.332	0.0163547
717.410	0.0163878
717.488	0.0164585
717.567	0.0165482
717.645	0.0165434
717.723	0.0165917
717.801	0.0165282
717.879	0.0165278
717.957	0.0166412
718.035	0.0166082
718.113	0.0164466
718.192	0.0165720
718.270	0.0163313
718.348	0.0163284
718.426	0.0163152
718.504	0.0161495
718.582	0.0159980
718.660	0.0158309
718.738	0.0156441
718.817	0.0154430
718.895	0.0152328
718.973	0.0151022
719.051	0.0149699
719.129	0.0146925
719.207	0.0144796
719.285	0.0142615
719.363	0.0141463
719.442	0.0140154
719.520	0.0139786
719.598	0.0139055
719.676	0.0140170
719.754	0.0141412
719.832	0.0142335
719.910	0.0144071
719.988	0.0146255
720.067	0.0149657
720.145	0.0152932
720.223	0.0155086
720.301	0.0159133
720.379	0.0161870
720.457	0.0165186
720.535	0.0167989
720.613	0.0171080
720.692	0.0174761
720.770	0.0177942
720.848	0.0179718
720.926	0.0180961
721.004	0.0183311
721.082	0.0185143
721.160	0.0183673
721.238	0.0183985
721.317	0.0185359
721.395	0.0183983
721.473	0.0185300
721.551	0.0183974
721.629	0.0183038
721.707	0.0182806
721.785	0.0182262
721.863	0.0180379
721.942	0.0182230
722.020	0.0180178
722.098	0.0180259
722.176	0.0180764
722.254	0.0181821
722.332	0.0183507
722.410	0.0182605
722.488	0.0186466
722.567	0.0187753
722.645	0.0189665
722.723	0.0193459
722.801	0.0195193
722.879	0.0198882
722.957	0.0202302
723.035	0.0203320
723.113	0.0204595
723.192	0.0207727
723.270	0.0208342
723.348	0.0208318
723.426	0.0208134
723.504	0.0206358
723.582	0.0204713
723.660	0.0203762
723.738	0.0199783
723.817	0.0196368
723.895	0.0191744
723.973	0.0188103
724.051	0.0185368
724.129	0.0181281
724.207	0.0180139
724.285	0.0177464
724.363	0.0173599
724.442	0.0173702
724.520	0.0170778
724.598	0.0168552
724.676	0.0166898
724.754	0.0165745
724.832	0.0166908
724.910	0.0165720
724.988	0.0165575
725.067	0.0166418
725.145	0.0165681
725.223	0.0165971
725.301	0.0166192
725.379	0.0168639
725.457	0.0168340
725.535	0.0167429
725.613	0.0169872
725.692	0.0168852
725.770	0.0168828
725.848	0.0168847
725.926	0.0169331
726.004	0.0168769
726.082	0.0169112
726.160	0.0167200
726.238	0.0166234
726.317	0.0165002
726.395	0.0164320
726.473	0.0162495
726.551	0.0160001
726.629	0.0157867
726.707	0.0158311
726.785	0.0155404
726.863	0.0151777
726.942	0.0149684
727.020	0.0147352
727.098	0.0146465
727.176	0.0143115
727.254	0.0142365
727.332	0.0142571
727.410	0.0141673
727.488	0.0138919
727.567	0.0140248
727.645	0.0142230
727.723	0.0143375
727.801	0.0145574
727.879	0.0146187
727.957	0.0150222
728.035	0.0153269
728.113	0.0154556
728.192	0.0158176
728.270	0.0160461
728.348	0.0164848
728.426	0.0168135
728.504	0.0168497
728.582	0.0169655
728.660	0.0175050
728.738	0.0175844
728.817	0.0176199
728.895	0.0177143
728.973	0.0178592
729.051	0.0181030
729.129	0.0181482
729.207	0.0182436
729.285	0.0182066
729.363	0.0182436
729.442	0.0182552
729.520	0.0183090
729.598	0.0185087
729.676	0.0186876
729.754	0.0186552
729.832	0.0185083
729.910	0.0186493
729.988	0.0188340
730.067	0.0187977
730.145	0.0188371
730.223	0.0189632
730.301	0.0189260
730.379	0.0188168
730.457	0.0188439
730.535	0.0189803
730.613	0.0189995
730.692	0.0190505
730.770	0.0191791
730.848	0.0192435
730.926	0.0193105
731.004	0.0194292
731.082	0.0195318
731.160	0.0196918
731.238	0.0197800
731.317	0.0197864
731.395	0.0198223
731.473	0.0198447
731.551	0.0198243
731.629	0.0196931
731.707	0.0195517
731.785	0.0194559
731.863	0.0191485
731.942	0.0188618
732.020	0.0186164
732.098	0.0183945
732.176	0.0181619
732.254	0.0176233
732.332	0.0175671
732.410	0.0172115
732.488	0.0167793
732.567	0.0166674
732.645	0.0164774
732.723	0.0163813
732.801	0.0162540
732.879	0.0160911
732.957	0.0160252
733.035	0.0160291
733.113	0.0160873
733.192	0.0159956
733.270	0.0161637
733.348	0.0162142
733.426	0.0161610
733.504	0.0164099
733.582	0.0163960
733.660	0.0166638
733.738	0.0165941
733.817	0.0167140
733.895	0.0168654
733.973	0.0167793
734.051	0.0166901
734.129	0.0167569
734.207	0.0166868
734.285	0.0167274
734.363	0.0165967
734.442	0.0165479
734.520	0.0163399
734.598	0.0161690
734.676	0.0160686
734.754	0.0159622
734.832	0.0159141
734.910	0.0157569
734.988	0.0158363
735.067	0.0155917
735.145	0.0154984
735.223	0.0156368
735.301	0.0156587
735.379	0.0155483
735.457	0.0154601
735.535	0.0155743
735.613	0.0156867
735.692	0.0157531
735.770	0.0159170
735.848	0.0160919
735.926	0.0160688
736.004	0.0163828
736.082	0.0166180
736.160	0.0166145
736.238	0.0167641
736.317	0.0169691
736.395	0.0170959
736.473	0.0171547
736.551	0.0173473
736.629	0.0176800
736.707	0.0176969
736.785	0.0177729
736.863	0.0177267
736.942	0.0177818
737.020	0.0179654
737.098	0.0180814
737.176	0.0179816
737.254	0.0180556
737.332	0.0181609
737.410	0.0180392
737.488	0.0181332
737.567	0.0180252
737.645	0.0179475
737.723	0.0178576
737.801	0.0179220
737.879	0.0179094
737.957	0.0178333
738.035	0.0175420
738.113	0.0175932
738.192	0.0175330
738.270	0.0177540
738.348	0.0177175
738.426	0.0178085
738.504	0.0179012
738.582	0.0179147
738.660	0.0181760
738.738	0.0184291
738.817	0.0185000
738.895	0.0187360
738.973	0.0188799
739.051	0.0191063
739.129	0.0192431
739.207	0.0193641
739.285	0.0195683
739.363	0.0195345
739.442	0.0194992
739.520	0.0194601
739.598	0.0193729
739.676	0.0194216
739.754	0.0192091
739.832	0.0189149
739.910	0.0187218
739.988	0.0184676
740.067	0.0182546
740.145	0.0180507
740.223	0.0177101
740.301	0.0173763
740.379	0.0171864
740.457	0.0169763
740.535	0.0168974
740.613	0.0163832
740.692	0.0163909
740.770	0.0162306
740.848	0.0161459
740.926	0.0161164
741.004	0.0158782
741.082	0.0157841
741.160	0.0159356
741.238	0.0160116
741.317	0.0158450
741.395	0.0159244
741.473	0.0161004
741.551	0.0160288
741.629	0.0161814
741.707	0.0162772
741.785	0.0163071
741.863	0.0164008
741.942	0.0165934
742.020	0.0166253
742.098	0.0168594
742.176	0.0168700
742.254	0.0169028
742.332	0.0170628
742.410	0.0170252
742.488	0.0169827
742.567	0.0171664
742.645	0.0171913
742.723	0.0170138
742.801	0.0170448
742.879	0.0170316
742.957	0.0168763
743.035	0.0168636
743.113	0.0167107
743.192	0.0166300
743.270	0.0166402
743.348	0.0165718
743.426	0.0165061
743.504	0.0164358
743.582	0.0162931
743.660	0.0164958
743.738	0.0164687
743.817	0.0165182
743.895	0.0166825
743.973	0.0168103
744.051	0.0166469
744.129	0.0169274
744.207	0.0169503
744.285	0.0171068
744.363	0.0172547
744.442	0.0173220
744.520	0.0173338
744.598	0.0174347
744.676	0.0174792
744.754	0.0175163
744.832	0.0173868
744.910	0.0174728
744.988	0.0174127
745.067	0.0174583
745.145	0.0174451
745.223	0.0171503
745.301	0.0173943
745.379	0.0172339
745.457	0.0172961
745.535	0.0174928
745.613	0.0175282
745.692	0.0174628
745.770	0.0175759
745.848	0.0175641
745.926	0.0175742
746.004	0.0177932
746.082	0.0177505
746.160	0.0177905
746.238	0.0179209
746.317	0.0178307
746.395	0.0179517
746.473	0.0180354
746.551	0.0182012
746.629	0.0182808
746.707	0.0181770
746.785	0.0182222
746.863	0.0182658
746.942	0.0183553
747.020	0.0184716
747.098	0.0184268
747.176	0.0185875
747.254	0.0185748
747.332	0.0186764
747.410	0.0184528
747.488	0.0183855
747.567	0.0183527
747.645	0.0184830
747.723	0.0183237
747.801	0.0182370
747.879	0.0181676
747.957	0.0179784
748.035	0.0177505
748.113	0.0177538
748.192	0.0175727
748.270	0.0174068
748.348	0.0173607
748.426	0.0171007
748.504	0.0170365
748.582	0.0168787
748.660	0.0168932
748.738	0.0168320
748.817	0.0168077
748.895	0.0167366
748.973	0.0167296
749.051	0.0166526
749.129	0.0165938
749.207	0.0167825
749.285	0.0169209
749.363	0.0167824
749.442	0.0169106
749.520	0.0170199
749.598	0.0171108
749.676	0.0172081
749.754	0.0170074
749.832	0.0171397
749.910	0.0170878
749.988	0.0172530
750.067	0.0172570
750.145	0.0172362
750.223	0.0170959
750.301	0.0170835
750.379	0.0170850
750.457	0.0170899
750.535	0.0170520
750.613	0.0169133
750.692	0.0169651
750.770	0.0166975
750.848	0.0167294
750.926	0.0166972
751.004	0.0167014
751.082	0.0165105
751.160	0.0165862
751.238	0.0166759
751.317	0.0164160
751.395	0.0164979
751.473	0.0165735
751.551	0.0164289
751.629	0.0164294
751.707	0.0165022
751.785	0.0167365
751.863	0.0166187
751.942	0.0167960
752.020	0.0168719
752.098	0.0169302
752.176	0.0169983
752.254	0.0170318
752.332	0.0170726
752.410	0.0171771
752.488	0.0173069
752.567	0.0172953
752.645	0.0173178
752.723	0.0173112
752.801	0.0174006
752.879	0.0175313
752.957	0.0174533
753.035	0.0175649
753.113	0.0176188
753.192	0.0177237
753.270	0.0176762
753.348	0.0176272
753.426	0.0176237
753.504	0.0176943
753.582	0.0176205
753.660	0.0175959
753.738	0.0176201
753.817	0.0176012
753.895	0.0173691
753.973	0.0174625
754.051	0.0174637
754.129	0.0172299
754.207	0.0173569
754.285	0.0173954
754.363	0.0174006
754.442	0.0175239
754.520	0.0176787
754.598	0.0176268
754.676	0.0177711
754.754	0.0177563
754.832	0.0177357
754.910	0.0180065
754.988	0.0179542
755.067	0.0181444
755.145	0.0182269
755.223	0.0181744
755.301	0.0182378
755.379	0.0182869
755.457	0.0181654
755.535	0.0182419
755.613	0.0182975
755.692	0.0182397
755.770	0.0183417
755.848	0.0182157
755.926	0.0181314
756.004	0.0180309
756.082	0.0179167
756.160	0.0177674
756.238	0.0175768
756.317	0.0174683
756.395	0.0174294
756.473	0.0172742
756.551	0.0172023
756.629	0.0173112
756.707	0.0169794
756.785	0.0168801
756.863	0.0168716
756.942	0.0168014
757.020	0.0168797
757.098	0.0169719
757.176	0.0169292
757.254	0.0169971
757.332	0.0170735
757.410	0.0170248
757.488	0.0169604
757.567	0.0171380
757.645	0.0173047
757.723	0.0172057
757.801	0.0172569
757.879	0.0172329
757.957	0.0174086
758.035	0.0172672
758.113	0.0174100
758.192	0.0172650
758.270	0.0173508
758.348	0.0173331
758.426	0.0172718
758.504	0.0171811
758.582	0.0174045
758.660	0.0171849
758.738	0.0171801
758.817	0.0172684
758.895	0.0171484
758.973	0.0170533
759.051	0.0172118
759.129	0.0170851
759.207	0.0170163
759.285	0.0169352
759.363	0.0169083
759.442	0.0167386
759.520	0.0166126
759.598	0.0166764
759.676	0.0165322
759.754	0.0165588
759.832	0.0166518
759.910	0.0165758
759.988	0.0165816
760.067	0.0166055
760.145	0.0166965
760.223	0.0167503
760.301	0.0166299
760.379	0.0167236
760.457	0.0168623
760.535	0.0169681
760.613	0.0172173
760.692	0.0171239
760.770	0.0171412
760.848	0.0172342
760.926	0.0172922
761.004	0.0172918
761.082	0.0173531
761.160	0.0173383
761.238	0.0175439
761.317	0.0175002
761.395	0.0173993
761.473	0.0174582
761.551	0.0175883
761.629	0.0174541
761.707	0.0174123
761.785	0.0173483
761.863	0.0172499
761.942	0.0173100
762.020	0.0172980
762.098	0.0172681
762.176	0.0175242
762.254	0.0174249
762.332	0.0174647
762.410	0.0175948
762.488	0.0174877
762.567	0.0176103
762.645	0.0176595
762.723	0.0177211
762.801	0.0178209
762.879	0.0180061
762.957	0.0179801
763.035	0.0180366
763.113	0.0180840
763.192	0.0182298
763.270	0.0182120
763.348	0.0182645
763.426	0.0182353
763.504	0.0183096
763.582	0.0183624
763.660	0.0182446
763.738	0.0182367
763.817	0.0181052
763.895	0.0181368
763.973	0.0181346
764.051	0.0180872
764.129	0.0179121
764.207	0.0177795
764.285	0.0177287
764.363	0.0176582
764.442	0.0176858
764.520	0.0174944
764.598	0.0173283
764.676	0.0172728
764.754	0.0171590
764.832	0.0170564
764.910	0.0170670
764.988	0.0168154
765.067	0.0167460
765.145	0.0168011
765.223	0.0167328
765.301	0.0167043
765.379	0.0167049
765.457	0.0169067
765.535	0.0169873
765.613	0.0168350
765.692	0.0170752
765.770	0.0170359
765.848	0.0168870
765.926	0.0170680
766.004	0.0172448
766.082	0.0171770
766.160	0.0171028
766.238	0.0171941
766.317	0.0170733
766.395	0.0170829
766.473	0.0173459
766.551	0.0170893
766.629	0.0169191
766.707	0.0170280
766.785	0.0171505
766.863	0.0170677
766.942	0.0172118
767.020	0.0171046
767.098	0.0170094
767.176	0.0171187
767.254	0.0169733
767.332	0.0168993
767.410	0.0169044
767.488	0.0168735
767.567	0.0167517
767.645	0.0168223
767.723	0.0165682
767.801	0.0165093
767.879	0.0166758
767.957	0.0166839
768.035	0.0167751
768.113	0.0167918
768.192	0.0167167
768.270	0.0167833
768.348	0.0169912
768.426	0.0169845
768.504	0.0171507
768.582	0.0172472
768.660	0.0173459
768.738	0.0173491
768.817	0.0174231
768.895	0.0175185
768.973	0.0176574
769.051	0.0177048
769.129	0.0178735
769.207	0.0177746
769.285	0.0178185
769.363	0.0177107
769.442	0.0179054
769.520	0.0180610
769.598	0.0179604
769.676	0.0180061
769.754	0.0178024
769.832	0.0178183
769.910	0.0177877
769.988	0.0178127
770.067	0.0175925
770.145	0.0176634
770.223	0.0174152
770.301	0.0173020
770.379	0.0173050
770.457	0.0174200
770.535	0.0172712
770.613	0.0172371
770.692	0.0172509
770.770	0.0171268
770.848	0.0171705
770.926	0.0171812
771.004	0.0172173
771.082	0.0172960
771.160	0.0174442
771.238	0.0173786
771.317	0.0174409
771.395	0.0175584
771.473	0.0176217
771.551	0.0177471
771.629	0.0176508
771.707	0.0176322
771.785	0.0177121
771.863	0.0176669
771.942	0.0176624
772.020	0.0175161
772.098	0.0177512
772.176	0.0175486
772.254	0.0174512
772.332	0.0175071
772.410	0.0174641
772.488	0.0173991
772.567	0.0173398
772.645	0.0174071
772.723	0.0171512
772.801	0.0172548
772.879	0.0172375
772.957	0.0171827
773.035	0.0172081
773.113	0.0174123
773.192	0.0173280
773.270	0.0172704
773.348	0.0172846
773.426	0.0172742
773.504	0.0173719
773.582	0.0173572
773.660	0.0175303
773.738	0.0174613
773.817	0.0172580
773.895	0.0173885
773.973	0.0174129
774.051	0.0173397
774.129	0.0173967
774.207	0.0173241
774.285	0.0174514
774.363	0.0174374
774.442	0.0173987
774.520	0.0175145
774.598	0.0174142
774.676	0.0173807
774.754	0.0172759
774.832	0.0173293
774.910	0.0173351
774.988	0.0171027
775.067	0.0171725
775.145	0.0171001
775.223	0.0170567
775.301	0.0170582
775.379	0.0170285
775.457	0.0170345
775.535	0.0169402
775.613	0.0167566
775.692	0.0167730
775.770	0.0168862
775.848	0.0168211
775.926	0.0167246
776.004	0.0168135
776.082	0.0168649
776.160	0.0167779
776.238	0.0168421
776.317	0.0168916
776.395	0.0168112
776.473	0.0170825
776.551	0.0171284
776.629	0.0171053
776.707	0.0169185
776.785	0.0170117
776.863	0.0173321
776.942	0.0174000
777.020	0.0173544
777.098	0.0171790
777.176	0.0173373
777.254	0.0173315
777.332	0.0174807
777.410	0.0174382
777.488	0.0174319
777.567	0.0174680
777.645	0.0175422
777.723	0.0174989
777.801	0.0175651
777.879	0.0175308
777.957	0.0176266
778.035	0.0176449
778.113	0.0175240
778.192	0.0174832
778.270	0.0178217
778.348	0.0176019
778.426	0.0175049
778.504	0.0175472
778.582	0.0175784
778.660	0.0175198
778.738	0.0174886
778.817	0.0175967
778.895	0.0176909
778.973	0.0175772
779.051	0.0174899
779.129	0.0175570
779.207	0.0175723
779.285	0.0175172
779.363	0.0175743
779.442	0.0175751
779.520	0.0176295
779.598	0.0175054
779.676	0.0175756
779.754	0.0176180
779.832	0.0174977
779.910	0.0176299
779.988	0.0175981
780.067	0.0177272
780.145	0.0175458
780.223	0.0176791
780.301	0.0176528
780.379	0.0176217
780.457	0.0176139
780.535	0.0175481
780.613	0.0175895
780.692	0.0175037
780.770	0.0173568
780.848	0.0175005
780.926	0.0174500
781.004	0.0172508
781.082	0.0172157
781.160	0.0172768
781.238	0.0173798
781.317	0.0174160
781.395	0.0171882
781.473	0.0171255
781.551	0.0173308
781.629	0.0173244
781.707	0.0171879
781.785	0.0172057
781.863	0.0172422
781.942	0.0172933
782.020	0.0173173
782.098	0.0172243
782.176	0.0172704
782.254	0.0171650
782.332	0.0171259
782.410	0.0172894
782.488	0.0172517
782.567	0.0170539
782.645	0.0170784
782.723	0.0170184
782.801	0.0168951
782.879	0.0170837
782.957	0.0168464
783.035	0.0169527
783.113	0.0171333
783.192	0.0170773
783.270	0.0170304
783.348	0.0169850
783.426	0.0169916
783.504	0.0170895
783.582	0.0170911
783.660	0.0171737
783.738	0.0172330
783.817	0.0173389
783.895	0.0174165
783.973	0.0173191
784.051	0.0175275
784.129	0.0175332
784.207	0.0175230
784.285	0.0177285
784.363	0.0176803
784.442	0.0176942
784.520	0.0174478
784.598	0.0173212
784.676	0.0173660
784.754	0.0170615
784.832	0.0169742
784.910	0.0166454
784.988	0.0163899
785.067	0.0160842
785.145	0.0160246
785.223	0.0159170
785.301	0.0156966
785.379	0.0155139
785.457	0.0156112
785.535	0.0155550
785.613	0.0156407
785.692	0.0156483
785.770	0.0159750
785.848	0.0161279
785.926	0.0165108
786.004	0.0166959
786.082	0.0170016
786.160	0.0175498
786.238	0.0182272
786.317	0.0186509
786.395	0.0191165
786.473	0.0195162
786.551	0.0200174
786.629	0.0203187
786.707	0.0206805
786.785	0.0208964
786.863	0.0210356
786.942	0.0211610
787.020	0.0210400
787.098	0.0208690
787.176	0.0207598
787.254	0.0202946
787.332	0.0198917
787.410	0.0194783
787.488	0.0192018
787.567	0.0184956
787.645	0.0179562
787.723	0.0174078
787.801	0.0170010
787.879	0.0164671
787.957	0.0160500
788.035	0.0153793
788.113	0.0150954
788.192	0.0146869
788.270	0.0145329
788.348	0.0142855
788.426	0.0141157
788.504	0.0139814
788.582	0.0139539
788.660	0.0137611
788.738	0.0138266
788.817	0.0140487
788.895	0.0141702
788.973	0.0143391
789.051	0.0145646
789.129	0.0148314
789.207	0.0150116
789.285	0.0153947
789.363	0.0156870
789.442	0.0159584
789.520	0.0163241
789.598	0.0165694
789.676	0.0169294
789.754	0.0171638
789.832	0.0176568
789.910	0.0178577
789.988	0.0180391
790.067	0.0184111
790.145	0.0187578
790.223	0.0187465
790.301	0.0189542
790.379	0.0192813
790.457	0.0194473
790.535	0.0193790
790.613	0.0196078
790.692	0.0197846
790.770	0.0197066
790.848	0.0198792
790.926	0.0198765
791.004	0.0198240
791.082	0.0198914
791.160	0.0199118
791.238	0.0198024
791.317	0.0198198
791.395	0.0197360
791.473	0.0196061
791.551	0.0194258
791.629	0.0191847
791.707	0.0190388
791.785	0.0187972
791.863	0.0186651
791.942	0.0182605
792.020	0.0178851
792.098	0.0177785
792.176	0.0174306
792.254	0.0172891
792.332	0.0170567
792.410	0.0168301
792.488	0.0166447
792.567	0.0164064
792.645	0.0162241
792.723	0.0160803
792.801	0.0159570
792.879	0.0158582
792.957	0.0157478
793.035	0.0157116
793.113	0.0154611
793.192	0.0155511
793.270	0.0155084
793.348	0.0151219
793.426	0.0152692
793.504	0.0151962
793.582	0.0151252
793.660	0.0150919
793.738	0.0149387
793.817	0.0148811
793.895	0.0149837
793.973	0.0148976
794.051	0.0149956
794.129	0.0149463
794.207	0.0150338
794.285	0.0151923
794.363	0.0154299
794.442	0.0156614
794.520	0.0159253
794.598	0.0161520
794.676	0.0162277
794.754	0.0165072
794.832	0.0168896
794.910	0.0171749
794.988	0.0173702
795.067	0.0176891
795.145	0.0177815
795.223	0.0180090
795.301	0.0182781
795.379	0.0181554
795.457	0.0183916
795.535	0.0186279
795.613	0.0185191
795.692	0.0186007
795.770	0.0186584
795.848	0.0186148
795.926	0.0186065
796.004	0.0187936
796.082	0.0187798
796.160	0.0189246
796.238	0.0188576
796.317	0.0190391
796.395	0.0190765
796.473	0.0189874
796.551	0.0191838
796.629	0.0191164
796.707	0.0190073
796.785	0.0192150
796.863	0.0192938
796.942	0.0191264
797.020	0.0191395
797.098	0.0190906
797.176	0.0190409
797.254	0.0187955
797.332	0.0186611
797.410	0.0186060
797.488	0.0183328
797.567	0.0183437
797.645	0.0182455
797.723	0.0181808
797.801	0.0181831
797.879	0.0178552
797.957	0.0178606
798.035	0.0175931
798.113	0.0174892
798.192	0.0174718
798.270	0.0173882
798.348	0.0173471
798.426	0.0170811
798.504	0.0169340
798.582	0.0168932
798.660	0.0166663
798.738	0.0165721
798.817	0.0165417
798.895	0.0163577
798.973	0.0162534
799.051	0.0163003
799.129	0.0163551
799.207	0.0161474
799.285	0.0161571
799.363	0.0160239
799.442	0.0159969
799.520	0.0159337
799.598	0.0160127
799.676	0.0158852
799.754	0.0160013
799.832	0.0160775
799.910	0.0159175
799.988	0.0159698
800.067	0.0159109
800.145	0.0159706
800.223	0.0158730
800.301	0.0159493
800.379	0.0159206
800.457	0.0160057
800.535	0.0159869
800.613	0.0159023
800.692	0.0158256
800.770	0.0158771
800.848	0.0161424
800.926	0.0161760
801.004	0.0161448
801.082	0.0162188
801.160	0.0164601
801.238	0.0165459
801.317	0.0166678
801.395	0.0167992
801.473	0.0169917
801.551	0.0171952
801.629	0.0172161
801.707	0.0173129
801.785	0.0176823
801.863	0.0179310
801.942	0.0180180
802.020	0.0180732
802.098	0.0181812
802.176	0.0184460
802.254	0.0183855
802.332	0.0185483
802.410	0.0187312
802.488	0.0188499
802.567	0.0186652
802.645	0.0188638
802.723	0.0188476
802.801	0.0188038
802.879	0.0187952
802.957	0.0189446
803.035	0.0189973
803.113	0.0188706
803.192	0.0187230
803.270	0.0186083
803.348	0.0185757
803.426	0.0185086
803.504	0.0183615
803.582	0.0182111
803.660	0.0181944
803.738	0.0179983
803.817	0.0178548
803.895	0.0178409
803.973	0.0176295
804.051	0.0176653
804.129	0.0176160
804.207	0.0175660
804.285	0.0175043
804.363	0.0174203
804.442	0.0174466
804.520	0.0174432
804.598	0.0175127
804.676	0.0174940
804.754	0.0173519
804.832	0.0173373
804.910	0.0173225
804.988	0.0171783
805.067	0.0174698
805.145	0.0172750
805.223	0.0173335
805.301	0.0171571
805.379	0.0171861
805.457	0.0171422
805.535	0.0170349
805.613	0.0170654
805.692	0.0169843
805.770	0.0169537
805.848	0.0170523
805.926	0.0170390
806.004	0.0169576
806.082	0.0169331
806.160	0.0169842
806.238	0.0169621
806.317	0.0168669
806.395	0.0170096
806.473	0.0169812
806.551	0.0170602
806.629	0.0169291
806.707	0.0171038
806.785	0.0171192
806.863	0.0172375
806.942	0.0173339
807.020	0.0172372
807.098	0.0172439
807.176	0.0171632
807.254	0.0172056
807.332	0.0172745
807.410	0.0170927
807.488	0.0170115
807.567	0.0169341
807.645	0.0170054
807.723	0.0168506
807.801	0.0169331
807.879	0.0168666
807.957	0.0168810
808.035	0.0168377
808.113	0.0168104
808.192	0.0167965
808.270	0.0167881
808.348	0.0167259
808.426	0.0167700
808.504	0.0166930
808.582	0.0167565
808.660	0.0166845
808.738	0.0167547
808.817	0.0167495
808.895	0.0168169
808.973	0.0167229
809.051	0.0166488
809.129	0.0166796
809.207	0.0167929
809.285	0.0166677
809.363	0.0169288
809.442	0.0170121
809.520	0.0171276
809.598	0.0171455
809.676	0.0172601
809.754	0.0174100
809.832	0.0174735
809.910	0.0175912
809.988	0.0175795
810.067	0.0177370
810.145	0.0175604
810.223	0.0176926
810.301	0.0177805
810.379	0.0177180
810.457	0.0176848
810.535	0.0176497
810.613	0.0176495
810.692	0.0178068
810.770	0.0176745
810.848	0.0175758
810.926	0.0178215
811.004	0.0176812
811.082	0.0176944
811.160	0.0178400
811.238	0.0178154
811.317	0.0177741
811.395	0.0177677
811.473	0.0179371
811.551	0.0178638
811.629	0.0179844
811.707	0.0180644
811.785	0.0180450
811.863	0.0178777
811.942	0.0181029
812.020	0.0181078
812.098	0.0180941
812.176	0.0179895
812.254	0.0178471
812.332	0.0178928
812.410	0.0179149
812.488	0.0176801
812.567	0.0177188
812.645	0.0176447
812.723	0.0176653
812.801	0.0174779
812.879	0.0174958
812.957	0.0172932
813.035	0.0173340
813.113	0.0171633
813.192	0.0170942
813.270	0.0170248
813.348	0.0169657
813.426	0.0169778
813.504	0.0170194
813.582	0.0169532
813.660	0.0168867
813.738	0.0169316
813.817	0.0169446
813.895	0.0170700
813.973	0.0171878
814.051	0.0171178
814.129	0.0173750
814.207	0.0172821
814.285	0.0174333
814.363	0.0174529
814.442	0.0175249
814.520	0.0175124
814.598	0.0176337
814.676	0.0174396
814.754	0.0174229
814.832	0.0174654
814.910	0.0171488
814.988	0.0170834
815.067	0.0170698
815.145	0.0168906
815.223	0.0166952
815.301	0.0165752
815.379	0.0163930
815.457	0.0163557
815.535	0.0161834
815.613	0.0160632
815.692	0.0161667
815.770	0.0161612
815.848	0.0161430
815.926	0.0161866
816.004	0.0162925
816.082	0.0164700
816.160	0.0164292
816.238	0.0165778
816.317	0.0167768
816.395	0.0169063
816.473	0.0170469
816.551	0.0172404
816.629	0.0172993
816.707	0.0174223
816.785	0.0174397
816.863	0.0176127
816.942	0.0176279
817.020	0.0176315
817.098	0.0176201
817.176	0.0176817
817.254	0.0178091
817.332	0.0176053
817.410	0.0176688
817.488	0.0176841
817.567	0.0176830
817.645	0.0174741
817.723	0.0174245
817.801	0.0174437
817.879	0.0174823
817.957	0.0172884
818.035	0.0171973
818.113	0.0173363
818.192	0.0171417
818.270	0.0172648
818.348	0.0171052
818.426	0.0170329
818.504	0.0171735
818.582	0.0171735
818.660	0.0171764
818.738	0.0170992
818.817	0.0171372
818.895	0.0172181
818.973	0.0173758
819.051	0.0173638
819.129	0.0173505
819.207	0.0173654
819.285	0.0176241
819.363	0.0176504
819.442	0.0177821
819.520	0.0177409
819.598	0.0178778
819.676	0.0179637
819.754	0.0180087
819.832	0.0182723
819.910	0.0184104
819.988	0.0181982
820.067	0.0183593
820.145	0.0183502
820.223	0.0185302
820.301	0.0183452
820.379	0.0181342
820.457	0.0182026
820.535	0.0181568
820.613	0.0180967
820.692	0.0177711
820.770	0.0177857
820.848	0.0177182
820.926	0.0175487
821.004	0.0173278
821.082	0.0173387
821.160	0.0173263
821.238	0.0172261
821.317	0.0170297
821.395	0.0169698
821.473	0.0169984
821.551	0.0168373
821.629	0.0170308
821.707	0.0169351
821.785	0.0168967
821.863	0.0168604
821.942	0.0168652
822.020	0.0169002
822.098	0.0170681
822.176	0.0170897
822.254	0.0172074
822.332	0.0171111
822.410	0.0172337
822.488	0.0171535
822.567	0.0172465
822.645	0.0171687
822.723	0.0172127
822.801	0.0173317
822.879	0.0172464
822.957	0.0173626
823.035	0.0173132
823.113	0.0172475
823.192	0.0173844
823.270	0.0173437
823.348	0.0172708
823.426	0.0171095
823.504	0.0171410
823.582	0.0170069
823.660	0.0171662
823.738	0.0170286
823.817	0.0169077
823.895	0.0168349
823.973	0.0165971
824.051	0.0166546
824.129	0.0167051
824.207	0.0164773
824.285	0.0164576
824.363	0.0163188
824.442	0.0163789
824.520	0.0164933
824.598	0.0164285
824.676	0.0164001
824.754	0.0164326
824.832	0.0165205
824.910	0.0165744
824.988	0.0166055
825.067	0.0167651
825.145	0.0168030
825.223	0.0169163
825.301	0.0170452
825.379	0.0171338
825.457	0.0173602
825.535	0.0172550
825.613	0.0172755
825.692	0.0174367
825.770	0.0173978
825.848	0.0174197
825.926	0.0176005
826.004	0.0175195
826.082	0.0175394
826.160	0.0175272
826.238	0.0175756
826.317	0.0176617
826.395	0.0176834
826.473	0.0177283
826.551	0.0174681
826.629	0.0176292
826.707	0.0177601
826.785	0.0176878
826.863	0.0178243
826.942	0.0177831
827.020	0.0178576
827.098	0.0179317
827.176	0.0180247
827.254	0.0180304
827.332	0.0178786
827.410	0.0181281
827.488	0.0180931
827.567	0.0181761
827.645	0.0180006
827.723	0.0179415
827.801	0.0181215
827.879	0.0180823
827.957	0.0180457
828.035	0.0179710
828.113	0.0180946
828.192	0.0180206
828.270	0.0178687
828.348	0.0179137
828.426	0.0178938
828.504	0.0178023
828.582	0.0177042
828.660	0.0176479
828.738	0.0175766
828.817	0.0174220
828.895	0.0172620
828.973	0.0174510
829.051	0.0171889
829.129	0.0169955
829.207	0.0170723
829.285	0.0170043
829.363	0.0168723
829.442	0.0169257
829.520	0.0168344
829.598	0.0169189
829.676	0.0169867
829.754	0.0168681
829.832	0.0167200
829.910	0.0167592
829.988	0.0166473
830.067	0.0165788
830.145	0.0166075
830.223	0.0167002
830.301	0.0166577
830.379	0.0166108
830.457	0.0165902
830.535	0.0167326
830.613	0.0167351
830.692	0.0167631
830.770	0.0168263
830.848	0.0167824
830.926	0.0168578
831.004	0.0168127
831.082	0.0168398
831.160	0.0166441
831.238	0.0167772
831.317	0.0169360
831.395	0.0170188
831.473	0.0170665
831.551	0.0169576
831.629	0.0171200
831.707	0.0171263
831.785	0.0171718
831.863	0.0173038
831.942	0.0173166
832.020	0.0174451
832.098	0.0175993
832.176	0.0173763
832.254	0.0175328
832.332	0.0176429
832.410	0.0175948
832.488	0.0178126
832.567	0.0177686
832.645	0.0179068
832.723	0.0179018
832.801	0.0179288
832.879	0.0177758
832.957	0.0178011
833.035	0.0179277
833.113	0.0179257
833.192	0.0175974
833.270	0.0175816
833.348	0.0176839
833.426	0.0176830
833.504	0.0174949
833.582	0.0176337
833.660	0.0176553
833.738	0.0174779
833.817	0.0174555
833.895	0.0172986
833.973	0.0173134
834.051	0.0173086
834.129	0.0172158
834.207	0.0171693
834.285	0.0171946
834.363	0.0171210
834.442	0.0172054
834.520	0.0171724
834.598	0.0171212
834.676	0.0169979
834.754	0.0169269
834.832	0.0170715
834.910	0.0171486
834.988	0.0169946
835.067	0.0171008
835.145	0.0170659
835.223	0.0169691
835.301	0.0170403
835.379	0.0169996
835.457	0.0171575
835.535	0.0171558
835.613	0.0173021
835.692	0.0173484
835.770	0.0172681
835.848	0.0171985
835.926	0.0173547
836.004	0.0173032
836.082	0.0172659
836.160	0.0173666
836.238	0.0173508
836.317	0.0174773
836.395	0.0174444
836.473	0.0175066
836.551	0.0174958
836.629	0.0174932
836.707	0.0175832
836.785	0.0174560
836.863	0.0176321
836.942	0.0175956
837.020	0.0174612
837.098	0.0175388
837.176	0.0175201
837.254	0.0174545
837.332	0.0175561
837.410	0.0174258
837.488	0.0176001
837.567	0.0174860
837.645	0.0176138
837.723	0.0174613
837.801	0.0175013
837.879	0.0173960
837.957	0.0173046
838.035	0.0174003
838.113	0.0174781
838.192	0.0173662
838.270	0.0173766
838.348	0.0173956
838.426	0.0173378
838.504	0.0174662
838.582	0.0173320
838.660	0.0174461
838.738	0.0174105
838.817	0.0174168
838.895	0.0175589
838.973	0.0174956
839.051	0.0175655
839.129	0.0175790
839.207	0.0176175
839.285	0.0175471
839.363	0.0175282
839.442	0.0175063
839.520	0.0173244
839.598	0.0173059
839.676	0.0172788
839.754	0.0172594
839.832	0.0172723
839.910	0.0171519
839.988	0.0169724
840.067	0.0169578
840.145	0.0169357
840.223	0.0169024
840.301	0.0169870
840.379	0.0169247
840.457	0.0168671
840.535	0.0168541
840.613	0.0168175
840.692	0.0168936
840.770	0.0169198
840.848	0.0168864
840.926	0.0169997
841.004	0.0170225
841.082	0.0171142
841.160	0.0170396
841.238	0.0170696
841.317	0.0170729
841.395	0.0171726
841.473	0.0172402
841.551	0.0172292
841.629	0.0170393
841.707	0.0171262
841.785	0.0171773
841.863	0.0169733
841.942	0.0171569
842.020	0.0170840
842.098	0.0171213
842.176	0.0169994
842.254	0.0171472
842.332	0.0170401
842.410	0.0171626
842.488	0.0170528
842.567	0.0171568
842.645	0.0171904
842.723	0.0171674
842.801	0.0173133
842.879	0.0173347
842.957	0.0173981
843.035	0.0174476
843.113	0.0175117
843.192	0.0175678
843.270	0.0174591
843.348	0.0175177
843.426	0.0177117
843.504	0.0176672
843.582	0.0176663
843.660	0.0177781
843.738	0.0178200
843.817	0.0178931
843.895	0.0177905
843.973	0.0178838
844.051	0.0178568
844.129	0.0178308
844.207	0.0178500
844.285	0.0179311
844.363	0.0179132
844.442	0.0179256
844.520	0.0178935
844.598	0.0178237
844.676	0.0178226
844.754	0.0177750
844.832	0.0178087
844.910	0.0178387
844.988	0.0176603
845.067	0.0175922
845.145	0.0175725
845.223	0.0175808
845.301	0.0174513
845.379	0.0173259
845.457	0.0172669
845.535	0.0173534
845.613	0.0171967
845.692	0.0172236
845.770	0.0171304
845.848	0.0171460
845.926	0.0171268
846.004	0.0172164
846.082	0.0170445
846.160	0.0170629
846.238	0.0169630
846.317	0.0171718
846.395	0.0171421
846.473	0.0172408
846.551	0.0173217
846.629	0.0170782
846.707	0.0170827
846.785	0.0171002
846.863	0.0171710
846.942	0.0172224
847.020	0.0172736
847.098	0.0171925
847.176	0.0170442
847.254	0.0170358
847.332	0.0170734
847.410	0.0171545
847.488	0.0170063
847.567	0.0170917
847.645	0.0169821
847.723	0.0170838
847.801	0.0170591
847.879	0.0170793
847.957	0.0170670
848.035	0.0168846
848.113	0.0168179
848.192	0.0169715
848.270	0.0167953
848.348	0.0167764
848.426	0.0166604
848.504	0.0168971
848.582	0.0169313
848.660	0.0168461
848.738	0.0169185
848.817	0.0167843
848.895	0.0167338
848.973	0.0169800
849.051	0.0170951
849.129	0.0172321
849.207	0.0171590
849.285	0.0173171
849.363	0.0174274
849.442	0.0174908
849.520	0.0176713
849.598	0.0175569
849.676	0.0176373
849.754	0.0177939
849.832	0.0177363
849.910	0.0178265
849.988	0.0178429
850.067	0.0177560
850.145	0.0177693
850.223	0.0177776
850.301	0.0177345
850.379	0.0178296
850.457	0.0178561
850.535	0.0177650
850.613	0.0177666
850.692	0.0177975
850.770	0.0176744
850.848	0.0177072
850.926	0.0175934
851.004	0.0175145
851.082	0.0176170
851.160	0.0175166
851.238	0.0174712
851.317	0.0173966
851.395	0.0174783
851.473	0.0174194
851.551	0.0173206
851.629	0.0171125
851.707	0.0172240
851.785	0.0173471
851.863	0.0173455
851.942	0.0170302
852.020	0.0170111
852.098	0.0172373
852.176	0.0171252
852.254	0.0169296
852.332	0.0169950
852.410	0.0171290
852.488	0.0171176
852.567	0.0169842
852.645	0.0170433
852.723	0.0171438
852.801	0.0171986
852.879	0.0171397
852.957	0.0171271
853.035	0.0173813
853.113	0.0173872
853.192	0.0173894
853.270	0.0174010
853.348	0.0174759
853.426	0.0175030
853.504	0.0173484
853.582	0.0174065
853.660	0.0174541
853.738	0.0176001
853.817	0.0175272
853.895	0.0177093
853.973	0.0174985
854.051	0.0175551
854.129	0.0176609
854.207	0.0173732
854.285	0.0174050
854.363	0.0174329
854.442	0.0175326
854.520	0.0173911
854.598	0.0174534
854.676	0.0174714
854.754	0.0173331
854.832	0.0174010
854.910	0.0172775
854.988	0.0173122
855.067	0.0174030
855.145	0.0171380
855.223	0.0173030
855.301	0.0172952
855.379	0.0173156
855.457	0.0172572
855.535	0.0172279
855.613	0.0172340
855.692	0.0172985
855.770	0.0172391
855.848	0.0172533
855.926	0.0170739
856.004	0.0172549
856.082	0.0172910
856.160	0.0171902
856.238	0.0172156
856.317	0.0172980
856.395	0.0172015
856.473	0.0171430
856.551	0.0171056
856.629	0.0172270
856.707	0.0172049
856.785	0.0171834
856.863	0.0170692
856.942	0.0171702
857.020	0.0172105
857.098	0.0171029
857.176	0.0171095
857.254	0.0171697
857.332	0.0170602
857.410	0.0171531
857.488	0.0171297
857.567	0.0172612
857.645	0.0170866
857.723	0.0173381
857.801	0.0174168
857.879	0.0172177
857.957	0.0173441
858.035	0.0174286
858.113	0.0175412
858.192	0.0174572
858.270	0.0174826
858.348	0.0175941
858.426	0.0175797
858.504	0.0173826
858.582	0.0173972
858.660	0.0174722
858.738	0.0173351
858.817	0.0172498
858.895	0.0173482
858.973	0.0172298
859.051	0.0172518
859.129	0.0172629
859.207	0.0172574
859.285	0.0172204
859.363	0.0170850
859.442	0.0170879
859.520	0.0171361
859.598	0.0171439
859.676	0.0170988
859.754	0.0171426
859.832	0.0173330
859.910	0.0171292
859.988	0.0170777
860.067	0.0172485
860.145	0.0172044
860.223	0.0172542
860.301	0.0173469
860.379	0.0174721
860.457	0.0176116
860.535	0.0175597
860.613	0.0175005
860.692	0.0177004
860.770	0.0176988
860.848	0.0176365
860.926	0.0176232
861.004	0.0178120
861.082	0.0178989
861.160	0.0179415
861.238	0.0177857
861.317	0.0177312
861.395	0.0176413
861.473	0.0177382
861.551	0.0178281
861.629	0.0175070
861.707	0.0176347
861.785	0.0176733
861.863	0.0176374
861.942	0.0176620
862.020	0.0174612
862.098	0.0175650
862.176	0.0174851
862.254	0.0174117
862.332	0.0173529
862.410	0.0175073
862.488	0.0172835
862.567	0.0173061
862.645	0.0171861
862.723	0.0172093
862.801	0.0171691
862.879	0.0172906
862.957	0.0173008
863.035	0.0171765
863.113	0.0170132
863.192	0.0171664
863.270	0.0172063
863.348	0.0172329
863.426	0.0172153
863.504	0.0171563
863.582	0.0171885
863.660	0.0171954
863.738	0.0171598
863.817	0.0170614
863.895	0.0170164
863.973	0.0170913
864.051	0.0170456
864.129	0.0169698
864.207	0.0171041
864.285	0.0169540
864.363	0.0170351
864.442	0.0171015
864.520	0.0170161
864.598	0.0171048
864.676	0.0171506
864.754	0.0171512
864.832	0.0172475
864.910	0.0172117
864.988	0.0171947
865.067	0.0171648
865.145	0.0170750
865.223	0.0171340
865.301	0.0170559
865.379	0.0169250
865.457	0.0168909
865.535	0.0169759
865.613	0.0170934
865.692	0.0170522
865.770	0.0172548
865.848	0.0172478
865.926	0.0173485
866.004	0.0173371
866.082	0.0174966
866.160	0.0174945
866.238	0.0175968
866.317	0.0175394
866.395	0.0176281
866.473	0.0176815
866.551	0.0175289
866.629	0.0175095
866.707	0.0177034
866.785	0.0176174
866.863	0.0177165
866.942	0.0175775
867.020	0.0175347
867.098	0.0175743
867.176	0.0174579
867.254	0.0174711
867.332	0.0175250
867.410	0.0174658
867.488	0.0174196
867.567	0.0174339
867.645	0.0175478
867.723	0.0174678
867.801	0.0175718
867.879	0.0174410
867.957	0.0175282
868.035	0.0175222
868.113	0.0174086
868.192	0.0173916
868.270	0.0175704
868.348	0.0174475
868.426	0.0175317
868.504	0.0174320
868.582	0.0173656
868.660	0.0173505
868.738	0.0172955
868.817	0.0172223
868.895	0.0172564
868.973	0.0171878
869.051	0.0171248
869.129	0.0172831
869.207	0.0172646
869.285	0.0172299
869.363	0.0173043
869.442	0.0171902
869.520	0.0172319
869.598	0.0172300
869.676	0.0173762
869.754	0.0173882
869.832	0.0173677
869.910	0.0175065
869.988	0.0173915
870.067	0.0173677
870.145	0.0172809
870.223	0.0173604
870.301	0.0174796
870.379	0.0173370
870.457	0.0173287
870.535	0.0176158
870.613	0.0174959
870.692	0.0172100
870.770	0.0174207
870.848	0.0174791
870.926	0.0174976
871.004	0.0172391
871.082	0.0172667
871.160	0.0173378
871.238	0.0173262
871.317	0.0174265
871.395	0.0174197
871.473	0.0172463
871.551	0.0172041
871.629	0.0171759
871.707	0.0171839
871.785	0.0171801
871.863	0.0172026
871.942	0.0171431
872.020	0.0171954
872.098	0.0172967
872.176	0.0172226
872.254	0.0172889
872.332	0.0173019
872.410	0.0173843
872.488	0.0171085
872.567	0.0172737
872.645	0.0175574
872.723	0.0173830
872.801	0.0172423
872.879	0.0172690
872.957	0.0172544
873.035	0.0171622
873.113	0.0173126
873.192	0.0172188
873.270	0.0170848
873.348	0.0172521
873.426	0.0172016
873.504	0.0170665
873.582	0.0171027
873.660	0.0172388
873.738	0.0171984
873.817	0.0171667
873.895	0.0171344
873.973	0.0171515
874.051	0.0172022
874.129	0.0172138
874.207	0.0172182
874.285	0.0171310
874.363	0.0171738
874.442	0.0171715
874.520	0.0171563
874.598	0.0173119
874.676	0.0171945
874.754	0.0172133
874.832	0.0171748
874.910	0.0173709
874.988	0.0173022
875.067	0.0172417
875.145	0.0172334
875.223	0.0172150
875.301	0.0171758
875.379	0.0172390
875.457	0.0170516
875.535	0.0171889
875.613	0.0171833
875.692	0.0170708
875.770	0.0171534
875.848	0.0170881
875.926	0.0171621
876.004	0.0171926
876.082	0.0172765
876.160	0.0173064
876.238	0.0173232
876.317	0.0174686
876.395	0.0175419
876.473	0.0175299
876.551	0.0174602
876.629	0.0176808
876.707	0.0177233
876.785	0.0177405
876.863	0.0177525
876.942	0.0177155
877.020	0.0177045
877.098	0.0179138
877.176	0.0179057
877.254	0.0177538
877.332	0.0178672
877.410	0.0179028
877.488	0.0177214
877.567	0.0176546
877.645	0.0176086
877.723	0.0175205
877.801	0.0175182
877.879	0.0175818
877.957	0.0176772
878.035	0.0174657
878.113	0.0173759
878.192	0.0173116
878.270	0.0173040
878.348	0.0172707
878.426	0.0171585
878.504	0.0173273
878.582	0.0171514
878.660	0.0170721
878.738	0.0170818
878.817	0.0169973
878.895	0.0170927
878.973	0.0171510
879.051	0.0171483
879.129	0.0172472
879.207	0.0174593
879.285	0.0175719
879.363	0.0178497
879.442	0.0178308
879.520	0.0180253
879.598	0.0179406
879.676	0.0179594
879.754	0.0177636
879.832	0.0177393
879.910	0.0173851
879.988	0.0172189
880.067	0.0167633
880.145	0.0163943
880.223	0.0160352
880.301	0.0155991
880.379	0.0152734
880.457	0.0151159
880.535	0.0151868
880.613	0.0151794
880.692	0.0153822
880.770	0.0156202
880.848	0.0159938
880.926	0.0165968
881.004	0.0170936
881.082	0.0177156
881.160	0.0183418
881.238	0.0188022
881.317	0.0192931
881.395	0.0196804
881.473	0.0199232
881.551	0.0202550
881.629	0.0202396
881.707	0.0203593
881.785	0.0201013
881.863	0.0200973
881.942	0.0197644
882.020	0.0192161
882.098	0.0188160
882.176	0.0183720
882.254	0.0177465
882.332	0.0172272
882.410	0.0168440
882.488	0.0162217
882.567	0.0157298
882.645	0.0152982
882.723	0.0150276
882.801	0.0146150
882.879	0.0144095
882.957	0.0144144
883.035	0.0143435
883.113	0.0142608
883.192	0.0143970
883.270	0.0146091
883.348	0.0146896
883.426	0.0150893
883.504	0.0154205
883.582	0.0156654
883.660	0.0160248
883.738	0.0162817
883.817	0.0167014
883.895	0.0171584
883.973	0.0174811
884.051	0.0178677
884.129	0.0180479
884.207	0.0184515
884.285	0.0186935
884.363	0.0189146
884.442	0.0190697
884.520	0.0191270
884.598	0.0194115
884.676	0.0192925
884.754	0.0193682
884.832	0.0191930
884.910	0.0191907
884.988	0.0189774
885.067	0.0186851
885.145	0.0187496
885.223	0.0185064
885.301	0.0183475
885.379	0.0183184
885.457	0.0180074
885.535	0.0178616
885.613	0.0176518
885.692	0.0175352
885.770	0.0173066
885.848	0.0172045
885.926	0.0171555
886.004	0.0170285
886.082	0.0170548
886.160	0.0170565
886.238	0.0169171
886.317	0.0170181
886.395	0.0171593
886.473	0.0172283
886.551	0.0171675
886.629	0.0173689
886.707	0.0173099
886.785	0.0174045
886.863	0.0174535
886.942	0.0173042
887.020	0.0172629
887.098	0.0173364
887.176	0.0171404
887.254	0.0170270
887.332	0.0169733
887.410	0.0168973
887.488	0.0168544
887.567	0.0167442
887.645	0.0166119
887.723	0.0166353
887.801	0.0166202
887.879	0.0163502
887.957	0.0164639
888.035	0.0163405
888.113	0.0165186
888.192	0.0166663
888.270	0.0165900
888.348	0.0165638
888.426	0.0168692
888.504	0.0167575
888.582	0.0169293
888.660	0.0170441
888.738	0.0171241
888.817	0.0174151
888.895	0.0174036
888.973	0.0175233
889.051	0.0175726
889.129	0.0176270
889.207	0.0176360
889.285	0.0175918
889.363	0.0175877
889.442	0.0176736
889.520	0.0177140
889.598	0.0177905
889.676	0.0175890
889.754	0.0175957
889.832	0.0177145
889.910	0.0176024
889.988	0.0175800
890.067	0.0176020
890.145	0.0175159
890.223	0.0174772
890.301	0.0175038
890.379	0.0175176
890.457	0.0174922
890.535	0.0173032
890.613	0.0175023
890.692	0.0174421
890.770	0.0172295
890.848	0.0170292
890.926	0.0171301
891.004	0.0171415
891.082	0.0167662
891.160	0.0167011
891.238	0.0167393
891.317	0.0168342
891.395	0.0167361
891.473	0.0166866
891.551	0.0166069
891.629	0.0166442
891.707	0.0166666
891.785	0.0165879
891.863	0.0168135
891.942	0.0168124
892.020	0.0169936
892.098	0.0170097
892.176	0.0171329
892.254	0.0172207
892.332	0.0172815
892.410	0.0172433
892.488	0.0173884
892.567	0.0172748
892.645	0.0173589
892.723	0.0174068
892.801	0.0174124
892.879	0.0173245
892.957	0.0174387
893.035	0.0174188
893.113	0.0173153
893.192	0.0173421
893.270	0.0172492
893.348	0.0172304
893.426	0.0173467
893.504	0.0172134
893.582	0.0172658
893.660	0.0171957
893.738	0.0172811
893.817	0.0173320
893.895	0.0174578
893.973	0.0174718
894.051	0.0174466
894.129	0.0177571
894.207	0.0177960
894.285	0.0177688
894.363	0.0179433
894.442	0.0181583
894.520	0.0181876
894.598	0.0183344
894.676	0.0183771
894.754	0.0184432
894.832	0.0185291
894.910	0.0184776
894.988	0.0183801
895.067	0.0183533
895.145	0.0183278
895.223	0.0182774
895.301	0.0181824
895.379	0.0178616
895.457	0.0178884
895.535	0.0177319
895.613	0.0175131
895.692	0.0174358
895.770	0.0172525
895.848	0.0171606
895.926	0.0169808
896.004	0.0168530
896.082	0.0167607
896.160	0.0168522
896.238	0.0168255
896.317	0.0165482
896.395	0.0167123
896.473	0.0167172
896.551	0.0167416
896.629	0.0167774
896.707	0.0169000
896.785	0.0168759
896.863	0.0168857
896.942	0.0169470
897.020	0.0170401
897.098	0.0169476
897.176	0.0168950
897.254	0.0169757
897.332	0.0170132
897.410	0.0171109
897.488	0.0170352
897.567	0.0168735
897.645	0.0170007
897.723	0.0170046
897.801	0.0168757
897.879	0.0168599
897.957	0.0167342
898.035	0.0168214
898.113	0.0167861
898.192	0.0165605
898.270	0.0164793
898.348	0.0163989
898.426	0.0163075
898.504	0.0162291
898.582	0.0162202
898.660	0.0160719
898.738	0.0160807
898.817	0.0161018
898.895	0.0159552
898.973	0.0159890
899.051	0.0160258
899.129	0.0161748
899.207	0.0162769
899.285	0.0163915
899.363	0.0164899
899.442	0.0168276
899.520	0.0170242
899.598	0.0172525
899.676	0.0174590
899.754	0.0176384
899.832	0.0179911
899.910	0.0181828
899.988	0.0183857
900.067	0.0183685
900.145	0.0185991
900.223	0.0185404
900.301	0.0186582
900.379	0.0186789
900.457	0.0187517
900.535	0.0186530
900.613	0.0186286
900.692	0.0185345
900.770	0.0183852
900.848	0.0182116
900.926	0.0181647
901.004	0.0180080
901.082	0.0180089
901.160	0.0178712
901.238	0.0177071
901.317	0.0177737
901.395	0.0176627
901.473	0.0175998
901.551	0.0175120
901.629	0.0174696
901.707	0.0174046
901.785	0.0175746
901.863	0.0175007
901.942	0.0174023
902.020	0.0174681
902.098	0.0174380
902.176	0.0176453
902.254	0.0174974
902.332	0.0173918
902.410	0.0174943
902.488	0.0174420
902.567	0.0174094
902.645	0.0174249
902.723	0.0173787
902.801	0.0173296
902.879	0.0172511
902.957	0.0172485
903.035	0.0171066
903.113	0.0170473
903.192	0.0170528
903.270	0.0170619
903.348	0.0169107
903.426	0.0168772
903.504	0.0168665
903.582	0.0169563
903.660	0.0167838
903.738	0.0167472
903.817	0.0167702
903.895	0.0167557
903.973	0.0167970
904.051	0.0167667
904.129	0.0169213
904.207	0.0169804
904.285	0.0169349
904.363	0.0169832
904.442	0.0169317
904.520	0.0169162
904.598	0.0169822
904.676	0.0169878
904.754	0.0167543
904.832	0.0169416
904.910	0.0168906
904.988	0.0169801
905.067	0.0169675
905.145	0.0170507
905.223	0.0169057
905.301	0.0169237
905.379	0.0170536
905.457	0.0170320
905.535	0.0169047
905.613	0.0168532
905.692	0.0168379
905.770	0.0169376
905.848	0.0169542
905.926	0.0168804
906.004	0.0168450
906.082	0.0167043
906.160	0.0168806
906.238	0.0169048
906.317	0.0168754
906.395	0.0169840
906.473	0.0168851
906.551	0.0168925
906.629	0.0170061
906.707	0.0170579
906.785	0.0171045
906.863	0.0170948
906.942	0.0172193
907.020	0.0171452
907.098	0.0173235
907.176	0.0175571
907.254	0.0175165
907.332	0.0175138
907.410	0.0175622
907.488	0.0176871
907.567	0.0176099
907.645	0.0175385
907.723	0.0176032
907.801	0.0176311
907.879	0.0176035
907.957	0.0176884
908.035	0.0175584
908.113	0.0176788
908.192	0.0175182
908.270	0.0175561
908.348	0.0177418
908.426	0.0177291
908.504	0.0176946
908.582	0.0177016
908.660	0.0178107
908.738	0.0178233
908.817	0.0178794
908.895	0.0178360
908.973	0.0179639
909.051	0.0179069
909.129	0.0178316
909.207	0.0177125
909.285	0.0177736
909.363	0.0177132
909.442	0.0176174
909.520	0.0175950
909.598	0.0174879
909.676	0.0173564
909.754	0.0173351
909.832	0.0173495
909.910	0.0172504
909.988	0.0170668
910.067	0.0171429
910.145	0.0171378
910.223	0.0172688
910.301	0.0172551
910.379	0.0171833
910.457	0.0171551
910.535	0.0171205
910.613	0.0170551
910.692	0.0171406
910.770	0.0172041
910.848	0.0171889
910.926	0.0171889
911.004	0.0172189
911.082	0.0172276
911.160	0.0171452
911.238	0.0172092
911.317	0.0171304
911.395	0.0172807
911.473	0.0172730
911.551	0.0173331
911.629	0.0172267
911.707	0.0172817
911.785	0.0172543
911.863	0.0172984
911.942	0.0172923
912.020	0.0174028
912.098	0.0172372
912.176	0.0173107
912.254	0.0173354
912.332	0.0172321
912.410	0.0171933
912.488	0.0173592
912.567	0.0172346
912.645	0.0171237
912.723	0.0173658
912.801	0.0171827
912.879	0.0171474
912.957	0.0170485
913.035	0.0171693
913.113	0.0171272
913.192	0.0172472
913.270	0.0172463
913.348	0.0170726
913.426	0.0170660
913.504	0.0171595
913.582	0.0170521
913.660	0.0170834
913.738	0.0169689
913.817	0.0169669
913.895	0.0168097
913.973	0.0168492
914.051	0.0168491
914.129	0.0168088
914.207	0.0167291
914.285	0.0168251
914.363	0.0168502
914.442	0.0168755
914.520	0.0168800
914.598	0.0168979
914.676	0.0168642
914.754	0.0169429
914.832	0.0171041
914.910	0.0170322
914.988	0.0170495
915.067	0.0170538
915.145	0.0171424
915.223	0.0172324
915.301	0.0172218
915.379	0.0172501
915.457	0.0172112
915.535	0.0172699
915.613	0.0171617
915.692	0.0172929
915.770	0.0172228
915.848	0.0171366
915.926	0.0171061
916.004	0.0171387
916.082	0.0170925
916.160	0.0170566
916.238	0.0170508
916.317	0.0169867
916.395	0.0171085
916.473	0.0172646
916.551	0.0173359
916.629	0.0174012
916.707	0.0173501
916.785	0.0174930
916.863	0.0176254
916.942	0.0177252
917.020	0.0179476
917.098	0.0179179
917.176	0.0180533
917.254	0.0181976
917.332	0.0182974
917.410	0.0184424
917.488	0.0183888
917.567	0.0184047
917.645	0.0185679
917.723	0.0184716
917.801	0.0184541
917.879	0.0182926
917.957	0.0182737
918.035	0.0183807
918.113	0.0182551
918.192	0.0181151
918.270	0.0179997
918.348	0.0178307
918.426	0.0176453
918.504	0.0176253
918.582	0.0174638
918.660	0.0174300
918.738	0.0172900
918.817	0.0173257
918.895	0.0170583
918.973	0.0171869
919.051	0.0171894
919.129	0.0170704
919.207	0.0169742
919.285	0.0170606
919.363	0.0170106
919.442	0.0171118
919.520	0.0171385
919.598	0.0171259
919.676	0.0169860
919.754	0.0171704
919.832	0.0170274
919.910	0.0169896
