05/25/2022	19:14:30	Ver.	4.1	UNKNOWN
Optical Delay	599.988409	Delta X		0.078125	Sweeps	1	Scan Rate	0/0
Coordinates	Axis 1	NaN	Axis 2	NaN	Axis 3	NaN	Axis 4	NaN	Axis 5	NaN	Axis 6	0.000000
TX Power	0.000000	RX Power	0.000000

599.988	0.0169344
600.067	0.0170126
600.145	0.0171277
600.223	0.0168819
600.301	0.0168864
600.379	0.0169730
600.457	0.0169633
600.535	0.0168713
600.613	0.0169826
600.692	0.0169982
600.770	0.0168574
600.848	0.0169005
600.926	0.0168861
601.004	0.0169919
601.082	0.0169357
601.160	0.0169630
601.238	0.0169794
601.317	0.0168501
601.395	0.0170039
601.473	0.0168913
601.551	0.0169829
601.629	0.0169033
601.707	0.0169288
601.785	0.0169604
601.863	0.0169896
601.942	0.0169997
602.020	0.0169421
602.098	0.0168233
602.176	0.0169537
602.254	0.0168182
602.332	0.0169742
602.410	0.0170087
602.488	0.0168362
602.567	0.0169765
602.645	0.0169769
602.723	0.0169896
602.801	0.0170073
602.879	0.0169656
602.957	0.0169389
603.035	0.0170733
603.113	0.0169513
603.192	0.0168768
603.270	0.0169932
603.348	0.0168346
603.426	0.0169129
603.504	0.0171096
603.582	0.0169936
603.660	0.0170054
603.738	0.0169981
603.817	0.0170290
603.895	0.0169466
603.973	0.0169339
604.051	0.0168713
604.129	0.0169900
604.207	0.0169138
604.285	0.0170546
604.363	0.0169244
604.442	0.0169146
604.520	0.0169810
604.598	0.0170429
604.676	0.0168172
604.754	0.0169485
604.832	0.0168774
604.910	0.0169857
604.988	0.0169709
605.067	0.0168442
605.145	0.0170519
605.223	0.0170190
605.301	0.0168610
605.379	0.0168889
605.457	0.0169760
605.535	0.0169882
605.613	0.0169053
605.692	0.0169230
605.770	0.0169770
605.848	0.0168799
605.926	0.0171079
606.004	0.0170211
606.082	0.0169003
606.160	0.0169344
606.238	0.0169467
606.317	0.0168501
606.395	0.0169650
606.473	0.0169854
606.551	0.0169485
606.629	0.0169379
606.707	0.0168712
606.785	0.0170256
606.863	0.0170034
606.942	0.0169558
607.020	0.0170927
607.098	0.0169290
607.176	0.0169521
607.254	0.0169358
607.332	0.0170834
607.410	0.0169215
607.488	0.0168806
607.567	0.0168913
607.645	0.0168932
607.723	0.0167857
607.801	0.0169704
607.879	0.0168042
607.957	0.0170490
608.035	0.0170152
608.113	0.0170834
608.192	0.0169373
608.270	0.0169880
608.348	0.0169309
608.426	0.0169254
608.504	0.0170988
608.582	0.0169882
608.660	0.0170359
608.738	0.0169448
608.817	0.0169548
608.895	0.0170852
608.973	0.0169588
609.051	0.0170194
609.129	0.0169823
609.207	0.0169733
609.285	0.0169285
609.363	0.0168623
609.442	0.0168882
609.520	0.0169118
609.598	0.0169380
609.676	0.0168348
609.754	0.0169444
609.832	0.0168695
609.910	0.0168539
609.988	0.0168881
610.067	0.0168446
610.145	0.0169881
610.223	0.0170311
610.301	0.0169243
610.379	0.0170184
610.457	0.0170894
610.535	0.0171220
610.613	0.0168639
610.692	0.0170604
610.770	0.0171125
610.848	0.0169933
610.926	0.0171196
611.004	0.0170715
611.082	0.0169813
611.160	0.0170215
611.238	0.0170158
611.317	0.0170392
611.395	0.0168871
611.473	0.0169909
611.551	0.0170553
611.629	0.0170648
611.707	0.0169624
611.785	0.0169210
611.863	0.0168831
611.942	0.0170020
612.020	0.0169637
612.098	0.0169198
612.176	0.0169501
612.254	0.0167480
612.332	0.0168546
612.410	0.0169206
612.488	0.0169312
612.567	0.0167870
612.645	0.0167480
612.723	0.0168340
612.801	0.0170042
612.879	0.0168299
612.957	0.0168449
613.035	0.0169135
613.113	0.0168856
613.192	0.0168670
613.270	0.0170135
613.348	0.0169411
613.426	0.0169957
613.504	0.0169707
613.582	0.0169115
613.660	0.0169162
613.738	0.0170448
613.817	0.0170365
613.895	0.0168774
613.973	0.0169913
614.051	0.0170389
614.129	0.0171047
614.207	0.0169970
614.285	0.0170380
614.363	0.0168867
614.442	0.0170189
614.520	0.0170411
614.598	0.0170161
614.676	0.0169619
614.754	0.0170477
614.832	0.0170342
614.910	0.0170669
614.988	0.0169224
615.067	0.0169872
615.145	0.0170486
615.223	0.0170236
615.301	0.0171008
615.379	0.0169975
615.457	0.0169614
615.535	0.0168143
615.613	0.0168964
615.692	0.0170047
615.770	0.0168836
615.848	0.0169662
615.926	0.0167897
616.004	0.0168337
616.082	0.0168979
616.160	0.0170004
616.238	0.0168681
616.317	0.0168023
616.395	0.0167653
616.473	0.0169583
616.551	0.0168562
616.629	0.0169587
616.707	0.0168722
616.785	0.0169452
616.863	0.0168510
616.942	0.0167899
617.020	0.0170218
617.098	0.0170552
617.176	0.0169101
617.254	0.0169093
617.332	0.0168967
617.410	0.0169262
617.488	0.0170058
617.567	0.0169581
617.645	0.0168654
617.723	0.0168902
617.801	0.0168948
617.879	0.0168478
617.957	0.0168464
618.035	0.0168987
618.113	0.0167950
618.192	0.0169705
618.270	0.0168799
618.348	0.0168640
618.426	0.0169649
618.504	0.0169730
618.582	0.0169759
618.660	0.0169411
618.738	0.0169740
618.817	0.0169048
618.895	0.0170680
618.973	0.0169051
619.051	0.0170352
619.129	0.0167889
619.207	0.0169858
619.285	0.0169110
619.363	0.0168950
619.442	0.0170367
619.520	0.0170786
619.598	0.0170799
619.676	0.0169379
619.754	0.0170454
619.832	0.0169456
619.910	0.0168914
619.988	0.0169761
620.067	0.0170444
620.145	0.0169360
620.223	0.0169111
620.301	0.0168771
620.379	0.0169901
620.457	0.0170019
620.535	0.0169147
620.613	0.0168858
620.692	0.0168935
620.770	0.0170601
620.848	0.0169438
620.926	0.0168977
621.004	0.0170161
621.082	0.0171069
621.160	0.0169464
621.238	0.0168341
621.317	0.0168909
621.395	0.0170304
621.473	0.0170645
621.551	0.0170454
621.629	0.0169791
621.707	0.0169399
621.785	0.0169741
621.863	0.0169286
621.942	0.0170605
622.020	0.0169132
622.098	0.0170556
622.176	0.0170119
622.254	0.0169766
622.332	0.0168892
622.410	0.0169068
622.488	0.0168781
622.567	0.0168626
622.645	0.0169553
622.723	0.0169104
622.801	0.0168382
622.879	0.0167710
622.957	0.0169935
623.035	0.0169273
623.113	0.0169303
623.192	0.0169711
623.270	0.0169150
623.348	0.0169610
623.426	0.0168938
623.504	0.0168932
623.582	0.0169346
623.660	0.0170429
623.738	0.0169120
623.817	0.0169890
623.895	0.0168164
623.973	0.0168442
624.051	0.0168891
624.129	0.0168015
624.207	0.0169627
624.285	0.0169936
624.363	0.0169433
624.442	0.0169943
624.520	0.0169170
624.598	0.0168629
624.676	0.0167728
624.754	0.0169691
624.832	0.0170673
624.910	0.0169508
624.988	0.0168179
625.067	0.0169627
625.145	0.0169843
625.223	0.0169878
625.301	0.0168778
625.379	0.0170187
625.457	0.0169212
625.535	0.0168752
625.613	0.0170505
625.692	0.0169298
625.770	0.0168739
625.848	0.0169801
625.926	0.0168922
626.004	0.0168084
626.082	0.0169768
626.160	0.0170348
626.238	0.0170974
626.317	0.0169451
626.395	0.0169505
626.473	0.0168757
626.551	0.0169930
626.629	0.0169576
626.707	0.0169853
626.785	0.0169518
626.863	0.0169276
626.942	0.0169301
627.020	0.0170074
627.098	0.0169703
627.176	0.0168414
627.254	0.0170065
627.332	0.0170023
627.410	0.0170087
627.488	0.0169537
627.567	0.0168718
627.645	0.0170277
627.723	0.0169749
627.801	0.0170085
627.879	0.0169273
627.957	0.0169850
628.035	0.0171136
628.113	0.0169285
628.192	0.0169482
628.270	0.0169980
628.348	0.0170325
628.426	0.0170217
628.504	0.0169066
628.582	0.0169836
628.660	0.0168336
628.738	0.0170023
628.817	0.0169750
628.895	0.0169054
628.973	0.0169264
629.051	0.0169968
629.129	0.0169721
629.207	0.0169433
629.285	0.0170993
629.363	0.0170090
629.442	0.0168241
629.520	0.0168394
629.598	0.0169891
629.676	0.0169862
629.754	0.0168917
629.832	0.0169436
629.910	0.0169762
629.988	0.0168160
630.067	0.0171198
630.145	0.0169487
630.223	0.0169427
630.301	0.0170033
630.379	0.0168735
630.457	0.0170148
630.535	0.0170111
630.613	0.0169559
630.692	0.0168511
630.770	0.0168484
630.848	0.0169563
630.926	0.0169474
631.004	0.0169072
631.082	0.0169929
631.160	0.0169248
631.238	0.0169377
631.317	0.0169320
631.395	0.0169527
631.473	0.0168169
631.551	0.0169209
631.629	0.0169612
631.707	0.0168258
631.785	0.0169833
631.863	0.0168613
631.942	0.0169711
632.020	0.0168625
632.098	0.0169010
632.176	0.0168518
632.254	0.0167844
632.332	0.0169347
632.410	0.0168892
632.488	0.0169161
632.567	0.0169007
632.645	0.0168697
632.723	0.0168552
632.801	0.0168306
632.879	0.0169474
632.957	0.0169699
633.035	0.0169321
633.113	0.0168646
633.192	0.0169413
633.270	0.0169816
633.348	0.0168992
633.426	0.0170446
633.504	0.0170189
633.582	0.0169774
633.660	0.0169035
633.738	0.0169142
633.817	0.0170487
633.895	0.0169942
633.973	0.0169983
634.051	0.0169581
634.129	0.0169824
634.207	0.0170781
634.285	0.0169279
634.363	0.0169387
634.442	0.0169129
634.520	0.0169770
634.598	0.0168077
634.676	0.0170163
634.754	0.0169815
634.832	0.0170612
634.910	0.0169836
634.988	0.0169534
635.067	0.0168884
635.145	0.0168957
635.223	0.0170742
635.301	0.0170068
635.379	0.0168253
635.457	0.0169884
635.535	0.0169264
635.613	0.0169018
635.692	0.0169650
635.770	0.0169553
635.848	0.0169667
635.926	0.0169553
636.004	0.0170238
636.082	0.0169041
636.160	0.0170393
636.238	0.0169011
636.317	0.0169897
636.395	0.0170358
636.473	0.0169263
636.551	0.0169006
636.629	0.0169520
636.707	0.0171105
636.785	0.0169989
636.863	0.0169021
636.942	0.0170021
637.020	0.0169791
637.098	0.0169533
637.176	0.0169755
637.254	0.0168867
637.332	0.0169718
637.410	0.0169025
637.488	0.0169787
637.567	0.0168935
637.645	0.0169277
637.723	0.0169072
637.801	0.0168874
637.879	0.0169586
637.957	0.0169697
638.035	0.0170240
638.113	0.0169369
638.192	0.0169981
638.270	0.0170277
638.348	0.0170038
638.426	0.0170176
638.504	0.0168088
638.582	0.0169447
638.660	0.0170400
638.738	0.0168900
638.817	0.0169427
638.895	0.0169520
638.973	0.0170006
639.051	0.0169545
639.129	0.0168835
639.207	0.0170701
639.285	0.0169116
639.363	0.0168529
639.442	0.0168687
639.520	0.0168350
639.598	0.0168989
639.676	0.0168858
639.754	0.0169651
639.832	0.0168297
639.910	0.0168761
639.988	0.0168571
640.067	0.0168798
640.145	0.0168402
640.223	0.0170888
640.301	0.0169807
640.379	0.0168436
640.457	0.0170047
640.535	0.0168439
640.613	0.0168204
640.692	0.0168973
640.770	0.0168507
640.848	0.0169262
640.926	0.0169382
641.004	0.0170474
641.082	0.0168617
641.160	0.0169228
641.238	0.0169852
641.317	0.0168992
641.395	0.0169831
641.473	0.0168612
641.551	0.0170193
641.629	0.0169842
641.707	0.0169202
641.785	0.0170443
641.863	0.0168805
641.942	0.0169119
642.020	0.0168852
642.098	0.0169595
642.176	0.0169364
642.254	0.0168283
642.332	0.0169514
642.410	0.0168840
642.488	0.0168903
642.567	0.0169728
642.645	0.0170306
642.723	0.0169958
642.801	0.0168402
642.879	0.0167886
642.957	0.0169094
643.035	0.0170490
643.113	0.0170034
643.192	0.0169760
643.270	0.0169327
643.348	0.0169022
643.426	0.0169604
643.504	0.0168890
643.582	0.0169206
643.660	0.0170088
643.738	0.0169811
643.817	0.0169450
643.895	0.0170525
643.973	0.0170553
644.051	0.0168813
644.129	0.0168896
644.207	0.0170341
644.285	0.0170171
644.363	0.0169008
644.442	0.0169958
644.520	0.0169894
644.598	0.0169039
644.676	0.0169320
644.754	0.0169641
644.832	0.0169842
644.910	0.0170197
644.988	0.0170158
645.067	0.0169293
645.145	0.0170354
645.223	0.0169076
645.301	0.0169698
645.379	0.0168714
645.457	0.0170148
645.535	0.0170100
645.613	0.0169878
645.692	0.0169248
645.770	0.0169197
645.848	0.0168850
645.926	0.0169240
646.004	0.0169197
646.082	0.0169583
646.160	0.0169687
646.238	0.0170193
646.317	0.0169396
646.395	0.0170001
646.473	0.0169086
646.551	0.0169280
646.629	0.0169276
646.707	0.0170321
646.785	0.0170210
646.863	0.0169387
646.942	0.0170246
647.020	0.0167606
647.098	0.0169247
647.176	0.0170909
647.254	0.0169769
647.332	0.0169841
647.410	0.0169307
647.488	0.0169479
647.567	0.0170274
647.645	0.0169140
647.723	0.0169887
647.801	0.0168983
647.879	0.0169201
647.957	0.0170143
648.035	0.0171552
648.113	0.0170312
648.192	0.0169326
648.270	0.0170406
648.348	0.0168958
648.426	0.0169238
648.504	0.0170657
648.582	0.0171671
648.660	0.0169703
648.738	0.0169746
648.817	0.0168839
648.895	0.0168689
648.973	0.0170039
649.051	0.0170012
649.129	0.0168732
649.207	0.0170832
649.285	0.0170502
649.363	0.0169384
649.442	0.0169632
649.520	0.0169923
649.598	0.0168412
649.676	0.0169351
649.754	0.0170245
649.832	0.0169404
649.910	0.0170480
649.988	0.0170175
650.067	0.0169589
650.145	0.0169147
650.223	0.0169329
650.301	0.0171110
650.379	0.0170266
650.457	0.0170231
650.535	0.0169130
650.613	0.0170863
650.692	0.0171011
650.770	0.0168922
650.848	0.0169265
650.926	0.0169463
651.004	0.0169483
651.082	0.0170413
651.160	0.0168747
651.238	0.0168951
651.317	0.0170112
651.395	0.0170703
651.473	0.0170359
651.551	0.0170121
651.629	0.0169582
651.707	0.0170469
651.785	0.0170234
651.863	0.0168520
651.942	0.0170478
652.020	0.0169831
652.098	0.0168495
652.176	0.0169321
652.254	0.0169690
652.332	0.0169959
652.410	0.0169848
652.488	0.0169804
652.567	0.0170395
652.645	0.0169416
652.723	0.0170056
652.801	0.0168953
652.879	0.0168826
652.957	0.0169152
653.035	0.0169682
653.113	0.0168327
653.192	0.0170172
653.270	0.0168411
653.348	0.0167890
653.426	0.0168600
653.504	0.0169531
653.582	0.0169486
653.660	0.0169215
653.738	0.0169622
653.817	0.0167910
653.895	0.0170297
653.973	0.0168948
654.051	0.0170206
654.129	0.0170780
654.207	0.0169648
654.285	0.0168935
654.363	0.0169046
654.442	0.0171617
654.520	0.0170143
654.598	0.0168073
654.676	0.0169207
654.754	0.0170196
654.832	0.0169987
654.910	0.0170037
654.988	0.0170885
655.067	0.0168693
655.145	0.0169550
655.223	0.0169791
655.301	0.0170161
655.379	0.0169747
655.457	0.0169703
655.535	0.0170159
655.613	0.0169029
655.692	0.0169090
655.770	0.0169048
655.848	0.0167822
655.926	0.0170355
656.004	0.0169492
656.082	0.0167860
656.160	0.0168896
656.238	0.0168981
656.317	0.0169705
656.395	0.0171049
656.473	0.0169012
656.551	0.0169651
656.629	0.0169539
656.707	0.0168848
656.785	0.0168761
656.863	0.0170066
656.942	0.0169164
657.020	0.0170106
657.098	0.0169237
657.176	0.0169159
657.254	0.0170347
657.332	0.0168536
657.410	0.0169539
657.488	0.0169522
657.567	0.0169592
657.645	0.0170535
657.723	0.0170179
657.801	0.0169550
657.879	0.0169198
657.957	0.0170500
658.035	0.0169567
658.113	0.0170485
658.192	0.0169192
658.270	0.0169838
658.348	0.0169440
658.426	0.0167887
658.504	0.0169445
658.582	0.0170092
658.660	0.0169424
658.738	0.0169884
658.817	0.0170055
658.895	0.0169328
658.973	0.0169019
659.051	0.0169331
659.129	0.0169753
659.207	0.0168555
659.285	0.0169677
659.363	0.0169022
659.442	0.0169305
659.520	0.0169225
659.598	0.0169495
659.676	0.0168403
659.754	0.0168218
659.832	0.0168818
659.910	0.0169901
659.988	0.0169593
660.067	0.0168433
660.145	0.0169985
660.223	0.0170393
660.301	0.0170160
660.379	0.0168901
660.457	0.0170018
660.535	0.0170123
660.613	0.0169720
660.692	0.0169743
660.770	0.0168634
660.848	0.0168079
660.926	0.0169705
661.004	0.0168143
661.082	0.0169522
661.160	0.0168740
661.238	0.0168913
661.317	0.0169234
661.395	0.0168515
661.473	0.0168356
661.551	0.0169759
661.629	0.0170031
661.707	0.0169397
661.785	0.0168824
661.863	0.0168779
661.942	0.0170088
662.020	0.0169386
662.098	0.0169447
662.176	0.0170687
662.254	0.0169021
662.332	0.0168448
662.410	0.0170039
662.488	0.0169023
662.567	0.0168703
662.645	0.0168350
662.723	0.0169615
662.801	0.0169535
662.879	0.0169061
662.957	0.0170079
663.035	0.0167563
663.113	0.0168987
663.192	0.0170284
663.270	0.0168546
663.348	0.0168700
663.426	0.0170315
663.504	0.0169026
663.582	0.0169284
663.660	0.0169435
663.738	0.0169130
663.817	0.0169066
663.895	0.0168570
663.973	0.0169067
664.051	0.0168272
664.129	0.0168851
664.207	0.0169699
664.285	0.0169470
664.363	0.0168867
664.442	0.0169862
664.520	0.0168697
664.598	0.0169236
664.676	0.0170504
664.754	0.0170049
664.832	0.0169430
664.910	0.0168792
664.988	0.0168987
665.067	0.0170943
665.145	0.0169797
665.223	0.0169483
665.301	0.0168898
665.379	0.0169682
665.457	0.0168625
665.535	0.0169814
665.613	0.0169600
665.692	0.0170322
665.770	0.0167764
665.848	0.0169698
665.926	0.0169408
666.004	0.0169556
666.082	0.0169859
666.160	0.0169660
666.238	0.0168547
666.317	0.0170024
666.395	0.0169895
666.473	0.0170668
666.551	0.0169845
666.629	0.0168834
666.707	0.0169350
666.785	0.0169289
666.863	0.0170104
666.942	0.0169524
667.020	0.0170480
667.098	0.0169527
667.176	0.0170417
667.254	0.0169726
667.332	0.0169878
667.410	0.0169850
667.488	0.0170139
667.567	0.0168775
667.645	0.0169363
667.723	0.0169298
667.801	0.0169496
667.879	0.0169373
667.957	0.0170423
668.035	0.0169342
668.113	0.0169135
668.192	0.0168443
668.270	0.0169425
668.348	0.0169028
668.426	0.0168679
668.504	0.0170887
668.582	0.0170012
668.660	0.0170196
668.738	0.0170889
668.817	0.0169976
668.895	0.0168903
668.973	0.0169696
669.051	0.0168613
669.129	0.0169447
669.207	0.0169194
669.285	0.0169547
669.363	0.0170634
669.442	0.0169540
669.520	0.0169937
669.598	0.0170446
669.676	0.0170473
669.754	0.0169524
669.832	0.0171095
669.910	0.0170428
669.988	0.0169804
670.067	0.0168948
670.145	0.0168778
670.223	0.0169375
670.301	0.0169608
670.379	0.0169753
670.457	0.0170662
670.535	0.0169949
670.613	0.0169882
670.692	0.0170750
670.770	0.0169455
670.848	0.0170216
670.926	0.0169438
671.004	0.0169526
671.082	0.0170564
671.160	0.0169612
671.238	0.0170629
671.317	0.0170567
671.395	0.0170776
671.473	0.0169392
671.551	0.0168848
671.629	0.0169421
671.707	0.0169476
671.785	0.0170612
671.863	0.0170349
671.942	0.0169680
672.020	0.0169286
672.098	0.0169482
672.176	0.0168118
672.254	0.0169257
672.332	0.0168718
672.410	0.0168772
672.488	0.0169158
672.567	0.0169640
672.645	0.0170378
672.723	0.0168574
672.801	0.0169558
672.879	0.0168477
672.957	0.0169663
673.035	0.0169777
673.113	0.0169698
673.192	0.0169917
673.270	0.0168635
673.348	0.0167572
673.426	0.0168437
673.504	0.0168869
673.582	0.0169804
673.660	0.0169798
673.738	0.0169373
673.817	0.0168429
673.895	0.0168092
673.973	0.0168534
674.051	0.0168515
674.129	0.0169688
674.207	0.0169508
674.285	0.0169484
674.363	0.0169335
674.442	0.0167797
674.520	0.0169970
674.598	0.0169246
674.676	0.0168884
674.754	0.0168768
674.832	0.0168195
674.910	0.0168845
674.988	0.0169154
675.067	0.0168427
675.145	0.0169061
675.223	0.0169167
675.301	0.0167383
675.379	0.0168011
675.457	0.0168819
675.535	0.0169040
675.613	0.0167499
675.692	0.0168636
675.770	0.0168995
675.848	0.0169714
675.926	0.0169032
676.004	0.0168356
676.082	0.0169591
676.160	0.0168662
676.238	0.0167561
676.317	0.0168569
676.395	0.0168931
676.473	0.0169279
676.551	0.0167012
676.629	0.0168423
676.707	0.0168663
676.785	0.0168933
676.863	0.0168129
676.942	0.0167382
677.020	0.0167909
677.098	0.0169396
677.176	0.0168408
677.254	0.0168538
677.332	0.0167557
677.410	0.0169380
677.488	0.0169080
677.567	0.0167312
677.645	0.0169896
677.723	0.0167560
677.801	0.0167305
677.879	0.0170242
677.957	0.0170028
678.035	0.0169023
678.113	0.0169321
678.192	0.0169913
678.270	0.0169294
678.348	0.0169215
678.426	0.0169098
678.504	0.0170345
678.582	0.0169821
678.660	0.0169554
678.738	0.0170901
678.817	0.0170502
678.895	0.0170934
678.973	0.0170726
679.051	0.0169695
679.129	0.0169907
679.207	0.0168979
679.285	0.0169927
679.363	0.0170802
679.442	0.0170264
679.520	0.0171185
679.598	0.0170158
679.676	0.0170796
679.754	0.0170023
679.832	0.0169785
679.910	0.0169550
679.988	0.0169594
680.067	0.0168894
680.145	0.0170683
680.223	0.0169484
680.301	0.0170184
680.379	0.0171038
680.457	0.0170496
680.535	0.0170154
680.613	0.0169909
680.692	0.0170020
680.770	0.0170696
680.848	0.0170499
680.926	0.0170486
681.004	0.0170682
681.082	0.0170567
681.160	0.0171307
681.238	0.0170603
681.317	0.0171022
681.395	0.0170467
681.473	0.0170090
681.551	0.0171053
681.629	0.0172186
681.707	0.0170361
681.785	0.0170757
681.863	0.0170517
681.942	0.0172659
682.020	0.0171473
682.098	0.0171626
682.176	0.0172260
682.254	0.0170915
682.332	0.0171346
682.410	0.0170541
682.488	0.0172551
682.567	0.0171983
682.645	0.0170723
682.723	0.0169324
682.801	0.0171710
682.879	0.0171288
682.957	0.0171411
683.035	0.0170896
683.113	0.0170900
683.192	0.0170472
683.270	0.0170522
683.348	0.0169363
683.426	0.0170702
683.504	0.0171091
683.582	0.0171204
683.660	0.0171613
683.738	0.0170288
683.817	0.0170838
683.895	0.0170499
683.973	0.0170282
684.051	0.0170322
684.129	0.0170979
684.207	0.0170855
684.285	0.0170608
684.363	0.0170941
684.442	0.0169581
684.520	0.0169970
684.598	0.0170969
684.676	0.0170027
684.754	0.0170261
684.832	0.0170354
684.910	0.0170264
684.988	0.0171391
685.067	0.0169476
685.145	0.0169308
685.223	0.0169539
685.301	0.0168806
685.379	0.0169338
685.457	0.0169360
685.535	0.0169235
685.613	0.0169091
685.692	0.0169337
685.770	0.0168584
685.848	0.0169277
685.926	0.0169703
686.004	0.0168678
686.082	0.0169386
686.160	0.0169178
686.238	0.0168417
686.317	0.0168999
686.395	0.0169022
686.473	0.0167105
686.551	0.0167897
686.629	0.0167191
686.707	0.0166331
686.785	0.0165318
686.863	0.0165588
686.942	0.0162665
687.020	0.0163416
687.098	0.0164039
687.176	0.0165559
687.254	0.0170714
687.332	0.0175932
687.410	0.0185097
687.488	0.0194065
687.567	0.0204482
687.645	0.0214273
687.723	0.0220271
687.801	0.0225283
687.879	0.0224731
687.957	0.0219586
688.035	0.0209301
688.113	0.0193549
688.192	0.0176530
688.270	0.0156664
688.348	0.0133984
688.426	0.0112521
688.504	0.00909370
688.582	0.00726288
688.660	0.00592720
688.738	0.00479767
688.817	0.00410759
688.895	0.00399483
688.973	0.00456787
689.051	0.00561226
689.129	0.00699974
689.207	0.00887215
689.285	0.0109397
689.363	0.0133425
689.442	0.0158566
689.520	0.0183797
689.598	0.0209127
689.676	0.0234743
689.754	0.0257947
689.832	0.0280284
689.910	0.0301231
689.988	0.0319696
690.067	0.0334997
690.145	0.0346763
690.223	0.0352996
690.301	0.0352856
690.379	0.0350378
690.457	0.0345162
690.535	0.0332642
690.613	0.0315075
690.692	0.0294807
690.770	0.0272177
690.848	0.0247109
690.926	0.0218327
691.004	0.0188498
691.082	0.0158102
691.160	0.0128458
691.238	0.00970314
691.317	0.00680542
691.395	0.00427185
691.473	0.00193001
691.551	0.000156403
691.629	-0.00142120
691.707	-0.00259995
691.785	-0.00327827
691.863	-0.00356239
691.942	-0.00302887
692.020	-0.00225822
692.098	-0.000952911
692.176	0.000797806
692.254	0.00235451
692.332	0.00444641
692.410	0.00680138
692.488	0.00908272
692.567	0.0112099
692.645	0.0134068
692.723	0.0155465
692.801	0.0174701
692.879	0.0191718
692.957	0.0206584
693.035	0.0218228
693.113	0.0229272
693.192	0.0237608
693.270	0.0244601
693.348	0.0248936
693.426	0.0253074
693.504	0.0256266
693.582	0.0257817
693.660	0.0261488
693.738	0.0265302
693.817	0.0266364
693.895	0.0269196
693.973	0.0269943
694.051	0.0271113
694.129	0.0273713
694.207	0.0273905
694.285	0.0276012
694.363	0.0274179
694.442	0.0272980
694.520	0.0269822
694.598	0.0264536
694.676	0.0257178
694.754	0.0249654
694.832	0.0241950
694.910	0.0232050
694.988	0.0219678
695.067	0.0209363
695.145	0.0197958
695.223	0.0185490
695.301	0.0174087
695.379	0.0162782
695.457	0.0152136
695.535	0.0143270
695.613	0.0132430
695.692	0.0125116
695.770	0.0118998
695.848	0.0114240
695.926	0.0109846
696.004	0.0105724
696.082	0.0102200
696.160	0.00996086
696.238	0.00992935
696.317	0.00975700
696.395	0.00972549
696.473	0.00972221
696.551	0.00960831
696.629	0.00962029
696.707	0.00967628
696.785	0.00964363
696.863	0.00975960
696.942	0.00987724
697.020	0.00995621
697.098	0.0103906
697.176	0.0106615
697.254	0.0109805
697.332	0.0114102
697.410	0.0119068
697.488	0.0123495
697.567	0.0128429
697.645	0.0134507
697.723	0.0139850
697.801	0.0146548
697.879	0.0152397
697.957	0.0158334
698.035	0.0165060
698.113	0.0171013
698.192	0.0175109
698.270	0.0180516
698.348	0.0185876
698.426	0.0190086
698.504	0.0192661
698.582	0.0195374
698.660	0.0198665
698.738	0.0199412
698.817	0.0201668
698.895	0.0202844
698.973	0.0202654
699.051	0.0203350
699.129	0.0203961
699.207	0.0201801
699.285	0.0201675
699.363	0.0200377
699.442	0.0201101
699.520	0.0199459
699.598	0.0198643
699.676	0.0197494
699.754	0.0196267
699.832	0.0196864
699.910	0.0197688
699.988	0.0199516
700.067	0.0199664
700.145	0.0202156
700.223	0.0204876
700.301	0.0209077
700.379	0.0211989
700.457	0.0214529
700.535	0.0218422
700.613	0.0220970
700.692	0.0222622
700.770	0.0222906
700.848	0.0224152
700.926	0.0223044
701.004	0.0219617
701.082	0.0215887
701.160	0.0209982
701.238	0.0205345
701.317	0.0199500
701.395	0.0191931
701.473	0.0184849
701.551	0.0176788
701.629	0.0169203
701.707	0.0162514
701.785	0.0156233
701.863	0.0148097
701.942	0.0141586
702.020	0.0136655
702.098	0.0131978
702.176	0.0128828
702.254	0.0124236
702.332	0.0121792
702.410	0.0122196
702.488	0.0121921
702.567	0.0122897
702.645	0.0123777
702.723	0.0125273
702.801	0.0129541
702.879	0.0131826
702.957	0.0134494
703.035	0.0136747
703.113	0.0140042
703.192	0.0142292
703.270	0.0143250
703.348	0.0145760
703.426	0.0147841
703.504	0.0146725
703.582	0.0145312
703.660	0.0146693
703.738	0.0145708
703.817	0.0143646
703.895	0.0142442
703.973	0.0139297
704.051	0.0140665
704.129	0.0138775
704.207	0.0138674
704.285	0.0140757
704.363	0.0140147
704.442	0.0142789
704.520	0.0145789
704.598	0.0146310
704.676	0.0151164
704.754	0.0155984
704.832	0.0159218
704.910	0.0162962
704.988	0.0167702
705.067	0.0171435
705.145	0.0175515
705.223	0.0179611
705.301	0.0183945
705.379	0.0185172
705.457	0.0188723
705.535	0.0191780
705.613	0.0193234
705.692	0.0195158
705.770	0.0197094
705.848	0.0197800
705.926	0.0198506
706.004	0.0197326
706.082	0.0197328
706.160	0.0197530
706.238	0.0197498
706.317	0.0196070
706.395	0.0196041
706.473	0.0194894
706.551	0.0193907
706.629	0.0193610
706.707	0.0192439
706.785	0.0192751
706.863	0.0189808
706.942	0.0189948
707.020	0.0189879
707.098	0.0190083
707.176	0.0189162
707.254	0.0186114
707.332	0.0188471
707.410	0.0186491
707.488	0.0186371
707.567	0.0188060
707.645	0.0189074
707.723	0.0187478
707.801	0.0189530
707.879	0.0188970
707.957	0.0189732
708.035	0.0189341
708.113	0.0189073
708.192	0.0186549
708.270	0.0184907
708.348	0.0183818
708.426	0.0181247
708.504	0.0179052
708.582	0.0177435
708.660	0.0174121
708.738	0.0170444
708.817	0.0166147
708.895	0.0163477
708.973	0.0161480
709.051	0.0157047
709.129	0.0155282
709.207	0.0154169
709.285	0.0149863
709.363	0.0149301
709.442	0.0148570
709.520	0.0147693
709.598	0.0147963
709.676	0.0148486
709.754	0.0147824
709.832	0.0148537
709.910	0.0150983
709.988	0.0151063
710.067	0.0152425
710.145	0.0152868
710.223	0.0152912
710.301	0.0154295
710.379	0.0154690
710.457	0.0155363
710.535	0.0156068
710.613	0.0159432
710.692	0.0159086
710.770	0.0159503
710.848	0.0158285
710.926	0.0159880
711.004	0.0159153
711.082	0.0160360
711.160	0.0159106
711.238	0.0158681
711.317	0.0157275
711.395	0.0157191
711.473	0.0157005
711.551	0.0158262
711.629	0.0155775
711.707	0.0154700
711.785	0.0157006
711.863	0.0156525
711.942	0.0157822
712.020	0.0157263
712.098	0.0158829
712.176	0.0159863
712.254	0.0162104
712.332	0.0163597
712.410	0.0165639
712.488	0.0167567
712.567	0.0169997
712.645	0.0170488
712.723	0.0171022
712.801	0.0174327
712.879	0.0176073
712.957	0.0178368
713.035	0.0179035
713.113	0.0181547
713.192	0.0181219
713.270	0.0182452
713.348	0.0182870
713.426	0.0184252
713.504	0.0185173
713.582	0.0184326
713.660	0.0184480
713.738	0.0184410
713.817	0.0182732
713.895	0.0181813
713.973	0.0180602
714.051	0.0179450
714.129	0.0179641
714.207	0.0176743
714.285	0.0174844
714.363	0.0174437
714.442	0.0173660
714.520	0.0172806
714.598	0.0173571
714.676	0.0173873
714.754	0.0174000
714.832	0.0173241
714.910	0.0174996
714.988	0.0178223
715.067	0.0179076
715.145	0.0179959
715.223	0.0180926
715.301	0.0184837
715.379	0.0183644
715.457	0.0186337
715.535	0.0186252
715.613	0.0186640
715.692	0.0186057
715.770	0.0183759
715.848	0.0183440
715.926	0.0182651
716.004	0.0181745
716.082	0.0178316
716.160	0.0176616
716.238	0.0175117
716.317	0.0172099
716.395	0.0172356
716.473	0.0170825
716.551	0.0168043
716.629	0.0168456
716.707	0.0166181
716.785	0.0164877
716.863	0.0165253
716.942	0.0163950
717.020	0.0164204
717.098	0.0163182
717.176	0.0163409
717.254	0.0163024
717.332	0.0163789
717.410	0.0165167
717.488	0.0163864
717.567	0.0163087
717.645	0.0163198
717.723	0.0163200
717.801	0.0162238
717.879	0.0163035
717.957	0.0161839
718.035	0.0162102
718.113	0.0162534
718.192	0.0162614
718.270	0.0163999
718.348	0.0162519
718.426	0.0161878
718.504	0.0159686
718.582	0.0159399
718.660	0.0158488
718.738	0.0156206
718.817	0.0156722
718.895	0.0155904
718.973	0.0156681
719.051	0.0154682
719.129	0.0153089
719.207	0.0152530
719.285	0.0152174
719.363	0.0150393
719.442	0.0150596
719.520	0.0149477
719.598	0.0149964
719.676	0.0150478
719.754	0.0152427
719.832	0.0152644
719.910	0.0153803
719.988	0.0154926
720.067	0.0158343
720.145	0.0158675
720.223	0.0160625
720.301	0.0165686
720.379	0.0165857
720.457	0.0167062
720.535	0.0168015
720.613	0.0172150
720.692	0.0174113
720.770	0.0175608
720.848	0.0175628
720.926	0.0178725
721.004	0.0179448
721.082	0.0180202
721.160	0.0179692
721.238	0.0180286
721.317	0.0179905
721.395	0.0180343
721.473	0.0180560
721.551	0.0179272
721.629	0.0179443
721.707	0.0179871
721.785	0.0179716
721.863	0.0179247
721.942	0.0179674
722.020	0.0178413
722.098	0.0178060
722.176	0.0179700
722.254	0.0180865
722.332	0.0179831
722.410	0.0182606
722.488	0.0183670
722.567	0.0182672
722.645	0.0183102
722.723	0.0185113
722.801	0.0186574
722.879	0.0189090
722.957	0.0188700
723.035	0.0188892
723.113	0.0189091
723.192	0.0189056
723.270	0.0189237
723.348	0.0188922
723.426	0.0188582
723.504	0.0186422
723.582	0.0186267
723.660	0.0182427
723.738	0.0181870
723.817	0.0179016
723.895	0.0175917
723.973	0.0172710
724.051	0.0172576
724.129	0.0170983
724.207	0.0167946
724.285	0.0166904
724.363	0.0164673
724.442	0.0164262
724.520	0.0163470
724.598	0.0161944
724.676	0.0162605
724.754	0.0162150
724.832	0.0160609
724.910	0.0160700
724.988	0.0162045
725.067	0.0160783
725.145	0.0160687
725.223	0.0160518
725.301	0.0161669
725.379	0.0162361
725.457	0.0160943
725.535	0.0161514
725.613	0.0160545
725.692	0.0163419
725.770	0.0161240
725.848	0.0163135
725.926	0.0163305
726.004	0.0162724
726.082	0.0163666
726.160	0.0162335
726.238	0.0162125
726.317	0.0161623
726.395	0.0161157
726.473	0.0160220
726.551	0.0160330
726.629	0.0158257
726.707	0.0158057
726.785	0.0154908
726.863	0.0155526
726.942	0.0155197
727.020	0.0153649
727.098	0.0152267
727.176	0.0152619
727.254	0.0151822
727.332	0.0151864
727.410	0.0152232
727.488	0.0152834
727.567	0.0153729
727.645	0.0153963
727.723	0.0154706
727.801	0.0157295
727.879	0.0159441
727.957	0.0159522
728.035	0.0161675
728.113	0.0162978
728.192	0.0165075
728.270	0.0166705
728.348	0.0167101
728.426	0.0170028
728.504	0.0172801
728.582	0.0173148
728.660	0.0173866
728.738	0.0174809
728.817	0.0175011
728.895	0.0176312
728.973	0.0176192
729.051	0.0177604
729.129	0.0179282
729.207	0.0178480
729.285	0.0179651
729.363	0.0178947
729.442	0.0180246
729.520	0.0180343
729.598	0.0179498
729.676	0.0180565
729.754	0.0180532
729.832	0.0180318
729.910	0.0180949
729.988	0.0180050
730.067	0.0180417
730.145	0.0180817
730.223	0.0179648
730.301	0.0179712
730.379	0.0178953
730.457	0.0179434
730.535	0.0178489
730.613	0.0178828
730.692	0.0179320
730.770	0.0179388
730.848	0.0180169
730.926	0.0180042
731.004	0.0180312
731.082	0.0182273
731.160	0.0183496
731.238	0.0182567
731.317	0.0182196
731.395	0.0182565
731.473	0.0182665
731.551	0.0180327
731.629	0.0180766
731.707	0.0179419
731.785	0.0177125
731.863	0.0175948
731.942	0.0174865
732.020	0.0172549
732.098	0.0170940
732.176	0.0169897
732.254	0.0166406
732.332	0.0166060
732.410	0.0165347
732.488	0.0162601
732.567	0.0161810
732.645	0.0160194
732.723	0.0161705
732.801	0.0161167
732.879	0.0159094
732.957	0.0159500
733.035	0.0160609
733.113	0.0158607
733.192	0.0157845
733.270	0.0160358
733.348	0.0161667
733.426	0.0161645
733.504	0.0161012
733.582	0.0162510
733.660	0.0162045
733.738	0.0163932
733.817	0.0164062
733.895	0.0163379
733.973	0.0163168
734.051	0.0163199
734.129	0.0164097
734.207	0.0162669
734.285	0.0162918
734.363	0.0162409
734.442	0.0162663
734.520	0.0162508
734.598	0.0163213
734.676	0.0162158
734.754	0.0160832
734.832	0.0161292
734.910	0.0160963
734.988	0.0162286
735.067	0.0161083
735.145	0.0160609
735.223	0.0159663
735.301	0.0160303
735.379	0.0161275
735.457	0.0162539
735.535	0.0162807
735.613	0.0162794
735.692	0.0163293
735.770	0.0165129
735.848	0.0165081
735.926	0.0166969
736.004	0.0168288
736.082	0.0168359
736.160	0.0168802
736.238	0.0169957
736.317	0.0171744
736.395	0.0172980
736.473	0.0173253
736.551	0.0173810
736.629	0.0174791
736.707	0.0175070
736.785	0.0174460
736.863	0.0175918
736.942	0.0176991
737.020	0.0177029
737.098	0.0176588
737.176	0.0176873
737.254	0.0176608
737.332	0.0176074
737.410	0.0176733
737.488	0.0175529
737.567	0.0175086
737.645	0.0175436
737.723	0.0173296
737.801	0.0174471
737.879	0.0173383
737.957	0.0172726
738.035	0.0173369
738.113	0.0171208
738.192	0.0172349
738.270	0.0172222
738.348	0.0172256
738.426	0.0173203
738.504	0.0174352
738.582	0.0173315
738.660	0.0173801
738.738	0.0175479
738.817	0.0176490
738.895	0.0176573
738.973	0.0178728
739.051	0.0178423
739.129	0.0178453
739.207	0.0180081
739.285	0.0181195
739.363	0.0179311
739.442	0.0177976
739.520	0.0178955
739.598	0.0178220
739.676	0.0176603
739.754	0.0176402
739.832	0.0175315
739.910	0.0174880
739.988	0.0173216
740.067	0.0171288
740.145	0.0169543
740.223	0.0168783
740.301	0.0166252
740.379	0.0166296
740.457	0.0163976
740.535	0.0162453
740.613	0.0161461
740.692	0.0160748
740.770	0.0161097
740.848	0.0159194
740.926	0.0158989
741.004	0.0158220
741.082	0.0158033
741.160	0.0158519
741.238	0.0158737
741.317	0.0158403
741.395	0.0157996
741.473	0.0161225
741.551	0.0160052
741.629	0.0160178
741.707	0.0160952
741.785	0.0163435
741.863	0.0165978
741.942	0.0165470
742.020	0.0166338
742.098	0.0167442
742.176	0.0167847
742.254	0.0170103
742.332	0.0167206
742.410	0.0168482
742.488	0.0169335
742.567	0.0170572
742.645	0.0169661
742.723	0.0168054
742.801	0.0168711
742.879	0.0168444
742.957	0.0168427
743.035	0.0167288
743.113	0.0167760
743.192	0.0166792
743.270	0.0166370
743.348	0.0166728
743.426	0.0166994
743.504	0.0166379
743.582	0.0166113
743.660	0.0167616
743.738	0.0166330
743.817	0.0166666
743.895	0.0166708
743.973	0.0168454
744.051	0.0170067
744.129	0.0168873
744.207	0.0168214
744.285	0.0170197
744.363	0.0171443
744.442	0.0171516
744.520	0.0170366
744.598	0.0170869
744.676	0.0170447
744.754	0.0170573
744.832	0.0170979
744.910	0.0172678
744.988	0.0170529
745.067	0.0171784
745.145	0.0172752
745.223	0.0172832
745.301	0.0172303
745.379	0.0171317
745.457	0.0173001
745.535	0.0173814
745.613	0.0172675
745.692	0.0174609
745.770	0.0174072
745.848	0.0173029
745.926	0.0174691
746.004	0.0173687
746.082	0.0174758
746.160	0.0173895
746.238	0.0175448
746.317	0.0174747
746.395	0.0174141
746.473	0.0175551
746.551	0.0175922
746.629	0.0177009
746.707	0.0174839
746.785	0.0176545
746.863	0.0176896
746.942	0.0175970
747.020	0.0177100
747.098	0.0176682
747.176	0.0176314
747.254	0.0176478
747.332	0.0175909
747.410	0.0175346
747.488	0.0175671
747.567	0.0175675
747.645	0.0174980
747.723	0.0172904
747.801	0.0172153
747.879	0.0172176
747.957	0.0171307
748.035	0.0170720
748.113	0.0168993
748.192	0.0169615
748.270	0.0167962
748.348	0.0166350
748.426	0.0167139
748.504	0.0165820
748.582	0.0164874
748.660	0.0163836
748.738	0.0163341
748.817	0.0163639
748.895	0.0164958
748.973	0.0162814
749.051	0.0163098
749.129	0.0163276
749.207	0.0164330
749.285	0.0164315
749.363	0.0164310
749.442	0.0164684
749.520	0.0167217
749.598	0.0166530
749.676	0.0166848
749.754	0.0166686
749.832	0.0167420
749.910	0.0168276
749.988	0.0168157
750.067	0.0167605
750.145	0.0169884
750.223	0.0170160
750.301	0.0169470
750.379	0.0169036
750.457	0.0168104
750.535	0.0169328
750.613	0.0169305
750.692	0.0168736
750.770	0.0169179
750.848	0.0168562
750.926	0.0168295
751.004	0.0167927
751.082	0.0166233
751.160	0.0165965
751.238	0.0166900
751.317	0.0165006
751.395	0.0165850
751.473	0.0165508
751.551	0.0165036
751.629	0.0164081
751.707	0.0164620
751.785	0.0164742
751.863	0.0164529
751.942	0.0164253
752.020	0.0165501
752.098	0.0166071
752.176	0.0166747
752.254	0.0167295
752.332	0.0169192
752.410	0.0168772
752.488	0.0169489
752.567	0.0170363
752.645	0.0170545
752.723	0.0171034
752.801	0.0172095
752.879	0.0174010
752.957	0.0173932
753.035	0.0174705
753.113	0.0175049
753.192	0.0174092
753.270	0.0175805
753.348	0.0176437
753.426	0.0174877
753.504	0.0175875
753.582	0.0174503
753.660	0.0175224
753.738	0.0174655
753.817	0.0173643
753.895	0.0172362
753.973	0.0174458
754.051	0.0172823
754.129	0.0170708
754.207	0.0172061
754.285	0.0171988
754.363	0.0171303
754.442	0.0171707
754.520	0.0171694
754.598	0.0170232
754.676	0.0170782
754.754	0.0172958
754.832	0.0173060
754.910	0.0171741
754.988	0.0170887
755.067	0.0171081
755.145	0.0172834
755.223	0.0172379
755.301	0.0171672
755.379	0.0170957
755.457	0.0171456
755.535	0.0170636
755.613	0.0171560
755.692	0.0173136
755.770	0.0171138
755.848	0.0170274
755.926	0.0170232
756.004	0.0169743
756.082	0.0170241
756.160	0.0169833
756.238	0.0168998
756.317	0.0167999
756.395	0.0168307
756.473	0.0167464
756.551	0.0168055
756.629	0.0169118
756.707	0.0166507
756.785	0.0166103
756.863	0.0167389
756.942	0.0167676
757.020	0.0167731
757.098	0.0167108
757.176	0.0166934
757.254	0.0167856
757.332	0.0168484
757.410	0.0168137
757.488	0.0169997
757.567	0.0170437
757.645	0.0170110
757.723	0.0170062
757.801	0.0169321
757.879	0.0170606
757.957	0.0170907
758.035	0.0170490
758.113	0.0171468
758.192	0.0172232
758.270	0.0171912
758.348	0.0170711
758.426	0.0172626
758.504	0.0171011
758.582	0.0170786
758.660	0.0170181
758.738	0.0169963
758.817	0.0170840
758.895	0.0170969
758.973	0.0169592
759.051	0.0168888
759.129	0.0169620
759.207	0.0168960
759.285	0.0167931
759.363	0.0166747
759.442	0.0166258
759.520	0.0165443
759.598	0.0165413
759.676	0.0164108
759.754	0.0164822
759.832	0.0163714
759.910	0.0163558
759.988	0.0164227
760.067	0.0164128
760.145	0.0163972
760.223	0.0164635
760.301	0.0164500
760.379	0.0165169
760.457	0.0165830
760.535	0.0167272
760.613	0.0167570
760.692	0.0168173
760.770	0.0167455
760.848	0.0169128
760.926	0.0169795
761.004	0.0170225
761.082	0.0169859
761.160	0.0170107
761.238	0.0171413
761.317	0.0171014
761.395	0.0170468
761.473	0.0170626
761.551	0.0170737
761.629	0.0169585
761.707	0.0170243
761.785	0.0169455
761.863	0.0169681
761.942	0.0169569
762.020	0.0168552
762.098	0.0168034
762.176	0.0168562
762.254	0.0170191
762.332	0.0171148
762.410	0.0170713
762.488	0.0170682
762.567	0.0171286
762.645	0.0171297
762.723	0.0171980
762.801	0.0172332
762.879	0.0174177
762.957	0.0174146
763.035	0.0173589
763.113	0.0175444
763.192	0.0174922
763.270	0.0176217
763.348	0.0175126
763.426	0.0175024
763.504	0.0175790
763.582	0.0175996
763.660	0.0173450
763.738	0.0174133
763.817	0.0174739
763.895	0.0173885
763.973	0.0172236
764.051	0.0172739
764.129	0.0173318
764.207	0.0172157
764.285	0.0170689
764.363	0.0172170
764.442	0.0170605
764.520	0.0169666
764.598	0.0170033
764.676	0.0168809
764.754	0.0166846
764.832	0.0167147
764.910	0.0167268
764.988	0.0166282
765.067	0.0166142
765.145	0.0165633
765.223	0.0164072
765.301	0.0166413
765.379	0.0167065
765.457	0.0166243
765.535	0.0165161
765.613	0.0166394
765.692	0.0166188
765.770	0.0166376
765.848	0.0167136
765.926	0.0167590
766.004	0.0167653
766.082	0.0168239
766.160	0.0168470
766.238	0.0166441
766.317	0.0167238
766.395	0.0166852
766.473	0.0168280
766.551	0.0166853
766.629	0.0168122
766.707	0.0168158
766.785	0.0168040
766.863	0.0167145
766.942	0.0168707
767.020	0.0167857
767.098	0.0168665
767.176	0.0168014
767.254	0.0166780
767.332	0.0166822
767.410	0.0167053
767.488	0.0167733
767.567	0.0166086
767.645	0.0167052
767.723	0.0167088
767.801	0.0167822
767.879	0.0165917
767.957	0.0164308
768.035	0.0166959
768.113	0.0165916
768.192	0.0166508
768.270	0.0168900
768.348	0.0168418
768.426	0.0168922
768.504	0.0169848
768.582	0.0169631
768.660	0.0170812
768.738	0.0169729
768.817	0.0171705
768.895	0.0172379
768.973	0.0172668
769.051	0.0172536
769.129	0.0171856
769.207	0.0173280
769.285	0.0173846
769.363	0.0173666
769.442	0.0174131
769.520	0.0173518
769.598	0.0172921
769.676	0.0173480
769.754	0.0173288
769.832	0.0172905
769.910	0.0172069
769.988	0.0171544
770.067	0.0171086
770.145	0.0170708
770.223	0.0170231
770.301	0.0170063
770.379	0.0168839
770.457	0.0169197
770.535	0.0168829
770.613	0.0169251
770.692	0.0168555
770.770	0.0167917
770.848	0.0169518
770.926	0.0169096
771.004	0.0169592
771.082	0.0169288
771.160	0.0170340
771.238	0.0171375
771.317	0.0169997
771.395	0.0170486
771.473	0.0170128
771.551	0.0172648
771.629	0.0172931
771.707	0.0170936
771.785	0.0172453
771.863	0.0171857
771.942	0.0172305
772.020	0.0173188
772.098	0.0171559
772.176	0.0171847
772.254	0.0171224
772.332	0.0172504
772.410	0.0170666
772.488	0.0171584
772.567	0.0170427
772.645	0.0171048
772.723	0.0170464
772.801	0.0170605
772.879	0.0168234
772.957	0.0169589
773.035	0.0168471
773.113	0.0169742
773.192	0.0169180
773.270	0.0168876
773.348	0.0168233
773.426	0.0167107
773.504	0.0169920
773.582	0.0168734
773.660	0.0168945
773.738	0.0170081
773.817	0.0169640
773.895	0.0168913
773.973	0.0168549
774.051	0.0168732
774.129	0.0170456
774.207	0.0169708
774.285	0.0168681
774.363	0.0169118
774.442	0.0168232
774.520	0.0169968
774.598	0.0169154
774.676	0.0168714
774.754	0.0168487
774.832	0.0167676
774.910	0.0167616
774.988	0.0169160
775.067	0.0168012
775.145	0.0167939
775.223	0.0166817
775.301	0.0168356
775.379	0.0166670
775.457	0.0166759
775.535	0.0167891
775.613	0.0165891
775.692	0.0166986
775.770	0.0166618
775.848	0.0166384
775.926	0.0167660
776.004	0.0167880
776.082	0.0166145
776.160	0.0166884
776.238	0.0167868
776.317	0.0169650
776.395	0.0167777
776.473	0.0167999
776.551	0.0168703
776.629	0.0169693
776.707	0.0170068
776.785	0.0169421
776.863	0.0170339
776.942	0.0170404
777.020	0.0170555
777.098	0.0169916
777.176	0.0169955
777.254	0.0171072
777.332	0.0170204
777.410	0.0170694
777.488	0.0170526
777.567	0.0171879
777.645	0.0174170
777.723	0.0172420
777.801	0.0172929
777.879	0.0172092
777.957	0.0172410
778.035	0.0172181
778.113	0.0171805
778.192	0.0173538
778.270	0.0172945
778.348	0.0171183
778.426	0.0171716
778.504	0.0172402
778.582	0.0172106
778.660	0.0172685
778.738	0.0172115
778.817	0.0171870
778.895	0.0172273
778.973	0.0173280
779.051	0.0172134
779.129	0.0171683
779.207	0.0171555
779.285	0.0171767
779.363	0.0172533
779.442	0.0173055
779.520	0.0171684
779.598	0.0171317
779.676	0.0171399
779.754	0.0171696
779.832	0.0170541
779.910	0.0171412
779.988	0.0170654
780.067	0.0171377
780.145	0.0173133
780.223	0.0172374
780.301	0.0171611
780.379	0.0169002
780.457	0.0169607
780.535	0.0171020
780.613	0.0170853
780.692	0.0171230
780.770	0.0170109
780.848	0.0169667
780.926	0.0170034
781.004	0.0169884
781.082	0.0170059
781.160	0.0170821
781.238	0.0170444
781.317	0.0170725
781.395	0.0170979
781.473	0.0171286
781.551	0.0170305
781.629	0.0169931
781.707	0.0168786
781.785	0.0169664
781.863	0.0170478
781.942	0.0169616
782.020	0.0168879
782.098	0.0167635
782.176	0.0167712
782.254	0.0167104
782.332	0.0167905
782.410	0.0168629
782.488	0.0168652
782.567	0.0167570
782.645	0.0167639
782.723	0.0166267
782.801	0.0167274
782.879	0.0167381
782.957	0.0166641
783.035	0.0167683
783.113	0.0167725
783.192	0.0167069
783.270	0.0167841
783.348	0.0167012
783.426	0.0166981
783.504	0.0169989
783.582	0.0167627
783.660	0.0170523
783.738	0.0168779
783.817	0.0169718
783.895	0.0169833
783.973	0.0171171
784.051	0.0170812
784.129	0.0172040
784.207	0.0172720
784.285	0.0171963
784.363	0.0170323
784.442	0.0171198
784.520	0.0170825
784.598	0.0169043
784.676	0.0168354
784.754	0.0169138
784.832	0.0166845
784.910	0.0164513
784.988	0.0163469
785.067	0.0162044
785.145	0.0161754
785.223	0.0162107
785.301	0.0161738
785.379	0.0160108
785.457	0.0160042
785.535	0.0160459
785.613	0.0161139
785.692	0.0161554
785.770	0.0161584
785.848	0.0163131
785.926	0.0166019
786.004	0.0166394
786.082	0.0168511
786.160	0.0171925
786.238	0.0175381
786.317	0.0177684
786.395	0.0180816
786.473	0.0183111
786.551	0.0185983
786.629	0.0187784
786.707	0.0187775
786.785	0.0190079
786.863	0.0191008
786.942	0.0191199
787.020	0.0190672
787.098	0.0188166
787.176	0.0188163
787.254	0.0185565
787.332	0.0182694
787.410	0.0181110
787.488	0.0178197
787.567	0.0176048
787.645	0.0172196
787.723	0.0168967
787.801	0.0165031
787.879	0.0163286
787.957	0.0159309
788.035	0.0155651
788.113	0.0154236
788.192	0.0153181
788.270	0.0150633
788.348	0.0149236
788.426	0.0147444
788.504	0.0147666
788.582	0.0146735
788.660	0.0146648
788.738	0.0148208
788.817	0.0148587
788.895	0.0149624
788.973	0.0151924
789.051	0.0153794
789.129	0.0155944
789.207	0.0157657
789.285	0.0159293
789.363	0.0160829
789.442	0.0164016
789.520	0.0165116
789.598	0.0167908
789.676	0.0169966
789.754	0.0171383
789.832	0.0172636
789.910	0.0175254
789.988	0.0176759
790.067	0.0178562
790.145	0.0179040
790.223	0.0181335
790.301	0.0183157
790.379	0.0184052
790.457	0.0186098
790.535	0.0185944
790.613	0.0186423
790.692	0.0187001
790.770	0.0187159
790.848	0.0187806
790.926	0.0187393
791.004	0.0186634
791.082	0.0185963
791.160	0.0185583
791.238	0.0185387
791.317	0.0183105
791.395	0.0182307
791.473	0.0180343
791.551	0.0179692
791.629	0.0177122
791.707	0.0176231
791.785	0.0173230
791.863	0.0172144
791.942	0.0169613
792.020	0.0167500
792.098	0.0168271
792.176	0.0165820
792.254	0.0162946
792.332	0.0162493
792.410	0.0161040
792.488	0.0157485
792.567	0.0156512
792.645	0.0158356
792.723	0.0156498
792.801	0.0155796
792.879	0.0156173
792.957	0.0156844
793.035	0.0156818
793.113	0.0155835
793.192	0.0155714
793.270	0.0157242
793.348	0.0156288
793.426	0.0157175
793.504	0.0156262
793.582	0.0156651
793.660	0.0155953
793.738	0.0156552
793.817	0.0158176
793.895	0.0158958
793.973	0.0158260
794.051	0.0158947
794.129	0.0160265
794.207	0.0160289
794.285	0.0162599
794.363	0.0162498
794.442	0.0164163
794.520	0.0165649
794.598	0.0166882
794.676	0.0168146
794.754	0.0169731
794.832	0.0171744
794.910	0.0173901
794.988	0.0174310
795.067	0.0174851
795.145	0.0175164
795.223	0.0177427
795.301	0.0177342
795.379	0.0178474
795.457	0.0178620
795.535	0.0177895
795.613	0.0177492
795.692	0.0178854
795.770	0.0179455
795.848	0.0178916
795.926	0.0178609
796.004	0.0179845
796.082	0.0178291
796.160	0.0178567
796.238	0.0178159
796.317	0.0179664
796.395	0.0179290
796.473	0.0178291
796.551	0.0178914
796.629	0.0178210
796.707	0.0177467
796.785	0.0178824
796.863	0.0177570
796.942	0.0178394
797.020	0.0177065
797.098	0.0176859
797.176	0.0175861
797.254	0.0174982
797.332	0.0175223
797.410	0.0173808
797.488	0.0172453
797.567	0.0172576
797.645	0.0171467
797.723	0.0170695
797.801	0.0169717
797.879	0.0169682
797.957	0.0169023
798.035	0.0169558
798.113	0.0167277
798.192	0.0165496
798.270	0.0165442
798.348	0.0164607
798.426	0.0166057
798.504	0.0164026
798.582	0.0164474
798.660	0.0162315
798.738	0.0163232
798.817	0.0162590
798.895	0.0161435
798.973	0.0160986
799.051	0.0161636
799.129	0.0159924
799.207	0.0161096
799.285	0.0159777
799.363	0.0159723
799.442	0.0160405
799.520	0.0160116
799.598	0.0159127
799.676	0.0160170
799.754	0.0159864
799.832	0.0160445
799.910	0.0160964
799.988	0.0161298
800.067	0.0160965
800.145	0.0161769
800.223	0.0161564
800.301	0.0161200
800.379	0.0161511
800.457	0.0163418
800.535	0.0163660
800.613	0.0165457
800.692	0.0164587
800.770	0.0164115
800.848	0.0164582
800.926	0.0164774
801.004	0.0166541
801.082	0.0166218
801.160	0.0168228
801.238	0.0168324
801.317	0.0168232
801.395	0.0169919
801.473	0.0169501
801.551	0.0170083
801.629	0.0171030
801.707	0.0173188
801.785	0.0173259
801.863	0.0174239
801.942	0.0176586
802.020	0.0175831
802.098	0.0176398
802.176	0.0177149
802.254	0.0176853
802.332	0.0177216
802.410	0.0177639
802.488	0.0178870
802.567	0.0177841
802.645	0.0178780
802.723	0.0179065
802.801	0.0178936
802.879	0.0178204
802.957	0.0177630
803.035	0.0178226
803.113	0.0177670
803.192	0.0176623
803.270	0.0176871
803.348	0.0175495
803.426	0.0176171
803.504	0.0173708
803.582	0.0173469
803.660	0.0172636
803.738	0.0172711
803.817	0.0171769
803.895	0.0171020
803.973	0.0171714
804.051	0.0169569
804.129	0.0168851
804.207	0.0168973
804.285	0.0169260
804.363	0.0169454
804.442	0.0168288
804.520	0.0168265
804.598	0.0169101
804.676	0.0169706
804.754	0.0167786
804.832	0.0169090
804.910	0.0168948
804.988	0.0168423
805.067	0.0167614
805.145	0.0167412
805.223	0.0168516
805.301	0.0167722
805.379	0.0166446
805.457	0.0166714
805.535	0.0166900
805.613	0.0167446
805.692	0.0166908
805.770	0.0167088
805.848	0.0166071
805.926	0.0166034
806.004	0.0165755
806.082	0.0165618
806.160	0.0167113
806.238	0.0168386
806.317	0.0166821
806.395	0.0166212
806.473	0.0167802
806.551	0.0167577
806.629	0.0168827
806.707	0.0169250
806.785	0.0169048
806.863	0.0168761
806.942	0.0167804
807.020	0.0168415
807.098	0.0169168
807.176	0.0167500
807.254	0.0166540
807.332	0.0167818
807.410	0.0167706
807.488	0.0165459
807.567	0.0166530
807.645	0.0167126
807.723	0.0167071
807.801	0.0166358
807.879	0.0166914
807.957	0.0165728
808.035	0.0166026
808.113	0.0166773
808.192	0.0166498
808.270	0.0167940
808.348	0.0169016
808.426	0.0166509
808.504	0.0167129
808.582	0.0166566
808.660	0.0166628
808.738	0.0166433
808.817	0.0166678
808.895	0.0166766
808.973	0.0167493
809.051	0.0167617
809.129	0.0167356
809.207	0.0170229
809.285	0.0170039
809.363	0.0171014
809.442	0.0168352
809.520	0.0171049
809.598	0.0172894
809.676	0.0171774
809.754	0.0172035
809.832	0.0171912
809.910	0.0172033
809.988	0.0174023
810.067	0.0173543
810.145	0.0173364
810.223	0.0172649
810.301	0.0173536
810.379	0.0173707
810.457	0.0171233
810.535	0.0170990
810.613	0.0170818
810.692	0.0170948
810.770	0.0170874
810.848	0.0170698
810.926	0.0171674
811.004	0.0170988
811.082	0.0170361
811.160	0.0169987
811.238	0.0170838
811.317	0.0172568
811.395	0.0172674
811.473	0.0172874
811.551	0.0172096
811.629	0.0171947
811.707	0.0172063
811.785	0.0174140
811.863	0.0173183
811.942	0.0172717
812.020	0.0173002
812.098	0.0172816
812.176	0.0171651
812.254	0.0172689
812.332	0.0172404
812.410	0.0172066
812.488	0.0171065
812.567	0.0170592
812.645	0.0170413
812.723	0.0169479
812.801	0.0167298
812.879	0.0168062
812.957	0.0168147
813.035	0.0167179
813.113	0.0167761
813.192	0.0166656
813.270	0.0165208
813.348	0.0166393
813.426	0.0167495
813.504	0.0166316
813.582	0.0166451
813.660	0.0167659
813.738	0.0167512
813.817	0.0167089
813.895	0.0167207
813.973	0.0167519
814.051	0.0169010
814.129	0.0169312
814.207	0.0169843
814.285	0.0171075
814.363	0.0171099
814.442	0.0170824
814.520	0.0169642
814.598	0.0170412
814.676	0.0171111
814.754	0.0169862
814.832	0.0170646
814.910	0.0168705
814.988	0.0167438
815.067	0.0166151
815.145	0.0165094
815.223	0.0165044
815.301	0.0163517
815.379	0.0163591
815.457	0.0163328
815.535	0.0162778
815.613	0.0162752
815.692	0.0162942
815.770	0.0162446
815.848	0.0162756
815.926	0.0163477
816.004	0.0164524
816.082	0.0165263
816.160	0.0165952
816.238	0.0166801
816.317	0.0166674
816.395	0.0169796
816.473	0.0169933
816.551	0.0170753
816.629	0.0171149
816.707	0.0171899
816.785	0.0172101
816.863	0.0170944
816.942	0.0171883
817.020	0.0172153
817.098	0.0171433
817.176	0.0171203
817.254	0.0172203
817.332	0.0170578
817.410	0.0170499
817.488	0.0172516
817.567	0.0170433
817.645	0.0169946
817.723	0.0169604
817.801	0.0169300
817.879	0.0170345
817.957	0.0169415
818.035	0.0170212
818.113	0.0171197
818.192	0.0168940
818.270	0.0168442
818.348	0.0169118
818.426	0.0168085
818.504	0.0169828
818.582	0.0171288
818.660	0.0171400
818.738	0.0169621
818.817	0.0169993
818.895	0.0171622
818.973	0.0168963
819.051	0.0171208
819.129	0.0172773
819.207	0.0171751
819.285	0.0172753
819.363	0.0173160
819.442	0.0173019
819.520	0.0173453
819.598	0.0173715
819.676	0.0174596
819.754	0.0174829
819.832	0.0174857
819.910	0.0175404
819.988	0.0175637
820.067	0.0175168
820.145	0.0175285
820.223	0.0175139
820.301	0.0174484
820.379	0.0173193
820.457	0.0173468
820.535	0.0173842
820.613	0.0172129
820.692	0.0171133
820.770	0.0170683
820.848	0.0170450
820.926	0.0170181
821.004	0.0168516
821.082	0.0167477
821.160	0.0166938
821.238	0.0166882
821.317	0.0165582
821.395	0.0165688
821.473	0.0165133
821.551	0.0165586
821.629	0.0164711
821.707	0.0164903
821.785	0.0165206
821.863	0.0165014
821.942	0.0166408
822.020	0.0166859
822.098	0.0166579
822.176	0.0166592
822.254	0.0166950
822.332	0.0167607
822.410	0.0167961
822.488	0.0168629
822.567	0.0167502
822.645	0.0166954
822.723	0.0167875
822.801	0.0168335
822.879	0.0169113
822.957	0.0169485
823.035	0.0168166
823.113	0.0167147
823.192	0.0169063
823.270	0.0168608
823.348	0.0167972
823.426	0.0169794
823.504	0.0168512
823.582	0.0168688
823.660	0.0168071
823.738	0.0167474
823.817	0.0167627
823.895	0.0167101
823.973	0.0165684
824.051	0.0165324
824.129	0.0165167
824.207	0.0165913
824.285	0.0164968
824.363	0.0165142
824.442	0.0166475
824.520	0.0164892
824.598	0.0165317
824.676	0.0165712
824.754	0.0166273
824.832	0.0167460
824.910	0.0166482
824.988	0.0166901
825.067	0.0168112
825.145	0.0169627
825.223	0.0169778
825.301	0.0169194
825.379	0.0170110
825.457	0.0169262
825.535	0.0170795
825.613	0.0171540
825.692	0.0170445
825.770	0.0171156
825.848	0.0172545
825.926	0.0169086
826.004	0.0171466
826.082	0.0173055
826.160	0.0171964
826.238	0.0172690
826.317	0.0173029
826.395	0.0171700
826.473	0.0171194
826.551	0.0172623
826.629	0.0173344
826.707	0.0171525
826.785	0.0172746
826.863	0.0172638
826.942	0.0173180
827.020	0.0173061
827.098	0.0172782
827.176	0.0174200
827.254	0.0174761
827.332	0.0172913
827.410	0.0173780
827.488	0.0174529
827.567	0.0173721
827.645	0.0174685
827.723	0.0173178
827.801	0.0175681
827.879	0.0173973
827.957	0.0173980
828.035	0.0173872
828.113	0.0172749
828.192	0.0172959
828.270	0.0174235
828.348	0.0171082
828.426	0.0171164
828.504	0.0170719
828.582	0.0170797
828.660	0.0169116
828.738	0.0170758
828.817	0.0169049
828.895	0.0168626
828.973	0.0168295
829.051	0.0168397
829.129	0.0167512
829.207	0.0165829
829.285	0.0166747
829.363	0.0166924
829.442	0.0165957
829.520	0.0166073
829.598	0.0166289
829.676	0.0165607
829.754	0.0166621
829.832	0.0164852
829.910	0.0166476
829.988	0.0165477
830.067	0.0164843
830.145	0.0165346
830.223	0.0165334
830.301	0.0164344
830.379	0.0164838
830.457	0.0166080
830.535	0.0165889
830.613	0.0167236
830.692	0.0164934
830.770	0.0165965
830.848	0.0167831
830.926	0.0167496
831.004	0.0167191
831.082	0.0167566
831.160	0.0167504
831.238	0.0169420
831.317	0.0167226
831.395	0.0168497
831.473	0.0169435
831.551	0.0170036
831.629	0.0168861
831.707	0.0170230
831.785	0.0170605
831.863	0.0169912
831.942	0.0171851
832.020	0.0170579
832.098	0.0170982
832.176	0.0172081
832.254	0.0173468
832.332	0.0174017
832.410	0.0174065
832.488	0.0173228
832.567	0.0172849
832.645	0.0174670
832.723	0.0173198
832.801	0.0173043
832.879	0.0173710
832.957	0.0173812
833.035	0.0173537
833.113	0.0170869
833.192	0.0172433
833.270	0.0171613
833.348	0.0171120
833.426	0.0171970
833.504	0.0170479
833.582	0.0171220
833.660	0.0169396
833.738	0.0170399
833.817	0.0170536
833.895	0.0168643
833.973	0.0168208
834.051	0.0167999
834.129	0.0167742
834.207	0.0167695
834.285	0.0167866
834.363	0.0167078
834.442	0.0167329
834.520	0.0166872
834.598	0.0167577
834.676	0.0167963
834.754	0.0167191
834.832	0.0167287
834.910	0.0167233
834.988	0.0167406
835.067	0.0167052
835.145	0.0168559
835.223	0.0167511
835.301	0.0167690
835.379	0.0169001
835.457	0.0169815
835.535	0.0169505
835.613	0.0169185
835.692	0.0170995
835.770	0.0169174
835.848	0.0167274
835.926	0.0168784
836.004	0.0171246
836.082	0.0170127
836.160	0.0170464
836.238	0.0170470
836.317	0.0170414
836.395	0.0170879
836.473	0.0170164
836.551	0.0171266
836.629	0.0169479
836.707	0.0170056
836.785	0.0171083
836.863	0.0170776
836.942	0.0171427
837.020	0.0170860
837.098	0.0171249
837.176	0.0171819
837.254	0.0172224
837.332	0.0171174
837.410	0.0169489
837.488	0.0170147
837.567	0.0170615
837.645	0.0170303
837.723	0.0169075
837.801	0.0169930
837.879	0.0170253
837.957	0.0169415
838.035	0.0169499
838.113	0.0169093
838.192	0.0169115
838.270	0.0169288
838.348	0.0170147
838.426	0.0169862
838.504	0.0170088
838.582	0.0169242
838.660	0.0170885
838.738	0.0168681
838.817	0.0169830
838.895	0.0171443
838.973	0.0170242
839.051	0.0170834
839.129	0.0170146
839.207	0.0170047
839.285	0.0169649
839.363	0.0169538
839.442	0.0168626
839.520	0.0169352
839.598	0.0168675
839.676	0.0168857
839.754	0.0168907
839.832	0.0168372
839.910	0.0167493
839.988	0.0166746
840.067	0.0168198
840.145	0.0167722
840.223	0.0166203
840.301	0.0166042
840.379	0.0167175
840.457	0.0165630
840.535	0.0167907
840.613	0.0167689
840.692	0.0170188
840.770	0.0167665
840.848	0.0168055
840.926	0.0168195
841.004	0.0169804
841.082	0.0168999
841.160	0.0170850
841.238	0.0167361
841.317	0.0170000
841.395	0.0170730
841.473	0.0168529
841.551	0.0168187
841.629	0.0169333
841.707	0.0170100
841.785	0.0168546
841.863	0.0170219
841.942	0.0168792
842.020	0.0169337
842.098	0.0169662
842.176	0.0169800
842.254	0.0169092
842.332	0.0169009
842.410	0.0169676
842.488	0.0168839
842.567	0.0169060
842.645	0.0169485
842.723	0.0169518
842.801	0.0170673
842.879	0.0169818
842.957	0.0168654
843.035	0.0170239
843.113	0.0170717
843.192	0.0171332
843.270	0.0171137
843.348	0.0171031
843.426	0.0171770
843.504	0.0169822
843.582	0.0171878
843.660	0.0172386
843.738	0.0172748
843.817	0.0172016
843.895	0.0172752
843.973	0.0171342
844.051	0.0172748
844.129	0.0171456
844.207	0.0172257
844.285	0.0171152
844.363	0.0172224
844.442	0.0171886
844.520	0.0173132
844.598	0.0172103
844.676	0.0172425
844.754	0.0172084
844.832	0.0170905
844.910	0.0171413
844.988	0.0170087
845.067	0.0171002
845.145	0.0170167
845.223	0.0171183
845.301	0.0170055
845.379	0.0169421
845.457	0.0168196
845.535	0.0169002
845.613	0.0168108
845.692	0.0167547
845.770	0.0168356
845.848	0.0168064
845.926	0.0169876
846.004	0.0169822
846.082	0.0168744
846.160	0.0168201
846.238	0.0169441
846.317	0.0168246
846.395	0.0169003
846.473	0.0169259
846.551	0.0168084
846.629	0.0168500
846.707	0.0169384
846.785	0.0168286
846.863	0.0169541
846.942	0.0167652
847.020	0.0167419
847.098	0.0167102
847.176	0.0168200
847.254	0.0169012
847.332	0.0168297
847.410	0.0168333
847.488	0.0168106
847.567	0.0166801
847.645	0.0168837
847.723	0.0166583
847.801	0.0167464
847.879	0.0167647
847.957	0.0166238
848.035	0.0167084
848.113	0.0167392
848.192	0.0167410
848.270	0.0168293
848.348	0.0167984
848.426	0.0166303
848.504	0.0167497
848.582	0.0167104
848.660	0.0168311
848.738	0.0168880
848.817	0.0169070
848.895	0.0168796
848.973	0.0169340
849.051	0.0169689
849.129	0.0171249
849.207	0.0170378
849.285	0.0171303
849.363	0.0172224
849.442	0.0171326
849.520	0.0170444
849.598	0.0172237
849.676	0.0172685
849.754	0.0174164
849.832	0.0173236
849.910	0.0172597
849.988	0.0174163
850.067	0.0173518
850.145	0.0172952
850.223	0.0172353
850.301	0.0172099
850.379	0.0172882
850.457	0.0173529
850.535	0.0172186
850.613	0.0171092
850.692	0.0170953
850.770	0.0170877
850.848	0.0170883
850.926	0.0171356
851.004	0.0170074
851.082	0.0168829
851.160	0.0168097
851.238	0.0168645
851.317	0.0168480
851.395	0.0169138
851.473	0.0169431
851.551	0.0169117
851.629	0.0168663
851.707	0.0167444
851.785	0.0168166
851.863	0.0168848
851.942	0.0166633
852.020	0.0166983
852.098	0.0169314
852.176	0.0167052
852.254	0.0169322
852.332	0.0167954
852.410	0.0167957
852.488	0.0168279
852.567	0.0168609
852.645	0.0168455
852.723	0.0169430
852.801	0.0167469
852.879	0.0169631
852.957	0.0169885
853.035	0.0169863
853.113	0.0170967
853.192	0.0170843
853.270	0.0170113
853.348	0.0171194
853.426	0.0173203
853.504	0.0171652
853.582	0.0170979
853.660	0.0171406
853.738	0.0171499
853.817	0.0171403
853.895	0.0171033
853.973	0.0173165
854.051	0.0171838
854.129	0.0171328
854.207	0.0170816
854.285	0.0171272
854.363	0.0171421
854.442	0.0170674
854.520	0.0170547
854.598	0.0169405
854.676	0.0169944
854.754	0.0169585
854.832	0.0169575
854.910	0.0171123
854.988	0.0168785
855.067	0.0168396
855.145	0.0169782
855.223	0.0167894
855.301	0.0167795
855.379	0.0168104
855.457	0.0167837
855.535	0.0169318
855.613	0.0167694
855.692	0.0167785
855.770	0.0169012
855.848	0.0167872
855.926	0.0169244
856.004	0.0168656
856.082	0.0167860
856.160	0.0168835
856.238	0.0168523
856.317	0.0169397
856.395	0.0170869
856.473	0.0169521
856.551	0.0169209
856.629	0.0169698
856.707	0.0168900
856.785	0.0168695
856.863	0.0168968
856.942	0.0168616
857.020	0.0166622
857.098	0.0167619
857.176	0.0168437
857.254	0.0168192
857.332	0.0167590
857.410	0.0168692
857.488	0.0167435
857.567	0.0167361
857.645	0.0167319
857.723	0.0167710
857.801	0.0168210
857.879	0.0167966
857.957	0.0168962
858.035	0.0168935
858.113	0.0168672
858.192	0.0169537
858.270	0.0170372
858.348	0.0169004
858.426	0.0169103
858.504	0.0170010
858.582	0.0170307
858.660	0.0170383
858.738	0.0169329
858.817	0.0170535
858.895	0.0168410
858.973	0.0169561
859.051	0.0168150
859.129	0.0170179
859.207	0.0170319
859.285	0.0168749
859.363	0.0169035
859.442	0.0170452
859.520	0.0170966
859.598	0.0168413
859.676	0.0168166
859.754	0.0168497
859.832	0.0168432
859.910	0.0168789
859.988	0.0170885
860.067	0.0170445
860.145	0.0169305
860.223	0.0169401
860.301	0.0170361
860.379	0.0171389
860.457	0.0171075
860.535	0.0170619
860.613	0.0171867
860.692	0.0172606
860.770	0.0173289
860.848	0.0171535
860.926	0.0171686
861.004	0.0171863
861.082	0.0173546
861.160	0.0171641
861.238	0.0171854
861.317	0.0172505
861.395	0.0172427
861.473	0.0172681
861.551	0.0171947
861.629	0.0171510
861.707	0.0170759
861.785	0.0170752
861.863	0.0170548
861.942	0.0171127
862.020	0.0171509
862.098	0.0171075
862.176	0.0171714
862.254	0.0170447
862.332	0.0167788
862.410	0.0168053
862.488	0.0168147
862.567	0.0168191
862.645	0.0167675
862.723	0.0168403
862.801	0.0168595
862.879	0.0168456
862.957	0.0167422
863.035	0.0167009
863.113	0.0168423
863.192	0.0168011
863.270	0.0168285
863.348	0.0168347
863.426	0.0168416
863.504	0.0168031
863.582	0.0168348
863.660	0.0168813
863.738	0.0167783
863.817	0.0166550
863.895	0.0168219
863.973	0.0167542
864.051	0.0166825
864.129	0.0168079
864.207	0.0169212
864.285	0.0168646
864.363	0.0168024
864.442	0.0168700
864.520	0.0169488
864.598	0.0168523
864.676	0.0167879
864.754	0.0170366
864.832	0.0169787
864.910	0.0167664
864.988	0.0169231
865.067	0.0169721
865.145	0.0167811
865.223	0.0166554
865.301	0.0167458
865.379	0.0168013
865.457	0.0168198
865.535	0.0167067
865.613	0.0168570
865.692	0.0169327
865.770	0.0168178
865.848	0.0169807
865.926	0.0170753
866.004	0.0169742
866.082	0.0172170
866.160	0.0172353
866.238	0.0171313
866.317	0.0172453
866.395	0.0173714
866.473	0.0172879
866.551	0.0172831
866.629	0.0171611
866.707	0.0172852
866.785	0.0173293
866.863	0.0171455
866.942	0.0172395
867.020	0.0171432
867.098	0.0171673
867.176	0.0172440
867.254	0.0172181
867.332	0.0170771
867.410	0.0172217
867.488	0.0170615
867.567	0.0170229
867.645	0.0171187
867.723	0.0172096
867.801	0.0170848
867.879	0.0171939
867.957	0.0171204
868.035	0.0171564
868.113	0.0171279
868.192	0.0169741
868.270	0.0169643
868.348	0.0169901
868.426	0.0169966
868.504	0.0168541
868.582	0.0167416
868.660	0.0168395
868.738	0.0168664
868.817	0.0167643
868.895	0.0168732
868.973	0.0167748
869.051	0.0167329
869.129	0.0167358
869.207	0.0167563
869.285	0.0168616
869.363	0.0167917
869.442	0.0167339
869.520	0.0168060
869.598	0.0169077
869.676	0.0168810
869.754	0.0169831
869.832	0.0170168
869.910	0.0169878
869.988	0.0170339
870.067	0.0168833
870.145	0.0169894
870.223	0.0171463
870.301	0.0169494
870.379	0.0170562
870.457	0.0170514
870.535	0.0169969
870.613	0.0170895
870.692	0.0170665
870.770	0.0169936
870.848	0.0169515
870.926	0.0169202
871.004	0.0170663
871.082	0.0169843
871.160	0.0169338
871.238	0.0168723
871.317	0.0169028
871.395	0.0170282
871.473	0.0170858
871.551	0.0169492
871.629	0.0169314
871.707	0.0169370
871.785	0.0169086
871.863	0.0167937
871.942	0.0169531
872.020	0.0168108
872.098	0.0169630
872.176	0.0169861
872.254	0.0170098
872.332	0.0171406
872.410	0.0170070
872.488	0.0170356
872.567	0.0170148
872.645	0.0170975
872.723	0.0167857
872.801	0.0170007
872.879	0.0170644
872.957	0.0170235
873.035	0.0169257
873.113	0.0169963
873.192	0.0169816
873.270	0.0168597
873.348	0.0169763
873.426	0.0170629
873.504	0.0168983
873.582	0.0168576
873.660	0.0169306
873.738	0.0169334
873.817	0.0169901
873.895	0.0169361
873.973	0.0168778
874.051	0.0168797
874.129	0.0168398
874.207	0.0169608
874.285	0.0169891
874.363	0.0168332
874.442	0.0170753
874.520	0.0169759
874.598	0.0169399
874.676	0.0170585
874.754	0.0171529
874.832	0.0169672
874.910	0.0168999
874.988	0.0169724
875.067	0.0169881
875.145	0.0170751
875.223	0.0169113
875.301	0.0170242
875.379	0.0169457
875.457	0.0168630
875.535	0.0169376
875.613	0.0168494
875.692	0.0167779
875.770	0.0169218
875.848	0.0168114
875.926	0.0169958
876.004	0.0168869
876.082	0.0169691
876.160	0.0171046
876.238	0.0171374
876.317	0.0171288
876.395	0.0170892
876.473	0.0171869
876.551	0.0170708
876.629	0.0170885
876.707	0.0172053
876.785	0.0172543
876.863	0.0171704
876.942	0.0172962
877.020	0.0172282
877.098	0.0172746
877.176	0.0172238
877.254	0.0172311
877.332	0.0171981
877.410	0.0171445
877.488	0.0170872
877.567	0.0169064
877.645	0.0171999
877.723	0.0170715
877.801	0.0169327
877.879	0.0170553
877.957	0.0169605
878.035	0.0168350
878.113	0.0169955
878.192	0.0168529
878.270	0.0169527
878.348	0.0168996
878.426	0.0168352
878.504	0.0166450
878.582	0.0167845
878.660	0.0167689
878.738	0.0167757
878.817	0.0167298
878.895	0.0166824
878.973	0.0167815
879.051	0.0170065
879.129	0.0169137
879.207	0.0170199
879.285	0.0170712
879.363	0.0171202
879.442	0.0172842
879.520	0.0172580
879.598	0.0170358
879.676	0.0172316
879.754	0.0170275
879.832	0.0170864
879.910	0.0169268
879.988	0.0165366
880.067	0.0164111
880.145	0.0162074
880.223	0.0160135
880.301	0.0157569
880.379	0.0156416
880.457	0.0157857
880.535	0.0156664
880.613	0.0156804
880.692	0.0158699
880.770	0.0159405
880.848	0.0165480
880.926	0.0167750
881.004	0.0168742
881.082	0.0173643
881.160	0.0175668
881.238	0.0178541
881.317	0.0181313
881.395	0.0184583
881.473	0.0186288
881.551	0.0187006
881.629	0.0187537
881.707	0.0186255
881.785	0.0186474
881.863	0.0184690
881.942	0.0182799
882.020	0.0180310
882.098	0.0178286
882.176	0.0175607
882.254	0.0172436
882.332	0.0169171
882.410	0.0166906
882.488	0.0162785
882.567	0.0158904
882.645	0.0158709
882.723	0.0154949
882.801	0.0153545
882.879	0.0153046
882.957	0.0152806
883.035	0.0153762
883.113	0.0153001
883.192	0.0153888
883.270	0.0154705
883.348	0.0155439
883.426	0.0157587
883.504	0.0159660
883.582	0.0161481
883.660	0.0162244
883.738	0.0165042
883.817	0.0167593
883.895	0.0167644
883.973	0.0172504
884.051	0.0173914
884.129	0.0174471
884.207	0.0175175
884.285	0.0177422
884.363	0.0178336
884.442	0.0180126
884.520	0.0180886
884.598	0.0182697
884.676	0.0181278
884.754	0.0181693
884.832	0.0181407
884.910	0.0179574
884.988	0.0179943
885.067	0.0179080
885.145	0.0178245
885.223	0.0176206
885.301	0.0174535
885.379	0.0173933
885.457	0.0172963
885.535	0.0171999
885.613	0.0170261
885.692	0.0169423
885.770	0.0170452
885.848	0.0167818
885.926	0.0166705
886.004	0.0168064
886.082	0.0165556
886.160	0.0166709
886.238	0.0167699
886.317	0.0168230
886.395	0.0167950
886.473	0.0167492
886.551	0.0166788
886.629	0.0167570
886.707	0.0169404
886.785	0.0167837
886.863	0.0169499
886.942	0.0168886
887.020	0.0168832
887.098	0.0166694
887.176	0.0166872
887.254	0.0165934
887.332	0.0166161
887.410	0.0165375
887.488	0.0164497
887.567	0.0163824
887.645	0.0165042
887.723	0.0165082
887.801	0.0163386
887.879	0.0164462
887.957	0.0165005
888.035	0.0165546
888.113	0.0166602
888.192	0.0168745
888.270	0.0168382
888.348	0.0168201
888.426	0.0170020
888.504	0.0169559
888.582	0.0171482
888.660	0.0171453
888.738	0.0172686
888.817	0.0173253
888.895	0.0174186
888.973	0.0175354
889.051	0.0173947
889.129	0.0173067
889.207	0.0172547
889.285	0.0173510
889.363	0.0173913
889.442	0.0172413
889.520	0.0172215
889.598	0.0171264
889.676	0.0170650
889.754	0.0171090
889.832	0.0170567
889.910	0.0169797
889.988	0.0169333
890.067	0.0169637
890.145	0.0170509
890.223	0.0169192
890.301	0.0168620
890.379	0.0169428
890.457	0.0170490
890.535	0.0169667
890.613	0.0170451
890.692	0.0168790
890.770	0.0168023
890.848	0.0167340
890.926	0.0168747
891.004	0.0168765
891.082	0.0167901
891.160	0.0167497
891.238	0.0166669
891.317	0.0166860
891.395	0.0164339
891.473	0.0165379
891.551	0.0166219
891.629	0.0166348
891.707	0.0167104
891.785	0.0168370
891.863	0.0168490
891.942	0.0166770
892.020	0.0167934
892.098	0.0167108
892.176	0.0168578
892.254	0.0169423
892.332	0.0169541
892.410	0.0170464
892.488	0.0170596
892.567	0.0169444
892.645	0.0170344
892.723	0.0170432
892.801	0.0171915
892.879	0.0171546
892.957	0.0170896
893.035	0.0170336
893.113	0.0170109
893.192	0.0169077
893.270	0.0169450
893.348	0.0170815
893.426	0.0168815
893.504	0.0169534
893.582	0.0170584
893.660	0.0170187
893.738	0.0169645
893.817	0.0170757
893.895	0.0170996
893.973	0.0170438
894.051	0.0170923
894.129	0.0172353
894.207	0.0172607
894.285	0.0173612
894.363	0.0174802
894.442	0.0174903
894.520	0.0173882
894.598	0.0174619
894.676	0.0175811
894.754	0.0177204
894.832	0.0174390
894.910	0.0175075
894.988	0.0176798
895.067	0.0176186
895.145	0.0173213
895.223	0.0173303
895.301	0.0172478
895.379	0.0172636
895.457	0.0172747
895.535	0.0170467
895.613	0.0169088
895.692	0.0168475
895.770	0.0167866
895.848	0.0166855
895.926	0.0166582
896.004	0.0166685
896.082	0.0165508
896.160	0.0166800
896.238	0.0165775
896.317	0.0165514
896.395	0.0165234
896.473	0.0165002
896.551	0.0166269
896.629	0.0166138
896.707	0.0165662
896.785	0.0165143
896.863	0.0165884
896.942	0.0165380
897.020	0.0165824
897.098	0.0166844
897.176	0.0166888
897.254	0.0165520
897.332	0.0167273
897.410	0.0166929
897.488	0.0167171
897.567	0.0167848
897.645	0.0167149
897.723	0.0166494
897.801	0.0168687
897.879	0.0167648
897.957	0.0167008
898.035	0.0168812
898.113	0.0167704
898.192	0.0166405
898.270	0.0167493
898.348	0.0166676
898.426	0.0166588
898.504	0.0165893
898.582	0.0163659
898.660	0.0163989
898.738	0.0162919
898.817	0.0162588
898.895	0.0164075
898.973	0.0164992
899.051	0.0163975
899.129	0.0166501
899.207	0.0164411
899.285	0.0166002
899.363	0.0168324
899.442	0.0168960
899.520	0.0170371
899.598	0.0170337
899.676	0.0171907
899.754	0.0174491
899.832	0.0175777
899.910	0.0176437
899.988	0.0177088
900.067	0.0177579
900.145	0.0177775
900.223	0.0177995
900.301	0.0176396
900.379	0.0175998
900.457	0.0174693
900.535	0.0175974
900.613	0.0175512
900.692	0.0174638
900.770	0.0173494
900.848	0.0172323
900.926	0.0171730
901.004	0.0172904
901.082	0.0172060
901.160	0.0171103
901.238	0.0171132
901.317	0.0170754
901.395	0.0171527
901.473	0.0170905
901.551	0.0169630
901.629	0.0169994
901.707	0.0170139
901.785	0.0169105
901.863	0.0169380
901.942	0.0170397
902.020	0.0171020
902.098	0.0170877
902.176	0.0169980
902.254	0.0171355
902.332	0.0171108
902.410	0.0169064
902.488	0.0170044
902.567	0.0170268
902.645	0.0169384
902.723	0.0167522
902.801	0.0170113
902.879	0.0169527
902.957	0.0167677
903.035	0.0167336
903.113	0.0168387
903.192	0.0168638
903.270	0.0167773
903.348	0.0166430
903.426	0.0166471
903.504	0.0166241
903.582	0.0165124
903.660	0.0167850
903.738	0.0167826
903.817	0.0165889
903.895	0.0166131
903.973	0.0167565
904.051	0.0167159
904.129	0.0166792
904.207	0.0166537
904.285	0.0167979
904.363	0.0166647
904.442	0.0166885
904.520	0.0167414
904.598	0.0167262
904.676	0.0166846
904.754	0.0167110
904.832	0.0166970
904.910	0.0167234
904.988	0.0166924
905.067	0.0167433
905.145	0.0168234
905.223	0.0166120
905.301	0.0166811
905.379	0.0166507
905.457	0.0167226
905.535	0.0167753
905.613	0.0167493
905.692	0.0168762
905.770	0.0166558
905.848	0.0166380
905.926	0.0166742
906.004	0.0167529
906.082	0.0166089
906.160	0.0167035
906.238	0.0167471
906.317	0.0168279
906.395	0.0167637
906.473	0.0168201
906.551	0.0167940
906.629	0.0168400
906.707	0.0169380
906.785	0.0169652
906.863	0.0170660
906.942	0.0171365
907.020	0.0171034
907.098	0.0171468
907.176	0.0171960
907.254	0.0171353
907.332	0.0171118
907.410	0.0172311
907.488	0.0172326
907.567	0.0173849
907.645	0.0172691
907.723	0.0172260
907.801	0.0172095
907.879	0.0171751
907.957	0.0171370
908.035	0.0171882
908.113	0.0173186
908.192	0.0172314
908.270	0.0172166
908.348	0.0171863
908.426	0.0173267
908.504	0.0172025
908.582	0.0173613
908.660	0.0172866
908.738	0.0172860
908.817	0.0174439
908.895	0.0172022
908.973	0.0173679
909.051	0.0172747
909.129	0.0172451
909.207	0.0171342
909.285	0.0170850
909.363	0.0170679
909.442	0.0170045
909.520	0.0167925
909.598	0.0168601
909.676	0.0169730
909.754	0.0168571
909.832	0.0167624
909.910	0.0167390
909.988	0.0167937
910.067	0.0168054
910.145	0.0167115
910.223	0.0167915
910.301	0.0169521
910.379	0.0167146
910.457	0.0168909
910.535	0.0167652
910.613	0.0168348
910.692	0.0167172
910.770	0.0167551
910.848	0.0167268
910.926	0.0166742
911.004	0.0169022
911.082	0.0168304
911.160	0.0168192
911.238	0.0169360
911.317	0.0168345
911.395	0.0169283
911.473	0.0168407
911.551	0.0168110
911.629	0.0169082
911.707	0.0169056
911.785	0.0169524
911.863	0.0169930
911.942	0.0168581
912.020	0.0168301
912.098	0.0168438
912.176	0.0168444
912.254	0.0168857
912.332	0.0169484
912.410	0.0170046
912.488	0.0168745
912.567	0.0168367
912.645	0.0168668
912.723	0.0167840
912.801	0.0167986
912.879	0.0169150
912.957	0.0168239
913.035	0.0168932
913.113	0.0168276
913.192	0.0170140
913.270	0.0168939
913.348	0.0168365
913.426	0.0168239
913.504	0.0169221
913.582	0.0168523
913.660	0.0169063
913.738	0.0167157
913.817	0.0169067
913.895	0.0168173
913.973	0.0167828
914.051	0.0165765
914.129	0.0167643
914.207	0.0168291
914.285	0.0167665
914.363	0.0169434
914.442	0.0169618
914.520	0.0168176
914.598	0.0168130
914.676	0.0167870
914.754	0.0167641
914.832	0.0168806
914.910	0.0169908
914.988	0.0170481
915.067	0.0170061
915.145	0.0169022
915.223	0.0170005
915.301	0.0169815
915.379	0.0170135
915.457	0.0169176
915.535	0.0170598
915.613	0.0169309
915.692	0.0169669
915.770	0.0170216
915.848	0.0169608
915.926	0.0169371
916.004	0.0169177
916.082	0.0168670
916.160	0.0169289
916.238	0.0168127
916.317	0.0168488
916.395	0.0167931
916.473	0.0169152
916.551	0.0170774
916.629	0.0171362
916.707	0.0170636
916.785	0.0172488
916.863	0.0172842
916.942	0.0173431
917.020	0.0174475
917.098	0.0175224
917.176	0.0174946
917.254	0.0175412
917.332	0.0176215
917.410	0.0176242
917.488	0.0176468
917.567	0.0177502
917.645	0.0176006
917.723	0.0175166
917.801	0.0175803
917.879	0.0175846
917.957	0.0174832
918.035	0.0173254
918.113	0.0172337
918.192	0.0173303
918.270	0.0170981
918.348	0.0171413
918.426	0.0170135
918.504	0.0168548
918.582	0.0169737
918.660	0.0168360
918.738	0.0168308
918.817	0.0167935
918.895	0.0167258
918.973	0.0166229
919.051	0.0167633
919.129	0.0166618
919.207	0.0166050
919.285	0.0166573
919.363	0.0167451
919.442	0.0166190
919.520	0.0166916
919.598	0.0167220
919.676	0.0166798
919.754	0.0166618
919.832	0.0168401
919.910	0.0166685
