05/26/2022	00:45:19	Ver.	4.1	UNKNOWN
Optical Delay	599.988409	Delta X		0.078125	Sweeps	1	Scan Rate	0/0
Coordinates	Axis 1	NaN	Axis 2	NaN	Axis 3	NaN	Axis 4	NaN	Axis 5	NaN	Axis 6	0.000000
TX Power	0.000000	RX Power	0.000000

599.988	0.0168741
600.067	0.0169704
600.145	0.0168631
600.223	0.0169840
600.301	0.0169574
600.379	0.0168402
600.457	0.0168836
600.535	0.0169450
600.613	0.0169125
600.692	0.0167654
600.770	0.0168681
600.848	0.0167278
600.926	0.0168937
601.004	0.0168774
601.082	0.0168478
601.160	0.0169129
601.238	0.0169546
601.317	0.0169647
601.395	0.0168427
601.473	0.0168655
601.551	0.0167147
601.629	0.0169695
601.707	0.0169267
601.785	0.0168471
601.863	0.0169747
601.942	0.0168520
602.020	0.0168745
602.098	0.0168957
602.176	0.0167878
602.254	0.0168005
602.332	0.0167427
602.410	0.0169209
602.488	0.0168201
602.567	0.0167883
602.645	0.0168353
602.723	0.0169251
602.801	0.0169715
602.879	0.0169038
602.957	0.0169474
603.035	0.0169455
603.113	0.0169462
603.192	0.0168211
603.270	0.0168900
603.348	0.0168890
603.426	0.0168111
603.504	0.0169041
603.582	0.0169147
603.660	0.0168043
603.738	0.0168519
603.817	0.0169132
603.895	0.0169038
603.973	0.0169147
604.051	0.0169326
604.129	0.0168831
604.207	0.0169949
604.285	0.0168433
604.363	0.0168531
604.442	0.0168399
604.520	0.0168645
604.598	0.0169390
604.676	0.0167361
604.754	0.0169226
604.832	0.0170339
604.910	0.0169241
604.988	0.0168100
605.067	0.0168010
605.145	0.0170009
605.223	0.0167887
605.301	0.0168337
605.379	0.0167229
605.457	0.0168701
605.535	0.0168038
605.613	0.0169269
605.692	0.0170202
605.770	0.0167997
605.848	0.0168009
605.926	0.0169070
606.004	0.0169170
606.082	0.0168973
606.160	0.0168087
606.238	0.0167176
606.317	0.0168771
606.395	0.0169577
606.473	0.0167627
606.551	0.0168108
606.629	0.0169232
606.707	0.0167735
606.785	0.0168900
606.863	0.0168423
606.942	0.0169530
607.020	0.0169407
607.098	0.0169077
607.176	0.0168098
607.254	0.0169206
607.332	0.0169415
607.410	0.0168918
607.488	0.0168942
607.567	0.0166474
607.645	0.0169740
607.723	0.0169965
607.801	0.0169370
607.879	0.0167898
607.957	0.0169638
608.035	0.0169136
608.113	0.0169229
608.192	0.0169933
608.270	0.0168596
608.348	0.0170139
608.426	0.0170692
608.504	0.0169865
608.582	0.0170242
608.660	0.0169059
608.738	0.0168510
608.817	0.0168577
608.895	0.0170072
608.973	0.0168628
609.051	0.0167205
609.129	0.0168585
609.207	0.0168220
609.285	0.0167468
609.363	0.0168410
609.442	0.0168166
609.520	0.0166030
609.598	0.0167050
609.676	0.0167518
609.754	0.0167800
609.832	0.0167310
609.910	0.0169781
609.988	0.0168861
610.067	0.0167809
610.145	0.0168345
610.223	0.0168463
610.301	0.0169331
610.379	0.0169377
610.457	0.0169443
610.535	0.0168911
610.613	0.0169041
610.692	0.0170580
610.770	0.0170847
610.848	0.0171175
610.926	0.0171478
611.004	0.0171112
611.082	0.0170727
611.160	0.0169485
611.238	0.0168223
611.317	0.0169057
611.395	0.0169505
611.473	0.0170491
611.551	0.0168915
611.629	0.0169656
611.707	0.0168700
611.785	0.0168203
611.863	0.0166527
611.942	0.0168319
612.020	0.0168473
612.098	0.0167985
612.176	0.0166376
612.254	0.0167001
612.332	0.0167267
612.410	0.0165901
612.488	0.0166632
612.567	0.0166603
612.645	0.0167024
612.723	0.0167296
612.801	0.0167775
612.879	0.0166911
612.957	0.0167848
613.035	0.0166709
613.113	0.0167664
613.192	0.0168336
613.270	0.0169289
613.348	0.0168720
613.426	0.0168924
613.504	0.0168232
613.582	0.0169893
613.660	0.0168970
613.738	0.0169888
613.817	0.0169695
613.895	0.0169054
613.973	0.0169414
614.051	0.0168013
614.129	0.0169080
614.207	0.0170404
614.285	0.0170006
614.363	0.0169795
614.442	0.0169299
614.520	0.0168834
614.598	0.0170184
614.676	0.0170515
614.754	0.0170943
614.832	0.0169691
614.910	0.0168596
614.988	0.0170638
615.067	0.0170951
615.145	0.0172155
615.223	0.0169357
615.301	0.0168590
615.379	0.0169455
615.457	0.0169876
615.535	0.0169466
615.613	0.0170179
615.692	0.0170197
615.770	0.0168918
615.848	0.0168258
615.926	0.0167986
616.004	0.0170345
616.082	0.0168633
616.160	0.0169645
616.238	0.0169112
616.317	0.0169072
616.395	0.0167085
616.473	0.0169765
616.551	0.0168633
616.629	0.0168600
616.707	0.0169751
616.785	0.0169675
616.863	0.0168320
616.942	0.0169041
617.020	0.0168488
617.098	0.0169286
617.176	0.0169457
617.254	0.0167889
617.332	0.0167928
617.410	0.0168790
617.488	0.0167421
617.567	0.0167063
617.645	0.0167642
617.723	0.0168121
617.801	0.0169018
617.879	0.0167429
617.957	0.0167110
618.035	0.0168465
618.113	0.0168159
618.192	0.0167028
618.270	0.0168940
618.348	0.0169707
618.426	0.0169714
618.504	0.0169231
618.582	0.0169545
618.660	0.0169705
618.738	0.0168472
618.817	0.0169056
618.895	0.0169083
618.973	0.0168350
619.051	0.0169229
619.129	0.0169467
619.207	0.0167635
619.285	0.0168761
619.363	0.0169743
619.442	0.0169996
619.520	0.0169277
619.598	0.0168072
619.676	0.0169498
619.754	0.0170057
619.832	0.0169033
619.910	0.0168882
619.988	0.0171497
620.067	0.0169154
620.145	0.0168595
620.223	0.0169762
620.301	0.0169840
620.379	0.0169611
620.457	0.0169764
620.535	0.0169805
620.613	0.0169439
620.692	0.0167883
620.770	0.0169270
620.848	0.0170857
620.926	0.0170444
621.004	0.0169747
621.082	0.0169753
621.160	0.0169975
621.238	0.0169652
621.317	0.0169157
621.395	0.0170397
621.473	0.0168813
621.551	0.0168783
621.629	0.0170633
621.707	0.0168815
621.785	0.0169360
621.863	0.0169164
621.942	0.0169472
622.020	0.0168633
622.098	0.0168823
622.176	0.0170270
622.254	0.0170024
622.332	0.0169019
622.410	0.0170004
622.488	0.0168944
622.567	0.0167855
622.645	0.0168852
622.723	0.0169717
622.801	0.0168063
622.879	0.0170515
622.957	0.0168909
623.035	0.0168341
623.113	0.0168523
623.192	0.0168271
623.270	0.0170410
623.348	0.0169031
623.426	0.0169032
623.504	0.0168621
623.582	0.0169103
623.660	0.0168672
623.738	0.0169262
623.817	0.0168408
623.895	0.0168003
623.973	0.0169639
624.051	0.0169689
624.129	0.0168402
624.207	0.0169623
624.285	0.0168855
624.363	0.0168744
624.442	0.0167747
624.520	0.0168519
624.598	0.0169320
624.676	0.0169387
624.754	0.0167629
624.832	0.0168125
624.910	0.0168330
624.988	0.0168565
625.067	0.0167435
625.145	0.0167550
625.223	0.0168360
625.301	0.0170134
625.379	0.0169894
625.457	0.0169396
625.535	0.0169330
625.613	0.0168559
625.692	0.0169681
625.770	0.0167034
625.848	0.0169237
625.926	0.0168365
626.004	0.0169915
626.082	0.0169552
626.160	0.0169777
626.238	0.0169233
626.317	0.0168283
626.395	0.0168302
626.473	0.0168289
626.551	0.0168890
626.629	0.0169501
626.707	0.0169516
626.785	0.0169131
626.863	0.0168276
626.942	0.0169498
627.020	0.0169266
627.098	0.0168309
627.176	0.0168372
627.254	0.0169543
627.332	0.0170474
627.410	0.0168280
627.488	0.0168203
627.567	0.0168085
627.645	0.0169238
627.723	0.0169399
627.801	0.0169338
627.879	0.0170476
627.957	0.0168742
628.035	0.0170233
628.113	0.0169519
628.192	0.0168660
628.270	0.0168488
628.348	0.0170380
628.426	0.0169525
628.504	0.0170451
628.582	0.0170295
628.660	0.0169672
628.738	0.0168586
628.817	0.0168232
628.895	0.0169102
628.973	0.0170245
629.051	0.0169809
629.129	0.0168353
629.207	0.0168018
629.285	0.0169776
629.363	0.0167969
629.442	0.0169092
629.520	0.0170336
629.598	0.0167684
629.676	0.0168839
629.754	0.0169172
629.832	0.0170675
629.910	0.0169424
629.988	0.0168420
630.067	0.0168390
630.145	0.0170486
630.223	0.0170038
630.301	0.0167741
630.379	0.0169371
630.457	0.0169746
630.535	0.0169189
630.613	0.0166675
630.692	0.0168830
630.770	0.0169666
630.848	0.0168462
630.926	0.0168469
631.004	0.0168897
631.082	0.0167891
631.160	0.0167575
631.238	0.0168590
631.317	0.0168752
631.395	0.0169350
631.473	0.0168088
631.551	0.0168549
631.629	0.0170703
631.707	0.0170291
631.785	0.0169205
631.863	0.0168689
631.942	0.0169740
632.020	0.0169428
632.098	0.0169085
632.176	0.0169033
632.254	0.0170302
632.332	0.0169855
632.410	0.0168229
632.488	0.0169254
632.567	0.0169373
632.645	0.0169418
632.723	0.0170308
632.801	0.0169564
632.879	0.0167824
632.957	0.0168400
633.035	0.0169870
633.113	0.0168488
633.192	0.0169610
633.270	0.0169874
633.348	0.0169057
633.426	0.0168866
633.504	0.0169421
633.582	0.0169201
633.660	0.0169040
633.738	0.0169862
633.817	0.0169821
633.895	0.0169041
633.973	0.0168523
634.051	0.0170168
634.129	0.0169762
634.207	0.0170934
634.285	0.0169252
634.363	0.0169292
634.442	0.0167785
634.520	0.0168956
634.598	0.0168978
634.676	0.0168798
634.754	0.0169047
634.832	0.0170237
634.910	0.0168445
634.988	0.0169910
635.067	0.0170346
635.145	0.0168885
635.223	0.0169639
635.301	0.0169740
635.379	0.0169713
635.457	0.0169509
635.535	0.0169167
635.613	0.0168923
635.692	0.0169005
635.770	0.0168663
635.848	0.0170244
635.926	0.0170740
636.004	0.0168583
636.082	0.0169543
636.160	0.0170491
636.238	0.0169473
636.317	0.0169303
636.395	0.0169511
636.473	0.0167809
636.551	0.0168903
636.629	0.0169296
636.707	0.0169878
636.785	0.0167519
636.863	0.0169691
636.942	0.0170289
637.020	0.0169612
637.098	0.0168560
637.176	0.0168178
637.254	0.0168450
637.332	0.0169556
637.410	0.0169490
637.488	0.0167466
637.567	0.0168431
637.645	0.0169824
637.723	0.0169336
637.801	0.0168812
637.879	0.0170143
637.957	0.0169582
638.035	0.0169287
638.113	0.0169526
638.192	0.0169514
638.270	0.0169221
638.348	0.0168501
638.426	0.0168519
638.504	0.0168671
638.582	0.0167589
638.660	0.0168285
638.738	0.0167799
638.817	0.0169717
638.895	0.0168840
638.973	0.0167855
639.051	0.0167076
639.129	0.0169238
639.207	0.0168255
639.285	0.0168713
639.363	0.0169186
639.442	0.0169488
639.520	0.0169169
639.598	0.0169317
639.676	0.0170155
639.754	0.0169420
639.832	0.0168578
639.910	0.0170080
639.988	0.0169910
640.067	0.0168526
640.145	0.0168686
640.223	0.0168063
640.301	0.0168815
640.379	0.0168549
640.457	0.0168749
640.535	0.0169610
640.613	0.0168111
640.692	0.0167287
640.770	0.0168475
640.848	0.0169095
640.926	0.0168188
641.004	0.0169118
641.082	0.0169340
641.160	0.0169548
641.238	0.0168861
641.317	0.0167645
641.395	0.0168374
641.473	0.0169381
641.551	0.0168868
641.629	0.0169118
641.707	0.0169769
641.785	0.0168209
641.863	0.0169865
641.942	0.0169218
642.020	0.0169247
642.098	0.0168970
642.176	0.0168881
642.254	0.0169032
642.332	0.0169778
642.410	0.0169465
642.488	0.0169704
642.567	0.0168993
642.645	0.0168936
642.723	0.0169422
642.801	0.0168368
642.879	0.0169136
642.957	0.0169457
643.035	0.0169193
643.113	0.0169921
643.192	0.0171010
643.270	0.0169078
643.348	0.0168117
643.426	0.0170522
643.504	0.0169706
643.582	0.0169032
643.660	0.0168734
643.738	0.0169903
643.817	0.0169032
643.895	0.0169671
643.973	0.0169398
644.051	0.0169761
644.129	0.0170076
644.207	0.0168534
644.285	0.0170951
644.363	0.0170078
644.442	0.0169464
644.520	0.0167682
644.598	0.0169277
644.676	0.0169099
644.754	0.0168288
644.832	0.0168389
644.910	0.0167628
644.988	0.0169129
645.067	0.0168769
645.145	0.0168423
645.223	0.0168287
645.301	0.0169841
645.379	0.0168429
645.457	0.0168515
645.535	0.0168870
645.613	0.0168296
645.692	0.0168188
645.770	0.0169200
645.848	0.0169251
645.926	0.0168856
646.004	0.0168411
646.082	0.0167438
646.160	0.0167746
646.238	0.0169850
646.317	0.0169952
646.395	0.0168703
646.473	0.0168346
646.551	0.0169051
646.629	0.0169460
646.707	0.0170105
646.785	0.0169390
646.863	0.0167979
646.942	0.0168539
647.020	0.0168710
647.098	0.0169069
647.176	0.0168594
647.254	0.0168208
647.332	0.0169141
647.410	0.0168469
647.488	0.0169025
647.567	0.0169913
647.645	0.0169089
647.723	0.0168916
647.801	0.0169026
647.879	0.0169019
647.957	0.0169437
648.035	0.0167849
648.113	0.0168510
648.192	0.0168784
648.270	0.0169530
648.348	0.0168637
648.426	0.0168362
648.504	0.0168144
648.582	0.0169613
648.660	0.0169701
648.738	0.0169185
648.817	0.0168311
648.895	0.0168439
648.973	0.0168740
649.051	0.0169125
649.129	0.0167936
649.207	0.0169593
649.285	0.0168598
649.363	0.0168105
649.442	0.0169193
649.520	0.0170822
649.598	0.0169461
649.676	0.0168975
649.754	0.0168665
649.832	0.0168040
649.910	0.0168272
649.988	0.0170114
650.067	0.0169804
650.145	0.0168623
650.223	0.0169196
650.301	0.0167772
650.379	0.0168177
650.457	0.0168462
650.535	0.0169490
650.613	0.0169540
650.692	0.0169744
650.770	0.0169801
650.848	0.0169852
650.926	0.0168620
651.004	0.0169740
651.082	0.0171249
651.160	0.0168491
651.238	0.0169144
651.317	0.0169535
651.395	0.0169411
651.473	0.0169419
651.551	0.0168322
651.629	0.0170137
651.707	0.0170075
651.785	0.0168746
651.863	0.0168396
651.942	0.0168801
652.020	0.0170134
652.098	0.0168601
652.176	0.0169248
652.254	0.0170016
652.332	0.0169417
652.410	0.0169449
652.488	0.0169048
652.567	0.0169343
652.645	0.0169247
652.723	0.0168860
652.801	0.0169132
652.879	0.0168258
652.957	0.0169391
653.035	0.0170399
653.113	0.0169198
653.192	0.0169173
653.270	0.0167517
653.348	0.0169179
653.426	0.0168963
653.504	0.0167812
653.582	0.0169502
653.660	0.0169588
653.738	0.0167142
653.817	0.0169473
653.895	0.0168666
653.973	0.0169730
654.051	0.0168454
654.129	0.0169650
654.207	0.0168916
654.285	0.0168626
654.363	0.0169524
654.442	0.0169616
654.520	0.0168723
654.598	0.0167842
654.676	0.0170216
654.754	0.0168652
654.832	0.0167812
654.910	0.0168896
654.988	0.0168901
655.067	0.0168766
655.145	0.0169830
655.223	0.0169999
655.301	0.0169151
655.379	0.0169340
655.457	0.0167822
655.535	0.0169807
655.613	0.0168161
655.692	0.0169235
655.770	0.0169872
655.848	0.0168491
655.926	0.0168606
656.004	0.0168285
656.082	0.0168726
656.160	0.0169218
656.238	0.0167185
656.317	0.0167874
656.395	0.0168319
656.473	0.0169176
656.551	0.0169012
656.629	0.0168626
656.707	0.0169391
656.785	0.0170309
656.863	0.0169511
656.942	0.0169915
657.020	0.0168928
657.098	0.0169403
657.176	0.0169550
657.254	0.0168596
657.332	0.0169084
657.410	0.0170101
657.488	0.0168346
657.567	0.0168638
657.645	0.0169685
657.723	0.0170686
657.801	0.0169077
657.879	0.0169677
657.957	0.0168451
658.035	0.0168253
658.113	0.0169691
658.192	0.0168674
658.270	0.0168932
658.348	0.0168320
658.426	0.0169206
658.504	0.0170138
658.582	0.0169202
658.660	0.0168931
658.738	0.0169241
658.817	0.0169685
658.895	0.0169791
658.973	0.0168797
659.051	0.0169553
659.129	0.0170063
659.207	0.0168442
659.285	0.0169604
659.363	0.0168167
659.442	0.0167680
659.520	0.0169012
659.598	0.0168572
659.676	0.0169234
659.754	0.0170026
659.832	0.0168622
659.910	0.0168204
659.988	0.0167813
660.067	0.0169498
660.145	0.0168472
660.223	0.0170050
660.301	0.0170230
660.379	0.0166984
660.457	0.0168248
660.535	0.0168912
660.613	0.0168925
660.692	0.0169816
660.770	0.0168755
660.848	0.0168069
660.926	0.0169798
661.004	0.0168622
661.082	0.0167926
661.160	0.0168924
661.238	0.0168661
661.317	0.0169708
661.395	0.0168263
661.473	0.0168358
661.551	0.0169611
661.629	0.0169448
661.707	0.0168172
661.785	0.0168518
661.863	0.0169586
661.942	0.0168566
662.020	0.0168531
662.098	0.0168833
662.176	0.0169310
662.254	0.0168156
662.332	0.0169270
662.410	0.0169012
662.488	0.0168367
662.567	0.0168214
662.645	0.0168140
662.723	0.0168346
662.801	0.0169442
662.879	0.0169562
662.957	0.0168857
663.035	0.0169128
663.113	0.0168535
663.192	0.0169366
663.270	0.0168613
663.348	0.0168865
663.426	0.0168397
663.504	0.0169015
663.582	0.0169279
663.660	0.0168375
663.738	0.0168311
663.817	0.0169463
663.895	0.0167539
663.973	0.0168914
664.051	0.0170206
664.129	0.0170496
664.207	0.0169159
664.285	0.0168081
664.363	0.0169012
664.442	0.0169565
664.520	0.0168562
664.598	0.0168266
664.676	0.0169991
664.754	0.0169228
664.832	0.0169318
664.910	0.0168118
664.988	0.0168657
665.067	0.0170148
665.145	0.0169819
665.223	0.0170789
665.301	0.0168694
665.379	0.0169272
665.457	0.0168919
665.535	0.0168459
665.613	0.0168613
665.692	0.0170185
665.770	0.0168357
665.848	0.0169638
665.926	0.0168728
666.004	0.0165762
666.082	0.0169810
666.160	0.0169450
666.238	0.0169868
666.317	0.0169328
666.395	0.0169050
666.473	0.0169252
666.551	0.0169034
666.629	0.0168672
666.707	0.0168530
666.785	0.0166822
666.863	0.0169405
666.942	0.0168543
667.020	0.0168373
667.098	0.0168398
667.176	0.0168271
667.254	0.0169993
667.332	0.0169211
667.410	0.0169315
667.488	0.0168134
667.567	0.0168628
667.645	0.0168698
667.723	0.0168763
667.801	0.0169704
667.879	0.0168223
667.957	0.0168990
668.035	0.0168816
668.113	0.0170373
668.192	0.0168948
668.270	0.0168317
668.348	0.0168724
668.426	0.0167671
668.504	0.0168591
668.582	0.0168731
668.660	0.0168414
668.738	0.0168552
668.817	0.0169016
668.895	0.0168552
668.973	0.0167389
669.051	0.0168082
669.129	0.0167921
669.207	0.0169227
669.285	0.0168392
669.363	0.0167849
669.442	0.0168549
669.520	0.0169471
669.598	0.0168199
669.676	0.0168876
669.754	0.0169714
669.832	0.0168800
669.910	0.0168424
669.988	0.0169880
670.067	0.0169143
670.145	0.0168497
670.223	0.0168737
670.301	0.0168250
670.379	0.0168614
670.457	0.0169810
670.535	0.0170454
670.613	0.0168958
670.692	0.0168639
670.770	0.0167760
670.848	0.0168494
670.926	0.0169364
671.004	0.0169099
671.082	0.0168648
671.160	0.0168466
671.238	0.0168813
671.317	0.0168988
671.395	0.0168619
671.473	0.0168475
671.551	0.0168936
671.629	0.0168847
671.707	0.0168099
671.785	0.0169645
671.863	0.0168479
671.942	0.0170279
672.020	0.0168032
672.098	0.0169495
672.176	0.0168274
672.254	0.0169376
672.332	0.0169416
672.410	0.0168527
672.488	0.0168391
672.567	0.0168912
672.645	0.0167946
672.723	0.0168182
672.801	0.0170261
672.879	0.0169234
672.957	0.0168948
673.035	0.0168387
673.113	0.0167658
673.192	0.0168675
673.270	0.0168620
673.348	0.0168537
673.426	0.0168903
673.504	0.0168812
673.582	0.0168558
673.660	0.0169054
673.738	0.0169353
673.817	0.0170442
673.895	0.0170174
673.973	0.0168107
674.051	0.0167090
674.129	0.0168333
674.207	0.0168343
674.285	0.0168198
674.363	0.0169489
674.442	0.0169483
674.520	0.0169405
674.598	0.0170004
674.676	0.0168121
674.754	0.0168506
674.832	0.0169659
674.910	0.0167870
674.988	0.0168800
675.067	0.0169165
675.145	0.0169996
675.223	0.0168584
675.301	0.0167577
675.379	0.0169585
675.457	0.0168897
675.535	0.0169037
675.613	0.0169081
675.692	0.0169664
675.770	0.0168695
675.848	0.0169843
675.926	0.0170009
676.004	0.0170030
676.082	0.0169724
676.160	0.0169938
676.238	0.0168726
676.317	0.0169466
676.395	0.0169216
676.473	0.0167959
676.551	0.0168306
676.629	0.0169371
676.707	0.0166874
676.785	0.0167562
676.863	0.0167553
676.942	0.0167733
677.020	0.0168898
677.098	0.0169579
677.176	0.0168433
677.254	0.0167840
677.332	0.0168472
677.410	0.0168541
677.488	0.0168272
677.567	0.0167878
677.645	0.0169012
677.723	0.0168871
677.801	0.0167805
677.879	0.0169357
677.957	0.0168497
678.035	0.0168918
678.113	0.0170364
678.192	0.0168330
678.270	0.0169606
678.348	0.0169950
678.426	0.0169089
678.504	0.0168882
678.582	0.0170248
678.660	0.0169913
678.738	0.0169135
678.817	0.0171190
678.895	0.0171121
678.973	0.0169196
679.051	0.0169707
679.129	0.0169232
679.207	0.0168686
679.285	0.0168406
679.363	0.0168933
679.442	0.0167946
679.520	0.0169209
679.598	0.0168768
679.676	0.0168211
679.754	0.0167698
679.832	0.0167435
679.910	0.0167443
679.988	0.0166884
680.067	0.0167719
680.145	0.0167655
680.223	0.0167617
680.301	0.0167088
680.379	0.0166341
680.457	0.0168171
680.535	0.0168610
680.613	0.0167435
680.692	0.0169363
680.770	0.0169260
680.848	0.0167773
680.926	0.0167765
681.004	0.0170527
681.082	0.0168121
681.160	0.0168636
681.238	0.0169666
681.317	0.0169496
681.395	0.0169583
681.473	0.0169707
681.551	0.0168716
681.629	0.0170711
681.707	0.0169899
681.785	0.0169621
681.863	0.0168303
681.942	0.0169335
682.020	0.0169704
682.098	0.0170583
682.176	0.0169037
682.254	0.0170646
682.332	0.0170174
682.410	0.0169358
682.488	0.0168883
682.567	0.0168880
682.645	0.0168892
682.723	0.0167367
682.801	0.0167702
682.879	0.0167554
682.957	0.0169789
683.035	0.0169128
683.113	0.0167048
683.192	0.0167732
683.270	0.0168434
683.348	0.0167397
683.426	0.0168577
683.504	0.0166870
683.582	0.0167612
683.660	0.0168144
683.738	0.0168280
683.817	0.0167532
683.895	0.0167596
683.973	0.0168240
684.051	0.0170771
684.129	0.0168988
684.207	0.0169388
684.285	0.0169675
684.363	0.0169736
684.442	0.0169445
684.520	0.0168583
684.598	0.0169682
684.676	0.0170096
684.754	0.0171687
684.832	0.0169548
684.910	0.0169391
684.988	0.0169308
685.067	0.0170361
685.145	0.0170371
685.223	0.0168767
685.301	0.0169393
685.379	0.0170469
685.457	0.0170098
685.535	0.0169231
685.613	0.0169584
685.692	0.0167083
685.770	0.0168911
685.848	0.0168308
685.926	0.0168931
686.004	0.0167634
686.082	0.0168216
686.160	0.0167439
686.238	0.0168214
686.317	0.0166779
686.395	0.0166051
686.473	0.0166376
686.551	0.0165676
686.629	0.0162984
686.707	0.0159204
686.785	0.0158138
686.863	0.0155480
686.942	0.0155233
687.020	0.0155460
687.098	0.0157928
687.176	0.0166245
687.254	0.0179964
687.332	0.0199511
687.410	0.0219556
687.488	0.0243206
687.567	0.0266653
687.645	0.0284422
687.723	0.0292695
687.801	0.0294131
687.879	0.0283252
687.957	0.0259885
688.035	0.0228283
688.113	0.0184869
688.192	0.0137451
688.270	0.00878990
688.348	0.00363655
688.426	-0.000897141
688.504	-0.00507019
688.582	-0.00813133
688.660	-0.0102048
688.738	-0.0112074
688.817	-0.0110071
688.895	-0.00966087
688.973	-0.00723358
689.051	-0.00376488
689.129	0.000387344
689.207	0.00491592
689.285	0.0101016
689.363	0.0154649
689.442	0.0207465
689.520	0.0260940
689.598	0.0311874
689.676	0.0360291
689.754	0.0404419
689.832	0.0447328
689.910	0.0484139
689.988	0.0514149
690.067	0.0536558
690.145	0.0551675
690.223	0.0557881
690.301	0.0555861
690.379	0.0543029
690.457	0.0519580
690.535	0.0487252
690.613	0.0448261
690.692	0.0401255
690.770	0.0346532
690.848	0.0287425
690.926	0.0227367
691.004	0.0166307
691.082	0.0104948
691.160	0.00439301
691.238	-0.00131927
691.317	-0.00658577
691.395	-0.0111237
691.473	-0.0151369
691.551	-0.0185590
691.629	-0.0211359
691.707	-0.0229269
691.785	-0.0237350
691.863	-0.0236221
691.942	-0.0227111
692.020	-0.0208434
692.098	-0.0184297
692.176	-0.0155638
692.254	-0.0120049
692.332	-0.00826706
692.410	-0.00427414
692.488	-0.00000244141
692.567	0.00410011
692.645	0.00815620
692.723	0.0122072
692.801	0.0157983
692.879	0.0191727
692.957	0.0219828
693.035	0.0245471
693.113	0.0267492
693.192	0.0285145
693.270	0.0298543
693.348	0.0312479
693.426	0.0326437
693.504	0.0336115
693.582	0.0345345
693.660	0.0355625
693.738	0.0364748
693.817	0.0374299
693.895	0.0381897
693.973	0.0387549
694.051	0.0394555
694.129	0.0398714
694.207	0.0399075
694.285	0.0398504
694.363	0.0394917
694.442	0.0389696
694.520	0.0380313
694.598	0.0368074
694.676	0.0356699
694.754	0.0338846
694.832	0.0323840
694.910	0.0305252
694.988	0.0286176
695.067	0.0264091
695.145	0.0243684
695.223	0.0224855
695.301	0.0205071
695.379	0.0185582
695.457	0.0166649
695.535	0.0146780
695.613	0.0130955
695.692	0.0113808
695.770	0.00970802
695.848	0.00827644
695.926	0.00705208
696.004	0.00578560
696.082	0.00490059
696.160	0.00392860
696.238	0.00319824
696.317	0.00260544
696.395	0.00207451
696.473	0.00158417
696.551	0.00114883
696.629	0.000789032
696.707	0.000618286
696.785	0.000417862
696.863	0.000331268
696.942	0.000220642
697.020	0.000231323
697.098	0.000446548
697.176	0.000984344
697.254	0.00148407
697.332	0.00223015
697.410	0.00305359
697.488	0.00403854
697.567	0.00513405
697.645	0.00632561
697.723	0.00761948
697.801	0.00929253
697.879	0.0107942
697.957	0.0123372
698.035	0.0138738
698.113	0.0154732
698.192	0.0169205
698.270	0.0183187
698.348	0.0195824
698.426	0.0207560
698.504	0.0216650
698.582	0.0223880
698.660	0.0232277
698.738	0.0238087
698.817	0.0241034
698.895	0.0243218
698.973	0.0245708
699.051	0.0245950
699.129	0.0246453
699.207	0.0246332
699.285	0.0245051
699.363	0.0242767
699.442	0.0239552
699.520	0.0237317
699.598	0.0237125
699.676	0.0235182
699.754	0.0233575
699.832	0.0234042
699.910	0.0235763
699.988	0.0237787
700.067	0.0241965
700.145	0.0245031
700.223	0.0252290
700.301	0.0256455
700.379	0.0261612
700.457	0.0267366
700.535	0.0271568
700.613	0.0274387
700.692	0.0277537
700.770	0.0277982
700.848	0.0277213
700.926	0.0271056
701.004	0.0265388
701.082	0.0256213
701.160	0.0246857
701.238	0.0233681
701.317	0.0220804
701.395	0.0208463
701.473	0.0194479
701.551	0.0182298
701.629	0.0169527
701.707	0.0158797
701.785	0.0147262
701.863	0.0136869
701.942	0.0127402
702.020	0.0118555
702.098	0.0110912
702.176	0.0105694
702.254	0.00996223
702.332	0.00975983
702.410	0.00952690
702.488	0.00949791
702.567	0.00955597
702.645	0.0100285
702.723	0.0103786
702.801	0.0107153
702.879	0.0111021
702.957	0.0114323
703.035	0.0116940
703.113	0.0118085
703.192	0.0119939
703.270	0.0121501
703.348	0.0121854
703.426	0.0120549
703.504	0.0118634
703.582	0.0113848
703.660	0.0113152
703.738	0.0108789
703.817	0.0104293
703.895	0.00982170
703.973	0.00951057
704.051	0.00933510
704.129	0.00922401
704.207	0.00919952
704.285	0.00947426
704.363	0.00987129
704.442	0.0102945
704.520	0.0108833
704.598	0.0114816
704.676	0.0121528
704.754	0.0129050
704.832	0.0137399
704.910	0.0144142
704.988	0.0153123
705.067	0.0161558
705.145	0.0168419
705.223	0.0177206
705.301	0.0183742
705.379	0.0189307
705.457	0.0195682
705.535	0.0199696
705.613	0.0202930
705.692	0.0205656
705.770	0.0207551
705.848	0.0209916
705.926	0.0209820
706.004	0.0210136
706.082	0.0211734
706.160	0.0212199
706.238	0.0213473
706.317	0.0213013
706.395	0.0212254
706.473	0.0210778
706.551	0.0209669
706.629	0.0208749
706.707	0.0209420
706.785	0.0209332
706.863	0.0208513
706.942	0.0210923
707.020	0.0212556
707.098	0.0212753
707.176	0.0214922
707.254	0.0215606
707.332	0.0217252
707.410	0.0218615
707.488	0.0219684
707.567	0.0221538
707.645	0.0224392
707.723	0.0224535
707.801	0.0225685
707.879	0.0228602
707.957	0.0226669
708.035	0.0225417
708.113	0.0224487
708.192	0.0221272
708.270	0.0217457
708.348	0.0212177
708.426	0.0205265
708.504	0.0199755
708.582	0.0193736
708.660	0.0187811
708.738	0.0181850
708.817	0.0175299
708.895	0.0170866
708.973	0.0165442
709.051	0.0157573
709.129	0.0153883
709.207	0.0148268
709.285	0.0145078
709.363	0.0142090
709.442	0.0140691
709.520	0.0139997
709.598	0.0136849
709.676	0.0135248
709.754	0.0137009
709.832	0.0137403
709.910	0.0135365
709.988	0.0135770
710.067	0.0136200
710.145	0.0137856
710.223	0.0136375
710.301	0.0135754
710.379	0.0137457
710.457	0.0138433
710.535	0.0138617
710.613	0.0138910
710.692	0.0140733
710.770	0.0138629
710.848	0.0137894
710.926	0.0137618
711.004	0.0135940
711.082	0.0134720
711.160	0.0132955
711.238	0.0131686
711.317	0.0130627
711.395	0.0127940
711.473	0.0127521
711.551	0.0126236
711.629	0.0125154
711.707	0.0124529
711.785	0.0124110
711.863	0.0124569
711.942	0.0125464
712.020	0.0128065
712.098	0.0131327
712.176	0.0134319
712.254	0.0137724
712.332	0.0140861
712.410	0.0146072
712.488	0.0149512
712.567	0.0154762
712.645	0.0158169
712.723	0.0162263
712.801	0.0166347
712.879	0.0171425
712.957	0.0176157
713.035	0.0180215
713.113	0.0182642
713.192	0.0186214
713.270	0.0190319
713.348	0.0192506
713.426	0.0194092
713.504	0.0195979
713.582	0.0197234
713.660	0.0198745
713.738	0.0200375
713.817	0.0199919
713.895	0.0199901
713.973	0.0198459
714.051	0.0197974
714.129	0.0195480
714.207	0.0193414
714.285	0.0193713
714.363	0.0191025
714.442	0.0189677
714.520	0.0189934
714.598	0.0190289
714.676	0.0191943
714.754	0.0193176
714.832	0.0196412
714.910	0.0197889
714.988	0.0199094
715.067	0.0201859
715.145	0.0206119
715.223	0.0209058
715.301	0.0210523
715.379	0.0211163
715.457	0.0212580
715.535	0.0212942
715.613	0.0212518
715.692	0.0211337
715.770	0.0206978
715.848	0.0204967
715.926	0.0200479
716.004	0.0197366
716.082	0.0190450
716.160	0.0189362
716.238	0.0184515
716.317	0.0181113
716.395	0.0177396
716.473	0.0172399
716.551	0.0171358
716.629	0.0169530
716.707	0.0165274
716.785	0.0164501
716.863	0.0163824
716.942	0.0162183
717.020	0.0161407
717.098	0.0161177
717.176	0.0159637
717.254	0.0159524
717.332	0.0158949
717.410	0.0157415
717.488	0.0157937
717.567	0.0156966
717.645	0.0156299
717.723	0.0155714
717.801	0.0155416
717.879	0.0155933
717.957	0.0155720
718.035	0.0153967
718.113	0.0154496
718.192	0.0152169
718.270	0.0153264
718.348	0.0151402
718.426	0.0149464
718.504	0.0149069
718.582	0.0147337
718.660	0.0145031
718.738	0.0143393
718.817	0.0141338
718.895	0.0139724
718.973	0.0137035
719.051	0.0135529
719.129	0.0133231
719.207	0.0131036
719.285	0.0130418
719.363	0.0126543
719.442	0.0125938
719.520	0.0125441
719.598	0.0127205
719.676	0.0126634
719.754	0.0127298
719.832	0.0130592
719.910	0.0133403
719.988	0.0138025
720.067	0.0140961
720.145	0.0143271
720.223	0.0148236
720.301	0.0153539
720.379	0.0156242
720.457	0.0159308
720.535	0.0164945
720.613	0.0167287
720.692	0.0170736
720.770	0.0173969
720.848	0.0175440
720.926	0.0177585
721.004	0.0178766
721.082	0.0181821
721.160	0.0183926
721.238	0.0181705
721.317	0.0181901
721.395	0.0183592
721.473	0.0182283
721.551	0.0183210
721.629	0.0183215
721.707	0.0182411
721.785	0.0182457
721.863	0.0181790
721.942	0.0183002
722.020	0.0183659
722.098	0.0185039
722.176	0.0184488
722.254	0.0187254
722.332	0.0188647
722.410	0.0190815
722.488	0.0192704
722.567	0.0194724
722.645	0.0198643
722.723	0.0201576
722.801	0.0204017
722.879	0.0206918
722.957	0.0209151
723.035	0.0210429
723.113	0.0211526
723.192	0.0212579
723.270	0.0210469
723.348	0.0209773
723.426	0.0207011
723.504	0.0204584
723.582	0.0203426
723.660	0.0199694
723.738	0.0195382
723.817	0.0190817
723.895	0.0189027
723.973	0.0185084
724.051	0.0180295
724.129	0.0179371
724.207	0.0176279
724.285	0.0174024
724.363	0.0172395
724.442	0.0170808
724.520	0.0168506
724.598	0.0167368
724.676	0.0168349
724.754	0.0165147
724.832	0.0163660
724.910	0.0162118
724.988	0.0159041
725.067	0.0159182
725.145	0.0160278
725.223	0.0160757
725.301	0.0158465
725.379	0.0159908
725.457	0.0158116
725.535	0.0158102
725.613	0.0159157
725.692	0.0160733
725.770	0.0159582
725.848	0.0160284
725.926	0.0159129
726.004	0.0158568
726.082	0.0157970
726.160	0.0157776
726.238	0.0155629
726.317	0.0155083
726.395	0.0152754
726.473	0.0150709
726.551	0.0149254
726.629	0.0146004
726.707	0.0145166
726.785	0.0141945
726.863	0.0139422
726.942	0.0138490
727.020	0.0134814
727.098	0.0133128
727.176	0.0130768
727.254	0.0131223
727.332	0.0129967
727.410	0.0132169
727.488	0.0130567
727.567	0.0130991
727.645	0.0133533
727.723	0.0135017
727.801	0.0138495
727.879	0.0140741
727.957	0.0143030
728.035	0.0147557
728.113	0.0150909
728.192	0.0155811
728.270	0.0157399
728.348	0.0160289
728.426	0.0162737
728.504	0.0166035
728.582	0.0168300
728.660	0.0171226
728.738	0.0172209
728.817	0.0175172
728.895	0.0174702
728.973	0.0176399
729.051	0.0178441
729.129	0.0179863
729.207	0.0181904
729.285	0.0183528
729.363	0.0185199
729.442	0.0186171
729.520	0.0186844
729.598	0.0187413
729.676	0.0187074
729.754	0.0188773
729.832	0.0188544
729.910	0.0188920
729.988	0.0189137
730.067	0.0190095
730.145	0.0189954
730.223	0.0188466
730.301	0.0190326
730.379	0.0188342
730.457	0.0188765
730.535	0.0189112
730.613	0.0191341
730.692	0.0192626
730.770	0.0194977
730.848	0.0196193
730.926	0.0197511
731.004	0.0198365
731.082	0.0201142
731.160	0.0202447
731.238	0.0201881
731.317	0.0203244
731.395	0.0201550
731.473	0.0198787
731.551	0.0198611
731.629	0.0197215
731.707	0.0193329
731.785	0.0190596
731.863	0.0186578
731.942	0.0184529
732.020	0.0180386
732.098	0.0178216
732.176	0.0173869
732.254	0.0170977
732.332	0.0167789
732.410	0.0165475
732.488	0.0163340
732.567	0.0160580
732.645	0.0158657
732.723	0.0158537
732.801	0.0156883
732.879	0.0155134
732.957	0.0155640
733.035	0.0154822
733.113	0.0155067
733.192	0.0154974
733.270	0.0154494
733.348	0.0155634
733.426	0.0155523
733.504	0.0156225
733.582	0.0156126
733.660	0.0156382
733.738	0.0158081
733.817	0.0159457
733.895	0.0157078
733.973	0.0156609
734.051	0.0157184
734.129	0.0154920
734.207	0.0154398
734.285	0.0153874
734.363	0.0154392
734.442	0.0152319
734.520	0.0152354
734.598	0.0150665
734.676	0.0150167
734.754	0.0150237
734.832	0.0148715
734.910	0.0148239
734.988	0.0146429
735.067	0.0145608
735.145	0.0145169
735.223	0.0145631
735.301	0.0146098
735.379	0.0145293
735.457	0.0146928
735.535	0.0146817
735.613	0.0149972
735.692	0.0149718
735.770	0.0150989
735.848	0.0152139
735.926	0.0155486
736.004	0.0157554
736.082	0.0158676
736.160	0.0160951
736.238	0.0164503
736.317	0.0166879
736.395	0.0168404
736.473	0.0170605
736.551	0.0173335
736.629	0.0172845
736.707	0.0175707
736.785	0.0177344
736.863	0.0176607
736.942	0.0179572
737.020	0.0179080
737.098	0.0180165
737.176	0.0181418
737.254	0.0181902
737.332	0.0182565
737.410	0.0181753
737.488	0.0181089
737.567	0.0182185
737.645	0.0179826
737.723	0.0180127
737.801	0.0178824
737.879	0.0177653
737.957	0.0177360
738.035	0.0178341
738.113	0.0177963
738.192	0.0178757
738.270	0.0179734
738.348	0.0180060
738.426	0.0182381
738.504	0.0183375
738.582	0.0187218
738.660	0.0187036
738.738	0.0189679
738.817	0.0191859
738.895	0.0193589
738.973	0.0194693
739.051	0.0196545
739.129	0.0195956
739.207	0.0195075
739.285	0.0194591
739.363	0.0195981
739.442	0.0192840
739.520	0.0190176
739.598	0.0190525
739.676	0.0187099
739.754	0.0184929
739.832	0.0181715
739.910	0.0178901
739.988	0.0179446
740.067	0.0175890
740.145	0.0173130
740.223	0.0171470
740.301	0.0170382
740.379	0.0168013
740.457	0.0166318
740.535	0.0164149
740.613	0.0163055
740.692	0.0160818
740.770	0.0158370
740.848	0.0156297
740.926	0.0154897
741.004	0.0154109
741.082	0.0152149
741.160	0.0150194
741.238	0.0149669
741.317	0.0147838
741.395	0.0146284
741.473	0.0146648
741.551	0.0147080
741.629	0.0146182
741.707	0.0147128
741.785	0.0149437
741.863	0.0150694
741.942	0.0153623
742.020	0.0155226
742.098	0.0155911
742.176	0.0159241
742.254	0.0160514
742.332	0.0162059
742.410	0.0164988
742.488	0.0165289
742.567	0.0164973
742.645	0.0166895
742.723	0.0168560
742.801	0.0167623
742.879	0.0165517
742.957	0.0165199
743.035	0.0164432
743.113	0.0161555
743.192	0.0160812
743.270	0.0160090
743.348	0.0158618
743.426	0.0158543
743.504	0.0158383
743.582	0.0157925
743.660	0.0157143
743.738	0.0159441
743.817	0.0161891
743.895	0.0161657
743.973	0.0162347
744.051	0.0165285
744.129	0.0165197
744.207	0.0165688
744.285	0.0167716
744.363	0.0168776
744.442	0.0168838
744.520	0.0168960
744.598	0.0170656
744.676	0.0171423
744.754	0.0170279
744.832	0.0171780
744.910	0.0171321
744.988	0.0172089
745.067	0.0173788
745.145	0.0173536
745.223	0.0174785
745.301	0.0175340
745.379	0.0173773
745.457	0.0176125
745.535	0.0177016
745.613	0.0177988
745.692	0.0178215
745.770	0.0177559
745.848	0.0180013
745.926	0.0179508
746.004	0.0180408
746.082	0.0180364
746.160	0.0181244
746.238	0.0181012
746.317	0.0181107
746.395	0.0180790
746.473	0.0181841
746.551	0.0182333
746.629	0.0183112
746.707	0.0181419
746.785	0.0183400
746.863	0.0182733
746.942	0.0182613
747.020	0.0182240
747.098	0.0181676
747.176	0.0183581
747.254	0.0182351
747.332	0.0181642
747.410	0.0180836
747.488	0.0178327
747.567	0.0179353
747.645	0.0176730
747.723	0.0175557
747.801	0.0173229
747.879	0.0171127
747.957	0.0169997
748.035	0.0169177
748.113	0.0168361
748.192	0.0165338
748.270	0.0164802
748.348	0.0164079
748.426	0.0163234
748.504	0.0162632
748.582	0.0158207
748.660	0.0159286
748.738	0.0159732
748.817	0.0157700
748.895	0.0158005
748.973	0.0159478
749.051	0.0159943
749.129	0.0158893
749.207	0.0160823
749.285	0.0160065
749.363	0.0160542
749.442	0.0161532
749.520	0.0162418
749.598	0.0163055
749.676	0.0161977
749.754	0.0165994
749.832	0.0164705
749.910	0.0163774
749.988	0.0167226
750.067	0.0165942
750.145	0.0166733
750.223	0.0168320
750.301	0.0166152
750.379	0.0167407
750.457	0.0166057
750.535	0.0166325
750.613	0.0167020
750.692	0.0166496
750.770	0.0164762
750.848	0.0165675
750.926	0.0164923
751.004	0.0165054
751.082	0.0163250
751.160	0.0162239
751.238	0.0162716
751.317	0.0162070
751.395	0.0161988
751.473	0.0160756
751.551	0.0160113
751.629	0.0160986
751.707	0.0162868
751.785	0.0161967
751.863	0.0161308
751.942	0.0162012
752.020	0.0162218
752.098	0.0163032
752.176	0.0163470
752.254	0.0165312
752.332	0.0166864
752.410	0.0166467
752.488	0.0168304
752.567	0.0170582
752.645	0.0170808
752.723	0.0171436
752.801	0.0172433
752.879	0.0174313
752.957	0.0174870
753.035	0.0175552
753.113	0.0175935
753.192	0.0175758
753.270	0.0176420
753.348	0.0176860
753.426	0.0174868
753.504	0.0175850
753.582	0.0176476
753.660	0.0174872
753.738	0.0173755
753.817	0.0173600
753.895	0.0171449
753.973	0.0170920
754.051	0.0170998
754.129	0.0169419
754.207	0.0171072
754.285	0.0170831
754.363	0.0171056
754.442	0.0170313
754.520	0.0170337
754.598	0.0171876
754.676	0.0171668
754.754	0.0173982
754.832	0.0175285
754.910	0.0175270
754.988	0.0176342
755.067	0.0176207
755.145	0.0177482
755.223	0.0178754
755.301	0.0177719
755.379	0.0179751
755.457	0.0179346
755.535	0.0178799
755.613	0.0179829
755.692	0.0177457
755.770	0.0176424
755.848	0.0174925
755.926	0.0174957
756.004	0.0173303
756.082	0.0172292
756.160	0.0170238
756.238	0.0170125
756.317	0.0169534
756.395	0.0167955
756.473	0.0167713
756.551	0.0166977
756.629	0.0166739
756.707	0.0165500
756.785	0.0166676
756.863	0.0166216
756.942	0.0165341
757.020	0.0166384
757.098	0.0165704
757.176	0.0164796
757.254	0.0165123
757.332	0.0165277
757.410	0.0165288
757.488	0.0164438
757.567	0.0165728
757.645	0.0166597
757.723	0.0166299
757.801	0.0166081
757.879	0.0166705
757.957	0.0165948
758.035	0.0166528
758.113	0.0167541
758.192	0.0167103
758.270	0.0166862
758.348	0.0166634
758.426	0.0167870
758.504	0.0167528
758.582	0.0166093
758.660	0.0165935
758.738	0.0165033
758.817	0.0164335
758.895	0.0165638
758.973	0.0164098
759.051	0.0164134
759.129	0.0165163
759.207	0.0161572
759.285	0.0162946
759.363	0.0162312
759.442	0.0162322
759.520	0.0160503
759.598	0.0159742
759.676	0.0162859
759.754	0.0163468
759.832	0.0163174
759.910	0.0163307
759.988	0.0162686
760.067	0.0164851
760.145	0.0164996
760.223	0.0165684
760.301	0.0165388
760.379	0.0168334
760.457	0.0167509
760.535	0.0169054
760.613	0.0168731
760.692	0.0168813
760.770	0.0170747
760.848	0.0171265
760.926	0.0170500
761.004	0.0171067
761.082	0.0169820
761.160	0.0171085
761.238	0.0172096
761.317	0.0172007
761.395	0.0172701
761.473	0.0172353
761.551	0.0170468
761.629	0.0171667
761.707	0.0172282
761.785	0.0171082
761.863	0.0171962
761.942	0.0170181
762.020	0.0171544
762.098	0.0171692
762.176	0.0170879
762.254	0.0170824
762.332	0.0170732
762.410	0.0170782
762.488	0.0171560
762.567	0.0173229
762.645	0.0172901
762.723	0.0174033
762.801	0.0173497
762.879	0.0174066
762.957	0.0173929
763.035	0.0174030
763.113	0.0175230
763.192	0.0174772
763.270	0.0176169
763.348	0.0177407
763.426	0.0176519
763.504	0.0177065
763.582	0.0175883
763.660	0.0177773
763.738	0.0175381
763.817	0.0176608
763.895	0.0175973
763.973	0.0174866
764.051	0.0174214
764.129	0.0174313
764.207	0.0172432
764.285	0.0170815
764.363	0.0171784
764.442	0.0170064
764.520	0.0168888
764.598	0.0166259
764.676	0.0165722
764.754	0.0164194
764.832	0.0164458
764.910	0.0164985
764.988	0.0162421
765.067	0.0163602
765.145	0.0164840
765.223	0.0164809
765.301	0.0163258
765.379	0.0165173
765.457	0.0164591
765.535	0.0165956
765.613	0.0167085
765.692	0.0166688
765.770	0.0167815
765.848	0.0167776
765.926	0.0166786
766.004	0.0167767
766.082	0.0168223
766.160	0.0168490
766.238	0.0168877
766.317	0.0168649
766.395	0.0168185
766.473	0.0167731
766.551	0.0167864
766.629	0.0168352
766.707	0.0167940
766.785	0.0168334
766.863	0.0167268
766.942	0.0166332
767.020	0.0167247
767.098	0.0167026
767.176	0.0164992
767.254	0.0165513
767.332	0.0165006
767.410	0.0162269
767.488	0.0161364
767.567	0.0161188
767.645	0.0160437
767.723	0.0161039
767.801	0.0158529
767.879	0.0159865
767.957	0.0161630
768.035	0.0160211
768.113	0.0160630
768.192	0.0161852
768.270	0.0164093
768.348	0.0162617
768.426	0.0164098
768.504	0.0166815
768.582	0.0167680
768.660	0.0168877
768.738	0.0168697
768.817	0.0169259
768.895	0.0171086
768.973	0.0170631
769.051	0.0173319
769.129	0.0172626
769.207	0.0173249
769.285	0.0174185
769.363	0.0175411
769.442	0.0174429
769.520	0.0173952
769.598	0.0175211
769.676	0.0174535
769.754	0.0173481
769.832	0.0173235
769.910	0.0171935
769.988	0.0172124
770.067	0.0170215
770.145	0.0168953
770.223	0.0170647
770.301	0.0168432
770.379	0.0168591
770.457	0.0168427
770.535	0.0168174
770.613	0.0167774
770.692	0.0167273
770.770	0.0167893
770.848	0.0167650
770.926	0.0167686
771.004	0.0166576
771.082	0.0169312
771.160	0.0169443
771.238	0.0168935
771.317	0.0170684
771.395	0.0172318
771.473	0.0171293
771.551	0.0172987
771.629	0.0172854
771.707	0.0172887
771.785	0.0175144
771.863	0.0175649
771.942	0.0175034
772.020	0.0174583
772.098	0.0173829
772.176	0.0172421
772.254	0.0171960
772.332	0.0171708
772.410	0.0171523
772.488	0.0171561
772.567	0.0172186
772.645	0.0170723
772.723	0.0170187
772.801	0.0170290
772.879	0.0170464
772.957	0.0170727
773.035	0.0170086
773.113	0.0170720
773.192	0.0171154
773.270	0.0170927
773.348	0.0170008
773.426	0.0170966
773.504	0.0171058
773.582	0.0170186
773.660	0.0172741
773.738	0.0171161
773.817	0.0168884
773.895	0.0170375
773.973	0.0170203
774.051	0.0170255
774.129	0.0169800
774.207	0.0169811
774.285	0.0170052
774.363	0.0169976
774.442	0.0170027
774.520	0.0168909
774.598	0.0169518
774.676	0.0167881
774.754	0.0167468
774.832	0.0168264
774.910	0.0166966
774.988	0.0165138
775.067	0.0163998
775.145	0.0165293
775.223	0.0164221
775.301	0.0163492
775.379	0.0161683
775.457	0.0162630
775.535	0.0162342
775.613	0.0159994
775.692	0.0161685
775.770	0.0161462
775.848	0.0161393
775.926	0.0162233
776.004	0.0162407
776.082	0.0162045
776.160	0.0162466
776.238	0.0162360
776.317	0.0162408
776.395	0.0163345
776.473	0.0164915
776.551	0.0164333
776.629	0.0165613
776.707	0.0165300
776.785	0.0164959
776.863	0.0165350
776.942	0.0167691
777.020	0.0167379
777.098	0.0168519
777.176	0.0168789
777.254	0.0167924
777.332	0.0168356
777.410	0.0170263
777.488	0.0171013
777.567	0.0172533
777.645	0.0170122
777.723	0.0171201
777.801	0.0172884
777.879	0.0172517
777.957	0.0172469
778.035	0.0173312
778.113	0.0172718
778.192	0.0172554
778.270	0.0172449
778.348	0.0173243
778.426	0.0173411
778.504	0.0172018
778.582	0.0172005
778.660	0.0172538
778.738	0.0171422
778.817	0.0172141
778.895	0.0171046
778.973	0.0170963
779.051	0.0171413
779.129	0.0172900
779.207	0.0172100
779.285	0.0170405
779.363	0.0173507
779.442	0.0173934
779.520	0.0172982
779.598	0.0173079
779.676	0.0174966
779.754	0.0174596
779.832	0.0175220
779.910	0.0174728
779.988	0.0174701
780.067	0.0173289
780.145	0.0172697
780.223	0.0174677
780.301	0.0172498
780.379	0.0171616
780.457	0.0171655
780.535	0.0170439
780.613	0.0171481
780.692	0.0171737
780.770	0.0170465
780.848	0.0168875
780.926	0.0169981
781.004	0.0168525
781.082	0.0169634
781.160	0.0169787
781.238	0.0170357
781.317	0.0169302
781.395	0.0168441
781.473	0.0169264
781.551	0.0168842
781.629	0.0169354
781.707	0.0168183
781.785	0.0167879
781.863	0.0167229
781.942	0.0166607
782.020	0.0166196
782.098	0.0166370
782.176	0.0165816
782.254	0.0166589
782.332	0.0165932
782.410	0.0165124
782.488	0.0164285
782.567	0.0165912
782.645	0.0165259
782.723	0.0165345
782.801	0.0164216
782.879	0.0165185
782.957	0.0165278
783.035	0.0164606
783.113	0.0164396
783.192	0.0164430
783.270	0.0165630
783.348	0.0165711
783.426	0.0167193
783.504	0.0166348
783.582	0.0168414
783.660	0.0168607
783.738	0.0167547
783.817	0.0170061
783.895	0.0169823
783.973	0.0172585
784.051	0.0172124
784.129	0.0172099
784.207	0.0173588
784.285	0.0171751
784.363	0.0171825
784.442	0.0170609
784.520	0.0168280
784.598	0.0166737
784.676	0.0164901
784.754	0.0161607
784.832	0.0158815
784.910	0.0155336
784.988	0.0151702
785.067	0.0150822
785.145	0.0149752
785.223	0.0149752
785.301	0.0147211
785.379	0.0149814
785.457	0.0151125
785.535	0.0152330
785.613	0.0151537
785.692	0.0154114
785.770	0.0157670
785.848	0.0160584
785.926	0.0163416
786.004	0.0170383
786.082	0.0176979
786.160	0.0181628
786.238	0.0187138
786.317	0.0193952
786.395	0.0199083
786.473	0.0203899
786.551	0.0208132
786.629	0.0210876
786.707	0.0214732
786.785	0.0213356
786.863	0.0213994
786.942	0.0213677
787.020	0.0210487
787.098	0.0206165
787.176	0.0203902
787.254	0.0200175
787.332	0.0193822
787.410	0.0186977
787.488	0.0183649
787.567	0.0177586
787.645	0.0171891
787.723	0.0163212
787.801	0.0159338
787.879	0.0152976
787.957	0.0147858
788.035	0.0141177
788.113	0.0137577
788.192	0.0135539
788.270	0.0131480
788.348	0.0129027
788.426	0.0127757
788.504	0.0126212
788.582	0.0126062
788.660	0.0126616
788.738	0.0128197
788.817	0.0128819
788.895	0.0131412
788.973	0.0133311
789.051	0.0137978
789.129	0.0139481
789.207	0.0142953
789.285	0.0147416
789.363	0.0151007
789.442	0.0156049
789.520	0.0159023
789.598	0.0163059
789.676	0.0166806
789.754	0.0171056
789.832	0.0175591
789.910	0.0179323
789.988	0.0182376
790.067	0.0186450
790.145	0.0188427
790.223	0.0190804
790.301	0.0195483
790.379	0.0196049
790.457	0.0198577
790.535	0.0199279
790.613	0.0202147
790.692	0.0203458
790.770	0.0203350
790.848	0.0204692
790.926	0.0205540
791.004	0.0204295
791.082	0.0205283
791.160	0.0204506
791.238	0.0201093
791.317	0.0200652
791.395	0.0198634
791.473	0.0194073
791.551	0.0192988
791.629	0.0189967
791.707	0.0185645
791.785	0.0181198
791.863	0.0179311
791.942	0.0175733
792.020	0.0171612
792.098	0.0168043
792.176	0.0164266
792.254	0.0160724
792.332	0.0158545
792.410	0.0155214
792.488	0.0154300
792.567	0.0151381
792.645	0.0150845
792.723	0.0148476
792.801	0.0147618
792.879	0.0146217
792.957	0.0145855
793.035	0.0145188
793.113	0.0144164
793.192	0.0143880
793.270	0.0142143
793.348	0.0140501
793.426	0.0139946
793.504	0.0138056
793.582	0.0137086
793.660	0.0137598
793.738	0.0137365
793.817	0.0137774
793.895	0.0137443
793.973	0.0136922
794.051	0.0138895
794.129	0.0140546
794.207	0.0143734
794.285	0.0146015
794.363	0.0147410
794.442	0.0150713
794.520	0.0154615
794.598	0.0156999
794.676	0.0160635
794.754	0.0163479
794.832	0.0166483
794.910	0.0169434
794.988	0.0173154
795.067	0.0175170
795.145	0.0177792
795.223	0.0178430
795.301	0.0181600
795.379	0.0182822
795.457	0.0185934
795.535	0.0186493
795.613	0.0189116
795.692	0.0190653
795.770	0.0190830
795.848	0.0191314
795.926	0.0192821
796.004	0.0193621
796.082	0.0194837
796.160	0.0196520
796.238	0.0196333
796.317	0.0197179
796.395	0.0197533
796.473	0.0196901
796.551	0.0196548
796.629	0.0195499
796.707	0.0195817
796.785	0.0196255
796.863	0.0193855
796.942	0.0192937
797.020	0.0191559
797.098	0.0189958
797.176	0.0188306
797.254	0.0186053
797.332	0.0184499
797.410	0.0182013
797.488	0.0181329
797.567	0.0177502
797.645	0.0176168
797.723	0.0173627
797.801	0.0173023
797.879	0.0171411
797.957	0.0170395
798.035	0.0169912
798.113	0.0167249
798.192	0.0165489
798.270	0.0164612
798.348	0.0161639
798.426	0.0158343
798.504	0.0159309
798.582	0.0157260
798.660	0.0155658
798.738	0.0153349
798.817	0.0153072
798.895	0.0151697
798.973	0.0151514
799.051	0.0149890
799.129	0.0149990
799.207	0.0148754
799.285	0.0148181
799.363	0.0147913
799.442	0.0147823
799.520	0.0147648
799.598	0.0147854
799.676	0.0147808
799.754	0.0148347
799.832	0.0150263
799.910	0.0151077
799.988	0.0152219
800.067	0.0149277
800.145	0.0149864
800.223	0.0150753
800.301	0.0150780
800.379	0.0152868
800.457	0.0152268
800.535	0.0153050
800.613	0.0153341
800.692	0.0153363
800.770	0.0155957
800.848	0.0155865
800.926	0.0156980
801.004	0.0158491
801.082	0.0158681
801.160	0.0160300
801.238	0.0162241
801.317	0.0164089
801.395	0.0165705
801.473	0.0168257
801.551	0.0169930
801.629	0.0172104
801.707	0.0173905
801.785	0.0175918
801.863	0.0178735
801.942	0.0177837
802.020	0.0180814
802.098	0.0182664
802.176	0.0184743
802.254	0.0186594
802.332	0.0187692
802.410	0.0189397
802.488	0.0188907
802.567	0.0190862
802.645	0.0190918
802.723	0.0191659
802.801	0.0190092
802.879	0.0191720
802.957	0.0190230
803.035	0.0188906
803.113	0.0190199
803.192	0.0187917
803.270	0.0187713
803.348	0.0185562
803.426	0.0182893
803.504	0.0181873
803.582	0.0180193
803.660	0.0178214
803.738	0.0177180
803.817	0.0177177
803.895	0.0173576
803.973	0.0172500
804.051	0.0172845
804.129	0.0171249
804.207	0.0170587
804.285	0.0169562
804.363	0.0168970
804.442	0.0168589
804.520	0.0167750
804.598	0.0167930
804.676	0.0168176
804.754	0.0168048
804.832	0.0166102
804.910	0.0164945
804.988	0.0165093
805.067	0.0165696
805.145	0.0165057
805.223	0.0164138
805.301	0.0164543
805.379	0.0164050
805.457	0.0162946
805.535	0.0162887
805.613	0.0162520
805.692	0.0162328
805.770	0.0161823
805.848	0.0163493
805.926	0.0162160
806.004	0.0162653
806.082	0.0163238
806.160	0.0163113
806.238	0.0163434
806.317	0.0165237
806.395	0.0165392
806.473	0.0165870
806.551	0.0166100
806.629	0.0164591
806.707	0.0165974
806.785	0.0165930
806.863	0.0166956
806.942	0.0165710
807.020	0.0166029
807.098	0.0165453
807.176	0.0165351
807.254	0.0165166
807.332	0.0164126
807.410	0.0163648
807.488	0.0163091
807.567	0.0163168
807.645	0.0161700
807.723	0.0162995
807.801	0.0163120
807.879	0.0163551
807.957	0.0162270
808.035	0.0163018
808.113	0.0163230
808.192	0.0164201
808.270	0.0165229
808.348	0.0163834
808.426	0.0163335
808.504	0.0162329
808.582	0.0161280
808.660	0.0160893
808.738	0.0161927
808.817	0.0163208
808.895	0.0161990
808.973	0.0161842
809.051	0.0162307
809.129	0.0163665
809.207	0.0161926
809.285	0.0164952
809.363	0.0165525
809.442	0.0168316
809.520	0.0168748
809.598	0.0168092
809.676	0.0168776
809.754	0.0170398
809.832	0.0173602
809.910	0.0172097
809.988	0.0172450
810.067	0.0173394
810.145	0.0172775
810.223	0.0174012
810.301	0.0175322
810.379	0.0174969
810.457	0.0172950
810.535	0.0173247
810.613	0.0174789
810.692	0.0174874
810.770	0.0175151
810.848	0.0175771
810.926	0.0176559
811.004	0.0175914
811.082	0.0177035
811.160	0.0176498
811.238	0.0176862
811.317	0.0176242
811.395	0.0177643
811.473	0.0178139
811.551	0.0177040
811.629	0.0177368
811.707	0.0178054
811.785	0.0177724
811.863	0.0177998
811.942	0.0178253
812.020	0.0176920
812.098	0.0179326
812.176	0.0177942
812.254	0.0176953
812.332	0.0174902
812.410	0.0176473
812.488	0.0176429
812.567	0.0174910
812.645	0.0173418
812.723	0.0172113
812.801	0.0171539
812.879	0.0170141
812.957	0.0168689
813.035	0.0166223
813.113	0.0165305
813.192	0.0165089
813.270	0.0164359
813.348	0.0163233
813.426	0.0164059
813.504	0.0163334
813.582	0.0163634
813.660	0.0164167
813.738	0.0164698
813.817	0.0165790
813.895	0.0167864
813.973	0.0167535
814.051	0.0168844
814.129	0.0170828
814.207	0.0169456
814.285	0.0170139
814.363	0.0170342
814.442	0.0172015
814.520	0.0171229
814.598	0.0171105
814.676	0.0170878
814.754	0.0168990
814.832	0.0167211
814.910	0.0165111
814.988	0.0165076
815.067	0.0163024
815.145	0.0160423
815.223	0.0159705
815.301	0.0158808
815.379	0.0157800
815.457	0.0156705
815.535	0.0156058
815.613	0.0156039
815.692	0.0156573
815.770	0.0156120
815.848	0.0158116
815.926	0.0158922
816.004	0.0160492
816.082	0.0161449
816.160	0.0162708
816.238	0.0163290
816.317	0.0163409
816.395	0.0166143
816.473	0.0167283
816.551	0.0167748
816.629	0.0169415
816.707	0.0169884
816.785	0.0170440
816.863	0.0171130
816.942	0.0170982
817.020	0.0171239
817.098	0.0172253
817.176	0.0171566
817.254	0.0172450
817.332	0.0173563
817.410	0.0172943
817.488	0.0173340
817.567	0.0171954
817.645	0.0171301
817.723	0.0172926
817.801	0.0172374
817.879	0.0171169
817.957	0.0169987
818.035	0.0169940
818.113	0.0169436
818.192	0.0169008
818.270	0.0169701
818.348	0.0168461
818.426	0.0168550
818.504	0.0167525
818.582	0.0167553
818.660	0.0167918
818.738	0.0167235
818.817	0.0166447
818.895	0.0168886
818.973	0.0169516
819.051	0.0169521
819.129	0.0169505
819.207	0.0170986
819.285	0.0171648
819.363	0.0172311
819.442	0.0175159
819.520	0.0176253
819.598	0.0175487
819.676	0.0178003
819.754	0.0179739
819.832	0.0180918
819.910	0.0181432
819.988	0.0181238
820.067	0.0180824
820.145	0.0181323
820.223	0.0179665
820.301	0.0180772
820.379	0.0179474
820.457	0.0179032
820.535	0.0177111
820.613	0.0176437
820.692	0.0175267
820.770	0.0175067
820.848	0.0173059
820.926	0.0170908
821.004	0.0170602
821.082	0.0171617
821.160	0.0169201
821.238	0.0168197
821.317	0.0167812
821.395	0.0167577
821.473	0.0166660
821.551	0.0166837
821.629	0.0166697
821.707	0.0166675
821.785	0.0166747
821.863	0.0168009
821.942	0.0168034
822.020	0.0166236
822.098	0.0166806
822.176	0.0165895
822.254	0.0164944
822.332	0.0165835
822.410	0.0165442
822.488	0.0166114
822.567	0.0166899
822.645	0.0166708
822.723	0.0167159
822.801	0.0166136
822.879	0.0167226
822.957	0.0167110
823.035	0.0166578
823.113	0.0166251
823.192	0.0166356
823.270	0.0168230
823.348	0.0166344
823.426	0.0165532
823.504	0.0165016
823.582	0.0165657
823.660	0.0162498
823.738	0.0162098
823.817	0.0162203
823.895	0.0161438
823.973	0.0159012
824.051	0.0158113
824.129	0.0157057
824.207	0.0157920
824.285	0.0156962
824.363	0.0157380
824.442	0.0158354
824.520	0.0157367
824.598	0.0157565
824.676	0.0158301
824.754	0.0159668
824.832	0.0160087
824.910	0.0161893
824.988	0.0162814
825.067	0.0164694
825.145	0.0164806
825.223	0.0168031
825.301	0.0167479
825.379	0.0170803
825.457	0.0170155
825.535	0.0171199
825.613	0.0171503
825.692	0.0174342
825.770	0.0173145
825.848	0.0172691
825.926	0.0173481
826.004	0.0174843
826.082	0.0175475
826.160	0.0176023
826.238	0.0174137
826.317	0.0173941
826.395	0.0175529
826.473	0.0176096
826.551	0.0174625
826.629	0.0176631
826.707	0.0176405
826.785	0.0175955
826.863	0.0176833
826.942	0.0177160
827.020	0.0178482
827.098	0.0177128
827.176	0.0178455
827.254	0.0177634
827.332	0.0178884
827.410	0.0179456
827.488	0.0179790
827.567	0.0179242
827.645	0.0179442
827.723	0.0178886
827.801	0.0178373
827.879	0.0178898
827.957	0.0178568
828.035	0.0178043
828.113	0.0177676
828.192	0.0176929
828.270	0.0175900
828.348	0.0175414
828.426	0.0174486
828.504	0.0172717
828.582	0.0172569
828.660	0.0171436
828.738	0.0168577
828.817	0.0167085
828.895	0.0168349
828.973	0.0166998
829.051	0.0166427
829.129	0.0164257
829.207	0.0162992
829.285	0.0164034
829.363	0.0163351
829.442	0.0161824
829.520	0.0160084
829.598	0.0160640
829.676	0.0161113
829.754	0.0160100
829.832	0.0160652
829.910	0.0160503
829.988	0.0160665
830.067	0.0159910
830.145	0.0160355
830.223	0.0159957
830.301	0.0161313
830.379	0.0162078
830.457	0.0161292
830.535	0.0160600
830.613	0.0160970
830.692	0.0162213
830.770	0.0161562
830.848	0.0161935
830.926	0.0162223
831.004	0.0162644
831.082	0.0162479
831.160	0.0165672
831.238	0.0163860
831.317	0.0163662
831.395	0.0164963
831.473	0.0165816
831.551	0.0166306
831.629	0.0167074
831.707	0.0168707
831.785	0.0168503
831.863	0.0170538
831.942	0.0171025
832.020	0.0171807
832.098	0.0171721
832.176	0.0172366
832.254	0.0174749
832.332	0.0174856
832.410	0.0175307
832.488	0.0175440
832.567	0.0176488
832.645	0.0176938
832.723	0.0176395
832.801	0.0175874
832.879	0.0176053
832.957	0.0177443
833.035	0.0176615
833.113	0.0174889
833.192	0.0174489
833.270	0.0173752
833.348	0.0171561
833.426	0.0172055
833.504	0.0172375
833.582	0.0172363
833.660	0.0171162
833.738	0.0171423
833.817	0.0171350
833.895	0.0171059
833.973	0.0170403
834.051	0.0170078
834.129	0.0169676
834.207	0.0169089
834.285	0.0169772
834.363	0.0169268
834.442	0.0166960
834.520	0.0164918
834.598	0.0166194
834.676	0.0166676
834.754	0.0165977
834.832	0.0166619
834.910	0.0164411
834.988	0.0165087
835.067	0.0165302
835.145	0.0164831
835.223	0.0165090
835.301	0.0164570
835.379	0.0166511
835.457	0.0166463
835.535	0.0167181
835.613	0.0168364
835.692	0.0168344
835.770	0.0169627
835.848	0.0168460
835.926	0.0168634
836.004	0.0169492
836.082	0.0170522
836.160	0.0170142
836.238	0.0170284
836.317	0.0171671
836.395	0.0172737
836.473	0.0173636
836.551	0.0172234
836.629	0.0173127
836.707	0.0171536
836.785	0.0172877
836.863	0.0172915
836.942	0.0173022
837.020	0.0172479
837.098	0.0171984
837.176	0.0172178
837.254	0.0173010
837.332	0.0171075
837.410	0.0172198
837.488	0.0171661
837.567	0.0171007
837.645	0.0170389
837.723	0.0172579
837.801	0.0171516
837.879	0.0170679
837.957	0.0170120
838.035	0.0171723
838.113	0.0171906
838.192	0.0170894
838.270	0.0172752
838.348	0.0172038
838.426	0.0171352
838.504	0.0171671
838.582	0.0172857
838.660	0.0171043
838.738	0.0172421
838.817	0.0171476
838.895	0.0170393
838.973	0.0171150
839.051	0.0170080
839.129	0.0170049
839.207	0.0168392
839.285	0.0168526
839.363	0.0167838
839.442	0.0168436
839.520	0.0167357
839.598	0.0165689
839.676	0.0166502
839.754	0.0164565
839.832	0.0163365
839.910	0.0163179
839.988	0.0162543
840.067	0.0161893
840.145	0.0163560
840.223	0.0163124
840.301	0.0162436
840.379	0.0164757
840.457	0.0164404
840.535	0.0164729
840.613	0.0164159
840.692	0.0164931
840.770	0.0165161
840.848	0.0165759
840.926	0.0165778
841.004	0.0166312
841.082	0.0165432
841.160	0.0166441
841.238	0.0167287
841.317	0.0165923
841.395	0.0165907
841.473	0.0167099
841.551	0.0166907
841.629	0.0167271
841.707	0.0165694
841.785	0.0167350
841.863	0.0167771
841.942	0.0166455
842.020	0.0167255
842.098	0.0167409
842.176	0.0167551
842.254	0.0168568
842.332	0.0169147
842.410	0.0168348
842.488	0.0168079
842.567	0.0168668
842.645	0.0170482
842.723	0.0170385
842.801	0.0170187
842.879	0.0170883
842.957	0.0170072
843.035	0.0171829
843.113	0.0172796
843.192	0.0172849
843.270	0.0173495
843.348	0.0173614
843.426	0.0174455
843.504	0.0174332
843.582	0.0172812
843.660	0.0174780
843.738	0.0175694
843.817	0.0176376
843.895	0.0176071
843.973	0.0177706
844.051	0.0177348
844.129	0.0176727
844.207	0.0177419
844.285	0.0176959
844.363	0.0175062
844.442	0.0177241
844.520	0.0176026
844.598	0.0175878
844.676	0.0174310
844.754	0.0174309
844.832	0.0172984
844.910	0.0171907
844.988	0.0171286
845.067	0.0172552
845.145	0.0170736
845.223	0.0170049
845.301	0.0169717
845.379	0.0168861
845.457	0.0167868
845.535	0.0166631
845.613	0.0169056
845.692	0.0168015
845.770	0.0166477
845.848	0.0165359
845.926	0.0166480
846.004	0.0165807
846.082	0.0165235
846.160	0.0166476
846.238	0.0166142
846.317	0.0166970
846.395	0.0166380
846.473	0.0164991
846.551	0.0166384
846.629	0.0166148
846.707	0.0165265
846.785	0.0164425
846.863	0.0165468
846.942	0.0166711
847.020	0.0166475
847.098	0.0168211
847.176	0.0167623
847.254	0.0166845
847.332	0.0166448
847.410	0.0165320
847.488	0.0165295
847.567	0.0166859
847.645	0.0166835
847.723	0.0166302
847.801	0.0165034
847.879	0.0164550
847.957	0.0165543
848.035	0.0164245
848.113	0.0163637
848.192	0.0163923
848.270	0.0164184
848.348	0.0163657
848.426	0.0165267
848.504	0.0165902
848.582	0.0165103
848.660	0.0164957
848.738	0.0166162
848.817	0.0167332
848.895	0.0168687
848.973	0.0167998
849.051	0.0170345
849.129	0.0170648
849.207	0.0171578
849.285	0.0173293
849.363	0.0172349
849.442	0.0172765
849.520	0.0172923
849.598	0.0173454
849.676	0.0172363
849.754	0.0173136
849.832	0.0173854
849.910	0.0174530
849.988	0.0175130
850.067	0.0174632
850.145	0.0173915
850.223	0.0172792
850.301	0.0173170
850.379	0.0173841
850.457	0.0173452
850.535	0.0172664
850.613	0.0171745
850.692	0.0172118
850.770	0.0171627
850.848	0.0171642
850.926	0.0171174
851.004	0.0170583
851.082	0.0170485
851.160	0.0170603
851.238	0.0171379
851.317	0.0168580
851.395	0.0168738
851.473	0.0167811
851.551	0.0169350
851.629	0.0167007
851.707	0.0165387
851.785	0.0167586
851.863	0.0166721
851.942	0.0165692
852.020	0.0167436
852.098	0.0165893
852.176	0.0165836
852.254	0.0165023
852.332	0.0165043
852.410	0.0166103
852.488	0.0165977
852.567	0.0167130
852.645	0.0166576
852.723	0.0167577
852.801	0.0167203
852.879	0.0169106
852.957	0.0169197
853.035	0.0169639
853.113	0.0168928
853.192	0.0169303
853.270	0.0170050
853.348	0.0170850
853.426	0.0170836
853.504	0.0170319
853.582	0.0170144
853.660	0.0172095
853.738	0.0169988
853.817	0.0170800
853.895	0.0172127
853.973	0.0170704
854.051	0.0172454
854.129	0.0171146
854.207	0.0171728
854.285	0.0171254
854.363	0.0170635
854.442	0.0169332
854.520	0.0170902
854.598	0.0170479
854.676	0.0169040
854.754	0.0170206
854.832	0.0169777
854.910	0.0168003
854.988	0.0169109
855.067	0.0169110
855.145	0.0168865
855.223	0.0168898
855.301	0.0167646
855.379	0.0168536
855.457	0.0167412
855.535	0.0169316
855.613	0.0169286
855.692	0.0168737
855.770	0.0169205
855.848	0.0167772
855.926	0.0168163
856.004	0.0166891
856.082	0.0168434
856.160	0.0168218
856.238	0.0168761
856.317	0.0167472
856.395	0.0167112
856.473	0.0168296
856.551	0.0168196
856.629	0.0168764
856.707	0.0168818
856.785	0.0166969
856.863	0.0167963
856.942	0.0169535
857.020	0.0167496
857.098	0.0167755
857.176	0.0166627
857.254	0.0166539
857.332	0.0168543
857.410	0.0167496
857.488	0.0168429
857.567	0.0168880
857.645	0.0168100
857.723	0.0168786
857.801	0.0169850
857.879	0.0169873
857.957	0.0168501
858.035	0.0169650
858.113	0.0170590
858.192	0.0170826
858.270	0.0170081
858.348	0.0169032
858.426	0.0169065
858.504	0.0170023
858.582	0.0168143
858.660	0.0166962
858.738	0.0166884
858.817	0.0165573
858.895	0.0167678
858.973	0.0166758
859.051	0.0165034
859.129	0.0166022
859.207	0.0164825
859.285	0.0165428
859.363	0.0165985
859.442	0.0165126
859.520	0.0165775
859.598	0.0166955
859.676	0.0167601
859.754	0.0167974
859.832	0.0166764
859.910	0.0167702
859.988	0.0167852
860.067	0.0169601
860.145	0.0169594
860.223	0.0170905
860.301	0.0171586
860.379	0.0171193
860.457	0.0172743
860.535	0.0173139
860.613	0.0174171
860.692	0.0173443
860.770	0.0173206
860.848	0.0173349
860.926	0.0173119
861.004	0.0173426
861.082	0.0173590
861.160	0.0173740
861.238	0.0173228
861.317	0.0171719
861.395	0.0173512
861.473	0.0174285
861.551	0.0173114
861.629	0.0174245
861.707	0.0173646
861.785	0.0172470
861.863	0.0171814
861.942	0.0172560
862.020	0.0170839
862.098	0.0170055
862.176	0.0169862
862.254	0.0170132
862.332	0.0169631
862.410	0.0169499
862.488	0.0167138
862.567	0.0167110
862.645	0.0167810
862.723	0.0167813
862.801	0.0166624
862.879	0.0166599
862.957	0.0165022
863.035	0.0167670
863.113	0.0165890
863.192	0.0166309
863.270	0.0167223
863.348	0.0167541
863.426	0.0167714
863.504	0.0167962
863.582	0.0166895
863.660	0.0165669
863.738	0.0166941
863.817	0.0166920
863.895	0.0163522
863.973	0.0164232
864.051	0.0165652
864.129	0.0163489
864.207	0.0162769
864.285	0.0164980
864.363	0.0165334
864.442	0.0166336
864.520	0.0167004
864.598	0.0167599
864.676	0.0167702
864.754	0.0168542
864.832	0.0169141
864.910	0.0166965
864.988	0.0167742
865.067	0.0168204
865.145	0.0168703
865.223	0.0166822
865.301	0.0166261
865.379	0.0166369
865.457	0.0167287
865.535	0.0166248
865.613	0.0165936
865.692	0.0165043
865.770	0.0166541
865.848	0.0168573
865.926	0.0168195
866.004	0.0168430
866.082	0.0168859
866.160	0.0171696
866.238	0.0170039
866.317	0.0170580
866.395	0.0170737
866.473	0.0171460
866.551	0.0171060
866.629	0.0170950
866.707	0.0168961
866.785	0.0169405
866.863	0.0168360
866.942	0.0168848
867.020	0.0169605
867.098	0.0169799
867.176	0.0170058
867.254	0.0170437
867.332	0.0170379
867.410	0.0171344
867.488	0.0171799
867.567	0.0171733
867.645	0.0173164
867.723	0.0173857
867.801	0.0172798
867.879	0.0173652
867.957	0.0173919
868.035	0.0173504
868.113	0.0174203
868.192	0.0173419
868.270	0.0172850
868.348	0.0172074
868.426	0.0170383
868.504	0.0171358
868.582	0.0169738
868.660	0.0170609
868.738	0.0169621
868.817	0.0170451
868.895	0.0169027
868.973	0.0168307
869.051	0.0168684
869.129	0.0167878
869.207	0.0167693
869.285	0.0167844
869.363	0.0167796
869.442	0.0169102
869.520	0.0167435
869.598	0.0168468
869.676	0.0168000
869.754	0.0167892
869.832	0.0166544
869.910	0.0168195
869.988	0.0168172
870.067	0.0167681
870.145	0.0168047
870.223	0.0168832
870.301	0.0167704
870.379	0.0167024
870.457	0.0168475
870.535	0.0169712
870.613	0.0169391
870.692	0.0169589
870.770	0.0169238
870.848	0.0169975
870.926	0.0171540
871.004	0.0170625
871.082	0.0171384
871.160	0.0172237
871.238	0.0170404
871.317	0.0169996
871.395	0.0169249
871.473	0.0169461
871.551	0.0169030
871.629	0.0169112
871.707	0.0168783
871.785	0.0167505
871.863	0.0169726
871.942	0.0169488
872.020	0.0168819
872.098	0.0167737
872.176	0.0168738
872.254	0.0169389
872.332	0.0168373
872.410	0.0168318
872.488	0.0168674
872.567	0.0167667
872.645	0.0168162
872.723	0.0168629
872.801	0.0167740
872.879	0.0168944
872.957	0.0167824
873.035	0.0168978
873.113	0.0168936
873.192	0.0167924
873.270	0.0166737
873.348	0.0167192
873.426	0.0166805
873.504	0.0166573
873.582	0.0168501
873.660	0.0167653
873.738	0.0167523
873.817	0.0166081
873.895	0.0165582
873.973	0.0166574
874.051	0.0167253
874.129	0.0167517
874.207	0.0166674
874.285	0.0165952
874.363	0.0165868
874.442	0.0166198
874.520	0.0167451
874.598	0.0168323
874.676	0.0168671
874.754	0.0168046
874.832	0.0167381
874.910	0.0168262
874.988	0.0168961
875.067	0.0168349
875.145	0.0168939
875.223	0.0168898
875.301	0.0168530
875.379	0.0167490
875.457	0.0167687
875.535	0.0168542
875.613	0.0168544
875.692	0.0169067
875.770	0.0168977
875.848	0.0167886
875.926	0.0166592
876.004	0.0168720
876.082	0.0170381
876.160	0.0169932
876.238	0.0170119
876.317	0.0170719
876.395	0.0170857
876.473	0.0171980
876.551	0.0172861
876.629	0.0172713
876.707	0.0172564
876.785	0.0174989
876.863	0.0174956
876.942	0.0174153
877.020	0.0173831
877.098	0.0174147
877.176	0.0175105
877.254	0.0173007
877.332	0.0172298
877.410	0.0172852
877.488	0.0172408
877.567	0.0172241
877.645	0.0170474
877.723	0.0170982
877.801	0.0171622
877.879	0.0170012
877.957	0.0169236
878.035	0.0168867
878.113	0.0167700
878.192	0.0167843
878.270	0.0169612
878.348	0.0167386
878.426	0.0167042
878.504	0.0166614
878.582	0.0164542
878.660	0.0163856
878.738	0.0166093
878.817	0.0166093
878.895	0.0166419
878.973	0.0168312
879.051	0.0168172
879.129	0.0170667
879.207	0.0172865
879.285	0.0174477
879.363	0.0176406
879.442	0.0178429
879.520	0.0178487
879.598	0.0177514
879.676	0.0175185
879.754	0.0171533
879.832	0.0167474
879.910	0.0163673
879.988	0.0157185
880.067	0.0154202
880.145	0.0149061
880.223	0.0144519
880.301	0.0141497
880.379	0.0140215
880.457	0.0141870
880.535	0.0144561
880.613	0.0148370
880.692	0.0154058
880.770	0.0161934
880.848	0.0168031
880.926	0.0173785
881.004	0.0181542
881.082	0.0186445
881.160	0.0192365
881.238	0.0195425
881.317	0.0198779
881.395	0.0201419
881.473	0.0202408
881.551	0.0202552
881.629	0.0200732
881.707	0.0198428
881.785	0.0196732
881.863	0.0193171
881.942	0.0189484
882.020	0.0185033
882.098	0.0178629
882.176	0.0172803
882.254	0.0168274
882.332	0.0162328
882.410	0.0156136
882.488	0.0152298
882.567	0.0148394
882.645	0.0143118
882.723	0.0139869
882.801	0.0137187
882.879	0.0136401
882.957	0.0134956
883.035	0.0134252
883.113	0.0135078
883.192	0.0136240
883.270	0.0139062
883.348	0.0138928
883.426	0.0142427
883.504	0.0146859
883.582	0.0151690
883.660	0.0154736
883.738	0.0158780
883.817	0.0164338
883.895	0.0168876
883.973	0.0174543
884.051	0.0177079
884.129	0.0182598
884.207	0.0186434
884.285	0.0190677
884.363	0.0192921
884.442	0.0194658
884.520	0.0194737
884.598	0.0194583
884.676	0.0195581
884.754	0.0195168
884.832	0.0191963
884.910	0.0190033
884.988	0.0187936
885.067	0.0185623
885.145	0.0183581
885.223	0.0181461
885.301	0.0180278
885.379	0.0177599
885.457	0.0176546
885.535	0.0175977
885.613	0.0172356
885.692	0.0171095
885.770	0.0171056
885.848	0.0168404
885.926	0.0167390
886.004	0.0165777
886.082	0.0166463
886.160	0.0165413
886.238	0.0164682
886.317	0.0166129
886.395	0.0165859
886.473	0.0167377
886.551	0.0168021
886.629	0.0167577
886.707	0.0168729
886.785	0.0168329
886.863	0.0167991
886.942	0.0168351
887.020	0.0165429
887.098	0.0165139
887.176	0.0165411
887.254	0.0163875
887.332	0.0164180
887.410	0.0161040
887.488	0.0160361
887.567	0.0159972
887.645	0.0161909
887.723	0.0159474
887.801	0.0159477
887.879	0.0161436
887.957	0.0160468
888.035	0.0161536
888.113	0.0162941
888.192	0.0162389
888.270	0.0161723
888.348	0.0164204
888.426	0.0164664
888.504	0.0164112
888.582	0.0166344
888.660	0.0167568
888.738	0.0167714
888.817	0.0168042
888.895	0.0168655
888.973	0.0169679
889.051	0.0170789
889.129	0.0171762
889.207	0.0172516
889.285	0.0173094
889.363	0.0172734
889.442	0.0173657
889.520	0.0171537
889.598	0.0173656
889.676	0.0173866
889.754	0.0172425
889.832	0.0173753
889.910	0.0173751
889.988	0.0174419
890.067	0.0174062
890.145	0.0175533
890.223	0.0173672
890.301	0.0173689
890.379	0.0173357
890.457	0.0173090
890.535	0.0171820
890.613	0.0171138
890.692	0.0169041
890.770	0.0168658
890.848	0.0165958
890.926	0.0164639
891.004	0.0165651
891.082	0.0163161
891.160	0.0161960
891.238	0.0162123
891.317	0.0160081
891.395	0.0161256
891.473	0.0159589
891.551	0.0159850
891.629	0.0161887
891.707	0.0161598
891.785	0.0162447
891.863	0.0163728
891.942	0.0163769
892.020	0.0164828
892.098	0.0163280
892.176	0.0165518
892.254	0.0167886
892.332	0.0169625
892.410	0.0169271
892.488	0.0168188
892.567	0.0169792
892.645	0.0168041
892.723	0.0168441
892.801	0.0169134
892.879	0.0170211
892.957	0.0168798
893.035	0.0168793
893.113	0.0168105
893.192	0.0169128
893.270	0.0168990
893.348	0.0168896
893.426	0.0170030
893.504	0.0171220
893.582	0.0170655
893.660	0.0170831
893.738	0.0172845
893.817	0.0173909
893.895	0.0175300
893.973	0.0174771
894.051	0.0176384
894.129	0.0176568
894.207	0.0177818
894.285	0.0178777
894.363	0.0178163
894.442	0.0180009
894.520	0.0180885
894.598	0.0179853
894.676	0.0181361
894.754	0.0180779
894.832	0.0179942
894.910	0.0178359
894.988	0.0178711
895.067	0.0176494
895.145	0.0176655
895.223	0.0175256
895.301	0.0172164
895.379	0.0172603
895.457	0.0169558
895.535	0.0169061
895.613	0.0165509
895.692	0.0165126
895.770	0.0165087
895.848	0.0165778
895.926	0.0163842
896.004	0.0163390
896.082	0.0162666
896.160	0.0163668
896.238	0.0163544
896.317	0.0164747
896.395	0.0164324
896.473	0.0164672
896.551	0.0165792
896.629	0.0165253
896.707	0.0166862
896.785	0.0165874
896.863	0.0166166
896.942	0.0165926
897.020	0.0167657
897.098	0.0166136
897.176	0.0167098
897.254	0.0166405
897.332	0.0167143
897.410	0.0166747
897.488	0.0166019
897.567	0.0166502
897.645	0.0165422
897.723	0.0165513
897.801	0.0163883
897.879	0.0161818
897.957	0.0161572
898.035	0.0158134
898.113	0.0158173
898.192	0.0158475
898.270	0.0156915
898.348	0.0155574
898.426	0.0154671
898.504	0.0153007
898.582	0.0154084
898.660	0.0152746
898.738	0.0152919
898.817	0.0153149
898.895	0.0153440
898.973	0.0153935
899.051	0.0154516
899.129	0.0157723
899.207	0.0157238
899.285	0.0159622
899.363	0.0163002
899.442	0.0164746
899.520	0.0169083
899.598	0.0172681
899.676	0.0174559
899.754	0.0178202
899.832	0.0180653
899.910	0.0182681
899.988	0.0185001
900.067	0.0186752
900.145	0.0188815
900.223	0.0188303
900.301	0.0188142
900.379	0.0189032
900.457	0.0188618
900.535	0.0188406
900.613	0.0186494
900.692	0.0186108
900.770	0.0184433
900.848	0.0183270
900.926	0.0181403
901.004	0.0179662
901.082	0.0180385
901.160	0.0179580
901.238	0.0177164
901.317	0.0175648
901.395	0.0174238
901.473	0.0172740
901.551	0.0172950
901.629	0.0171430
901.707	0.0170782
901.785	0.0171646
901.863	0.0172162
901.942	0.0171719
902.020	0.0170509
902.098	0.0171053
902.176	0.0169270
902.254	0.0169179
902.332	0.0170022
902.410	0.0168429
902.488	0.0166448
902.567	0.0166978
902.645	0.0166489
902.723	0.0165536
902.801	0.0164291
902.879	0.0164816
902.957	0.0163605
903.035	0.0164764
903.113	0.0163155
903.192	0.0163606
903.270	0.0162643
903.348	0.0161624
903.426	0.0161572
903.504	0.0162322
903.582	0.0161384
903.660	0.0162541
903.738	0.0162425
903.817	0.0163295
903.895	0.0162691
903.973	0.0163116
904.051	0.0163105
904.129	0.0163478
904.207	0.0163764
904.285	0.0164197
904.363	0.0164171
904.442	0.0166084
904.520	0.0166156
904.598	0.0165061
904.676	0.0164935
904.754	0.0165130
904.832	0.0164713
904.910	0.0165936
904.988	0.0165338
905.067	0.0165385
905.145	0.0164727
905.223	0.0164668
905.301	0.0165010
905.379	0.0164901
905.457	0.0165750
905.535	0.0165342
905.613	0.0164582
905.692	0.0164503
905.770	0.0164849
905.848	0.0166167
905.926	0.0164425
906.004	0.0165219
906.082	0.0165757
906.160	0.0165150
906.238	0.0165523
906.317	0.0167852
906.395	0.0168065
906.473	0.0168767
906.551	0.0170040
906.629	0.0167577
906.707	0.0169359
906.785	0.0171246
906.863	0.0171871
906.942	0.0172345
907.020	0.0173322
907.098	0.0173244
907.176	0.0173030
907.254	0.0173036
907.332	0.0173446
907.410	0.0172683
907.488	0.0172342
907.567	0.0171864
907.645	0.0172365
907.723	0.0172092
907.801	0.0171241
907.879	0.0172079
907.957	0.0172553
908.035	0.0171167
908.113	0.0171654
908.192	0.0172519
908.270	0.0173375
908.348	0.0172831
908.426	0.0174791
908.504	0.0174472
908.582	0.0175855
908.660	0.0175428
908.738	0.0174368
908.817	0.0174766
908.895	0.0175973
908.973	0.0174657
909.051	0.0175439
909.129	0.0174874
909.207	0.0174471
909.285	0.0173141
909.363	0.0172411
909.442	0.0172821
909.520	0.0171360
909.598	0.0171535
909.676	0.0170792
909.754	0.0170803
909.832	0.0169658
909.910	0.0171444
909.988	0.0171442
910.067	0.0170353
910.145	0.0169913
910.223	0.0169557
910.301	0.0169887
910.379	0.0169595
910.457	0.0168956
910.535	0.0169019
910.613	0.0168344
910.692	0.0167749
910.770	0.0166396
910.848	0.0165988
910.926	0.0166000
911.004	0.0164782
911.082	0.0165791
911.160	0.0165354
911.238	0.0164685
911.317	0.0165166
911.395	0.0165088
911.473	0.0164960
911.551	0.0167053
911.629	0.0167598
911.707	0.0167170
911.785	0.0167522
911.863	0.0166958
911.942	0.0168382
912.020	0.0170268
912.098	0.0168158
912.176	0.0168967
912.254	0.0169141
912.332	0.0169891
912.410	0.0170044
912.488	0.0169920
912.567	0.0169340
912.645	0.0169199
912.723	0.0169825
912.801	0.0170218
912.879	0.0170354
912.957	0.0169001
913.035	0.0169955
913.113	0.0171078
913.192	0.0168788
913.270	0.0168903
913.348	0.0168642
913.426	0.0168243
913.504	0.0167711
913.582	0.0167005
913.660	0.0165782
913.738	0.0166241
913.817	0.0164760
913.895	0.0165133
913.973	0.0164766
914.051	0.0164606
914.129	0.0164526
914.207	0.0163312
914.285	0.0164026
914.363	0.0164923
914.442	0.0165358
914.520	0.0164665
914.598	0.0164718
914.676	0.0165240
914.754	0.0165046
914.832	0.0163976
914.910	0.0164895
914.988	0.0163575
915.067	0.0163927
915.145	0.0164677
915.223	0.0165430
915.301	0.0165670
915.379	0.0165514
915.457	0.0164975
915.535	0.0165076
915.613	0.0166196
915.692	0.0166299
915.770	0.0166425
915.848	0.0166550
915.926	0.0166973
916.004	0.0165055
916.082	0.0167034
916.160	0.0167591
916.238	0.0167109
916.317	0.0166594
916.395	0.0167500
916.473	0.0169032
916.551	0.0169054
916.629	0.0171283
916.707	0.0171224
916.785	0.0173379
916.863	0.0173302
916.942	0.0176540
917.020	0.0178144
917.098	0.0178516
917.176	0.0181754
917.254	0.0182842
917.332	0.0182924
917.410	0.0182887
917.488	0.0183350
917.567	0.0185606
917.645	0.0182733
917.723	0.0185294
917.801	0.0185428
917.879	0.0182597
917.957	0.0182511
918.035	0.0182899
918.113	0.0179681
918.192	0.0177927
918.270	0.0177750
918.348	0.0177150
918.426	0.0175816
918.504	0.0176150
918.582	0.0172861
918.660	0.0172612
918.738	0.0172163
918.817	0.0169350
918.895	0.0168792
918.973	0.0169624
919.051	0.0168411
919.129	0.0167220
919.207	0.0166813
919.285	0.0165192
919.363	0.0164759
919.442	0.0164551
919.520	0.0163699
919.598	0.0164663
919.676	0.0162450
919.754	0.0162681
919.832	0.0162753
919.910	0.0161452
