05/26/2022	00:38:34	Ver.	4.1	UNKNOWN
Optical Delay	599.988409	Delta X		0.078125	Sweeps	1	Scan Rate	0/0
Coordinates	Axis 1	NaN	Axis 2	NaN	Axis 3	NaN	Axis 4	NaN	Axis 5	NaN	Axis 6	0.000000
TX Power	0.000000	RX Power	0.000000

599.988	0.0165229
600.067	0.0165478
600.145	0.0163834
600.223	0.0165743
600.301	0.0165585
600.379	0.0165936
600.457	0.0165590
600.535	0.0164767
600.613	0.0164627
600.692	0.0165436
600.770	0.0165839
600.848	0.0166631
600.926	0.0165885
601.004	0.0165589
601.082	0.0163645
601.160	0.0164231
601.238	0.0164986
601.317	0.0164208
601.395	0.0163710
601.473	0.0164772
601.551	0.0164877
601.629	0.0165536
601.707	0.0165241
601.785	0.0165697
601.863	0.0164790
601.942	0.0164828
602.020	0.0164114
602.098	0.0166123
602.176	0.0165295
602.254	0.0166741
602.332	0.0164585
602.410	0.0165068
602.488	0.0165832
602.567	0.0165773
602.645	0.0166010
602.723	0.0167344
602.801	0.0165050
602.879	0.0165551
602.957	0.0166132
603.035	0.0164678
603.113	0.0164624
603.192	0.0164587
603.270	0.0164639
603.348	0.0164502
603.426	0.0165135
603.504	0.0165703
603.582	0.0164916
603.660	0.0166735
603.738	0.0165622
603.817	0.0166719
603.895	0.0165990
603.973	0.0165169
604.051	0.0165802
604.129	0.0164971
604.207	0.0165250
604.285	0.0165449
604.363	0.0166292
604.442	0.0165863
604.520	0.0164961
604.598	0.0165324
604.676	0.0166373
604.754	0.0166659
604.832	0.0165330
604.910	0.0166144
604.988	0.0165944
605.067	0.0165424
605.145	0.0165286
605.223	0.0164459
605.301	0.0164673
605.379	0.0165862
605.457	0.0165790
605.535	0.0165489
605.613	0.0167008
605.692	0.0163722
605.770	0.0166540
605.848	0.0166370
605.926	0.0165371
606.004	0.0165656
606.082	0.0164328
606.160	0.0165726
606.238	0.0165812
606.317	0.0165199
606.395	0.0165289
606.473	0.0165274
606.551	0.0164767
606.629	0.0165889
606.707	0.0165096
606.785	0.0165875
606.863	0.0165450
606.942	0.0164896
607.020	0.0164188
607.098	0.0165889
607.176	0.0165711
607.254	0.0166454
607.332	0.0164489
607.410	0.0165079
607.488	0.0165313
607.567	0.0166657
607.645	0.0164705
607.723	0.0164616
607.801	0.0165159
607.879	0.0165945
607.957	0.0165279
608.035	0.0166032
608.113	0.0166017
608.192	0.0166163
608.270	0.0165545
608.348	0.0166543
608.426	0.0167101
608.504	0.0164929
608.582	0.0164806
608.660	0.0165762
608.738	0.0167310
608.817	0.0165572
608.895	0.0165794
608.973	0.0165590
609.051	0.0164600
609.129	0.0164201
609.207	0.0164695
609.285	0.0164756
609.363	0.0164935
609.442	0.0163956
609.520	0.0164902
609.598	0.0165069
609.676	0.0165201
609.754	0.0165823
609.832	0.0165015
609.910	0.0166732
609.988	0.0164732
610.067	0.0164692
610.145	0.0166978
610.223	0.0166280
610.301	0.0164992
610.379	0.0164935
610.457	0.0166235
610.535	0.0165433
610.613	0.0165540
610.692	0.0166748
610.770	0.0167674
610.848	0.0164706
610.926	0.0167245
611.004	0.0167231
611.082	0.0165477
611.160	0.0167292
611.238	0.0166029
611.317	0.0166083
611.395	0.0166357
611.473	0.0166160
611.551	0.0166128
611.629	0.0166766
611.707	0.0164883
611.785	0.0164345
611.863	0.0165451
611.942	0.0165045
612.020	0.0164753
612.098	0.0163033
612.176	0.0163632
612.254	0.0164361
612.332	0.0165002
612.410	0.0164297
612.488	0.0163883
612.567	0.0164407
612.645	0.0164360
612.723	0.0163760
612.801	0.0163377
612.879	0.0164233
612.957	0.0164116
613.035	0.0164088
613.113	0.0163108
613.192	0.0165099
613.270	0.0164850
613.348	0.0165065
613.426	0.0166328
613.504	0.0166093
613.582	0.0165490
613.660	0.0166160
613.738	0.0165564
613.817	0.0165881
613.895	0.0165648
613.973	0.0164812
614.051	0.0166507
614.129	0.0165636
614.207	0.0165810
614.285	0.0164756
614.363	0.0166250
614.442	0.0164941
614.520	0.0165051
614.598	0.0166593
614.676	0.0166068
614.754	0.0165944
614.832	0.0164952
614.910	0.0166356
614.988	0.0165108
615.067	0.0165758
615.145	0.0165941
615.223	0.0165327
615.301	0.0166287
615.379	0.0165561
615.457	0.0164202
615.535	0.0165292
615.613	0.0166455
615.692	0.0165289
615.770	0.0165715
615.848	0.0164736
615.926	0.0165460
616.004	0.0164530
616.082	0.0164380
616.160	0.0164570
616.238	0.0164200
616.317	0.0165348
616.395	0.0165862
616.473	0.0165047
616.551	0.0164844
616.629	0.0166367
616.707	0.0165494
616.785	0.0165892
616.863	0.0163686
616.942	0.0164209
617.020	0.0166322
617.098	0.0165585
617.176	0.0163979
617.254	0.0165354
617.332	0.0165085
617.410	0.0165462
617.488	0.0165311
617.567	0.0166424
617.645	0.0166241
617.723	0.0164455
617.801	0.0164011
617.879	0.0165089
617.957	0.0166035
618.035	0.0164960
618.113	0.0165559
618.192	0.0163949
618.270	0.0164256
618.348	0.0165906
618.426	0.0165027
618.504	0.0165887
618.582	0.0166003
618.660	0.0164850
618.738	0.0164356
618.817	0.0163594
618.895	0.0166181
618.973	0.0165292
619.051	0.0164517
619.129	0.0167081
619.207	0.0165453
619.285	0.0164782
619.363	0.0165728
619.442	0.0165417
619.520	0.0164438
619.598	0.0165862
619.676	0.0166263
619.754	0.0165850
619.832	0.0165031
619.910	0.0165524
619.988	0.0165930
620.067	0.0165993
620.145	0.0166206
620.223	0.0165854
620.301	0.0165809
620.379	0.0164938
620.457	0.0165643
620.535	0.0164736
620.613	0.0166006
620.692	0.0166576
620.770	0.0166525
620.848	0.0164549
620.926	0.0165430
621.004	0.0164649
621.082	0.0166130
621.160	0.0165625
621.238	0.0165832
621.317	0.0165290
621.395	0.0164397
621.473	0.0166129
621.551	0.0165578
621.629	0.0166000
621.707	0.0166026
621.785	0.0165872
621.863	0.0166456
621.942	0.0167042
622.020	0.0165043
622.098	0.0165510
622.176	0.0165060
622.254	0.0165061
622.332	0.0164716
622.410	0.0165267
622.488	0.0165874
622.567	0.0165614
622.645	0.0165009
622.723	0.0165045
622.801	0.0165842
622.879	0.0164861
622.957	0.0165776
623.035	0.0166010
623.113	0.0165599
623.192	0.0165257
623.270	0.0165937
623.348	0.0165609
623.426	0.0165810
623.504	0.0165165
623.582	0.0164725
623.660	0.0165247
623.738	0.0165404
623.817	0.0165348
623.895	0.0165151
623.973	0.0164658
624.051	0.0166051
624.129	0.0166417
624.207	0.0165814
624.285	0.0164117
624.363	0.0164603
624.442	0.0165385
624.520	0.0165728
624.598	0.0165235
624.676	0.0165930
624.754	0.0165060
624.832	0.0165468
624.910	0.0165884
624.988	0.0164949
625.067	0.0165248
625.145	0.0166164
625.223	0.0165203
625.301	0.0163969
625.379	0.0165250
625.457	0.0165951
625.535	0.0165377
625.613	0.0164500
625.692	0.0165371
625.770	0.0164695
625.848	0.0165514
625.926	0.0165879
626.004	0.0166366
626.082	0.0167109
626.160	0.0165395
626.238	0.0165629
626.317	0.0166591
626.395	0.0163777
626.473	0.0163630
626.551	0.0164658
626.629	0.0166175
626.707	0.0165657
626.785	0.0164761
626.863	0.0164968
626.942	0.0164732
627.020	0.0165640
627.098	0.0164915
627.176	0.0163833
627.254	0.0165290
627.332	0.0166018
627.410	0.0164212
627.488	0.0164600
627.567	0.0164579
627.645	0.0165707
627.723	0.0166583
627.801	0.0165109
627.879	0.0165292
627.957	0.0166722
628.035	0.0165801
628.113	0.0166248
628.192	0.0164040
628.270	0.0164754
628.348	0.0166196
628.426	0.0165745
628.504	0.0164199
628.582	0.0166101
628.660	0.0165290
628.738	0.0166347
628.817	0.0165743
628.895	0.0165572
628.973	0.0165500
629.051	0.0164352
629.129	0.0167089
629.207	0.0166581
629.285	0.0165337
629.363	0.0164896
629.442	0.0165003
629.520	0.0165158
629.598	0.0165432
629.676	0.0164312
629.754	0.0165356
629.832	0.0165157
629.910	0.0164740
629.988	0.0165237
630.067	0.0165704
630.145	0.0165826
630.223	0.0164706
630.301	0.0165385
630.379	0.0165030
630.457	0.0165870
630.535	0.0165583
630.613	0.0166093
630.692	0.0165388
630.770	0.0164034
630.848	0.0164149
630.926	0.0166249
631.004	0.0165884
631.082	0.0165047
631.160	0.0165753
631.238	0.0165187
631.317	0.0166284
631.395	0.0165646
631.473	0.0164720
631.551	0.0164962
631.629	0.0166492
631.707	0.0165860
631.785	0.0165038
631.863	0.0165440
631.942	0.0165867
632.020	0.0165445
632.098	0.0164192
632.176	0.0164883
632.254	0.0165186
632.332	0.0165858
632.410	0.0166940
632.488	0.0164928
632.567	0.0167001
632.645	0.0166073
632.723	0.0166388
632.801	0.0165166
632.879	0.0163527
632.957	0.0164476
633.035	0.0164852
633.113	0.0165137
633.192	0.0164983
633.270	0.0165485
633.348	0.0165467
633.426	0.0164611
633.504	0.0166712
633.582	0.0164552
633.660	0.0166301
633.738	0.0164938
633.817	0.0165079
633.895	0.0165917
633.973	0.0166145
634.051	0.0166508
634.129	0.0164299
634.207	0.0164796
634.285	0.0164606
634.363	0.0166632
634.442	0.0165903
634.520	0.0164542
634.598	0.0164238
634.676	0.0165717
634.754	0.0165010
634.832	0.0164684
634.910	0.0164287
634.988	0.0164420
635.067	0.0165233
635.145	0.0165692
635.223	0.0165187
635.301	0.0165201
635.379	0.0165607
635.457	0.0164561
635.535	0.0164369
635.613	0.0165054
635.692	0.0164575
635.770	0.0164532
635.848	0.0164661
635.926	0.0164740
636.004	0.0165836
636.082	0.0165578
636.160	0.0165523
636.238	0.0164601
636.317	0.0164875
636.395	0.0164407
636.473	0.0165447
636.551	0.0164846
636.629	0.0165048
636.707	0.0165431
636.785	0.0165148
636.863	0.0165526
636.942	0.0165342
637.020	0.0165321
637.098	0.0165774
637.176	0.0164375
637.254	0.0165184
637.332	0.0166260
637.410	0.0165710
637.488	0.0165524
637.567	0.0164762
637.645	0.0165736
637.723	0.0165056
637.801	0.0165136
637.879	0.0166312
637.957	0.0165484
638.035	0.0166460
638.113	0.0165893
638.192	0.0165690
638.270	0.0164822
638.348	0.0166145
638.426	0.0165833
638.504	0.0165308
638.582	0.0164946
638.660	0.0165249
638.738	0.0165826
638.817	0.0164856
638.895	0.0165474
638.973	0.0164743
639.051	0.0164851
639.129	0.0165408
639.207	0.0165802
639.285	0.0164559
639.363	0.0164367
639.442	0.0165046
639.520	0.0165788
639.598	0.0165949
639.676	0.0164143
639.754	0.0164455
639.832	0.0165891
639.910	0.0164758
639.988	0.0165913
640.067	0.0164776
640.145	0.0166014
640.223	0.0165586
640.301	0.0165540
640.379	0.0164084
640.457	0.0166091
640.535	0.0164201
640.613	0.0164141
640.692	0.0165757
640.770	0.0165404
640.848	0.0164722
640.926	0.0164664
641.004	0.0166158
641.082	0.0165466
641.160	0.0165041
641.238	0.0165285
641.317	0.0165129
641.395	0.0164197
641.473	0.0164194
641.551	0.0165298
641.629	0.0166540
641.707	0.0164117
641.785	0.0163726
641.863	0.0163801
641.942	0.0163783
642.020	0.0165688
642.098	0.0165916
642.176	0.0165462
642.254	0.0165659
642.332	0.0165205
642.410	0.0163520
642.488	0.0165132
642.567	0.0165137
642.645	0.0165157
642.723	0.0164282
642.801	0.0164776
642.879	0.0165046
642.957	0.0165923
643.035	0.0164476
643.113	0.0163883
643.192	0.0164771
643.270	0.0165563
643.348	0.0165338
643.426	0.0164915
643.504	0.0165865
643.582	0.0164071
643.660	0.0163969
643.738	0.0166029
643.817	0.0165288
643.895	0.0165321
643.973	0.0165848
644.051	0.0165639
644.129	0.0166243
644.207	0.0165600
644.285	0.0164439
644.363	0.0165602
644.442	0.0164675
644.520	0.0164809
644.598	0.0165448
644.676	0.0164665
644.754	0.0164708
644.832	0.0164687
644.910	0.0165858
644.988	0.0165708
645.067	0.0164724
645.145	0.0165075
645.223	0.0165582
645.301	0.0165063
645.379	0.0165564
645.457	0.0164024
645.535	0.0166185
645.613	0.0166921
645.692	0.0164612
645.770	0.0165197
645.848	0.0165462
645.926	0.0165188
646.004	0.0165397
646.082	0.0164882
646.160	0.0165961
646.238	0.0165298
646.317	0.0165257
646.395	0.0164861
646.473	0.0164736
646.551	0.0164622
646.629	0.0164436
646.707	0.0164172
646.785	0.0166026
646.863	0.0164680
646.942	0.0164503
647.020	0.0163058
647.098	0.0163615
647.176	0.0166370
647.254	0.0165913
647.332	0.0165607
647.410	0.0164878
647.488	0.0164743
647.567	0.0165556
647.645	0.0164774
647.723	0.0165393
647.801	0.0164354
647.879	0.0164112
647.957	0.0164663
648.035	0.0163578
648.113	0.0166747
648.192	0.0165942
648.270	0.0165415
648.348	0.0166185
648.426	0.0165314
648.504	0.0165324
648.582	0.0165120
648.660	0.0164528
648.738	0.0165354
648.817	0.0164824
648.895	0.0163790
648.973	0.0164250
649.051	0.0164088
649.129	0.0165402
649.207	0.0164465
649.285	0.0164165
649.363	0.0164642
649.442	0.0164484
649.520	0.0164857
649.598	0.0165157
649.676	0.0165348
649.754	0.0165935
649.832	0.0164895
649.910	0.0164754
649.988	0.0165699
650.067	0.0165025
650.145	0.0165445
650.223	0.0164169
650.301	0.0166105
650.379	0.0166029
650.457	0.0163715
650.535	0.0164423
650.613	0.0165850
650.692	0.0165591
650.770	0.0164974
650.848	0.0167067
650.926	0.0164262
651.004	0.0164771
651.082	0.0165057
651.160	0.0164812
651.238	0.0165099
651.317	0.0164742
651.395	0.0164786
651.473	0.0165187
651.551	0.0165045
651.629	0.0163769
651.707	0.0165806
651.785	0.0164574
651.863	0.0166965
651.942	0.0165141
652.020	0.0164803
652.098	0.0165084
652.176	0.0166379
652.254	0.0164159
652.332	0.0166721
652.410	0.0165810
652.488	0.0164986
652.567	0.0165319
652.645	0.0166545
652.723	0.0164354
652.801	0.0164838
652.879	0.0165154
652.957	0.0165254
653.035	0.0165227
653.113	0.0164594
653.192	0.0165569
653.270	0.0165018
653.348	0.0165223
653.426	0.0165345
653.504	0.0166091
653.582	0.0166766
653.660	0.0165084
653.738	0.0165681
653.817	0.0164397
653.895	0.0165396
653.973	0.0165619
654.051	0.0164910
654.129	0.0163791
654.207	0.0164307
654.285	0.0165285
654.363	0.0165919
654.442	0.0164669
654.520	0.0166030
654.598	0.0164352
654.676	0.0164345
654.754	0.0165532
654.832	0.0164942
654.910	0.0166000
654.988	0.0163848
655.067	0.0165114
655.145	0.0165931
655.223	0.0164783
655.301	0.0164503
655.379	0.0163878
655.457	0.0165529
655.535	0.0164509
655.613	0.0165624
655.692	0.0166639
655.770	0.0164370
655.848	0.0164841
655.926	0.0165104
656.004	0.0166299
656.082	0.0165776
656.160	0.0164727
656.238	0.0166200
656.317	0.0165974
656.395	0.0165055
656.473	0.0165189
656.551	0.0165059
656.629	0.0165491
656.707	0.0165356
656.785	0.0164433
656.863	0.0164587
656.942	0.0165495
657.020	0.0165784
657.098	0.0165446
657.176	0.0165763
657.254	0.0165231
657.332	0.0164902
657.410	0.0165610
657.488	0.0166029
657.567	0.0165937
657.645	0.0165085
657.723	0.0165565
657.801	0.0164667
657.879	0.0164381
657.957	0.0165096
658.035	0.0165879
658.113	0.0164658
658.192	0.0166383
658.270	0.0165085
658.348	0.0164851
658.426	0.0165896
658.504	0.0164418
658.582	0.0164338
658.660	0.0165760
658.738	0.0165076
658.817	0.0165243
658.895	0.0164565
658.973	0.0165894
659.051	0.0165039
659.129	0.0165808
659.207	0.0164798
659.285	0.0165641
659.363	0.0164960
659.442	0.0164945
659.520	0.0165289
659.598	0.0165325
659.676	0.0165921
659.754	0.0166539
659.832	0.0165367
659.910	0.0163953
659.988	0.0164204
660.067	0.0164718
660.145	0.0164154
660.223	0.0164441
660.301	0.0166345
660.379	0.0165914
660.457	0.0165361
660.535	0.0165156
660.613	0.0164030
660.692	0.0164703
660.770	0.0165329
660.848	0.0166891
660.926	0.0164320
661.004	0.0166342
661.082	0.0163929
661.160	0.0164285
661.238	0.0164993
661.317	0.0165737
661.395	0.0165237
661.473	0.0164395
661.551	0.0164436
661.629	0.0165485
661.707	0.0165527
661.785	0.0163515
661.863	0.0163913
661.942	0.0165565
662.020	0.0165604
662.098	0.0166174
662.176	0.0165476
662.254	0.0164497
662.332	0.0164819
662.410	0.0164850
662.488	0.0165625
662.567	0.0165112
662.645	0.0164417
662.723	0.0165519
662.801	0.0165578
662.879	0.0164970
662.957	0.0163595
663.035	0.0165444
663.113	0.0164699
663.192	0.0165083
663.270	0.0163940
663.348	0.0164655
663.426	0.0165154
663.504	0.0163545
663.582	0.0166104
663.660	0.0164987
663.738	0.0165375
663.817	0.0164021
663.895	0.0163818
663.973	0.0165443
664.051	0.0164815
664.129	0.0165095
664.207	0.0165334
664.285	0.0166644
664.363	0.0165057
664.442	0.0163943
664.520	0.0164716
664.598	0.0164053
664.676	0.0164297
664.754	0.0164209
664.832	0.0164482
664.910	0.0164737
664.988	0.0165604
665.067	0.0165182
665.145	0.0165049
665.223	0.0165746
665.301	0.0164371
665.379	0.0164569
665.457	0.0164838
665.535	0.0165079
665.613	0.0164913
665.692	0.0165911
665.770	0.0164675
665.848	0.0164784
665.926	0.0166701
666.004	0.0165682
666.082	0.0165694
666.160	0.0165337
666.238	0.0164474
666.317	0.0165581
666.395	0.0164623
666.473	0.0163953
666.551	0.0164510
666.629	0.0164536
666.707	0.0165642
666.785	0.0164333
666.863	0.0163567
666.942	0.0163733
667.020	0.0164378
667.098	0.0166785
667.176	0.0166570
667.254	0.0164281
667.332	0.0164256
667.410	0.0164224
667.488	0.0163412
667.567	0.0165054
667.645	0.0163230
667.723	0.0165173
667.801	0.0165115
667.879	0.0165214
667.957	0.0163793
668.035	0.0165009
668.113	0.0163824
668.192	0.0165533
668.270	0.0167348
668.348	0.0166174
668.426	0.0164239
668.504	0.0165054
668.582	0.0164685
668.660	0.0165103
668.738	0.0165341
668.817	0.0165540
668.895	0.0165059
668.973	0.0164201
669.051	0.0164059
669.129	0.0165172
669.207	0.0165115
669.285	0.0164653
669.363	0.0165662
669.442	0.0164935
669.520	0.0166529
669.598	0.0165390
669.676	0.0164611
669.754	0.0165755
669.832	0.0164836
669.910	0.0165192
669.988	0.0165519
670.067	0.0166148
670.145	0.0165256
670.223	0.0164570
670.301	0.0165881
670.379	0.0164658
670.457	0.0166851
670.535	0.0165389
670.613	0.0164916
670.692	0.0165051
670.770	0.0166337
670.848	0.0164756
670.926	0.0164716
671.004	0.0165390
671.082	0.0164468
671.160	0.0164935
671.238	0.0165815
671.317	0.0164858
671.395	0.0165128
671.473	0.0164626
671.551	0.0167028
671.629	0.0166229
671.707	0.0165480
671.785	0.0165539
671.863	0.0164923
671.942	0.0165067
672.020	0.0164130
672.098	0.0164783
672.176	0.0166393
672.254	0.0164368
672.332	0.0163805
672.410	0.0165961
672.488	0.0164966
672.567	0.0165910
672.645	0.0164102
672.723	0.0163785
672.801	0.0165781
672.879	0.0165691
672.957	0.0165855
673.035	0.0164890
673.113	0.0164268
673.192	0.0165248
673.270	0.0165358
673.348	0.0165839
673.426	0.0165035
673.504	0.0165076
673.582	0.0166431
673.660	0.0165617
673.738	0.0165073
673.817	0.0165524
673.895	0.0164988
673.973	0.0165421
674.051	0.0165404
674.129	0.0164725
674.207	0.0164529
674.285	0.0163662
674.363	0.0164351
674.442	0.0164908
674.520	0.0164811
674.598	0.0166161
674.676	0.0165295
674.754	0.0165437
674.832	0.0164847
674.910	0.0164814
674.988	0.0164736
675.067	0.0164990
675.145	0.0165749
675.223	0.0166510
675.301	0.0165039
675.379	0.0165344
675.457	0.0165370
675.535	0.0165898
675.613	0.0164911
675.692	0.0165318
675.770	0.0164778
675.848	0.0165538
675.926	0.0164656
676.004	0.0165507
676.082	0.0164577
676.160	0.0165488
676.238	0.0166249
676.317	0.0164613
676.395	0.0164724
676.473	0.0163205
676.551	0.0164680
676.629	0.0165144
676.707	0.0164323
676.785	0.0165128
676.863	0.0164259
676.942	0.0164310
677.020	0.0165567
677.098	0.0165205
677.176	0.0165186
677.254	0.0163754
677.332	0.0164475
677.410	0.0165888
677.488	0.0165789
677.567	0.0165083
677.645	0.0166249
677.723	0.0166949
677.801	0.0165422
677.879	0.0165437
677.957	0.0164616
678.035	0.0165434
678.113	0.0165451
678.192	0.0165331
678.270	0.0164967
678.348	0.0166253
678.426	0.0165536
678.504	0.0164473
678.582	0.0165559
678.660	0.0166151
678.738	0.0165286
678.817	0.0165521
678.895	0.0164905
678.973	0.0164672
679.051	0.0165653
679.129	0.0165941
679.207	0.0164335
679.285	0.0164900
679.363	0.0165417
679.442	0.0164377
679.520	0.0164202
679.598	0.0165565
679.676	0.0165783
679.754	0.0163177
679.832	0.0164861
679.910	0.0164570
679.988	0.0163672
680.067	0.0163558
680.145	0.0164878
680.223	0.0164677
680.301	0.0163799
680.379	0.0163523
680.457	0.0163612
680.535	0.0165569
680.613	0.0166267
680.692	0.0165388
680.770	0.0165457
680.848	0.0165060
680.926	0.0165255
681.004	0.0164851
681.082	0.0166245
681.160	0.0165652
681.238	0.0165588
681.317	0.0166113
681.395	0.0165223
681.473	0.0164427
681.551	0.0164427
681.629	0.0165455
681.707	0.0165448
681.785	0.0164470
681.863	0.0165934
681.942	0.0164988
682.020	0.0165238
682.098	0.0165508
682.176	0.0165622
682.254	0.0165804
682.332	0.0163995
682.410	0.0164060
682.488	0.0164326
682.567	0.0164514
682.645	0.0164835
682.723	0.0164877
682.801	0.0165231
682.879	0.0165351
682.957	0.0165061
683.035	0.0164020
683.113	0.0165124
683.192	0.0164691
683.270	0.0165373
683.348	0.0164987
683.426	0.0164938
683.504	0.0166006
683.582	0.0163965
683.660	0.0164619
683.738	0.0165148
683.817	0.0164302
683.895	0.0166325
683.973	0.0165456
684.051	0.0163216
684.129	0.0165281
684.207	0.0164568
684.285	0.0164444
684.363	0.0165865
684.442	0.0166891
684.520	0.0166488
684.598	0.0164961
684.676	0.0166274
684.754	0.0166933
684.832	0.0167366
684.910	0.0166061
684.988	0.0164761
685.067	0.0166035
685.145	0.0165627
685.223	0.0164799
685.301	0.0166441
685.379	0.0164611
685.457	0.0164577
685.535	0.0165359
685.613	0.0165042
685.692	0.0165398
685.770	0.0164361
685.848	0.0165178
685.926	0.0162711
686.004	0.0165350
686.082	0.0163997
686.160	0.0164230
686.238	0.0164375
686.317	0.0164740
686.395	0.0163859
686.473	0.0163181
686.551	0.0162754
686.629	0.0161689
686.707	0.0161279
686.785	0.0158694
686.863	0.0158663
686.942	0.0157182
687.020	0.0157858
687.098	0.0157844
687.176	0.0160926
687.254	0.0166257
687.332	0.0173540
687.410	0.0182997
687.488	0.0193260
687.567	0.0204918
687.645	0.0214458
687.723	0.0221941
687.801	0.0225470
687.879	0.0225229
687.957	0.0218347
688.035	0.0205625
688.113	0.0188311
688.192	0.0166682
688.270	0.0142912
688.348	0.0117406
688.426	0.00939087
688.504	0.00710022
688.582	0.00487526
688.660	0.00343857
688.738	0.00232437
688.817	0.00202354
688.895	0.00240532
688.973	0.00335533
689.051	0.00483459
689.129	0.00677948
689.207	0.00939140
689.285	0.0119526
689.363	0.0148322
689.442	0.0177577
689.520	0.0205983
689.598	0.0231553
689.676	0.0255475
689.754	0.0280394
689.832	0.0302145
689.910	0.0317221
689.988	0.0333758
690.067	0.0344312
690.145	0.0350211
690.223	0.0354707
690.301	0.0353667
690.379	0.0347057
690.457	0.0336115
690.535	0.0323891
690.613	0.0305445
690.692	0.0284409
690.770	0.0259869
690.848	0.0234419
690.926	0.0207558
691.004	0.0177776
691.082	0.0149694
691.160	0.0120611
691.238	0.00926094
691.317	0.00643036
691.395	0.00393333
691.473	0.00176819
691.551	-0.000285034
691.629	-0.00187767
691.707	-0.00336739
691.785	-0.00408440
691.863	-0.00445610
691.942	-0.00421730
692.020	-0.00378052
692.098	-0.00274330
692.176	-0.00117920
692.254	0.000385590
692.332	0.00246040
692.410	0.00466408
692.488	0.00715302
692.567	0.00942612
692.645	0.0118378
692.723	0.0142174
692.801	0.0164485
692.879	0.0184985
692.957	0.0203250
693.035	0.0219627
693.113	0.0231123
693.192	0.0241435
693.270	0.0248183
693.348	0.0255431
693.426	0.0260487
693.504	0.0261826
693.582	0.0263211
693.660	0.0263852
693.738	0.0262957
693.817	0.0264958
693.895	0.0264797
693.973	0.0264268
694.051	0.0264061
694.129	0.0262860
694.207	0.0262755
694.285	0.0261031
694.363	0.0259608
694.442	0.0256046
694.520	0.0251975
694.598	0.0247317
694.676	0.0239974
694.754	0.0235503
694.832	0.0226041
694.910	0.0220190
694.988	0.0210518
695.067	0.0202900
695.145	0.0193680
695.223	0.0182318
695.301	0.0174944
695.379	0.0167290
695.457	0.0159274
695.535	0.0151517
695.613	0.0144019
695.692	0.0138964
695.770	0.0132761
695.848	0.0126926
695.926	0.0124244
696.004	0.0117448
696.082	0.0113399
696.160	0.0111321
696.238	0.0108907
696.317	0.0106104
696.395	0.0104632
696.473	0.0102776
696.551	0.0100038
696.629	0.00991226
696.707	0.00972748
696.785	0.00961838
696.863	0.00984558
696.942	0.00975906
697.020	0.00970886
697.098	0.00985878
697.176	0.00996918
697.254	0.0102843
697.332	0.0106522
697.410	0.0109704
697.488	0.0112897
697.567	0.0116685
697.645	0.0122828
697.723	0.0128656
697.801	0.0133813
697.879	0.0139394
697.957	0.0144985
698.035	0.0151083
698.113	0.0155788
698.192	0.0162408
698.270	0.0168008
698.348	0.0171634
698.426	0.0176405
698.504	0.0180192
698.582	0.0183817
698.660	0.0185621
698.738	0.0188772
698.817	0.0189816
698.895	0.0190806
698.973	0.0191991
699.051	0.0191013
699.129	0.0191466
699.207	0.0191770
699.285	0.0189820
699.363	0.0191085
699.442	0.0190165
699.520	0.0189531
699.598	0.0187899
699.676	0.0187467
699.754	0.0188184
699.832	0.0188751
699.910	0.0190220
699.988	0.0191246
700.067	0.0192413
700.145	0.0194511
700.223	0.0198183
700.301	0.0200520
700.379	0.0204165
700.457	0.0207611
700.535	0.0209413
700.613	0.0211997
700.692	0.0213973
700.770	0.0216463
700.848	0.0214300
700.926	0.0212698
701.004	0.0211672
701.082	0.0207623
701.160	0.0205312
701.238	0.0200079
701.317	0.0195743
701.395	0.0189487
701.473	0.0183245
701.551	0.0176452
701.629	0.0170827
701.707	0.0165575
701.785	0.0160851
701.863	0.0156104
701.942	0.0150417
702.020	0.0147566
702.098	0.0142702
702.176	0.0139978
702.254	0.0137263
702.332	0.0135314
702.410	0.0134415
702.488	0.0133480
702.567	0.0133733
702.645	0.0134003
702.723	0.0137154
702.801	0.0139753
702.879	0.0140509
702.957	0.0142287
703.035	0.0143162
703.113	0.0146558
703.192	0.0147742
703.270	0.0149764
703.348	0.0149001
703.426	0.0150275
703.504	0.0149237
703.582	0.0150076
703.660	0.0146880
703.738	0.0146439
703.817	0.0143927
703.895	0.0138953
703.973	0.0138780
704.051	0.0135212
704.129	0.0133273
704.207	0.0132052
704.285	0.0130667
704.363	0.0131979
704.442	0.0133128
704.520	0.0134811
704.598	0.0134905
704.676	0.0137001
704.754	0.0141154
704.832	0.0141835
704.910	0.0145171
704.988	0.0148569
705.067	0.0153841
705.145	0.0154731
705.223	0.0158511
705.301	0.0162988
705.379	0.0165508
705.457	0.0169543
705.535	0.0170528
705.613	0.0170265
705.692	0.0173269
705.770	0.0173735
705.848	0.0175909
705.926	0.0177319
706.004	0.0177062
706.082	0.0177323
706.160	0.0178398
706.238	0.0179788
706.317	0.0179883
706.395	0.0179586
706.473	0.0178876
706.551	0.0180207
706.629	0.0180901
706.707	0.0180811
706.785	0.0179768
706.863	0.0180653
706.942	0.0182680
707.020	0.0183782
707.098	0.0183850
707.176	0.0184445
707.254	0.0185716
707.332	0.0188284
707.410	0.0189278
707.488	0.0189684
707.567	0.0190700
707.645	0.0192544
707.723	0.0194481
707.801	0.0195587
707.879	0.0196532
707.957	0.0196541
708.035	0.0198910
708.113	0.0197337
708.192	0.0195288
708.270	0.0192920
708.348	0.0192066
708.426	0.0189116
708.504	0.0186900
708.582	0.0183769
708.660	0.0180986
708.738	0.0176461
708.817	0.0171013
708.895	0.0168848
708.973	0.0166333
709.051	0.0161855
709.129	0.0159908
709.207	0.0157349
709.285	0.0154600
709.363	0.0152148
709.442	0.0150349
709.520	0.0150090
709.598	0.0149831
709.676	0.0148293
709.754	0.0148898
709.832	0.0150069
709.910	0.0150037
709.988	0.0150452
710.067	0.0148791
710.145	0.0150866
710.223	0.0151036
710.301	0.0152409
710.379	0.0153555
710.457	0.0152188
710.535	0.0153884
710.613	0.0153203
710.692	0.0152811
710.770	0.0153583
710.848	0.0152328
710.926	0.0152307
711.004	0.0153193
711.082	0.0152102
711.160	0.0151485
711.238	0.0150758
711.317	0.0149130
711.395	0.0146752
711.473	0.0145684
711.551	0.0144085
711.629	0.0146308
711.707	0.0143646
711.785	0.0143844
711.863	0.0143093
711.942	0.0141558
712.020	0.0143957
712.098	0.0144434
712.176	0.0145567
712.254	0.0147319
712.332	0.0147296
712.410	0.0150514
712.488	0.0152763
712.567	0.0155317
712.645	0.0156137
712.723	0.0159115
712.801	0.0161589
712.879	0.0161911
712.957	0.0164059
713.035	0.0166337
713.113	0.0167626
713.192	0.0169083
713.270	0.0170839
713.348	0.0172710
713.426	0.0172929
713.504	0.0175200
713.582	0.0176252
713.660	0.0176477
713.738	0.0174852
713.817	0.0177222
713.895	0.0175103
713.973	0.0174856
714.051	0.0174054
714.129	0.0173077
714.207	0.0172485
714.285	0.0172148
714.363	0.0170965
714.442	0.0170905
714.520	0.0170611
714.598	0.0171591
714.676	0.0171150
714.754	0.0172681
714.832	0.0174718
714.910	0.0175232
714.988	0.0176105
715.067	0.0178296
715.145	0.0180778
715.223	0.0181860
715.301	0.0184752
715.379	0.0185378
715.457	0.0185565
715.535	0.0187370
715.613	0.0188431
715.692	0.0186594
715.770	0.0187459
715.848	0.0187613
715.926	0.0184600
716.004	0.0182807
716.082	0.0180559
716.160	0.0179254
716.238	0.0177068
716.317	0.0175574
716.395	0.0173006
716.473	0.0171539
716.551	0.0170831
716.629	0.0169428
716.707	0.0167744
716.785	0.0166161
716.863	0.0165613
716.942	0.0165797
717.020	0.0164858
717.098	0.0164200
717.176	0.0164327
717.254	0.0164026
717.332	0.0163633
717.410	0.0163276
717.488	0.0161221
717.567	0.0161836
717.645	0.0161443
717.723	0.0160986
717.801	0.0160650
717.879	0.0159354
717.957	0.0160598
718.035	0.0160139
718.113	0.0160155
718.192	0.0157072
718.270	0.0158421
718.348	0.0158126
718.426	0.0157347
718.504	0.0156549
718.582	0.0157442
718.660	0.0155451
718.738	0.0152988
718.817	0.0153765
718.895	0.0152214
718.973	0.0151027
719.051	0.0148355
719.129	0.0148092
719.207	0.0147623
719.285	0.0145708
719.363	0.0143381
719.442	0.0143774
719.520	0.0143091
719.598	0.0141540
719.676	0.0141230
719.754	0.0142361
719.832	0.0143269
719.910	0.0143269
719.988	0.0146158
720.067	0.0148081
720.145	0.0148920
720.223	0.0151255
720.301	0.0154270
720.379	0.0155247
720.457	0.0157531
720.535	0.0159745
720.613	0.0161885
720.692	0.0165128
720.770	0.0165314
720.848	0.0165347
720.926	0.0167245
721.004	0.0168099
721.082	0.0169432
721.160	0.0169442
721.238	0.0168404
721.317	0.0169163
721.395	0.0168538
721.473	0.0168235
721.551	0.0167277
721.629	0.0169713
721.707	0.0169714
721.785	0.0168801
721.863	0.0168462
721.942	0.0168150
722.020	0.0170142
722.098	0.0170113
722.176	0.0170338
722.254	0.0171232
722.332	0.0171399
722.410	0.0174034
722.488	0.0174895
722.567	0.0176046
722.645	0.0177140
722.723	0.0177892
722.801	0.0179473
722.879	0.0180621
722.957	0.0182661
723.035	0.0183962
723.113	0.0185199
723.192	0.0185415
723.270	0.0185854
723.348	0.0184347
723.426	0.0184754
723.504	0.0183351
723.582	0.0181792
723.660	0.0179840
723.738	0.0179505
723.817	0.0177568
723.895	0.0176097
723.973	0.0174660
724.051	0.0172044
724.129	0.0170547
724.207	0.0169135
724.285	0.0169695
724.363	0.0169290
724.442	0.0167786
724.520	0.0167414
724.598	0.0166466
724.676	0.0165662
724.754	0.0164781
724.832	0.0165147
724.910	0.0164947
724.988	0.0163647
725.067	0.0163035
725.145	0.0162993
725.223	0.0163406
725.301	0.0162150
725.379	0.0163062
725.457	0.0163534
725.535	0.0162439
725.613	0.0162708
725.692	0.0162760
725.770	0.0162817
725.848	0.0162778
725.926	0.0163752
726.004	0.0162187
726.082	0.0163055
726.160	0.0161173
726.238	0.0160989
726.317	0.0161227
726.395	0.0160046
726.473	0.0158275
726.551	0.0157916
726.629	0.0155614
726.707	0.0155247
726.785	0.0153931
726.863	0.0151228
726.942	0.0149506
727.020	0.0148888
727.098	0.0148304
727.176	0.0148125
727.254	0.0146116
727.332	0.0145535
727.410	0.0144322
727.488	0.0145094
727.567	0.0144347
727.645	0.0145392
727.723	0.0145283
727.801	0.0147565
727.879	0.0149148
727.957	0.0149911
728.035	0.0151746
728.113	0.0151611
728.192	0.0154438
728.270	0.0156389
728.348	0.0158358
728.426	0.0159221
728.504	0.0160199
728.582	0.0160981
728.660	0.0162430
728.738	0.0164143
728.817	0.0165018
728.895	0.0164785
728.973	0.0164082
729.051	0.0166059
729.129	0.0166146
729.207	0.0166840
729.285	0.0167133
729.363	0.0169823
729.442	0.0169792
729.520	0.0170201
729.598	0.0170499
729.676	0.0171482
729.754	0.0173079
729.832	0.0173820
729.910	0.0172919
729.988	0.0174199
730.067	0.0174363
730.145	0.0173671
730.223	0.0172471
730.301	0.0172575
730.379	0.0173126
730.457	0.0172490
730.535	0.0173448
730.613	0.0175508
730.692	0.0173914
730.770	0.0173911
730.848	0.0176489
730.926	0.0177655
731.004	0.0178409
731.082	0.0179604
731.160	0.0179726
731.238	0.0181153
731.317	0.0181720
731.395	0.0181992
731.473	0.0181606
731.551	0.0182159
731.629	0.0182155
731.707	0.0180621
731.785	0.0177840
731.863	0.0177230
731.942	0.0176142
732.020	0.0174179
732.098	0.0173580
732.176	0.0171409
732.254	0.0169471
732.332	0.0166789
732.410	0.0165183
732.488	0.0164211
732.567	0.0162437
732.645	0.0162112
732.723	0.0161662
732.801	0.0160239
732.879	0.0160995
732.957	0.0159890
733.035	0.0158303
733.113	0.0158725
733.192	0.0159055
733.270	0.0159543
733.348	0.0159637
733.426	0.0159175
733.504	0.0160486
733.582	0.0160947
733.660	0.0160515
733.738	0.0160689
733.817	0.0158968
733.895	0.0161582
733.973	0.0161431
734.051	0.0161745
734.129	0.0160515
734.207	0.0159417
734.285	0.0158432
734.363	0.0158660
734.442	0.0159509
734.520	0.0157874
734.598	0.0157192
734.676	0.0156021
734.754	0.0155281
734.832	0.0156062
734.910	0.0153949
734.988	0.0154917
735.067	0.0154333
735.145	0.0153269
735.223	0.0151765
735.301	0.0152248
735.379	0.0152483
735.457	0.0152278
735.535	0.0152802
735.613	0.0152246
735.692	0.0153642
735.770	0.0154388
735.848	0.0152872
735.926	0.0154602
736.004	0.0157423
736.082	0.0156992
736.160	0.0157708
736.238	0.0160908
736.317	0.0160355
736.395	0.0162817
736.473	0.0163615
736.551	0.0163869
736.629	0.0165432
736.707	0.0164807
736.785	0.0167321
736.863	0.0169322
736.942	0.0168328
737.020	0.0168926
737.098	0.0169067
737.176	0.0169404
737.254	0.0169283
737.332	0.0169465
737.410	0.0170709
737.488	0.0171945
737.567	0.0170335
737.645	0.0170110
737.723	0.0170264
737.801	0.0169440
737.879	0.0169444
737.957	0.0168946
738.035	0.0168864
738.113	0.0169013
738.192	0.0167785
738.270	0.0168195
738.348	0.0169690
738.426	0.0170993
738.504	0.0170941
738.582	0.0171269
738.660	0.0172366
738.738	0.0175013
738.817	0.0175350
738.895	0.0174486
738.973	0.0177108
739.051	0.0178561
739.129	0.0179980
739.207	0.0180220
739.285	0.0180314
739.363	0.0180144
739.442	0.0179300
739.520	0.0180675
739.598	0.0180144
739.676	0.0177692
739.754	0.0177477
739.832	0.0177258
739.910	0.0173428
739.988	0.0173102
740.067	0.0171509
740.145	0.0170628
740.223	0.0167829
740.301	0.0166622
740.379	0.0165341
740.457	0.0164637
740.535	0.0161994
740.613	0.0161395
740.692	0.0160872
740.770	0.0159589
740.848	0.0158260
740.926	0.0157388
741.004	0.0155878
741.082	0.0156834
741.160	0.0155710
741.238	0.0155642
741.317	0.0154906
741.395	0.0155030
741.473	0.0154727
741.551	0.0155126
741.629	0.0155899
741.707	0.0157709
741.785	0.0158511
741.863	0.0158901
741.942	0.0160546
742.020	0.0159235
742.098	0.0161522
742.176	0.0162077
742.254	0.0162190
742.332	0.0163000
742.410	0.0164841
742.488	0.0163467
742.567	0.0163565
742.645	0.0164352
742.723	0.0166062
742.801	0.0164661
742.879	0.0163770
742.957	0.0162691
743.035	0.0162843
743.113	0.0160579
743.192	0.0159216
743.270	0.0160129
743.348	0.0158720
743.426	0.0158683
743.504	0.0158839
743.582	0.0157848
743.660	0.0159194
743.738	0.0158665
743.817	0.0157929
743.895	0.0158994
743.973	0.0161285
744.051	0.0159530
744.129	0.0160429
744.207	0.0163403
744.285	0.0162172
744.363	0.0162518
744.442	0.0161928
744.520	0.0162393
744.598	0.0162922
744.676	0.0162926
744.754	0.0164165
744.832	0.0163493
744.910	0.0163321
744.988	0.0163399
745.067	0.0164236
745.145	0.0164830
745.223	0.0165005
745.301	0.0165301
745.379	0.0165999
745.457	0.0166703
745.535	0.0167648
745.613	0.0166200
745.692	0.0167001
745.770	0.0167889
745.848	0.0167851
745.926	0.0169852
746.004	0.0168600
746.082	0.0170977
746.160	0.0171848
746.238	0.0171119
746.317	0.0171075
746.395	0.0170724
746.473	0.0172645
746.551	0.0172858
746.629	0.0172939
746.707	0.0171898
746.785	0.0173028
746.863	0.0174471
746.942	0.0172146
747.020	0.0172157
747.098	0.0174307
747.176	0.0173124
747.254	0.0173184
747.332	0.0172235
747.410	0.0174125
747.488	0.0173026
747.567	0.0171125
747.645	0.0171637
747.723	0.0170505
747.801	0.0169895
747.879	0.0169718
747.957	0.0168688
748.035	0.0167260
748.113	0.0167371
748.192	0.0166350
748.270	0.0166022
748.348	0.0165249
748.426	0.0164120
748.504	0.0164060
748.582	0.0162011
748.660	0.0162074
748.738	0.0162661
748.817	0.0162141
748.895	0.0162489
748.973	0.0162237
749.051	0.0162254
749.129	0.0160265
749.207	0.0160491
749.285	0.0161700
749.363	0.0162833
749.442	0.0162627
749.520	0.0161301
749.598	0.0161340
749.676	0.0162502
749.754	0.0163138
749.832	0.0164502
749.910	0.0164149
749.988	0.0163284
750.067	0.0162740
750.145	0.0163097
750.223	0.0162384
750.301	0.0163232
750.379	0.0162490
750.457	0.0162010
750.535	0.0162473
750.613	0.0161739
750.692	0.0162581
750.770	0.0161201
750.848	0.0159820
750.926	0.0159209
751.004	0.0159295
751.082	0.0161145
751.160	0.0159592
751.238	0.0158714
751.317	0.0159063
751.395	0.0159418
751.473	0.0158734
751.551	0.0159115
751.629	0.0159373
751.707	0.0158479
751.785	0.0158154
751.863	0.0158535
751.942	0.0158965
752.020	0.0158710
752.098	0.0161321
752.176	0.0161914
752.254	0.0161403
752.332	0.0163918
752.410	0.0162731
752.488	0.0163764
752.567	0.0165979
752.645	0.0166885
752.723	0.0166393
752.801	0.0167783
752.879	0.0168280
752.957	0.0169203
753.035	0.0169031
753.113	0.0167986
753.192	0.0169637
753.270	0.0169739
753.348	0.0169092
753.426	0.0171183
753.504	0.0170131
753.582	0.0169946
753.660	0.0168410
753.738	0.0169217
753.817	0.0168549
753.895	0.0167503
753.973	0.0167728
754.051	0.0166253
754.129	0.0165696
754.207	0.0164952
754.285	0.0164874
754.363	0.0165808
754.442	0.0166592
754.520	0.0166764
754.598	0.0167542
754.676	0.0167427
754.754	0.0168597
754.832	0.0168369
754.910	0.0170513
754.988	0.0170777
755.067	0.0168795
755.145	0.0169621
755.223	0.0171685
755.301	0.0171912
755.379	0.0170054
755.457	0.0171928
755.535	0.0170842
755.613	0.0170816
755.692	0.0169561
755.770	0.0169802
755.848	0.0168534
755.926	0.0168798
756.004	0.0168904
756.082	0.0167515
756.160	0.0167150
756.238	0.0165878
756.317	0.0165112
756.395	0.0163960
756.473	0.0163192
756.551	0.0163826
756.629	0.0162820
756.707	0.0162827
756.785	0.0164312
756.863	0.0163233
756.942	0.0162012
757.020	0.0164017
757.098	0.0163448
757.176	0.0164389
757.254	0.0163770
757.332	0.0165148
757.410	0.0164348
757.488	0.0166078
757.567	0.0166038
757.645	0.0165726
757.723	0.0165865
757.801	0.0164004
757.879	0.0163857
757.957	0.0164112
758.035	0.0163294
758.113	0.0163284
758.192	0.0162540
758.270	0.0163254
758.348	0.0160204
758.426	0.0161266
758.504	0.0160698
758.582	0.0160569
758.660	0.0159945
758.738	0.0160694
758.817	0.0160375
758.895	0.0159620
758.973	0.0159303
759.051	0.0160128
759.129	0.0159653
759.207	0.0157715
759.285	0.0158718
759.363	0.0159219
759.442	0.0157219
759.520	0.0158506
759.598	0.0157069
759.676	0.0157914
759.754	0.0158382
759.832	0.0159053
759.910	0.0159087
759.988	0.0160182
760.067	0.0161699
760.145	0.0162654
760.223	0.0163855
760.301	0.0164587
760.379	0.0164951
760.457	0.0164178
760.535	0.0166753
760.613	0.0167928
760.692	0.0167465
760.770	0.0168520
760.848	0.0167015
760.926	0.0167674
761.004	0.0167427
761.082	0.0168034
761.160	0.0167012
761.238	0.0167561
761.317	0.0168031
761.395	0.0166811
761.473	0.0167641
761.551	0.0166841
761.629	0.0166441
761.707	0.0167287
761.785	0.0167698
761.863	0.0165859
761.942	0.0167257
762.020	0.0167197
762.098	0.0167757
762.176	0.0166911
762.254	0.0167010
762.332	0.0166774
762.410	0.0167860
762.488	0.0169058
762.567	0.0166872
762.645	0.0168517
762.723	0.0167319
762.801	0.0167490
762.879	0.0168387
762.957	0.0168696
763.035	0.0167594
763.113	0.0167693
763.192	0.0168991
763.270	0.0169606
763.348	0.0169945
763.426	0.0170110
763.504	0.0169482
763.582	0.0169112
763.660	0.0169502
763.738	0.0170827
763.817	0.0168590
763.895	0.0168616
763.973	0.0167271
764.051	0.0167294
764.129	0.0166875
764.207	0.0166358
764.285	0.0164199
764.363	0.0163272
764.442	0.0163240
764.520	0.0161320
764.598	0.0161181
764.676	0.0159869
764.754	0.0160143
764.832	0.0158495
764.910	0.0158299
764.988	0.0156837
765.067	0.0158344
765.145	0.0159319
765.223	0.0159328
765.301	0.0159051
765.379	0.0161243
765.457	0.0161048
765.535	0.0160913
765.613	0.0162626
765.692	0.0162949
765.770	0.0162609
765.848	0.0163693
765.926	0.0164687
766.004	0.0164619
766.082	0.0165134
766.160	0.0164452
766.238	0.0165321
766.317	0.0166097
766.395	0.0164732
766.473	0.0163808
766.551	0.0164868
766.629	0.0164298
766.707	0.0165158
766.785	0.0165923
766.863	0.0165854
766.942	0.0164292
767.020	0.0164199
767.098	0.0165797
767.176	0.0164260
767.254	0.0165103
767.332	0.0163911
767.410	0.0164648
767.488	0.0164854
767.567	0.0163208
767.645	0.0163049
767.723	0.0162626
767.801	0.0163715
767.879	0.0163044
767.957	0.0161300
768.035	0.0161539
768.113	0.0162276
768.192	0.0162410
768.270	0.0161899
768.348	0.0162409
768.426	0.0163759
768.504	0.0164793
768.582	0.0164131
768.660	0.0165174
768.738	0.0162981
768.817	0.0165194
768.895	0.0164158
768.973	0.0165533
769.051	0.0165855
769.129	0.0166493
769.207	0.0166167
769.285	0.0166901
769.363	0.0166673
769.442	0.0166209
769.520	0.0167625
769.598	0.0166785
769.676	0.0166851
769.754	0.0164806
769.832	0.0167358
769.910	0.0167053
769.988	0.0166087
770.067	0.0165576
770.145	0.0166019
770.223	0.0165678
770.301	0.0163426
770.379	0.0164157
770.457	0.0163472
770.535	0.0163602
770.613	0.0163731
770.692	0.0162235
770.770	0.0163477
770.848	0.0164883
770.926	0.0163158
771.004	0.0162920
771.082	0.0163708
771.160	0.0163976
771.238	0.0163743
771.317	0.0165304
771.395	0.0165636
771.473	0.0165192
771.551	0.0165865
771.629	0.0166934
771.707	0.0166695
771.785	0.0167056
771.863	0.0166711
771.942	0.0165267
772.020	0.0165401
772.098	0.0166473
772.176	0.0165049
772.254	0.0166166
772.332	0.0166071
772.410	0.0166262
772.488	0.0164761
772.567	0.0166904
772.645	0.0165190
772.723	0.0166186
772.801	0.0166620
772.879	0.0166591
772.957	0.0167017
773.035	0.0167374
773.113	0.0168393
773.192	0.0167272
773.270	0.0168459
773.348	0.0169376
773.426	0.0167876
773.504	0.0167949
773.582	0.0166827
773.660	0.0166866
773.738	0.0165838
773.817	0.0167695
773.895	0.0166527
773.973	0.0166129
774.051	0.0166845
774.129	0.0166225
774.207	0.0166222
774.285	0.0165759
774.363	0.0164854
774.442	0.0166127
774.520	0.0164201
774.598	0.0164919
774.676	0.0164057
774.754	0.0164063
774.832	0.0164172
774.910	0.0163963
774.988	0.0164025
775.067	0.0161178
775.145	0.0163815
775.223	0.0162243
775.301	0.0160558
775.379	0.0162693
775.457	0.0162663
775.535	0.0160325
775.613	0.0161670
775.692	0.0161027
775.770	0.0160410
775.848	0.0160572
775.926	0.0162290
776.004	0.0162029
776.082	0.0161062
776.160	0.0160299
776.238	0.0162085
776.317	0.0161543
776.395	0.0163457
776.473	0.0163469
776.551	0.0164093
776.629	0.0163294
776.707	0.0162782
776.785	0.0163221
776.863	0.0163258
776.942	0.0163853
777.020	0.0164363
777.098	0.0164391
777.176	0.0163456
777.254	0.0165188
777.332	0.0164382
777.410	0.0165669
777.488	0.0165450
777.567	0.0165948
777.645	0.0165733
777.723	0.0165681
777.801	0.0167222
777.879	0.0165340
777.957	0.0167176
778.035	0.0168821
778.113	0.0167237
778.192	0.0167017
778.270	0.0167409
778.348	0.0168095
778.426	0.0168273
778.504	0.0168106
778.582	0.0166334
778.660	0.0167065
778.738	0.0166113
778.817	0.0166055
778.895	0.0166865
778.973	0.0165881
779.051	0.0167523
779.129	0.0167791
779.207	0.0165770
779.285	0.0165190
779.363	0.0166307
779.442	0.0167568
779.520	0.0167645
779.598	0.0167162
779.676	0.0168615
779.754	0.0169733
779.832	0.0167991
779.910	0.0166465
779.988	0.0168742
780.067	0.0167828
780.145	0.0167281
780.223	0.0168461
780.301	0.0167090
780.379	0.0165660
780.457	0.0166428
780.535	0.0166617
780.613	0.0165653
780.692	0.0165881
780.770	0.0164610
780.848	0.0164697
780.926	0.0165916
781.004	0.0164355
781.082	0.0164636
781.160	0.0165218
781.238	0.0163718
781.317	0.0163966
781.395	0.0164611
781.473	0.0164255
781.551	0.0163809
781.629	0.0163310
781.707	0.0162518
781.785	0.0164475
781.863	0.0163555
781.942	0.0163298
782.020	0.0163806
782.098	0.0162916
782.176	0.0163740
782.254	0.0163509
782.332	0.0163804
782.410	0.0163062
782.488	0.0162176
782.567	0.0161436
782.645	0.0162463
782.723	0.0164550
782.801	0.0163952
782.879	0.0163392
782.957	0.0163182
783.035	0.0162325
783.113	0.0162667
783.192	0.0161472
783.270	0.0163680
783.348	0.0164436
783.426	0.0163813
783.504	0.0163491
783.582	0.0165138
783.660	0.0165217
783.738	0.0164886
783.817	0.0166332
783.895	0.0167599
783.973	0.0167194
784.051	0.0165956
784.129	0.0167611
784.207	0.0169544
784.285	0.0167408
784.363	0.0167090
784.442	0.0166727
784.520	0.0167588
784.598	0.0165137
784.676	0.0163363
784.754	0.0161984
784.832	0.0160938
784.910	0.0158295
784.988	0.0158504
785.067	0.0157594
785.145	0.0157186
785.223	0.0153701
785.301	0.0154459
785.379	0.0155035
785.457	0.0154073
785.535	0.0154302
785.613	0.0155721
785.692	0.0157743
785.770	0.0158111
785.848	0.0159072
785.926	0.0161884
786.004	0.0165799
786.082	0.0167206
786.160	0.0170152
786.238	0.0174152
786.317	0.0177263
786.395	0.0179595
786.473	0.0181205
786.551	0.0183485
786.629	0.0185178
786.707	0.0187093
786.785	0.0187736
786.863	0.0189098
786.942	0.0186643
787.020	0.0186110
787.098	0.0185191
787.176	0.0184956
787.254	0.0182976
787.332	0.0179190
787.410	0.0177118
787.488	0.0176270
787.567	0.0172456
787.645	0.0168194
787.723	0.0165514
787.801	0.0163001
787.879	0.0159625
787.957	0.0154906
788.035	0.0153429
788.113	0.0149950
788.192	0.0147580
788.270	0.0146183
788.348	0.0144551
788.426	0.0143089
788.504	0.0142190
788.582	0.0142507
788.660	0.0142670
788.738	0.0143150
788.817	0.0143508
788.895	0.0143533
788.973	0.0145516
789.051	0.0147113
789.129	0.0148043
789.207	0.0150094
789.285	0.0153663
789.363	0.0155030
789.442	0.0157380
789.520	0.0159634
789.598	0.0161179
789.676	0.0162714
789.754	0.0165192
789.832	0.0168284
789.910	0.0169880
789.988	0.0171834
790.067	0.0173435
790.145	0.0174312
790.223	0.0174565
790.301	0.0178013
790.379	0.0177854
790.457	0.0181115
790.535	0.0179444
790.613	0.0182298
790.692	0.0181917
790.770	0.0183411
790.848	0.0183767
790.926	0.0183858
791.004	0.0183220
791.082	0.0181259
791.160	0.0183456
791.238	0.0182514
791.317	0.0180331
791.395	0.0179469
791.473	0.0178424
791.551	0.0175673
791.629	0.0173370
791.707	0.0173031
791.785	0.0172103
791.863	0.0170533
791.942	0.0168246
792.020	0.0166074
792.098	0.0164940
792.176	0.0163030
792.254	0.0161086
792.332	0.0161111
792.410	0.0159026
792.488	0.0157790
792.567	0.0156936
792.645	0.0155834
792.723	0.0156438
792.801	0.0155714
792.879	0.0155022
792.957	0.0153450
793.035	0.0153877
793.113	0.0153854
793.192	0.0151971
793.270	0.0151562
793.348	0.0151534
793.426	0.0151148
793.504	0.0151816
793.582	0.0150407
793.660	0.0149570
793.738	0.0150005
793.817	0.0149614
793.895	0.0148305
793.973	0.0150322
794.051	0.0150999
794.129	0.0150197
794.207	0.0151945
794.285	0.0154362
794.363	0.0154082
794.442	0.0155639
794.520	0.0157665
794.598	0.0160759
794.676	0.0161766
794.754	0.0162138
794.832	0.0165649
794.910	0.0167026
794.988	0.0168539
795.067	0.0168123
795.145	0.0168987
795.223	0.0170179
795.301	0.0170042
795.379	0.0170765
795.457	0.0171717
795.535	0.0172173
795.613	0.0172620
795.692	0.0172640
795.770	0.0173142
795.848	0.0173897
795.926	0.0174194
796.004	0.0173508
796.082	0.0174497
796.160	0.0175698
796.238	0.0175407
796.317	0.0176182
796.395	0.0176147
796.473	0.0175912
796.551	0.0176357
796.629	0.0175582
796.707	0.0176321
796.785	0.0176912
796.863	0.0175515
796.942	0.0176453
797.020	0.0176231
797.098	0.0175327
797.176	0.0176086
797.254	0.0174407
797.332	0.0173798
797.410	0.0172909
797.488	0.0171976
797.567	0.0170776
797.645	0.0169093
797.723	0.0169422
797.801	0.0167741
797.879	0.0167834
797.957	0.0168018
798.035	0.0167130
798.113	0.0167062
798.192	0.0165594
798.270	0.0164091
798.348	0.0162841
798.426	0.0162428
798.504	0.0161098
798.582	0.0160777
798.660	0.0160286
798.738	0.0159621
798.817	0.0159461
798.895	0.0159019
798.973	0.0158405
799.051	0.0157502
799.129	0.0156654
799.207	0.0155775
799.285	0.0156183
799.363	0.0155305
799.442	0.0153983
799.520	0.0154322
799.598	0.0155070
799.676	0.0155828
799.754	0.0155725
799.832	0.0154550
799.910	0.0154996
799.988	0.0155602
800.067	0.0156166
800.145	0.0157510
800.223	0.0157686
800.301	0.0156952
800.379	0.0156015
800.457	0.0156996
800.535	0.0158702
800.613	0.0157850
800.692	0.0157847
800.770	0.0157436
800.848	0.0158386
800.926	0.0159416
801.004	0.0159662
801.082	0.0161329
801.160	0.0160482
801.238	0.0161101
801.317	0.0161552
801.395	0.0162249
801.473	0.0163640
801.551	0.0163661
801.629	0.0164861
801.707	0.0165822
801.785	0.0167116
801.863	0.0167905
801.942	0.0168993
802.020	0.0169017
802.098	0.0169748
802.176	0.0170329
802.254	0.0171429
802.332	0.0172049
802.410	0.0174416
802.488	0.0174741
802.567	0.0173816
802.645	0.0174863
802.723	0.0175177
802.801	0.0175712
802.879	0.0175159
802.957	0.0176136
803.035	0.0175444
803.113	0.0175567
803.192	0.0174300
803.270	0.0174104
803.348	0.0175270
803.426	0.0171882
803.504	0.0171857
803.582	0.0171791
803.660	0.0170267
803.738	0.0170146
803.817	0.0170912
803.895	0.0168629
803.973	0.0167619
804.051	0.0166450
804.129	0.0165881
804.207	0.0165612
804.285	0.0165343
804.363	0.0165201
804.442	0.0164754
804.520	0.0164814
804.598	0.0165107
804.676	0.0164814
804.754	0.0165301
804.832	0.0164735
804.910	0.0166073
804.988	0.0164841
805.067	0.0163304
805.145	0.0163988
805.223	0.0163625
805.301	0.0164049
805.379	0.0163294
805.457	0.0162386
805.535	0.0162926
805.613	0.0163494
805.692	0.0161963
805.770	0.0161923
805.848	0.0163400
805.926	0.0162938
806.004	0.0163287
806.082	0.0162965
806.160	0.0163721
806.238	0.0163044
806.317	0.0164173
806.395	0.0162888
806.473	0.0162900
806.551	0.0161691
806.629	0.0162408
806.707	0.0162542
806.785	0.0164111
806.863	0.0163911
806.942	0.0163715
807.020	0.0163463
807.098	0.0165300
807.176	0.0164697
807.254	0.0163265
807.332	0.0162932
807.410	0.0163422
807.488	0.0162743
807.567	0.0162030
807.645	0.0163232
807.723	0.0161722
807.801	0.0162186
807.879	0.0161029
807.957	0.0162110
808.035	0.0161886
808.113	0.0161816
808.192	0.0162885
808.270	0.0163086
808.348	0.0162947
808.426	0.0161671
808.504	0.0162125
808.582	0.0160439
808.660	0.0161333
808.738	0.0161538
808.817	0.0160857
808.895	0.0160586
808.973	0.0159261
809.051	0.0159847
809.129	0.0160635
809.207	0.0161784
809.285	0.0162659
809.363	0.0162408
809.442	0.0163041
809.520	0.0163874
809.598	0.0163943
809.676	0.0164256
809.754	0.0165421
809.832	0.0167820
809.910	0.0166774
809.988	0.0167111
810.067	0.0167490
810.145	0.0167879
810.223	0.0168587
810.301	0.0168848
810.379	0.0167815
810.457	0.0166776
810.535	0.0168162
810.613	0.0168921
810.692	0.0167474
810.770	0.0167336
810.848	0.0167576
810.926	0.0167643
811.004	0.0167267
811.082	0.0168436
811.160	0.0169361
811.238	0.0168271
811.317	0.0167970
811.395	0.0168239
811.473	0.0168296
811.551	0.0168714
811.629	0.0169084
811.707	0.0167757
811.785	0.0168471
811.863	0.0168770
811.942	0.0167641
812.020	0.0169107
812.098	0.0170035
812.176	0.0170933
812.254	0.0169675
812.332	0.0167870
812.410	0.0168092
812.488	0.0167982
812.567	0.0168652
812.645	0.0167832
812.723	0.0165969
812.801	0.0166698
812.879	0.0165910
812.957	0.0164981
813.035	0.0163625
813.113	0.0162901
813.192	0.0163152
813.270	0.0163595
813.348	0.0162711
813.426	0.0162578
813.504	0.0160664
813.582	0.0162168
813.660	0.0162715
813.738	0.0161984
813.817	0.0162235
813.895	0.0163139
813.973	0.0163989
814.051	0.0163550
814.129	0.0163752
814.207	0.0164331
814.285	0.0165371
814.363	0.0166061
814.442	0.0165814
814.520	0.0166022
814.598	0.0166392
814.676	0.0167146
814.754	0.0166199
814.832	0.0164699
814.910	0.0163610
814.988	0.0164429
815.067	0.0163706
815.145	0.0163200
815.223	0.0162657
815.301	0.0159952
815.379	0.0158964
815.457	0.0158926
815.535	0.0158404
815.613	0.0157625
815.692	0.0158757
815.770	0.0158900
815.848	0.0158947
815.926	0.0158376
816.004	0.0158353
816.082	0.0160738
816.160	0.0161310
816.238	0.0161224
816.317	0.0160588
816.395	0.0163839
816.473	0.0163215
816.551	0.0164566
816.629	0.0163660
816.707	0.0164137
816.785	0.0165374
816.863	0.0165041
816.942	0.0166950
817.020	0.0166737
817.098	0.0165735
817.176	0.0166484
817.254	0.0168482
817.332	0.0167804
817.410	0.0166961
817.488	0.0166980
817.567	0.0166757
817.645	0.0165258
817.723	0.0164821
817.801	0.0164925
817.879	0.0167676
817.957	0.0166576
818.035	0.0165264
818.113	0.0164075
818.192	0.0164200
818.270	0.0164573
818.348	0.0164327
818.426	0.0163381
818.504	0.0162783
818.582	0.0163542
818.660	0.0164654
818.738	0.0164081
818.817	0.0164580
818.895	0.0164434
818.973	0.0165476
819.051	0.0165455
819.129	0.0167747
819.207	0.0167126
819.285	0.0165180
819.363	0.0168048
819.442	0.0168229
819.520	0.0170710
819.598	0.0171526
819.676	0.0170223
819.754	0.0169963
819.832	0.0172308
819.910	0.0171874
819.988	0.0171040
820.067	0.0170940
820.145	0.0169818
820.223	0.0168839
820.301	0.0169645
820.379	0.0168308
820.457	0.0167845
820.535	0.0168335
820.613	0.0166669
820.692	0.0165899
820.770	0.0166666
820.848	0.0166129
820.926	0.0165669
821.004	0.0164185
821.082	0.0165173
821.160	0.0164362
821.238	0.0165045
821.317	0.0164375
821.395	0.0165381
821.473	0.0164168
821.551	0.0165338
821.629	0.0164951
821.707	0.0163471
821.785	0.0164668
821.863	0.0165052
821.942	0.0163917
822.020	0.0163895
822.098	0.0162846
822.176	0.0164508
822.254	0.0164630
822.332	0.0164377
822.410	0.0163733
822.488	0.0163892
822.567	0.0163854
822.645	0.0165810
822.723	0.0165238
822.801	0.0164530
822.879	0.0165057
822.957	0.0165642
823.035	0.0167944
823.113	0.0167119
823.192	0.0165759
823.270	0.0166704
823.348	0.0165759
823.426	0.0164356
823.504	0.0165266
823.582	0.0165451
823.660	0.0165015
823.738	0.0163728
823.817	0.0161684
823.895	0.0162326
823.973	0.0161504
824.051	0.0160033
824.129	0.0160870
824.207	0.0160395
824.285	0.0159567
824.363	0.0157665
824.442	0.0159229
824.520	0.0157922
824.598	0.0157329
824.676	0.0158977
824.754	0.0157756
824.832	0.0157911
824.910	0.0159096
824.988	0.0161030
825.067	0.0161131
825.145	0.0160621
825.223	0.0162101
825.301	0.0161720
825.379	0.0162014
825.457	0.0164160
825.535	0.0164889
825.613	0.0163092
825.692	0.0165138
825.770	0.0165904
825.848	0.0165898
825.926	0.0166530
826.004	0.0167146
826.082	0.0167604
826.160	0.0167911
826.238	0.0167300
826.317	0.0167677
826.395	0.0169782
826.473	0.0167673
826.551	0.0169193
826.629	0.0169918
826.707	0.0169214
826.785	0.0168041
826.863	0.0168990
826.942	0.0168661
827.020	0.0168143
827.098	0.0167659
827.176	0.0168314
827.254	0.0167557
827.332	0.0168658
827.410	0.0169398
827.488	0.0170237
827.567	0.0170963
827.645	0.0169743
827.723	0.0170526
827.801	0.0171492
827.879	0.0171671
827.957	0.0171490
828.035	0.0169957
828.113	0.0170815
828.192	0.0171187
828.270	0.0171723
828.348	0.0169517
828.426	0.0169035
828.504	0.0169254
828.582	0.0169332
828.660	0.0167577
828.738	0.0167256
828.817	0.0167184
828.895	0.0167313
828.973	0.0164478
829.051	0.0163539
829.129	0.0163848
829.207	0.0164634
829.285	0.0162502
829.363	0.0162214
829.442	0.0162270
829.520	0.0162431
829.598	0.0162249
829.676	0.0160546
829.754	0.0160716
829.832	0.0160638
829.910	0.0160233
829.988	0.0160143
830.067	0.0160739
830.145	0.0161152
830.223	0.0160255
830.301	0.0159786
830.379	0.0159930
830.457	0.0159823
830.535	0.0159541
830.613	0.0160479
830.692	0.0159264
830.770	0.0158450
830.848	0.0159919
830.926	0.0159407
831.004	0.0159987
831.082	0.0160381
831.160	0.0161353
831.238	0.0159988
831.317	0.0160889
831.395	0.0160721
831.473	0.0160770
831.551	0.0162020
831.629	0.0163001
831.707	0.0163044
831.785	0.0162746
831.863	0.0164712
831.942	0.0166422
832.020	0.0165895
832.098	0.0167123
832.176	0.0168152
832.254	0.0167902
832.332	0.0167242
832.410	0.0168369
832.488	0.0168954
832.567	0.0169318
832.645	0.0169527
832.723	0.0168813
832.801	0.0168301
832.879	0.0169348
832.957	0.0168856
833.035	0.0167813
833.113	0.0167339
833.192	0.0167570
833.270	0.0166515
833.348	0.0167596
833.426	0.0167588
833.504	0.0166091
833.582	0.0166208
833.660	0.0166151
833.738	0.0165182
833.817	0.0165011
833.895	0.0167120
833.973	0.0166682
834.051	0.0166658
834.129	0.0166447
834.207	0.0165898
834.285	0.0166114
834.363	0.0166680
834.442	0.0165926
834.520	0.0166016
834.598	0.0166588
834.676	0.0165517
834.754	0.0164993
834.832	0.0163883
834.910	0.0164387
834.988	0.0163357
835.067	0.0162786
835.145	0.0163165
835.223	0.0164575
835.301	0.0165218
835.379	0.0163084
835.457	0.0162999
835.535	0.0163828
835.613	0.0164200
835.692	0.0164626
835.770	0.0165764
835.848	0.0166447
835.926	0.0165568
836.004	0.0164965
836.082	0.0165565
836.160	0.0167088
836.238	0.0167387
836.317	0.0164769
836.395	0.0166063
836.473	0.0166734
836.551	0.0166374
836.629	0.0165732
836.707	0.0166560
836.785	0.0165148
836.863	0.0165790
836.942	0.0167007
837.020	0.0165862
837.098	0.0165897
837.176	0.0165813
837.254	0.0164996
837.332	0.0165575
837.410	0.0164195
837.488	0.0164601
837.567	0.0165904
837.645	0.0164772
837.723	0.0165829
837.801	0.0164922
837.879	0.0164717
837.957	0.0165106
838.035	0.0164413
838.113	0.0164149
838.192	0.0164307
838.270	0.0164600
838.348	0.0164777
838.426	0.0164944
838.504	0.0164924
838.582	0.0166150
838.660	0.0166242
838.738	0.0166276
838.817	0.0166216
838.895	0.0165342
838.973	0.0166576
839.051	0.0166783
839.129	0.0165490
839.207	0.0167414
839.285	0.0166917
839.363	0.0166309
839.442	0.0165630
839.520	0.0164497
839.598	0.0164842
839.676	0.0165356
839.754	0.0165168
839.832	0.0163607
839.910	0.0161796
839.988	0.0162024
840.067	0.0162213
840.145	0.0162485
840.223	0.0163175
840.301	0.0162223
840.379	0.0162234
840.457	0.0162428
840.535	0.0162067
840.613	0.0162593
840.692	0.0163988
840.770	0.0162970
840.848	0.0163668
840.926	0.0164406
841.004	0.0163147
841.082	0.0164648
841.160	0.0165205
841.238	0.0164696
841.317	0.0164618
841.395	0.0164199
841.473	0.0164711
841.551	0.0163998
841.629	0.0164964
841.707	0.0165239
841.785	0.0163978
841.863	0.0165816
841.942	0.0163240
842.020	0.0163380
842.098	0.0165012
842.176	0.0164185
842.254	0.0163805
842.332	0.0164200
842.410	0.0166815
842.488	0.0164635
842.567	0.0164615
842.645	0.0165240
842.723	0.0163776
842.801	0.0163829
842.879	0.0165958
842.957	0.0166232
843.035	0.0165662
843.113	0.0165981
843.192	0.0167233
843.270	0.0166702
843.348	0.0167611
843.426	0.0167844
843.504	0.0167159
843.582	0.0168692
843.660	0.0168929
843.738	0.0168592
843.817	0.0169146
843.895	0.0169383
843.973	0.0168681
844.051	0.0169040
844.129	0.0169302
844.207	0.0171375
844.285	0.0169309
844.363	0.0168441
844.442	0.0168828
844.520	0.0169582
844.598	0.0167613
844.676	0.0167381
844.754	0.0166706
844.832	0.0165720
844.910	0.0165354
844.988	0.0166084
845.067	0.0165527
845.145	0.0166180
845.223	0.0164587
845.301	0.0163219
845.379	0.0163950
845.457	0.0165009
845.535	0.0163216
845.613	0.0163798
845.692	0.0163776
845.770	0.0163952
845.848	0.0163696
845.926	0.0163187
846.004	0.0164326
846.082	0.0163873
846.160	0.0164021
846.238	0.0162670
846.317	0.0163297
846.395	0.0163874
846.473	0.0164272
846.551	0.0164623
846.629	0.0164393
846.707	0.0164407
846.785	0.0163712
846.863	0.0163132
846.942	0.0164536
847.020	0.0164155
847.098	0.0164031
847.176	0.0163245
847.254	0.0165140
847.332	0.0163416
847.410	0.0163793
847.488	0.0164352
847.567	0.0163611
847.645	0.0162515
847.723	0.0162473
847.801	0.0163026
847.879	0.0162940
847.957	0.0162577
848.035	0.0161742
848.113	0.0162656
848.192	0.0162684
848.270	0.0162401
848.348	0.0161951
848.426	0.0161781
848.504	0.0162941
848.582	0.0162823
848.660	0.0163211
848.738	0.0162745
848.817	0.0163332
848.895	0.0164465
848.973	0.0166139
849.051	0.0165377
849.129	0.0165546
849.207	0.0167954
849.285	0.0167653
849.363	0.0167415
849.442	0.0167570
849.520	0.0169382
849.598	0.0169005
849.676	0.0168376
849.754	0.0168610
849.832	0.0168403
849.910	0.0169669
849.988	0.0168415
850.067	0.0168687
850.145	0.0168138
850.223	0.0168018
850.301	0.0168480
850.379	0.0167509
850.457	0.0167313
850.535	0.0166407
850.613	0.0168289
850.692	0.0168304
850.770	0.0167177
850.848	0.0166396
850.926	0.0167049
851.004	0.0165635
851.082	0.0165440
851.160	0.0165319
851.238	0.0166657
851.317	0.0164773
851.395	0.0165535
851.473	0.0163798
851.551	0.0161832
851.629	0.0165036
851.707	0.0163744
851.785	0.0162155
851.863	0.0163573
851.942	0.0163499
852.020	0.0162251
852.098	0.0162809
852.176	0.0163065
852.254	0.0164021
852.332	0.0163702
852.410	0.0162957
852.488	0.0162603
852.567	0.0164103
852.645	0.0163795
852.723	0.0163876
852.801	0.0164324
852.879	0.0165628
852.957	0.0164527
853.035	0.0163938
853.113	0.0165870
853.192	0.0164269
853.270	0.0165864
853.348	0.0165854
853.426	0.0164107
853.504	0.0164730
853.582	0.0165348
853.660	0.0165426
853.738	0.0166114
853.817	0.0166411
853.895	0.0165517
853.973	0.0165587
854.051	0.0166142
854.129	0.0165899
854.207	0.0166392
854.285	0.0165730
854.363	0.0165855
854.442	0.0166119
854.520	0.0165266
854.598	0.0166136
854.676	0.0164243
854.754	0.0163742
854.832	0.0163649
854.910	0.0162763
854.988	0.0164908
855.067	0.0163467
855.145	0.0163796
855.223	0.0163904
855.301	0.0164191
855.379	0.0162941
855.457	0.0162572
855.535	0.0161863
855.613	0.0161701
855.692	0.0163016
855.770	0.0164293
855.848	0.0163617
855.926	0.0163043
856.004	0.0163496
856.082	0.0165733
856.160	0.0163354
856.238	0.0164060
856.317	0.0164774
856.395	0.0166054
856.473	0.0164320
856.551	0.0164527
856.629	0.0165211
856.707	0.0164429
856.785	0.0165804
856.863	0.0166064
856.942	0.0165417
857.020	0.0165829
857.098	0.0165572
857.176	0.0165659
857.254	0.0165308
857.332	0.0166554
857.410	0.0165422
857.488	0.0165104
857.567	0.0165163
857.645	0.0165538
857.723	0.0167174
857.801	0.0167504
857.879	0.0167168
857.957	0.0167001
858.035	0.0165807
858.113	0.0166203
858.192	0.0166936
858.270	0.0167786
858.348	0.0166357
858.426	0.0166203
858.504	0.0166116
858.582	0.0166522
858.660	0.0164846
858.738	0.0164369
858.817	0.0164439
858.895	0.0165437
858.973	0.0163367
859.051	0.0163504
859.129	0.0163988
859.207	0.0162615
859.285	0.0162282
859.363	0.0162253
859.442	0.0163086
859.520	0.0163923
859.598	0.0163440
859.676	0.0162243
859.754	0.0162053
859.832	0.0162872
859.910	0.0163494
859.988	0.0163797
860.067	0.0164542
860.145	0.0164193
860.223	0.0164639
860.301	0.0165026
860.379	0.0165224
860.457	0.0164674
860.535	0.0165119
860.613	0.0164293
860.692	0.0165945
860.770	0.0166450
860.848	0.0166366
860.926	0.0165356
861.004	0.0166689
861.082	0.0166830
861.160	0.0166259
861.238	0.0167756
861.317	0.0166366
861.395	0.0165576
861.473	0.0165696
861.551	0.0168276
861.629	0.0165826
861.707	0.0165977
861.785	0.0167332
861.863	0.0167666
861.942	0.0167325
862.020	0.0166977
862.098	0.0166463
862.176	0.0166596
862.254	0.0167231
862.332	0.0164722
862.410	0.0164207
862.488	0.0165160
862.567	0.0165134
862.645	0.0165303
862.723	0.0165682
862.801	0.0164510
862.879	0.0164128
862.957	0.0164426
863.035	0.0164817
863.113	0.0163181
863.192	0.0163461
863.270	0.0164719
863.348	0.0165271
863.426	0.0164443
863.504	0.0164315
863.582	0.0165529
863.660	0.0164265
863.738	0.0165824
863.817	0.0164313
863.895	0.0164773
863.973	0.0163960
864.051	0.0163551
864.129	0.0163213
864.207	0.0163081
864.285	0.0163507
864.363	0.0162996
864.442	0.0164073
864.520	0.0162801
864.598	0.0164366
864.676	0.0165086
864.754	0.0165704
864.832	0.0164556
864.910	0.0165538
864.988	0.0165633
865.067	0.0166293
865.145	0.0166000
865.223	0.0164717
865.301	0.0165954
865.379	0.0163632
865.457	0.0162853
865.535	0.0164516
865.613	0.0164384
865.692	0.0163981
865.770	0.0163325
865.848	0.0164526
865.926	0.0163730
866.004	0.0164339
866.082	0.0164935
866.160	0.0165333
866.238	0.0164948
866.317	0.0165850
866.395	0.0166335
866.473	0.0166697
866.551	0.0166026
866.629	0.0165638
866.707	0.0165948
866.785	0.0165055
866.863	0.0164007
866.942	0.0166523
867.020	0.0166598
867.098	0.0166855
867.176	0.0166676
867.254	0.0165957
867.332	0.0166696
867.410	0.0166934
867.488	0.0165809
867.567	0.0166081
867.645	0.0166847
867.723	0.0167461
867.801	0.0166885
867.879	0.0167682
867.957	0.0167586
868.035	0.0167500
868.113	0.0167396
868.192	0.0168306
868.270	0.0166064
868.348	0.0166691
868.426	0.0166312
868.504	0.0165799
868.582	0.0165364
868.660	0.0165870
868.738	0.0166159
868.817	0.0165951
868.895	0.0164762
868.973	0.0164161
869.051	0.0165076
869.129	0.0164653
869.207	0.0163607
869.285	0.0163531
869.363	0.0165833
869.442	0.0163847
869.520	0.0164165
869.598	0.0163352
869.676	0.0163670
869.754	0.0164510
869.832	0.0162530
869.910	0.0163501
869.988	0.0164399
870.067	0.0163300
870.145	0.0163540
870.223	0.0163786
870.301	0.0165549
870.379	0.0161948
870.457	0.0164007
870.535	0.0165878
870.613	0.0164051
870.692	0.0163053
870.770	0.0164139
870.848	0.0164596
870.926	0.0165757
871.004	0.0164370
871.082	0.0165241
871.160	0.0167137
871.238	0.0166229
871.317	0.0166151
871.395	0.0166228
871.473	0.0166743
871.551	0.0166474
871.629	0.0165859
871.707	0.0166781
871.785	0.0166940
871.863	0.0166276
871.942	0.0165905
872.020	0.0166820
872.098	0.0166550
872.176	0.0164798
872.254	0.0166208
872.332	0.0165479
872.410	0.0166749
872.488	0.0166950
872.567	0.0166970
872.645	0.0166545
872.723	0.0165522
872.801	0.0164223
872.879	0.0167273
872.957	0.0164522
873.035	0.0164677
873.113	0.0164593
873.192	0.0166511
873.270	0.0164180
873.348	0.0163985
873.426	0.0164095
873.504	0.0163771
873.582	0.0163140
873.660	0.0164185
873.738	0.0162821
873.817	0.0163170
873.895	0.0164230
873.973	0.0162737
874.051	0.0162467
874.129	0.0163900
874.207	0.0163991
874.285	0.0163751
874.363	0.0164162
874.442	0.0164641
874.520	0.0164043
874.598	0.0162848
874.676	0.0164532
874.754	0.0164331
874.832	0.0163155
874.910	0.0166337
874.988	0.0165338
875.067	0.0164604
875.145	0.0164272
875.223	0.0165715
875.301	0.0165366
875.379	0.0164287
875.457	0.0164875
875.535	0.0163544
875.613	0.0164067
875.692	0.0163153
875.770	0.0164291
875.848	0.0163662
875.926	0.0163016
876.004	0.0164826
876.082	0.0164284
876.160	0.0164194
876.238	0.0165115
876.317	0.0165155
876.395	0.0165231
876.473	0.0166019
876.551	0.0167400
876.629	0.0167225
876.707	0.0166906
876.785	0.0168810
876.863	0.0167426
876.942	0.0168335
877.020	0.0167487
877.098	0.0168132
877.176	0.0167240
877.254	0.0167208
877.332	0.0167406
877.410	0.0166703
877.488	0.0168260
877.567	0.0167903
877.645	0.0166140
877.723	0.0166369
877.801	0.0166181
877.879	0.0165028
877.957	0.0165537
878.035	0.0164518
878.113	0.0163956
878.192	0.0164255
878.270	0.0165120
878.348	0.0164000
878.426	0.0163013
878.504	0.0163732
878.582	0.0162382
878.660	0.0163084
878.738	0.0163951
878.817	0.0163886
878.895	0.0162077
878.973	0.0163910
879.051	0.0163257
879.129	0.0164897
879.207	0.0167818
879.285	0.0167944
879.363	0.0168809
879.442	0.0169445
879.520	0.0170098
879.598	0.0169688
879.676	0.0169338
879.754	0.0168723
879.832	0.0165626
879.910	0.0164255
879.988	0.0162212
880.067	0.0160629
880.145	0.0157619
880.223	0.0155459
880.301	0.0153720
880.379	0.0151262
880.457	0.0150427
880.535	0.0151366
880.613	0.0152636
880.692	0.0155805
880.770	0.0159261
880.848	0.0161968
880.926	0.0165712
881.004	0.0169408
881.082	0.0172964
881.160	0.0176532
881.238	0.0178101
881.317	0.0180939
881.395	0.0181417
881.473	0.0182148
881.551	0.0183802
881.629	0.0182868
881.707	0.0180344
881.785	0.0179572
881.863	0.0177953
881.942	0.0173781
882.020	0.0170895
882.098	0.0169720
882.176	0.0166672
882.254	0.0163404
882.332	0.0161015
882.410	0.0158542
882.488	0.0156445
882.567	0.0153941
882.645	0.0151683
882.723	0.0150789
882.801	0.0150297
882.879	0.0149635
882.957	0.0147364
883.035	0.0146900
883.113	0.0147662
883.192	0.0149982
883.270	0.0149303
883.348	0.0150556
883.426	0.0151108
883.504	0.0152609
883.582	0.0154321
883.660	0.0156636
883.738	0.0158217
883.817	0.0159283
883.895	0.0161922
883.973	0.0164565
884.051	0.0168021
884.129	0.0170645
884.207	0.0172559
884.285	0.0175557
884.363	0.0177198
884.442	0.0178537
884.520	0.0180501
884.598	0.0179826
884.676	0.0180598
884.754	0.0179328
884.832	0.0180145
884.910	0.0180040
884.988	0.0177659
885.067	0.0175665
885.145	0.0174176
885.223	0.0172966
885.301	0.0171503
885.379	0.0169746
885.457	0.0168583
885.535	0.0168160
885.613	0.0165359
885.692	0.0164613
885.770	0.0164457
885.848	0.0162930
885.926	0.0162845
886.004	0.0162504
886.082	0.0162653
886.160	0.0161845
886.238	0.0161589
886.317	0.0162302
886.395	0.0162868
886.473	0.0164165
886.551	0.0164089
886.629	0.0163808
886.707	0.0165293
886.785	0.0165075
886.863	0.0166315
886.942	0.0164621
887.020	0.0164017
887.098	0.0164802
887.176	0.0163567
887.254	0.0163354
887.332	0.0162830
887.410	0.0163152
887.488	0.0161153
887.567	0.0162477
887.645	0.0162355
887.723	0.0163055
887.801	0.0162202
887.879	0.0163369
887.957	0.0162072
888.035	0.0159556
888.113	0.0163648
888.192	0.0162644
888.270	0.0161770
888.348	0.0162250
888.426	0.0162979
888.504	0.0163205
888.582	0.0163833
888.660	0.0165257
888.738	0.0166193
888.817	0.0164414
888.895	0.0165457
888.973	0.0166110
889.051	0.0166335
889.129	0.0168319
889.207	0.0167657
889.285	0.0167832
889.363	0.0168039
889.442	0.0168371
889.520	0.0168340
889.598	0.0167943
889.676	0.0167758
889.754	0.0166311
889.832	0.0168001
889.910	0.0167697
889.988	0.0167294
890.067	0.0167062
890.145	0.0167363
890.223	0.0167204
890.301	0.0165584
890.379	0.0165854
890.457	0.0167403
890.535	0.0165744
890.613	0.0166007
890.692	0.0164611
890.770	0.0164854
890.848	0.0164679
890.926	0.0163649
891.004	0.0162684
891.082	0.0162254
891.160	0.0160320
891.238	0.0160953
891.317	0.0159856
891.395	0.0160001
891.473	0.0160040
891.551	0.0161535
891.629	0.0159843
891.707	0.0161040
891.785	0.0161362
891.863	0.0160581
891.942	0.0161066
892.020	0.0160628
892.098	0.0161951
892.176	0.0162377
892.254	0.0163132
892.332	0.0163532
892.410	0.0163631
892.488	0.0164389
892.567	0.0163982
892.645	0.0164304
892.723	0.0164640
892.801	0.0165688
892.879	0.0165339
892.957	0.0164613
893.035	0.0165252
893.113	0.0166745
893.192	0.0165878
893.270	0.0165498
893.348	0.0165742
893.426	0.0165824
893.504	0.0166966
893.582	0.0165526
893.660	0.0167667
893.738	0.0167727
893.817	0.0168180
893.895	0.0169534
893.973	0.0169484
894.051	0.0168719
894.129	0.0170293
894.207	0.0170219
894.285	0.0170233
894.363	0.0170712
894.442	0.0170770
894.520	0.0171614
894.598	0.0171836
894.676	0.0171347
894.754	0.0171236
894.832	0.0170960
894.910	0.0169429
894.988	0.0169501
895.067	0.0169555
895.145	0.0167363
895.223	0.0167453
895.301	0.0166494
895.379	0.0167304
895.457	0.0166557
895.535	0.0164800
895.613	0.0163759
895.692	0.0163992
895.770	0.0164816
895.848	0.0161700
895.926	0.0162635
896.004	0.0161526
896.082	0.0161366
896.160	0.0162801
896.238	0.0162265
896.317	0.0163204
896.395	0.0161597
896.473	0.0162749
896.551	0.0163986
896.629	0.0163286
896.707	0.0162704
896.785	0.0163836
896.863	0.0164079
896.942	0.0163622
897.020	0.0163126
897.098	0.0164869
897.176	0.0164317
897.254	0.0163760
897.332	0.0164872
897.410	0.0163986
897.488	0.0164021
897.567	0.0163367
897.645	0.0164314
897.723	0.0163905
897.801	0.0161620
897.879	0.0161330
897.957	0.0161123
898.035	0.0161877
898.113	0.0160266
898.192	0.0160117
898.270	0.0159377
898.348	0.0159952
898.426	0.0158779
898.504	0.0157996
898.582	0.0156921
898.660	0.0157677
898.738	0.0156984
898.817	0.0157288
898.895	0.0156780
898.973	0.0157635
899.051	0.0159019
899.129	0.0157181
899.207	0.0158044
899.285	0.0158181
899.363	0.0160206
899.442	0.0162283
899.520	0.0164307
899.598	0.0165108
899.676	0.0167669
899.754	0.0167822
899.832	0.0168946
899.910	0.0170876
899.988	0.0172431
900.067	0.0174200
900.145	0.0174454
900.223	0.0173911
900.301	0.0175030
900.379	0.0174920
900.457	0.0175396
900.535	0.0174075
900.613	0.0174569
900.692	0.0175273
900.770	0.0174712
900.848	0.0171117
900.926	0.0171643
901.004	0.0171283
901.082	0.0170493
901.160	0.0170478
901.238	0.0168385
901.317	0.0168031
901.395	0.0167383
901.473	0.0167209
901.551	0.0168207
901.629	0.0167102
901.707	0.0166935
901.785	0.0166985
901.863	0.0166561
901.942	0.0165530
902.020	0.0166786
902.098	0.0165731
902.176	0.0166808
902.254	0.0166516
902.332	0.0165971
902.410	0.0166096
902.488	0.0165983
902.567	0.0164846
902.645	0.0163995
902.723	0.0163223
902.801	0.0163423
902.879	0.0163381
902.957	0.0162916
903.035	0.0162959
903.113	0.0162884
903.192	0.0160185
903.270	0.0161199
903.348	0.0161676
903.426	0.0161810
903.504	0.0161572
903.582	0.0161287
903.660	0.0161574
903.738	0.0161577
903.817	0.0161351
903.895	0.0162595
903.973	0.0161543
904.051	0.0163093
904.129	0.0161912
904.207	0.0162184
904.285	0.0162479
904.363	0.0163633
904.442	0.0163861
904.520	0.0162334
904.598	0.0163143
904.676	0.0161947
904.754	0.0163945
904.832	0.0161377
904.910	0.0162547
904.988	0.0162638
905.067	0.0164183
905.145	0.0163301
905.223	0.0164227
905.301	0.0163432
905.379	0.0162659
905.457	0.0162716
905.535	0.0163363
905.613	0.0162668
905.692	0.0163393
905.770	0.0163451
905.848	0.0163620
905.926	0.0163361
906.004	0.0163735
906.082	0.0162630
906.160	0.0163457
906.238	0.0163422
906.317	0.0163000
906.395	0.0164529
906.473	0.0164221
906.551	0.0164424
906.629	0.0166491
906.707	0.0165431
906.785	0.0164465
906.863	0.0166028
906.942	0.0164687
907.020	0.0166245
907.098	0.0166535
907.176	0.0166253
907.254	0.0166872
907.332	0.0167410
907.410	0.0166191
907.488	0.0165709
907.567	0.0167223
907.645	0.0166531
907.723	0.0165403
907.801	0.0164094
907.879	0.0165514
907.957	0.0166750
908.035	0.0166261
908.113	0.0165003
908.192	0.0165891
908.270	0.0165098
908.348	0.0165060
908.426	0.0167138
908.504	0.0167435
908.582	0.0167258
908.660	0.0167814
908.738	0.0167897
908.817	0.0167693
908.895	0.0167280
908.973	0.0167986
909.051	0.0167709
909.129	0.0167922
909.207	0.0167586
909.285	0.0167776
909.363	0.0167121
909.442	0.0167099
909.520	0.0166512
909.598	0.0165234
909.676	0.0166280
909.754	0.0166198
909.832	0.0165810
909.910	0.0166338
909.988	0.0167812
910.067	0.0167334
910.145	0.0165954
910.223	0.0165697
910.301	0.0166656
910.379	0.0168378
910.457	0.0167316
910.535	0.0166686
910.613	0.0167163
910.692	0.0165287
910.770	0.0166129
910.848	0.0165629
910.926	0.0164850
911.004	0.0164283
911.082	0.0164572
911.160	0.0163824
911.238	0.0163615
911.317	0.0163004
911.395	0.0163877
911.473	0.0163363
911.551	0.0163293
911.629	0.0162877
911.707	0.0165614
911.785	0.0165421
911.863	0.0163880
911.942	0.0164997
912.020	0.0163255
912.098	0.0163364
912.176	0.0167041
912.254	0.0166233
912.332	0.0165033
912.410	0.0166324
912.488	0.0165698
912.567	0.0165877
912.645	0.0165094
912.723	0.0165871
912.801	0.0166427
912.879	0.0166296
912.957	0.0166122
913.035	0.0165804
913.113	0.0165251
913.192	0.0165333
913.270	0.0164705
913.348	0.0165707
913.426	0.0165212
913.504	0.0163297
913.582	0.0163513
913.660	0.0162247
913.738	0.0164198
913.817	0.0162720
913.895	0.0162919
913.973	0.0163992
914.051	0.0162898
914.129	0.0161632
914.207	0.0162103
914.285	0.0161962
914.363	0.0161384
914.442	0.0161717
914.520	0.0162733
914.598	0.0162556
914.676	0.0162250
914.754	0.0162463
914.832	0.0162907
914.910	0.0162923
914.988	0.0163485
915.067	0.0163834
915.145	0.0163179
915.223	0.0162721
915.301	0.0163991
915.379	0.0164687
915.457	0.0163265
915.535	0.0163397
915.613	0.0163226
915.692	0.0164015
915.770	0.0165117
915.848	0.0163116
915.926	0.0162991
916.004	0.0162112
916.082	0.0162827
916.160	0.0164048
916.238	0.0163704
916.317	0.0163152
916.395	0.0162856
916.473	0.0163548
916.551	0.0163801
916.629	0.0163655
916.707	0.0166503
916.785	0.0165218
916.863	0.0166505
916.942	0.0169212
917.020	0.0169170
917.098	0.0169858
917.176	0.0171497
917.254	0.0170884
917.332	0.0171653
917.410	0.0172308
917.488	0.0173796
917.567	0.0173396
917.645	0.0173295
917.723	0.0174078
917.801	0.0174722
917.879	0.0172237
917.957	0.0173466
918.035	0.0171832
918.113	0.0171868
918.192	0.0171888
918.270	0.0170949
918.348	0.0169911
918.426	0.0168544
918.504	0.0169380
918.582	0.0167237
918.660	0.0167085
918.738	0.0166756
918.817	0.0167029
918.895	0.0166145
918.973	0.0166430
919.051	0.0164451
919.129	0.0165294
919.207	0.0165059
919.285	0.0164571
919.363	0.0163317
919.442	0.0163489
919.520	0.0163242
919.598	0.0162141
919.676	0.0161900
919.754	0.0162011
919.832	0.0161352
919.910	0.0162510
