05/26/2022	00:40:59	Ver.	4.1	UNKNOWN
Optical Delay	599.988409	Delta X		0.078125	Sweeps	1	Scan Rate	0/0
Coordinates	Axis 1	NaN	Axis 2	NaN	Axis 3	NaN	Axis 4	NaN	Axis 5	NaN	Axis 6	0.000000
TX Power	0.000000	RX Power	0.000000

599.988	0.0167966
600.067	0.0168407
600.145	0.0168097
600.223	0.0167046
600.301	0.0166531
600.379	0.0168103
600.457	0.0168060
600.535	0.0167646
600.613	0.0167554
600.692	0.0169373
600.770	0.0167081
600.848	0.0167828
600.926	0.0167796
601.004	0.0166644
601.082	0.0167723
601.160	0.0169027
601.238	0.0167419
601.317	0.0168428
601.395	0.0168375
601.473	0.0167725
601.551	0.0167735
601.629	0.0167326
601.707	0.0167316
601.785	0.0168004
601.863	0.0167824
601.942	0.0166938
602.020	0.0167615
602.098	0.0169259
602.176	0.0167422
602.254	0.0167419
602.332	0.0167745
602.410	0.0167842
602.488	0.0167622
602.567	0.0168384
602.645	0.0167353
602.723	0.0166925
602.801	0.0167747
602.879	0.0168271
602.957	0.0167562
603.035	0.0165920
603.113	0.0166094
603.192	0.0169168
603.270	0.0168239
603.348	0.0167886
603.426	0.0168630
603.504	0.0167214
603.582	0.0167428
603.660	0.0168341
603.738	0.0168042
603.817	0.0167489
603.895	0.0167135
603.973	0.0169118
604.051	0.0168227
604.129	0.0167341
604.207	0.0167661
604.285	0.0166843
604.363	0.0168029
604.442	0.0169024
604.520	0.0167323
604.598	0.0166952
604.676	0.0166664
604.754	0.0168435
604.832	0.0166635
604.910	0.0167120
604.988	0.0167720
605.067	0.0166959
605.145	0.0167066
605.223	0.0167860
605.301	0.0167818
605.379	0.0167244
605.457	0.0166345
605.535	0.0166750
605.613	0.0167022
605.692	0.0168194
605.770	0.0167903
605.848	0.0167724
605.926	0.0168193
606.004	0.0166799
606.082	0.0167298
606.160	0.0166928
606.238	0.0167163
606.317	0.0166250
606.395	0.0168418
606.473	0.0168186
606.551	0.0166080
606.629	0.0167073
606.707	0.0168212
606.785	0.0167242
606.863	0.0167463
606.942	0.0169199
607.020	0.0168169
607.098	0.0167902
607.176	0.0168660
607.254	0.0167942
607.332	0.0168159
607.410	0.0167815
607.488	0.0167163
607.567	0.0168105
607.645	0.0166228
607.723	0.0168275
607.801	0.0166501
607.879	0.0166985
607.957	0.0167661
608.035	0.0168148
608.113	0.0165885
608.192	0.0166975
608.270	0.0168243
608.348	0.0168414
608.426	0.0167122
608.504	0.0169523
608.582	0.0168053
608.660	0.0168292
608.738	0.0167721
608.817	0.0168831
608.895	0.0167546
608.973	0.0167657
609.051	0.0167408
609.129	0.0166529
609.207	0.0167697
609.285	0.0166812
609.363	0.0167463
609.442	0.0168998
609.520	0.0167326
609.598	0.0166505
609.676	0.0166576
609.754	0.0167268
609.832	0.0168421
609.910	0.0168066
609.988	0.0166261
610.067	0.0167771
610.145	0.0166911
610.223	0.0167038
610.301	0.0168083
610.379	0.0170887
610.457	0.0168510
610.535	0.0168375
610.613	0.0168678
610.692	0.0168361
610.770	0.0168742
610.848	0.0169846
610.926	0.0168944
611.004	0.0167551
611.082	0.0167551
611.160	0.0167577
611.238	0.0167162
611.317	0.0168168
611.395	0.0167480
611.473	0.0168299
611.551	0.0168655
611.629	0.0167986
611.707	0.0167245
611.785	0.0167858
611.863	0.0167619
611.942	0.0166891
612.020	0.0166772
612.098	0.0166749
612.176	0.0166993
612.254	0.0166728
612.332	0.0166248
612.410	0.0166590
612.488	0.0166578
612.567	0.0165743
612.645	0.0166824
612.723	0.0167251
612.801	0.0166283
612.879	0.0165830
612.957	0.0167023
613.035	0.0168240
613.113	0.0166152
613.192	0.0167185
613.270	0.0167778
613.348	0.0167420
613.426	0.0167873
613.504	0.0167628
613.582	0.0167639
613.660	0.0168386
613.738	0.0167229
613.817	0.0167947
613.895	0.0168321
613.973	0.0166965
614.051	0.0168441
614.129	0.0168216
614.207	0.0168594
614.285	0.0168232
614.363	0.0167953
614.442	0.0167352
614.520	0.0168893
614.598	0.0167934
614.676	0.0167798
614.754	0.0167705
614.832	0.0167134
614.910	0.0168000
614.988	0.0167536
615.067	0.0167922
615.145	0.0169862
615.223	0.0168763
615.301	0.0167278
615.379	0.0166412
615.457	0.0167544
615.535	0.0167588
615.613	0.0168704
615.692	0.0167190
615.770	0.0166798
615.848	0.0167888
615.926	0.0167120
616.004	0.0166968
616.082	0.0167947
616.160	0.0167818
616.238	0.0167181
616.317	0.0167114
616.395	0.0167307
616.473	0.0166615
616.551	0.0166570
616.629	0.0167463
616.707	0.0166501
616.785	0.0167984
616.863	0.0166808
616.942	0.0166985
617.020	0.0167845
617.098	0.0166524
617.176	0.0167822
617.254	0.0167262
617.332	0.0166578
617.410	0.0167338
617.488	0.0166081
617.567	0.0165929
617.645	0.0166829
617.723	0.0167374
617.801	0.0168225
617.879	0.0165830
617.957	0.0167318
618.035	0.0167106
618.113	0.0168072
618.192	0.0167797
618.270	0.0167456
618.348	0.0167339
618.426	0.0167140
618.504	0.0166915
618.582	0.0167409
618.660	0.0167409
618.738	0.0167410
618.817	0.0166580
618.895	0.0168240
618.973	0.0167873
619.051	0.0167419
619.129	0.0169125
619.207	0.0168518
619.285	0.0167954
619.363	0.0169498
619.442	0.0167999
619.520	0.0168671
619.598	0.0168442
619.676	0.0167938
619.754	0.0169215
619.832	0.0168638
619.910	0.0167773
619.988	0.0168338
620.067	0.0168650
620.145	0.0168335
620.223	0.0167741
620.301	0.0167403
620.379	0.0167901
620.457	0.0167725
620.535	0.0168293
620.613	0.0167779
620.692	0.0167722
620.770	0.0168337
620.848	0.0167332
620.926	0.0166811
621.004	0.0168262
621.082	0.0166827
621.160	0.0167837
621.238	0.0169151
621.317	0.0167870
621.395	0.0167737
621.473	0.0166956
621.551	0.0168295
621.629	0.0167950
621.707	0.0169019
621.785	0.0168719
621.863	0.0170253
621.942	0.0167789
622.020	0.0168525
622.098	0.0167966
622.176	0.0167923
622.254	0.0167050
622.332	0.0167328
622.410	0.0168787
622.488	0.0166680
622.567	0.0168756
622.645	0.0166452
622.723	0.0167771
622.801	0.0169076
622.879	0.0167157
622.957	0.0167854
623.035	0.0167316
623.113	0.0167371
623.192	0.0167008
623.270	0.0167406
623.348	0.0166421
623.426	0.0168087
623.504	0.0167455
623.582	0.0168487
623.660	0.0166850
623.738	0.0167634
623.817	0.0167142
623.895	0.0167835
623.973	0.0168507
624.051	0.0167390
624.129	0.0168595
624.207	0.0168507
624.285	0.0168194
624.363	0.0168240
624.442	0.0168403
624.520	0.0167075
624.598	0.0168662
624.676	0.0168061
624.754	0.0168110
624.832	0.0168265
624.910	0.0168547
624.988	0.0167816
625.067	0.0167773
625.145	0.0167899
625.223	0.0167666
625.301	0.0166872
625.379	0.0167539
625.457	0.0166356
625.535	0.0167316
625.613	0.0169331
625.692	0.0168373
625.770	0.0168122
625.848	0.0167718
625.926	0.0167610
626.004	0.0167052
626.082	0.0167633
626.160	0.0169212
626.238	0.0167734
626.317	0.0168189
626.395	0.0168384
626.473	0.0168056
626.551	0.0168851
626.629	0.0168674
626.707	0.0167498
626.785	0.0167749
626.863	0.0167068
626.942	0.0167905
627.020	0.0168795
627.098	0.0168550
627.176	0.0168582
627.254	0.0166881
627.332	0.0167778
627.410	0.0168174
627.488	0.0167377
627.567	0.0167944
627.645	0.0167660
627.723	0.0166636
627.801	0.0168266
627.879	0.0168481
627.957	0.0166920
628.035	0.0167494
628.113	0.0168488
628.192	0.0167377
628.270	0.0168118
628.348	0.0168115
628.426	0.0168793
628.504	0.0167402
628.582	0.0166837
628.660	0.0168224
628.738	0.0166810
628.817	0.0168767
628.895	0.0167619
628.973	0.0167879
629.051	0.0166476
629.129	0.0168071
629.207	0.0167999
629.285	0.0168436
629.363	0.0167109
629.442	0.0168051
629.520	0.0168029
629.598	0.0167345
629.676	0.0167326
629.754	0.0167803
629.832	0.0167482
629.910	0.0167845
629.988	0.0167194
630.067	0.0166435
630.145	0.0167760
630.223	0.0167174
630.301	0.0167031
630.379	0.0168476
630.457	0.0168430
630.535	0.0167753
630.613	0.0167068
630.692	0.0167914
630.770	0.0167771
630.848	0.0167791
630.926	0.0167484
631.004	0.0168275
631.082	0.0168222
631.160	0.0168593
631.238	0.0169353
631.317	0.0167831
631.395	0.0166702
631.473	0.0167587
631.551	0.0167797
631.629	0.0168504
631.707	0.0167661
631.785	0.0167918
631.863	0.0167908
631.942	0.0167918
632.020	0.0167669
632.098	0.0168208
632.176	0.0168097
632.254	0.0167286
632.332	0.0167908
632.410	0.0167052
632.488	0.0167576
632.567	0.0168602
632.645	0.0168118
632.723	0.0167372
632.801	0.0166876
632.879	0.0167636
632.957	0.0168951
633.035	0.0167239
633.113	0.0167114
633.192	0.0167450
633.270	0.0167026
633.348	0.0168716
633.426	0.0168129
633.504	0.0167625
633.582	0.0167445
633.660	0.0165645
633.738	0.0168006
633.817	0.0168704
633.895	0.0167020
633.973	0.0168803
634.051	0.0167616
634.129	0.0166710
634.207	0.0166761
634.285	0.0168768
634.363	0.0168138
634.442	0.0168301
634.520	0.0169193
634.598	0.0168154
634.676	0.0166959
634.754	0.0167664
634.832	0.0169022
634.910	0.0168706
634.988	0.0168121
635.067	0.0168347
635.145	0.0168304
635.223	0.0166703
635.301	0.0167357
635.379	0.0167621
635.457	0.0167955
635.535	0.0167459
635.613	0.0167830
635.692	0.0169508
635.770	0.0168707
635.848	0.0167230
635.926	0.0167520
636.004	0.0168298
636.082	0.0167816
636.160	0.0167516
636.238	0.0168262
636.317	0.0167098
636.395	0.0167897
636.473	0.0167848
636.551	0.0168803
636.629	0.0167070
636.707	0.0168202
636.785	0.0167046
636.863	0.0167667
636.942	0.0168130
637.020	0.0168170
637.098	0.0167126
637.176	0.0168146
637.254	0.0167217
637.332	0.0166663
637.410	0.0167060
637.488	0.0167706
637.567	0.0167563
637.645	0.0167558
637.723	0.0168073
637.801	0.0167121
637.879	0.0166253
637.957	0.0166261
638.035	0.0166565
638.113	0.0166773
638.192	0.0168147
638.270	0.0168044
638.348	0.0166772
638.426	0.0168111
638.504	0.0167228
638.582	0.0166933
638.660	0.0167661
638.738	0.0167870
638.817	0.0166900
638.895	0.0167599
638.973	0.0168509
639.051	0.0167377
639.129	0.0167246
639.207	0.0168334
639.285	0.0166663
639.363	0.0167258
639.442	0.0166652
639.520	0.0167177
639.598	0.0168393
639.676	0.0168128
639.754	0.0167225
639.832	0.0168678
639.910	0.0168850
639.988	0.0167309
640.067	0.0167434
640.145	0.0165749
640.223	0.0167942
640.301	0.0167651
640.379	0.0166754
640.457	0.0168013
640.535	0.0168152
640.613	0.0167211
640.692	0.0168710
640.770	0.0168374
640.848	0.0166916
640.926	0.0167055
641.004	0.0167551
641.082	0.0166887
641.160	0.0169673
641.238	0.0168519
641.317	0.0167065
641.395	0.0167815
641.473	0.0168787
641.551	0.0167712
641.629	0.0168890
641.707	0.0167766
641.785	0.0166635
641.863	0.0168884
641.942	0.0167485
642.020	0.0167516
642.098	0.0168284
642.176	0.0167180
642.254	0.0168229
642.332	0.0168097
642.410	0.0166943
642.488	0.0168446
642.567	0.0169033
642.645	0.0166672
642.723	0.0169056
642.801	0.0168208
642.879	0.0167648
642.957	0.0167299
643.035	0.0166933
643.113	0.0169138
643.192	0.0167502
643.270	0.0168362
643.348	0.0166931
643.426	0.0166650
643.504	0.0167772
643.582	0.0169460
643.660	0.0168319
643.738	0.0168867
643.817	0.0167435
643.895	0.0167469
643.973	0.0167818
644.051	0.0167974
644.129	0.0168410
644.207	0.0168079
644.285	0.0168209
644.363	0.0169240
644.442	0.0167056
644.520	0.0167067
644.598	0.0167934
644.676	0.0166824
644.754	0.0166992
644.832	0.0168414
644.910	0.0166960
644.988	0.0167434
645.067	0.0166428
645.145	0.0166954
645.223	0.0168555
645.301	0.0168755
645.379	0.0168523
645.457	0.0167912
645.535	0.0166933
645.613	0.0167163
645.692	0.0168066
645.770	0.0167695
645.848	0.0167761
645.926	0.0167972
646.004	0.0166405
646.082	0.0166948
646.160	0.0168571
646.238	0.0168372
646.317	0.0168134
646.395	0.0167021
646.473	0.0167950
646.551	0.0167913
646.629	0.0167902
646.707	0.0166727
646.785	0.0167049
646.863	0.0168648
646.942	0.0168676
647.020	0.0167441
647.098	0.0165942
647.176	0.0166979
647.254	0.0166142
647.332	0.0168345
647.410	0.0168460
647.488	0.0167565
647.567	0.0167661
647.645	0.0168112
647.723	0.0167684
647.801	0.0166932
647.879	0.0167501
647.957	0.0167979
648.035	0.0168267
648.113	0.0166725
648.192	0.0165424
648.270	0.0167933
648.348	0.0168556
648.426	0.0167789
648.504	0.0167434
648.582	0.0168840
648.660	0.0167688
648.738	0.0167142
648.817	0.0167247
648.895	0.0167911
648.973	0.0169168
649.051	0.0167072
649.129	0.0166434
649.207	0.0167935
649.285	0.0167126
649.363	0.0165487
649.442	0.0167947
649.520	0.0167713
649.598	0.0167887
649.676	0.0167485
649.754	0.0168073
649.832	0.0167358
649.910	0.0166039
649.988	0.0167570
650.067	0.0166984
650.145	0.0168124
650.223	0.0168159
650.301	0.0168295
650.379	0.0167154
650.457	0.0167021
650.535	0.0168269
650.613	0.0167722
650.692	0.0167206
650.770	0.0166676
650.848	0.0167517
650.926	0.0167728
651.004	0.0166763
651.082	0.0168507
651.160	0.0168098
651.238	0.0168346
651.317	0.0168689
651.395	0.0167622
651.473	0.0168108
651.551	0.0167821
651.629	0.0166948
651.707	0.0166837
651.785	0.0166050
651.863	0.0167606
651.942	0.0167654
652.020	0.0167315
652.098	0.0167101
652.176	0.0168612
652.254	0.0168296
652.332	0.0167307
652.410	0.0166331
652.488	0.0167785
652.567	0.0167727
652.645	0.0167115
652.723	0.0169512
652.801	0.0166936
652.879	0.0168102
652.957	0.0167928
653.035	0.0168110
653.113	0.0167018
653.192	0.0167276
653.270	0.0166352
653.348	0.0168120
653.426	0.0166933
653.504	0.0166875
653.582	0.0167010
653.660	0.0167422
653.738	0.0167152
653.817	0.0168122
653.895	0.0167390
653.973	0.0167030
654.051	0.0168245
654.129	0.0167904
654.207	0.0166763
654.285	0.0167804
654.363	0.0167085
654.442	0.0167095
654.520	0.0166180
654.598	0.0166760
654.676	0.0168068
654.754	0.0165894
654.832	0.0167631
654.910	0.0167506
654.988	0.0167931
655.067	0.0167084
655.145	0.0167785
655.223	0.0167151
655.301	0.0166560
655.379	0.0168167
655.457	0.0168031
655.535	0.0166416
655.613	0.0167516
655.692	0.0168885
655.770	0.0167295
655.848	0.0167271
655.926	0.0168852
656.004	0.0167128
656.082	0.0166759
656.160	0.0167244
656.238	0.0167377
656.317	0.0168499
656.395	0.0168157
656.473	0.0167581
656.551	0.0167229
656.629	0.0167349
656.707	0.0167510
656.785	0.0167755
656.863	0.0168967
656.942	0.0167264
657.020	0.0167429
657.098	0.0167668
657.176	0.0168079
657.254	0.0166737
657.332	0.0167964
657.410	0.0169125
657.488	0.0167354
657.567	0.0166022
657.645	0.0169054
657.723	0.0167152
657.801	0.0167588
657.879	0.0167795
657.957	0.0168536
658.035	0.0167616
658.113	0.0167608
658.192	0.0167931
658.270	0.0166637
658.348	0.0167104
658.426	0.0169379
658.504	0.0167572
658.582	0.0167803
658.660	0.0167329
658.738	0.0168059
658.817	0.0167496
658.895	0.0168472
658.973	0.0168973
659.051	0.0167674
659.129	0.0168355
659.207	0.0166164
659.285	0.0168029
659.363	0.0168848
659.442	0.0168443
659.520	0.0168418
659.598	0.0168399
659.676	0.0168583
659.754	0.0167870
659.832	0.0167674
659.910	0.0167626
659.988	0.0167155
660.067	0.0167538
660.145	0.0167108
660.223	0.0167744
660.301	0.0167164
660.379	0.0168922
660.457	0.0168822
660.535	0.0166300
660.613	0.0166618
660.692	0.0168478
660.770	0.0167318
660.848	0.0167915
660.926	0.0168639
661.004	0.0167249
661.082	0.0167271
661.160	0.0167870
661.238	0.0166924
661.317	0.0167559
661.395	0.0167490
661.473	0.0167902
661.551	0.0166698
661.629	0.0167931
661.707	0.0168462
661.785	0.0168295
661.863	0.0168229
661.942	0.0167436
662.020	0.0167274
662.098	0.0168413
662.176	0.0167825
662.254	0.0167587
662.332	0.0168063
662.410	0.0167531
662.488	0.0166386
662.567	0.0167619
662.645	0.0169017
662.723	0.0168144
662.801	0.0167188
662.879	0.0166779
662.957	0.0167550
663.035	0.0167885
663.113	0.0167712
663.192	0.0167636
663.270	0.0167658
663.348	0.0167934
663.426	0.0167670
663.504	0.0168667
663.582	0.0166344
663.660	0.0167074
663.738	0.0166829
663.817	0.0167773
663.895	0.0167117
663.973	0.0168977
664.051	0.0168599
664.129	0.0167244
664.207	0.0168205
664.285	0.0167672
664.363	0.0168491
664.442	0.0168292
664.520	0.0167346
664.598	0.0168227
664.676	0.0168369
664.754	0.0167679
664.832	0.0167464
664.910	0.0166873
664.988	0.0167152
665.067	0.0167770
665.145	0.0167797
665.223	0.0168686
665.301	0.0168484
665.379	0.0167951
665.457	0.0168446
665.535	0.0168620
665.613	0.0169600
665.692	0.0168100
665.770	0.0167482
665.848	0.0168962
665.926	0.0169291
666.004	0.0168078
666.082	0.0167877
666.160	0.0167314
666.238	0.0167599
666.317	0.0167236
666.395	0.0167675
666.473	0.0167532
666.551	0.0167330
666.629	0.0169375
666.707	0.0167380
666.785	0.0168095
666.863	0.0168289
666.942	0.0168702
667.020	0.0167935
667.098	0.0168105
667.176	0.0168042
667.254	0.0168571
667.332	0.0166776
667.410	0.0168059
667.488	0.0168274
667.567	0.0168015
667.645	0.0166537
667.723	0.0167075
667.801	0.0168029
667.879	0.0168104
667.957	0.0166665
668.035	0.0167007
668.113	0.0168128
668.192	0.0167345
668.270	0.0169215
668.348	0.0168513
668.426	0.0168649
668.504	0.0167139
668.582	0.0167752
668.660	0.0168589
668.738	0.0167709
668.817	0.0167162
668.895	0.0167371
668.973	0.0167969
669.051	0.0167369
669.129	0.0166619
669.207	0.0168787
669.285	0.0168007
669.363	0.0168155
669.442	0.0167317
669.520	0.0167068
669.598	0.0167568
669.676	0.0169263
669.754	0.0168479
669.832	0.0167239
669.910	0.0168858
669.988	0.0168401
670.067	0.0166653
670.145	0.0166930
670.223	0.0167867
670.301	0.0166370
670.379	0.0166844
670.457	0.0169635
670.535	0.0167875
670.613	0.0168097
670.692	0.0167683
670.770	0.0167863
670.848	0.0168539
670.926	0.0168626
671.004	0.0167422
671.082	0.0167654
671.160	0.0168011
671.238	0.0168392
671.317	0.0168301
671.395	0.0166588
671.473	0.0168752
671.551	0.0168085
671.629	0.0166718
671.707	0.0168414
671.785	0.0165775
671.863	0.0167410
671.942	0.0167625
672.020	0.0168791
672.098	0.0168129
672.176	0.0169322
672.254	0.0168080
672.332	0.0168055
672.410	0.0167625
672.488	0.0167251
672.567	0.0167129
672.645	0.0167780
672.723	0.0168756
672.801	0.0166516
672.879	0.0167198
672.957	0.0167572
673.035	0.0168755
673.113	0.0167358
673.192	0.0167886
673.270	0.0167364
673.348	0.0167133
673.426	0.0168124
673.504	0.0168126
673.582	0.0167511
673.660	0.0167934
673.738	0.0167507
673.817	0.0167982
673.895	0.0165752
673.973	0.0167037
674.051	0.0167371
674.129	0.0167841
674.207	0.0167753
674.285	0.0167989
674.363	0.0167271
674.442	0.0167702
674.520	0.0168951
674.598	0.0167536
674.676	0.0167838
674.754	0.0168323
674.832	0.0167077
674.910	0.0168143
674.988	0.0167879
675.067	0.0168958
675.145	0.0167564
675.223	0.0167550
675.301	0.0167245
675.379	0.0167919
675.457	0.0167017
675.535	0.0167439
675.613	0.0168293
675.692	0.0167535
675.770	0.0168331
675.848	0.0167350
675.926	0.0169066
676.004	0.0167847
676.082	0.0168349
676.160	0.0168326
676.238	0.0167126
676.317	0.0166886
676.395	0.0166919
676.473	0.0169023
676.551	0.0166933
676.629	0.0167960
676.707	0.0168427
676.785	0.0166567
676.863	0.0167319
676.942	0.0167671
677.020	0.0167773
677.098	0.0167577
677.176	0.0167963
677.254	0.0168057
677.332	0.0166753
677.410	0.0166573
677.488	0.0166731
677.567	0.0167155
677.645	0.0167976
677.723	0.0167859
677.801	0.0166280
677.879	0.0166925
677.957	0.0168093
678.035	0.0166707
678.113	0.0168612
678.192	0.0168240
678.270	0.0167189
678.348	0.0166595
678.426	0.0168291
678.504	0.0166901
678.582	0.0167900
678.660	0.0167894
678.738	0.0169302
678.817	0.0168078
678.895	0.0169225
678.973	0.0168909
679.051	0.0167543
679.129	0.0167055
679.207	0.0168615
679.285	0.0167391
679.363	0.0167500
679.442	0.0167122
679.520	0.0169302
679.598	0.0166745
679.676	0.0166507
679.754	0.0167321
679.832	0.0168602
679.910	0.0169302
679.988	0.0166567
680.067	0.0166870
680.145	0.0167171
680.223	0.0166079
680.301	0.0166876
680.379	0.0165790
680.457	0.0167361
680.535	0.0166832
680.613	0.0167585
680.692	0.0167787
680.770	0.0168006
680.848	0.0168495
680.926	0.0168020
681.004	0.0165987
681.082	0.0166270
681.160	0.0167642
681.238	0.0167707
681.317	0.0167760
681.395	0.0167648
681.473	0.0169633
681.551	0.0166970
681.629	0.0167303
681.707	0.0168004
681.785	0.0168039
681.863	0.0169135
681.942	0.0169042
682.020	0.0168147
682.098	0.0167590
682.176	0.0168730
682.254	0.0168164
682.332	0.0167045
682.410	0.0167580
682.488	0.0168032
682.567	0.0168705
682.645	0.0168092
682.723	0.0166222
682.801	0.0168674
682.879	0.0166741
682.957	0.0166948
683.035	0.0168318
683.113	0.0166975
683.192	0.0167041
683.270	0.0167384
683.348	0.0166963
683.426	0.0167245
683.504	0.0168990
683.582	0.0167397
683.660	0.0167151
683.738	0.0167873
683.817	0.0168601
683.895	0.0166226
683.973	0.0168391
684.051	0.0167210
684.129	0.0168003
684.207	0.0167962
684.285	0.0168404
684.363	0.0168673
684.442	0.0166888
684.520	0.0167321
684.598	0.0167509
684.676	0.0167595
684.754	0.0167618
684.832	0.0168929
684.910	0.0167856
684.988	0.0169009
685.067	0.0168063
685.145	0.0166871
685.223	0.0168842
685.301	0.0168192
685.379	0.0168326
685.457	0.0167007
685.535	0.0169178
685.613	0.0167941
685.692	0.0166987
685.770	0.0168499
685.848	0.0168323
685.926	0.0166270
686.004	0.0166232
686.082	0.0166102
686.160	0.0167419
686.238	0.0166203
686.317	0.0167670
686.395	0.0167107
686.473	0.0166259
686.551	0.0165323
686.629	0.0165392
686.707	0.0164722
686.785	0.0163026
686.863	0.0163187
686.942	0.0163375
687.020	0.0163274
687.098	0.0163643
687.176	0.0167062
687.254	0.0171667
687.332	0.0179659
687.410	0.0188197
687.488	0.0195702
687.567	0.0203690
687.645	0.0211277
687.723	0.0213916
687.801	0.0213120
687.879	0.0209782
687.957	0.0200444
688.035	0.0185894
688.113	0.0171832
688.192	0.0153838
688.270	0.0134429
688.348	0.0113741
688.426	0.00957977
688.504	0.00804115
688.582	0.00678406
688.660	0.00601852
688.738	0.00553101
688.817	0.00543243
688.895	0.00630234
688.973	0.00723160
689.051	0.00861824
689.129	0.0104248
689.207	0.0124352
689.285	0.0146236
689.363	0.0168879
689.442	0.0193766
689.520	0.0216936
689.598	0.0241730
689.676	0.0262587
689.754	0.0282971
689.832	0.0299435
689.910	0.0312356
689.988	0.0322726
690.067	0.0329738
690.145	0.0331655
690.223	0.0329462
690.301	0.0323026
690.379	0.0312975
690.457	0.0296906
690.535	0.0279039
690.613	0.0257091
690.692	0.0235471
690.770	0.0210567
690.848	0.0182452
690.926	0.0156618
691.004	0.0130540
691.082	0.0103789
691.160	0.00796219
691.238	0.00555351
691.317	0.00360542
691.395	0.00194000
691.473	0.000607071
691.551	-0.000364914
691.629	-0.00103554
691.707	-0.00125633
691.785	-0.000732803
691.863	-0.000159607
691.942	0.000752640
692.020	0.00211311
692.098	0.00370605
692.176	0.00560707
692.254	0.00747192
692.332	0.00952393
692.410	0.0115627
692.488	0.0134552
692.567	0.0154826
692.645	0.0171891
692.723	0.0186987
692.801	0.0203240
692.879	0.0216378
692.957	0.0226785
693.035	0.0234833
693.113	0.0241966
693.192	0.0246642
693.270	0.0250707
693.348	0.0253255
693.426	0.0256254
693.504	0.0257493
693.582	0.0259232
693.660	0.0260764
693.738	0.0261279
693.817	0.0260392
693.895	0.0263320
693.973	0.0261951
694.051	0.0259589
694.129	0.0257674
694.207	0.0254778
694.285	0.0253159
694.363	0.0246262
694.442	0.0241608
694.520	0.0235430
694.598	0.0227126
694.676	0.0219316
694.754	0.0210953
694.832	0.0200776
694.910	0.0190636
694.988	0.0181811
695.067	0.0173221
695.145	0.0164468
695.223	0.0156536
695.301	0.0148010
695.379	0.0139433
695.457	0.0131610
695.535	0.0126910
695.613	0.0120514
695.692	0.0114459
695.770	0.0111748
695.848	0.0106213
695.926	0.0104719
696.004	0.0101084
696.082	0.0100244
696.160	0.0100654
696.238	0.00989349
696.317	0.0101430
696.395	0.0102082
696.473	0.0104758
696.551	0.0104897
696.629	0.0107413
696.707	0.0109358
696.785	0.0111905
696.863	0.0113970
696.942	0.0116470
697.020	0.0118658
697.098	0.0122018
697.176	0.0124454
697.254	0.0126917
697.332	0.0129753
697.410	0.0132843
697.488	0.0138202
697.567	0.0143225
697.645	0.0148020
697.723	0.0152608
697.801	0.0158951
697.879	0.0163029
697.957	0.0171909
698.035	0.0176736
698.113	0.0181384
698.192	0.0186610
698.270	0.0192136
698.348	0.0195369
698.426	0.0199527
698.504	0.0202079
698.582	0.0203517
698.660	0.0204831
698.738	0.0205617
698.817	0.0205865
698.895	0.0205027
698.973	0.0205683
699.051	0.0202795
699.129	0.0201036
699.207	0.0199033
699.285	0.0197440
699.363	0.0196572
699.442	0.0194962
699.520	0.0193876
699.598	0.0189754
699.676	0.0189681
699.754	0.0190800
699.832	0.0189079
699.910	0.0188780
699.988	0.0190905
700.067	0.0193161
700.145	0.0195975
700.223	0.0197697
700.301	0.0198649
700.379	0.0202456
700.457	0.0205339
700.535	0.0205406
700.613	0.0206821
700.692	0.0207765
700.770	0.0206149
700.848	0.0204950
700.926	0.0202322
701.004	0.0198553
701.082	0.0194135
701.160	0.0189431
701.238	0.0182792
701.317	0.0178345
701.395	0.0171589
701.473	0.0165128
701.551	0.0158248
701.629	0.0153568
701.707	0.0148689
701.785	0.0143233
701.863	0.0138863
701.942	0.0133457
702.020	0.0131348
702.098	0.0129533
702.176	0.0126357
702.254	0.0124847
702.332	0.0125311
702.410	0.0125397
702.488	0.0126181
702.567	0.0127110
702.645	0.0131678
702.723	0.0131676
702.801	0.0134200
702.879	0.0138577
702.957	0.0141302
703.035	0.0143341
703.113	0.0144099
703.192	0.0145008
703.270	0.0148629
703.348	0.0149721
703.426	0.0151434
703.504	0.0151250
703.582	0.0151081
703.660	0.0150568
703.738	0.0149277
703.817	0.0148365
703.895	0.0148208
703.973	0.0148360
704.051	0.0148141
704.129	0.0147817
704.207	0.0147533
704.285	0.0149277
704.363	0.0150350
704.442	0.0153698
704.520	0.0156344
704.598	0.0157464
704.676	0.0159930
704.754	0.0163724
704.832	0.0167979
704.910	0.0170815
704.988	0.0172886
705.067	0.0176654
705.145	0.0178561
705.223	0.0182873
705.301	0.0187325
705.379	0.0186503
705.457	0.0188223
705.535	0.0188829
705.613	0.0190592
705.692	0.0189856
705.770	0.0191249
705.848	0.0191384
705.926	0.0190932
706.004	0.0189954
706.082	0.0189554
706.160	0.0190538
706.238	0.0189025
706.317	0.0188936
706.395	0.0187732
706.473	0.0186401
706.551	0.0185102
706.629	0.0183877
706.707	0.0183332
706.785	0.0182285
706.863	0.0183288
706.942	0.0181964
707.020	0.0182671
707.098	0.0182336
707.176	0.0182011
707.254	0.0182623
707.332	0.0181557
707.410	0.0181618
707.488	0.0182156
707.567	0.0182320
707.645	0.0182832
707.723	0.0182188
707.801	0.0183784
707.879	0.0183245
707.957	0.0181911
708.035	0.0182087
708.113	0.0180819
708.192	0.0180616
708.270	0.0178825
708.348	0.0175682
708.426	0.0173158
708.504	0.0171674
708.582	0.0169525
708.660	0.0166625
708.738	0.0165215
708.817	0.0160501
708.895	0.0159652
708.973	0.0157065
709.051	0.0155337
709.129	0.0153249
709.207	0.0151682
709.285	0.0151501
709.363	0.0150978
709.442	0.0149260
709.520	0.0149251
709.598	0.0149801
709.676	0.0149432
709.754	0.0149442
709.832	0.0149485
709.910	0.0149724
709.988	0.0149903
710.067	0.0151275
710.145	0.0152483
710.223	0.0153949
710.301	0.0154375
710.379	0.0153833
710.457	0.0154568
710.535	0.0156757
710.613	0.0156834
710.692	0.0157512
710.770	0.0157912
710.848	0.0157102
710.926	0.0156388
711.004	0.0157381
711.082	0.0156829
711.160	0.0156209
711.238	0.0155101
711.317	0.0154473
711.395	0.0154697
711.473	0.0155116
711.551	0.0153542
711.629	0.0153121
711.707	0.0153321
711.785	0.0154265
711.863	0.0154249
711.942	0.0153161
712.020	0.0156147
712.098	0.0157156
712.176	0.0158466
712.254	0.0160767
712.332	0.0162249
712.410	0.0164925
712.488	0.0165769
712.567	0.0167700
712.645	0.0168736
712.723	0.0171766
712.801	0.0174454
712.879	0.0173949
712.957	0.0176228
713.035	0.0178236
713.113	0.0180070
713.192	0.0179780
713.270	0.0180624
713.348	0.0183035
713.426	0.0183488
713.504	0.0183629
713.582	0.0182923
713.660	0.0183948
713.738	0.0182439
713.817	0.0182597
713.895	0.0182925
713.973	0.0183381
714.051	0.0180721
714.129	0.0180212
714.207	0.0178618
714.285	0.0178391
714.363	0.0179414
714.442	0.0179013
714.520	0.0177554
714.598	0.0177710
714.676	0.0180389
714.754	0.0180103
714.832	0.0179458
714.910	0.0180196
714.988	0.0180932
715.067	0.0181868
715.145	0.0182510
715.223	0.0182792
715.301	0.0184206
715.379	0.0184216
715.457	0.0183801
715.535	0.0183510
715.613	0.0183273
715.692	0.0182859
715.770	0.0178591
715.848	0.0177447
715.926	0.0176480
716.004	0.0174980
716.082	0.0172424
716.160	0.0169608
716.238	0.0166829
716.317	0.0164584
716.395	0.0162776
716.473	0.0162127
716.551	0.0161810
716.629	0.0158503
716.707	0.0158194
716.785	0.0159465
716.863	0.0158170
716.942	0.0157671
717.020	0.0157801
717.098	0.0157603
717.176	0.0157809
717.254	0.0157010
717.332	0.0158552
717.410	0.0158132
717.488	0.0157678
717.567	0.0157893
717.645	0.0158350
717.723	0.0159280
717.801	0.0158771
717.879	0.0157936
717.957	0.0160102
718.035	0.0159098
718.113	0.0161216
718.192	0.0160808
718.270	0.0159757
718.348	0.0158259
718.426	0.0158545
718.504	0.0158730
718.582	0.0156337
718.660	0.0156615
718.738	0.0156879
718.817	0.0156065
718.895	0.0155704
718.973	0.0155004
719.051	0.0154276
719.129	0.0153492
719.207	0.0153578
719.285	0.0152985
719.363	0.0153016
719.442	0.0152605
719.520	0.0153322
719.598	0.0153592
719.676	0.0154842
719.754	0.0155426
719.832	0.0155781
719.910	0.0157475
719.988	0.0159993
720.067	0.0161037
720.145	0.0162746
720.223	0.0165032
720.301	0.0166860
720.379	0.0168817
720.457	0.0169273
720.535	0.0172073
720.613	0.0174074
720.692	0.0176018
720.770	0.0175893
720.848	0.0176431
720.926	0.0177493
721.004	0.0178683
721.082	0.0179308
721.160	0.0178316
721.238	0.0178957
721.317	0.0179283
721.395	0.0179587
721.473	0.0178839
721.551	0.0179397
721.629	0.0179815
721.707	0.0179053
721.785	0.0176943
721.863	0.0177586
721.942	0.0177525
722.020	0.0178078
722.098	0.0178078
722.176	0.0177666
722.254	0.0178220
722.332	0.0178668
722.410	0.0178336
722.488	0.0178825
722.567	0.0180717
722.645	0.0181412
722.723	0.0181721
722.801	0.0182094
722.879	0.0184317
722.957	0.0182680
723.035	0.0183734
723.113	0.0182404
723.192	0.0183635
723.270	0.0181972
723.348	0.0180417
723.426	0.0180662
723.504	0.0178773
723.582	0.0177970
723.660	0.0175122
723.738	0.0173028
723.817	0.0170512
723.895	0.0169673
723.973	0.0168449
724.051	0.0165238
724.129	0.0165051
724.207	0.0162679
724.285	0.0161327
724.363	0.0161982
724.442	0.0160475
724.520	0.0161082
724.598	0.0159338
724.676	0.0157627
724.754	0.0158018
724.832	0.0158781
724.910	0.0157648
724.988	0.0156551
725.067	0.0156595
725.145	0.0157918
725.223	0.0157755
725.301	0.0156744
725.379	0.0158160
725.457	0.0157872
725.535	0.0158472
725.613	0.0157280
725.692	0.0159030
725.770	0.0158917
725.848	0.0159249
725.926	0.0160094
726.004	0.0159221
726.082	0.0159961
726.160	0.0159895
726.238	0.0158974
726.317	0.0159218
726.395	0.0157752
726.473	0.0157425
726.551	0.0156870
726.629	0.0156564
726.707	0.0156336
726.785	0.0156265
726.863	0.0154534
726.942	0.0153898
727.020	0.0154619
727.098	0.0154848
727.176	0.0154456
727.254	0.0153831
727.332	0.0154510
727.410	0.0154722
727.488	0.0156243
727.567	0.0157558
727.645	0.0159534
727.723	0.0160752
727.801	0.0160770
727.879	0.0162807
727.957	0.0165337
728.035	0.0167137
728.113	0.0168797
728.192	0.0169628
728.270	0.0171519
728.348	0.0173895
728.426	0.0175003
728.504	0.0176127
728.582	0.0175834
728.660	0.0176742
728.738	0.0176640
728.817	0.0178822
728.895	0.0178953
728.973	0.0178014
729.051	0.0178226
729.129	0.0177990
729.207	0.0179440
729.285	0.0178768
729.363	0.0179166
729.442	0.0179340
729.520	0.0178045
729.598	0.0179025
729.676	0.0178677
729.754	0.0177983
729.832	0.0177233
729.910	0.0178242
729.988	0.0177238
730.067	0.0178410
730.145	0.0176626
730.223	0.0174916
730.301	0.0175880
730.379	0.0175267
730.457	0.0176215
730.535	0.0175150
730.613	0.0175211
730.692	0.0175778
730.770	0.0175790
730.848	0.0176074
730.926	0.0175910
731.004	0.0175644
731.082	0.0176514
731.160	0.0176124
731.238	0.0176147
731.317	0.0175372
731.395	0.0174763
731.473	0.0173902
731.551	0.0173200
731.629	0.0171328
731.707	0.0170028
731.785	0.0169619
731.863	0.0168937
731.942	0.0166908
732.020	0.0164989
732.098	0.0164111
732.176	0.0162659
732.254	0.0160684
732.332	0.0159441
732.410	0.0160900
732.488	0.0157936
732.567	0.0157519
732.645	0.0157937
732.723	0.0157657
732.801	0.0157040
732.879	0.0156168
732.957	0.0157404
733.035	0.0157140
733.113	0.0158817
733.192	0.0157074
733.270	0.0157785
733.348	0.0158066
733.426	0.0159348
733.504	0.0159074
733.582	0.0159589
733.660	0.0160658
733.738	0.0160606
733.817	0.0160887
733.895	0.0162202
733.973	0.0163343
734.051	0.0162473
734.129	0.0161854
734.207	0.0162366
734.285	0.0161809
734.363	0.0162850
734.442	0.0161108
734.520	0.0161845
734.598	0.0162418
734.676	0.0161224
734.754	0.0159974
734.832	0.0162563
734.910	0.0161426
734.988	0.0160339
735.067	0.0161507
735.145	0.0161456
735.223	0.0159806
735.301	0.0161723
735.379	0.0161910
735.457	0.0162855
735.535	0.0164124
735.613	0.0164172
735.692	0.0163418
735.770	0.0164983
735.848	0.0166075
735.926	0.0167850
736.004	0.0167921
736.082	0.0170232
736.160	0.0170538
736.238	0.0170795
736.317	0.0171857
736.395	0.0172545
736.473	0.0173306
736.551	0.0175134
736.629	0.0175235
736.707	0.0174954
736.785	0.0175560
736.863	0.0175887
736.942	0.0175871
737.020	0.0176713
737.098	0.0177309
737.176	0.0175349
737.254	0.0175655
737.332	0.0175349
737.410	0.0175460
737.488	0.0173512
737.567	0.0173235
737.645	0.0174811
737.723	0.0172909
737.801	0.0172831
737.879	0.0171102
737.957	0.0171905
738.035	0.0171971
738.113	0.0170789
738.192	0.0170371
738.270	0.0170171
738.348	0.0171780
738.426	0.0172122
738.504	0.0171775
738.582	0.0172802
738.660	0.0173074
738.738	0.0173528
738.817	0.0174625
738.895	0.0174242
738.973	0.0174889
739.051	0.0174354
739.129	0.0176002
739.207	0.0175430
739.285	0.0174565
739.363	0.0173457
739.442	0.0174617
739.520	0.0173734
739.598	0.0171091
739.676	0.0172763
739.754	0.0170354
739.832	0.0169438
739.910	0.0167743
739.988	0.0166718
740.067	0.0164812
740.145	0.0162953
740.223	0.0162423
740.301	0.0161401
740.379	0.0160363
740.457	0.0161419
740.535	0.0158472
740.613	0.0157558
740.692	0.0158359
740.770	0.0156605
740.848	0.0157093
740.926	0.0158396
741.004	0.0157594
741.082	0.0157791
741.160	0.0156647
741.238	0.0157520
741.317	0.0157963
741.395	0.0158369
741.473	0.0160545
741.551	0.0158672
741.629	0.0160892
741.707	0.0161175
741.785	0.0161508
741.863	0.0162836
741.942	0.0163345
742.020	0.0164322
742.098	0.0163892
742.176	0.0165411
742.254	0.0165049
742.332	0.0165977
742.410	0.0167236
742.488	0.0166962
742.567	0.0167429
742.645	0.0167555
742.723	0.0167130
742.801	0.0167444
742.879	0.0167072
742.957	0.0166433
743.035	0.0165863
743.113	0.0166962
743.192	0.0165283
743.270	0.0167053
743.348	0.0165115
743.426	0.0165387
743.504	0.0165786
743.582	0.0168666
743.660	0.0167216
743.738	0.0167117
743.817	0.0166497
743.895	0.0168066
743.973	0.0168575
744.051	0.0169202
744.129	0.0169827
744.207	0.0170351
744.285	0.0169868
744.363	0.0171195
744.442	0.0170415
744.520	0.0170604
744.598	0.0170407
744.676	0.0170679
744.754	0.0170869
744.832	0.0171301
744.910	0.0171123
744.988	0.0171766
745.067	0.0171316
745.145	0.0171548
745.223	0.0170144
745.301	0.0171754
745.379	0.0171442
745.457	0.0171503
745.535	0.0170711
745.613	0.0171239
745.692	0.0171641
745.770	0.0171192
745.848	0.0171059
745.926	0.0170843
746.004	0.0171430
746.082	0.0172679
746.160	0.0172689
746.238	0.0171968
746.317	0.0171672
746.395	0.0171802
746.473	0.0171899
746.551	0.0172169
746.629	0.0172736
746.707	0.0172334
746.785	0.0171789
746.863	0.0170899
746.942	0.0172100
747.020	0.0172342
747.098	0.0171412
747.176	0.0169626
747.254	0.0170419
747.332	0.0171896
747.410	0.0169496
747.488	0.0170038
747.567	0.0168468
747.645	0.0167175
747.723	0.0166052
747.801	0.0165929
747.879	0.0166930
747.957	0.0165150
748.035	0.0163963
748.113	0.0163322
748.192	0.0163018
748.270	0.0163776
748.348	0.0164596
748.426	0.0162688
748.504	0.0161885
748.582	0.0160838
748.660	0.0161858
748.738	0.0161931
748.817	0.0162090
748.895	0.0161569
748.973	0.0160793
749.051	0.0161004
749.129	0.0162698
749.207	0.0163699
749.285	0.0164935
749.363	0.0163078
749.442	0.0164336
749.520	0.0165968
749.598	0.0166476
749.676	0.0166274
749.754	0.0166772
749.832	0.0167149
749.910	0.0166904
749.988	0.0167131
750.067	0.0166079
750.145	0.0167299
750.223	0.0167857
750.301	0.0167113
750.379	0.0167581
750.457	0.0167609
750.535	0.0167960
750.613	0.0166850
750.692	0.0164888
750.770	0.0165771
750.848	0.0165460
750.926	0.0165910
751.004	0.0165780
751.082	0.0165606
751.160	0.0165108
751.238	0.0166261
751.317	0.0165078
751.395	0.0165135
751.473	0.0165636
751.551	0.0165436
751.629	0.0165405
751.707	0.0166319
751.785	0.0166305
751.863	0.0166379
751.942	0.0167635
752.020	0.0168116
752.098	0.0166964
752.176	0.0168674
752.254	0.0168596
752.332	0.0168774
752.410	0.0170657
752.488	0.0170055
752.567	0.0171083
752.645	0.0171455
752.723	0.0170346
752.801	0.0172022
752.879	0.0172955
752.957	0.0172491
753.035	0.0173328
753.113	0.0174045
753.192	0.0172115
753.270	0.0171700
753.348	0.0171684
753.426	0.0172877
753.504	0.0171210
753.582	0.0170635
753.660	0.0172295
753.738	0.0171457
753.817	0.0169915
753.895	0.0168114
753.973	0.0169413
754.051	0.0168245
754.129	0.0168237
754.207	0.0167826
754.285	0.0168494
754.363	0.0168317
754.442	0.0166537
754.520	0.0168031
754.598	0.0168925
754.676	0.0169554
754.754	0.0168354
754.832	0.0169154
754.910	0.0167683
754.988	0.0170669
755.067	0.0169958
755.145	0.0170236
755.223	0.0168983
755.301	0.0169821
755.379	0.0170236
755.457	0.0169403
755.535	0.0170194
755.613	0.0168987
755.692	0.0169177
755.770	0.0168557
755.848	0.0169113
755.926	0.0168284
756.004	0.0166904
756.082	0.0166582
756.160	0.0166537
756.238	0.0165784
756.317	0.0164171
756.395	0.0164628
756.473	0.0164758
756.551	0.0162790
756.629	0.0163946
756.707	0.0164889
756.785	0.0163654
756.863	0.0163187
756.942	0.0164904
757.020	0.0164465
757.098	0.0164062
757.176	0.0165112
757.254	0.0165179
757.332	0.0164593
757.410	0.0165000
757.488	0.0165687
757.567	0.0166367
757.645	0.0165433
757.723	0.0165684
757.801	0.0166840
757.879	0.0165578
757.957	0.0167886
758.035	0.0167480
758.113	0.0168449
758.192	0.0169181
758.270	0.0168201
758.348	0.0167926
758.426	0.0167781
758.504	0.0168492
758.582	0.0168636
758.660	0.0169034
758.738	0.0169163
758.817	0.0168555
758.895	0.0167576
758.973	0.0168551
759.051	0.0167733
759.129	0.0166361
759.207	0.0165561
759.285	0.0164870
759.363	0.0166479
759.442	0.0166393
759.520	0.0165802
759.598	0.0164281
759.676	0.0165524
759.754	0.0166480
759.832	0.0166967
759.910	0.0166163
759.988	0.0166295
760.067	0.0166448
760.145	0.0168105
760.223	0.0168523
760.301	0.0167390
760.379	0.0168214
760.457	0.0168878
760.535	0.0168877
760.613	0.0169437
760.692	0.0169182
760.770	0.0170557
760.848	0.0170323
760.926	0.0169496
761.004	0.0170044
761.082	0.0169814
761.160	0.0169736
761.238	0.0169579
761.317	0.0170834
761.395	0.0170555
761.473	0.0170650
761.551	0.0170626
761.629	0.0169199
761.707	0.0170614
761.785	0.0171173
761.863	0.0167820
761.942	0.0167877
762.020	0.0168539
762.098	0.0168169
762.176	0.0168034
762.254	0.0167908
762.332	0.0167363
762.410	0.0166556
762.488	0.0167935
762.567	0.0169013
762.645	0.0166868
762.723	0.0169199
762.801	0.0169058
762.879	0.0168490
762.957	0.0168411
763.035	0.0167603
763.113	0.0169552
763.192	0.0168166
763.270	0.0167752
763.348	0.0169418
763.426	0.0169463
763.504	0.0169831
763.582	0.0170019
763.660	0.0170139
763.738	0.0169154
763.817	0.0168334
763.895	0.0170362
763.973	0.0170724
764.051	0.0168610
764.129	0.0168245
764.207	0.0170016
764.285	0.0168086
764.363	0.0167593
764.442	0.0167079
764.520	0.0168126
764.598	0.0166317
764.676	0.0166154
764.754	0.0165430
764.832	0.0165713
764.910	0.0163665
764.988	0.0164912
765.067	0.0165410
765.145	0.0164262
765.223	0.0164327
765.301	0.0166247
765.379	0.0165291
765.457	0.0165337
765.535	0.0164919
765.613	0.0165614
765.692	0.0165556
765.770	0.0166495
765.848	0.0165766
765.926	0.0167641
766.004	0.0166838
766.082	0.0166730
766.160	0.0166498
766.238	0.0167654
766.317	0.0167725
766.395	0.0167273
766.473	0.0166994
766.551	0.0166878
766.629	0.0166507
766.707	0.0167281
766.785	0.0167675
766.863	0.0166727
766.942	0.0167670
767.020	0.0166784
767.098	0.0166422
767.176	0.0164446
767.254	0.0164213
767.332	0.0164965
767.410	0.0165894
767.488	0.0164977
767.567	0.0165994
767.645	0.0164838
767.723	0.0165304
767.801	0.0165829
767.879	0.0165452
767.957	0.0166756
768.035	0.0164846
768.113	0.0166360
768.192	0.0166287
768.270	0.0166335
768.348	0.0167162
768.426	0.0167580
768.504	0.0168258
768.582	0.0168489
768.660	0.0167831
768.738	0.0167796
768.817	0.0168015
768.895	0.0169620
768.973	0.0170172
769.051	0.0169930
769.129	0.0170197
769.207	0.0170975
769.285	0.0172250
769.363	0.0171187
769.442	0.0171751
769.520	0.0169420
769.598	0.0169019
769.676	0.0170511
769.754	0.0169261
769.832	0.0169770
769.910	0.0169536
769.988	0.0168156
770.067	0.0168980
770.145	0.0169875
770.223	0.0169381
770.301	0.0170068
770.379	0.0167838
770.457	0.0168797
770.535	0.0168102
770.613	0.0168627
770.692	0.0168431
770.770	0.0168819
770.848	0.0168910
770.926	0.0167091
771.004	0.0167316
771.082	0.0167193
771.160	0.0168109
771.238	0.0165530
771.317	0.0167483
771.395	0.0166855
771.473	0.0167464
771.551	0.0166828
771.629	0.0166815
771.707	0.0167259
771.785	0.0166862
771.863	0.0166881
771.942	0.0168639
772.020	0.0166010
772.098	0.0167128
772.176	0.0168160
772.254	0.0167607
772.332	0.0166853
772.410	0.0166561
772.488	0.0167021
772.567	0.0168643
772.645	0.0167259
772.723	0.0167344
772.801	0.0167464
772.879	0.0167085
772.957	0.0166982
773.035	0.0165076
773.113	0.0165615
773.192	0.0166975
773.270	0.0166232
773.348	0.0165707
773.426	0.0166039
773.504	0.0165605
773.582	0.0166609
773.660	0.0167093
773.738	0.0166913
773.817	0.0167307
773.895	0.0167667
773.973	0.0166686
774.051	0.0167970
774.129	0.0170229
774.207	0.0169179
774.285	0.0170013
774.363	0.0169830
774.442	0.0170351
774.520	0.0170247
774.598	0.0169173
774.676	0.0168848
774.754	0.0168047
774.832	0.0168266
774.910	0.0167567
774.988	0.0168222
775.067	0.0167065
775.145	0.0166335
775.223	0.0165137
775.301	0.0164832
775.379	0.0164766
775.457	0.0164994
775.535	0.0165183
775.613	0.0162746
775.692	0.0164517
775.770	0.0164701
775.848	0.0164504
775.926	0.0164260
776.004	0.0165340
776.082	0.0166571
776.160	0.0165996
776.238	0.0165086
776.317	0.0166447
776.395	0.0166399
776.473	0.0165976
776.551	0.0167876
776.629	0.0167696
776.707	0.0165857
776.785	0.0166384
776.863	0.0166798
776.942	0.0168147
777.020	0.0165576
777.098	0.0166915
777.176	0.0166795
777.254	0.0166770
777.332	0.0167593
777.410	0.0166859
777.488	0.0166868
777.567	0.0168527
777.645	0.0168639
777.723	0.0168340
777.801	0.0168393
777.879	0.0168838
777.957	0.0169221
778.035	0.0170096
778.113	0.0168671
778.192	0.0169296
778.270	0.0170267
778.348	0.0170673
778.426	0.0169772
778.504	0.0169300
778.582	0.0170185
778.660	0.0170132
778.738	0.0169596
778.817	0.0170119
778.895	0.0170608
778.973	0.0170525
779.051	0.0170271
779.129	0.0170657
779.207	0.0171212
779.285	0.0170097
779.363	0.0169553
779.442	0.0169216
779.520	0.0169454
779.598	0.0170029
779.676	0.0168165
779.754	0.0168571
779.832	0.0168226
779.910	0.0166993
779.988	0.0168454
780.067	0.0168519
780.145	0.0168317
780.223	0.0167708
780.301	0.0166557
780.379	0.0167625
780.457	0.0167386
780.535	0.0167780
780.613	0.0167986
780.692	0.0165875
780.770	0.0166924
780.848	0.0167817
780.926	0.0167332
781.004	0.0167535
781.082	0.0166515
781.160	0.0166798
781.238	0.0167562
781.317	0.0167735
781.395	0.0167268
781.473	0.0166952
781.551	0.0166437
781.629	0.0167636
781.707	0.0166503
781.785	0.0168538
781.863	0.0166301
781.942	0.0167610
782.020	0.0166183
782.098	0.0166078
782.176	0.0167216
782.254	0.0165994
782.332	0.0166646
782.410	0.0166079
782.488	0.0166334
782.567	0.0167317
782.645	0.0165565
782.723	0.0165807
782.801	0.0166458
782.879	0.0165424
782.957	0.0165325
783.035	0.0165705
783.113	0.0166599
783.192	0.0167668
783.270	0.0165908
783.348	0.0165784
783.426	0.0166779
783.504	0.0166046
783.582	0.0166370
783.660	0.0166056
783.738	0.0165854
783.817	0.0168302
783.895	0.0167481
783.973	0.0167582
784.051	0.0166808
784.129	0.0166579
784.207	0.0168130
784.285	0.0168462
784.363	0.0167059
784.442	0.0167648
784.520	0.0167787
784.598	0.0166813
784.676	0.0166154
784.754	0.0165074
784.832	0.0163526
784.910	0.0163117
784.988	0.0161282
785.067	0.0161626
785.145	0.0161758
785.223	0.0159898
785.301	0.0160369
785.379	0.0162002
785.457	0.0161522
785.535	0.0161970
785.613	0.0162598
785.692	0.0164746
785.770	0.0164871
785.848	0.0168499
785.926	0.0169421
786.004	0.0172122
786.082	0.0173264
786.160	0.0176681
786.238	0.0177857
786.317	0.0181017
786.395	0.0183028
786.473	0.0183846
786.551	0.0185210
786.629	0.0185838
786.707	0.0186895
786.785	0.0186553
786.863	0.0185764
786.942	0.0184632
787.020	0.0183440
787.098	0.0181437
787.176	0.0179961
787.254	0.0178445
787.332	0.0175541
787.410	0.0171985
787.488	0.0169473
787.567	0.0166281
787.645	0.0164693
787.723	0.0161449
787.801	0.0158781
787.879	0.0156937
787.957	0.0153550
788.035	0.0153444
788.113	0.0149944
788.192	0.0148817
788.270	0.0148246
788.348	0.0146748
788.426	0.0146429
788.504	0.0147756
788.582	0.0147971
788.660	0.0149186
788.738	0.0148962
788.817	0.0149180
788.895	0.0152959
788.973	0.0153490
789.051	0.0156001
789.129	0.0158570
789.207	0.0159344
789.285	0.0163132
789.363	0.0165173
789.442	0.0167518
789.520	0.0168845
789.598	0.0171653
789.676	0.0173937
789.754	0.0174320
789.832	0.0176862
789.910	0.0178307
789.988	0.0178661
790.067	0.0180499
790.145	0.0181332
790.223	0.0181981
790.301	0.0182060
790.379	0.0183461
790.457	0.0182922
790.535	0.0182008
790.613	0.0180630
790.692	0.0180828
790.770	0.0180244
790.848	0.0180459
790.926	0.0177795
791.004	0.0178440
791.082	0.0176595
791.160	0.0174536
791.238	0.0173877
791.317	0.0173535
791.395	0.0172791
791.473	0.0171271
791.551	0.0170478
791.629	0.0167963
791.707	0.0165695
791.785	0.0166739
791.863	0.0165128
791.942	0.0162342
792.020	0.0163580
792.098	0.0161433
792.176	0.0161336
792.254	0.0160661
792.332	0.0159883
792.410	0.0158227
792.488	0.0159586
792.567	0.0158224
792.645	0.0158373
792.723	0.0157955
792.801	0.0159081
792.879	0.0158022
792.957	0.0157074
793.035	0.0157962
793.113	0.0158557
793.192	0.0159389
793.270	0.0159465
793.348	0.0158453
793.426	0.0157561
793.504	0.0157728
793.582	0.0159208
793.660	0.0158578
793.738	0.0159337
793.817	0.0159094
793.895	0.0160052
793.973	0.0159327
794.051	0.0160698
794.129	0.0163117
794.207	0.0164348
794.285	0.0164174
794.363	0.0166859
794.442	0.0166626
794.520	0.0167130
794.598	0.0168077
794.676	0.0170771
794.754	0.0170461
794.832	0.0170975
794.910	0.0173255
794.988	0.0173077
795.067	0.0173662
795.145	0.0173888
795.223	0.0173782
795.301	0.0174537
795.379	0.0174515
795.457	0.0174356
795.535	0.0175057
795.613	0.0174552
795.692	0.0175410
795.770	0.0176099
795.848	0.0176267
795.926	0.0176203
796.004	0.0175573
796.082	0.0176649
796.160	0.0176733
796.238	0.0179033
796.317	0.0177023
796.395	0.0176462
796.473	0.0176579
796.551	0.0176016
796.629	0.0176656
796.707	0.0175781
796.785	0.0174952
796.863	0.0173656
796.942	0.0175295
797.020	0.0173576
797.098	0.0172453
797.176	0.0171559
797.254	0.0169954
797.332	0.0170155
797.410	0.0169384
797.488	0.0167484
797.567	0.0167233
797.645	0.0166738
797.723	0.0165756
797.801	0.0164240
797.879	0.0163246
797.957	0.0163214
798.035	0.0163056
798.113	0.0162095
798.192	0.0161688
798.270	0.0160951
798.348	0.0161008
798.426	0.0160266
798.504	0.0159077
798.582	0.0159330
798.660	0.0157771
798.738	0.0158891
798.817	0.0157885
798.895	0.0157865
798.973	0.0158953
799.051	0.0158862
799.129	0.0160074
799.207	0.0158982
799.285	0.0158380
799.363	0.0160037
799.442	0.0159147
799.520	0.0160201
799.598	0.0159615
799.676	0.0160909
799.754	0.0161508
799.832	0.0162525
799.910	0.0163145
799.988	0.0161177
800.067	0.0163410
800.145	0.0164507
800.223	0.0164384
800.301	0.0164384
800.379	0.0164809
800.457	0.0165902
800.535	0.0164830
800.613	0.0165326
800.692	0.0164753
800.770	0.0166221
800.848	0.0167171
800.926	0.0168360
801.004	0.0167348
801.082	0.0168620
801.160	0.0169869
801.238	0.0169377
801.317	0.0169378
801.395	0.0170842
801.473	0.0169689
801.551	0.0172610
801.629	0.0172679
801.707	0.0172484
801.785	0.0173602
801.863	0.0175040
801.942	0.0175930
802.020	0.0176339
802.098	0.0175916
802.176	0.0176370
802.254	0.0175891
802.332	0.0176257
802.410	0.0175854
802.488	0.0176698
802.567	0.0175972
802.645	0.0176975
802.723	0.0175274
802.801	0.0174992
802.879	0.0175042
802.957	0.0175489
803.035	0.0173689
803.113	0.0172017
803.192	0.0173460
803.270	0.0172142
803.348	0.0172234
803.426	0.0170818
803.504	0.0168841
803.582	0.0168504
803.660	0.0167257
803.738	0.0166877
803.817	0.0167554
803.895	0.0167113
803.973	0.0165330
804.051	0.0165739
804.129	0.0165781
804.207	0.0166069
804.285	0.0164930
804.363	0.0164817
804.442	0.0164047
804.520	0.0164364
804.598	0.0164478
804.676	0.0165615
804.754	0.0164169
804.832	0.0164256
804.910	0.0166432
804.988	0.0165385
805.067	0.0164883
805.145	0.0164294
805.223	0.0165038
805.301	0.0165913
805.379	0.0165499
805.457	0.0165033
805.535	0.0164674
805.613	0.0163384
805.692	0.0164223
805.770	0.0164121
805.848	0.0165253
805.926	0.0164780
806.004	0.0165078
806.082	0.0164484
806.160	0.0164847
806.238	0.0163837
806.317	0.0164301
806.395	0.0165921
806.473	0.0165070
806.551	0.0165097
806.629	0.0167622
806.707	0.0167638
806.785	0.0167886
806.863	0.0167406
806.942	0.0166315
807.020	0.0167437
807.098	0.0168619
807.176	0.0167788
807.254	0.0166229
807.332	0.0167508
807.410	0.0167220
807.488	0.0167529
807.567	0.0167068
807.645	0.0166569
807.723	0.0166653
807.801	0.0166544
807.879	0.0166848
807.957	0.0165889
808.035	0.0166792
808.113	0.0167458
808.192	0.0167225
808.270	0.0167093
808.348	0.0166056
808.426	0.0166685
808.504	0.0167796
808.582	0.0167488
808.660	0.0168446
808.738	0.0167828
808.817	0.0167487
808.895	0.0166855
808.973	0.0167491
809.051	0.0167265
809.129	0.0167548
809.207	0.0168433
809.285	0.0167948
809.363	0.0168611
809.442	0.0168546
809.520	0.0170563
809.598	0.0170634
809.676	0.0170891
809.754	0.0170599
809.832	0.0170133
809.910	0.0170692
809.988	0.0170323
810.067	0.0172050
810.145	0.0170737
810.223	0.0172256
810.301	0.0171815
810.379	0.0170451
810.457	0.0170325
810.535	0.0169128
810.613	0.0171141
810.692	0.0171577
810.770	0.0170638
810.848	0.0170094
810.926	0.0170255
811.004	0.0169396
811.082	0.0170135
811.160	0.0169449
811.238	0.0169407
811.317	0.0169145
811.395	0.0170499
811.473	0.0171130
811.551	0.0169955
811.629	0.0168373
811.707	0.0168793
811.785	0.0169029
811.863	0.0169689
811.942	0.0169275
812.020	0.0168901
812.098	0.0169135
812.176	0.0168067
812.254	0.0168923
812.332	0.0169099
812.410	0.0167495
812.488	0.0168495
812.567	0.0168728
812.645	0.0167007
812.723	0.0168504
812.801	0.0167060
812.879	0.0165570
812.957	0.0165078
813.035	0.0166308
813.113	0.0164777
813.192	0.0164982
813.270	0.0164486
813.348	0.0164626
813.426	0.0164636
813.504	0.0163872
813.582	0.0164468
813.660	0.0165103
813.738	0.0165247
813.817	0.0165201
813.895	0.0166653
813.973	0.0166912
814.051	0.0167213
814.129	0.0167223
814.207	0.0168884
814.285	0.0169514
814.363	0.0169095
814.442	0.0167091
814.520	0.0167717
814.598	0.0168989
814.676	0.0167257
814.754	0.0166079
814.832	0.0167292
814.910	0.0167416
814.988	0.0166046
815.067	0.0164999
815.145	0.0163815
815.223	0.0164417
815.301	0.0163948
815.379	0.0162343
815.457	0.0163579
815.535	0.0162991
815.613	0.0163433
815.692	0.0163126
815.770	0.0164360
815.848	0.0163992
815.926	0.0164953
816.004	0.0165915
816.082	0.0165560
816.160	0.0166585
816.238	0.0165915
816.317	0.0165438
816.395	0.0167691
816.473	0.0168330
816.551	0.0169203
816.629	0.0168276
816.707	0.0169273
816.785	0.0170808
816.863	0.0170090
816.942	0.0170100
817.020	0.0171757
817.098	0.0170556
817.176	0.0170499
817.254	0.0169832
817.332	0.0170715
817.410	0.0171327
817.488	0.0171644
817.567	0.0170755
817.645	0.0170391
817.723	0.0170928
817.801	0.0170412
817.879	0.0169906
817.957	0.0169634
818.035	0.0169164
818.113	0.0169472
818.192	0.0169932
818.270	0.0168258
818.348	0.0168664
818.426	0.0169200
818.504	0.0168163
818.582	0.0167570
818.660	0.0169101
818.738	0.0167175
818.817	0.0167534
818.895	0.0167673
818.973	0.0166632
819.051	0.0167117
819.129	0.0168385
819.207	0.0168892
819.285	0.0168753
819.363	0.0169036
819.442	0.0170707
819.520	0.0169952
819.598	0.0168905
819.676	0.0169408
819.754	0.0172077
819.832	0.0170601
819.910	0.0170203
819.988	0.0170628
820.067	0.0170673
820.145	0.0170791
820.223	0.0170422
820.301	0.0171273
820.379	0.0170271
820.457	0.0169379
820.535	0.0168161
820.613	0.0170641
820.692	0.0168523
820.770	0.0167194
820.848	0.0167548
820.926	0.0167967
821.004	0.0167361
821.082	0.0165707
821.160	0.0165733
821.238	0.0166343
821.317	0.0166727
821.395	0.0165406
821.473	0.0163850
821.551	0.0164590
821.629	0.0163856
821.707	0.0165425
821.785	0.0166331
821.863	0.0165601
821.942	0.0164625
822.020	0.0164728
822.098	0.0165966
822.176	0.0164437
822.254	0.0163982
822.332	0.0164470
822.410	0.0165607
822.488	0.0164829
822.567	0.0163819
822.645	0.0166288
822.723	0.0165954
822.801	0.0166888
822.879	0.0166050
822.957	0.0165347
823.035	0.0166462
823.113	0.0167181
823.192	0.0165389
823.270	0.0165288
823.348	0.0166562
823.426	0.0166376
823.504	0.0166239
823.582	0.0165663
823.660	0.0167362
823.738	0.0166435
823.817	0.0165958
823.895	0.0164297
823.973	0.0165807
824.051	0.0164693
824.129	0.0165029
824.207	0.0164371
824.285	0.0165771
824.363	0.0166228
824.442	0.0164896
824.520	0.0165706
824.598	0.0166256
824.676	0.0166748
824.754	0.0166789
824.832	0.0168372
824.910	0.0168223
824.988	0.0167764
825.067	0.0169370
825.145	0.0169071
825.223	0.0169496
825.301	0.0170554
825.379	0.0171337
825.457	0.0169209
825.535	0.0169949
825.613	0.0172264
825.692	0.0171175
825.770	0.0171141
825.848	0.0170747
825.926	0.0171299
826.004	0.0171764
826.082	0.0169816
826.160	0.0170573
826.238	0.0170205
826.317	0.0170159
826.395	0.0170577
826.473	0.0170341
826.551	0.0170226
826.629	0.0169714
826.707	0.0169073
826.785	0.0170547
826.863	0.0170317
826.942	0.0169616
827.020	0.0170670
827.098	0.0170261
827.176	0.0170339
827.254	0.0168938
827.332	0.0169646
827.410	0.0170947
827.488	0.0169022
827.567	0.0170532
827.645	0.0170316
827.723	0.0170679
827.801	0.0170376
827.879	0.0168890
827.957	0.0169070
828.035	0.0167874
828.113	0.0168166
828.192	0.0168731
828.270	0.0168360
828.348	0.0167320
828.426	0.0167189
828.504	0.0167091
828.582	0.0166375
828.660	0.0166784
828.738	0.0166151
828.817	0.0164222
828.895	0.0164800
828.973	0.0164202
829.051	0.0163322
829.129	0.0163603
829.207	0.0163571
829.285	0.0163924
829.363	0.0161601
829.442	0.0162104
829.520	0.0162813
829.598	0.0163819
829.676	0.0163564
829.754	0.0164046
829.832	0.0163268
829.910	0.0165240
829.988	0.0163893
830.067	0.0163684
830.145	0.0165009
830.223	0.0166324
830.301	0.0166055
830.379	0.0164790
830.457	0.0166086
830.535	0.0167060
830.613	0.0167036
830.692	0.0166176
830.770	0.0166132
830.848	0.0164758
830.926	0.0166843
831.004	0.0168919
831.082	0.0168502
831.160	0.0168392
831.238	0.0168546
831.317	0.0167592
831.395	0.0167210
831.473	0.0168134
831.551	0.0169120
831.629	0.0169906
831.707	0.0168314
831.785	0.0169196
831.863	0.0170841
831.942	0.0169673
832.020	0.0170379
832.098	0.0171059
832.176	0.0171055
832.254	0.0171111
832.332	0.0170424
832.410	0.0169946
832.488	0.0171680
832.567	0.0172163
832.645	0.0170830
832.723	0.0170708
832.801	0.0171864
832.879	0.0171542
832.957	0.0171004
833.035	0.0171613
833.113	0.0171658
833.192	0.0169112
833.270	0.0169173
833.348	0.0169593
833.426	0.0168720
833.504	0.0170039
833.582	0.0168073
833.660	0.0167780
833.738	0.0167632
833.817	0.0166488
833.895	0.0167149
833.973	0.0167260
834.051	0.0167428
834.129	0.0166918
834.207	0.0166424
834.285	0.0166845
834.363	0.0167085
834.442	0.0165306
834.520	0.0167980
834.598	0.0166929
834.676	0.0164809
834.754	0.0163997
834.832	0.0164993
834.910	0.0165363
834.988	0.0164548
835.067	0.0165103
835.145	0.0164961
835.223	0.0164936
835.301	0.0165074
835.379	0.0166024
835.457	0.0164262
835.535	0.0164933
835.613	0.0167149
835.692	0.0166436
835.770	0.0166325
835.848	0.0168159
835.926	0.0167637
836.004	0.0167651
836.082	0.0167816
836.160	0.0168405
836.238	0.0168060
836.317	0.0170444
836.395	0.0170682
836.473	0.0169492
836.551	0.0169249
836.629	0.0170094
836.707	0.0170214
836.785	0.0169919
836.863	0.0168513
836.942	0.0169678
837.020	0.0169073
837.098	0.0169418
837.176	0.0168779
837.254	0.0168649
837.332	0.0169645
837.410	0.0168420
837.488	0.0168514
837.567	0.0168957
837.645	0.0167938
837.723	0.0168184
837.801	0.0168639
837.879	0.0168539
837.957	0.0168279
838.035	0.0168501
838.113	0.0167603
838.192	0.0168562
838.270	0.0170087
838.348	0.0167265
838.426	0.0169019
838.504	0.0169228
838.582	0.0168848
838.660	0.0168893
838.738	0.0169078
838.817	0.0168851
838.895	0.0168914
838.973	0.0167483
839.051	0.0168216
839.129	0.0167866
839.207	0.0166861
839.285	0.0168066
839.363	0.0168096
839.442	0.0165451
839.520	0.0166848
839.598	0.0168079
839.676	0.0167389
839.754	0.0164568
839.832	0.0165790
839.910	0.0165071
839.988	0.0164201
840.067	0.0165395
840.145	0.0165289
840.223	0.0163005
840.301	0.0164324
840.379	0.0163968
840.457	0.0165135
840.535	0.0165455
840.613	0.0165912
840.692	0.0167257
840.770	0.0167005
840.848	0.0167262
840.926	0.0168386
841.004	0.0167924
841.082	0.0166706
841.160	0.0168000
841.238	0.0167635
841.317	0.0168443
841.395	0.0167889
841.473	0.0166484
841.551	0.0167190
841.629	0.0167201
841.707	0.0167758
841.785	0.0167924
841.863	0.0166863
841.942	0.0166771
842.020	0.0167720
842.098	0.0166148
842.176	0.0167245
842.254	0.0166984
842.332	0.0167661
842.410	0.0166709
842.488	0.0166874
842.567	0.0167747
842.645	0.0168189
842.723	0.0168489
842.801	0.0167355
842.879	0.0169070
842.957	0.0167824
843.035	0.0168136
843.113	0.0168801
843.192	0.0169070
843.270	0.0169973
843.348	0.0169641
843.426	0.0168433
843.504	0.0168562
843.582	0.0170747
843.660	0.0170247
843.738	0.0169298
843.817	0.0170892
843.895	0.0170808
843.973	0.0169413
844.051	0.0170182
844.129	0.0170418
844.207	0.0170325
844.285	0.0170228
844.363	0.0170693
844.442	0.0169633
844.520	0.0169805
844.598	0.0170372
844.676	0.0170744
844.754	0.0168445
844.832	0.0169003
844.910	0.0168214
844.988	0.0167663
845.067	0.0168244
845.145	0.0167954
845.223	0.0167719
845.301	0.0167999
845.379	0.0167789
845.457	0.0166869
845.535	0.0166499
845.613	0.0165456
845.692	0.0166087
845.770	0.0165307
845.848	0.0165650
845.926	0.0165763
846.004	0.0166022
846.082	0.0165456
846.160	0.0164755
846.238	0.0163572
846.317	0.0164266
846.395	0.0165848
846.473	0.0164731
846.551	0.0165134
846.629	0.0166667
846.707	0.0165669
846.785	0.0165488
846.863	0.0166877
846.942	0.0164671
847.020	0.0166719
847.098	0.0167513
847.176	0.0166042
847.254	0.0167294
847.332	0.0166803
847.410	0.0167747
847.488	0.0166171
847.567	0.0167271
847.645	0.0166226
847.723	0.0167295
847.801	0.0167384
847.879	0.0166730
847.957	0.0166997
848.035	0.0167474
848.113	0.0167202
848.192	0.0167210
848.270	0.0166331
848.348	0.0167179
848.426	0.0167371
848.504	0.0167175
848.582	0.0167902
848.660	0.0166465
848.738	0.0166685
848.817	0.0167930
848.895	0.0167737
848.973	0.0168938
849.051	0.0170187
849.129	0.0170054
849.207	0.0168871
849.285	0.0168513
849.363	0.0169562
849.442	0.0170222
849.520	0.0169917
849.598	0.0170902
849.676	0.0170408
849.754	0.0170207
849.832	0.0169431
849.910	0.0169256
849.988	0.0170174
850.067	0.0169476
850.145	0.0168143
850.223	0.0169892
850.301	0.0168143
850.379	0.0167979
850.457	0.0168094
850.535	0.0168228
850.613	0.0167747
850.692	0.0166981
850.770	0.0167654
850.848	0.0168748
850.926	0.0165678
851.004	0.0166939
851.082	0.0166302
851.160	0.0165869
851.238	0.0165640
851.317	0.0166206
851.395	0.0165460
851.473	0.0165412
851.551	0.0165494
851.629	0.0165852
851.707	0.0166414
851.785	0.0165780
851.863	0.0165685
851.942	0.0165129
852.020	0.0165987
852.098	0.0166025
852.176	0.0165845
852.254	0.0166590
852.332	0.0166131
852.410	0.0166565
852.488	0.0167186
852.567	0.0167549
852.645	0.0167419
852.723	0.0168311
852.801	0.0168109
852.879	0.0168612
852.957	0.0168900
853.035	0.0168576
853.113	0.0169887
853.192	0.0168511
853.270	0.0168149
853.348	0.0168847
853.426	0.0168795
853.504	0.0169355
853.582	0.0169777
853.660	0.0169195
853.738	0.0168298
853.817	0.0169777
853.895	0.0169238
853.973	0.0170024
854.051	0.0169328
854.129	0.0168334
854.207	0.0168031
854.285	0.0169765
854.363	0.0170241
854.442	0.0169688
854.520	0.0168958
854.598	0.0167046
854.676	0.0169025
854.754	0.0167867
854.832	0.0167384
854.910	0.0168415
854.988	0.0165512
855.067	0.0165643
855.145	0.0165813
855.223	0.0166912
855.301	0.0166710
855.379	0.0167048
855.457	0.0165907
855.535	0.0166689
855.613	0.0166042
855.692	0.0166477
855.770	0.0166311
855.848	0.0167227
855.926	0.0165771
856.004	0.0166798
856.082	0.0166937
856.160	0.0165663
856.238	0.0167912
856.317	0.0167001
856.395	0.0166836
856.473	0.0166787
856.551	0.0167576
856.629	0.0166701
856.707	0.0166949
856.785	0.0167747
856.863	0.0166193
856.942	0.0165161
857.020	0.0166385
857.098	0.0167719
857.176	0.0166557
857.254	0.0166501
857.332	0.0166741
857.410	0.0166797
857.488	0.0166643
857.567	0.0167298
857.645	0.0168296
857.723	0.0167274
857.801	0.0167497
857.879	0.0166995
857.957	0.0167065
858.035	0.0168604
858.113	0.0167633
858.192	0.0168391
858.270	0.0167775
858.348	0.0167509
858.426	0.0166297
858.504	0.0167719
858.582	0.0168006
858.660	0.0166946
858.738	0.0167280
858.817	0.0167358
858.895	0.0167818
858.973	0.0167517
859.051	0.0167867
859.129	0.0166862
859.207	0.0166550
859.285	0.0165831
859.363	0.0166610
859.442	0.0167139
859.520	0.0167069
859.598	0.0167963
859.676	0.0168101
859.754	0.0167383
859.832	0.0169008
859.910	0.0168701
859.988	0.0168676
860.067	0.0168406
860.145	0.0168956
860.223	0.0169321
860.301	0.0170039
860.379	0.0170670
860.457	0.0168662
860.535	0.0169764
860.613	0.0171235
860.692	0.0170430
860.770	0.0170044
860.848	0.0171428
860.926	0.0170042
861.004	0.0170631
861.082	0.0169942
861.160	0.0169342
861.238	0.0169786
861.317	0.0169786
861.395	0.0170437
861.473	0.0170244
861.551	0.0168524
861.629	0.0167131
861.707	0.0168398
861.785	0.0168256
861.863	0.0168053
861.942	0.0167271
862.020	0.0168427
862.098	0.0166501
862.176	0.0166513
862.254	0.0165640
862.332	0.0167449
862.410	0.0167298
862.488	0.0165813
862.567	0.0164082
862.645	0.0164010
862.723	0.0164780
862.801	0.0166138
862.879	0.0164481
862.957	0.0165671
863.035	0.0166601
863.113	0.0164757
863.192	0.0165592
863.270	0.0166646
863.348	0.0165446
863.426	0.0165807
863.504	0.0166897
863.582	0.0166425
863.660	0.0165990
863.738	0.0165584
863.817	0.0165322
863.895	0.0166023
863.973	0.0165833
864.051	0.0165443
864.129	0.0166435
864.207	0.0165634
864.285	0.0165481
864.363	0.0167660
864.442	0.0165871
864.520	0.0167342
864.598	0.0167203
864.676	0.0167358
864.754	0.0167245
864.832	0.0168276
864.910	0.0168248
864.988	0.0168350
865.067	0.0167289
865.145	0.0168304
865.223	0.0168135
865.301	0.0168700
865.379	0.0167161
865.457	0.0167503
865.535	0.0166769
865.613	0.0166902
865.692	0.0167295
865.770	0.0168230
865.848	0.0167887
865.926	0.0168169
866.004	0.0168253
866.082	0.0169489
866.160	0.0171129
866.238	0.0168970
866.317	0.0168804
866.395	0.0168555
866.473	0.0169848
866.551	0.0169571
866.629	0.0169904
866.707	0.0169949
866.785	0.0169084
866.863	0.0169497
866.942	0.0168796
867.020	0.0167836
867.098	0.0169236
867.176	0.0168652
867.254	0.0167428
867.332	0.0167784
867.410	0.0169247
867.488	0.0169373
867.567	0.0169034
867.645	0.0169173
867.723	0.0168909
867.801	0.0169827
867.879	0.0167529
867.957	0.0169347
868.035	0.0169167
868.113	0.0169648
868.192	0.0167500
868.270	0.0166029
868.348	0.0167903
868.426	0.0167416
868.504	0.0166967
868.582	0.0165563
868.660	0.0165686
868.738	0.0165318
868.817	0.0167055
868.895	0.0166427
868.973	0.0165511
869.051	0.0167176
869.129	0.0166656
869.207	0.0167801
869.285	0.0166318
869.363	0.0165582
869.442	0.0166428
869.520	0.0166154
869.598	0.0167117
869.676	0.0166315
869.754	0.0165746
869.832	0.0167689
869.910	0.0165832
869.988	0.0166720
870.067	0.0167464
870.145	0.0167483
870.223	0.0168665
870.301	0.0168481
870.379	0.0168066
870.457	0.0167094
870.535	0.0167205
870.613	0.0169173
870.692	0.0167872
870.770	0.0167723
870.848	0.0168592
870.926	0.0168770
871.004	0.0168800
871.082	0.0166605
871.160	0.0169286
871.238	0.0168199
871.317	0.0167194
871.395	0.0168437
871.473	0.0167854
871.551	0.0168553
871.629	0.0168394
871.707	0.0167167
871.785	0.0168000
871.863	0.0168391
871.942	0.0167528
872.020	0.0166421
872.098	0.0167938
872.176	0.0167855
872.254	0.0166183
872.332	0.0166366
872.410	0.0167635
872.488	0.0166687
872.567	0.0166367
872.645	0.0167151
872.723	0.0166891
872.801	0.0166952
872.879	0.0168337
872.957	0.0167134
873.035	0.0166512
873.113	0.0166148
873.192	0.0165992
873.270	0.0166698
873.348	0.0166743
873.426	0.0167239
873.504	0.0166439
873.582	0.0165973
873.660	0.0167203
873.738	0.0166275
873.817	0.0165591
873.895	0.0166466
873.973	0.0167088
874.051	0.0166952
874.129	0.0167172
874.207	0.0166930
874.285	0.0168063
874.363	0.0167772
874.442	0.0166633
874.520	0.0166687
874.598	0.0168262
874.676	0.0167638
874.754	0.0168374
874.832	0.0168638
874.910	0.0168130
874.988	0.0169006
875.067	0.0169471
875.145	0.0168615
875.223	0.0168547
875.301	0.0167884
875.379	0.0167290
875.457	0.0168132
875.535	0.0167252
875.613	0.0167379
875.692	0.0168209
875.770	0.0167213
875.848	0.0168227
875.926	0.0166766
876.004	0.0167201
876.082	0.0167433
876.160	0.0169154
876.238	0.0167208
876.317	0.0167951
876.395	0.0168647
876.473	0.0167413
876.551	0.0168912
876.629	0.0169344
876.707	0.0168417
876.785	0.0169134
876.863	0.0169447
876.942	0.0168633
877.020	0.0170246
877.098	0.0169943
877.176	0.0169135
877.254	0.0169466
877.332	0.0168800
877.410	0.0167478
877.488	0.0167816
877.567	0.0167694
877.645	0.0167924
877.723	0.0167144
877.801	0.0167731
877.879	0.0167925
877.957	0.0166942
878.035	0.0167380
878.113	0.0167466
878.192	0.0166776
878.270	0.0166497
878.348	0.0166245
878.426	0.0165377
878.504	0.0164808
878.582	0.0165457
878.660	0.0165276
878.738	0.0165039
878.817	0.0165698
878.895	0.0166250
878.973	0.0166821
879.051	0.0166746
879.129	0.0167787
879.207	0.0167574
879.285	0.0169548
879.363	0.0169304
879.442	0.0169388
879.520	0.0170072
879.598	0.0169235
879.676	0.0168280
879.754	0.0167197
879.832	0.0167937
879.910	0.0162589
879.988	0.0162704
880.067	0.0161201
880.145	0.0159335
880.223	0.0157073
880.301	0.0156532
880.379	0.0155389
880.457	0.0155515
880.535	0.0159201
880.613	0.0159507
880.692	0.0159975
880.770	0.0164055
880.848	0.0167105
880.926	0.0169003
881.004	0.0172598
881.082	0.0174489
881.160	0.0177073
881.238	0.0178491
881.317	0.0181048
881.395	0.0180363
881.473	0.0179741
881.551	0.0181805
881.629	0.0181763
881.707	0.0181410
881.785	0.0178035
881.863	0.0176717
881.942	0.0176648
882.020	0.0171963
882.098	0.0170612
882.176	0.0168497
882.254	0.0167343
882.332	0.0163284
882.410	0.0160789
882.488	0.0157717
882.567	0.0156765
882.645	0.0154764
882.723	0.0155063
882.801	0.0154325
882.879	0.0152856
882.957	0.0153147
883.035	0.0154208
883.113	0.0153228
883.192	0.0153288
883.270	0.0155450
883.348	0.0157016
883.426	0.0159078
883.504	0.0160493
883.582	0.0162280
883.660	0.0163638
883.738	0.0167149
883.817	0.0169502
883.895	0.0170287
883.973	0.0173721
884.051	0.0174953
884.129	0.0176247
884.207	0.0179776
884.285	0.0179166
884.363	0.0178901
884.442	0.0180931
884.520	0.0180838
884.598	0.0180038
884.676	0.0181071
884.754	0.0178378
884.832	0.0176757
884.910	0.0177345
884.988	0.0174364
885.067	0.0174110
885.145	0.0173473
885.223	0.0172359
885.301	0.0171406
885.379	0.0170435
885.457	0.0167410
885.535	0.0167582
885.613	0.0166306
885.692	0.0164914
885.770	0.0163856
885.848	0.0163043
885.926	0.0163486
886.004	0.0161482
886.082	0.0161539
886.160	0.0162814
886.238	0.0161667
886.317	0.0161857
886.395	0.0162899
886.473	0.0161926
886.551	0.0164136
886.629	0.0165040
886.707	0.0164335
886.785	0.0165775
886.863	0.0165602
886.942	0.0165775
887.020	0.0167281
887.098	0.0165526
887.176	0.0165665
887.254	0.0166679
887.332	0.0165354
887.410	0.0164135
887.488	0.0165232
887.567	0.0164635
887.645	0.0167712
887.723	0.0166377
887.801	0.0165008
887.879	0.0166475
887.957	0.0166661
888.035	0.0166595
888.113	0.0166684
888.192	0.0167788
888.270	0.0168569
888.348	0.0167673
888.426	0.0166741
888.504	0.0167639
888.582	0.0169143
888.660	0.0169173
888.738	0.0169795
888.817	0.0170373
888.895	0.0168159
888.973	0.0168937
889.051	0.0169535
889.129	0.0168816
889.207	0.0168484
889.285	0.0167197
889.363	0.0168529
889.442	0.0168010
889.520	0.0168833
889.598	0.0169287
889.676	0.0168972
889.754	0.0167449
889.832	0.0168975
889.910	0.0170119
889.988	0.0168761
890.067	0.0168921
890.145	0.0168135
890.223	0.0170655
890.301	0.0170304
890.379	0.0168344
890.457	0.0168029
890.535	0.0168607
890.613	0.0167988
890.692	0.0168270
890.770	0.0166090
890.848	0.0166711
890.926	0.0166388
891.004	0.0166151
891.082	0.0165069
891.160	0.0164235
891.238	0.0164310
891.317	0.0163239
891.395	0.0164884
891.473	0.0165381
891.551	0.0164574
891.629	0.0165902
891.707	0.0165289
891.785	0.0165948
891.863	0.0166560
891.942	0.0166149
892.020	0.0166367
892.098	0.0166653
892.176	0.0166059
892.254	0.0167593
892.332	0.0168001
892.410	0.0168929
892.488	0.0169441
892.567	0.0169305
892.645	0.0169450
892.723	0.0168134
892.801	0.0168625
892.879	0.0168954
892.957	0.0168690
893.035	0.0169228
893.113	0.0169902
893.192	0.0169435
893.270	0.0169173
893.348	0.0168285
893.426	0.0168712
893.504	0.0169097
893.582	0.0169353
893.660	0.0169746
893.738	0.0170030
893.817	0.0168970
893.895	0.0170222
893.973	0.0170242
894.051	0.0170178
894.129	0.0170457
894.207	0.0170417
894.285	0.0170408
894.363	0.0170805
894.442	0.0170713
894.520	0.0169511
894.598	0.0170696
894.676	0.0170953
894.754	0.0171034
894.832	0.0171053
894.910	0.0169659
894.988	0.0169098
895.067	0.0168977
895.145	0.0167990
895.223	0.0168984
895.301	0.0167683
895.379	0.0167117
895.457	0.0165990
895.535	0.0166248
895.613	0.0165865
895.692	0.0165311
895.770	0.0164878
895.848	0.0163319
895.926	0.0163246
896.004	0.0164929
896.082	0.0163335
896.160	0.0164076
896.238	0.0165047
896.317	0.0164023
896.395	0.0163321
896.473	0.0164889
896.551	0.0166497
896.629	0.0165899
896.707	0.0163903
896.785	0.0165421
896.863	0.0166579
896.942	0.0166224
897.020	0.0166312
897.098	0.0165815
897.176	0.0166199
897.254	0.0167345
897.332	0.0167044
897.410	0.0167764
897.488	0.0165835
897.567	0.0164381
897.645	0.0166486
897.723	0.0167693
897.801	0.0165654
897.879	0.0164577
897.957	0.0165708
898.035	0.0165458
898.113	0.0164973
898.192	0.0165784
898.270	0.0165644
898.348	0.0165140
898.426	0.0165423
898.504	0.0164557
898.582	0.0163386
898.660	0.0164368
898.738	0.0164276
898.817	0.0164031
898.895	0.0163438
898.973	0.0163946
899.051	0.0165154
899.129	0.0164043
899.207	0.0165104
899.285	0.0167479
899.363	0.0165996
899.442	0.0169273
899.520	0.0169994
899.598	0.0171169
899.676	0.0171796
899.754	0.0172736
899.832	0.0175368
899.910	0.0174482
899.988	0.0175039
900.067	0.0175548
900.145	0.0176781
900.223	0.0176140
900.301	0.0175566
900.379	0.0176668
900.457	0.0173749
900.535	0.0173768
900.613	0.0174353
900.692	0.0173659
900.770	0.0173530
900.848	0.0171883
900.926	0.0172443
901.004	0.0169999
901.082	0.0168900
901.160	0.0168944
901.238	0.0167886
901.317	0.0167830
901.395	0.0165462
901.473	0.0165153
901.551	0.0164605
901.629	0.0165758
901.707	0.0166570
901.785	0.0164191
901.863	0.0164955
901.942	0.0164343
902.020	0.0165196
902.098	0.0166007
902.176	0.0166175
902.254	0.0166661
902.332	0.0164886
902.410	0.0166002
902.488	0.0167541
902.567	0.0166689
902.645	0.0164977
902.723	0.0165351
902.801	0.0167260
902.879	0.0165031
902.957	0.0165163
903.035	0.0165931
903.113	0.0166619
903.192	0.0166988
903.270	0.0167068
903.348	0.0165203
903.426	0.0164165
903.504	0.0165404
903.582	0.0167072
903.660	0.0165086
903.738	0.0165642
903.817	0.0165888
903.895	0.0165632
903.973	0.0166398
904.051	0.0166718
904.129	0.0166112
904.207	0.0166620
904.285	0.0167104
904.363	0.0166137
904.442	0.0167783
904.520	0.0166386
904.598	0.0166419
904.676	0.0167162
904.754	0.0167073
904.832	0.0167979
904.910	0.0168113
904.988	0.0166635
905.067	0.0165597
905.145	0.0165743
905.223	0.0166840
905.301	0.0166124
905.379	0.0167091
905.457	0.0166898
905.535	0.0166752
905.613	0.0166757
905.692	0.0166578
905.770	0.0166736
905.848	0.0166431
905.926	0.0166321
906.004	0.0165741
906.082	0.0165527
906.160	0.0166563
906.238	0.0166453
906.317	0.0166698
906.395	0.0168520
906.473	0.0167836
906.551	0.0168433
906.629	0.0168415
906.707	0.0169289
906.785	0.0169292
906.863	0.0168842
906.942	0.0170235
907.020	0.0169982
907.098	0.0170272
907.176	0.0170321
907.254	0.0170549
907.332	0.0170466
907.410	0.0169322
907.488	0.0169701
907.567	0.0168710
907.645	0.0170770
907.723	0.0169068
907.801	0.0168877
907.879	0.0168669
907.957	0.0168676
908.035	0.0169009
908.113	0.0170100
908.192	0.0169199
908.270	0.0168355
908.348	0.0169215
908.426	0.0168612
908.504	0.0169497
908.582	0.0169794
908.660	0.0169110
908.738	0.0170010
908.817	0.0170147
908.895	0.0169118
908.973	0.0169115
909.051	0.0169241
909.129	0.0169745
909.207	0.0169602
909.285	0.0168671
909.363	0.0168638
909.442	0.0167238
909.520	0.0167668
909.598	0.0168500
909.676	0.0166537
909.754	0.0167384
909.832	0.0166982
909.910	0.0166866
909.988	0.0168099
910.067	0.0166627
910.145	0.0165874
910.223	0.0167810
910.301	0.0167637
910.379	0.0167763
910.457	0.0167307
910.535	0.0167142
910.613	0.0167612
910.692	0.0167524
910.770	0.0166204
910.848	0.0166541
910.926	0.0165105
911.004	0.0165320
911.082	0.0166552
911.160	0.0166687
911.238	0.0166348
911.317	0.0165817
911.395	0.0166737
911.473	0.0167217
911.551	0.0165894
911.629	0.0166945
911.707	0.0167467
911.785	0.0167915
911.863	0.0168492
911.942	0.0166757
912.020	0.0167139
912.098	0.0167442
912.176	0.0165674
912.254	0.0167580
912.332	0.0168867
912.410	0.0167976
912.488	0.0168294
912.567	0.0167333
912.645	0.0167593
912.723	0.0168275
912.801	0.0168822
912.879	0.0168606
912.957	0.0168159
913.035	0.0167345
913.113	0.0166527
913.192	0.0167152
913.270	0.0165932
913.348	0.0164793
913.426	0.0166418
913.504	0.0165477
913.582	0.0165423
913.660	0.0165228
913.738	0.0165436
913.817	0.0166056
913.895	0.0165778
913.973	0.0166850
914.051	0.0166240
914.129	0.0165950
914.207	0.0166914
914.285	0.0166858
914.363	0.0166229
914.442	0.0166156
914.520	0.0167113
914.598	0.0167413
914.676	0.0167515
914.754	0.0166152
914.832	0.0167113
914.910	0.0167255
914.988	0.0166965
915.067	0.0167439
915.145	0.0167401
915.223	0.0167500
915.301	0.0167425
915.379	0.0167010
915.457	0.0167133
915.535	0.0167934
915.613	0.0168501
915.692	0.0169048
915.770	0.0168541
915.848	0.0167037
915.926	0.0167015
916.004	0.0168861
916.082	0.0167419
916.160	0.0167386
916.238	0.0169219
916.317	0.0168645
916.395	0.0169286
916.473	0.0168259
916.551	0.0169814
916.629	0.0169161
916.707	0.0168215
916.785	0.0168545
916.863	0.0170398
916.942	0.0171509
917.020	0.0171322
917.098	0.0171775
917.176	0.0173015
917.254	0.0173168
917.332	0.0173738
917.410	0.0173739
917.488	0.0174059
917.567	0.0174545
917.645	0.0172132
917.723	0.0172463
917.801	0.0173008
917.879	0.0172664
917.957	0.0173329
918.035	0.0170502
918.113	0.0171261
918.192	0.0170178
918.270	0.0169830
918.348	0.0169033
918.426	0.0167680
918.504	0.0167959
918.582	0.0167805
918.660	0.0167204
918.738	0.0165070
918.817	0.0165708
918.895	0.0165540
918.973	0.0165091
919.051	0.0165963
919.129	0.0163779
919.207	0.0163999
919.285	0.0163116
919.363	0.0164147
919.442	0.0162250
919.520	0.0163879
919.598	0.0164637
919.676	0.0163383
919.754	0.0164161
919.832	0.0164095
919.910	0.0163214
