05/26/2022	00:43:09	Ver.	4.1	UNKNOWN
Optical Delay	599.988409	Delta X		0.078125	Sweeps	1	Scan Rate	0/0
Coordinates	Axis 1	NaN	Axis 2	NaN	Axis 3	NaN	Axis 4	NaN	Axis 5	NaN	Axis 6	0.000000
TX Power	0.000000	RX Power	0.000000

599.988	0.0168009
600.067	0.0166719
600.145	0.0167419
600.223	0.0166097
600.301	0.0167855
600.379	0.0167494
600.457	0.0168535
600.535	0.0167368
600.613	0.0167374
600.692	0.0167537
600.770	0.0168576
600.848	0.0167740
600.926	0.0168322
601.004	0.0168463
601.082	0.0168385
601.160	0.0167477
601.238	0.0167608
601.317	0.0167258
601.395	0.0168047
601.473	0.0168666
601.551	0.0167120
601.629	0.0167506
601.707	0.0168340
601.785	0.0168368
601.863	0.0167606
601.942	0.0167812
602.020	0.0166771
602.098	0.0168179
602.176	0.0167374
602.254	0.0167386
602.332	0.0168025
602.410	0.0167159
602.488	0.0167600
602.567	0.0169240
602.645	0.0168888
602.723	0.0168246
602.801	0.0168547
602.879	0.0167501
602.957	0.0168413
603.035	0.0168156
603.113	0.0168038
603.192	0.0167945
603.270	0.0167066
603.348	0.0167813
603.426	0.0166151
603.504	0.0168212
603.582	0.0167232
603.660	0.0166328
603.738	0.0167874
603.817	0.0168052
603.895	0.0167102
603.973	0.0167159
604.051	0.0167648
604.129	0.0168717
604.207	0.0167332
604.285	0.0167653
604.363	0.0168723
604.442	0.0168146
604.520	0.0167696
604.598	0.0168176
604.676	0.0167393
604.754	0.0168596
604.832	0.0168516
604.910	0.0167434
604.988	0.0167517
605.067	0.0168894
605.145	0.0167473
605.223	0.0168576
605.301	0.0169081
605.379	0.0169330
605.457	0.0168134
605.535	0.0167614
605.613	0.0167069
605.692	0.0167036
605.770	0.0168253
605.848	0.0168319
605.926	0.0167691
606.004	0.0167826
606.082	0.0167765
606.160	0.0168676
606.238	0.0168018
606.317	0.0167628
606.395	0.0167246
606.473	0.0168027
606.551	0.0169759
606.629	0.0168328
606.707	0.0166772
606.785	0.0167948
606.863	0.0168114
606.942	0.0167912
607.020	0.0168513
607.098	0.0166718
607.176	0.0167883
607.254	0.0167004
607.332	0.0167384
607.410	0.0167159
607.488	0.0168622
607.567	0.0168831
607.645	0.0169274
607.723	0.0168398
607.801	0.0166737
607.879	0.0167365
607.957	0.0167953
608.035	0.0168246
608.113	0.0168861
608.192	0.0167339
608.270	0.0167386
608.348	0.0168879
608.426	0.0168941
608.504	0.0167772
608.582	0.0167703
608.660	0.0168162
608.738	0.0168436
608.817	0.0169654
608.895	0.0168036
608.973	0.0167807
609.051	0.0165881
609.129	0.0168005
609.207	0.0168211
609.285	0.0168329
609.363	0.0166859
609.442	0.0167415
609.520	0.0166518
609.598	0.0166729
609.676	0.0169013
609.754	0.0168249
609.832	0.0169723
609.910	0.0168359
609.988	0.0168067
610.067	0.0167514
610.145	0.0168040
610.223	0.0167832
610.301	0.0166754
610.379	0.0169017
610.457	0.0169239
610.535	0.0167302
610.613	0.0167976
610.692	0.0167052
610.770	0.0169285
610.848	0.0167776
610.926	0.0167422
611.004	0.0168880
611.082	0.0167703
611.160	0.0168238
611.238	0.0167773
611.317	0.0167074
611.395	0.0167614
611.473	0.0168687
611.551	0.0167213
611.629	0.0167368
611.707	0.0166866
611.785	0.0167658
611.863	0.0167279
611.942	0.0167492
612.020	0.0166944
612.098	0.0167149
612.176	0.0167848
612.254	0.0168127
612.332	0.0167477
612.410	0.0167262
612.488	0.0168857
612.567	0.0167089
612.645	0.0166477
612.723	0.0167365
612.801	0.0167722
612.879	0.0168719
612.957	0.0167904
613.035	0.0168001
613.113	0.0166867
613.192	0.0167864
613.270	0.0168684
613.348	0.0168114
613.426	0.0167213
613.504	0.0168146
613.582	0.0168691
613.660	0.0168443
613.738	0.0167561
613.817	0.0169045
613.895	0.0167979
613.973	0.0168170
614.051	0.0168683
614.129	0.0169054
614.207	0.0167465
614.285	0.0168279
614.363	0.0167482
614.442	0.0167622
614.520	0.0168941
614.598	0.0167440
614.676	0.0167972
614.754	0.0166705
614.832	0.0168155
614.910	0.0168638
614.988	0.0167565
615.067	0.0168727
615.145	0.0169357
615.223	0.0169725
615.301	0.0166950
615.379	0.0167494
615.457	0.0168130
615.535	0.0167859
615.613	0.0167376
615.692	0.0169310
615.770	0.0167981
615.848	0.0168660
615.926	0.0167390
616.004	0.0168002
616.082	0.0167196
616.160	0.0165940
616.238	0.0167390
616.317	0.0168912
616.395	0.0167697
616.473	0.0166717
616.551	0.0168745
616.629	0.0168553
616.707	0.0166533
616.785	0.0167260
616.863	0.0168718
616.942	0.0168124
617.020	0.0166664
617.098	0.0167828
617.176	0.0168858
617.254	0.0167593
617.332	0.0167101
617.410	0.0167978
617.488	0.0167391
617.567	0.0169481
617.645	0.0168102
617.723	0.0168480
617.801	0.0168495
617.879	0.0167666
617.957	0.0168311
618.035	0.0166708
618.113	0.0167542
618.192	0.0167828
618.270	0.0167059
618.348	0.0167798
618.426	0.0168575
618.504	0.0167828
618.582	0.0168252
618.660	0.0167346
618.738	0.0167097
618.817	0.0168565
618.895	0.0169702
618.973	0.0167597
619.051	0.0167460
619.129	0.0167509
619.207	0.0168737
619.285	0.0168299
619.363	0.0167829
619.442	0.0166224
619.520	0.0167594
619.598	0.0167393
619.676	0.0168498
619.754	0.0167739
619.832	0.0167263
619.910	0.0167709
619.988	0.0167520
620.067	0.0168256
620.145	0.0166808
620.223	0.0168089
620.301	0.0168425
620.379	0.0167313
620.457	0.0167107
620.535	0.0167790
620.613	0.0167266
620.692	0.0167870
620.770	0.0168147
620.848	0.0168610
620.926	0.0167033
621.004	0.0167996
621.082	0.0166617
621.160	0.0167918
621.238	0.0167860
621.317	0.0167570
621.395	0.0167976
621.473	0.0166541
621.551	0.0167160
621.629	0.0167223
621.707	0.0168206
621.785	0.0169111
621.863	0.0168781
621.942	0.0168909
622.020	0.0168206
622.098	0.0167535
622.176	0.0168304
622.254	0.0167039
622.332	0.0167530
622.410	0.0168620
622.488	0.0167474
622.567	0.0168343
622.645	0.0168050
622.723	0.0167773
622.801	0.0167448
622.879	0.0168500
622.957	0.0167369
623.035	0.0167467
623.113	0.0167760
623.192	0.0168382
623.270	0.0168620
623.348	0.0167490
623.426	0.0167484
623.504	0.0168801
623.582	0.0168421
623.660	0.0167704
623.738	0.0167690
623.817	0.0167787
623.895	0.0168887
623.973	0.0167152
624.051	0.0167755
624.129	0.0168029
624.207	0.0167566
624.285	0.0168056
624.363	0.0167654
624.442	0.0168862
624.520	0.0167385
624.598	0.0169183
624.676	0.0168734
624.754	0.0166989
624.832	0.0167112
624.910	0.0167752
624.988	0.0167610
625.067	0.0168932
625.145	0.0168208
625.223	0.0167165
625.301	0.0168394
625.379	0.0167658
625.457	0.0166225
625.535	0.0168096
625.613	0.0165945
625.692	0.0166697
625.770	0.0167290
625.848	0.0167729
625.926	0.0167493
626.004	0.0168587
626.082	0.0167233
626.160	0.0169161
626.238	0.0168470
626.317	0.0169322
626.395	0.0167900
626.473	0.0168246
626.551	0.0168132
626.629	0.0167152
626.707	0.0167045
626.785	0.0165939
626.863	0.0166677
626.942	0.0168176
627.020	0.0168077
627.098	0.0166666
627.176	0.0168501
627.254	0.0167326
627.332	0.0167001
627.410	0.0168261
627.488	0.0167891
627.567	0.0168576
627.645	0.0168101
627.723	0.0167999
627.801	0.0168125
627.879	0.0167932
627.957	0.0166830
628.035	0.0168242
628.113	0.0166782
628.192	0.0168159
628.270	0.0167463
628.348	0.0168260
628.426	0.0168167
628.504	0.0168315
628.582	0.0167935
628.660	0.0168038
628.738	0.0168269
628.817	0.0167091
628.895	0.0168558
628.973	0.0167776
629.051	0.0168644
629.129	0.0167713
629.207	0.0166816
629.285	0.0167889
629.363	0.0167644
629.442	0.0165957
629.520	0.0168591
629.598	0.0168509
629.676	0.0168512
629.754	0.0168741
629.832	0.0168319
629.910	0.0167999
629.988	0.0167298
630.067	0.0167652
630.145	0.0166978
630.223	0.0167345
630.301	0.0168294
630.379	0.0167874
630.457	0.0167706
630.535	0.0168285
630.613	0.0168768
630.692	0.0168110
630.770	0.0166737
630.848	0.0169090
630.926	0.0166393
631.004	0.0167561
631.082	0.0168354
631.160	0.0168239
631.238	0.0168364
631.317	0.0166059
631.395	0.0167085
631.473	0.0167878
631.551	0.0167208
631.629	0.0169499
631.707	0.0167240
631.785	0.0166886
631.863	0.0167709
631.942	0.0167474
632.020	0.0168444
632.098	0.0167683
632.176	0.0168551
632.254	0.0167103
632.332	0.0167947
632.410	0.0168290
632.488	0.0167036
632.567	0.0167278
632.645	0.0169060
632.723	0.0169164
632.801	0.0168631
632.879	0.0166901
632.957	0.0168056
633.035	0.0168424
633.113	0.0167943
633.192	0.0167829
633.270	0.0167651
633.348	0.0168317
633.426	0.0167368
633.504	0.0168356
633.582	0.0168204
633.660	0.0167049
633.738	0.0167676
633.817	0.0168289
633.895	0.0168101
633.973	0.0166967
634.051	0.0165971
634.129	0.0166799
634.207	0.0168086
634.285	0.0168758
634.363	0.0167497
634.442	0.0167365
634.520	0.0167073
634.598	0.0168031
634.676	0.0168890
634.754	0.0168141
634.832	0.0168320
634.910	0.0167571
634.988	0.0167015
635.067	0.0167165
635.145	0.0167621
635.223	0.0168501
635.301	0.0167054
635.379	0.0167048
635.457	0.0167301
635.535	0.0167440
635.613	0.0167706
635.692	0.0168185
635.770	0.0167649
635.848	0.0167266
635.926	0.0167913
636.004	0.0165795
636.082	0.0167621
636.160	0.0167603
636.238	0.0167525
636.317	0.0167613
636.395	0.0168523
636.473	0.0166853
636.551	0.0170080
636.629	0.0168398
636.707	0.0167798
636.785	0.0168211
636.863	0.0168978
636.942	0.0168678
637.020	0.0166482
637.098	0.0168004
637.176	0.0168584
637.254	0.0167822
637.332	0.0168729
637.410	0.0166710
637.488	0.0166887
637.567	0.0167357
637.645	0.0167263
637.723	0.0168909
637.801	0.0168313
637.879	0.0166116
637.957	0.0167689
638.035	0.0168169
638.113	0.0167464
638.192	0.0168489
638.270	0.0167844
638.348	0.0167310
638.426	0.0167371
638.504	0.0168444
638.582	0.0166736
638.660	0.0167352
638.738	0.0167838
638.817	0.0167885
638.895	0.0166952
638.973	0.0167438
639.051	0.0167220
639.129	0.0166837
639.207	0.0167694
639.285	0.0168508
639.363	0.0166369
639.442	0.0166985
639.520	0.0167526
639.598	0.0166473
639.676	0.0168114
639.754	0.0168288
639.832	0.0168252
639.910	0.0167786
639.988	0.0168475
640.067	0.0169714
640.145	0.0167389
640.223	0.0169219
640.301	0.0168658
640.379	0.0166451
640.457	0.0168482
640.535	0.0167342
640.613	0.0167038
640.692	0.0167416
640.770	0.0167964
640.848	0.0168870
640.926	0.0168633
641.004	0.0168703
641.082	0.0167091
641.160	0.0167665
641.238	0.0167611
641.317	0.0168468
641.395	0.0167855
641.473	0.0167597
641.551	0.0168445
641.629	0.0167999
641.707	0.0166927
641.785	0.0167282
641.863	0.0167929
641.942	0.0169601
642.020	0.0167620
642.098	0.0168031
642.176	0.0168307
642.254	0.0167404
642.332	0.0167072
642.410	0.0167594
642.488	0.0169066
642.567	0.0167056
642.645	0.0167930
642.723	0.0167364
642.801	0.0167175
642.879	0.0167477
642.957	0.0167809
643.035	0.0166688
643.113	0.0169557
643.192	0.0167968
643.270	0.0167126
643.348	0.0168343
643.426	0.0167475
643.504	0.0167435
643.582	0.0168008
643.660	0.0168343
643.738	0.0167290
643.817	0.0168531
643.895	0.0168498
643.973	0.0166277
644.051	0.0167477
644.129	0.0168609
644.207	0.0169605
644.285	0.0167876
644.363	0.0168130
644.442	0.0169195
644.520	0.0167069
644.598	0.0168407
644.676	0.0168703
644.754	0.0168221
644.832	0.0167865
644.910	0.0166409
644.988	0.0168416
645.067	0.0168488
645.145	0.0168250
645.223	0.0167580
645.301	0.0168764
645.379	0.0167741
645.457	0.0168005
645.535	0.0168356
645.613	0.0167505
645.692	0.0167256
645.770	0.0168443
645.848	0.0168956
645.926	0.0168891
646.004	0.0168101
646.082	0.0168896
646.160	0.0169552
646.238	0.0168619
646.317	0.0168932
646.395	0.0166896
646.473	0.0167101
646.551	0.0168334
646.629	0.0168606
646.707	0.0167990
646.785	0.0168135
646.863	0.0169247
646.942	0.0168291
647.020	0.0167507
647.098	0.0169308
647.176	0.0168451
647.254	0.0170105
647.332	0.0167873
647.410	0.0168112
647.488	0.0167641
647.567	0.0167373
647.645	0.0169360
647.723	0.0168205
647.801	0.0167645
647.879	0.0168247
647.957	0.0168881
648.035	0.0168999
648.113	0.0167946
648.192	0.0168638
648.270	0.0167123
648.348	0.0167953
648.426	0.0168522
648.504	0.0166916
648.582	0.0167381
648.660	0.0168773
648.738	0.0167628
648.817	0.0168315
648.895	0.0166966
648.973	0.0166411
649.051	0.0168967
649.129	0.0167245
649.207	0.0167110
649.285	0.0168063
649.363	0.0168893
649.442	0.0168016
649.520	0.0167751
649.598	0.0166938
649.676	0.0167217
649.754	0.0167657
649.832	0.0166752
649.910	0.0167427
649.988	0.0167648
650.067	0.0167527
650.145	0.0167435
650.223	0.0166330
650.301	0.0167571
650.379	0.0167239
650.457	0.0167835
650.535	0.0167503
650.613	0.0168594
650.692	0.0167398
650.770	0.0166590
650.848	0.0167387
650.926	0.0169053
651.004	0.0166907
651.082	0.0167926
651.160	0.0168161
651.238	0.0166281
651.317	0.0167932
651.395	0.0167879
651.473	0.0167836
651.551	0.0167700
651.629	0.0168703
651.707	0.0168332
651.785	0.0168064
651.863	0.0167426
651.942	0.0168060
652.020	0.0167178
652.098	0.0167271
652.176	0.0168302
652.254	0.0168142
652.332	0.0167747
652.410	0.0167253
652.488	0.0167056
652.567	0.0167868
652.645	0.0166393
652.723	0.0166711
652.801	0.0167226
652.879	0.0167460
652.957	0.0168089
653.035	0.0167879
653.113	0.0167575
653.192	0.0168087
653.270	0.0167798
653.348	0.0168185
653.426	0.0168760
653.504	0.0167526
653.582	0.0167602
653.660	0.0167952
653.738	0.0169040
653.817	0.0167460
653.895	0.0167813
653.973	0.0169169
654.051	0.0168352
654.129	0.0167348
654.207	0.0168983
654.285	0.0169082
654.363	0.0166779
654.442	0.0167329
654.520	0.0168993
654.598	0.0167753
654.676	0.0166572
654.754	0.0167184
654.832	0.0167410
654.910	0.0168446
654.988	0.0167484
655.067	0.0168219
655.145	0.0168568
655.223	0.0168913
655.301	0.0168605
655.379	0.0169063
655.457	0.0168221
655.535	0.0167200
655.613	0.0167158
655.692	0.0166959
655.770	0.0167305
655.848	0.0167360
655.926	0.0168536
656.004	0.0169450
656.082	0.0167571
656.160	0.0167244
656.238	0.0166894
656.317	0.0166506
656.395	0.0169112
656.473	0.0167564
656.551	0.0168045
656.629	0.0167516
656.707	0.0167136
656.785	0.0166609
656.863	0.0167739
656.942	0.0167581
657.020	0.0166905
657.098	0.0167380
657.176	0.0168460
657.254	0.0166875
657.332	0.0168177
657.410	0.0168246
657.488	0.0168394
657.567	0.0168456
657.645	0.0167406
657.723	0.0168052
657.801	0.0168827
657.879	0.0167434
657.957	0.0167325
658.035	0.0168469
658.113	0.0167503
658.192	0.0166778
658.270	0.0167917
658.348	0.0169858
658.426	0.0168615
658.504	0.0167162
658.582	0.0168023
658.660	0.0168636
658.738	0.0167802
658.817	0.0169112
658.895	0.0169904
658.973	0.0168259
659.051	0.0168260
659.129	0.0168276
659.207	0.0167984
659.285	0.0167853
659.363	0.0168446
659.442	0.0167237
659.520	0.0168172
659.598	0.0168882
659.676	0.0167948
659.754	0.0168051
659.832	0.0167267
659.910	0.0167685
659.988	0.0167782
660.067	0.0168218
660.145	0.0168728
660.223	0.0168109
660.301	0.0167128
660.379	0.0167953
660.457	0.0168909
660.535	0.0169114
660.613	0.0168568
660.692	0.0167976
660.770	0.0168975
660.848	0.0167614
660.926	0.0168230
661.004	0.0168517
661.082	0.0169241
661.160	0.0167731
661.238	0.0166893
661.317	0.0168508
661.395	0.0169426
661.473	0.0168024
661.551	0.0168536
661.629	0.0168005
661.707	0.0167931
661.785	0.0167590
661.863	0.0168592
661.942	0.0168011
662.020	0.0168029
662.098	0.0167789
662.176	0.0168847
662.254	0.0167294
662.332	0.0167767
662.410	0.0167992
662.488	0.0168485
662.567	0.0169246
662.645	0.0168460
662.723	0.0167920
662.801	0.0169476
662.879	0.0168314
662.957	0.0167226
663.035	0.0168858
663.113	0.0166722
663.192	0.0168196
663.270	0.0167569
663.348	0.0168517
663.426	0.0168683
663.504	0.0168277
663.582	0.0168332
663.660	0.0168515
663.738	0.0166616
663.817	0.0167141
663.895	0.0168446
663.973	0.0167663
664.051	0.0166302
664.129	0.0168502
664.207	0.0169439
664.285	0.0167109
664.363	0.0166513
664.442	0.0167286
664.520	0.0167403
664.598	0.0169266
664.676	0.0169281
664.754	0.0168681
664.832	0.0168530
664.910	0.0168094
664.988	0.0167488
665.067	0.0167001
665.145	0.0168172
665.223	0.0168301
665.301	0.0167379
665.379	0.0167854
665.457	0.0168063
665.535	0.0169165
665.613	0.0169032
665.692	0.0167841
665.770	0.0168369
665.848	0.0167107
665.926	0.0168209
666.004	0.0167761
666.082	0.0169367
666.160	0.0167561
666.238	0.0167639
666.317	0.0168240
666.395	0.0168017
666.473	0.0167757
666.551	0.0168715
666.629	0.0167464
666.707	0.0166686
666.785	0.0168965
666.863	0.0167127
666.942	0.0168526
667.020	0.0167417
667.098	0.0168229
667.176	0.0167035
667.254	0.0167942
667.332	0.0169309
667.410	0.0169220
667.488	0.0168351
667.567	0.0168589
667.645	0.0168024
667.723	0.0167705
667.801	0.0166695
667.879	0.0168201
667.957	0.0168147
668.035	0.0167793
668.113	0.0167818
668.192	0.0168646
668.270	0.0167915
668.348	0.0168082
668.426	0.0169056
668.504	0.0167786
668.582	0.0168193
668.660	0.0166639
668.738	0.0168612
668.817	0.0168752
668.895	0.0169182
668.973	0.0169174
669.051	0.0167648
669.129	0.0169187
669.207	0.0168146
669.285	0.0168163
669.363	0.0168954
669.442	0.0168732
669.520	0.0167825
669.598	0.0167393
669.676	0.0167854
669.754	0.0168552
669.832	0.0169739
669.910	0.0166920
669.988	0.0167883
670.067	0.0167444
670.145	0.0167803
670.223	0.0168159
670.301	0.0168039
670.379	0.0167544
670.457	0.0167965
670.535	0.0167931
670.613	0.0168166
670.692	0.0168603
670.770	0.0167382
670.848	0.0168274
670.926	0.0166811
671.004	0.0168658
671.082	0.0166546
671.160	0.0168612
671.238	0.0167740
671.317	0.0169055
671.395	0.0168342
671.473	0.0167983
671.551	0.0169622
671.629	0.0168401
671.707	0.0168954
671.785	0.0168744
671.863	0.0169672
671.942	0.0168178
672.020	0.0169425
672.098	0.0167879
672.176	0.0166508
672.254	0.0168494
672.332	0.0168166
672.410	0.0168241
672.488	0.0168018
672.567	0.0167254
672.645	0.0168504
672.723	0.0167170
672.801	0.0168806
672.879	0.0168784
672.957	0.0168898
673.035	0.0166957
673.113	0.0168567
673.192	0.0168227
673.270	0.0169542
673.348	0.0168961
673.426	0.0167937
673.504	0.0167458
673.582	0.0168873
673.660	0.0166589
673.738	0.0166725
673.817	0.0168426
673.895	0.0168710
673.973	0.0166772
674.051	0.0167665
674.129	0.0168431
674.207	0.0167434
674.285	0.0168445
674.363	0.0168050
674.442	0.0168222
674.520	0.0168178
674.598	0.0168441
674.676	0.0167370
674.754	0.0167097
674.832	0.0168217
674.910	0.0166819
674.988	0.0166887
675.067	0.0167593
675.145	0.0167553
675.223	0.0168388
675.301	0.0168026
675.379	0.0168217
675.457	0.0166874
675.535	0.0166662
675.613	0.0168166
675.692	0.0167618
675.770	0.0169291
675.848	0.0167763
675.926	0.0168552
676.004	0.0168732
676.082	0.0167985
676.160	0.0167984
676.238	0.0168765
676.317	0.0168290
676.395	0.0168429
676.473	0.0168589
676.551	0.0168346
676.629	0.0168534
676.707	0.0168871
676.785	0.0168328
676.863	0.0166827
676.942	0.0167432
677.020	0.0167006
677.098	0.0169116
677.176	0.0169083
677.254	0.0167579
677.332	0.0167310
677.410	0.0167681
677.488	0.0168819
677.567	0.0169140
677.645	0.0168546
677.723	0.0167312
677.801	0.0168880
677.879	0.0168536
677.957	0.0169372
678.035	0.0169593
678.113	0.0167820
678.192	0.0168131
678.270	0.0167925
678.348	0.0169298
678.426	0.0168296
678.504	0.0168210
678.582	0.0168188
678.660	0.0166849
678.738	0.0168169
678.817	0.0168904
678.895	0.0168208
678.973	0.0167574
679.051	0.0170174
679.129	0.0169452
679.207	0.0168127
679.285	0.0168279
679.363	0.0168742
679.442	0.0168246
679.520	0.0166600
679.598	0.0167348
679.676	0.0167813
679.754	0.0168464
679.832	0.0168837
679.910	0.0167470
679.988	0.0168013
680.067	0.0168938
680.145	0.0166914
680.223	0.0167963
680.301	0.0167796
680.379	0.0167623
680.457	0.0167523
680.535	0.0166608
680.613	0.0167057
680.692	0.0167486
680.770	0.0166573
680.848	0.0167702
680.926	0.0168187
681.004	0.0168684
681.082	0.0168957
681.160	0.0168426
681.238	0.0167500
681.317	0.0167833
681.395	0.0168541
681.473	0.0169300
681.551	0.0170078
681.629	0.0167931
681.707	0.0166577
681.785	0.0168262
681.863	0.0167511
681.942	0.0166894
682.020	0.0168106
682.098	0.0168031
682.176	0.0168538
682.254	0.0167699
682.332	0.0166857
682.410	0.0168552
682.488	0.0166789
682.567	0.0167709
682.645	0.0167522
682.723	0.0166403
682.801	0.0168382
682.879	0.0168661
682.957	0.0167546
683.035	0.0167676
683.113	0.0167579
683.192	0.0167865
683.270	0.0168211
683.348	0.0166953
683.426	0.0167098
683.504	0.0169302
683.582	0.0166837
683.660	0.0168179
683.738	0.0167462
683.817	0.0168224
683.895	0.0168009
683.973	0.0168089
684.051	0.0168977
684.129	0.0166980
684.207	0.0167669
684.285	0.0168896
684.363	0.0168736
684.442	0.0167531
684.520	0.0167529
684.598	0.0169466
684.676	0.0168185
684.754	0.0168098
684.832	0.0168925
684.910	0.0167022
684.988	0.0167152
685.067	0.0168018
685.145	0.0168684
685.223	0.0168128
685.301	0.0167068
685.379	0.0167754
685.457	0.0167991
685.535	0.0168610
685.613	0.0167792
685.692	0.0167363
685.770	0.0167957
685.848	0.0167037
685.926	0.0167307
686.004	0.0167854
686.082	0.0167372
686.160	0.0167502
686.238	0.0167651
686.317	0.0167548
686.395	0.0167662
686.473	0.0167580
686.551	0.0166474
686.629	0.0167034
686.707	0.0166138
686.785	0.0164368
686.863	0.0166910
686.942	0.0165699
687.020	0.0165245
687.098	0.0166467
687.176	0.0168326
687.254	0.0171548
687.332	0.0175594
687.410	0.0180833
687.488	0.0181924
687.567	0.0185934
687.645	0.0188271
687.723	0.0188236
687.801	0.0185407
687.879	0.0180465
687.957	0.0171983
688.035	0.0164130
688.113	0.0153690
688.192	0.0145136
688.270	0.0135078
688.348	0.0127414
688.426	0.0122153
688.504	0.0118880
688.582	0.0119312
688.660	0.0121009
688.738	0.0125037
688.817	0.0131058
688.895	0.0138739
688.973	0.0147930
689.051	0.0159550
689.129	0.0170180
689.207	0.0180300
689.285	0.0192165
689.363	0.0203214
689.442	0.0212743
689.520	0.0218797
689.598	0.0224158
689.676	0.0230505
689.754	0.0233514
689.832	0.0234930
689.910	0.0234824
689.988	0.0232878
690.067	0.0229338
690.145	0.0222897
690.223	0.0213802
690.301	0.0205023
690.379	0.0194744
690.457	0.0181541
690.535	0.0169287
690.613	0.0156202
690.692	0.0144086
690.770	0.0134660
690.848	0.0122659
690.926	0.0114347
691.004	0.0107620
691.082	0.0101591
691.160	0.00975471
691.238	0.00941551
691.317	0.00943398
691.395	0.00941132
691.473	0.00966331
691.551	0.0102692
691.629	0.0107706
691.707	0.0115136
691.785	0.0123729
691.863	0.0131364
691.942	0.0141824
692.020	0.0153209
692.098	0.0162583
692.176	0.0173989
692.254	0.0183965
692.332	0.0190385
692.410	0.0197215
692.488	0.0202370
692.567	0.0206037
692.645	0.0208387
692.723	0.0209270
692.801	0.0210665
692.879	0.0209931
692.957	0.0204945
693.035	0.0204824
693.113	0.0203054
693.192	0.0201611
693.270	0.0198382
693.348	0.0194688
693.426	0.0193929
693.504	0.0190753
693.582	0.0189721
693.660	0.0187794
693.738	0.0186865
693.817	0.0186136
693.895	0.0183282
693.973	0.0183199
694.051	0.0181907
694.129	0.0181149
694.207	0.0181175
694.285	0.0178529
694.363	0.0178503
694.442	0.0175362
694.520	0.0173322
694.598	0.0170746
694.676	0.0167007
694.754	0.0165821
694.832	0.0160651
694.910	0.0157817
694.988	0.0154671
695.067	0.0153876
695.145	0.0150759
695.223	0.0148213
695.301	0.0147576
695.379	0.0146999
695.457	0.0144968
695.535	0.0144392
695.613	0.0144971
695.692	0.0144499
695.770	0.0143157
695.848	0.0144074
695.926	0.0145173
696.004	0.0147344
696.082	0.0146040
696.160	0.0146354
696.238	0.0148505
696.317	0.0150193
696.395	0.0150796
696.473	0.0151910
696.551	0.0153491
696.629	0.0154113
696.707	0.0155321
696.785	0.0156367
696.863	0.0157602
696.942	0.0158530
697.020	0.0160199
697.098	0.0161611
697.176	0.0163482
697.254	0.0163795
697.332	0.0166182
697.410	0.0169546
697.488	0.0170808
697.567	0.0172415
697.645	0.0175085
697.723	0.0177045
697.801	0.0178323
697.879	0.0181635
697.957	0.0181954
698.035	0.0185256
698.113	0.0185004
698.192	0.0186359
698.270	0.0187403
698.348	0.0188335
698.426	0.0187547
698.504	0.0186308
698.582	0.0185524
698.660	0.0184489
698.738	0.0182897
698.817	0.0179079
698.895	0.0178121
698.973	0.0177734
699.051	0.0174761
699.129	0.0174005
699.207	0.0172603
699.285	0.0171485
699.363	0.0169927
699.442	0.0168236
699.520	0.0166239
699.598	0.0167248
699.676	0.0167310
699.754	0.0167196
699.832	0.0166843
699.910	0.0166947
699.988	0.0168197
700.067	0.0169891
700.145	0.0171310
700.223	0.0171243
700.301	0.0173309
700.379	0.0174498
700.457	0.0175244
700.535	0.0175506
700.613	0.0175430
700.692	0.0175876
700.770	0.0175007
700.848	0.0172986
700.926	0.0172043
701.004	0.0169674
701.082	0.0166518
701.160	0.0164790
701.238	0.0163130
701.317	0.0159659
701.395	0.0156850
701.473	0.0153828
701.551	0.0153561
701.629	0.0153560
701.707	0.0151233
701.785	0.0150647
701.863	0.0150238
701.942	0.0152907
702.020	0.0152780
702.098	0.0152737
702.176	0.0153600
702.254	0.0155056
702.332	0.0155751
702.410	0.0157182
702.488	0.0160611
702.567	0.0162428
702.645	0.0163706
702.723	0.0167044
702.801	0.0167340
702.879	0.0169163
702.957	0.0171156
703.035	0.0170630
703.113	0.0171632
703.192	0.0171564
703.270	0.0170351
703.348	0.0169477
703.426	0.0169231
703.504	0.0169703
703.582	0.0167711
703.660	0.0165951
703.738	0.0165519
703.817	0.0164829
703.895	0.0162813
703.973	0.0162086
704.051	0.0162960
704.129	0.0160468
704.207	0.0161385
704.285	0.0161887
704.363	0.0164588
704.442	0.0165117
704.520	0.0166840
704.598	0.0167497
704.676	0.0168989
704.754	0.0171783
704.832	0.0172432
704.910	0.0173514
704.988	0.0174965
705.067	0.0175159
705.145	0.0175862
705.223	0.0176733
705.301	0.0176691
705.379	0.0177511
705.457	0.0176998
705.535	0.0177667
705.613	0.0177326
705.692	0.0175320
705.770	0.0175097
705.848	0.0173179
705.926	0.0174164
706.004	0.0174392
706.082	0.0172101
706.160	0.0171964
706.238	0.0170317
706.317	0.0170895
706.395	0.0170010
706.473	0.0169623
706.551	0.0170029
706.629	0.0170605
706.707	0.0170656
706.785	0.0168791
706.863	0.0169473
706.942	0.0170051
707.020	0.0169843
707.098	0.0170889
707.176	0.0171063
707.254	0.0170755
707.332	0.0172089
707.410	0.0171525
707.488	0.0172212
707.567	0.0169885
707.645	0.0171147
707.723	0.0171059
707.801	0.0169340
707.879	0.0168963
707.957	0.0168244
708.035	0.0168471
708.113	0.0166946
708.192	0.0166979
708.270	0.0166623
708.348	0.0165224
708.426	0.0163087
708.504	0.0162867
708.582	0.0161865
708.660	0.0161697
708.738	0.0160854
708.817	0.0160587
708.895	0.0160777
708.973	0.0159418
709.051	0.0160599
709.129	0.0159621
709.207	0.0160221
709.285	0.0160951
709.363	0.0160698
709.442	0.0161353
709.520	0.0162297
709.598	0.0163195
709.676	0.0164440
709.754	0.0163428
709.832	0.0165832
709.910	0.0166011
709.988	0.0165983
710.067	0.0166977
710.145	0.0167519
710.223	0.0167506
710.301	0.0165193
710.379	0.0166345
710.457	0.0167278
710.535	0.0168092
710.613	0.0167540
710.692	0.0167861
710.770	0.0167370
710.848	0.0166884
710.926	0.0166919
711.004	0.0166842
711.082	0.0166203
711.160	0.0167179
711.238	0.0166051
711.317	0.0166666
711.395	0.0166946
711.473	0.0164391
711.551	0.0165392
711.629	0.0167335
711.707	0.0166558
711.785	0.0165579
711.863	0.0167313
711.942	0.0167042
712.020	0.0167613
712.098	0.0168701
712.176	0.0169190
712.254	0.0169077
712.332	0.0170136
712.410	0.0169524
712.488	0.0171685
712.567	0.0173119
712.645	0.0172012
712.723	0.0172876
712.801	0.0173238
712.879	0.0174002
712.957	0.0173581
713.035	0.0173296
713.113	0.0174507
713.192	0.0174351
713.270	0.0174362
713.348	0.0173801
713.426	0.0172268
713.504	0.0172900
713.582	0.0171735
713.660	0.0171936
713.738	0.0171584
713.817	0.0169498
713.895	0.0170415
713.973	0.0169772
714.051	0.0169144
714.129	0.0168964
714.207	0.0168362
714.285	0.0168229
714.363	0.0166605
714.442	0.0168108
714.520	0.0168929
714.598	0.0167834
714.676	0.0168255
714.754	0.0168599
714.832	0.0168285
714.910	0.0169936
714.988	0.0169552
715.067	0.0170068
715.145	0.0172398
715.223	0.0171127
715.301	0.0171765
715.379	0.0170877
715.457	0.0169975
715.535	0.0170258
715.613	0.0170436
715.692	0.0168389
715.770	0.0168575
715.848	0.0167098
715.926	0.0166019
716.004	0.0164309
716.082	0.0163655
716.160	0.0164037
716.238	0.0162283
716.317	0.0162694
716.395	0.0161858
716.473	0.0162378
716.551	0.0161753
716.629	0.0161812
716.707	0.0160178
716.785	0.0161594
716.863	0.0163492
716.942	0.0164247
717.020	0.0163883
717.098	0.0165741
717.176	0.0165281
717.254	0.0165944
717.332	0.0165880
717.410	0.0166158
717.488	0.0166808
717.567	0.0167157
717.645	0.0168558
717.723	0.0168653
717.801	0.0168650
717.879	0.0169619
717.957	0.0168085
718.035	0.0168647
718.113	0.0167666
718.192	0.0167554
718.270	0.0167019
718.348	0.0166668
718.426	0.0167986
718.504	0.0166081
718.582	0.0167324
718.660	0.0167034
718.738	0.0164825
718.817	0.0166126
718.895	0.0165148
718.973	0.0165309
719.051	0.0164254
719.129	0.0164492
719.207	0.0165443
719.285	0.0165035
719.363	0.0164104
719.442	0.0165635
719.520	0.0165976
719.598	0.0166018
719.676	0.0168024
719.754	0.0167519
719.832	0.0167971
719.910	0.0167223
719.988	0.0169387
720.067	0.0169891
720.145	0.0169019
720.223	0.0170561
720.301	0.0171944
720.379	0.0172835
720.457	0.0172635
720.535	0.0171114
720.613	0.0172141
720.692	0.0172890
720.770	0.0172236
720.848	0.0171561
720.926	0.0170467
721.004	0.0172262
721.082	0.0172363
721.160	0.0171219
721.238	0.0170674
721.317	0.0171210
721.395	0.0171789
721.473	0.0169936
721.551	0.0169518
721.629	0.0170680
721.707	0.0168909
721.785	0.0168783
721.863	0.0170049
721.942	0.0168871
722.020	0.0169788
722.098	0.0169221
722.176	0.0169816
722.254	0.0168697
722.332	0.0169495
722.410	0.0170512
722.488	0.0169792
722.567	0.0169641
722.645	0.0169531
722.723	0.0170361
722.801	0.0170345
722.879	0.0170190
722.957	0.0171105
723.035	0.0169047
723.113	0.0169147
723.192	0.0170143
723.270	0.0169564
723.348	0.0168759
723.426	0.0167799
723.504	0.0166496
723.582	0.0166123
723.660	0.0165614
723.738	0.0165883
723.817	0.0164618
723.895	0.0164144
723.973	0.0162752
724.051	0.0164001
724.129	0.0163866
724.207	0.0162010
724.285	0.0162910
724.363	0.0164548
724.442	0.0164170
724.520	0.0164922
724.598	0.0164972
724.676	0.0164442
724.754	0.0165279
724.832	0.0164139
724.910	0.0165379
724.988	0.0166265
725.067	0.0166358
725.145	0.0167660
725.223	0.0167227
725.301	0.0168209
725.379	0.0167483
725.457	0.0167489
725.535	0.0168902
725.613	0.0168488
725.692	0.0167507
725.770	0.0167673
725.848	0.0168834
725.926	0.0166987
726.004	0.0167509
726.082	0.0166633
726.160	0.0165621
726.238	0.0165997
726.317	0.0166277
726.395	0.0166933
726.473	0.0165330
726.551	0.0166240
726.629	0.0164281
726.707	0.0164682
726.785	0.0165214
726.863	0.0163658
726.942	0.0164839
727.020	0.0164520
727.098	0.0166522
727.176	0.0165487
727.254	0.0163943
727.332	0.0165198
727.410	0.0166777
727.488	0.0167252
727.567	0.0167338
727.645	0.0167200
727.723	0.0166921
727.801	0.0169617
727.879	0.0168248
727.957	0.0169285
728.035	0.0170391
728.113	0.0170850
728.192	0.0170639
728.270	0.0172369
728.348	0.0172121
728.426	0.0170495
728.504	0.0170833
728.582	0.0172697
728.660	0.0171148
728.738	0.0171814
728.817	0.0171063
728.895	0.0169810
728.973	0.0170492
729.051	0.0169617
729.129	0.0170171
729.207	0.0170161
729.285	0.0169801
729.363	0.0170011
729.442	0.0169854
729.520	0.0170277
729.598	0.0169794
729.676	0.0168414
729.754	0.0169274
729.832	0.0169550
729.910	0.0170959
729.988	0.0169643
730.067	0.0168201
730.145	0.0168546
730.223	0.0170219
730.301	0.0168906
730.379	0.0169321
730.457	0.0167811
730.535	0.0168893
730.613	0.0168135
730.692	0.0169698
730.770	0.0168503
730.848	0.0169868
730.926	0.0168563
731.004	0.0170251
731.082	0.0170638
731.160	0.0168029
731.238	0.0169247
731.317	0.0168848
731.395	0.0168083
731.473	0.0168518
731.551	0.0168169
731.629	0.0167044
731.707	0.0166055
731.785	0.0164743
731.863	0.0164603
731.942	0.0165148
732.020	0.0162767
732.098	0.0162766
732.176	0.0164019
732.254	0.0163890
732.332	0.0161549
732.410	0.0162616
732.488	0.0163727
732.567	0.0164059
732.645	0.0162723
732.723	0.0163371
732.801	0.0164844
732.879	0.0166578
732.957	0.0165626
733.035	0.0166225
733.113	0.0165902
733.192	0.0167713
733.270	0.0168114
733.348	0.0167343
733.426	0.0166766
733.504	0.0168837
733.582	0.0168839
733.660	0.0167512
733.738	0.0167531
733.817	0.0168237
733.895	0.0168262
733.973	0.0169700
734.051	0.0168736
734.129	0.0168128
734.207	0.0167127
734.285	0.0167989
734.363	0.0166754
734.442	0.0166302
734.520	0.0166924
734.598	0.0165900
734.676	0.0166840
734.754	0.0166756
734.832	0.0166100
734.910	0.0166331
734.988	0.0166214
735.067	0.0164965
735.145	0.0164678
735.223	0.0166740
735.301	0.0168246
735.379	0.0168081
735.457	0.0166995
735.535	0.0167867
735.613	0.0168488
735.692	0.0169009
735.770	0.0168341
735.848	0.0168998
735.926	0.0169907
736.004	0.0169145
736.082	0.0170129
736.160	0.0171536
736.238	0.0170517
736.317	0.0172456
736.395	0.0171605
736.473	0.0171477
736.551	0.0170268
736.629	0.0170161
736.707	0.0171484
736.785	0.0171822
736.863	0.0171674
736.942	0.0171377
737.020	0.0170989
737.098	0.0170913
737.176	0.0169038
737.254	0.0170155
737.332	0.0169437
737.410	0.0169263
737.488	0.0168668
737.567	0.0169455
737.645	0.0168396
737.723	0.0168788
737.801	0.0168233
737.879	0.0167255
737.957	0.0167451
738.035	0.0168893
738.113	0.0168132
738.192	0.0167403
738.270	0.0167635
738.348	0.0168590
738.426	0.0169077
738.504	0.0168849
738.582	0.0167819
738.660	0.0168820
738.738	0.0168411
738.817	0.0169146
738.895	0.0169570
738.973	0.0170133
739.051	0.0170967
739.129	0.0169788
739.207	0.0169129
739.285	0.0167535
739.363	0.0168803
739.442	0.0168816
739.520	0.0168569
739.598	0.0166768
739.676	0.0166209
739.754	0.0166129
739.832	0.0165424
739.910	0.0165246
739.988	0.0164033
740.067	0.0164491
740.145	0.0165081
740.223	0.0163999
740.301	0.0164494
740.379	0.0162721
740.457	0.0165274
740.535	0.0164471
740.613	0.0163281
740.692	0.0165318
740.770	0.0165009
740.848	0.0165588
740.926	0.0164874
741.004	0.0165799
741.082	0.0167013
741.160	0.0167115
741.238	0.0168340
741.317	0.0167598
741.395	0.0167394
741.473	0.0167104
741.551	0.0167695
741.629	0.0168610
741.707	0.0168536
741.785	0.0167493
741.863	0.0168657
741.942	0.0169685
742.020	0.0168423
742.098	0.0170983
742.176	0.0169627
742.254	0.0168988
742.332	0.0169072
742.410	0.0169859
742.488	0.0170061
742.567	0.0168027
742.645	0.0168196
742.723	0.0168620
742.801	0.0168120
742.879	0.0166918
742.957	0.0167541
743.035	0.0167673
743.113	0.0168127
743.192	0.0167319
743.270	0.0165788
743.348	0.0167015
743.426	0.0168351
743.504	0.0166745
743.582	0.0167764
743.660	0.0168015
743.738	0.0168056
743.817	0.0168160
743.895	0.0168209
743.973	0.0168405
744.051	0.0169510
744.129	0.0170538
744.207	0.0170237
744.285	0.0169496
744.363	0.0169430
744.442	0.0169249
744.520	0.0169467
744.598	0.0169442
744.676	0.0168945
744.754	0.0168913
744.832	0.0168377
744.910	0.0168469
744.988	0.0167777
745.067	0.0167829
745.145	0.0167609
745.223	0.0167245
745.301	0.0166063
745.379	0.0167081
745.457	0.0165424
745.535	0.0166302
745.613	0.0167600
745.692	0.0167401
745.770	0.0166318
745.848	0.0165795
745.926	0.0167956
746.004	0.0167461
746.082	0.0167780
746.160	0.0168755
746.238	0.0168124
746.317	0.0169080
746.395	0.0170475
746.473	0.0170248
746.551	0.0169916
746.629	0.0170730
746.707	0.0172379
746.785	0.0171119
746.863	0.0170500
746.942	0.0170306
747.020	0.0169923
747.098	0.0170156
747.176	0.0169214
747.254	0.0168895
747.332	0.0167400
747.410	0.0166665
747.488	0.0165392
747.567	0.0164645
747.645	0.0164487
747.723	0.0164700
747.801	0.0163811
747.879	0.0162253
747.957	0.0163226
748.035	0.0164002
748.113	0.0162554
748.192	0.0163293
748.270	0.0163713
748.348	0.0164798
748.426	0.0166198
748.504	0.0165845
748.582	0.0166173
748.660	0.0169088
748.738	0.0167139
748.817	0.0170057
748.895	0.0169915
748.973	0.0170974
749.051	0.0169392
749.129	0.0170274
749.207	0.0170212
749.285	0.0171897
749.363	0.0170705
749.442	0.0169075
749.520	0.0167313
749.598	0.0170004
749.676	0.0169103
749.754	0.0168014
749.832	0.0166345
749.910	0.0167247
749.988	0.0167044
750.067	0.0165500
750.145	0.0167339
750.223	0.0167511
750.301	0.0166798
750.379	0.0166872
750.457	0.0166031
750.535	0.0168583
750.613	0.0166897
750.692	0.0167126
750.770	0.0165180
750.848	0.0166231
750.926	0.0167944
751.004	0.0167178
751.082	0.0166975
751.160	0.0167381
751.238	0.0167212
751.317	0.0165630
751.395	0.0166701
751.473	0.0166972
751.551	0.0168165
751.629	0.0166293
751.707	0.0169119
751.785	0.0168150
751.863	0.0169749
751.942	0.0169532
752.020	0.0169118
752.098	0.0168150
752.176	0.0170053
752.254	0.0169861
752.332	0.0169418
752.410	0.0168552
752.488	0.0168649
752.567	0.0169468
752.645	0.0169920
752.723	0.0170267
752.801	0.0167307
752.879	0.0168966
752.957	0.0169067
753.035	0.0169979
753.113	0.0169517
753.192	0.0169974
753.270	0.0168213
753.348	0.0168312
753.426	0.0169797
753.504	0.0168551
753.582	0.0168121
753.660	0.0168779
753.738	0.0168127
753.817	0.0166931
753.895	0.0167239
753.973	0.0166830
754.051	0.0165887
754.129	0.0166962
754.207	0.0167592
754.285	0.0166721
754.363	0.0166946
754.442	0.0168633
754.520	0.0167852
754.598	0.0167616
754.676	0.0168948
754.754	0.0168668
754.832	0.0168015
754.910	0.0168361
754.988	0.0167876
755.067	0.0167532
755.145	0.0167395
755.223	0.0168034
755.301	0.0167461
755.379	0.0167477
755.457	0.0167477
755.535	0.0168476
755.613	0.0166151
755.692	0.0166857
755.770	0.0166376
755.848	0.0166424
755.926	0.0166044
756.004	0.0167266
756.082	0.0166537
756.160	0.0166367
756.238	0.0165120
756.317	0.0165849
756.395	0.0166809
756.473	0.0166466
756.551	0.0167521
756.629	0.0166312
756.707	0.0166174
756.785	0.0168040
756.863	0.0168660
756.942	0.0167646
757.020	0.0169173
757.098	0.0167290
757.176	0.0168930
757.254	0.0170341
757.332	0.0168842
757.410	0.0168851
757.488	0.0169917
757.567	0.0169864
757.645	0.0169234
757.723	0.0169833
757.801	0.0170406
757.879	0.0169816
757.957	0.0168755
758.035	0.0168862
758.113	0.0170639
758.192	0.0169148
758.270	0.0168855
758.348	0.0168363
758.426	0.0167276
758.504	0.0168632
758.582	0.0167998
758.660	0.0167989
758.738	0.0167913
758.817	0.0168092
758.895	0.0167978
758.973	0.0167300
759.051	0.0166602
759.129	0.0166537
759.207	0.0168716
759.285	0.0166161
759.363	0.0165895
759.442	0.0166145
759.520	0.0166348
759.598	0.0166932
759.676	0.0166873
759.754	0.0167045
759.832	0.0167001
759.910	0.0166232
759.988	0.0167575
760.067	0.0166949
760.145	0.0167545
760.223	0.0166827
760.301	0.0167113
760.379	0.0168314
760.457	0.0166718
760.535	0.0166404
760.613	0.0167316
760.692	0.0168807
760.770	0.0167538
760.848	0.0166731
760.926	0.0167312
761.004	0.0167635
761.082	0.0167352
761.160	0.0168449
761.238	0.0168958
761.317	0.0168613
761.395	0.0167766
761.473	0.0168649
761.551	0.0168160
761.629	0.0167668
761.707	0.0168671
761.785	0.0168107
761.863	0.0167530
761.942	0.0168047
762.020	0.0167950
762.098	0.0168046
762.176	0.0167315
762.254	0.0168250
762.332	0.0168115
762.410	0.0168856
762.488	0.0166705
762.567	0.0167465
762.645	0.0168243
762.723	0.0168992
762.801	0.0168350
762.879	0.0168304
762.957	0.0167511
763.035	0.0168594
763.113	0.0168633
763.192	0.0167874
763.270	0.0168267
763.348	0.0168186
763.426	0.0167866
763.504	0.0168641
763.582	0.0168694
763.660	0.0167835
763.738	0.0167017
763.817	0.0167373
763.895	0.0167764
763.973	0.0167902
764.051	0.0167873
764.129	0.0167264
764.207	0.0165983
764.285	0.0167076
764.363	0.0166336
764.442	0.0166596
764.520	0.0166465
764.598	0.0166351
764.676	0.0166715
764.754	0.0166451
764.832	0.0166473
764.910	0.0167141
764.988	0.0166364
765.067	0.0166851
765.145	0.0167819
765.223	0.0168504
765.301	0.0167425
765.379	0.0168122
765.457	0.0167849
765.535	0.0167678
765.613	0.0166711
765.692	0.0168871
765.770	0.0168372
765.848	0.0166163
765.926	0.0167100
766.004	0.0168123
766.082	0.0169307
766.160	0.0167638
766.238	0.0167721
766.317	0.0168613
766.395	0.0166219
766.473	0.0167960
766.551	0.0166718
766.629	0.0167010
766.707	0.0167803
766.785	0.0166598
766.863	0.0167205
766.942	0.0167014
767.020	0.0166834
767.098	0.0166448
767.176	0.0166266
767.254	0.0166400
767.332	0.0165237
767.410	0.0166100
767.488	0.0165628
767.567	0.0166541
767.645	0.0166236
767.723	0.0165836
767.801	0.0164984
767.879	0.0166148
767.957	0.0166831
768.035	0.0165958
768.113	0.0166203
768.192	0.0167501
768.270	0.0167199
768.348	0.0169054
768.426	0.0167460
768.504	0.0168890
768.582	0.0169558
768.660	0.0168461
768.738	0.0169216
768.817	0.0169939
768.895	0.0169444
768.973	0.0168847
769.051	0.0170978
769.129	0.0169142
769.207	0.0169186
769.285	0.0169052
769.363	0.0170306
769.442	0.0168024
769.520	0.0169548
769.598	0.0168912
769.676	0.0168278
769.754	0.0168789
769.832	0.0167476
769.910	0.0166694
769.988	0.0166492
770.067	0.0168362
770.145	0.0167112
770.223	0.0166521
770.301	0.0167072
770.379	0.0167372
770.457	0.0167365
770.535	0.0165993
770.613	0.0167632
770.692	0.0168411
770.770	0.0167658
770.848	0.0166538
770.926	0.0167907
771.004	0.0168269
771.082	0.0168902
771.160	0.0169136
771.238	0.0168596
771.317	0.0168424
771.395	0.0168444
771.473	0.0168629
771.551	0.0169434
771.629	0.0169329
771.707	0.0170021
771.785	0.0168317
771.863	0.0166901
771.942	0.0168474
772.020	0.0168495
772.098	0.0167489
772.176	0.0169228
772.254	0.0166917
772.332	0.0166612
772.410	0.0167617
772.488	0.0167453
772.567	0.0167571
772.645	0.0167422
772.723	0.0167293
772.801	0.0166386
772.879	0.0166459
772.957	0.0167174
773.035	0.0167157
773.113	0.0168864
773.192	0.0167393
773.270	0.0167903
773.348	0.0167686
773.426	0.0167678
773.504	0.0168482
773.582	0.0168582
773.660	0.0169234
773.738	0.0165391
773.817	0.0167522
773.895	0.0169064
773.973	0.0166563
774.051	0.0168195
774.129	0.0168180
774.207	0.0167872
774.285	0.0167188
774.363	0.0167271
774.442	0.0168137
774.520	0.0167313
774.598	0.0166727
774.676	0.0166054
774.754	0.0166566
774.832	0.0166098
774.910	0.0166302
774.988	0.0166219
775.067	0.0167467
775.145	0.0166173
775.223	0.0165374
775.301	0.0166134
775.379	0.0165870
775.457	0.0165170
775.535	0.0167390
775.613	0.0166132
775.692	0.0166520
775.770	0.0166625
775.848	0.0166796
775.926	0.0167307
776.004	0.0166202
776.082	0.0166890
776.160	0.0167299
776.238	0.0166967
776.317	0.0166595
776.395	0.0168600
776.473	0.0167870
776.551	0.0168233
776.629	0.0168250
776.707	0.0169816
776.785	0.0168815
776.863	0.0169243
776.942	0.0168851
777.020	0.0167914
777.098	0.0168176
777.176	0.0169464
777.254	0.0168677
777.332	0.0169749
777.410	0.0169300
777.488	0.0168351
777.567	0.0169044
777.645	0.0168838
777.723	0.0167226
777.801	0.0169341
777.879	0.0168845
777.957	0.0168664
778.035	0.0167082
778.113	0.0167911
778.192	0.0168340
778.270	0.0168009
778.348	0.0168524
778.426	0.0169228
778.504	0.0167673
778.582	0.0168906
778.660	0.0168467
778.738	0.0168279
778.817	0.0167113
778.895	0.0167262
778.973	0.0169070
779.051	0.0167117
779.129	0.0168379
779.207	0.0168227
779.285	0.0168606
779.363	0.0168374
779.442	0.0166875
779.520	0.0167865
779.598	0.0168321
779.676	0.0168837
779.754	0.0167804
779.832	0.0168312
779.910	0.0168008
779.988	0.0166777
780.067	0.0167887
780.145	0.0167724
780.223	0.0167798
780.301	0.0167061
780.379	0.0167176
780.457	0.0167676
780.535	0.0166331
780.613	0.0166220
780.692	0.0165617
780.770	0.0167431
780.848	0.0167003
780.926	0.0166472
781.004	0.0167891
781.082	0.0166273
781.160	0.0167181
781.238	0.0167168
781.317	0.0166927
781.395	0.0168070
781.473	0.0168351
781.551	0.0166993
781.629	0.0165909
781.707	0.0168439
781.785	0.0167483
781.863	0.0168002
781.942	0.0168182
782.020	0.0166974
782.098	0.0167559
782.176	0.0168565
782.254	0.0167467
782.332	0.0167585
782.410	0.0167280
782.488	0.0168282
782.567	0.0168376
782.645	0.0167384
782.723	0.0166680
782.801	0.0168285
782.879	0.0166016
782.957	0.0165416
783.035	0.0168137
783.113	0.0168183
783.192	0.0167849
783.270	0.0167628
783.348	0.0167865
783.426	0.0168595
783.504	0.0168824
783.582	0.0167101
783.660	0.0169192
783.738	0.0168567
783.817	0.0166895
783.895	0.0168053
783.973	0.0168095
784.051	0.0168707
784.129	0.0169789
784.207	0.0169473
784.285	0.0167278
784.363	0.0167506
784.442	0.0167620
784.520	0.0166924
784.598	0.0166725
784.676	0.0165015
784.754	0.0165456
784.832	0.0165334
784.910	0.0165820
784.988	0.0164015
785.067	0.0163808
785.145	0.0163802
785.223	0.0165559
785.301	0.0165221
785.379	0.0165451
785.457	0.0166747
785.535	0.0167813
785.613	0.0167928
785.692	0.0166876
785.770	0.0170415
785.848	0.0169612
785.926	0.0170248
786.004	0.0171341
786.082	0.0172002
786.160	0.0174402
786.238	0.0175944
786.317	0.0175560
786.395	0.0174548
786.473	0.0176846
786.551	0.0175183
786.629	0.0174473
786.707	0.0174249
786.785	0.0173450
786.863	0.0171318
786.942	0.0170900
787.020	0.0168494
787.098	0.0168528
787.176	0.0166037
787.254	0.0165405
787.332	0.0164088
787.410	0.0162813
787.488	0.0162800
787.567	0.0160928
787.645	0.0161742
787.723	0.0160380
787.801	0.0159110
787.879	0.0161676
787.957	0.0160686
788.035	0.0159621
788.113	0.0160171
788.192	0.0162836
788.270	0.0161958
788.348	0.0163206
788.426	0.0161573
788.504	0.0164509
788.582	0.0164864
788.660	0.0166055
788.738	0.0166535
788.817	0.0167290
788.895	0.0167603
788.973	0.0168762
789.051	0.0169833
789.129	0.0168995
789.207	0.0168633
789.285	0.0170465
789.363	0.0170400
789.442	0.0169064
789.520	0.0170453
789.598	0.0172057
789.676	0.0171798
789.754	0.0171370
789.832	0.0173122
789.910	0.0172510
789.988	0.0171994
790.067	0.0171379
790.145	0.0170763
790.223	0.0171513
790.301	0.0171056
790.379	0.0172996
790.457	0.0170686
790.535	0.0170439
790.613	0.0169940
790.692	0.0170598
790.770	0.0170686
790.848	0.0170213
790.926	0.0168714
791.004	0.0168488
791.082	0.0169764
791.160	0.0169234
791.238	0.0168532
791.317	0.0166804
791.395	0.0167728
791.473	0.0168343
791.551	0.0166117
791.629	0.0166397
791.707	0.0165388
791.785	0.0164709
791.863	0.0165464
791.942	0.0164437
792.020	0.0164695
792.098	0.0164211
792.176	0.0163577
792.254	0.0162955
792.332	0.0164488
792.410	0.0163858
792.488	0.0163867
792.567	0.0164592
792.645	0.0164471
792.723	0.0165445
792.801	0.0164454
792.879	0.0164782
792.957	0.0164720
793.035	0.0166212
793.113	0.0166332
793.192	0.0165259
793.270	0.0166091
793.348	0.0165406
793.426	0.0165031
793.504	0.0165565
793.582	0.0165085
793.660	0.0163914
793.738	0.0165282
793.817	0.0165255
793.895	0.0164292
793.973	0.0165323
794.051	0.0167138
794.129	0.0167294
794.207	0.0167590
794.285	0.0169144
794.363	0.0170592
794.442	0.0169648
794.520	0.0169908
794.598	0.0171418
794.676	0.0173778
794.754	0.0173111
794.832	0.0171709
794.910	0.0170682
794.988	0.0170741
795.067	0.0173267
795.145	0.0173019
795.223	0.0171554
795.301	0.0171817
795.379	0.0171535
795.457	0.0170012
795.535	0.0171021
795.613	0.0171409
795.692	0.0170779
795.770	0.0169854
795.848	0.0169132
795.926	0.0169812
796.004	0.0170591
796.082	0.0169495
796.160	0.0168834
796.238	0.0169775
796.317	0.0168902
796.395	0.0168644
796.473	0.0168824
796.551	0.0169711
796.629	0.0169136
796.707	0.0168639
796.785	0.0167402
796.863	0.0168020
796.942	0.0168097
797.020	0.0167434
797.098	0.0166824
797.176	0.0166979
797.254	0.0166566
797.332	0.0166398
797.410	0.0165644
797.488	0.0165874
797.567	0.0165640
797.645	0.0165955
797.723	0.0164634
797.801	0.0164796
797.879	0.0166357
797.957	0.0164581
798.035	0.0165356
798.113	0.0165263
798.192	0.0165734
798.270	0.0165967
798.348	0.0164443
798.426	0.0164095
798.504	0.0165914
798.582	0.0164762
798.660	0.0164887
798.738	0.0165758
798.817	0.0166987
798.895	0.0166257
798.973	0.0166507
799.051	0.0166082
799.129	0.0164990
799.207	0.0166225
799.285	0.0166908
799.363	0.0166946
799.442	0.0167032
799.520	0.0166904
799.598	0.0168388
799.676	0.0167172
799.754	0.0167847
799.832	0.0166634
799.910	0.0167599
799.988	0.0168362
800.067	0.0167770
800.145	0.0166972
800.223	0.0167791
800.301	0.0169404
800.379	0.0169466
800.457	0.0168144
800.535	0.0168382
800.613	0.0167983
800.692	0.0168485
800.770	0.0168988
800.848	0.0169114
800.926	0.0169711
801.004	0.0168190
801.082	0.0168829
801.160	0.0168439
801.238	0.0168281
801.317	0.0168420
801.395	0.0168919
801.473	0.0168777
801.551	0.0168020
801.629	0.0169719
801.707	0.0169538
801.785	0.0169189
801.863	0.0170325
801.942	0.0170830
802.020	0.0171336
802.098	0.0170277
802.176	0.0171060
802.254	0.0170452
802.332	0.0169741
802.410	0.0170507
802.488	0.0169439
802.567	0.0170641
802.645	0.0170959
802.723	0.0170802
802.801	0.0170792
802.879	0.0168430
802.957	0.0167736
803.035	0.0167908
803.113	0.0170069
803.192	0.0168965
803.270	0.0166620
803.348	0.0166306
803.426	0.0167160
803.504	0.0165670
803.582	0.0165118
803.660	0.0165783
803.738	0.0165614
803.817	0.0165065
803.895	0.0164517
803.973	0.0164521
804.051	0.0164395
804.129	0.0166600
804.207	0.0165937
804.285	0.0167242
804.363	0.0167261
804.442	0.0168424
804.520	0.0170160
804.598	0.0168711
804.676	0.0170442
804.754	0.0169340
804.832	0.0168689
804.910	0.0169486
804.988	0.0169611
805.067	0.0170012
805.145	0.0168697
805.223	0.0168565
805.301	0.0167943
805.379	0.0166895
805.457	0.0168372
805.535	0.0166853
805.613	0.0167638
805.692	0.0166926
805.770	0.0166648
805.848	0.0166494
805.926	0.0164722
806.004	0.0166570
806.082	0.0166830
806.160	0.0166953
806.238	0.0166231
806.317	0.0166795
806.395	0.0165392
806.473	0.0166530
806.551	0.0166805
806.629	0.0167065
806.707	0.0168713
806.785	0.0168899
806.863	0.0168883
806.942	0.0168385
807.020	0.0167829
807.098	0.0168813
807.176	0.0169689
807.254	0.0170096
807.332	0.0169128
807.410	0.0168787
807.488	0.0168607
807.567	0.0168384
807.645	0.0168024
807.723	0.0166944
807.801	0.0167218
807.879	0.0168710
807.957	0.0167823
808.035	0.0167826
808.113	0.0167481
808.192	0.0167079
808.270	0.0166322
808.348	0.0167519
808.426	0.0166914
808.504	0.0167810
808.582	0.0166779
808.660	0.0167205
808.738	0.0167326
808.817	0.0166838
808.895	0.0166429
808.973	0.0167169
809.051	0.0167968
809.129	0.0169190
809.207	0.0168005
809.285	0.0170149
809.363	0.0168456
809.442	0.0169740
809.520	0.0169436
809.598	0.0169279
809.676	0.0168456
809.754	0.0170139
809.832	0.0169392
809.910	0.0172195
809.988	0.0170057
810.067	0.0168613
810.145	0.0169918
810.223	0.0169654
810.301	0.0169163
810.379	0.0168159
810.457	0.0169277
810.535	0.0167728
810.613	0.0168452
810.692	0.0168205
810.770	0.0165872
810.848	0.0165943
810.926	0.0167942
811.004	0.0167496
811.082	0.0167898
811.160	0.0167867
811.238	0.0168067
811.317	0.0169094
811.395	0.0168197
811.473	0.0168262
811.551	0.0167563
811.629	0.0167996
811.707	0.0167542
811.785	0.0169060
811.863	0.0168480
811.942	0.0168929
812.020	0.0168194
812.098	0.0166900
812.176	0.0169758
812.254	0.0169365
812.332	0.0167887
812.410	0.0168089
812.488	0.0168190
812.567	0.0167424
812.645	0.0166556
812.723	0.0165924
812.801	0.0168030
812.879	0.0165842
812.957	0.0165889
813.035	0.0166825
813.113	0.0165960
813.192	0.0166534
813.270	0.0166466
813.348	0.0166326
813.426	0.0166438
813.504	0.0164635
813.582	0.0165944
813.660	0.0167975
813.738	0.0166342
813.817	0.0167817
813.895	0.0167638
813.973	0.0167696
814.051	0.0167770
814.129	0.0167900
814.207	0.0168633
814.285	0.0168170
814.363	0.0168475
814.442	0.0167094
814.520	0.0167722
814.598	0.0168697
814.676	0.0167450
814.754	0.0167014
814.832	0.0166663
814.910	0.0166249
814.988	0.0165875
815.067	0.0166077
815.145	0.0164858
815.223	0.0165773
815.301	0.0164300
815.379	0.0164008
815.457	0.0165955
815.535	0.0167594
815.613	0.0165723
815.692	0.0165945
815.770	0.0167854
815.848	0.0166874
815.926	0.0167786
816.004	0.0167394
816.082	0.0167298
816.160	0.0168800
816.238	0.0168472
816.317	0.0167810
816.395	0.0169899
816.473	0.0168834
816.551	0.0168853
816.629	0.0168959
816.707	0.0169594
816.785	0.0168601
816.863	0.0168024
816.942	0.0168948
817.020	0.0169177
817.098	0.0169891
817.176	0.0168265
817.254	0.0169115
817.332	0.0169267
817.410	0.0168802
817.488	0.0168382
817.567	0.0170101
817.645	0.0168563
817.723	0.0168454
817.801	0.0168177
817.879	0.0167413
817.957	0.0167793
818.035	0.0167070
818.113	0.0168892
818.192	0.0167242
818.270	0.0168478
818.348	0.0167831
818.426	0.0166756
818.504	0.0167877
818.582	0.0166416
818.660	0.0167596
818.738	0.0167127
818.817	0.0167521
818.895	0.0167016
818.973	0.0166605
819.051	0.0167526
819.129	0.0169004
819.207	0.0167805
819.285	0.0168587
819.363	0.0169112
819.442	0.0168943
819.520	0.0167952
819.598	0.0168520
819.676	0.0169048
819.754	0.0167509
819.832	0.0170341
819.910	0.0168124
819.988	0.0169482
820.067	0.0168024
820.145	0.0167623
820.223	0.0167464
820.301	0.0167721
820.379	0.0166155
820.457	0.0166860
820.535	0.0166489
820.613	0.0166557
820.692	0.0166952
820.770	0.0165475
820.848	0.0166364
820.926	0.0165186
821.004	0.0165307
821.082	0.0164775
821.160	0.0165217
821.238	0.0166663
821.317	0.0167952
821.395	0.0165909
821.473	0.0165192
821.551	0.0165630
821.629	0.0167878
821.707	0.0166824
821.785	0.0167964
821.863	0.0167943
821.942	0.0167697
822.020	0.0166836
822.098	0.0168526
822.176	0.0168066
822.254	0.0168016
822.332	0.0168089
822.410	0.0167542
822.488	0.0167253
822.567	0.0167450
822.645	0.0167142
822.723	0.0167860
822.801	0.0168018
822.879	0.0166429
822.957	0.0167818
823.035	0.0169475
823.113	0.0167499
823.192	0.0168110
823.270	0.0166952
823.348	0.0168952
823.426	0.0167075
823.504	0.0167564
823.582	0.0168011
823.660	0.0168388
823.738	0.0166785
823.817	0.0166340
823.895	0.0166278
823.973	0.0168825
824.051	0.0168955
824.129	0.0167310
824.207	0.0167745
824.285	0.0167352
824.363	0.0167339
824.442	0.0167707
824.520	0.0168311
824.598	0.0169350
824.676	0.0168348
824.754	0.0167979
824.832	0.0168626
824.910	0.0169652
824.988	0.0168621
825.067	0.0169395
825.145	0.0169207
825.223	0.0169878
825.301	0.0168319
825.379	0.0168855
825.457	0.0171274
825.535	0.0169088
825.613	0.0167495
825.692	0.0167957
825.770	0.0168446
825.848	0.0169229
825.926	0.0168191
826.004	0.0169238
826.082	0.0169686
826.160	0.0169085
826.238	0.0168130
826.317	0.0168092
826.395	0.0169176
826.473	0.0168192
826.551	0.0167879
826.629	0.0168322
826.707	0.0168382
826.785	0.0168818
826.863	0.0169819
826.942	0.0169147
827.020	0.0168874
827.098	0.0169486
827.176	0.0169298
827.254	0.0167662
827.332	0.0169687
827.410	0.0168256
827.488	0.0169948
827.567	0.0168539
827.645	0.0167650
827.723	0.0169057
827.801	0.0168207
827.879	0.0168310
827.957	0.0168411
828.035	0.0166338
828.113	0.0166869
828.192	0.0167665
828.270	0.0166830
828.348	0.0166734
828.426	0.0167393
828.504	0.0165540
828.582	0.0165601
828.660	0.0166158
828.738	0.0166002
828.817	0.0166428
828.895	0.0165432
828.973	0.0164697
829.051	0.0164529
829.129	0.0166265
829.207	0.0165405
829.285	0.0166958
829.363	0.0167792
829.442	0.0166014
829.520	0.0165972
829.598	0.0166613
829.676	0.0166757
829.754	0.0166560
829.832	0.0165937
829.910	0.0167327
829.988	0.0166913
830.067	0.0168127
830.145	0.0167725
830.223	0.0168591
830.301	0.0167307
830.379	0.0169173
830.457	0.0167871
830.535	0.0167618
830.613	0.0169289
830.692	0.0168800
830.770	0.0169080
830.848	0.0167191
830.926	0.0166367
831.004	0.0168822
831.082	0.0168159
831.160	0.0167619
831.238	0.0168104
831.317	0.0168317
831.395	0.0168953
831.473	0.0169168
831.551	0.0168639
831.629	0.0167709
831.707	0.0168565
831.785	0.0169323
831.863	0.0169868
831.942	0.0168945
832.020	0.0169489
832.098	0.0169518
832.176	0.0169559
832.254	0.0169778
832.332	0.0169926
832.410	0.0168455
832.488	0.0167300
832.567	0.0169198
832.645	0.0170209
832.723	0.0168693
832.801	0.0168797
832.879	0.0168716
832.957	0.0168010
833.035	0.0168086
833.113	0.0167448
833.192	0.0167571
833.270	0.0167471
833.348	0.0166532
833.426	0.0167668
833.504	0.0168008
833.582	0.0167111
833.660	0.0167207
833.738	0.0167433
833.817	0.0167048
833.895	0.0167829
833.973	0.0168241
834.051	0.0167085
834.129	0.0166717
834.207	0.0167975
834.285	0.0167827
834.363	0.0167104
834.442	0.0168752
834.520	0.0168163
834.598	0.0167234
834.676	0.0167138
834.754	0.0166614
834.832	0.0167949
834.910	0.0167266
834.988	0.0167513
835.067	0.0167738
835.145	0.0167353
835.223	0.0167467
835.301	0.0168752
835.379	0.0167274
835.457	0.0168658
835.535	0.0169357
835.613	0.0168361
835.692	0.0166636
835.770	0.0167473
835.848	0.0167188
835.926	0.0167889
836.004	0.0167626
836.082	0.0167762
836.160	0.0169547
836.238	0.0167205
836.317	0.0166853
836.395	0.0168403
836.473	0.0167168
836.551	0.0168301
836.629	0.0167815
836.707	0.0168584
836.785	0.0168614
836.863	0.0168439
836.942	0.0169530
837.020	0.0167876
837.098	0.0169980
837.176	0.0166856
837.254	0.0167885
837.332	0.0168468
837.410	0.0167513
837.488	0.0167081
837.567	0.0168177
837.645	0.0167992
837.723	0.0167175
837.801	0.0166226
837.879	0.0165646
837.957	0.0167514
838.035	0.0167804
838.113	0.0167117
838.192	0.0167743
838.270	0.0167710
838.348	0.0168264
838.426	0.0168085
838.504	0.0168507
838.582	0.0167269
838.660	0.0166983
838.738	0.0166489
838.817	0.0168317
838.895	0.0166759
838.973	0.0167664
839.051	0.0167796
839.129	0.0167953
839.207	0.0166019
839.285	0.0167564
839.363	0.0166782
839.442	0.0166789
839.520	0.0167201
839.598	0.0167753
839.676	0.0168147
839.754	0.0166882
839.832	0.0167229
839.910	0.0167598
839.988	0.0166650
840.067	0.0166832
840.145	0.0168222
840.223	0.0169036
840.301	0.0167214
840.379	0.0167040
840.457	0.0166980
840.535	0.0167508
840.613	0.0167520
840.692	0.0166838
840.770	0.0167191
840.848	0.0168392
840.926	0.0167950
841.004	0.0168717
841.082	0.0167167
841.160	0.0169154
841.238	0.0168799
841.317	0.0169073
841.395	0.0166692
841.473	0.0167535
841.551	0.0166268
841.629	0.0168001
841.707	0.0167708
841.785	0.0167581
841.863	0.0168357
841.942	0.0167142
842.020	0.0167532
842.098	0.0168039
842.176	0.0167973
842.254	0.0166313
842.332	0.0167423
842.410	0.0167587
842.488	0.0166566
842.567	0.0168687
842.645	0.0166499
842.723	0.0167188
842.801	0.0167450
842.879	0.0168162
842.957	0.0167219
843.035	0.0167399
843.113	0.0167612
843.192	0.0168027
843.270	0.0168407
843.348	0.0166664
843.426	0.0167851
843.504	0.0167173
843.582	0.0167137
843.660	0.0168064
843.738	0.0166911
843.817	0.0167785
843.895	0.0167157
843.973	0.0168755
844.051	0.0167484
844.129	0.0167965
844.207	0.0166156
844.285	0.0167886
844.363	0.0168388
844.442	0.0169106
844.520	0.0167447
844.598	0.0167964
844.676	0.0166569
844.754	0.0167483
844.832	0.0167439
844.910	0.0166690
844.988	0.0167317
845.067	0.0166266
845.145	0.0168744
845.223	0.0166455
845.301	0.0166622
845.379	0.0167044
845.457	0.0166257
845.535	0.0165726
845.613	0.0167258
845.692	0.0167335
845.770	0.0167471
845.848	0.0167873
845.926	0.0168902
846.004	0.0168152
846.082	0.0165589
846.160	0.0166705
846.238	0.0168285
846.317	0.0167042
846.395	0.0166676
846.473	0.0167831
846.551	0.0168066
846.629	0.0167664
846.707	0.0166743
846.785	0.0168850
846.863	0.0168251
846.942	0.0167921
847.020	0.0168439
847.098	0.0167957
847.176	0.0168677
847.254	0.0165964
847.332	0.0167592
847.410	0.0168258
847.488	0.0168458
847.567	0.0169097
847.645	0.0168149
847.723	0.0169322
847.801	0.0168628
847.879	0.0167325
847.957	0.0168293
848.035	0.0167587
848.113	0.0167419
848.192	0.0167710
848.270	0.0167563
848.348	0.0168005
848.426	0.0168016
848.504	0.0166120
848.582	0.0167977
848.660	0.0168142
848.738	0.0168330
848.817	0.0169299
848.895	0.0168884
848.973	0.0169545
849.051	0.0168163
849.129	0.0169566
849.207	0.0170234
849.285	0.0169299
849.363	0.0168354
849.442	0.0169325
849.520	0.0168934
849.598	0.0169624
849.676	0.0169441
849.754	0.0168472
849.832	0.0168052
849.910	0.0167885
849.988	0.0169158
850.067	0.0167953
850.145	0.0168531
850.223	0.0166804
850.301	0.0167847
850.379	0.0168283
850.457	0.0167901
850.535	0.0168046
850.613	0.0167323
850.692	0.0167435
850.770	0.0167602
850.848	0.0167437
850.926	0.0167201
851.004	0.0164861
851.082	0.0166760
851.160	0.0165295
851.238	0.0166585
851.317	0.0167059
851.395	0.0166743
851.473	0.0165448
851.551	0.0165424
851.629	0.0166474
851.707	0.0166218
851.785	0.0166611
851.863	0.0167023
851.942	0.0165717
852.020	0.0166821
852.098	0.0166815
852.176	0.0167659
852.254	0.0167078
852.332	0.0166220
852.410	0.0166107
852.488	0.0167851
852.567	0.0169005
852.645	0.0167582
852.723	0.0168968
852.801	0.0169119
852.879	0.0167757
852.957	0.0167863
853.035	0.0168999
853.113	0.0169633
853.192	0.0168616
853.270	0.0168481
853.348	0.0168666
853.426	0.0170640
853.504	0.0169720
853.582	0.0169250
853.660	0.0167085
853.738	0.0168890
853.817	0.0168819
853.895	0.0168303
853.973	0.0168462
854.051	0.0169095
854.129	0.0168335
854.207	0.0166614
854.285	0.0166712
854.363	0.0166844
854.442	0.0167537
854.520	0.0167197
854.598	0.0166589
854.676	0.0167187
854.754	0.0167373
854.832	0.0167416
854.910	0.0165958
854.988	0.0166788
855.067	0.0166946
855.145	0.0167905
855.223	0.0167490
855.301	0.0167100
855.379	0.0167329
855.457	0.0168285
855.535	0.0167943
855.613	0.0167348
855.692	0.0168826
855.770	0.0168786
855.848	0.0167430
855.926	0.0168096
856.004	0.0168781
856.082	0.0169521
856.160	0.0168044
856.238	0.0168616
856.317	0.0168153
856.395	0.0168925
856.473	0.0167452
856.551	0.0168087
856.629	0.0167989
856.707	0.0168346
856.785	0.0167873
856.863	0.0168939
856.942	0.0167677
857.020	0.0168165
857.098	0.0168045
857.176	0.0168290
857.254	0.0166602
857.332	0.0167679
857.410	0.0167977
857.488	0.0165878
857.567	0.0168019
857.645	0.0168241
857.723	0.0167464
857.801	0.0168379
857.879	0.0168257
857.957	0.0166985
858.035	0.0166762
858.113	0.0167841
858.192	0.0167427
858.270	0.0166744
858.348	0.0166982
858.426	0.0168015
858.504	0.0168643
858.582	0.0168017
858.660	0.0166700
858.738	0.0166456
858.817	0.0168091
858.895	0.0167458
858.973	0.0168059
859.051	0.0167545
859.129	0.0168179
859.207	0.0168166
859.285	0.0167329
859.363	0.0167197
859.442	0.0166752
859.520	0.0167434
859.598	0.0168085
859.676	0.0168233
859.754	0.0168036
859.832	0.0167646
859.910	0.0166391
859.988	0.0167349
860.067	0.0168013
860.145	0.0168583
860.223	0.0168143
860.301	0.0167140
860.379	0.0168711
860.457	0.0168839
860.535	0.0169061
860.613	0.0168727
860.692	0.0169389
860.770	0.0168553
860.848	0.0169321
860.926	0.0168542
861.004	0.0170076
861.082	0.0169912
861.160	0.0170099
861.238	0.0168155
861.317	0.0166906
861.395	0.0168562
861.473	0.0168411
861.551	0.0167735
861.629	0.0167864
861.707	0.0168134
861.785	0.0166860
861.863	0.0167993
861.942	0.0167383
862.020	0.0167318
862.098	0.0166792
862.176	0.0168825
862.254	0.0166612
862.332	0.0166970
862.410	0.0166386
862.488	0.0167335
862.567	0.0167549
862.645	0.0167216
862.723	0.0168574
862.801	0.0167617
862.879	0.0166051
862.957	0.0166090
863.035	0.0167464
863.113	0.0168063
863.192	0.0166956
863.270	0.0168729
863.348	0.0168183
863.426	0.0167879
863.504	0.0168019
863.582	0.0167490
863.660	0.0166849
863.738	0.0167295
863.817	0.0166487
863.895	0.0168340
863.973	0.0167026
864.051	0.0166663
864.129	0.0168512
864.207	0.0166626
864.285	0.0166875
864.363	0.0168640
864.442	0.0167336
864.520	0.0167401
864.598	0.0167948
864.676	0.0166800
864.754	0.0166497
864.832	0.0168512
864.910	0.0169383
864.988	0.0168578
865.067	0.0168025
865.145	0.0167982
865.223	0.0167701
865.301	0.0167836
865.379	0.0167377
865.457	0.0168608
865.535	0.0167525
865.613	0.0168009
865.692	0.0168981
865.770	0.0167529
865.848	0.0167532
865.926	0.0169776
866.004	0.0170168
866.082	0.0169025
866.160	0.0168303
866.238	0.0168008
866.317	0.0168799
866.395	0.0169097
866.473	0.0169245
866.551	0.0169041
866.629	0.0167056
866.707	0.0167103
866.785	0.0167007
866.863	0.0167753
866.942	0.0166335
867.020	0.0167435
867.098	0.0167522
867.176	0.0168109
867.254	0.0169259
867.332	0.0167947
867.410	0.0169329
867.488	0.0168496
867.567	0.0167468
867.645	0.0168261
867.723	0.0168100
867.801	0.0167725
867.879	0.0169222
867.957	0.0167977
868.035	0.0168244
868.113	0.0168758
868.192	0.0167989
868.270	0.0166640
868.348	0.0166357
868.426	0.0168539
868.504	0.0166225
868.582	0.0166560
868.660	0.0167297
868.738	0.0166667
868.817	0.0166132
868.895	0.0167822
868.973	0.0164261
869.051	0.0167088
869.129	0.0168365
869.207	0.0167083
869.285	0.0164921
869.363	0.0165842
869.442	0.0167158
869.520	0.0167760
869.598	0.0167797
869.676	0.0167477
869.754	0.0167528
869.832	0.0168739
869.910	0.0168855
869.988	0.0167991
870.067	0.0166969
870.145	0.0167617
870.223	0.0167590
870.301	0.0168142
870.379	0.0168484
870.457	0.0167869
870.535	0.0168048
870.613	0.0169379
870.692	0.0168942
870.770	0.0169743
870.848	0.0168339
870.926	0.0169283
871.004	0.0169061
871.082	0.0170248
871.160	0.0169148
871.238	0.0170573
871.317	0.0169056
871.395	0.0168114
871.473	0.0167657
871.551	0.0167952
871.629	0.0168501
871.707	0.0168708
871.785	0.0167349
871.863	0.0169353
871.942	0.0167438
872.020	0.0167310
872.098	0.0167477
872.176	0.0168024
872.254	0.0168447
872.332	0.0166437
872.410	0.0167934
872.488	0.0168066
872.567	0.0167445
872.645	0.0168227
872.723	0.0169027
872.801	0.0167198
872.879	0.0168185
872.957	0.0166787
873.035	0.0167422
873.113	0.0168204
873.192	0.0167525
873.270	0.0169073
873.348	0.0166915
873.426	0.0167741
873.504	0.0168008
873.582	0.0167984
873.660	0.0166802
873.738	0.0167724
873.817	0.0168610
873.895	0.0169750
873.973	0.0167375
874.051	0.0167443
874.129	0.0167507
874.207	0.0167658
874.285	0.0167760
874.363	0.0168282
874.442	0.0168727
874.520	0.0168254
874.598	0.0167278
874.676	0.0167158
874.754	0.0167786
874.832	0.0167262
874.910	0.0167876
874.988	0.0168472
875.067	0.0167542
875.145	0.0168143
875.223	0.0168129
875.301	0.0167986
875.379	0.0167618
875.457	0.0167284
875.535	0.0168256
875.613	0.0167081
875.692	0.0166608
875.770	0.0167563
875.848	0.0167899
875.926	0.0167484
876.004	0.0168675
876.082	0.0168336
876.160	0.0168142
876.238	0.0166863
876.317	0.0168761
876.395	0.0167574
876.473	0.0167265
876.551	0.0167764
876.629	0.0167741
876.707	0.0167419
876.785	0.0168215
876.863	0.0167593
876.942	0.0167864
877.020	0.0168182
877.098	0.0166845
877.176	0.0167803
877.254	0.0167709
877.332	0.0167408
877.410	0.0166429
877.488	0.0166827
877.567	0.0167081
877.645	0.0166756
877.723	0.0166660
877.801	0.0167613
877.879	0.0167050
877.957	0.0169260
878.035	0.0168494
878.113	0.0168263
878.192	0.0168600
878.270	0.0168556
878.348	0.0168822
878.426	0.0168523
878.504	0.0167056
878.582	0.0168463
878.660	0.0168108
878.738	0.0167692
878.817	0.0168399
878.895	0.0169822
878.973	0.0168835
879.051	0.0167632
879.129	0.0169098
879.207	0.0170406
879.285	0.0170856
879.363	0.0170139
879.442	0.0170137
879.520	0.0169331
879.598	0.0168822
879.676	0.0168238
879.754	0.0167469
879.832	0.0166779
879.910	0.0165032
879.988	0.0163866
880.067	0.0162443
880.145	0.0161366
880.223	0.0162728
880.301	0.0161567
880.379	0.0164259
880.457	0.0162773
880.535	0.0163690
880.613	0.0165288
880.692	0.0167355
880.770	0.0169694
880.848	0.0170249
880.926	0.0172365
881.004	0.0174184
881.082	0.0173957
881.160	0.0174081
881.238	0.0173923
881.317	0.0175043
881.395	0.0175027
881.473	0.0172506
881.551	0.0170833
881.629	0.0171458
881.707	0.0170943
881.785	0.0168951
881.863	0.0167112
881.942	0.0167355
882.020	0.0165563
882.098	0.0163416
882.176	0.0161635
882.254	0.0161925
882.332	0.0161712
882.410	0.0161751
882.488	0.0160650
882.567	0.0161069
882.645	0.0160122
882.723	0.0161933
882.801	0.0162806
882.879	0.0161908
882.957	0.0163998
883.035	0.0165427
883.113	0.0165790
883.192	0.0164709
883.270	0.0167105
883.348	0.0168246
883.426	0.0167744
883.504	0.0168250
883.582	0.0168860
883.660	0.0171093
883.738	0.0171613
883.817	0.0172083
883.895	0.0171522
883.973	0.0173364
884.051	0.0173006
884.129	0.0171738
884.207	0.0172366
884.285	0.0173483
884.363	0.0171633
884.442	0.0171321
884.520	0.0170829
884.598	0.0169991
884.676	0.0169625
884.754	0.0169103
884.832	0.0168527
884.910	0.0167812
884.988	0.0166827
885.067	0.0166962
885.145	0.0165231
885.223	0.0165778
885.301	0.0165269
885.379	0.0166817
885.457	0.0164662
885.535	0.0163947
885.613	0.0163961
885.692	0.0165614
885.770	0.0165335
885.848	0.0166676
885.926	0.0165125
886.004	0.0166381
886.082	0.0166505
886.160	0.0165948
886.238	0.0168110
886.317	0.0167728
886.395	0.0166997
886.473	0.0169806
886.551	0.0168863
886.629	0.0169381
886.707	0.0168710
886.785	0.0168634
886.863	0.0168620
886.942	0.0168201
887.020	0.0168020
887.098	0.0167947
887.176	0.0165956
887.254	0.0167328
887.332	0.0167959
887.410	0.0167078
887.488	0.0167181
887.567	0.0168411
887.645	0.0167812
887.723	0.0167569
887.801	0.0167429
887.879	0.0167173
887.957	0.0167955
888.035	0.0166929
888.113	0.0167204
888.192	0.0167186
888.270	0.0168163
888.348	0.0168911
888.426	0.0169241
888.504	0.0167382
888.582	0.0167186
888.660	0.0167946
888.738	0.0169068
888.817	0.0168954
888.895	0.0167489
888.973	0.0167719
889.051	0.0168960
889.129	0.0167564
889.207	0.0167521
889.285	0.0168409
889.363	0.0168401
889.442	0.0167131
889.520	0.0168018
889.598	0.0168439
889.676	0.0168679
889.754	0.0168119
889.832	0.0169028
889.910	0.0167662
889.988	0.0168072
890.067	0.0168578
890.145	0.0169231
890.223	0.0168112
890.301	0.0168314
890.379	0.0167587
890.457	0.0166754
890.535	0.0168175
890.613	0.0166753
890.692	0.0166777
890.770	0.0165865
890.848	0.0167332
890.926	0.0165796
891.004	0.0166037
891.082	0.0165592
891.160	0.0166010
891.238	0.0166048
891.317	0.0166317
891.395	0.0164556
891.473	0.0165939
891.551	0.0167485
891.629	0.0167365
891.707	0.0167719
891.785	0.0166092
891.863	0.0167979
891.942	0.0168396
892.020	0.0166531
892.098	0.0168518
892.176	0.0167749
892.254	0.0167021
892.332	0.0168901
892.410	0.0168834
892.488	0.0168589
892.567	0.0167751
892.645	0.0168871
892.723	0.0168848
892.801	0.0168121
892.879	0.0168526
892.957	0.0167391
893.035	0.0167242
893.113	0.0167290
893.192	0.0168389
893.270	0.0167919
893.348	0.0167765
893.426	0.0166806
893.504	0.0167815
893.582	0.0169633
893.660	0.0168236
893.738	0.0166857
893.817	0.0167734
893.895	0.0170732
893.973	0.0170703
894.051	0.0168336
894.129	0.0168030
894.207	0.0170019
894.285	0.0168883
894.363	0.0169177
894.442	0.0169666
894.520	0.0168587
894.598	0.0168907
894.676	0.0168674
894.754	0.0168861
894.832	0.0168456
894.910	0.0169122
894.988	0.0167709
895.067	0.0167802
895.145	0.0167895
895.223	0.0167789
895.301	0.0167765
895.379	0.0166225
895.457	0.0164940
895.535	0.0167290
895.613	0.0166909
895.692	0.0165952
895.770	0.0167600
895.848	0.0166694
895.926	0.0167370
896.004	0.0167290
896.082	0.0168343
896.160	0.0166905
896.238	0.0166193
896.317	0.0166592
896.395	0.0167819
896.473	0.0168364
896.551	0.0167068
896.629	0.0167230
896.707	0.0168821
896.785	0.0169430
896.863	0.0168071
896.942	0.0167834
897.020	0.0169180
897.098	0.0168111
897.176	0.0167949
897.254	0.0168868
897.332	0.0166927
897.410	0.0166506
897.488	0.0167461
897.567	0.0167594
897.645	0.0166799
897.723	0.0167101
897.801	0.0167207
897.879	0.0166819
897.957	0.0166527
898.035	0.0165917
898.113	0.0166235
898.192	0.0166441
898.270	0.0166888
898.348	0.0165700
898.426	0.0165428
898.504	0.0166066
898.582	0.0166388
898.660	0.0166515
898.738	0.0166617
898.817	0.0166716
898.895	0.0166824
898.973	0.0167444
899.051	0.0166698
899.129	0.0168196
899.207	0.0168304
899.285	0.0169692
899.363	0.0169630
899.442	0.0169978
899.520	0.0169108
899.598	0.0169281
899.676	0.0171409
899.754	0.0171356
899.832	0.0171335
899.910	0.0171738
899.988	0.0172723
900.067	0.0172013
900.145	0.0171227
900.223	0.0170579
900.301	0.0169479
900.379	0.0169648
900.457	0.0169675
900.535	0.0169566
900.613	0.0168360
900.692	0.0169163
900.770	0.0168713
900.848	0.0168933
900.926	0.0166843
901.004	0.0167192
901.082	0.0164961
901.160	0.0166322
901.238	0.0167743
901.317	0.0165855
901.395	0.0164999
901.473	0.0165808
901.551	0.0166692
901.629	0.0166933
901.707	0.0166854
901.785	0.0166013
901.863	0.0167953
901.942	0.0167329
902.020	0.0166443
902.098	0.0168391
902.176	0.0167322
902.254	0.0168703
902.332	0.0168035
902.410	0.0166377
902.488	0.0166645
902.567	0.0168517
902.645	0.0167292
902.723	0.0167219
902.801	0.0167274
902.879	0.0167747
902.957	0.0166362
903.035	0.0168767
903.113	0.0167255
903.192	0.0166894
903.270	0.0166313
903.348	0.0166162
903.426	0.0166994
903.504	0.0166397
903.582	0.0167014
903.660	0.0167618
903.738	0.0166218
903.817	0.0168552
903.895	0.0166510
903.973	0.0167089
904.051	0.0167484
904.129	0.0166911
904.207	0.0168986
904.285	0.0167440
904.363	0.0167751
904.442	0.0167976
904.520	0.0167801
904.598	0.0166693
904.676	0.0166460
904.754	0.0166785
904.832	0.0166865
904.910	0.0168210
904.988	0.0167875
905.067	0.0167395
905.145	0.0166596
905.223	0.0166919
905.301	0.0167431
905.379	0.0167099
905.457	0.0167213
905.535	0.0166272
905.613	0.0167034
905.692	0.0166833
905.770	0.0167024
905.848	0.0166673
905.926	0.0168547
906.004	0.0167603
906.082	0.0167935
906.160	0.0167574
906.238	0.0166692
906.317	0.0168417
906.395	0.0168507
906.473	0.0168875
906.551	0.0167817
906.629	0.0167925
906.707	0.0168029
906.785	0.0169706
906.863	0.0169273
906.942	0.0168501
907.020	0.0168728
907.098	0.0168132
907.176	0.0168468
907.254	0.0169073
907.332	0.0167011
907.410	0.0169479
907.488	0.0168965
907.567	0.0167921
907.645	0.0167184
907.723	0.0167445
907.801	0.0168566
907.879	0.0167049
907.957	0.0167295
908.035	0.0168303
908.113	0.0167828
908.192	0.0167749
908.270	0.0168407
908.348	0.0168917
908.426	0.0167718
908.504	0.0169533
908.582	0.0168654
908.660	0.0168500
908.738	0.0168915
908.817	0.0168094
908.895	0.0169138
908.973	0.0167671
909.051	0.0167869
909.129	0.0167419
909.207	0.0167703
909.285	0.0167739
909.363	0.0167561
909.442	0.0166901
909.520	0.0165334
909.598	0.0167359
909.676	0.0167118
909.754	0.0165593
909.832	0.0165548
909.910	0.0166983
909.988	0.0166986
910.067	0.0167155
910.145	0.0167152
910.223	0.0165939
910.301	0.0167033
910.379	0.0166935
910.457	0.0166708
910.535	0.0166587
910.613	0.0167594
910.692	0.0168709
910.770	0.0166402
910.848	0.0166869
910.926	0.0168407
911.004	0.0167085
911.082	0.0166322
911.160	0.0169120
911.238	0.0166824
911.317	0.0167319
911.395	0.0168858
911.473	0.0167783
911.551	0.0168553
911.629	0.0168485
911.707	0.0168275
911.785	0.0168937
911.863	0.0168218
911.942	0.0168207
912.020	0.0167945
912.098	0.0168455
912.176	0.0168027
912.254	0.0167972
912.332	0.0166104
912.410	0.0168257
912.488	0.0167367
912.567	0.0166391
912.645	0.0167902
912.723	0.0167442
912.801	0.0167352
912.879	0.0167989
912.957	0.0167713
913.035	0.0168048
913.113	0.0168301
913.192	0.0167807
913.270	0.0167654
913.348	0.0167760
913.426	0.0167134
913.504	0.0168587
913.582	0.0168419
913.660	0.0168974
913.738	0.0167783
913.817	0.0166024
913.895	0.0168005
913.973	0.0168306
914.051	0.0168556
914.129	0.0168193
914.207	0.0168386
914.285	0.0168965
914.363	0.0167892
914.442	0.0166862
914.520	0.0167777
914.598	0.0167803
914.676	0.0167750
914.754	0.0167966
914.832	0.0167445
914.910	0.0167113
914.988	0.0168285
915.067	0.0168592
915.145	0.0168559
915.223	0.0167925
915.301	0.0169177
915.379	0.0169267
915.457	0.0168784
915.535	0.0168529
915.613	0.0168147
915.692	0.0169312
915.770	0.0167985
915.848	0.0168182
915.926	0.0167846
916.004	0.0168019
916.082	0.0167264
916.160	0.0168195
916.238	0.0167695
916.317	0.0167886
916.395	0.0169285
916.473	0.0167644
916.551	0.0168534
916.629	0.0168833
916.707	0.0169119
916.785	0.0169578
916.863	0.0169772
916.942	0.0169317
917.020	0.0170229
917.098	0.0170197
917.176	0.0170010
917.254	0.0169811
917.332	0.0170844
917.410	0.0168438
917.488	0.0169814
917.567	0.0168452
917.645	0.0168854
917.723	0.0170212
917.801	0.0168291
917.879	0.0167203
917.957	0.0166994
918.035	0.0165900
918.113	0.0166430
918.192	0.0165912
918.270	0.0166702
918.348	0.0167178
918.426	0.0167336
918.504	0.0166171
918.582	0.0166815
918.660	0.0166752
918.738	0.0166294
918.817	0.0166443
918.895	0.0165304
918.973	0.0165997
919.051	0.0166050
919.129	0.0166478
919.207	0.0165224
919.285	0.0164593
919.363	0.0165659
919.442	0.0166452
919.520	0.0168620
919.598	0.0166341
919.676	0.0167442
919.754	0.0168328
919.832	0.0167715
919.910	0.0167274
