05/26/2022	00:44:24	Ver.	4.1	UNKNOWN
Optical Delay	599.988409	Delta X		0.078125	Sweeps	1	Scan Rate	0/0
Coordinates	Axis 1	NaN	Axis 2	NaN	Axis 3	NaN	Axis 4	NaN	Axis 5	NaN	Axis 6	0.000000
TX Power	0.000000	RX Power	0.000000

599.988	0.0167542
600.067	0.0168878
600.145	0.0168978
600.223	0.0167409
600.301	0.0167110
600.379	0.0166473
600.457	0.0167131
600.535	0.0166022
600.613	0.0166745
600.692	0.0167638
600.770	0.0168781
600.848	0.0168043
600.926	0.0167503
601.004	0.0167377
601.082	0.0166811
601.160	0.0167419
601.238	0.0167319
601.317	0.0168886
601.395	0.0167229
601.473	0.0166589
601.551	0.0167428
601.629	0.0166635
601.707	0.0167640
601.785	0.0168516
601.863	0.0166983
601.942	0.0166538
602.020	0.0167829
602.098	0.0168308
602.176	0.0166002
602.254	0.0167408
602.332	0.0166906
602.410	0.0166824
602.488	0.0167249
602.567	0.0166800
602.645	0.0166694
602.723	0.0166170
602.801	0.0167381
602.879	0.0167747
602.957	0.0168707
603.035	0.0167067
603.113	0.0166424
603.192	0.0167638
603.270	0.0167914
603.348	0.0167425
603.426	0.0167999
603.504	0.0166756
603.582	0.0166988
603.660	0.0167445
603.738	0.0168045
603.817	0.0167239
603.895	0.0167122
603.973	0.0167658
604.051	0.0168312
604.129	0.0166998
604.207	0.0167637
604.285	0.0166882
604.363	0.0167488
604.442	0.0167049
604.520	0.0166828
604.598	0.0167574
604.676	0.0166901
604.754	0.0167561
604.832	0.0168226
604.910	0.0166700
604.988	0.0166602
605.067	0.0166714
605.145	0.0167950
605.223	0.0168092
605.301	0.0168446
605.379	0.0167371
605.457	0.0167233
605.535	0.0167302
605.613	0.0167751
605.692	0.0168140
605.770	0.0167961
605.848	0.0168077
605.926	0.0166894
606.004	0.0168200
606.082	0.0168218
606.160	0.0167948
606.238	0.0168632
606.317	0.0168063
606.395	0.0167208
606.473	0.0167245
606.551	0.0167377
606.629	0.0167512
606.707	0.0167831
606.785	0.0167852
606.863	0.0168661
606.942	0.0166653
607.020	0.0166187
607.098	0.0169487
607.176	0.0167706
607.254	0.0167832
607.332	0.0166831
607.410	0.0167095
607.488	0.0167500
607.567	0.0166882
607.645	0.0168321
607.723	0.0168339
607.801	0.0167525
607.879	0.0167578
607.957	0.0167363
608.035	0.0168105
608.113	0.0167429
608.192	0.0168150
608.270	0.0167616
608.348	0.0167538
608.426	0.0167835
608.504	0.0167904
608.582	0.0168220
608.660	0.0167656
608.738	0.0167460
608.817	0.0167537
608.895	0.0167618
608.973	0.0167768
609.051	0.0165148
609.129	0.0165836
609.207	0.0166634
609.285	0.0165485
609.363	0.0166972
609.442	0.0164043
609.520	0.0167290
609.598	0.0167242
609.676	0.0166546
609.754	0.0166600
609.832	0.0166137
609.910	0.0166453
609.988	0.0167481
610.067	0.0167666
610.145	0.0167472
610.223	0.0169143
610.301	0.0169621
610.379	0.0168803
610.457	0.0169097
610.535	0.0168461
610.613	0.0167890
610.692	0.0168705
610.770	0.0169812
610.848	0.0169244
610.926	0.0169455
611.004	0.0169123
611.082	0.0168800
611.160	0.0167738
611.238	0.0167186
611.317	0.0167893
611.395	0.0168674
611.473	0.0168254
611.551	0.0168424
611.629	0.0167709
611.707	0.0167271
611.785	0.0167707
611.863	0.0166798
611.942	0.0167210
612.020	0.0167186
612.098	0.0166477
612.176	0.0167491
612.254	0.0165822
612.332	0.0164908
612.410	0.0165225
612.488	0.0165853
612.567	0.0164957
612.645	0.0166431
612.723	0.0165326
612.801	0.0165613
612.879	0.0166190
612.957	0.0166297
613.035	0.0167536
613.113	0.0166650
613.192	0.0167395
613.270	0.0166077
613.348	0.0167800
613.426	0.0168024
613.504	0.0166759
613.582	0.0167019
613.660	0.0167345
613.738	0.0168590
613.817	0.0168233
613.895	0.0167252
613.973	0.0166794
614.051	0.0167387
614.129	0.0168052
614.207	0.0168128
614.285	0.0168880
614.363	0.0167228
614.442	0.0168606
614.520	0.0168169
614.598	0.0167740
614.676	0.0168536
614.754	0.0168722
614.832	0.0167827
614.910	0.0168600
614.988	0.0167664
615.067	0.0168480
615.145	0.0168393
615.223	0.0169642
615.301	0.0169113
615.379	0.0168708
615.457	0.0167157
615.535	0.0168678
615.613	0.0168491
615.692	0.0168640
615.770	0.0168467
615.848	0.0167969
615.926	0.0166663
616.004	0.0167921
616.082	0.0168150
616.160	0.0167672
616.238	0.0167425
616.317	0.0167091
616.395	0.0167774
616.473	0.0167516
616.551	0.0166733
616.629	0.0167696
616.707	0.0167518
616.785	0.0167747
616.863	0.0166454
616.942	0.0167401
617.020	0.0167134
617.098	0.0166979
617.176	0.0167289
617.254	0.0166090
617.332	0.0167059
617.410	0.0167243
617.488	0.0166428
617.567	0.0166595
617.645	0.0166119
617.723	0.0168031
617.801	0.0167285
617.879	0.0166132
617.957	0.0167416
618.035	0.0165430
618.113	0.0165736
618.192	0.0166484
618.270	0.0165874
618.348	0.0166854
618.426	0.0165726
618.504	0.0166167
618.582	0.0168001
618.660	0.0167635
618.738	0.0167865
618.817	0.0167191
618.895	0.0167164
618.973	0.0167363
619.051	0.0167466
619.129	0.0167358
619.207	0.0167046
619.285	0.0167880
619.363	0.0168315
619.442	0.0168789
619.520	0.0168457
619.598	0.0169170
619.676	0.0166446
619.754	0.0168156
619.832	0.0168336
619.910	0.0167183
619.988	0.0168572
620.067	0.0167947
620.145	0.0169912
620.223	0.0168703
620.301	0.0167162
620.379	0.0167553
620.457	0.0168591
620.535	0.0167210
620.613	0.0167893
620.692	0.0167754
620.770	0.0168058
620.848	0.0166677
620.926	0.0167594
621.004	0.0167697
621.082	0.0167276
621.160	0.0167884
621.238	0.0168636
621.317	0.0167857
621.395	0.0168453
621.473	0.0168699
621.551	0.0168927
621.629	0.0167546
621.707	0.0167865
621.785	0.0168895
621.863	0.0167789
621.942	0.0167686
622.020	0.0168691
622.098	0.0167599
622.176	0.0167712
622.254	0.0167019
622.332	0.0167471
622.410	0.0166644
622.488	0.0166626
622.567	0.0165501
622.645	0.0166914
622.723	0.0167948
622.801	0.0166471
622.879	0.0167547
622.957	0.0167620
623.035	0.0167086
623.113	0.0166368
623.192	0.0167523
623.270	0.0167185
623.348	0.0166659
623.426	0.0167954
623.504	0.0167760
623.582	0.0168299
623.660	0.0167413
623.738	0.0166579
623.817	0.0167848
623.895	0.0168443
623.973	0.0167410
624.051	0.0165354
624.129	0.0167274
624.207	0.0166970
624.285	0.0167685
624.363	0.0167104
624.442	0.0165388
624.520	0.0166199
624.598	0.0166241
624.676	0.0167262
624.754	0.0167065
624.832	0.0168410
624.910	0.0167073
624.988	0.0168882
625.067	0.0166552
625.145	0.0167486
625.223	0.0168216
625.301	0.0167114
625.379	0.0166833
625.457	0.0167350
625.535	0.0168172
625.613	0.0168008
625.692	0.0169042
625.770	0.0167445
625.848	0.0168016
625.926	0.0167226
626.004	0.0166134
626.082	0.0166915
626.160	0.0167361
626.238	0.0167940
626.317	0.0168379
626.395	0.0166697
626.473	0.0167360
626.551	0.0166470
626.629	0.0168130
626.707	0.0167245
626.785	0.0167350
626.863	0.0167972
626.942	0.0167185
627.020	0.0167282
627.098	0.0167598
627.176	0.0168175
627.254	0.0168138
627.332	0.0167063
627.410	0.0167397
627.488	0.0167900
627.567	0.0167938
627.645	0.0167665
627.723	0.0167628
627.801	0.0167950
627.879	0.0167500
627.957	0.0167626
628.035	0.0168681
628.113	0.0168688
628.192	0.0167182
628.270	0.0166512
628.348	0.0166494
628.426	0.0168552
628.504	0.0168687
628.582	0.0167397
628.660	0.0167496
628.738	0.0168381
628.817	0.0166869
628.895	0.0168646
628.973	0.0168815
629.051	0.0167506
629.129	0.0168308
629.207	0.0169011
629.285	0.0167989
629.363	0.0167677
629.442	0.0167942
629.520	0.0166718
629.598	0.0167756
629.676	0.0167306
629.754	0.0167031
629.832	0.0167800
629.910	0.0167608
629.988	0.0166531
630.067	0.0166884
630.145	0.0167541
630.223	0.0168037
630.301	0.0167384
630.379	0.0168279
630.457	0.0167238
630.535	0.0167657
630.613	0.0167278
630.692	0.0167076
630.770	0.0166844
630.848	0.0167196
630.926	0.0168169
631.004	0.0168397
631.082	0.0166492
631.160	0.0167857
631.238	0.0168826
631.317	0.0166853
631.395	0.0166763
631.473	0.0168084
631.551	0.0166113
631.629	0.0167569
631.707	0.0168021
631.785	0.0167567
631.863	0.0167353
631.942	0.0166949
632.020	0.0166488
632.098	0.0167193
632.176	0.0167671
632.254	0.0166575
632.332	0.0168034
632.410	0.0167493
632.488	0.0166123
632.567	0.0166946
632.645	0.0168594
632.723	0.0167217
632.801	0.0167185
632.879	0.0168321
632.957	0.0166099
633.035	0.0167111
633.113	0.0167906
633.192	0.0166467
633.270	0.0167402
633.348	0.0166730
633.426	0.0168236
633.504	0.0168197
633.582	0.0166620
633.660	0.0168346
633.738	0.0167658
633.817	0.0167097
633.895	0.0167951
633.973	0.0167022
634.051	0.0167294
634.129	0.0168726
634.207	0.0168159
634.285	0.0167963
634.363	0.0169508
634.442	0.0169012
634.520	0.0169323
634.598	0.0167727
634.676	0.0166406
634.754	0.0168072
634.832	0.0167297
634.910	0.0167822
634.988	0.0168661
635.067	0.0167632
635.145	0.0167620
635.223	0.0167588
635.301	0.0167408
635.379	0.0167487
635.457	0.0167356
635.535	0.0169381
635.613	0.0168924
635.692	0.0168707
635.770	0.0167284
635.848	0.0167567
635.926	0.0168553
636.004	0.0166903
636.082	0.0167312
636.160	0.0167250
636.238	0.0167382
636.317	0.0168089
636.395	0.0167947
636.473	0.0167854
636.551	0.0167455
636.629	0.0167229
636.707	0.0167548
636.785	0.0166903
636.863	0.0167533
636.942	0.0169014
637.020	0.0168658
637.098	0.0166573
637.176	0.0167607
637.254	0.0168236
637.332	0.0167288
637.410	0.0167206
637.488	0.0168297
637.567	0.0168080
637.645	0.0167722
637.723	0.0168054
637.801	0.0167145
637.879	0.0167167
637.957	0.0168313
638.035	0.0168408
638.113	0.0168134
638.192	0.0167476
638.270	0.0167226
638.348	0.0166695
638.426	0.0167746
638.504	0.0168102
638.582	0.0167182
638.660	0.0167416
638.738	0.0168658
638.817	0.0168775
638.895	0.0166859
638.973	0.0167511
639.051	0.0166785
639.129	0.0166247
639.207	0.0167229
639.285	0.0167554
639.363	0.0167889
639.442	0.0167053
639.520	0.0167200
639.598	0.0166863
639.676	0.0167652
639.754	0.0167467
639.832	0.0167371
639.910	0.0167216
639.988	0.0166951
640.067	0.0168233
640.145	0.0167892
640.223	0.0167690
640.301	0.0166673
640.379	0.0167380
640.457	0.0167146
640.535	0.0166606
640.613	0.0168203
640.692	0.0167771
640.770	0.0167554
640.848	0.0167603
640.926	0.0167559
641.004	0.0168803
641.082	0.0167581
641.160	0.0167158
641.238	0.0167687
641.317	0.0167670
641.395	0.0167583
641.473	0.0167508
641.551	0.0166804
641.629	0.0167999
641.707	0.0168044
641.785	0.0169274
641.863	0.0168872
641.942	0.0168736
642.020	0.0167877
642.098	0.0167434
642.176	0.0167882
642.254	0.0167038
642.332	0.0167197
642.410	0.0167323
642.488	0.0167980
642.567	0.0167428
642.645	0.0167318
642.723	0.0168324
642.801	0.0168310
642.879	0.0168057
642.957	0.0167837
643.035	0.0167457
643.113	0.0168418
643.192	0.0168198
643.270	0.0167325
643.348	0.0166255
643.426	0.0167503
643.504	0.0166135
643.582	0.0168797
643.660	0.0169239
643.738	0.0167628
643.817	0.0168880
643.895	0.0168278
643.973	0.0168559
644.051	0.0168929
644.129	0.0166852
644.207	0.0167301
644.285	0.0167214
644.363	0.0169072
644.442	0.0166898
644.520	0.0167871
644.598	0.0167501
644.676	0.0167007
644.754	0.0166243
644.832	0.0168168
644.910	0.0167866
644.988	0.0166352
645.067	0.0168506
645.145	0.0168678
645.223	0.0166810
645.301	0.0167867
645.379	0.0167214
645.457	0.0166794
645.535	0.0167086
645.613	0.0168273
645.692	0.0167699
645.770	0.0167551
645.848	0.0168604
645.926	0.0168195
646.004	0.0167272
646.082	0.0166674
646.160	0.0167443
646.238	0.0168024
646.317	0.0168109
646.395	0.0167537
646.473	0.0167040
646.551	0.0166485
646.629	0.0167680
646.707	0.0167873
646.785	0.0166868
646.863	0.0166910
646.942	0.0167295
647.020	0.0166977
647.098	0.0168125
647.176	0.0167506
647.254	0.0166737
647.332	0.0166615
647.410	0.0165988
647.488	0.0167912
647.567	0.0166660
647.645	0.0165945
647.723	0.0168058
647.801	0.0168469
647.879	0.0167274
647.957	0.0165971
648.035	0.0166333
648.113	0.0168454
648.192	0.0168709
648.270	0.0166850
648.348	0.0167055
648.426	0.0166398
648.504	0.0167738
648.582	0.0167145
648.660	0.0166778
648.738	0.0167641
648.817	0.0168384
648.895	0.0167476
648.973	0.0167267
649.051	0.0167078
649.129	0.0166238
649.207	0.0168367
649.285	0.0166538
649.363	0.0166565
649.442	0.0167445
649.520	0.0167595
649.598	0.0167410
649.676	0.0167587
649.754	0.0166886
649.832	0.0167367
649.910	0.0168152
649.988	0.0166927
650.067	0.0168247
650.145	0.0167404
650.223	0.0166344
650.301	0.0166827
650.379	0.0166840
650.457	0.0167226
650.535	0.0168411
650.613	0.0168216
650.692	0.0167643
650.770	0.0167722
650.848	0.0168375
650.926	0.0167544
651.004	0.0167300
651.082	0.0167792
651.160	0.0167719
651.238	0.0167791
651.317	0.0167683
651.395	0.0168785
651.473	0.0167686
651.551	0.0167728
651.629	0.0167821
651.707	0.0167438
651.785	0.0168463
651.863	0.0167077
651.942	0.0168729
652.020	0.0168533
652.098	0.0168584
652.176	0.0168512
652.254	0.0167725
652.332	0.0165970
652.410	0.0168512
652.488	0.0169096
652.567	0.0167511
652.645	0.0167127
652.723	0.0168268
652.801	0.0169395
652.879	0.0167429
652.957	0.0167406
653.035	0.0167558
653.113	0.0167091
653.192	0.0167194
653.270	0.0166882
653.348	0.0167879
653.426	0.0167175
653.504	0.0167851
653.582	0.0166640
653.660	0.0168206
653.738	0.0167184
653.817	0.0168184
653.895	0.0167186
653.973	0.0168227
654.051	0.0166793
654.129	0.0166308
654.207	0.0167782
654.285	0.0168497
654.363	0.0166021
654.442	0.0166476
654.520	0.0170241
654.598	0.0166885
654.676	0.0168507
654.754	0.0168855
654.832	0.0166492
654.910	0.0168156
654.988	0.0167258
655.067	0.0166821
655.145	0.0167451
655.223	0.0166883
655.301	0.0167262
655.379	0.0167818
655.457	0.0168354
655.535	0.0167534
655.613	0.0167504
655.692	0.0168320
655.770	0.0167600
655.848	0.0167828
655.926	0.0167320
656.004	0.0167218
656.082	0.0167142
656.160	0.0167291
656.238	0.0167490
656.317	0.0167721
656.395	0.0167831
656.473	0.0167560
656.551	0.0167295
656.629	0.0166324
656.707	0.0167952
656.785	0.0166618
656.863	0.0167281
656.942	0.0167224
657.020	0.0166953
657.098	0.0165993
657.176	0.0167310
657.254	0.0166890
657.332	0.0167431
657.410	0.0167655
657.488	0.0167239
657.567	0.0165792
657.645	0.0166609
657.723	0.0167378
657.801	0.0167245
657.879	0.0167701
657.957	0.0167268
658.035	0.0166978
658.113	0.0166769
658.192	0.0167118
658.270	0.0167453
658.348	0.0167549
658.426	0.0167345
658.504	0.0167409
658.582	0.0169290
658.660	0.0166489
658.738	0.0167113
658.817	0.0168295
658.895	0.0168769
658.973	0.0167261
659.051	0.0167078
659.129	0.0166686
659.207	0.0167580
659.285	0.0168964
659.363	0.0169509
659.442	0.0168134
659.520	0.0167706
659.598	0.0168177
659.676	0.0167805
659.754	0.0167802
659.832	0.0168935
659.910	0.0167927
659.988	0.0167267
660.067	0.0167451
660.145	0.0167738
660.223	0.0167371
660.301	0.0168720
660.379	0.0168740
660.457	0.0167682
660.535	0.0167606
660.613	0.0167677
660.692	0.0167186
660.770	0.0167795
660.848	0.0166843
660.926	0.0167175
661.004	0.0167390
661.082	0.0168991
661.160	0.0166439
661.238	0.0167404
661.317	0.0167968
661.395	0.0166254
661.473	0.0167754
661.551	0.0168486
661.629	0.0166920
661.707	0.0166913
661.785	0.0166238
661.863	0.0168318
661.942	0.0167484
662.020	0.0167549
662.098	0.0166363
662.176	0.0167040
662.254	0.0167735
662.332	0.0168674
662.410	0.0166432
662.488	0.0166525
662.567	0.0166981
662.645	0.0167612
662.723	0.0166447
662.801	0.0166249
662.879	0.0165009
662.957	0.0166651
663.035	0.0167290
663.113	0.0166405
663.192	0.0166734
663.270	0.0167223
663.348	0.0168018
663.426	0.0167118
663.504	0.0167916
663.582	0.0167387
663.660	0.0167612
663.738	0.0166744
663.817	0.0166316
663.895	0.0167312
663.973	0.0168259
664.051	0.0168691
664.129	0.0167612
664.207	0.0166512
664.285	0.0167960
664.363	0.0167540
664.442	0.0168701
664.520	0.0167716
664.598	0.0167142
664.676	0.0167841
664.754	0.0168279
664.832	0.0168176
664.910	0.0167625
664.988	0.0167590
665.067	0.0166943
665.145	0.0167920
665.223	0.0167029
665.301	0.0167605
665.379	0.0166534
665.457	0.0168139
665.535	0.0168503
665.613	0.0168062
665.692	0.0168472
665.770	0.0167544
665.848	0.0166531
665.926	0.0167703
666.004	0.0168535
666.082	0.0168253
666.160	0.0167372
666.238	0.0169048
666.317	0.0167136
666.395	0.0168622
666.473	0.0168130
666.551	0.0168177
666.629	0.0167879
666.707	0.0169462
666.785	0.0168524
666.863	0.0168062
666.942	0.0167255
667.020	0.0168263
667.098	0.0168844
667.176	0.0168105
667.254	0.0166857
667.332	0.0167997
667.410	0.0167573
667.488	0.0168836
667.567	0.0168782
667.645	0.0167664
667.723	0.0167767
667.801	0.0167217
667.879	0.0167210
667.957	0.0166669
668.035	0.0167344
668.113	0.0167960
668.192	0.0168018
668.270	0.0167510
668.348	0.0166413
668.426	0.0167046
668.504	0.0168387
668.582	0.0167525
668.660	0.0167809
668.738	0.0167517
668.817	0.0166529
668.895	0.0168314
668.973	0.0167650
669.051	0.0167567
669.129	0.0168472
669.207	0.0166969
669.285	0.0167410
669.363	0.0168355
669.442	0.0166893
669.520	0.0167313
669.598	0.0166319
669.676	0.0167579
669.754	0.0167233
669.832	0.0168056
669.910	0.0168588
669.988	0.0168219
670.067	0.0167246
670.145	0.0167216
670.223	0.0167775
670.301	0.0169128
670.379	0.0167180
670.457	0.0168864
670.535	0.0168453
670.613	0.0168419
670.692	0.0167177
670.770	0.0166306
670.848	0.0167220
670.926	0.0167330
671.004	0.0167583
671.082	0.0167694
671.160	0.0168085
671.238	0.0167198
671.317	0.0167754
671.395	0.0167786
671.473	0.0167439
671.551	0.0167078
671.629	0.0169243
671.707	0.0168647
671.785	0.0167893
671.863	0.0168044
671.942	0.0168214
672.020	0.0167834
672.098	0.0166634
672.176	0.0166209
672.254	0.0168893
672.332	0.0167883
672.410	0.0167642
672.488	0.0167453
672.567	0.0166052
672.645	0.0167709
672.723	0.0167579
672.801	0.0166882
672.879	0.0168188
672.957	0.0167568
673.035	0.0168037
673.113	0.0166463
673.192	0.0167348
673.270	0.0167592
673.348	0.0166275
673.426	0.0168118
673.504	0.0168045
673.582	0.0167974
673.660	0.0168134
673.738	0.0168921
673.817	0.0168763
673.895	0.0168009
673.973	0.0167243
674.051	0.0167537
674.129	0.0166925
674.207	0.0167912
674.285	0.0167318
674.363	0.0167522
674.442	0.0168876
674.520	0.0167322
674.598	0.0168671
674.676	0.0166843
674.754	0.0167400
674.832	0.0167655
674.910	0.0167074
674.988	0.0168098
675.067	0.0167992
675.145	0.0167723
675.223	0.0168300
675.301	0.0166161
675.379	0.0167661
675.457	0.0167283
675.535	0.0166909
675.613	0.0167049
675.692	0.0166339
675.770	0.0168485
675.848	0.0167487
675.926	0.0167711
676.004	0.0167932
676.082	0.0167345
676.160	0.0167052
676.238	0.0167101
676.317	0.0168190
676.395	0.0167818
676.473	0.0166392
676.551	0.0166805
676.629	0.0167230
676.707	0.0165661
676.785	0.0166399
676.863	0.0167134
676.942	0.0166106
677.020	0.0165562
677.098	0.0166968
677.176	0.0166129
677.254	0.0167236
677.332	0.0165841
677.410	0.0165844
677.488	0.0167220
677.567	0.0167344
677.645	0.0166494
677.723	0.0165387
677.801	0.0166891
677.879	0.0168604
677.957	0.0166985
678.035	0.0168053
678.113	0.0167252
678.192	0.0166226
678.270	0.0167698
678.348	0.0168231
678.426	0.0167812
678.504	0.0168700
678.582	0.0167163
678.660	0.0167931
678.738	0.0168793
678.817	0.0168993
678.895	0.0167767
678.973	0.0168530
679.051	0.0167429
679.129	0.0168134
679.207	0.0166613
679.285	0.0166499
679.363	0.0166926
679.442	0.0165897
679.520	0.0166628
679.598	0.0166988
679.676	0.0166252
679.754	0.0167152
679.832	0.0165945
679.910	0.0166548
679.988	0.0166549
680.067	0.0166319
680.145	0.0166598
680.223	0.0164320
680.301	0.0165380
680.379	0.0166314
680.457	0.0165905
680.535	0.0166394
680.613	0.0166483
680.692	0.0167281
680.770	0.0168593
680.848	0.0166229
680.926	0.0168269
681.004	0.0168100
681.082	0.0167474
681.160	0.0166952
681.238	0.0167604
681.317	0.0168079
681.395	0.0167715
681.473	0.0168192
681.551	0.0168190
681.629	0.0167874
681.707	0.0166969
681.785	0.0168495
681.863	0.0169321
681.942	0.0168684
682.020	0.0168014
682.098	0.0168629
682.176	0.0168604
682.254	0.0168559
682.332	0.0167413
682.410	0.0168579
682.488	0.0167081
682.567	0.0167467
682.645	0.0167170
682.723	0.0167751
682.801	0.0166502
682.879	0.0165842
682.957	0.0167376
683.035	0.0166731
683.113	0.0166058
683.192	0.0167590
683.270	0.0166379
683.348	0.0165718
683.426	0.0166253
683.504	0.0166898
683.582	0.0166821
683.660	0.0167931
683.738	0.0167039
683.817	0.0166286
683.895	0.0166225
683.973	0.0167094
684.051	0.0167097
684.129	0.0167404
684.207	0.0167630
684.285	0.0167820
684.363	0.0167768
684.442	0.0167254
684.520	0.0169588
684.598	0.0168558
684.676	0.0168611
684.754	0.0169215
684.832	0.0170106
684.910	0.0169954
684.988	0.0167815
685.067	0.0168979
685.145	0.0169053
685.223	0.0167673
685.301	0.0168750
685.379	0.0168091
685.457	0.0168888
685.535	0.0168129
685.613	0.0166431
685.692	0.0167416
685.770	0.0168342
685.848	0.0166666
685.926	0.0167140
686.004	0.0166766
686.082	0.0168188
686.160	0.0168082
686.238	0.0166611
686.317	0.0165867
686.395	0.0163943
686.473	0.0161666
686.551	0.0163934
686.629	0.0162001
686.707	0.0159710
686.785	0.0157298
686.863	0.0154093
686.942	0.0151409
687.020	0.0153341
687.098	0.0156473
687.176	0.0162848
687.254	0.0175813
687.332	0.0193803
687.410	0.0216702
687.488	0.0236342
687.567	0.0258301
687.645	0.0279485
687.723	0.0288675
687.801	0.0290627
687.879	0.0280553
687.957	0.0260831
688.035	0.0229723
688.113	0.0190879
688.192	0.0145029
688.270	0.00952568
688.348	0.00459427
688.426	-0.0000194550
688.504	-0.00421585
688.582	-0.00736626
688.660	-0.00977684
688.738	-0.0109602
688.817	-0.0111237
688.895	-0.00979080
688.973	-0.00755814
689.051	-0.00460197
689.129	-0.000562363
689.207	0.00389229
689.285	0.00904564
689.363	0.0140925
689.442	0.0194151
689.520	0.0244719
689.598	0.0296151
689.676	0.0343954
689.754	0.0391267
689.832	0.0434380
689.910	0.0470661
689.988	0.0505254
690.067	0.0531078
690.145	0.0548964
690.223	0.0557328
690.301	0.0556062
690.379	0.0545486
690.457	0.0524884
690.535	0.0494853
690.613	0.0455128
690.692	0.0407706
690.770	0.0354384
690.848	0.0298083
690.926	0.0239132
691.004	0.0175941
691.082	0.0114632
691.160	0.00556282
691.238	-0.000336761
691.317	-0.00556175
691.395	-0.0104710
691.473	-0.0144965
691.551	-0.0181049
691.629	-0.0209143
691.707	-0.0227543
691.785	-0.0236166
691.863	-0.0238840
691.942	-0.0230342
692.020	-0.0214655
692.098	-0.0190121
692.176	-0.0161687
692.254	-0.0128724
692.332	-0.00918167
692.410	-0.00516747
692.488	-0.00102501
692.567	0.00304245
692.645	0.00718018
692.723	0.0111733
692.801	0.0148454
692.879	0.0181413
692.957	0.0210659
693.035	0.0236637
693.113	0.0259280
693.192	0.0278577
693.270	0.0296734
693.348	0.0307707
693.426	0.0320485
693.504	0.0331285
693.582	0.0342798
693.660	0.0352012
693.738	0.0361658
693.817	0.0369375
693.895	0.0376407
693.973	0.0384459
694.051	0.0391574
694.129	0.0395644
694.207	0.0397128
694.285	0.0397446
694.363	0.0394144
694.442	0.0387739
694.520	0.0380238
694.598	0.0369535
694.676	0.0357427
694.754	0.0342425
694.832	0.0326180
694.910	0.0308268
694.988	0.0288821
695.067	0.0268890
695.145	0.0247870
695.223	0.0227093
695.301	0.0207832
695.379	0.0188378
695.457	0.0168252
695.535	0.0151381
695.613	0.0133688
695.692	0.0115533
695.770	0.00992775
695.848	0.00853439
695.926	0.00715424
696.004	0.00596466
696.082	0.00494530
696.160	0.00405716
696.238	0.00326027
696.317	0.00258598
696.395	0.00207153
696.473	0.00148979
696.551	0.00102913
696.629	0.000692291
696.707	0.000559158
696.785	0.000310211
696.863	0.000143051
696.942	0.000115814
697.020	0.000142288
697.098	0.000366211
697.176	0.000758667
697.254	0.00124573
697.332	0.00189964
697.410	0.00253532
697.488	0.00360649
697.567	0.00467697
697.645	0.00599075
697.723	0.00731865
697.801	0.00860863
697.879	0.0102729
697.957	0.0118244
698.035	0.0133386
698.113	0.0149811
698.192	0.0164572
698.270	0.0177740
698.348	0.0190689
698.426	0.0200507
698.504	0.0211597
698.582	0.0220076
698.660	0.0227349
698.738	0.0232689
698.817	0.0238078
698.895	0.0240639
698.973	0.0243088
699.051	0.0244145
699.129	0.0244085
699.207	0.0243775
699.285	0.0243665
699.363	0.0242123
699.442	0.0239735
699.520	0.0237039
699.598	0.0233660
699.676	0.0231579
699.754	0.0231584
699.832	0.0232281
699.910	0.0233024
699.988	0.0236421
700.067	0.0238600
700.145	0.0242936
700.223	0.0248408
700.301	0.0254118
700.379	0.0259438
700.457	0.0263992
700.535	0.0269313
700.613	0.0273553
700.692	0.0274617
700.770	0.0275684
700.848	0.0275183
700.926	0.0272182
701.004	0.0265448
701.082	0.0257373
701.160	0.0248109
701.238	0.0235771
701.317	0.0222654
701.395	0.0210647
701.473	0.0195978
701.551	0.0183752
701.629	0.0173957
701.707	0.0160378
701.785	0.0148595
701.863	0.0138727
701.942	0.0127554
702.020	0.0118944
702.098	0.0110943
702.176	0.0104954
702.254	0.0100648
702.332	0.00950348
702.410	0.00939247
702.488	0.00938225
702.567	0.00943031
702.645	0.00968857
702.723	0.0100896
702.801	0.0102764
702.879	0.0108373
702.957	0.0111245
703.035	0.0113418
703.113	0.0116901
703.192	0.0118674
703.270	0.0119556
703.348	0.0118687
703.426	0.0119138
703.504	0.0118298
703.582	0.0114709
703.660	0.0111728
703.738	0.0107339
703.817	0.0102543
703.895	0.00993118
703.973	0.00938751
704.051	0.00917168
704.129	0.00908546
704.207	0.00908279
704.285	0.00905289
704.363	0.00935799
704.442	0.00991257
704.520	0.0106982
704.598	0.0110923
704.676	0.0117149
704.754	0.0126007
704.832	0.0133244
704.910	0.0141115
704.988	0.0148509
705.067	0.0156208
705.145	0.0164618
705.223	0.0173829
705.301	0.0179137
705.379	0.0186060
705.457	0.0191210
705.535	0.0197844
705.613	0.0200211
705.692	0.0203596
705.770	0.0204247
705.848	0.0205981
705.926	0.0208714
706.004	0.0208929
706.082	0.0211403
706.160	0.0211378
706.238	0.0208853
706.317	0.0208994
706.395	0.0210461
706.473	0.0208639
706.551	0.0207195
706.629	0.0208131
706.707	0.0208192
706.785	0.0206857
706.863	0.0207589
706.942	0.0208772
707.020	0.0208464
707.098	0.0212163
707.176	0.0213632
707.254	0.0214761
707.332	0.0215026
707.410	0.0217010
707.488	0.0219834
707.567	0.0221096
707.645	0.0221957
707.723	0.0223952
707.801	0.0224935
707.879	0.0226060
707.957	0.0225986
708.035	0.0224879
708.113	0.0223257
708.192	0.0220642
708.270	0.0216865
708.348	0.0211755
708.426	0.0206210
708.504	0.0200826
708.582	0.0192684
708.660	0.0187449
708.738	0.0182946
708.817	0.0174640
708.895	0.0168717
708.973	0.0163678
709.051	0.0158831
709.129	0.0153165
709.207	0.0148288
709.285	0.0144904
709.363	0.0141527
709.442	0.0139274
709.520	0.0137913
709.598	0.0135645
709.676	0.0134855
709.754	0.0136476
709.832	0.0135316
709.910	0.0134529
709.988	0.0133273
710.067	0.0134206
710.145	0.0135226
710.223	0.0134471
710.301	0.0133621
710.379	0.0134601
710.457	0.0135820
710.535	0.0138058
710.613	0.0137517
710.692	0.0136711
710.770	0.0136183
710.848	0.0136951
710.926	0.0135796
711.004	0.0134607
711.082	0.0132764
711.160	0.0132109
711.238	0.0129203
711.317	0.0129147
711.395	0.0127042
711.473	0.0126480
711.551	0.0124398
711.629	0.0122730
711.707	0.0124464
711.785	0.0123193
711.863	0.0122435
711.942	0.0123405
712.020	0.0127571
712.098	0.0128140
712.176	0.0130399
712.254	0.0134250
712.332	0.0139324
712.410	0.0142822
712.488	0.0146560
712.567	0.0150444
712.645	0.0156248
712.723	0.0160701
712.801	0.0163503
712.879	0.0168752
712.957	0.0172572
713.035	0.0175838
713.113	0.0180518
713.192	0.0183886
713.270	0.0187259
713.348	0.0190801
713.426	0.0191965
713.504	0.0194476
713.582	0.0196755
713.660	0.0198175
713.738	0.0199464
713.817	0.0198334
713.895	0.0198915
713.973	0.0198007
714.051	0.0195851
714.129	0.0194720
714.207	0.0191950
714.285	0.0191256
714.363	0.0190346
714.442	0.0188820
714.520	0.0189485
714.598	0.0188517
714.676	0.0190371
714.754	0.0192391
714.832	0.0193166
714.910	0.0195207
714.988	0.0197077
715.067	0.0200712
715.145	0.0204058
715.223	0.0206989
715.301	0.0208074
715.379	0.0210206
715.457	0.0210568
715.535	0.0212035
715.613	0.0210820
715.692	0.0210058
715.770	0.0207214
715.848	0.0204032
715.926	0.0200320
716.004	0.0196205
716.082	0.0191105
716.160	0.0188612
716.238	0.0185022
716.317	0.0181236
716.395	0.0175629
716.473	0.0174255
716.551	0.0170998
716.629	0.0167708
716.707	0.0167042
716.785	0.0164109
716.863	0.0161878
716.942	0.0160034
717.020	0.0159085
717.098	0.0159432
717.176	0.0158020
717.254	0.0157879
717.332	0.0158285
717.410	0.0157224
717.488	0.0155507
717.567	0.0155733
717.645	0.0155694
717.723	0.0154309
717.801	0.0155649
717.879	0.0153519
717.957	0.0153521
718.035	0.0152849
718.113	0.0154388
718.192	0.0152341
718.270	0.0150281
718.348	0.0150525
718.426	0.0149265
718.504	0.0147381
718.582	0.0147027
718.660	0.0144544
718.738	0.0142103
718.817	0.0140726
718.895	0.0137050
718.973	0.0136161
719.051	0.0133578
719.129	0.0132820
719.207	0.0129662
719.285	0.0125832
719.363	0.0125343
719.442	0.0124505
719.520	0.0124468
719.598	0.0124150
719.676	0.0124125
719.754	0.0126215
719.832	0.0129078
719.910	0.0132363
719.988	0.0135670
720.067	0.0137180
720.145	0.0142262
720.223	0.0145891
720.301	0.0149495
720.379	0.0154209
720.457	0.0157767
720.535	0.0161690
720.613	0.0164861
720.692	0.0167076
720.770	0.0170399
720.848	0.0175247
720.926	0.0176408
721.004	0.0178816
721.082	0.0178479
721.160	0.0179459
721.238	0.0180073
721.317	0.0180092
721.395	0.0180254
721.473	0.0180768
721.551	0.0181791
721.629	0.0180515
721.707	0.0181947
721.785	0.0181435
721.863	0.0180322
721.942	0.0182417
722.020	0.0181999
722.098	0.0182528
722.176	0.0184615
722.254	0.0185761
722.332	0.0185477
722.410	0.0188338
722.488	0.0191991
722.567	0.0194031
722.645	0.0196657
722.723	0.0200362
722.801	0.0202399
722.879	0.0203953
722.957	0.0206407
723.035	0.0210073
723.113	0.0211299
723.192	0.0210435
723.270	0.0209764
723.348	0.0207974
723.426	0.0207549
723.504	0.0204597
723.582	0.0200569
723.660	0.0197811
723.738	0.0195212
723.817	0.0191245
723.895	0.0187455
723.973	0.0183971
724.051	0.0180619
724.129	0.0177806
724.207	0.0174919
724.285	0.0173095
724.363	0.0171454
724.442	0.0169667
724.520	0.0168312
724.598	0.0166845
724.676	0.0166061
724.754	0.0164050
724.832	0.0162745
724.910	0.0161852
724.988	0.0159630
725.067	0.0159930
725.145	0.0159138
725.223	0.0156394
725.301	0.0158199
725.379	0.0158595
725.457	0.0158736
725.535	0.0158707
725.613	0.0158416
725.692	0.0157079
725.770	0.0157724
725.848	0.0158112
725.926	0.0158191
726.004	0.0157857
726.082	0.0157950
726.160	0.0156252
726.238	0.0156625
726.317	0.0154308
726.395	0.0153502
726.473	0.0150610
726.551	0.0147821
726.629	0.0145508
726.707	0.0142639
726.785	0.0141476
726.863	0.0139256
726.942	0.0136512
727.020	0.0133935
727.098	0.0132833
727.176	0.0130868
727.254	0.0130019
727.332	0.0128721
727.410	0.0128590
727.488	0.0128823
727.567	0.0129539
727.645	0.0129891
727.723	0.0132563
727.801	0.0135934
727.879	0.0138668
727.957	0.0141152
728.035	0.0145880
728.113	0.0148145
728.192	0.0151125
728.270	0.0155437
728.348	0.0158109
728.426	0.0162777
728.504	0.0163662
728.582	0.0165555
728.660	0.0169818
728.738	0.0170538
728.817	0.0172191
728.895	0.0173064
728.973	0.0175529
729.051	0.0175819
729.129	0.0177901
729.207	0.0178840
729.285	0.0181837
729.363	0.0182003
729.442	0.0182556
729.520	0.0183759
729.598	0.0185549
729.676	0.0185339
729.754	0.0188748
729.832	0.0187329
729.910	0.0187482
729.988	0.0188285
730.067	0.0186929
730.145	0.0186810
730.223	0.0187683
730.301	0.0187101
730.379	0.0186660
730.457	0.0187420
730.535	0.0187977
730.613	0.0190553
730.692	0.0191916
730.770	0.0193082
730.848	0.0193988
730.926	0.0195655
731.004	0.0198723
731.082	0.0200431
731.160	0.0199763
731.238	0.0201053
731.317	0.0201772
731.395	0.0199207
731.473	0.0200329
731.551	0.0198358
731.629	0.0196187
731.707	0.0193246
731.785	0.0190716
731.863	0.0187402
731.942	0.0184650
732.020	0.0182069
732.098	0.0177246
732.176	0.0172859
732.254	0.0171451
732.332	0.0167351
732.410	0.0163578
732.488	0.0162503
732.567	0.0160645
732.645	0.0157264
732.723	0.0157420
732.801	0.0155844
732.879	0.0155319
732.957	0.0153561
733.035	0.0153876
733.113	0.0151977
733.192	0.0153780
733.270	0.0152449
733.348	0.0153978
733.426	0.0154530
733.504	0.0154756
733.582	0.0153963
733.660	0.0155111
733.738	0.0156591
733.817	0.0156295
733.895	0.0155544
733.973	0.0155621
734.051	0.0154639
734.129	0.0152499
734.207	0.0152974
734.285	0.0153461
734.363	0.0152765
734.442	0.0151975
734.520	0.0151788
734.598	0.0150584
734.676	0.0149179
734.754	0.0147574
734.832	0.0147855
734.910	0.0146788
734.988	0.0145062
735.067	0.0145348
735.145	0.0145367
735.223	0.0143789
735.301	0.0143938
735.379	0.0144506
735.457	0.0143459
735.535	0.0145712
735.613	0.0146971
735.692	0.0148425
735.770	0.0149033
735.848	0.0150879
735.926	0.0152959
736.004	0.0155493
736.082	0.0157178
736.160	0.0158680
736.238	0.0162233
736.317	0.0163680
736.395	0.0166017
736.473	0.0169276
736.551	0.0171972
736.629	0.0172076
736.707	0.0174039
736.785	0.0176225
736.863	0.0176712
736.942	0.0177792
737.020	0.0178728
737.098	0.0179583
737.176	0.0181059
737.254	0.0181602
737.332	0.0179050
737.410	0.0181477
737.488	0.0181026
737.567	0.0181042
737.645	0.0178750
737.723	0.0178259
737.801	0.0178600
737.879	0.0177261
737.957	0.0177480
738.035	0.0175846
738.113	0.0175957
738.192	0.0177710
738.270	0.0177397
738.348	0.0177609
738.426	0.0179593
738.504	0.0180413
738.582	0.0183148
738.660	0.0185174
738.738	0.0185113
738.817	0.0188993
738.895	0.0191045
738.973	0.0193111
739.051	0.0192856
739.129	0.0193930
739.207	0.0196352
739.285	0.0197047
739.363	0.0195719
739.442	0.0194460
739.520	0.0191511
739.598	0.0191746
739.676	0.0190106
739.754	0.0186106
739.832	0.0184859
739.910	0.0182468
739.988	0.0178616
740.067	0.0176439
740.145	0.0173507
740.223	0.0171365
740.301	0.0166206
740.379	0.0163026
740.457	0.0161509
740.535	0.0159607
740.613	0.0155923
740.692	0.0153030
740.770	0.0151737
740.848	0.0150741
740.926	0.0149059
741.004	0.0148679
741.082	0.0148089
741.160	0.0147909
741.238	0.0147121
741.317	0.0145757
741.395	0.0147028
741.473	0.0147792
741.551	0.0148935
741.629	0.0149625
741.707	0.0150527
741.785	0.0151916
741.863	0.0153895
741.942	0.0155133
742.020	0.0156097
742.098	0.0158489
742.176	0.0157867
742.254	0.0160092
742.332	0.0160834
742.410	0.0161379
742.488	0.0161906
742.567	0.0161833
742.645	0.0161406
742.723	0.0162711
742.801	0.0162262
742.879	0.0161909
742.957	0.0160973
743.035	0.0159803
743.113	0.0158532
743.192	0.0158376
743.270	0.0157114
743.348	0.0155494
743.426	0.0156688
743.504	0.0156902
743.582	0.0157890
743.660	0.0159331
743.738	0.0157935
743.817	0.0159895
743.895	0.0160841
743.973	0.0161648
744.051	0.0163925
744.129	0.0165389
744.207	0.0166283
744.285	0.0166659
744.363	0.0167912
744.442	0.0167729
744.520	0.0168279
744.598	0.0168069
744.676	0.0168668
744.754	0.0169843
744.832	0.0169871
744.910	0.0168608
744.988	0.0168527
745.067	0.0169887
745.145	0.0169347
745.223	0.0169492
745.301	0.0169962
745.379	0.0170858
745.457	0.0172643
745.535	0.0173889
745.613	0.0172948
745.692	0.0172354
745.770	0.0174509
745.848	0.0174963
745.926	0.0174991
746.004	0.0175928
746.082	0.0176655
746.160	0.0176282
746.238	0.0178037
746.317	0.0178079
746.395	0.0180023
746.473	0.0179932
746.551	0.0179990
746.629	0.0179537
746.707	0.0180355
746.785	0.0181983
746.863	0.0180125
746.942	0.0180553
747.020	0.0182506
747.098	0.0183115
747.176	0.0182162
747.254	0.0182614
747.332	0.0182250
747.410	0.0182410
747.488	0.0181814
747.567	0.0179205
747.645	0.0179017
747.723	0.0175949
747.801	0.0175924
747.879	0.0174805
747.957	0.0173151
748.035	0.0171415
748.113	0.0169509
748.192	0.0167806
748.270	0.0166390
748.348	0.0165320
748.426	0.0163327
748.504	0.0160899
748.582	0.0159729
748.660	0.0160178
748.738	0.0158002
748.817	0.0158887
748.895	0.0159319
748.973	0.0157399
749.051	0.0157930
749.129	0.0157268
749.207	0.0158418
749.285	0.0159293
749.363	0.0158884
749.442	0.0161197
749.520	0.0162143
749.598	0.0162043
749.676	0.0163061
749.754	0.0162587
749.832	0.0163605
749.910	0.0164777
749.988	0.0164149
750.067	0.0164099
750.145	0.0163673
750.223	0.0164758
750.301	0.0164115
750.379	0.0162694
750.457	0.0164007
750.535	0.0164063
750.613	0.0162083
750.692	0.0160235
750.770	0.0160388
750.848	0.0160282
750.926	0.0159581
751.004	0.0158776
751.082	0.0158430
751.160	0.0157541
751.238	0.0158365
751.317	0.0155272
751.395	0.0156077
751.473	0.0157137
751.551	0.0155219
751.629	0.0155737
751.707	0.0156951
751.785	0.0158222
751.863	0.0157964
751.942	0.0159052
752.020	0.0160179
752.098	0.0160431
752.176	0.0162512
752.254	0.0163260
752.332	0.0164674
752.410	0.0167818
752.488	0.0167580
752.567	0.0167619
752.645	0.0169583
752.723	0.0171438
752.801	0.0171507
752.879	0.0173483
752.957	0.0175221
753.035	0.0175827
753.113	0.0174421
753.192	0.0175708
753.270	0.0177261
753.348	0.0176674
753.426	0.0175684
753.504	0.0176911
753.582	0.0175977
753.660	0.0176952
753.738	0.0175874
753.817	0.0174604
753.895	0.0172369
753.973	0.0172600
754.051	0.0171661
754.129	0.0171201
754.207	0.0171645
754.285	0.0172024
754.363	0.0171688
754.442	0.0172016
754.520	0.0172166
754.598	0.0172729
754.676	0.0172488
754.754	0.0171539
754.832	0.0173303
754.910	0.0174626
754.988	0.0174153
755.067	0.0174901
755.145	0.0176659
755.223	0.0174921
755.301	0.0175520
755.379	0.0175614
755.457	0.0176012
755.535	0.0174596
755.613	0.0174603
755.692	0.0174980
755.770	0.0175002
755.848	0.0174371
755.926	0.0174969
756.004	0.0173634
756.082	0.0174816
756.160	0.0171933
756.238	0.0171265
756.317	0.0171420
756.395	0.0169540
756.473	0.0168873
756.551	0.0168718
756.629	0.0168070
756.707	0.0165295
756.785	0.0165604
756.863	0.0164764
756.942	0.0163731
757.020	0.0162420
757.098	0.0162162
757.176	0.0161973
757.254	0.0162534
757.332	0.0160148
757.410	0.0160122
757.488	0.0161138
757.567	0.0161508
757.645	0.0160264
757.723	0.0162489
757.801	0.0161413
757.879	0.0161372
757.957	0.0161369
758.035	0.0160992
758.113	0.0162798
758.192	0.0161286
758.270	0.0162158
758.348	0.0165157
758.426	0.0165264
758.504	0.0163988
758.582	0.0162775
758.660	0.0164668
758.738	0.0162611
758.817	0.0163554
758.895	0.0163398
758.973	0.0163117
759.051	0.0162936
759.129	0.0162043
759.207	0.0161809
759.285	0.0158874
759.363	0.0158999
759.442	0.0157728
759.520	0.0159011
759.598	0.0157925
759.676	0.0157524
759.754	0.0159157
759.832	0.0158931
759.910	0.0160680
759.988	0.0161176
760.067	0.0160689
760.145	0.0163000
760.223	0.0164861
760.301	0.0165960
760.379	0.0166195
760.457	0.0166679
760.535	0.0170557
760.613	0.0170255
760.692	0.0171766
760.770	0.0172548
760.848	0.0173347
760.926	0.0174120
761.004	0.0174589
761.082	0.0174243
761.160	0.0176869
761.238	0.0175163
761.317	0.0176282
761.395	0.0175385
761.473	0.0175135
761.551	0.0176382
761.629	0.0175542
761.707	0.0175054
761.785	0.0174865
761.863	0.0174628
761.942	0.0173918
762.020	0.0173629
762.098	0.0173307
762.176	0.0172891
762.254	0.0170350
762.332	0.0170811
762.410	0.0170660
762.488	0.0171543
762.567	0.0170605
762.645	0.0170540
762.723	0.0170444
762.801	0.0169174
762.879	0.0169810
762.957	0.0169626
763.035	0.0171976
763.113	0.0172275
763.192	0.0171678
763.270	0.0171631
763.348	0.0170584
763.426	0.0171908
763.504	0.0171653
763.582	0.0170889
763.660	0.0172050
763.738	0.0171897
763.817	0.0170705
763.895	0.0170753
763.973	0.0171687
764.051	0.0170840
764.129	0.0168516
764.207	0.0169360
764.285	0.0168701
764.363	0.0167980
764.442	0.0166279
764.520	0.0165206
764.598	0.0164227
764.676	0.0161988
764.754	0.0164034
764.832	0.0162582
764.910	0.0161116
764.988	0.0161821
765.067	0.0162831
765.145	0.0161726
765.223	0.0163157
765.301	0.0162042
765.379	0.0162829
765.457	0.0164118
765.535	0.0164590
765.613	0.0166511
765.692	0.0164534
765.770	0.0166302
765.848	0.0167755
765.926	0.0166708
766.004	0.0168397
766.082	0.0168597
766.160	0.0168003
766.238	0.0168301
766.317	0.0168941
766.395	0.0168579
766.473	0.0168909
766.551	0.0168604
766.629	0.0167891
766.707	0.0169231
766.785	0.0169165
766.863	0.0168840
766.942	0.0167578
767.020	0.0167146
767.098	0.0167810
767.176	0.0166608
767.254	0.0165740
767.332	0.0165247
767.410	0.0164468
767.488	0.0162325
767.567	0.0162392
767.645	0.0160831
767.723	0.0160373
767.801	0.0160354
767.879	0.0159579
767.957	0.0159626
768.035	0.0160206
768.113	0.0160528
768.192	0.0159676
768.270	0.0161599
768.348	0.0162978
768.426	0.0163077
768.504	0.0165977
768.582	0.0164991
768.660	0.0166669
768.738	0.0166261
768.817	0.0168265
768.895	0.0168063
768.973	0.0168207
769.051	0.0170347
769.129	0.0172373
769.207	0.0171623
769.285	0.0171549
769.363	0.0172685
769.442	0.0173594
769.520	0.0172022
769.598	0.0172949
769.676	0.0172940
769.754	0.0171766
769.832	0.0170563
769.910	0.0171647
769.988	0.0170725
770.067	0.0167625
770.145	0.0168354
770.223	0.0167950
770.301	0.0166120
770.379	0.0167115
770.457	0.0166959
770.535	0.0165470
770.613	0.0165866
770.692	0.0166840
770.770	0.0165984
770.848	0.0165805
770.926	0.0165371
771.004	0.0165901
771.082	0.0167171
771.160	0.0168871
771.238	0.0167885
771.317	0.0168952
771.395	0.0167713
771.473	0.0171296
771.551	0.0171222
771.629	0.0171357
771.707	0.0170159
771.785	0.0171241
771.863	0.0172173
771.942	0.0171616
772.020	0.0171169
772.098	0.0169890
772.176	0.0169194
772.254	0.0171039
772.332	0.0169689
772.410	0.0169466
772.488	0.0168821
772.567	0.0168517
772.645	0.0168568
772.723	0.0169246
772.801	0.0167673
772.879	0.0169831
772.957	0.0169616
773.035	0.0167805
773.113	0.0169507
773.192	0.0170089
773.270	0.0170615
773.348	0.0171332
773.426	0.0170852
773.504	0.0171096
773.582	0.0171309
773.660	0.0171890
773.738	0.0171533
773.817	0.0171262
773.895	0.0171306
773.973	0.0172021
774.051	0.0171317
774.129	0.0172548
774.207	0.0171770
774.285	0.0171323
774.363	0.0169482
774.442	0.0169916
774.520	0.0169329
774.598	0.0169846
774.676	0.0168786
774.754	0.0167792
774.832	0.0166947
774.910	0.0165701
774.988	0.0165121
775.067	0.0164401
775.145	0.0163187
775.223	0.0162695
775.301	0.0161193
775.379	0.0161747
775.457	0.0161702
775.535	0.0159513
775.613	0.0158848
775.692	0.0160065
775.770	0.0159849
775.848	0.0158785
775.926	0.0158485
776.004	0.0159700
776.082	0.0160090
776.160	0.0160075
776.238	0.0160923
776.317	0.0160356
776.395	0.0161434
776.473	0.0163633
776.551	0.0163091
776.629	0.0162743
776.707	0.0163350
776.785	0.0162598
776.863	0.0162366
776.942	0.0163720
777.020	0.0164414
777.098	0.0166418
777.176	0.0167046
777.254	0.0166308
777.332	0.0165745
777.410	0.0167784
777.488	0.0167455
777.567	0.0168661
777.645	0.0169344
777.723	0.0169898
777.801	0.0169468
777.879	0.0173254
777.957	0.0172097
778.035	0.0171020
778.113	0.0171233
778.192	0.0172705
778.270	0.0172954
778.348	0.0172197
778.426	0.0170815
778.504	0.0171919
778.582	0.0170598
778.660	0.0172497
778.738	0.0170488
778.817	0.0171143
778.895	0.0171475
778.973	0.0171845
779.051	0.0170361
779.129	0.0170791
779.207	0.0171439
779.285	0.0172374
779.363	0.0172569
779.442	0.0172096
779.520	0.0173511
779.598	0.0173084
779.676	0.0172421
779.754	0.0172935
779.832	0.0173933
779.910	0.0174319
779.988	0.0174274
780.067	0.0172085
780.145	0.0174213
780.223	0.0172421
780.301	0.0172158
780.379	0.0170525
780.457	0.0171757
780.535	0.0170557
780.613	0.0169595
780.692	0.0170769
780.770	0.0168851
780.848	0.0168512
780.926	0.0169295
781.004	0.0168336
781.082	0.0168007
781.160	0.0168307
781.238	0.0168890
781.317	0.0168356
781.395	0.0168350
781.473	0.0168717
781.551	0.0169850
781.629	0.0167999
781.707	0.0166338
781.785	0.0165856
781.863	0.0167500
781.942	0.0165905
782.020	0.0165710
782.098	0.0165874
782.176	0.0164286
782.254	0.0164636
782.332	0.0163745
782.410	0.0164911
782.488	0.0163692
782.567	0.0163731
782.645	0.0161739
782.723	0.0163025
782.801	0.0162433
782.879	0.0162381
782.957	0.0162548
783.035	0.0160897
783.113	0.0162595
783.192	0.0162995
783.270	0.0162273
783.348	0.0163209
783.426	0.0163776
783.504	0.0164671
783.582	0.0166359
783.660	0.0167068
783.738	0.0167270
783.817	0.0168003
783.895	0.0169282
783.973	0.0170799
784.051	0.0172367
784.129	0.0172222
784.207	0.0171910
784.285	0.0171902
784.363	0.0170406
784.442	0.0169336
784.520	0.0167133
784.598	0.0165369
784.676	0.0163895
784.754	0.0160332
784.832	0.0157758
784.910	0.0155770
784.988	0.0153064
785.067	0.0149554
785.145	0.0147477
785.223	0.0147744
785.301	0.0147527
785.379	0.0146012
785.457	0.0147063
785.535	0.0148905
785.613	0.0149208
785.692	0.0150677
785.770	0.0155144
785.848	0.0158227
785.926	0.0161761
786.004	0.0167203
786.082	0.0171889
786.160	0.0177834
786.238	0.0183690
786.317	0.0192065
786.395	0.0197130
786.473	0.0203586
786.551	0.0205661
786.629	0.0208842
786.707	0.0212468
786.785	0.0213841
786.863	0.0212280
786.942	0.0212946
787.020	0.0209328
787.098	0.0208057
787.176	0.0204108
787.254	0.0200406
787.332	0.0194078
787.410	0.0189629
787.488	0.0184711
787.567	0.0176987
787.645	0.0172160
787.723	0.0167115
787.801	0.0159301
787.879	0.0152618
787.957	0.0148470
788.035	0.0142304
788.113	0.0138117
788.192	0.0132790
788.270	0.0130414
788.348	0.0127567
788.426	0.0126212
788.504	0.0125784
788.582	0.0123895
788.660	0.0123872
788.738	0.0124058
788.817	0.0126946
788.895	0.0128523
788.973	0.0130775
789.051	0.0134341
789.129	0.0136795
789.207	0.0140704
789.285	0.0144996
789.363	0.0148554
789.442	0.0152895
789.520	0.0154763
789.598	0.0161105
789.676	0.0165081
789.754	0.0168349
789.832	0.0171630
789.910	0.0176508
789.988	0.0180512
790.067	0.0183775
790.145	0.0187946
790.223	0.0190237
790.301	0.0192669
790.379	0.0195779
790.457	0.0196865
790.535	0.0200498
790.613	0.0201426
790.692	0.0202528
790.770	0.0203350
790.848	0.0204139
790.926	0.0205257
791.004	0.0204716
791.082	0.0203033
791.160	0.0202365
791.238	0.0200621
791.317	0.0198382
791.395	0.0197086
791.473	0.0194196
791.551	0.0191406
791.629	0.0187582
791.707	0.0184193
791.785	0.0181483
791.863	0.0174857
791.942	0.0172542
792.020	0.0170840
792.098	0.0167223
792.176	0.0162931
792.254	0.0161148
792.332	0.0157675
792.410	0.0154845
792.488	0.0152326
792.567	0.0150761
792.645	0.0150729
792.723	0.0147705
792.801	0.0146513
792.879	0.0146282
792.957	0.0143871
793.035	0.0141532
793.113	0.0141573
793.192	0.0141056
793.270	0.0138249
793.348	0.0136933
793.426	0.0136554
793.504	0.0135907
793.582	0.0136195
793.660	0.0134210
793.738	0.0132408
793.817	0.0135262
793.895	0.0134370
793.973	0.0136561
794.051	0.0137635
794.129	0.0138712
794.207	0.0141566
794.285	0.0144192
794.363	0.0146494
794.442	0.0150719
794.520	0.0153470
794.598	0.0156693
794.676	0.0160652
794.754	0.0164890
794.832	0.0166312
794.910	0.0169860
794.988	0.0173707
795.067	0.0175086
795.145	0.0177670
795.223	0.0180100
795.301	0.0181789
795.379	0.0182063
795.457	0.0183986
795.535	0.0186149
795.613	0.0185082
795.692	0.0188058
795.770	0.0189308
795.848	0.0189796
795.926	0.0190169
796.004	0.0190588
796.082	0.0191597
796.160	0.0194029
796.238	0.0193833
796.317	0.0193854
796.395	0.0194231
796.473	0.0193229
796.551	0.0194905
796.629	0.0195527
796.707	0.0195104
796.785	0.0194374
796.863	0.0193615
796.942	0.0193233
797.020	0.0190250
797.098	0.0188795
797.176	0.0187745
797.254	0.0186710
797.332	0.0184355
797.410	0.0181196
797.488	0.0180062
797.567	0.0178365
797.645	0.0176591
797.723	0.0174004
797.801	0.0173585
797.879	0.0171374
797.957	0.0169758
798.035	0.0167496
798.113	0.0166199
798.192	0.0165202
798.270	0.0161291
798.348	0.0160001
798.426	0.0159690
798.504	0.0157583
798.582	0.0155480
798.660	0.0154868
798.738	0.0153900
798.817	0.0151943
798.895	0.0151083
798.973	0.0150169
799.051	0.0149263
799.129	0.0148712
799.207	0.0149171
799.285	0.0147820
799.363	0.0148448
799.442	0.0147337
799.520	0.0148177
799.598	0.0146688
799.676	0.0148212
799.754	0.0146976
799.832	0.0148610
799.910	0.0147853
799.988	0.0149195
800.067	0.0148087
800.145	0.0148097
800.223	0.0149988
800.301	0.0148657
800.379	0.0150047
800.457	0.0151215
800.535	0.0152326
800.613	0.0152193
800.692	0.0151332
800.770	0.0151711
800.848	0.0154163
800.926	0.0154488
801.004	0.0154929
801.082	0.0157104
801.160	0.0158891
801.238	0.0160208
801.317	0.0161729
801.395	0.0163829
801.473	0.0166089
801.551	0.0167156
801.629	0.0170377
801.707	0.0171748
801.785	0.0174583
801.863	0.0176145
801.942	0.0177650
802.020	0.0181154
802.098	0.0180740
802.176	0.0182796
802.254	0.0185117
802.332	0.0187605
802.410	0.0188784
802.488	0.0188722
802.567	0.0190226
802.645	0.0190675
802.723	0.0191234
802.801	0.0191741
802.879	0.0190082
802.957	0.0190087
803.035	0.0187981
803.113	0.0187872
803.192	0.0186971
803.270	0.0186179
803.348	0.0183685
803.426	0.0182984
803.504	0.0180611
803.582	0.0178739
803.660	0.0177121
803.738	0.0175944
803.817	0.0174818
803.895	0.0173392
803.973	0.0170657
804.051	0.0170892
804.129	0.0169910
804.207	0.0168595
804.285	0.0169353
804.363	0.0169053
804.442	0.0167000
804.520	0.0166621
804.598	0.0166980
804.676	0.0167122
804.754	0.0166228
804.832	0.0165450
804.910	0.0165590
804.988	0.0165747
805.067	0.0164194
805.145	0.0165199
805.223	0.0164570
805.301	0.0163528
805.379	0.0163196
805.457	0.0163732
805.535	0.0161075
805.613	0.0161546
805.692	0.0161984
805.770	0.0162000
805.848	0.0160478
805.926	0.0161666
806.004	0.0161502
806.082	0.0162222
806.160	0.0161832
806.238	0.0160892
806.317	0.0162492
806.395	0.0161734
806.473	0.0161584
806.551	0.0163013
806.629	0.0163435
806.707	0.0163243
806.785	0.0161864
806.863	0.0163975
806.942	0.0163831
807.020	0.0165109
807.098	0.0163766
807.176	0.0165116
807.254	0.0162692
807.332	0.0164145
807.410	0.0163242
807.488	0.0161346
807.567	0.0161707
807.645	0.0161729
807.723	0.0161295
807.801	0.0160578
807.879	0.0161127
807.957	0.0162965
808.035	0.0161514
808.113	0.0162608
808.192	0.0161194
808.270	0.0161868
808.348	0.0161406
808.426	0.0162196
808.504	0.0160505
808.582	0.0160814
808.660	0.0162080
808.738	0.0161158
808.817	0.0159473
808.895	0.0160840
808.973	0.0160781
809.051	0.0161863
809.129	0.0162368
809.207	0.0161723
809.285	0.0165191
809.363	0.0166059
809.442	0.0166628
809.520	0.0167651
809.598	0.0168537
809.676	0.0170400
809.754	0.0170580
809.832	0.0171883
809.910	0.0171965
809.988	0.0171295
810.067	0.0173162
810.145	0.0173709
810.223	0.0171663
810.301	0.0173772
810.379	0.0174004
810.457	0.0172118
810.535	0.0172044
810.613	0.0173965
810.692	0.0173225
810.770	0.0174220
810.848	0.0172931
810.926	0.0174617
811.004	0.0173395
811.082	0.0174379
811.160	0.0175231
811.238	0.0174824
811.317	0.0175453
811.395	0.0175368
811.473	0.0174355
811.551	0.0175899
811.629	0.0175473
811.707	0.0176147
811.785	0.0176866
811.863	0.0177269
811.942	0.0176466
812.020	0.0178848
812.098	0.0176913
812.176	0.0176112
812.254	0.0176011
812.332	0.0176344
812.410	0.0173572
812.488	0.0174345
812.567	0.0173538
812.645	0.0172173
812.723	0.0172263
812.801	0.0168865
812.879	0.0168324
812.957	0.0167189
813.035	0.0165565
813.113	0.0163711
813.192	0.0162440
813.270	0.0162986
813.348	0.0162633
813.426	0.0162166
813.504	0.0160605
813.582	0.0160454
813.660	0.0162450
813.738	0.0163011
813.817	0.0163186
813.895	0.0164458
813.973	0.0164587
814.051	0.0167636
814.129	0.0167084
814.207	0.0167204
814.285	0.0169537
814.363	0.0169253
814.442	0.0169877
814.520	0.0169712
814.598	0.0170039
814.676	0.0168895
814.754	0.0167424
814.832	0.0165424
814.910	0.0163954
814.988	0.0162122
815.067	0.0160817
815.145	0.0159286
815.223	0.0156907
815.301	0.0155622
815.379	0.0155486
815.457	0.0155159
815.535	0.0154571
815.613	0.0154204
815.692	0.0154290
815.770	0.0154372
815.848	0.0156331
815.926	0.0157346
816.004	0.0157109
816.082	0.0157941
816.160	0.0160721
816.238	0.0160297
816.317	0.0161701
816.395	0.0163776
816.473	0.0166610
816.551	0.0166230
816.629	0.0167392
816.707	0.0168916
816.785	0.0168179
816.863	0.0169890
816.942	0.0170097
817.020	0.0170393
817.098	0.0170497
817.176	0.0170911
817.254	0.0171260
817.332	0.0170631
817.410	0.0171731
817.488	0.0171066
817.567	0.0170621
817.645	0.0170055
817.723	0.0169055
817.801	0.0169701
817.879	0.0170048
817.957	0.0168617
818.035	0.0167462
818.113	0.0166284
818.192	0.0167638
818.270	0.0167753
818.348	0.0166445
818.426	0.0167714
818.504	0.0166541
818.582	0.0165845
818.660	0.0166878
818.738	0.0166903
818.817	0.0167270
818.895	0.0167318
818.973	0.0168494
819.051	0.0167882
819.129	0.0170629
819.207	0.0169666
819.285	0.0170350
819.363	0.0170784
819.442	0.0171670
819.520	0.0172366
819.598	0.0174017
819.676	0.0175400
819.754	0.0175490
819.832	0.0177227
819.910	0.0178039
819.988	0.0178428
820.067	0.0177136
820.145	0.0178157
820.223	0.0177581
820.301	0.0176820
820.379	0.0177924
820.457	0.0178140
820.535	0.0176041
820.613	0.0175901
820.692	0.0173439
820.770	0.0174560
820.848	0.0173828
820.926	0.0172408
821.004	0.0171092
821.082	0.0170677
821.160	0.0169213
821.238	0.0169923
821.317	0.0166724
821.395	0.0166161
821.473	0.0167830
821.551	0.0165025
821.629	0.0165134
821.707	0.0163654
821.785	0.0164185
821.863	0.0165189
821.942	0.0163037
822.020	0.0163409
822.098	0.0163023
822.176	0.0163013
822.254	0.0162857
822.332	0.0162443
822.410	0.0163029
822.488	0.0162592
822.567	0.0163561
822.645	0.0163599
822.723	0.0163971
822.801	0.0164431
822.879	0.0163444
822.957	0.0164622
823.035	0.0166272
823.113	0.0166021
823.192	0.0167070
823.270	0.0165841
823.348	0.0166110
823.426	0.0165682
823.504	0.0164917
823.582	0.0163801
823.660	0.0163906
823.738	0.0161801
823.817	0.0161311
823.895	0.0159894
823.973	0.0158754
824.051	0.0158736
824.129	0.0157475
824.207	0.0156085
824.285	0.0155492
824.363	0.0154630
824.442	0.0155427
824.520	0.0155329
824.598	0.0155479
824.676	0.0157699
824.754	0.0159149
824.832	0.0157543
824.910	0.0157716
824.988	0.0160960
825.067	0.0162299
825.145	0.0165660
825.223	0.0165553
825.301	0.0167075
825.379	0.0168228
825.457	0.0168810
825.535	0.0171837
825.613	0.0170325
825.692	0.0171234
825.770	0.0171796
825.848	0.0172982
825.926	0.0171622
826.004	0.0173059
826.082	0.0173616
826.160	0.0173242
826.238	0.0172073
826.317	0.0173782
826.395	0.0173000
826.473	0.0172401
826.551	0.0173451
826.629	0.0172732
826.707	0.0172820
826.785	0.0174860
826.863	0.0173888
826.942	0.0174825
827.020	0.0176786
827.098	0.0175325
827.176	0.0175755
827.254	0.0176711
827.332	0.0177610
827.410	0.0178368
827.488	0.0177446
827.567	0.0177859
827.645	0.0176660
827.723	0.0179678
827.801	0.0178404
827.879	0.0177228
827.957	0.0176896
828.035	0.0177003
828.113	0.0176177
828.192	0.0174338
828.270	0.0173476
828.348	0.0173291
828.426	0.0172136
828.504	0.0170312
828.582	0.0170684
828.660	0.0169575
828.738	0.0169324
828.817	0.0167771
828.895	0.0167316
828.973	0.0164817
829.051	0.0164542
829.129	0.0163154
829.207	0.0161925
829.285	0.0162547
829.363	0.0162077
829.442	0.0160943
829.520	0.0161174
829.598	0.0159773
829.676	0.0159736
829.754	0.0160435
829.832	0.0159538
829.910	0.0160131
829.988	0.0159071
830.067	0.0159241
830.145	0.0159219
830.223	0.0158865
830.301	0.0158099
830.379	0.0158289
830.457	0.0158002
830.535	0.0159228
830.613	0.0161191
830.692	0.0160215
830.770	0.0160913
830.848	0.0161659
830.926	0.0160315
831.004	0.0161353
831.082	0.0161200
831.160	0.0161817
831.238	0.0161752
831.317	0.0163563
831.395	0.0163649
831.473	0.0163882
831.551	0.0164868
831.629	0.0165871
831.707	0.0166599
831.785	0.0167599
831.863	0.0168658
831.942	0.0168941
832.020	0.0169854
832.098	0.0170879
832.176	0.0171306
832.254	0.0171835
832.332	0.0173202
832.410	0.0174648
832.488	0.0174320
832.567	0.0172779
832.645	0.0173219
832.723	0.0175765
832.801	0.0173489
832.879	0.0172784
832.957	0.0174017
833.035	0.0172651
833.113	0.0172966
833.192	0.0172590
833.270	0.0172025
833.348	0.0171635
833.426	0.0170950
833.504	0.0169532
833.582	0.0170732
833.660	0.0170219
833.738	0.0170041
833.817	0.0170214
833.895	0.0169121
833.973	0.0169434
834.051	0.0169395
834.129	0.0170592
834.207	0.0168226
834.285	0.0168832
834.363	0.0167613
834.442	0.0165610
834.520	0.0165184
834.598	0.0165543
834.676	0.0165317
834.754	0.0163141
834.832	0.0163132
834.910	0.0164074
834.988	0.0161588
835.067	0.0163867
835.145	0.0164664
835.223	0.0164309
835.301	0.0164017
835.379	0.0164728
835.457	0.0164252
835.535	0.0165684
835.613	0.0166653
835.692	0.0166254
835.770	0.0166156
835.848	0.0169022
835.926	0.0168891
836.004	0.0167893
836.082	0.0167088
836.160	0.0170068
836.238	0.0170333
836.317	0.0170043
836.395	0.0170361
836.473	0.0170948
836.551	0.0171877
836.629	0.0171185
836.707	0.0170195
836.785	0.0170663
836.863	0.0171210
836.942	0.0170605
837.020	0.0170686
837.098	0.0170869
837.176	0.0170774
837.254	0.0169903
837.332	0.0169774
837.410	0.0170374
837.488	0.0171274
837.567	0.0168693
837.645	0.0170058
837.723	0.0170349
837.801	0.0169512
837.879	0.0168632
837.957	0.0168756
838.035	0.0169092
838.113	0.0168939
838.192	0.0169867
838.270	0.0169911
838.348	0.0170069
838.426	0.0168223
838.504	0.0169759
838.582	0.0168851
838.660	0.0171235
838.738	0.0170750
838.817	0.0169753
838.895	0.0169853
838.973	0.0168709
839.051	0.0169691
839.129	0.0167309
839.207	0.0167243
839.285	0.0166976
839.363	0.0165914
839.442	0.0166110
839.520	0.0165521
839.598	0.0164999
839.676	0.0162766
839.754	0.0164075
839.832	0.0162559
839.910	0.0163291
839.988	0.0159644
840.067	0.0160809
840.145	0.0161559
840.223	0.0162227
840.301	0.0161324
840.379	0.0160757
840.457	0.0161877
840.535	0.0161693
840.613	0.0161844
840.692	0.0162805
840.770	0.0163857
840.848	0.0163445
840.926	0.0164974
841.004	0.0164284
841.082	0.0164966
841.160	0.0164410
841.238	0.0165054
841.317	0.0165298
841.395	0.0165070
841.473	0.0165456
841.551	0.0166087
841.629	0.0164513
841.707	0.0163765
841.785	0.0164603
841.863	0.0165168
841.942	0.0166155
842.020	0.0164983
842.098	0.0164307
842.176	0.0164683
842.254	0.0165254
842.332	0.0165417
842.410	0.0166061
842.488	0.0166967
842.567	0.0166402
842.645	0.0166791
842.723	0.0167635
842.801	0.0168327
842.879	0.0169251
842.957	0.0167973
843.035	0.0170846
843.113	0.0171097
843.192	0.0170174
843.270	0.0172974
843.348	0.0172173
843.426	0.0172549
843.504	0.0173473
843.582	0.0174162
843.660	0.0175623
843.738	0.0175233
843.817	0.0176511
843.895	0.0174508
843.973	0.0175087
844.051	0.0176643
844.129	0.0175446
844.207	0.0176258
844.285	0.0175517
844.363	0.0175199
844.442	0.0174600
844.520	0.0174425
844.598	0.0171804
844.676	0.0173370
844.754	0.0173538
844.832	0.0172474
844.910	0.0171951
844.988	0.0168376
845.067	0.0168784
845.145	0.0168490
845.223	0.0166299
845.301	0.0167566
845.379	0.0166901
845.457	0.0165077
845.535	0.0164001
845.613	0.0165044
845.692	0.0165824
845.770	0.0165369
845.848	0.0162617
845.926	0.0164395
846.004	0.0166061
846.082	0.0164501
846.160	0.0163676
846.238	0.0163571
846.317	0.0164530
846.395	0.0165210
846.473	0.0164258
846.551	0.0164964
846.629	0.0164560
846.707	0.0162265
846.785	0.0162380
846.863	0.0163358
846.942	0.0164880
847.020	0.0163994
847.098	0.0163571
847.176	0.0163731
847.254	0.0164982
847.332	0.0162665
847.410	0.0163314
847.488	0.0163840
847.567	0.0162843
847.645	0.0163058
847.723	0.0163235
847.801	0.0165432
847.879	0.0163065
847.957	0.0162434
848.035	0.0161768
848.113	0.0162584
848.192	0.0163125
848.270	0.0162228
848.348	0.0162199
848.426	0.0161899
848.504	0.0162994
848.582	0.0163589
848.660	0.0164753
848.738	0.0165012
848.817	0.0165701
848.895	0.0166522
848.973	0.0166412
849.051	0.0167975
849.129	0.0169471
849.207	0.0169784
849.285	0.0169999
849.363	0.0171428
849.442	0.0172871
849.520	0.0171130
849.598	0.0171716
849.676	0.0172299
849.754	0.0173026
849.832	0.0172795
849.910	0.0172903
849.988	0.0173347
850.067	0.0173292
850.145	0.0172765
850.223	0.0172921
850.301	0.0172921
850.379	0.0171988
850.457	0.0173507
850.535	0.0173151
850.613	0.0172495
850.692	0.0171720
850.770	0.0171256
850.848	0.0172221
850.926	0.0171740
851.004	0.0170226
851.082	0.0170654
851.160	0.0169650
851.238	0.0168600
851.317	0.0167831
851.395	0.0169303
851.473	0.0167068
851.551	0.0166010
851.629	0.0166454
851.707	0.0166521
851.785	0.0165400
851.863	0.0164498
851.942	0.0165595
852.020	0.0162868
852.098	0.0163877
852.176	0.0164794
852.254	0.0163665
852.332	0.0163782
852.410	0.0164270
852.488	0.0162630
852.567	0.0162679
852.645	0.0164066
852.723	0.0165379
852.801	0.0165953
852.879	0.0164996
852.957	0.0166255
853.035	0.0167241
853.113	0.0167332
853.192	0.0168447
853.270	0.0167516
853.348	0.0169292
853.426	0.0168358
853.504	0.0167948
853.582	0.0167628
853.660	0.0167617
853.738	0.0168335
853.817	0.0168614
853.895	0.0169431
853.973	0.0169946
854.051	0.0170611
854.129	0.0169663
854.207	0.0168793
854.285	0.0168876
854.363	0.0169331
854.442	0.0169339
854.520	0.0170377
854.598	0.0168294
854.676	0.0166626
854.754	0.0165514
854.832	0.0165868
854.910	0.0165527
854.988	0.0166655
855.067	0.0166496
855.145	0.0166846
855.223	0.0166387
855.301	0.0166792
855.379	0.0166095
855.457	0.0166359
855.535	0.0165669
855.613	0.0165902
855.692	0.0166602
855.770	0.0165859
855.848	0.0166500
855.926	0.0167399
856.004	0.0166965
856.082	0.0167821
856.160	0.0166720
856.238	0.0167486
856.317	0.0167822
856.395	0.0167582
856.473	0.0167583
856.551	0.0167326
856.629	0.0167254
856.707	0.0166998
856.785	0.0166666
856.863	0.0167311
856.942	0.0166730
857.020	0.0165866
857.098	0.0165880
857.176	0.0167407
857.254	0.0167333
857.332	0.0166481
857.410	0.0166622
857.488	0.0167749
857.567	0.0166830
857.645	0.0167966
857.723	0.0168371
857.801	0.0167210
857.879	0.0167295
857.957	0.0168124
858.035	0.0168797
858.113	0.0169772
858.192	0.0168813
858.270	0.0167642
858.348	0.0168442
858.426	0.0167255
858.504	0.0167152
858.582	0.0166238
858.660	0.0165589
858.738	0.0165383
858.817	0.0166064
858.895	0.0165479
858.973	0.0164509
859.051	0.0164412
859.129	0.0165063
859.207	0.0164205
859.285	0.0164017
859.363	0.0164807
859.442	0.0163382
859.520	0.0163319
859.598	0.0166089
859.676	0.0163780
859.754	0.0165544
859.832	0.0164518
859.910	0.0165976
859.988	0.0165498
860.067	0.0166808
860.145	0.0167252
860.223	0.0168363
860.301	0.0169162
860.379	0.0170010
860.457	0.0170071
860.535	0.0169816
860.613	0.0171210
860.692	0.0171636
860.770	0.0171914
860.848	0.0172787
860.926	0.0172036
861.004	0.0172291
861.082	0.0171830
861.160	0.0171674
861.238	0.0172060
861.317	0.0173053
861.395	0.0172385
861.473	0.0172229
861.551	0.0171649
861.629	0.0171803
861.707	0.0171294
861.785	0.0171486
861.863	0.0171597
861.942	0.0170290
862.020	0.0170763
862.098	0.0169513
862.176	0.0169374
862.254	0.0167900
862.332	0.0168648
862.410	0.0167435
862.488	0.0166808
862.567	0.0166237
862.645	0.0166340
862.723	0.0166380
862.801	0.0166763
862.879	0.0167525
862.957	0.0166272
863.035	0.0166589
863.113	0.0166681
863.192	0.0167619
863.270	0.0166715
863.348	0.0165752
863.426	0.0166448
863.504	0.0166217
863.582	0.0165659
863.660	0.0165165
863.738	0.0165483
863.817	0.0164021
863.895	0.0165444
863.973	0.0163477
864.051	0.0163277
864.129	0.0163536
864.207	0.0162640
864.285	0.0162911
864.363	0.0165147
864.442	0.0164201
864.520	0.0164811
864.598	0.0165360
864.676	0.0166151
864.754	0.0166061
864.832	0.0167891
864.910	0.0166853
864.988	0.0166814
865.067	0.0166950
865.145	0.0164624
865.223	0.0164173
865.301	0.0164700
865.379	0.0165474
865.457	0.0163639
865.535	0.0164194
865.613	0.0163434
865.692	0.0162766
865.770	0.0164694
865.848	0.0164632
865.926	0.0167078
866.004	0.0166640
866.082	0.0167126
866.160	0.0168217
866.238	0.0168770
866.317	0.0168711
866.395	0.0170648
866.473	0.0169439
866.551	0.0169779
866.629	0.0169083
866.707	0.0169481
866.785	0.0169215
866.863	0.0169308
866.942	0.0167156
867.020	0.0167759
867.098	0.0168585
867.176	0.0168784
867.254	0.0168028
867.332	0.0168328
867.410	0.0169096
867.488	0.0169685
867.567	0.0170728
867.645	0.0170730
867.723	0.0170589
867.801	0.0171326
867.879	0.0172500
867.957	0.0172430
868.035	0.0171679
868.113	0.0170354
868.192	0.0170186
868.270	0.0170521
868.348	0.0169946
868.426	0.0168912
868.504	0.0168603
868.582	0.0169279
868.660	0.0167992
868.738	0.0166945
868.817	0.0167422
868.895	0.0168060
868.973	0.0167380
869.051	0.0168257
869.129	0.0167117
869.207	0.0167279
869.285	0.0166127
869.363	0.0167965
869.442	0.0166545
869.520	0.0166821
869.598	0.0166386
869.676	0.0167078
869.754	0.0166368
869.832	0.0165884
869.910	0.0165273
869.988	0.0165285
870.067	0.0166899
870.145	0.0166314
870.223	0.0166256
870.301	0.0166497
870.379	0.0165833
870.457	0.0167351
870.535	0.0167028
870.613	0.0168242
870.692	0.0167818
870.770	0.0167622
870.848	0.0167913
870.926	0.0170680
871.004	0.0169698
871.082	0.0170189
871.160	0.0169531
871.238	0.0169494
871.317	0.0169621
871.395	0.0170140
871.473	0.0168626
871.551	0.0168491
871.629	0.0167578
871.707	0.0168578
871.785	0.0166409
871.863	0.0166845
871.942	0.0166721
872.020	0.0167419
872.098	0.0166444
872.176	0.0166688
872.254	0.0167477
872.332	0.0166055
872.410	0.0167730
872.488	0.0167603
872.567	0.0166327
872.645	0.0167820
872.723	0.0166730
872.801	0.0166611
872.879	0.0166873
872.957	0.0167828
873.035	0.0165970
873.113	0.0165961
873.192	0.0166117
873.270	0.0165898
873.348	0.0164980
873.426	0.0164979
873.504	0.0165699
873.582	0.0166380
873.660	0.0166421
873.738	0.0164838
873.817	0.0164375
873.895	0.0166795
873.973	0.0164266
874.051	0.0164645
874.129	0.0165768
874.207	0.0165555
874.285	0.0165057
874.363	0.0166225
874.442	0.0165382
874.520	0.0165845
874.598	0.0165662
874.676	0.0164731
874.754	0.0166303
874.832	0.0164865
874.910	0.0167610
874.988	0.0167079
875.067	0.0165400
875.145	0.0166220
875.223	0.0167978
875.301	0.0166957
875.379	0.0169183
875.457	0.0167241
875.535	0.0165960
875.613	0.0167358
875.692	0.0166380
875.770	0.0167255
875.848	0.0166618
875.926	0.0167493
876.004	0.0168289
876.082	0.0168520
876.160	0.0168282
876.238	0.0168768
876.317	0.0169981
876.395	0.0170075
876.473	0.0171456
876.551	0.0171255
876.629	0.0171799
876.707	0.0173659
876.785	0.0173252
876.863	0.0173229
876.942	0.0174095
877.020	0.0172468
877.098	0.0172894
877.176	0.0171909
877.254	0.0172530
877.332	0.0171407
877.410	0.0171336
877.488	0.0170832
877.567	0.0170274
877.645	0.0171463
877.723	0.0170482
877.801	0.0169067
877.879	0.0167942
877.957	0.0167737
878.035	0.0168447
878.113	0.0166411
878.192	0.0165794
878.270	0.0166370
878.348	0.0165565
878.426	0.0165919
878.504	0.0163737
878.582	0.0165759
878.660	0.0164816
878.738	0.0162080
878.817	0.0163605
878.895	0.0167128
878.973	0.0165857
879.051	0.0167117
879.129	0.0168881
879.207	0.0172182
879.285	0.0173138
879.363	0.0173734
879.442	0.0175126
879.520	0.0174881
879.598	0.0173679
879.676	0.0173241
879.754	0.0170126
879.832	0.0167200
879.910	0.0162668
879.988	0.0157515
880.067	0.0152825
880.145	0.0148154
880.223	0.0143771
880.301	0.0139661
880.379	0.0138412
880.457	0.0140762
880.535	0.0143341
880.613	0.0145714
880.692	0.0151569
880.770	0.0157933
880.848	0.0165020
880.926	0.0171271
881.004	0.0178237
881.082	0.0183923
881.160	0.0187874
881.238	0.0192109
881.317	0.0196655
881.395	0.0200455
881.473	0.0199481
881.551	0.0199860
881.629	0.0200419
881.707	0.0197636
881.785	0.0196439
881.863	0.0193440
881.942	0.0188205
882.020	0.0183340
882.098	0.0180042
882.176	0.0174068
882.254	0.0167364
882.332	0.0162733
882.410	0.0156299
882.488	0.0151125
882.567	0.0144990
882.645	0.0141607
882.723	0.0138953
882.801	0.0136497
882.879	0.0133868
882.957	0.0133076
883.035	0.0132108
883.113	0.0133449
883.192	0.0133507
883.270	0.0135498
883.348	0.0136700
883.426	0.0140742
883.504	0.0144406
883.582	0.0149217
883.660	0.0152875
883.738	0.0156170
883.817	0.0160707
883.895	0.0166415
883.973	0.0170098
884.051	0.0175262
884.129	0.0181075
884.207	0.0183103
884.285	0.0188206
884.363	0.0189017
884.442	0.0191736
884.520	0.0193355
884.598	0.0192488
884.676	0.0192194
884.754	0.0192261
884.832	0.0190431
884.910	0.0187474
884.988	0.0185782
885.067	0.0184227
885.145	0.0183723
885.223	0.0179842
885.301	0.0177959
885.379	0.0177032
885.457	0.0174979
885.535	0.0172513
885.613	0.0171030
885.692	0.0171686
885.770	0.0169147
885.848	0.0167254
885.926	0.0165984
886.004	0.0164240
886.082	0.0165067
886.160	0.0164850
886.238	0.0164335
886.317	0.0165115
886.395	0.0166237
886.473	0.0166433
886.551	0.0166577
886.629	0.0165328
886.707	0.0166943
886.785	0.0168008
886.863	0.0166560
886.942	0.0165194
887.020	0.0165115
887.098	0.0166679
887.176	0.0164463
887.254	0.0161933
887.332	0.0160365
887.410	0.0160828
887.488	0.0159312
887.567	0.0159274
887.645	0.0159031
887.723	0.0158730
887.801	0.0157869
887.879	0.0157597
887.957	0.0158201
888.035	0.0159090
888.113	0.0159386
888.192	0.0159763
888.270	0.0161929
888.348	0.0162410
888.426	0.0161550
888.504	0.0162830
888.582	0.0163672
888.660	0.0165517
888.738	0.0167672
888.817	0.0166730
888.895	0.0166631
888.973	0.0167807
889.051	0.0168938
889.129	0.0169050
889.207	0.0170206
889.285	0.0170311
889.363	0.0171057
889.442	0.0172209
889.520	0.0172575
889.598	0.0171210
889.676	0.0172273
889.754	0.0173740
889.832	0.0173298
889.910	0.0171951
889.988	0.0174911
890.067	0.0173091
890.145	0.0171935
890.223	0.0173265
890.301	0.0173075
890.379	0.0173585
890.457	0.0171347
890.535	0.0169927
890.613	0.0169286
890.692	0.0167532
890.770	0.0166800
890.848	0.0164774
890.926	0.0163950
891.004	0.0162749
891.082	0.0161462
891.160	0.0159818
891.238	0.0159175
891.317	0.0158570
891.395	0.0158536
891.473	0.0157765
891.551	0.0158717
891.629	0.0158558
891.707	0.0159622
891.785	0.0158692
891.863	0.0159940
891.942	0.0161050
892.020	0.0161155
892.098	0.0162948
892.176	0.0164797
892.254	0.0164586
892.332	0.0163582
892.410	0.0168325
892.488	0.0167103
892.567	0.0166795
892.645	0.0167868
892.723	0.0167579
892.801	0.0167484
892.879	0.0167545
892.957	0.0167235
893.035	0.0167816
893.113	0.0167151
893.192	0.0167107
893.270	0.0168753
893.348	0.0168611
893.426	0.0169754
893.504	0.0170641
893.582	0.0169518
893.660	0.0170835
893.738	0.0171564
893.817	0.0172549
893.895	0.0173291
893.973	0.0174681
894.051	0.0175008
894.129	0.0175659
894.207	0.0176981
894.285	0.0177213
894.363	0.0178257
894.442	0.0178302
894.520	0.0179288
894.598	0.0181126
894.676	0.0181074
894.754	0.0178914
894.832	0.0180287
894.910	0.0178384
894.988	0.0178155
895.067	0.0176685
895.145	0.0174838
895.223	0.0175122
895.301	0.0172668
895.379	0.0172054
895.457	0.0169148
895.535	0.0167442
895.613	0.0166098
895.692	0.0165049
895.770	0.0165099
895.848	0.0163651
895.926	0.0161888
896.004	0.0163023
896.082	0.0161034
896.160	0.0161319
896.238	0.0161999
896.317	0.0162917
896.395	0.0162150
896.473	0.0162170
896.551	0.0162566
896.629	0.0164182
896.707	0.0164430
896.785	0.0164500
896.863	0.0164964
896.942	0.0164907
897.020	0.0165363
897.098	0.0165197
897.176	0.0164719
897.254	0.0165457
897.332	0.0166038
897.410	0.0165992
897.488	0.0164404
897.567	0.0164371
897.645	0.0163714
897.723	0.0164510
897.801	0.0161403
897.879	0.0161261
897.957	0.0159748
898.035	0.0159270
898.113	0.0158135
898.192	0.0157407
898.270	0.0156770
898.348	0.0155147
898.426	0.0154546
898.504	0.0151923
898.582	0.0152882
898.660	0.0152477
898.738	0.0151852
898.817	0.0151055
898.895	0.0151845
898.973	0.0153270
899.051	0.0153533
899.129	0.0155566
899.207	0.0157156
899.285	0.0159315
899.363	0.0161089
899.442	0.0164098
899.520	0.0167798
899.598	0.0168945
899.676	0.0172565
899.754	0.0175565
899.832	0.0179167
899.910	0.0181318
899.988	0.0182295
900.067	0.0184859
900.145	0.0185538
900.223	0.0186519
900.301	0.0187839
900.379	0.0187454
900.457	0.0186914
900.535	0.0185756
900.613	0.0185612
900.692	0.0185189
900.770	0.0182828
900.848	0.0181306
900.926	0.0182994
901.004	0.0180796
901.082	0.0179285
901.160	0.0178109
901.238	0.0175224
901.317	0.0174985
901.395	0.0173999
901.473	0.0173069
901.551	0.0171951
901.629	0.0172719
901.707	0.0171590
901.785	0.0170207
901.863	0.0169980
901.942	0.0170804
902.020	0.0169688
902.098	0.0171265
902.176	0.0169672
902.254	0.0169351
902.332	0.0167400
902.410	0.0166423
902.488	0.0165832
902.567	0.0165508
902.645	0.0166174
902.723	0.0164688
902.801	0.0164845
902.879	0.0162130
902.957	0.0161729
903.035	0.0163315
903.113	0.0162917
903.192	0.0162375
903.270	0.0160925
903.348	0.0160598
903.426	0.0160320
903.504	0.0160563
903.582	0.0160719
903.660	0.0161034
903.738	0.0162153
903.817	0.0161761
903.895	0.0161422
903.973	0.0162588
904.051	0.0162725
904.129	0.0163248
904.207	0.0164185
904.285	0.0163469
904.363	0.0164006
904.442	0.0163808
904.520	0.0162263
904.598	0.0161917
904.676	0.0163057
904.754	0.0163114
904.832	0.0164079
904.910	0.0162782
904.988	0.0163464
905.067	0.0164665
905.145	0.0163968
905.223	0.0164830
905.301	0.0163424
905.379	0.0163307
905.457	0.0165012
905.535	0.0165243
905.613	0.0165970
905.692	0.0163097
905.770	0.0164421
905.848	0.0163350
905.926	0.0163156
906.004	0.0164474
906.082	0.0165296
906.160	0.0164695
906.238	0.0164532
906.317	0.0164867
906.395	0.0165961
906.473	0.0166012
906.551	0.0167290
906.629	0.0167937
906.707	0.0169453
906.785	0.0170270
906.863	0.0170528
906.942	0.0169209
907.020	0.0171630
907.098	0.0172196
907.176	0.0171807
907.254	0.0170329
907.332	0.0172452
907.410	0.0171771
907.488	0.0171604
907.567	0.0170302
907.645	0.0169940
907.723	0.0168956
907.801	0.0170278
907.879	0.0169624
907.957	0.0169577
908.035	0.0168836
908.113	0.0169370
908.192	0.0170306
908.270	0.0171989
908.348	0.0172127
908.426	0.0172807
908.504	0.0172604
908.582	0.0174226
908.660	0.0174367
908.738	0.0173686
908.817	0.0173989
908.895	0.0175472
908.973	0.0173582
909.051	0.0173740
909.129	0.0171905
909.207	0.0172240
909.285	0.0172989
909.363	0.0173020
909.442	0.0170848
909.520	0.0171014
909.598	0.0171704
909.676	0.0169986
909.754	0.0169244
909.832	0.0168817
909.910	0.0169535
909.988	0.0169080
910.067	0.0168373
910.145	0.0169366
910.223	0.0168824
910.301	0.0169851
910.379	0.0168093
910.457	0.0166975
910.535	0.0167140
910.613	0.0166725
910.692	0.0166118
910.770	0.0165408
910.848	0.0165128
910.926	0.0163839
911.004	0.0164254
911.082	0.0163445
911.160	0.0164677
911.238	0.0164618
911.317	0.0163094
911.395	0.0163918
911.473	0.0165536
911.551	0.0165076
911.629	0.0164783
911.707	0.0166283
911.785	0.0167036
911.863	0.0166943
911.942	0.0165881
912.020	0.0167221
912.098	0.0167391
912.176	0.0168470
912.254	0.0169142
912.332	0.0167899
912.410	0.0167834
912.488	0.0168389
912.567	0.0169286
912.645	0.0167378
912.723	0.0169032
912.801	0.0168457
912.879	0.0169379
912.957	0.0167709
913.035	0.0168766
913.113	0.0166580
913.192	0.0166163
913.270	0.0167871
913.348	0.0167210
913.426	0.0166161
913.504	0.0164103
913.582	0.0165130
913.660	0.0166019
913.738	0.0163945
913.817	0.0163742
913.895	0.0162976
913.973	0.0163368
914.051	0.0164859
914.129	0.0162403
914.207	0.0163535
914.285	0.0163983
914.363	0.0162822
914.442	0.0163481
914.520	0.0162393
914.598	0.0163147
914.676	0.0162414
914.754	0.0163256
914.832	0.0162922
914.910	0.0162926
914.988	0.0162560
915.067	0.0163448
915.145	0.0162406
915.223	0.0163663
915.301	0.0163468
915.379	0.0163969
915.457	0.0163840
915.535	0.0163607
915.613	0.0164276
915.692	0.0165189
915.770	0.0164511
915.848	0.0164805
915.926	0.0165249
916.004	0.0165643
916.082	0.0163124
916.160	0.0165302
916.238	0.0165710
916.317	0.0164868
916.395	0.0166438
916.473	0.0166576
916.551	0.0167883
916.629	0.0168602
916.707	0.0169809
916.785	0.0172002
916.863	0.0173640
916.942	0.0175974
917.020	0.0175645
917.098	0.0176868
917.176	0.0179913
917.254	0.0180703
917.332	0.0181737
917.410	0.0182738
917.488	0.0184193
917.567	0.0184150
917.645	0.0182572
917.723	0.0182627
917.801	0.0183085
917.879	0.0183685
917.957	0.0179774
918.035	0.0180116
918.113	0.0179417
918.192	0.0177701
918.270	0.0177592
918.348	0.0175383
918.426	0.0173981
918.504	0.0173987
918.582	0.0172779
918.660	0.0170944
918.738	0.0169380
918.817	0.0168771
918.895	0.0169319
918.973	0.0168210
919.051	0.0165842
919.129	0.0164838
919.207	0.0165105
919.285	0.0164423
919.363	0.0163120
919.442	0.0163238
919.520	0.0162406
919.598	0.0160745
919.676	0.0161825
919.754	0.0161944
919.832	0.0160152
919.910	0.0159802
