05/14/2022	16:48:32	Ver.	4.1	UNKNOWN
Optical Delay	639.989416	Delta X		0.078125	Sweeps	1	Scan Rate	0/0
Coordinates	Axis 1	NaN	Axis 2	NaN	Axis 3	NaN	Axis 4	NaN	Axis 5	NaN	Axis 6	0.000000
TX Power	0.000000	RX Power	0.000000

639.989	0.0137945
640.068	0.0137727
640.146	0.0137918
640.224	0.0136878
640.302	0.0137462
640.380	0.0136835
640.458	0.0138677
640.536	0.0137582
640.614	0.0136658
640.693	0.0137360
640.771	0.0138425
640.849	0.0137362
640.927	0.0137935
641.005	0.0138754
641.083	0.0137847
641.161	0.0136843
641.239	0.0137385
641.318	0.0139226
641.396	0.0139492
641.474	0.0137694
641.552	0.0137525
641.630	0.0137199
641.708	0.0137600
641.786	0.0138021
641.864	0.0138805
641.943	0.0137048
642.021	0.0136980
642.099	0.0137041
642.177	0.0137695
642.255	0.0137289
642.333	0.0137163
642.411	0.0136072
642.489	0.0136531
642.568	0.0137488
642.646	0.0138017
642.724	0.0138549
642.802	0.0136996
642.880	0.0137041
642.958	0.0137100
643.036	0.0137401
643.114	0.0137833
643.193	0.0138474
643.271	0.0138745
643.349	0.0138268
643.427	0.0138100
643.505	0.0138913
643.583	0.0138902
643.661	0.0139584
643.739	0.0140343
643.818	0.0139153
643.896	0.0140242
643.974	0.0139856
644.052	0.0140061
644.130	0.0140596
644.208	0.0139313
644.286	0.0138220
644.364	0.0138432
644.443	0.0137720
644.521	0.0138161
644.599	0.0137170
644.677	0.0138226
644.755	0.0137868
644.833	0.0139999
644.911	0.0139413
644.989	0.0137247
645.068	0.0136752
645.146	0.0138036
645.224	0.0137808
645.302	0.0137485
645.380	0.0138155
645.458	0.0137434
645.536	0.0136686
645.614	0.0138019
645.693	0.0137506
645.771	0.0137299
645.849	0.0137093
645.927	0.0137609
646.005	0.0137887
646.083	0.0136767
646.161	0.0136400
646.239	0.0136845
646.318	0.0136632
646.396	0.0137530
646.474	0.0138607
646.552	0.0137321
646.630	0.0138608
646.708	0.0138791
646.786	0.0138992
646.864	0.0137380
646.943	0.0137873
647.021	0.0137792
647.099	0.0137271
647.177	0.0138385
647.255	0.0138610
647.333	0.0139133
647.411	0.0138643
647.489	0.0138515
647.568	0.0138732
647.646	0.0139320
647.724	0.0138668
647.802	0.0138537
647.880	0.0138807
647.958	0.0138815
648.036	0.0139509
648.114	0.0140495
648.193	0.0139456
648.271	0.0137851
648.349	0.0139470
648.427	0.0139462
648.505	0.0139774
648.583	0.0138923
648.661	0.0138915
648.739	0.0139648
648.818	0.0139243
648.896	0.0139714
648.974	0.0140419
649.052	0.0140851
649.130	0.0138190
649.208	0.0140107
649.286	0.0139162
649.364	0.0140548
649.443	0.0140401
649.521	0.0138709
649.599	0.0139034
649.677	0.0137951
649.755	0.0139318
649.833	0.0138680
649.911	0.0139835
649.989	0.0138717
650.068	0.0138763
650.146	0.0139156
650.224	0.0137868
650.302	0.0139107
650.380	0.0138773
650.458	0.0137103
650.536	0.0137115
650.614	0.0136952
650.693	0.0138836
650.771	0.0137433
650.849	0.0137286
650.927	0.0138480
651.005	0.0138525
651.083	0.0136131
651.161	0.0136716
651.239	0.0136691
651.318	0.0136438
651.396	0.0138766
651.474	0.0137852
651.552	0.0137311
651.630	0.0137436
651.708	0.0137936
651.786	0.0135857
651.864	0.0137691
651.943	0.0137960
652.021	0.0136401
652.099	0.0137560
652.177	0.0137273
652.255	0.0136101
652.333	0.0136735
652.411	0.0137450
652.489	0.0136315
652.568	0.0137416
652.646	0.0136620
652.724	0.0135585
652.802	0.0137629
652.880	0.0136680
652.958	0.0136874
653.036	0.0136385
653.114	0.0137814
653.193	0.0135105
653.271	0.0138065
653.349	0.0136538
653.427	0.0136425
653.505	0.0135841
653.583	0.0136507
653.661	0.0137539
653.739	0.0136480
653.818	0.0136300
653.896	0.0138318
653.974	0.0136185
654.052	0.0136982
654.130	0.0136145
654.208	0.0138342
654.286	0.0137582
654.364	0.0136095
654.443	0.0139356
654.521	0.0137794
654.599	0.0136954
654.677	0.0137013
654.755	0.0138646
654.833	0.0137682
654.911	0.0136612
654.989	0.0137935
655.068	0.0137395
655.146	0.0136864
655.224	0.0137756
655.302	0.0137222
655.380	0.0137231
655.458	0.0136490
655.536	0.0137666
655.614	0.0137379
655.693	0.0136548
655.771	0.0137524
655.849	0.0137257
655.927	0.0136707
656.005	0.0136617
656.083	0.0137309
656.161	0.0137584
656.239	0.0137509
656.318	0.0137354
656.396	0.0137756
656.474	0.0137575
656.552	0.0136617
656.630	0.0137234
656.708	0.0136922
656.786	0.0138232
656.864	0.0138837
656.943	0.0138718
657.021	0.0136465
657.099	0.0138874
657.177	0.0137292
657.255	0.0137856
657.333	0.0137267
657.411	0.0137409
657.489	0.0136849
657.568	0.0137666
657.646	0.0138333
657.724	0.0138406
657.802	0.0137841
657.880	0.0136581
657.958	0.0136741
658.036	0.0138583
658.114	0.0138387
658.193	0.0138407
658.271	0.0136777
658.349	0.0138277
658.427	0.0139135
658.505	0.0138464
658.583	0.0137544
658.661	0.0138773
658.739	0.0138026
658.818	0.0137648
658.896	0.0138532
658.974	0.0137300
659.052	0.0137473
659.130	0.0135616
659.208	0.0136927
659.286	0.0137098
659.364	0.0136306
659.443	0.0137299
659.521	0.0139176
659.599	0.0136332
659.677	0.0136295
659.755	0.0136472
659.833	0.0137376
659.911	0.0137249
659.989	0.0136054
660.068	0.0137624
660.146	0.0136947
660.224	0.0136762
660.302	0.0136289
660.380	0.0137503
660.458	0.0137429
660.536	0.0135668
660.614	0.0135723
660.693	0.0135723
660.771	0.0136012
660.849	0.0136127
660.927	0.0136140
661.005	0.0136205
661.083	0.0136136
661.161	0.0135416
661.239	0.0136845
661.318	0.0135857
661.396	0.0136576
661.474	0.0135057
661.552	0.0137212
661.630	0.0138265
661.708	0.0137057
661.786	0.0136706
661.864	0.0138141
661.943	0.0138314
662.021	0.0138361
662.099	0.0138197
662.177	0.0137671
662.255	0.0138360
662.333	0.0139910
662.411	0.0137823
662.489	0.0138449
662.568	0.0137269
662.646	0.0138974
662.724	0.0138743
662.802	0.0139068
662.880	0.0138421
662.958	0.0140227
663.036	0.0139075
663.114	0.0138408
663.193	0.0138446
663.271	0.0138390
663.349	0.0140115
663.427	0.0139666
663.505	0.0138307
663.583	0.0138673
663.661	0.0138004
663.739	0.0137782
663.818	0.0137223
663.896	0.0136681
663.974	0.0136393
664.052	0.0135370
664.130	0.0136205
664.208	0.0135249
664.286	0.0135354
664.364	0.0135646
664.443	0.0136686
664.521	0.0136223
664.599	0.0135702
664.677	0.0135449
664.755	0.0135378
664.833	0.0136335
664.911	0.0137634
664.989	0.0137163
665.068	0.0136423
665.146	0.0136461
665.224	0.0137400
665.302	0.0138163
665.380	0.0138968
665.458	0.0140942
665.536	0.0139944
665.614	0.0140797
665.693	0.0140796
665.771	0.0140974
665.849	0.0142248
665.927	0.0143540
666.005	0.0143372
666.083	0.0143781
666.161	0.0141516
666.239	0.0142313
666.318	0.0141818
666.396	0.0140984
666.474	0.0141084
666.552	0.0138712
666.630	0.0137952
666.708	0.0137802
666.786	0.0136639
666.864	0.0136912
666.943	0.0134775
667.021	0.0134776
667.099	0.0132064
667.177	0.0131985
667.255	0.0133480
667.333	0.0132716
667.411	0.0132248
667.489	0.0131947
667.568	0.0132427
667.646	0.0131564
667.724	0.0134633
667.802	0.0135860
667.880	0.0135223
667.958	0.0136410
668.036	0.0137170
668.114	0.0139103
668.193	0.0138127
668.271	0.0141576
668.349	0.0142070
668.427	0.0143961
668.505	0.0145895
668.583	0.0146040
668.661	0.0146606
668.739	0.0147602
668.818	0.0146852
668.896	0.0145778
668.974	0.0145874
669.052	0.0146660
669.130	0.0143671
669.208	0.0144456
669.286	0.0142975
669.364	0.0141589
669.443	0.0140218
669.521	0.0139479
669.599	0.0138424
669.677	0.0136741
669.755	0.0134887
669.833	0.0133831
669.911	0.0134025
669.989	0.0132502
670.068	0.0131319
670.146	0.0132226
670.224	0.0130894
670.302	0.0130275
670.380	0.0129442
670.458	0.0131385
670.536	0.0131479
670.614	0.0132114
670.693	0.0131940
670.771	0.0132032
670.849	0.0133980
670.927	0.0135512
671.005	0.0134714
671.083	0.0136857
671.161	0.0138719
671.239	0.0139960
671.318	0.0142487
671.396	0.0142677
671.474	0.0143420
671.552	0.0145013
671.630	0.0146514
671.708	0.0147378
671.786	0.0146051
671.864	0.0146776
671.943	0.0147371
672.021	0.0147594
672.099	0.0148737
672.177	0.0148109
672.255	0.0147190
672.333	0.0147083
672.411	0.0145657
672.489	0.0145920
672.568	0.0143346
672.646	0.0142035
672.724	0.0141129
672.802	0.0139188
672.880	0.0137099
672.958	0.0136768
673.036	0.0134521
673.114	0.0133497
673.193	0.0132932
673.271	0.0131959
673.349	0.0128631
673.427	0.0128917
673.505	0.0127466
673.583	0.0128409
673.661	0.0127596
673.739	0.0125228
673.818	0.0127830
673.896	0.0128154
673.974	0.0128436
674.052	0.0129446
674.130	0.0128919
674.208	0.0129523
674.286	0.0131738
674.364	0.0132363
674.443	0.0134702
674.521	0.0135841
674.599	0.0136619
674.677	0.0139565
674.755	0.0140955
674.833	0.0143899
674.911	0.0145846
674.989	0.0147449
675.068	0.0148980
675.146	0.0150655
675.224	0.0152467
675.302	0.0152663
675.380	0.0153070
675.458	0.0150548
675.536	0.0152583
675.614	0.0151353
675.693	0.0150982
675.771	0.0149571
675.849	0.0148489
675.927	0.0146587
676.005	0.0145022
676.083	0.0142821
676.161	0.0139255
676.239	0.0136292
676.318	0.0135221
676.396	0.0131989
676.474	0.0130801
676.552	0.0128878
676.630	0.0126296
676.708	0.0126772
676.786	0.0125142
676.864	0.0123685
676.943	0.0123318
677.021	0.0122578
677.099	0.0121326
677.177	0.0123344
677.255	0.0124882
677.333	0.0123846
677.411	0.0126572
677.489	0.0126633
677.568	0.0128477
677.646	0.0130923
677.724	0.0133099
677.802	0.0134948
677.880	0.0137979
677.958	0.0139073
678.036	0.0141650
678.114	0.0141267
678.193	0.0143492
678.271	0.0145167
678.349	0.0144972
678.427	0.0146117
678.505	0.0146353
678.583	0.0146752
678.661	0.0146564
678.739	0.0143404
678.818	0.0144252
678.896	0.0144608
678.974	0.0143243
679.052	0.0142899
679.130	0.0141754
679.208	0.0141747
679.286	0.0141322
679.364	0.0140929
679.443	0.0139043
679.521	0.0138857
679.599	0.0137083
679.677	0.0137039
679.755	0.0138094
679.833	0.0137183
679.911	0.0136944
679.989	0.0138591
680.068	0.0137765
680.146	0.0137734
680.224	0.0138551
680.302	0.0139811
680.380	0.0138120
680.458	0.0138531
680.536	0.0138367
680.614	0.0138220
680.693	0.0138797
680.771	0.0138206
680.849	0.0138940
680.927	0.0139447
681.005	0.0139007
681.083	0.0138168
681.161	0.0137310
681.239	0.0138229
681.318	0.0138557
681.396	0.0136736
681.474	0.0136366
681.552	0.0136088
681.630	0.0136995
681.708	0.0135426
681.786	0.0134102
681.864	0.0135014
681.943	0.0133936
682.021	0.0131629
682.099	0.0131731
682.177	0.0131567
682.255	0.0132305
682.333	0.0130206
682.411	0.0129790
682.489	0.0131566
682.568	0.0131644
682.646	0.0131686
682.724	0.0132383
682.802	0.0133408
682.880	0.0132455
682.958	0.0133511
683.036	0.0134922
683.114	0.0132883
683.193	0.0134478
683.271	0.0134736
683.349	0.0134936
683.427	0.0136309
683.505	0.0136945
683.583	0.0136051
683.661	0.0137121
683.739	0.0138134
683.818	0.0139684
683.896	0.0138201
683.974	0.0140720
684.052	0.0142242
684.130	0.0142281
684.208	0.0142172
684.286	0.0143020
684.364	0.0143709
684.443	0.0144809
684.521	0.0146947
684.599	0.0146363
684.677	0.0146841
684.755	0.0146252
684.833	0.0146472
684.911	0.0148488
684.989	0.0147459
685.068	0.0146304
685.146	0.0148163
685.224	0.0147868
685.302	0.0149986
685.380	0.0147901
685.458	0.0146684
685.536	0.0146727
685.614	0.0145564
685.693	0.0144605
685.771	0.0143632
685.849	0.0140724
685.927	0.0139651
686.005	0.0138168
686.083	0.0135233
686.161	0.0133915
686.239	0.0131377
686.318	0.0128646
686.396	0.0127868
686.474	0.0124882
686.552	0.0123108
686.630	0.0122477
686.708	0.0122058
686.786	0.0121506
686.864	0.0120148
686.943	0.0120905
687.021	0.0120216
687.099	0.0121204
687.177	0.0120894
687.255	0.0120412
687.333	0.0122256
687.411	0.0122990
687.489	0.0124723
687.568	0.0126582
687.646	0.0127558
687.724	0.0128351
687.802	0.0129362
687.880	0.0131478
687.958	0.0132896
688.036	0.0134567
688.114	0.0135914
688.193	0.0137823
688.271	0.0138513
688.349	0.0138863
688.427	0.0140376
688.505	0.0141499
688.583	0.0143044
688.661	0.0142593
688.739	0.0143501
688.818	0.0144826
688.896	0.0143707
688.974	0.0144749
689.052	0.0144145
689.130	0.0142796
689.208	0.0143085
689.286	0.0142793
689.364	0.0143939
689.443	0.0143777
689.521	0.0143417
689.599	0.0144410
689.677	0.0145306
689.755	0.0146130
689.833	0.0146287
689.911	0.0147930
689.989	0.0148921
690.068	0.0149029
690.146	0.0150446
690.224	0.0152092
690.302	0.0151601
690.380	0.0152074
690.458	0.0151651
690.536	0.0152348
690.614	0.0152000
690.693	0.0150335
690.771	0.0149380
690.849	0.0148346
690.927	0.0146066
691.005	0.0143745
691.083	0.0142413
691.161	0.0139932
691.239	0.0135657
691.318	0.0131406
691.396	0.0129401
691.474	0.0126907
691.552	0.0125055
691.630	0.0122130
691.708	0.0119917
691.786	0.0119208
691.864	0.0116163
691.943	0.0112828
692.021	0.0114168
692.099	0.0112161
692.177	0.0112366
692.255	0.0111906
692.333	0.0113050
692.411	0.0113310
692.489	0.0114014
692.568	0.0116098
692.646	0.0117555
692.724	0.0120229
692.802	0.0120958
692.880	0.0124341
692.958	0.0127203
693.036	0.0129529
693.114	0.0133732
693.193	0.0136352
693.271	0.0139133
693.349	0.0141354
693.427	0.0144991
693.505	0.0146871
693.583	0.0148837
693.661	0.0150695
693.739	0.0152574
693.818	0.0154187
693.896	0.0154752
693.974	0.0155419
694.052	0.0158440
694.130	0.0157794
694.208	0.0156973
694.286	0.0157811
694.364	0.0157813
694.443	0.0157086
694.521	0.0157525
694.599	0.0156483
694.677	0.0156024
694.755	0.0155503
694.833	0.0154435
694.911	0.0153640
694.989	0.0152872
695.068	0.0150222
695.146	0.0149837
695.224	0.0148371
695.302	0.0148255
695.380	0.0147500
695.458	0.0146100
695.536	0.0144738
695.614	0.0144857
695.693	0.0144066
695.771	0.0141414
695.849	0.0142728
695.927	0.0140656
696.005	0.0139897
696.083	0.0138771
696.161	0.0138182
696.239	0.0136327
696.318	0.0133862
696.396	0.0132862
696.474	0.0130708
696.552	0.0127802
696.630	0.0126695
696.708	0.0125274
696.786	0.0123702
696.864	0.0120424
696.943	0.0117909
697.021	0.0118581
697.099	0.0114255
697.177	0.0114844
697.255	0.0115009
697.333	0.0112350
697.411	0.0112691
697.489	0.0113285
697.568	0.0112231
697.646	0.0113369
697.724	0.0116046
697.802	0.0114659
697.880	0.0117690
697.958	0.0118541
698.036	0.0119286
698.114	0.0121156
698.193	0.0124088
698.271	0.0125632
698.349	0.0127773
698.427	0.0129646
698.505	0.0132986
698.583	0.0135023
698.661	0.0136617
698.739	0.0139585
698.818	0.0141470
698.896	0.0143665
698.974	0.0143919
699.052	0.0145714
699.130	0.0147269
699.208	0.0149328
699.286	0.0149672
699.364	0.0151709
699.443	0.0151746
699.521	0.0152621
699.599	0.0155428
699.677	0.0156063
699.755	0.0156541
699.833	0.0156937
699.911	0.0159101
699.989	0.0161343
700.068	0.0159451
700.146	0.0158084
700.224	0.0158576
700.302	0.0160881
700.380	0.0159772
700.458	0.0158755
700.536	0.0159160
700.614	0.0156934
700.693	0.0156631
700.771	0.0155840
700.849	0.0152338
700.927	0.0150941
701.005	0.0149189
701.083	0.0147009
701.161	0.0147259
701.239	0.0144433
701.318	0.0143259
701.396	0.0139513
701.474	0.0138095
701.552	0.0135778
701.630	0.0135129
701.708	0.0132253
701.786	0.0131433
701.864	0.0130644
701.943	0.0129796
702.021	0.0126825
702.099	0.0125113
702.177	0.0124327
702.255	0.0122557
702.333	0.0120001
702.411	0.0121039
702.489	0.0119553
702.568	0.0118383
702.646	0.0116592
702.724	0.0115976
702.802	0.0115522
702.880	0.0113349
702.958	0.0113672
703.036	0.0114549
703.114	0.0112558
703.193	0.0112876
703.271	0.0114893
703.349	0.0115251
703.427	0.0114569
703.505	0.0116764
703.583	0.0118299
703.661	0.0119420
703.739	0.0122766
703.818	0.0124478
703.896	0.0126050
703.974	0.0127688
704.052	0.0129378
704.130	0.0131348
704.208	0.0132839
704.286	0.0135838
704.364	0.0137086
704.443	0.0139555
704.521	0.0141178
704.599	0.0143825
704.677	0.0146857
704.755	0.0146552
704.833	0.0150276
704.911	0.0151151
704.989	0.0153672
705.068	0.0155183
705.146	0.0158947
705.224	0.0161085
705.302	0.0160225
705.380	0.0163171
705.458	0.0164379
705.536	0.0165202
705.614	0.0165273
705.693	0.0165376
705.771	0.0166391
705.849	0.0164156
705.927	0.0163644
706.005	0.0162888
706.083	0.0161564
706.161	0.0161785
706.239	0.0161031
706.318	0.0158475
706.396	0.0157830
706.474	0.0154289
706.552	0.0153266
706.630	0.0150107
706.708	0.0147466
706.786	0.0144646
706.864	0.0141850
706.943	0.0139239
707.021	0.0136605
707.099	0.0134982
707.177	0.0131349
707.255	0.0128191
707.333	0.0126140
707.411	0.0125224
707.489	0.0123094
707.568	0.0120256
707.646	0.0118810
707.724	0.0117810
707.802	0.0114965
707.880	0.0112560
707.958	0.0112849
708.036	0.0110730
708.114	0.0110408
708.193	0.0108563
708.271	0.0108113
708.349	0.0107557
708.427	0.0108500
708.505	0.0107641
708.583	0.0109840
708.661	0.0109053
708.739	0.0110262
708.818	0.0111764
708.896	0.0112969
708.974	0.0114632
709.052	0.0114928
709.130	0.0118195
709.208	0.0119819
709.286	0.0121552
709.364	0.0123799
709.443	0.0126959
709.521	0.0127984
709.599	0.0130570
709.677	0.0133826
709.755	0.0135671
709.833	0.0138324
709.911	0.0141599
709.989	0.0143726
710.068	0.0145542
710.146	0.0148332
710.224	0.0149257
710.302	0.0151926
710.380	0.0152972
710.458	0.0154377
710.536	0.0155970
710.614	0.0155682
710.693	0.0158271
710.771	0.0159432
710.849	0.0160345
710.927	0.0160953
711.005	0.0161369
711.083	0.0162131
711.161	0.0162598
711.239	0.0163219
711.318	0.0161565
711.396	0.0162658
711.474	0.0163302
711.552	0.0160944
711.630	0.0160713
711.708	0.0161055
711.786	0.0159372
711.864	0.0158005
711.943	0.0156688
712.021	0.0156440
712.099	0.0154229
712.177	0.0153127
712.255	0.0150047
712.333	0.0148595
712.411	0.0147343
712.489	0.0145368
712.568	0.0142632
712.646	0.0140262
712.724	0.0138348
712.802	0.0136652
712.880	0.0133932
712.958	0.0133114
713.036	0.0128560
713.114	0.0127299
713.193	0.0125844
713.271	0.0122199
713.349	0.0121465
713.427	0.0118452
713.505	0.0116556
713.583	0.0115912
713.661	0.0114269
713.739	0.0112997
713.818	0.0111114
713.896	0.0111106
713.974	0.0109294
714.052	0.0108115
714.130	0.0106978
714.208	0.0109143
714.286	0.0108921
714.364	0.0108089
714.443	0.0108566
714.521	0.0110500
714.599	0.0111939
714.677	0.0111977
714.755	0.0114373
714.833	0.0117434
714.911	0.0117902
714.989	0.0120910
715.068	0.0123551
715.146	0.0127045
715.224	0.0129014
715.302	0.0132610
715.380	0.0136993
715.458	0.0140252
715.536	0.0141475
715.614	0.0143989
715.693	0.0148172
715.771	0.0151705
715.849	0.0154781
715.927	0.0155684
716.005	0.0160310
716.083	0.0160278
716.161	0.0162063
716.239	0.0162950
716.318	0.0164893
716.396	0.0165170
716.474	0.0164731
716.552	0.0165547
716.630	0.0165720
716.708	0.0164938
716.786	0.0164036
716.864	0.0162263
716.943	0.0160606
717.021	0.0159929
717.099	0.0157166
717.177	0.0153459
717.255	0.0153019
717.333	0.0151572
717.411	0.0149068
717.489	0.0146255
717.568	0.0142286
717.646	0.0139788
717.724	0.0136855
717.802	0.0136165
717.880	0.0133882
717.958	0.0132271
718.036	0.0131073
718.114	0.0129468
718.193	0.0127932
718.271	0.0128642
718.349	0.0127396
718.427	0.0125253
718.505	0.0124861
718.583	0.0125640
718.661	0.0123685
718.739	0.0126758
718.818	0.0125072
718.896	0.0123865
718.974	0.0126009
719.052	0.0123296
719.130	0.0123185
719.208	0.0124703
719.286	0.0124523
719.364	0.0124082
719.443	0.0125480
719.521	0.0125751
719.599	0.0126568
719.677	0.0125739
719.755	0.0125034
719.833	0.0124876
719.911	0.0125757
719.989	0.0127439
720.068	0.0128201
720.146	0.0127425
720.224	0.0127780
720.302	0.0128284
720.380	0.0130286
720.458	0.0130149
720.536	0.0130850
720.614	0.0132314
720.693	0.0134954
720.771	0.0133735
720.849	0.0134067
720.927	0.0136498
721.005	0.0138432
721.083	0.0138511
721.161	0.0139399
721.239	0.0139695
721.318	0.0141306
721.396	0.0141011
721.474	0.0141224
721.552	0.0143531
721.630	0.0143818
721.708	0.0142715
721.786	0.0143786
721.864	0.0143002
721.943	0.0141875
722.021	0.0143519
722.099	0.0141990
722.177	0.0141627
722.255	0.0141396
722.333	0.0140166
722.411	0.0141579
722.489	0.0140508
722.568	0.0140356
722.646	0.0140951
722.724	0.0142188
722.802	0.0139793
722.880	0.0142007
722.958	0.0141621
723.036	0.0143472
723.114	0.0143131
723.193	0.0143272
723.271	0.0144888
723.349	0.0145929
723.427	0.0145372
723.505	0.0145414
723.583	0.0147225
723.661	0.0145400
723.739	0.0147439
723.818	0.0145870
723.896	0.0144656
723.974	0.0146465
724.052	0.0146177
724.130	0.0144388
724.208	0.0143864
724.286	0.0142023
724.364	0.0141281
724.443	0.0140765
724.521	0.0138912
724.599	0.0138030
724.677	0.0136884
724.755	0.0135896
724.833	0.0134894
724.911	0.0133580
724.989	0.0133456
725.068	0.0130910
725.146	0.0130312
725.224	0.0129996
725.302	0.0130247
725.380	0.0128543
725.458	0.0128104
725.536	0.0129124
725.614	0.0128666
725.693	0.0128043
725.771	0.0129655
725.849	0.0127363
725.927	0.0128866
726.005	0.0129288
726.083	0.0129556
726.161	0.0130262
726.239	0.0129061
726.318	0.0130266
726.396	0.0129206
726.474	0.0129975
726.552	0.0130544
726.630	0.0130491
726.708	0.0131333
726.786	0.0132570
726.864	0.0131793
726.943	0.0132053
727.021	0.0133216
727.099	0.0131976
727.177	0.0132698
727.255	0.0133835
727.333	0.0132514
727.411	0.0132671
727.489	0.0133558
727.568	0.0134365
727.646	0.0135048
727.724	0.0134856
727.802	0.0135973
727.880	0.0135230
727.958	0.0135349
728.036	0.0137075
728.114	0.0137576
728.193	0.0139464
728.271	0.0140331
728.349	0.0142022
728.427	0.0140871
728.505	0.0140818
728.583	0.0143432
728.661	0.0142668
728.739	0.0143340
728.818	0.0143394
728.896	0.0146018
728.974	0.0143907
729.052	0.0144609
729.130	0.0145296
729.208	0.0143950
729.286	0.0143073
729.364	0.0144804
729.443	0.0143687
729.521	0.0142637
729.599	0.0142313
729.677	0.0142133
729.755	0.0142107
729.833	0.0141807
729.911	0.0141392
729.989	0.0139780
730.068	0.0140911
730.146	0.0141490
730.224	0.0140987
730.302	0.0140157
730.380	0.0140554
730.458	0.0140563
730.536	0.0140360
730.614	0.0140595
730.693	0.0140457
730.771	0.0140320
730.849	0.0141988
730.927	0.0141714
731.005	0.0141950
731.083	0.0141610
731.161	0.0142449
731.239	0.0142037
731.318	0.0139896
731.396	0.0140240
731.474	0.0138773
731.552	0.0138451
731.630	0.0137478
731.708	0.0138089
731.786	0.0136919
731.864	0.0135186
731.943	0.0134122
732.021	0.0134348
732.099	0.0134372
732.177	0.0132632
732.255	0.0131171
732.333	0.0131346
732.411	0.0131384
732.489	0.0129740
732.568	0.0127811
732.646	0.0127902
732.724	0.0127089
732.802	0.0125954
732.880	0.0125179
732.958	0.0125603
733.036	0.0126260
733.114	0.0124415
733.193	0.0124323
733.271	0.0124083
733.349	0.0124722
733.427	0.0126142
733.505	0.0127894
733.583	0.0127384
733.661	0.0129472
733.739	0.0131081
733.818	0.0132256
733.896	0.0133576
733.974	0.0135344
734.052	0.0135032
734.130	0.0138887
734.208	0.0139265
734.286	0.0140895
734.364	0.0141425
734.443	0.0143391
734.521	0.0145454
734.599	0.0143697
734.677	0.0145158
734.755	0.0145776
734.833	0.0147989
734.911	0.0149642
734.989	0.0145898
735.068	0.0146154
735.146	0.0147172
735.224	0.0147736
735.302	0.0148007
735.380	0.0149226
735.458	0.0148696
735.536	0.0147607
735.614	0.0149315
735.693	0.0150076
735.771	0.0149223
735.849	0.0148695
735.927	0.0148388
736.005	0.0147992
736.083	0.0148579
736.161	0.0149346
736.239	0.0148843
736.318	0.0147949
736.396	0.0147024
736.474	0.0148109
736.552	0.0147290
736.630	0.0145985
736.708	0.0144356
736.786	0.0143454
736.864	0.0144467
736.943	0.0143848
737.021	0.0141409
737.099	0.0140147
737.177	0.0138582
737.255	0.0138146
737.333	0.0135986
737.411	0.0134592
737.489	0.0133167
737.568	0.0130729
737.646	0.0129207
737.724	0.0129386
737.802	0.0126740
737.880	0.0126315
737.958	0.0124396
738.036	0.0124404
738.114	0.0124312
738.193	0.0123884
738.271	0.0123834
738.349	0.0123013
738.427	0.0122372
738.505	0.0122617
738.583	0.0123071
738.661	0.0124419
738.739	0.0125365
738.818	0.0125521
738.896	0.0125657
738.974	0.0127310
739.052	0.0127969
739.130	0.0128530
739.208	0.0128889
739.286	0.0130437
739.364	0.0131420
739.443	0.0131271
739.521	0.0133882
739.599	0.0134620
739.677	0.0135789
739.755	0.0135999
739.833	0.0136772
739.911	0.0138319
739.989	0.0139577
740.068	0.0142136
740.146	0.0142921
740.224	0.0143793
740.302	0.0143754
740.380	0.0144100
740.458	0.0145639
740.536	0.0147176
740.614	0.0146982
740.693	0.0147092
740.771	0.0148303
740.849	0.0147733
740.927	0.0148112
741.005	0.0148363
741.083	0.0148522
741.161	0.0148891
741.239	0.0148732
741.318	0.0146976
741.396	0.0147462
741.474	0.0146893
741.552	0.0146930
741.630	0.0146346
741.708	0.0145987
741.786	0.0143704
741.864	0.0144791
741.943	0.0144210
742.021	0.0143457
742.099	0.0144106
742.177	0.0141511
742.255	0.0140359
742.333	0.0139160
742.411	0.0139115
742.489	0.0139224
742.568	0.0136950
742.646	0.0137238
742.724	0.0136175
742.802	0.0135956
742.880	0.0136548
742.958	0.0134695
743.036	0.0133331
743.114	0.0134113
743.193	0.0132356
743.271	0.0131484
743.349	0.0132079
743.427	0.0132246
743.505	0.0131955
743.583	0.0130214
743.661	0.0129100
743.739	0.0129510
743.818	0.0130343
743.896	0.0129798
743.974	0.0127949
744.052	0.0127907
744.130	0.0131286
744.208	0.0130082
744.286	0.0130274
744.364	0.0130184
744.443	0.0132090
744.521	0.0132238
744.599	0.0131093
744.677	0.0133577
744.755	0.0133131
744.833	0.0134045
744.911	0.0134702
744.989	0.0135699
745.068	0.0136714
745.146	0.0135368
745.224	0.0138115
745.302	0.0139523
745.380	0.0139011
745.458	0.0140043
745.536	0.0140519
745.614	0.0141335
745.693	0.0141685
745.771	0.0141451
745.849	0.0141350
745.927	0.0142391
746.005	0.0143343
746.083	0.0142844
746.161	0.0143018
746.239	0.0144456
746.318	0.0144881
746.396	0.0144211
746.474	0.0145530
746.552	0.0146085
746.630	0.0146635
746.708	0.0145328
746.786	0.0146796
746.864	0.0144498
746.943	0.0144935
747.021	0.0147215
747.099	0.0144294
747.177	0.0145413
747.255	0.0145052
747.333	0.0143389
747.411	0.0143823
747.489	0.0141579
747.568	0.0140613
747.646	0.0139714
747.724	0.0139120
747.802	0.0139525
747.880	0.0138088
747.958	0.0135061
748.036	0.0135685
748.114	0.0134166
748.193	0.0132437
748.271	0.0132881
748.349	0.0132362
748.427	0.0130598
748.505	0.0131064
748.583	0.0132072
748.661	0.0131829
748.739	0.0130145
748.818	0.0129611
748.896	0.0131409
748.974	0.0130429
749.052	0.0130811
749.130	0.0130563
749.208	0.0131567
749.286	0.0133054
749.364	0.0133179
749.443	0.0133020
749.521	0.0133435
749.599	0.0133600
749.677	0.0133433
749.755	0.0134932
749.833	0.0136693
749.911	0.0135664
749.989	0.0136832
750.068	0.0137280
750.146	0.0136015
750.224	0.0136755
750.302	0.0138975
750.380	0.0137642
750.458	0.0138232
750.536	0.0138643
750.614	0.0138830
750.693	0.0139927
750.771	0.0139011
750.849	0.0140199
750.927	0.0141805
751.005	0.0140704
751.083	0.0139606
751.161	0.0138333
751.239	0.0139900
751.318	0.0141331
751.396	0.0141069
751.474	0.0139923
751.552	0.0140816
751.630	0.0141189
751.708	0.0140289
751.786	0.0141338
751.864	0.0140565
751.943	0.0141306
752.021	0.0139767
752.099	0.0140649
752.177	0.0140717
752.255	0.0139752
752.333	0.0141047
752.411	0.0139406
752.489	0.0140235
752.568	0.0140689
752.646	0.0139445
752.724	0.0138232
752.802	0.0138604
752.880	0.0137916
752.958	0.0139150
753.036	0.0138329
753.114	0.0139689
753.193	0.0139150
753.271	0.0137750
753.349	0.0137185
753.427	0.0139837
753.505	0.0138153
753.583	0.0139265
753.661	0.0136497
753.739	0.0137948
753.818	0.0136999
753.896	0.0137218
753.974	0.0136747
754.052	0.0136272
754.130	0.0137032
754.208	0.0136428
754.286	0.0137244
754.364	0.0137527
754.443	0.0136361
754.521	0.0137283
754.599	0.0138213
754.677	0.0138699
754.755	0.0139526
754.833	0.0137145
754.911	0.0138065
754.989	0.0138193
755.068	0.0138645
755.146	0.0139068
755.224	0.0139237
755.302	0.0136092
755.380	0.0139277
755.458	0.0139088
755.536	0.0138345
755.614	0.0138448
755.693	0.0136945
755.771	0.0138985
755.849	0.0137497
755.927	0.0137849
756.005	0.0138013
756.083	0.0137997
756.161	0.0137428
756.239	0.0137878
756.318	0.0136691
756.396	0.0136947
756.474	0.0136806
756.552	0.0136171
756.630	0.0137737
756.708	0.0136626
756.786	0.0135738
756.864	0.0135773
756.943	0.0135763
757.021	0.0135448
757.099	0.0136283
757.177	0.0135927
757.255	0.0135027
757.333	0.0134657
757.411	0.0134327
757.489	0.0136109
757.568	0.0136170
757.646	0.0137013
757.724	0.0136821
757.802	0.0136124
757.880	0.0136470
757.958	0.0138001
758.036	0.0138211
758.114	0.0138313
758.193	0.0139701
758.271	0.0139544
758.349	0.0139212
758.427	0.0140776
758.505	0.0141019
758.583	0.0142168
758.661	0.0140919
758.739	0.0142789
758.818	0.0140569
758.896	0.0141180
758.974	0.0140363
759.052	0.0141736
759.130	0.0141288
759.208	0.0141583
759.286	0.0140995
759.364	0.0141387
759.443	0.0141879
759.521	0.0142493
759.599	0.0141660
759.677	0.0141109
759.755	0.0142511
759.833	0.0141505
759.911	0.0142744
759.989	0.0142654
760.068	0.0142059
760.146	0.0141539
760.224	0.0142470
760.302	0.0142326
760.380	0.0141856
760.458	0.0141587
760.536	0.0139473
760.614	0.0139420
760.693	0.0138379
760.771	0.0138577
760.849	0.0137564
760.927	0.0137662
761.005	0.0137281
761.083	0.0135636
761.161	0.0134257
761.239	0.0134384
761.318	0.0133372
761.396	0.0134715
761.474	0.0133043
761.552	0.0133023
761.630	0.0133576
761.708	0.0133578
761.786	0.0133328
761.864	0.0134624
761.943	0.0133762
762.021	0.0133732
762.099	0.0134129
762.177	0.0133728
762.255	0.0137479
762.333	0.0136803
762.411	0.0134798
762.489	0.0136944
762.568	0.0138152
762.646	0.0136628
762.724	0.0137596
762.802	0.0137231
762.880	0.0137840
762.958	0.0137038
763.036	0.0138097
763.114	0.0137564
763.193	0.0138076
763.271	0.0138412
763.349	0.0139033
763.427	0.0139761
763.505	0.0139024
763.583	0.0141877
763.661	0.0140621
763.739	0.0139635
763.818	0.0141365
763.896	0.0141907
763.974	0.0142282
764.052	0.0142613
764.130	0.0143484
764.208	0.0142432
764.286	0.0143806
764.364	0.0143331
764.443	0.0142869
764.521	0.0143877
764.599	0.0143385
764.677	0.0141945
764.755	0.0144216
764.833	0.0143635
764.911	0.0141019
764.989	0.0142916
765.068	0.0141908
765.146	0.0140524
765.224	0.0140757
765.302	0.0138656
765.380	0.0138338
765.458	0.0137575
765.536	0.0137771
765.614	0.0135939
765.693	0.0135314
765.771	0.0135711
765.849	0.0135961
765.927	0.0135594
766.005	0.0134560
766.083	0.0135561
766.161	0.0134766
766.239	0.0136168
766.318	0.0135186
766.396	0.0134246
766.474	0.0136136
766.552	0.0136413
766.630	0.0136022
766.708	0.0135809
766.786	0.0136559
766.864	0.0135931
766.943	0.0135642
767.021	0.0136015
767.099	0.0137274
767.177	0.0139769
767.255	0.0138530
767.333	0.0138246
767.411	0.0138570
767.489	0.0139519
767.568	0.0140350
767.646	0.0140681
767.724	0.0140788
767.802	0.0141634
767.880	0.0141270
767.958	0.0141018
768.036	0.0141821
768.114	0.0143125
768.193	0.0141756
768.271	0.0143409
768.349	0.0141331
768.427	0.0141354
768.505	0.0142108
768.583	0.0143439
768.661	0.0142960
768.739	0.0143427
768.818	0.0143304
768.896	0.0143295
768.974	0.0141334
769.052	0.0142857
769.130	0.0142554
769.208	0.0142081
769.286	0.0143523
769.364	0.0143532
769.443	0.0141865
769.521	0.0140527
769.599	0.0139668
769.677	0.0141168
769.755	0.0140013
769.833	0.0137795
769.911	0.0137753
769.989	0.0136842
770.068	0.0136382
770.146	0.0135648
770.224	0.0136013
770.302	0.0134589
770.380	0.0134511
770.458	0.0135957
770.536	0.0134245
770.614	0.0134295
770.693	0.0133083
770.771	0.0131405
770.849	0.0132365
770.927	0.0132497
771.005	0.0133190
771.083	0.0133648
771.161	0.0134096
771.239	0.0135028
771.318	0.0135453
771.396	0.0136689
771.474	0.0135133
771.552	0.0136321
771.630	0.0136834
771.708	0.0136001
771.786	0.0137717
771.864	0.0139047
771.943	0.0139577
772.021	0.0141216
772.099	0.0141319
772.177	0.0141199
772.255	0.0141248
772.333	0.0141333
772.411	0.0141846
772.489	0.0143498
772.568	0.0141751
772.646	0.0141930
772.724	0.0142416
772.802	0.0141928
772.880	0.0141575
772.958	0.0141150
773.036	0.0142147
773.114	0.0142412
773.193	0.0140206
773.271	0.0140987
773.349	0.0140765
773.427	0.0140449
773.505	0.0140677
773.583	0.0138827
773.661	0.0139317
773.739	0.0138546
773.818	0.0136497
773.896	0.0138580
773.974	0.0136853
774.052	0.0135621
774.130	0.0134915
774.208	0.0136000
774.286	0.0134640
774.364	0.0133983
774.443	0.0133954
774.521	0.0134013
774.599	0.0134196
774.677	0.0133931
774.755	0.0133778
774.833	0.0132726
774.911	0.0133191
774.989	0.0133361
775.068	0.0134698
775.146	0.0134367
775.224	0.0134038
775.302	0.0134309
775.380	0.0134720
775.458	0.0134805
775.536	0.0134008
775.614	0.0134637
775.693	0.0134857
775.771	0.0135430
775.849	0.0134879
775.927	0.0135615
776.005	0.0135635
776.083	0.0136718
776.161	0.0135625
776.239	0.0135415
776.318	0.0137228
776.396	0.0137251
776.474	0.0137075
776.552	0.0137519
776.630	0.0137456
776.708	0.0138361
776.786	0.0138195
776.864	0.0137617
776.943	0.0137883
777.021	0.0137480
777.099	0.0138545
777.177	0.0138925
777.255	0.0140672
777.333	0.0140179
777.411	0.0140829
777.489	0.0140797
777.568	0.0143219
777.646	0.0140977
777.724	0.0141906
777.802	0.0140762
777.880	0.0141628
777.958	0.0142028
778.036	0.0141867
778.114	0.0141599
778.193	0.0141496
778.271	0.0138836
778.349	0.0138743
778.427	0.0138387
778.505	0.0139272
778.583	0.0137375
778.661	0.0137630
778.739	0.0135618
778.818	0.0136885
778.896	0.0134746
778.974	0.0133495
779.052	0.0133689
779.130	0.0134039
779.208	0.0133535
779.286	0.0132450
779.364	0.0132848
779.443	0.0133077
779.521	0.0131129
779.599	0.0131494
779.677	0.0133029
779.755	0.0133269
779.833	0.0132815
779.911	0.0132973
779.989	0.0135782
780.068	0.0136330
780.146	0.0136294
780.224	0.0135696
780.302	0.0135542
780.380	0.0135732
780.458	0.0136945
780.536	0.0136941
780.614	0.0138459
780.693	0.0139351
780.771	0.0138339
780.849	0.0138875
780.927	0.0139499
781.005	0.0140157
781.083	0.0139519
781.161	0.0141179
781.239	0.0141729
781.318	0.0140815
781.396	0.0140693
781.474	0.0142105
781.552	0.0141805
781.630	0.0143459
781.708	0.0142674
781.786	0.0142409
781.864	0.0140873
781.943	0.0141112
782.021	0.0140801
782.099	0.0141127
782.177	0.0139723
782.255	0.0139654
782.333	0.0141131
782.411	0.0138865
782.489	0.0136582
782.568	0.0138161
782.646	0.0137441
782.724	0.0137344
782.802	0.0136375
782.880	0.0136876
782.958	0.0135930
783.036	0.0134247
783.114	0.0133524
783.193	0.0135078
783.271	0.0135903
783.349	0.0134995
783.427	0.0135027
783.505	0.0134977
783.583	0.0132879
783.661	0.0133965
783.739	0.0134087
783.818	0.0135177
783.896	0.0134026
783.974	0.0134467
784.052	0.0134520
784.130	0.0134452
784.208	0.0136488
784.286	0.0136824
784.364	0.0137395
784.443	0.0136398
784.521	0.0138081
784.599	0.0138889
784.677	0.0140602
784.755	0.0139074
784.833	0.0141165
784.911	0.0140559
784.989	0.0141845
785.068	0.0141917
785.146	0.0142527
785.224	0.0142472
785.302	0.0143679
785.380	0.0144447
785.458	0.0143586
785.536	0.0144486
785.614	0.0144744
785.693	0.0145068
785.771	0.0144840
785.849	0.0145234
785.927	0.0144996
786.005	0.0146128
786.083	0.0147419
786.161	0.0144520
786.239	0.0144627
786.318	0.0144084
786.396	0.0144552
786.474	0.0143541
786.552	0.0143647
786.630	0.0143953
786.708	0.0143097
786.786	0.0141686
786.864	0.0142182
786.943	0.0141490
787.021	0.0139851
787.099	0.0139507
787.177	0.0139481
787.255	0.0139628
787.333	0.0136182
787.411	0.0137708
787.489	0.0136450
787.568	0.0135598
787.646	0.0134679
787.724	0.0135774
787.802	0.0134448
787.880	0.0133401
787.958	0.0134643
788.036	0.0133622
788.114	0.0133122
788.193	0.0131315
788.271	0.0131023
788.349	0.0130459
788.427	0.0130283
788.505	0.0129095
788.583	0.0129095
788.661	0.0128915
788.739	0.0129325
788.818	0.0130862
788.896	0.0131558
788.974	0.0130283
789.052	0.0130643
789.130	0.0131619
789.208	0.0133355
789.286	0.0133035
789.364	0.0133427
789.443	0.0134901
789.521	0.0134528
789.599	0.0136112
789.677	0.0136292
789.755	0.0138912
789.833	0.0140160
789.911	0.0140405
789.989	0.0141857
790.068	0.0141896
790.146	0.0141801
790.224	0.0141999
790.302	0.0143783
790.380	0.0143326
790.458	0.0143947
790.536	0.0144740
790.614	0.0143999
790.693	0.0144878
790.771	0.0144459
790.849	0.0144109
790.927	0.0144334
791.005	0.0142360
791.083	0.0143496
791.161	0.0143838
791.239	0.0143791
791.318	0.0142550
791.396	0.0141740
791.474	0.0140687
791.552	0.0142310
791.630	0.0140604
791.708	0.0140346
791.786	0.0140238
791.864	0.0139874
791.943	0.0139249
792.021	0.0138833
792.099	0.0139295
792.177	0.0137707
792.255	0.0138080
792.333	0.0137298
792.411	0.0137498
792.489	0.0137074
792.568	0.0135886
792.646	0.0136909
792.724	0.0135101
792.802	0.0134505
792.880	0.0134122
792.958	0.0134326
793.036	0.0132832
793.114	0.0133678
793.193	0.0134202
793.271	0.0132539
793.349	0.0131901
793.427	0.0131340
793.505	0.0131831
793.583	0.0132804
793.661	0.0131163
793.739	0.0131657
793.818	0.0131485
793.896	0.0131856
793.974	0.0132354
794.052	0.0133004
794.130	0.0132951
794.208	0.0133649
794.286	0.0135021
794.364	0.0134187
794.443	0.0134743
794.521	0.0134543
794.599	0.0134475
794.677	0.0136088
794.755	0.0137027
794.833	0.0137447
794.911	0.0136171
794.989	0.0135946
795.068	0.0137762
795.146	0.0137567
795.224	0.0138647
795.302	0.0138552
795.380	0.0139393
795.458	0.0140054
795.536	0.0139042
795.614	0.0140423
795.693	0.0140893
795.771	0.0140601
795.849	0.0140462
795.927	0.0141677
796.005	0.0141556
796.083	0.0141193
796.161	0.0142348
796.239	0.0142059
796.318	0.0141833
796.396	0.0141711
796.474	0.0141840
796.552	0.0141681
796.630	0.0140732
796.708	0.0140458
796.786	0.0139960
796.864	0.0140791
796.943	0.0138787
797.021	0.0138454
797.099	0.0139629
797.177	0.0138096
797.255	0.0139615
797.333	0.0138254
797.411	0.0138062
797.489	0.0138725
797.568	0.0139208
797.646	0.0140231
797.724	0.0138257
797.802	0.0136366
797.880	0.0136817
797.958	0.0138068
798.036	0.0137279
798.114	0.0136182
798.193	0.0135938
798.271	0.0135824
798.349	0.0137223
798.427	0.0136121
798.505	0.0135013
798.583	0.0136356
798.661	0.0134309
798.739	0.0135761
798.818	0.0135452
798.896	0.0133878
798.974	0.0134663
799.052	0.0135659
799.130	0.0134684
799.208	0.0134263
799.286	0.0133189
799.364	0.0134050
799.443	0.0133464
799.521	0.0132456
799.599	0.0132008
799.677	0.0133661
799.755	0.0131950
799.833	0.0133611
799.911	0.0133248
799.989	0.0133667
800.068	0.0133255
800.146	0.0133833
800.224	0.0134489
800.302	0.0134145
800.380	0.0135293
800.458	0.0135764
800.536	0.0136614
800.614	0.0136922
800.693	0.0136754
800.771	0.0137425
800.849	0.0137772
800.927	0.0136948
801.005	0.0137658
801.083	0.0139554
801.161	0.0138350
801.239	0.0139774
801.318	0.0140018
801.396	0.0140844
801.474	0.0140915
801.552	0.0142287
801.630	0.0142503
801.708	0.0142090
801.786	0.0141918
801.864	0.0142422
801.943	0.0142149
802.021	0.0142948
802.099	0.0142703
802.177	0.0142682
802.255	0.0142521
802.333	0.0142824
802.411	0.0142223
802.489	0.0142704
802.568	0.0141631
802.646	0.0142097
802.724	0.0141731
802.802	0.0141599
802.880	0.0140781
802.958	0.0139912
803.036	0.0139874
803.114	0.0140501
803.193	0.0140560
803.271	0.0139613
803.349	0.0139507
803.427	0.0138339
803.505	0.0137187
803.583	0.0138225
803.661	0.0139270
803.739	0.0138124
803.818	0.0136647
803.896	0.0135064
803.974	0.0134869
804.052	0.0134274
804.130	0.0133963
804.208	0.0133116
804.286	0.0133332
804.364	0.0135290
804.443	0.0133939
804.521	0.0132255
804.599	0.0132841
804.677	0.0130804
804.755	0.0132240
804.833	0.0132293
804.911	0.0131070
804.989	0.0130162
805.068	0.0129870
805.146	0.0130561
805.224	0.0131038
805.302	0.0130908
805.380	0.0129974
805.458	0.0130774
805.536	0.0131126
805.614	0.0130232
805.693	0.0130440
805.771	0.0132489
805.849	0.0131921
805.927	0.0132861
806.005	0.0133128
806.083	0.0133981
806.161	0.0134441
806.239	0.0135362
806.318	0.0134822
806.396	0.0134940
806.474	0.0136646
806.552	0.0137915
806.630	0.0139594
806.708	0.0141467
806.786	0.0140287
806.864	0.0140414
806.943	0.0141763
807.021	0.0141984
807.099	0.0142867
807.177	0.0142908
807.255	0.0141930
807.333	0.0142954
807.411	0.0143651
807.489	0.0143739
807.568	0.0145943
807.646	0.0143233
807.724	0.0145073
807.802	0.0145044
807.880	0.0144054
807.958	0.0144589
808.036	0.0143639
808.114	0.0142846
808.193	0.0142901
808.271	0.0143275
808.349	0.0144181
808.427	0.0142577
808.505	0.0139910
808.583	0.0141148
808.661	0.0140004
808.739	0.0140139
808.818	0.0140096
808.896	0.0139738
808.974	0.0137592
809.052	0.0136966
809.130	0.0137460
809.208	0.0136239
809.286	0.0134650
809.364	0.0135020
809.443	0.0133517
809.521	0.0132623
809.599	0.0132510
809.677	0.0132822
809.755	0.0131197
809.833	0.0130117
809.911	0.0130894
809.989	0.0131902
810.068	0.0129699
810.146	0.0130441
810.224	0.0129293
810.302	0.0128463
810.380	0.0129180
810.458	0.0128902
810.536	0.0128030
810.614	0.0128507
810.693	0.0127988
810.771	0.0128043
810.849	0.0128260
810.927	0.0129377
811.005	0.0130799
811.083	0.0132466
811.161	0.0132526
811.239	0.0134585
811.318	0.0134458
811.396	0.0136478
811.474	0.0136928
811.552	0.0138831
811.630	0.0140683
811.708	0.0138912
811.786	0.0140505
811.864	0.0142100
811.943	0.0142116
812.021	0.0142422
812.099	0.0141417
812.177	0.0143057
812.255	0.0143949
812.333	0.0142481
812.411	0.0142799
812.489	0.0142534
812.568	0.0143301
812.646	0.0142721
812.724	0.0141506
812.802	0.0140911
812.880	0.0140743
812.958	0.0141701
813.036	0.0141531
813.114	0.0140522
813.193	0.0140524
813.271	0.0141213
813.349	0.0141888
813.427	0.0140923
813.505	0.0140081
813.583	0.0142317
813.661	0.0141090
813.739	0.0140287
813.818	0.0139956
813.896	0.0140370
813.974	0.0139510
814.052	0.0137815
814.130	0.0139390
814.208	0.0138799
814.286	0.0138754
814.364	0.0138190
814.443	0.0138393
814.521	0.0138111
814.599	0.0137199
814.677	0.0136545
814.755	0.0135669
814.833	0.0135614
814.911	0.0136037
814.989	0.0135574
815.068	0.0133762
815.146	0.0134073
815.224	0.0134405
815.302	0.0134891
815.380	0.0132501
815.458	0.0133529
815.536	0.0133373
815.614	0.0134231
815.693	0.0133996
815.771	0.0133125
815.849	0.0134319
815.927	0.0134305
816.005	0.0133356
816.083	0.0134053
816.161	0.0135869
816.239	0.0134521
816.318	0.0133709
816.396	0.0133394
816.474	0.0134985
816.552	0.0135674
816.630	0.0136681
816.708	0.0136176
816.786	0.0136172
816.864	0.0137643
816.943	0.0136657
817.021	0.0137845
817.099	0.0139437
817.177	0.0139464
817.255	0.0138197
817.333	0.0137959
817.411	0.0136894
817.489	0.0137820
817.568	0.0138507
817.646	0.0138107
817.724	0.0138344
817.802	0.0137317
817.880	0.0137723
817.958	0.0138081
818.036	0.0138605
818.114	0.0139455
818.193	0.0138171
818.271	0.0138591
818.349	0.0139283
818.427	0.0139220
818.505	0.0139293
818.583	0.0139027
818.661	0.0140065
818.739	0.0138770
818.818	0.0137512
818.896	0.0139032
818.974	0.0137873
819.052	0.0136337
819.130	0.0136351
819.208	0.0135951
819.286	0.0137136
819.364	0.0135266
819.443	0.0135015
819.521	0.0135464
819.599	0.0134476
819.677	0.0135374
819.755	0.0135219
819.833	0.0134642
819.911	0.0133623
819.989	0.0134132
820.068	0.0133427
820.146	0.0133352
820.224	0.0132454
820.302	0.0132182
820.380	0.0133248
820.458	0.0133772
820.536	0.0132414
820.614	0.0132964
820.693	0.0133241
820.771	0.0133492
820.849	0.0135052
820.927	0.0134978
821.005	0.0135783
821.083	0.0136470
821.161	0.0138724
821.239	0.0138000
821.318	0.0138591
821.396	0.0138819
821.474	0.0139113
821.552	0.0138586
821.630	0.0140363
821.708	0.0140716
821.786	0.0138548
821.864	0.0139174
821.943	0.0139188
822.021	0.0138207
822.099	0.0138709
822.177	0.0139182
822.255	0.0138007
822.333	0.0136351
822.411	0.0136481
822.489	0.0137473
822.568	0.0136253
822.646	0.0136121
822.724	0.0136092
822.802	0.0134411
822.880	0.0134074
822.958	0.0134908
823.036	0.0134522
823.114	0.0133464
823.193	0.0132930
823.271	0.0131684
823.349	0.0132024
823.427	0.0133823
823.505	0.0133916
823.583	0.0132269
823.661	0.0132274
823.739	0.0133074
823.818	0.0134068
823.896	0.0136165
823.974	0.0134091
824.052	0.0135050
824.130	0.0135041
824.208	0.0137308
824.286	0.0137717
824.364	0.0137811
824.443	0.0138872
824.521	0.0139406
824.599	0.0139278
824.677	0.0140096
824.755	0.0140533
824.833	0.0141499
824.911	0.0140671
824.989	0.0142432
825.068	0.0139683
825.146	0.0140061
825.224	0.0141153
825.302	0.0140814
825.380	0.0138895
825.458	0.0138586
825.536	0.0140443
825.614	0.0140510
825.693	0.0138280
825.771	0.0138768
825.849	0.0138580
825.927	0.0139070
826.005	0.0137500
826.083	0.0136770
826.161	0.0136787
826.239	0.0136695
826.318	0.0137830
826.396	0.0135726
826.474	0.0137279
826.552	0.0137045
826.630	0.0137040
826.708	0.0137104
826.786	0.0137029
826.864	0.0137404
826.943	0.0137675
827.021	0.0139038
827.099	0.0139546
827.177	0.0139816
827.255	0.0138634
827.333	0.0139442
827.411	0.0139509
827.489	0.0139496
827.568	0.0141558
827.646	0.0141012
827.724	0.0139254
827.802	0.0141171
827.880	0.0140805
827.958	0.0140630
828.036	0.0141210
828.114	0.0141557
828.193	0.0140631
828.271	0.0140752
828.349	0.0141747
828.427	0.0140541
828.505	0.0140621
828.583	0.0140313
828.661	0.0139097
828.739	0.0140065
828.818	0.0140241
828.896	0.0136808
828.974	0.0138180
829.052	0.0138586
829.130	0.0137372
829.208	0.0136942
829.286	0.0136530
829.364	0.0136275
829.443	0.0135075
829.521	0.0135052
829.599	0.0133451
829.677	0.0133511
829.755	0.0132981
829.833	0.0133340
829.911	0.0132973
829.989	0.0132077
830.068	0.0131601
830.146	0.0130006
830.224	0.0132282
830.302	0.0132232
830.380	0.0134095
830.458	0.0132403
830.536	0.0132519
830.614	0.0132497
830.693	0.0133205
830.771	0.0134605
830.849	0.0135104
830.927	0.0134965
831.005	0.0135374
831.083	0.0138098
831.161	0.0138125
831.239	0.0138864
831.318	0.0140523
831.396	0.0141189
831.474	0.0140701
831.552	0.0142124
831.630	0.0142799
831.708	0.0144435
831.786	0.0143179
831.864	0.0143992
831.943	0.0144660
832.021	0.0145175
832.099	0.0145067
832.177	0.0145042
832.255	0.0142920
832.333	0.0141308
832.411	0.0141280
832.489	0.0141738
832.568	0.0140647
832.646	0.0139102
832.724	0.0139266
832.802	0.0136725
832.880	0.0137933
832.958	0.0135248
833.036	0.0134768
833.114	0.0136224
833.193	0.0134990
833.271	0.0134559
833.349	0.0134880
833.427	0.0134706
833.505	0.0134877
833.583	0.0136607
833.661	0.0135471
833.739	0.0135173
833.818	0.0136138
833.896	0.0136147
833.974	0.0135735
834.052	0.0136597
834.130	0.0136990
834.208	0.0138282
834.286	0.0137167
834.364	0.0136786
834.443	0.0139452
834.521	0.0137996
834.599	0.0137426
834.677	0.0138081
834.755	0.0137426
834.833	0.0138612
834.911	0.0138557
834.989	0.0139777
835.068	0.0138336
835.146	0.0137890
835.224	0.0138120
835.302	0.0137054
835.380	0.0137531
835.458	0.0137431
835.536	0.0136148
835.614	0.0135568
835.693	0.0136525
835.771	0.0135530
835.849	0.0136341
835.927	0.0134602
836.005	0.0134088
836.083	0.0134148
836.161	0.0133833
836.239	0.0135384
836.318	0.0133810
836.396	0.0133913
836.474	0.0134028
836.552	0.0135673
836.630	0.0135373
836.708	0.0135119
836.786	0.0135280
836.864	0.0137227
836.943	0.0137311
837.021	0.0138223
837.099	0.0139255
837.177	0.0138968
837.255	0.0140088
837.333	0.0140551
837.411	0.0141770
837.489	0.0141686
837.568	0.0141682
837.646	0.0143369
837.724	0.0142882
837.802	0.0142934
837.880	0.0142764
837.958	0.0143005
838.036	0.0142649
838.114	0.0141888
838.193	0.0141882
838.271	0.0139935
838.349	0.0141071
838.427	0.0141735
838.505	0.0139828
838.583	0.0139391
838.661	0.0139461
838.739	0.0139933
838.818	0.0139007
838.896	0.0137186
838.974	0.0137180
839.052	0.0138633
839.130	0.0136972
839.208	0.0137608
839.286	0.0136687
839.364	0.0137034
839.443	0.0136451
839.521	0.0135846
839.599	0.0137111
839.677	0.0136637
839.755	0.0136176
839.833	0.0138029
839.911	0.0136260
839.989	0.0136476
840.068	0.0135897
840.146	0.0136137
840.224	0.0135665
840.302	0.0137032
840.380	0.0135612
840.458	0.0137264
840.536	0.0135664
840.614	0.0136741
840.693	0.0137077
840.771	0.0136071
840.849	0.0135793
840.927	0.0137015
841.005	0.0137263
841.083	0.0137836
841.161	0.0138945
841.239	0.0137785
841.318	0.0136829
841.396	0.0136629
841.474	0.0136372
841.552	0.0137170
841.630	0.0135310
841.708	0.0137778
841.786	0.0139741
841.864	0.0138471
841.943	0.0137220
842.021	0.0136156
842.099	0.0138921
842.177	0.0138457
842.255	0.0137984
842.333	0.0139495
842.411	0.0139060
842.489	0.0138237
842.568	0.0138992
842.646	0.0137291
842.724	0.0137742
842.802	0.0139400
842.880	0.0139290
842.958	0.0138690
843.036	0.0139055
843.114	0.0139374
843.193	0.0139185
843.271	0.0139708
843.349	0.0139152
843.427	0.0138945
843.505	0.0138940
843.583	0.0139073
843.661	0.0139522
843.739	0.0139537
843.818	0.0140002
843.896	0.0137872
843.974	0.0138823
844.052	0.0140734
844.130	0.0140623
844.208	0.0139355
844.286	0.0140267
844.364	0.0139558
844.443	0.0139935
844.521	0.0139582
844.599	0.0139194
844.677	0.0139306
844.755	0.0138583
844.833	0.0139624
844.911	0.0138981
844.989	0.0138286
845.068	0.0137537
845.146	0.0138498
845.224	0.0138374
845.302	0.0139579
845.380	0.0136250
845.458	0.0136700
845.536	0.0136432
845.614	0.0136612
845.693	0.0136640
845.771	0.0136346
845.849	0.0135664
845.927	0.0134608
846.005	0.0134544
846.083	0.0133821
846.161	0.0133826
846.239	0.0134966
846.318	0.0133440
846.396	0.0132025
846.474	0.0130636
846.552	0.0130914
846.630	0.0132386
846.708	0.0132664
846.786	0.0132770
846.864	0.0132919
846.943	0.0133472
847.021	0.0133217
847.099	0.0134499
847.177	0.0134751
847.255	0.0135378
847.333	0.0136890
847.411	0.0137191
847.489	0.0136309
847.568	0.0137982
847.646	0.0138375
847.724	0.0138788
847.802	0.0138972
847.880	0.0140252
847.958	0.0139999
848.036	0.0137677
848.114	0.0138021
848.193	0.0140520
848.271	0.0141077
848.349	0.0139877
848.427	0.0139936
848.505	0.0140469
848.583	0.0141050
848.661	0.0140562
848.739	0.0139948
848.818	0.0140123
848.896	0.0140088
848.974	0.0138911
849.052	0.0138728
849.130	0.0138901
849.208	0.0141180
849.286	0.0140626
849.364	0.0138882
849.443	0.0138805
849.521	0.0139056
849.599	0.0138350
849.677	0.0137801
849.755	0.0137833
849.833	0.0139762
849.911	0.0138939
849.989	0.0139580
850.068	0.0139234
850.146	0.0137332
850.224	0.0137505
850.302	0.0137471
850.380	0.0140469
850.458	0.0139053
850.536	0.0137846
850.614	0.0137751
850.693	0.0137253
850.771	0.0137646
850.849	0.0136565
850.927	0.0134583
851.005	0.0134641
851.083	0.0134756
851.161	0.0136021
851.239	0.0135873
851.318	0.0135605
851.396	0.0135067
851.474	0.0135835
851.552	0.0137278
851.630	0.0136224
851.708	0.0137502
851.786	0.0136041
851.864	0.0135851
851.943	0.0135272
852.021	0.0136742
852.099	0.0136366
852.177	0.0138023
852.255	0.0137437
852.333	0.0136555
852.411	0.0135615
852.489	0.0136845
852.568	0.0137543
852.646	0.0136479
852.724	0.0137563
852.802	0.0136147
852.880	0.0136507
852.958	0.0136349
853.036	0.0136300
853.114	0.0137480
853.193	0.0137149
853.271	0.0136938
853.349	0.0134614
853.427	0.0135217
853.505	0.0136641
853.583	0.0135970
853.661	0.0135313
853.739	0.0136539
853.818	0.0136710
853.896	0.0135557
853.974	0.0135367
854.052	0.0137439
854.130	0.0136967
854.208	0.0137435
854.286	0.0137610
854.364	0.0138052
854.443	0.0137037
854.521	0.0137185
854.599	0.0137962
854.677	0.0138562
854.755	0.0139051
854.833	0.0139917
854.911	0.0137872
854.989	0.0137411
855.068	0.0138461
855.146	0.0139314
855.224	0.0139002
855.302	0.0138542
855.380	0.0138504
855.458	0.0138940
855.536	0.0139190
855.614	0.0140504
855.693	0.0141221
855.771	0.0141029
855.849	0.0139480
855.927	0.0138696
856.005	0.0139899
856.083	0.0140125
856.161	0.0138489
856.239	0.0139853
856.318	0.0139587
856.396	0.0138461
856.474	0.0137914
856.552	0.0141081
856.630	0.0138406
856.708	0.0139583
856.786	0.0139388
856.864	0.0138545
856.943	0.0138194
857.021	0.0137332
857.099	0.0138291
857.177	0.0138937
857.255	0.0139298
857.333	0.0137262
857.411	0.0137267
857.489	0.0138210
857.568	0.0139257
857.646	0.0139371
857.724	0.0137819
857.802	0.0138652
857.880	0.0138849
857.958	0.0139611
858.036	0.0137877
858.114	0.0139061
858.193	0.0138406
858.271	0.0137840
858.349	0.0136385
858.427	0.0136757
858.505	0.0136752
858.583	0.0137921
858.661	0.0137478
858.739	0.0136658
858.818	0.0136891
858.896	0.0136639
858.974	0.0136885
859.052	0.0136931
859.130	0.0135706
859.208	0.0135253
859.286	0.0135335
859.364	0.0136792
859.443	0.0137514
859.521	0.0137904
859.599	0.0136847
859.677	0.0138132
859.755	0.0138168
859.833	0.0138176
859.911	0.0137735
859.989	0.0138480
860.068	0.0139479
860.146	0.0139585
860.224	0.0139568
860.302	0.0138887
860.380	0.0139643
860.458	0.0142255
860.536	0.0141344
860.614	0.0139943
860.693	0.0142636
860.771	0.0140833
860.849	0.0141284
860.927	0.0142200
861.005	0.0141228
861.083	0.0143108
861.161	0.0142502
861.239	0.0142258
861.318	0.0140925
861.396	0.0140764
861.474	0.0141395
861.552	0.0139639
861.630	0.0139066
861.708	0.0139053
861.786	0.0138674
861.864	0.0137748
861.943	0.0137963
862.021	0.0137577
862.099	0.0136366
862.177	0.0137183
862.255	0.0136834
862.333	0.0138903
862.411	0.0137773
862.489	0.0136470
862.568	0.0136777
862.646	0.0138014
862.724	0.0137946
862.802	0.0136842
862.880	0.0137719
862.958	0.0137721
863.036	0.0139266
863.114	0.0139421
863.193	0.0140099
863.271	0.0138250
863.349	0.0139120
863.427	0.0139597
863.505	0.0139295
863.583	0.0137155
863.661	0.0137128
863.739	0.0136777
863.818	0.0136853
863.896	0.0136392
863.974	0.0136088
864.052	0.0135979
864.130	0.0133931
864.208	0.0134264
864.286	0.0134229
864.364	0.0134116
864.443	0.0133891
864.521	0.0133315
864.599	0.0134711
864.677	0.0134605
864.755	0.0134114
864.833	0.0134426
864.911	0.0135198
864.989	0.0136773
865.068	0.0134310
865.146	0.0136009
865.224	0.0138161
865.302	0.0137201
865.380	0.0137376
865.458	0.0138588
865.536	0.0138864
865.614	0.0140336
865.693	0.0139697
865.771	0.0141290
865.849	0.0141626
865.927	0.0142055
866.005	0.0140955
866.083	0.0140387
866.161	0.0142025
866.239	0.0141979
866.318	0.0141777
866.396	0.0140048
866.474	0.0141074
866.552	0.0142422
866.630	0.0141143
866.708	0.0140758
866.786	0.0139900
866.864	0.0141174
866.943	0.0140887
867.021	0.0140591
867.099	0.0139728
867.177	0.0138029
867.255	0.0139575
867.333	0.0138892
867.411	0.0138466
867.489	0.0136968
867.568	0.0136799
867.646	0.0137315
867.724	0.0137336
867.802	0.0138332
867.880	0.0138103
867.958	0.0137280
868.036	0.0136903
868.114	0.0136905
868.193	0.0138102
868.271	0.0138331
868.349	0.0138766
868.427	0.0138454
868.505	0.0139487
868.583	0.0137347
868.661	0.0138868
868.739	0.0137704
868.818	0.0138290
868.896	0.0136613
868.974	0.0137669
869.052	0.0137949
869.130	0.0135555
869.208	0.0137435
869.286	0.0137287
869.364	0.0135621
869.443	0.0135609
869.521	0.0136691
869.599	0.0136126
869.677	0.0138084
869.755	0.0136953
869.833	0.0137120
869.911	0.0135468
869.989	0.0136816
870.068	0.0138362
870.146	0.0137433
870.224	0.0138446
870.302	0.0137678
870.380	0.0136752
870.458	0.0136599
870.536	0.0137338
870.614	0.0137012
870.693	0.0137825
870.771	0.0136645
870.849	0.0137386
870.927	0.0137434
871.005	0.0137368
871.083	0.0136578
871.161	0.0135651
871.239	0.0137106
871.318	0.0137198
871.396	0.0138406
871.474	0.0136050
871.552	0.0137054
871.630	0.0137106
871.708	0.0136673
871.786	0.0136409
871.864	0.0136872
871.943	0.0137965
872.021	0.0136276
872.099	0.0137702
872.177	0.0137457
872.255	0.0136724
872.333	0.0137531
872.411	0.0136439
872.489	0.0136885
872.568	0.0138141
872.646	0.0136816
872.724	0.0139317
872.802	0.0138502
872.880	0.0138190
872.958	0.0138470
873.036	0.0136848
873.114	0.0137898
873.193	0.0139022
873.271	0.0138258
873.349	0.0138346
873.427	0.0137293
873.505	0.0137892
873.583	0.0138534
873.661	0.0137298
873.739	0.0138176
873.818	0.0137869
873.896	0.0137524
873.974	0.0137780
874.052	0.0137635
874.130	0.0136494
874.208	0.0137176
874.286	0.0138390
874.364	0.0136086
874.443	0.0136446
874.521	0.0136521
874.599	0.0136192
874.677	0.0134100
874.755	0.0135609
874.833	0.0135648
874.911	0.0132903
874.989	0.0134264
875.068	0.0134009
875.146	0.0134132
875.224	0.0133729
875.302	0.0134161
875.380	0.0134004
875.458	0.0133285
875.536	0.0133814
875.614	0.0134225
875.693	0.0134356
875.771	0.0133802
875.849	0.0134912
875.927	0.0133833
876.005	0.0135206
876.083	0.0134329
876.161	0.0136734
876.239	0.0136761
876.318	0.0136252
876.396	0.0139178
876.474	0.0138975
876.552	0.0138847
876.630	0.0138697
876.708	0.0140199
876.786	0.0139395
876.864	0.0139964
876.943	0.0140196
877.021	0.0138374
877.099	0.0138127
877.177	0.0138805
877.255	0.0139268
877.333	0.0138869
877.411	0.0139507
877.489	0.0138962
877.568	0.0137301
877.646	0.0137265
877.724	0.0137955
877.802	0.0137383
877.880	0.0137126
877.958	0.0136345
878.036	0.0137472
878.114	0.0137748
878.193	0.0136585
878.271	0.0137308
878.349	0.0137343
878.427	0.0137473
878.505	0.0137619
878.583	0.0138521
878.661	0.0138522
878.739	0.0136810
878.818	0.0137952
878.896	0.0138410
878.974	0.0139734
879.052	0.0138128
879.130	0.0138305
879.208	0.0138062
879.286	0.0138026
879.364	0.0137034
879.443	0.0135959
879.521	0.0136922
879.599	0.0137763
879.677	0.0136430
879.755	0.0135959
879.833	0.0136263
879.911	0.0135558
879.989	0.0135324
880.068	0.0134690
880.146	0.0134206
880.224	0.0133456
880.302	0.0134458
880.380	0.0133368
880.458	0.0134429
880.536	0.0132652
880.614	0.0133489
880.693	0.0133679
880.771	0.0134275
880.849	0.0134775
880.927	0.0132696
881.005	0.0134084
881.083	0.0135489
881.161	0.0135640
881.239	0.0136320
881.318	0.0135265
881.396	0.0134545
881.474	0.0135726
881.552	0.0136254
881.630	0.0136940
881.708	0.0138685
881.786	0.0137329
881.864	0.0139017
881.943	0.0138763
882.021	0.0138408
882.099	0.0139056
882.177	0.0138535
882.255	0.0140277
882.333	0.0139330
882.411	0.0138280
882.489	0.0140140
882.568	0.0140703
882.646	0.0138651
882.724	0.0138215
882.802	0.0138885
882.880	0.0139226
882.958	0.0139198
883.036	0.0138025
883.114	0.0138635
883.193	0.0139316
883.271	0.0138711
883.349	0.0137662
883.427	0.0137345
883.505	0.0138993
883.583	0.0138354
883.661	0.0139317
883.739	0.0138519
883.818	0.0139710
883.896	0.0138712
883.974	0.0138970
884.052	0.0139072
884.130	0.0139622
884.208	0.0139392
884.286	0.0139072
884.364	0.0138438
884.443	0.0138106
884.521	0.0139503
884.599	0.0138792
884.677	0.0140100
884.755	0.0138716
884.833	0.0138177
884.911	0.0140414
884.989	0.0139411
885.068	0.0140174
885.146	0.0140154
885.224	0.0138874
885.302	0.0139297
885.380	0.0138818
885.458	0.0139005
885.536	0.0138564
885.614	0.0139623
885.693	0.0139523
885.771	0.0138636
885.849	0.0138939
885.927	0.0139357
886.005	0.0139011
886.083	0.0138488
886.161	0.0138287
886.239	0.0138994
886.318	0.0138051
886.396	0.0137078
886.474	0.0138673
886.552	0.0138337
886.630	0.0139024
886.708	0.0139276
886.786	0.0137236
886.864	0.0137255
886.943	0.0138274
887.021	0.0139297
887.099	0.0136417
887.177	0.0138602
887.255	0.0139015
887.333	0.0137955
887.411	0.0138145
887.489	0.0138356
887.568	0.0137505
887.646	0.0137732
887.724	0.0139240
887.802	0.0139255
887.880	0.0137277
887.958	0.0138244
888.036	0.0136908
888.114	0.0137636
888.193	0.0136585
888.271	0.0136425
888.349	0.0136156
888.427	0.0135821
888.505	0.0137066
888.583	0.0136832
888.661	0.0135516
888.739	0.0135572
888.818	0.0135265
888.896	0.0134572
888.974	0.0135255
889.052	0.0135971
889.130	0.0136160
889.208	0.0136774
889.286	0.0135828
889.364	0.0137001
889.443	0.0137743
889.521	0.0136868
889.599	0.0136919
889.677	0.0138883
889.755	0.0138268
889.833	0.0136691
889.911	0.0138918
889.989	0.0137420
890.068	0.0137156
890.146	0.0137387
890.224	0.0136909
890.302	0.0138567
890.380	0.0138602
890.458	0.0137487
890.536	0.0138956
890.614	0.0139108
890.693	0.0138339
890.771	0.0139568
890.849	0.0139082
890.927	0.0138953
891.005	0.0138351
891.083	0.0139427
891.161	0.0139484
891.239	0.0138403
891.318	0.0140199
891.396	0.0139918
891.474	0.0138363
891.552	0.0138517
891.630	0.0140332
891.708	0.0139697
891.786	0.0139114
891.864	0.0138488
891.943	0.0139600
892.021	0.0141460
892.099	0.0139890
892.177	0.0140092
892.255	0.0138953
892.333	0.0138972
892.411	0.0139366
892.489	0.0138551
892.568	0.0138907
892.646	0.0139253
892.724	0.0139595
892.802	0.0139628
892.880	0.0137771
892.958	0.0138710
893.036	0.0138744
893.114	0.0137075
893.193	0.0136682
893.271	0.0136886
893.349	0.0137693
893.427	0.0136326
893.505	0.0137286
893.583	0.0137611
893.661	0.0135149
893.739	0.0135507
893.818	0.0136419
893.896	0.0135735
893.974	0.0135545
894.052	0.0137715
894.130	0.0138232
894.208	0.0135611
894.286	0.0136366
894.364	0.0137270
894.443	0.0136675
894.521	0.0137801
894.599	0.0137398
894.677	0.0138301
894.755	0.0137960
894.833	0.0137038
894.911	0.0137547
894.989	0.0138525
895.068	0.0137029
895.146	0.0137733
895.224	0.0139054
895.302	0.0138179
895.380	0.0137317
895.458	0.0138002
895.536	0.0137962
895.614	0.0137854
895.693	0.0137162
895.771	0.0138289
895.849	0.0138071
895.927	0.0136784
896.005	0.0139381
896.083	0.0138027
896.161	0.0136913
896.239	0.0138741
896.318	0.0138371
896.396	0.0138091
896.474	0.0138647
896.552	0.0137307
896.630	0.0137668
896.708	0.0137514
896.786	0.0138067
896.864	0.0137070
896.943	0.0137911
897.021	0.0137156
897.099	0.0137541
897.177	0.0136331
897.255	0.0136499
897.333	0.0135823
897.411	0.0136192
897.489	0.0136072
897.568	0.0136886
897.646	0.0136710
897.724	0.0136353
897.802	0.0136302
897.880	0.0136141
897.958	0.0136223
898.036	0.0137321
898.114	0.0136018
898.193	0.0136230
898.271	0.0135482
898.349	0.0136637
898.427	0.0135436
898.505	0.0135572
898.583	0.0136005
898.661	0.0134946
898.739	0.0136005
898.818	0.0134735
898.896	0.0135415
898.974	0.0136781
899.052	0.0135550
899.130	0.0135685
899.208	0.0135540
899.286	0.0136278
899.364	0.0135623
899.443	0.0135444
899.521	0.0135904
899.599	0.0137132
899.677	0.0136787
899.755	0.0136945
899.833	0.0136747
899.911	0.0136105
899.989	0.0136409
900.068	0.0136827
900.146	0.0136726
900.224	0.0135931
900.302	0.0137360
900.380	0.0135749
900.458	0.0137316
900.536	0.0137599
900.614	0.0136261
900.693	0.0137989
900.771	0.0138647
900.849	0.0138192
900.927	0.0138190
901.005	0.0138391
901.083	0.0139486
901.161	0.0139750
901.239	0.0138742
901.318	0.0138977
901.396	0.0140323
901.474	0.0140209
901.552	0.0138284
901.630	0.0140005
901.708	0.0138081
901.786	0.0138306
901.864	0.0139094
901.943	0.0138416
902.021	0.0138427
902.099	0.0137970
902.177	0.0139389
902.255	0.0138589
902.333	0.0137777
902.411	0.0137804
902.489	0.0137364
902.568	0.0136768
902.646	0.0137589
902.724	0.0137864
902.802	0.0136987
902.880	0.0137750
902.958	0.0136265
903.036	0.0136778
903.114	0.0137923
903.193	0.0136548
903.271	0.0135499
903.349	0.0136650
903.427	0.0140075
903.505	0.0137336
903.583	0.0137051
903.661	0.0137800
903.739	0.0138312
903.818	0.0137429
903.896	0.0137846
903.974	0.0136800
904.052	0.0138427
904.130	0.0138250
904.208	0.0137971
904.286	0.0136771
904.364	0.0139925
904.443	0.0139160
904.521	0.0137964
904.599	0.0138293
904.677	0.0137855
904.755	0.0138837
904.833	0.0139112
904.911	0.0138931
904.989	0.0138361
905.068	0.0137267
905.146	0.0137756
905.224	0.0138712
905.302	0.0137946
905.380	0.0137636
905.458	0.0137196
905.536	0.0138117
905.614	0.0137659
905.693	0.0138385
905.771	0.0136948
905.849	0.0138335
905.927	0.0136486
906.005	0.0138113
906.083	0.0138223
906.161	0.0138271
906.239	0.0138090
906.318	0.0137730
906.396	0.0137871
906.474	0.0137618
906.552	0.0137677
906.630	0.0137447
906.708	0.0137534
906.786	0.0137347
906.864	0.0137402
906.943	0.0139291
907.021	0.0137251
907.099	0.0136900
907.177	0.0136823
907.255	0.0136832
907.333	0.0137199
907.411	0.0136533
907.489	0.0136745
907.568	0.0137720
907.646	0.0137590
907.724	0.0135257
907.802	0.0135703
907.880	0.0136113
907.958	0.0136480
908.036	0.0135216
908.114	0.0135413
908.193	0.0134875
908.271	0.0137267
908.349	0.0135170
908.427	0.0133718
908.505	0.0135843
908.583	0.0136296
908.661	0.0135142
908.739	0.0134747
908.818	0.0136137
908.896	0.0134148
908.974	0.0135439
909.052	0.0135513
909.130	0.0135703
909.208	0.0134309
909.286	0.0135029
909.364	0.0135110
909.443	0.0136012
909.521	0.0136960
909.599	0.0137209
909.677	0.0137569
909.755	0.0137008
909.833	0.0138769
909.911	0.0138713
909.989	0.0139382
910.068	0.0138935
910.146	0.0139474
910.224	0.0139806
910.302	0.0138784
910.380	0.0141064
910.458	0.0139260
910.536	0.0139935
910.614	0.0139231
910.693	0.0139772
910.771	0.0140067
910.849	0.0139628
910.927	0.0139308
911.005	0.0139307
911.083	0.0140575
911.161	0.0140855
911.239	0.0139890
911.318	0.0139743
911.396	0.0139961
911.474	0.0140850
911.552	0.0139257
911.630	0.0139027
911.708	0.0140665
911.786	0.0140684
911.864	0.0140472
911.943	0.0139522
912.021	0.0140345
912.099	0.0140431
912.177	0.0139794
912.255	0.0138972
912.333	0.0139942
912.411	0.0139297
912.489	0.0140542
912.568	0.0139559
912.646	0.0138660
912.724	0.0139231
912.802	0.0138759
912.880	0.0138875
912.958	0.0138824
913.036	0.0138100
913.114	0.0139496
913.193	0.0138074
913.271	0.0137646
913.349	0.0138052
913.427	0.0139442
913.505	0.0138325
913.583	0.0138553
913.661	0.0138795
913.739	0.0136479
913.818	0.0138025
913.896	0.0138559
913.974	0.0136608
914.052	0.0136385
914.130	0.0137211
914.208	0.0136696
914.286	0.0137426
914.364	0.0136238
914.443	0.0137535
914.521	0.0136237
914.599	0.0137486
914.677	0.0138737
914.755	0.0137110
914.833	0.0136893
914.911	0.0139494
914.989	0.0140173
915.068	0.0139951
915.146	0.0138753
915.224	0.0139190
915.302	0.0139032
915.380	0.0139549
915.458	0.0140079
915.536	0.0139027
915.614	0.0139507
915.693	0.0140329
915.771	0.0137925
915.849	0.0138442
915.927	0.0139210
916.005	0.0138676
916.083	0.0137792
916.161	0.0137338
916.239	0.0138010
916.318	0.0138586
916.396	0.0137143
916.474	0.0135165
916.552	0.0136182
916.630	0.0137329
916.708	0.0136066
916.786	0.0137188
916.864	0.0135403
916.943	0.0137020
917.021	0.0137057
917.099	0.0136182
917.177	0.0134918
917.255	0.0136964
917.333	0.0137508
917.411	0.0136385
917.489	0.0136841
917.568	0.0138154
917.646	0.0138878
917.724	0.0136575
917.802	0.0136947
917.880	0.0135268
917.958	0.0136528
918.036	0.0137135
918.114	0.0138018
918.193	0.0136292
918.271	0.0136745
918.349	0.0137673
918.427	0.0137933
918.505	0.0136789
918.583	0.0136194
918.661	0.0137017
918.739	0.0138252
918.818	0.0138363
918.896	0.0138519
918.974	0.0138861
919.052	0.0138669
919.130	0.0138950
919.208	0.0137874
919.286	0.0138626
919.364	0.0138667
919.443	0.0139437
919.521	0.0138251
919.599	0.0139992
919.677	0.0139494
919.755	0.0139391
919.833	0.0137355
919.911	0.0139279
919.989	0.0138596
920.068	0.0138284
920.146	0.0138039
920.224	0.0137520
920.302	0.0138364
920.380	0.0137411
920.458	0.0138359
920.536	0.0138589
920.614	0.0139483
920.693	0.0138290
920.771	0.0137910
920.849	0.0138557
920.927	0.0138710
921.005	0.0136901
921.083	0.0136796
921.161	0.0136375
921.239	0.0137965
921.318	0.0137970
921.396	0.0136223
921.474	0.0138100
921.552	0.0137238
921.630	0.0137717
921.708	0.0138708
921.786	0.0137959
921.864	0.0137410
921.943	0.0136358
922.021	0.0138488
922.099	0.0138150
922.177	0.0138094
922.255	0.0138335
922.333	0.0137354
922.411	0.0137899
922.489	0.0137293
922.568	0.0138174
922.646	0.0138130
922.724	0.0136742
922.802	0.0137525
922.880	0.0136954
922.958	0.0137983
923.036	0.0136476
923.114	0.0136668
923.193	0.0135799
923.271	0.0137126
923.349	0.0135808
923.427	0.0136189
923.505	0.0136142
923.583	0.0135815
923.661	0.0136462
923.739	0.0135944
923.818	0.0134826
923.896	0.0135798
923.974	0.0136376
924.052	0.0136182
924.130	0.0136545
924.208	0.0136827
924.286	0.0135889
924.364	0.0135078
924.443	0.0136340
924.521	0.0135261
924.599	0.0137156
924.677	0.0137105
924.755	0.0134967
924.833	0.0135355
924.911	0.0137726
924.989	0.0137275
925.068	0.0136058
925.146	0.0137204
925.224	0.0137506
925.302	0.0138882
925.380	0.0137651
925.458	0.0138315
925.536	0.0139319
925.614	0.0138431
925.693	0.0138258
925.771	0.0138087
925.849	0.0139902
925.927	0.0139496
926.005	0.0139072
926.083	0.0140025
926.161	0.0139910
926.239	0.0138320
926.318	0.0137414
926.396	0.0137608
926.474	0.0137624
926.552	0.0137742
926.630	0.0138029
926.708	0.0137654
926.786	0.0137591
926.864	0.0139426
926.943	0.0137505
927.021	0.0137659
927.099	0.0136858
927.177	0.0138599
927.255	0.0138861
927.333	0.0137972
927.411	0.0138373
927.489	0.0139250
927.568	0.0139710
927.646	0.0139162
927.724	0.0140024
927.802	0.0138447
927.880	0.0140881
927.958	0.0139133
928.036	0.0139378
928.114	0.0140088
928.193	0.0139926
928.271	0.0140403
928.349	0.0139967
928.427	0.0140213
928.505	0.0141616
928.583	0.0139597
928.661	0.0138379
928.739	0.0139860
928.818	0.0139567
928.896	0.0139278
928.974	0.0138338
929.052	0.0138358
929.130	0.0139312
929.208	0.0138335
929.286	0.0138519
929.364	0.0137786
929.443	0.0137986
929.521	0.0137910
929.599	0.0138476
929.677	0.0137720
929.755	0.0138367
929.833	0.0137695
929.911	0.0136306
929.989	0.0136893
930.068	0.0136785
930.146	0.0139030
930.224	0.0137348
930.302	0.0135618
930.380	0.0137213
930.458	0.0136549
930.536	0.0135564
930.614	0.0137165
930.693	0.0136533
930.771	0.0137063
930.849	0.0135506
930.927	0.0136343
931.005	0.0136174
931.083	0.0136800
931.161	0.0135794
931.239	0.0137856
931.318	0.0136805
931.396	0.0136313
931.474	0.0135749
931.552	0.0134171
931.630	0.0135698
931.708	0.0135880
931.786	0.0135102
931.864	0.0137376
931.943	0.0135629
932.021	0.0136973
932.099	0.0136958
932.177	0.0136752
932.255	0.0136741
932.333	0.0137634
932.411	0.0137983
932.489	0.0138538
932.568	0.0138000
932.646	0.0138049
932.724	0.0138789
932.802	0.0138110
932.880	0.0139659
932.958	0.0138483
933.036	0.0137403
933.114	0.0137996
933.193	0.0137521
933.271	0.0138799
933.349	0.0139188
933.427	0.0138980
933.505	0.0138993
933.583	0.0139415
933.661	0.0140599
933.739	0.0139688
933.818	0.0140161
933.896	0.0140413
933.974	0.0139895
934.052	0.0140458
934.130	0.0140794
934.208	0.0140758
934.286	0.0140681
934.364	0.0141405
934.443	0.0141942
934.521	0.0140633
934.599	0.0140878
934.677	0.0141319
934.755	0.0140744
934.833	0.0139915
934.911	0.0139709
934.989	0.0140128
935.068	0.0139393
935.146	0.0139154
935.224	0.0138372
935.302	0.0138294
935.380	0.0138028
935.458	0.0138692
935.536	0.0137199
935.614	0.0137907
935.693	0.0135976
935.771	0.0137639
935.849	0.0136552
935.927	0.0136556
936.005	0.0137426
936.083	0.0137196
936.161	0.0135690
936.239	0.0136808
936.318	0.0137723
936.396	0.0136490
936.474	0.0137375
936.552	0.0137001
936.630	0.0136706
936.708	0.0138353
936.786	0.0137882
936.864	0.0136673
936.943	0.0136066
937.021	0.0136500
937.099	0.0136104
937.177	0.0136427
937.255	0.0137049
937.333	0.0137641
937.411	0.0136144
937.489	0.0137502
937.568	0.0137593
937.646	0.0136527
937.724	0.0139043
937.802	0.0138667
937.880	0.0138217
937.958	0.0137344
938.036	0.0137727
938.114	0.0137648
938.193	0.0137150
938.271	0.0138332
938.349	0.0137574
938.427	0.0137399
938.505	0.0137640
938.583	0.0137926
938.661	0.0136794
938.739	0.0137209
938.818	0.0136698
938.896	0.0137548
938.974	0.0138355
939.052	0.0138444
939.130	0.0138020
939.208	0.0137161
939.286	0.0137554
939.364	0.0137903
939.443	0.0137675
939.521	0.0136127
939.599	0.0138341
939.677	0.0136890
939.755	0.0138371
939.833	0.0137531
939.911	0.0137676
939.989	0.0138606
940.068	0.0138580
940.146	0.0137226
940.224	0.0138290
940.302	0.0138684
940.380	0.0138757
940.458	0.0139203
940.536	0.0138994
940.614	0.0138778
940.693	0.0138255
940.771	0.0139543
940.849	0.0137547
940.927	0.0137966
941.005	0.0138467
941.083	0.0140686
941.161	0.0139241
941.239	0.0138181
941.318	0.0138066
941.396	0.0138522
941.474	0.0138345
941.552	0.0139700
941.630	0.0138379
941.708	0.0140015
941.786	0.0138409
941.864	0.0137320
941.943	0.0137871
942.021	0.0138080
942.099	0.0137315
942.177	0.0137814
942.255	0.0137669
942.333	0.0137624
942.411	0.0134344
942.489	0.0135704
942.568	0.0136102
942.646	0.0136073
942.724	0.0136665
942.802	0.0135794
942.880	0.0136280
942.958	0.0135623
943.036	0.0137160
943.114	0.0137330
943.193	0.0134850
943.271	0.0136617
943.349	0.0137469
943.427	0.0136996
943.505	0.0137080
943.583	0.0137549
943.661	0.0137601
943.739	0.0137495
943.818	0.0138078
943.896	0.0136880
943.974	0.0137416
944.052	0.0137197
944.130	0.0136739
944.208	0.0138180
944.286	0.0138511
944.364	0.0137380
944.443	0.0136980
944.521	0.0135644
944.599	0.0138391
944.677	0.0138030
944.755	0.0136176
944.833	0.0137217
944.911	0.0138453
944.989	0.0137154
945.068	0.0138141
945.146	0.0138086
945.224	0.0138369
945.302	0.0137721
945.380	0.0137010
945.458	0.0137199
945.536	0.0137347
945.614	0.0137896
945.693	0.0135769
945.771	0.0135963
945.849	0.0138602
945.927	0.0137940
946.005	0.0136797
946.083	0.0137437
946.161	0.0136626
946.239	0.0136491
946.318	0.0137246
946.396	0.0137791
946.474	0.0137001
946.552	0.0137492
946.630	0.0137231
946.708	0.0136744
946.786	0.0137063
946.864	0.0137032
946.943	0.0136485
947.021	0.0136603
947.099	0.0137418
947.177	0.0137325
947.255	0.0137228
947.333	0.0135636
947.411	0.0137721
947.489	0.0136353
947.568	0.0136098
947.646	0.0138329
947.724	0.0137206
947.802	0.0137229
947.880	0.0137441
947.958	0.0137144
948.036	0.0138416
948.114	0.0139026
948.193	0.0138408
948.271	0.0137841
948.349	0.0137853
948.427	0.0138869
948.505	0.0140409
948.583	0.0138369
948.661	0.0140736
948.739	0.0138541
948.818	0.0137976
948.896	0.0138602
948.974	0.0138974
949.052	0.0137478
949.130	0.0137794
949.208	0.0138869
949.286	0.0139516
949.364	0.0138326
949.443	0.0138973
949.521	0.0138352
949.599	0.0137074
949.677	0.0138679
949.755	0.0138577
949.833	0.0138393
949.911	0.0139648
949.989	0.0136878
950.068	0.0139326
950.146	0.0138266
950.224	0.0137125
950.302	0.0137897
950.380	0.0139133
950.458	0.0137795
950.536	0.0138073
950.614	0.0136926
950.693	0.0136067
950.771	0.0137007
950.849	0.0137554
950.927	0.0137176
951.005	0.0136670
951.083	0.0135431
951.161	0.0137053
951.239	0.0137427
951.318	0.0137398
951.396	0.0136100
951.474	0.0135932
951.552	0.0135971
951.630	0.0136531
951.708	0.0137039
951.786	0.0136491
951.864	0.0135873
951.943	0.0136652
952.021	0.0138123
952.099	0.0137980
952.177	0.0137572
952.255	0.0135826
952.333	0.0136424
952.411	0.0136305
952.489	0.0137234
952.568	0.0136102
952.646	0.0137286
952.724	0.0136300
952.802	0.0136758
952.880	0.0135895
952.958	0.0135922
953.036	0.0136975
953.114	0.0137827
953.193	0.0135986
953.271	0.0135918
953.349	0.0136726
953.427	0.0135484
953.505	0.0135419
953.583	0.0137319
953.661	0.0136370
953.739	0.0135985
953.818	0.0137295
953.896	0.0136090
953.974	0.0135088
954.052	0.0135473
954.130	0.0136356
954.208	0.0135944
954.286	0.0137373
954.364	0.0138724
954.443	0.0137991
954.521	0.0136808
954.599	0.0138392
954.677	0.0138535
954.755	0.0138615
954.833	0.0137144
954.911	0.0138696
954.989	0.0139273
955.068	0.0137976
955.146	0.0139552
955.224	0.0138934
955.302	0.0138391
955.380	0.0138517
955.458	0.0137679
955.536	0.0137769
955.614	0.0138577
955.693	0.0138091
955.771	0.0137864
955.849	0.0137996
955.927	0.0138130
956.005	0.0138139
956.083	0.0137000
956.161	0.0137048
956.239	0.0137324
956.318	0.0137881
956.396	0.0138415
956.474	0.0136824
956.552	0.0137169
956.630	0.0138516
956.708	0.0138221
956.786	0.0138158
956.864	0.0137224
956.943	0.0137849
957.021	0.0136482
957.099	0.0137716
957.177	0.0136327
957.255	0.0137235
957.333	0.0137373
957.411	0.0136425
957.489	0.0136617
957.568	0.0137323
957.646	0.0136678
957.724	0.0135240
957.802	0.0135567
957.880	0.0136148
957.958	0.0136706
958.036	0.0136185
958.114	0.0136258
958.193	0.0135524
958.271	0.0134689
958.349	0.0135789
958.427	0.0136460
958.505	0.0135078
958.583	0.0136639
958.661	0.0134409
958.739	0.0135593
958.818	0.0135828
958.896	0.0134206
958.974	0.0135639
959.052	0.0134816
959.130	0.0133842
959.208	0.0135386
959.286	0.0134996
959.364	0.0135624
959.443	0.0136824
959.521	0.0135850
959.599	0.0136569
959.677	0.0135837
959.755	0.0136253
959.833	0.0136675
959.911	0.0136173
