05/14/2022	16:49:47	Ver.	4.1	UNKNOWN
Optical Delay	639.989416	Delta X		0.078125	Sweeps	1	Scan Rate	0/0
Coordinates	Axis 1	NaN	Axis 2	NaN	Axis 3	NaN	Axis 4	NaN	Axis 5	NaN	Axis 6	0.000000
TX Power	0.000000	RX Power	0.000000

639.989	0.0135447
640.068	0.0136505
640.146	0.0135086
640.224	0.0136757
640.302	0.0135432
640.380	0.0136678
640.458	0.0135712
640.536	0.0135808
640.614	0.0134731
640.693	0.0134619
640.771	0.0135012
640.849	0.0135438
640.927	0.0135155
641.005	0.0137216
641.083	0.0135878
641.161	0.0134892
641.239	0.0134143
641.318	0.0135415
641.396	0.0133514
641.474	0.0134401
641.552	0.0135323
641.630	0.0135166
641.708	0.0135538
641.786	0.0135897
641.864	0.0136052
641.943	0.0135159
642.021	0.0135484
642.099	0.0136720
642.177	0.0135021
642.255	0.0134854
642.333	0.0135682
642.411	0.0136814
642.489	0.0135878
642.568	0.0134962
642.646	0.0136000
642.724	0.0135565
642.802	0.0135046
642.880	0.0134425
642.958	0.0136504
643.036	0.0136429
643.114	0.0135587
643.193	0.0135381
643.271	0.0136420
643.349	0.0134840
643.427	0.0135154
643.505	0.0137166
643.583	0.0136480
643.661	0.0134579
643.739	0.0135406
643.818	0.0136050
643.896	0.0135518
643.974	0.0135374
644.052	0.0134997
644.130	0.0135497
644.208	0.0135971
644.286	0.0135217
644.364	0.0136419
644.443	0.0135970
644.521	0.0135234
644.599	0.0135278
644.677	0.0135609
644.755	0.0134673
644.833	0.0135941
644.911	0.0134779
644.989	0.0135842
645.068	0.0134217
645.146	0.0134399
645.224	0.0135603
645.302	0.0134285
645.380	0.0134122
645.458	0.0135389
645.536	0.0133760
645.614	0.0135098
645.693	0.0135536
645.771	0.0133321
645.849	0.0135677
645.927	0.0133473
646.005	0.0134857
646.083	0.0133991
646.161	0.0135331
646.239	0.0134830
646.318	0.0134771
646.396	0.0134236
646.474	0.0135642
646.552	0.0134541
646.630	0.0134906
646.708	0.0135668
646.786	0.0134685
646.864	0.0136298
646.943	0.0136209
647.021	0.0135303
647.099	0.0135970
647.177	0.0135508
647.255	0.0135964
647.333	0.0136909
647.411	0.0136549
647.489	0.0137009
647.568	0.0136542
647.646	0.0136858
647.724	0.0135175
647.802	0.0136185
647.880	0.0135576
647.958	0.0136439
648.036	0.0137322
648.114	0.0137103
648.193	0.0136581
648.271	0.0137325
648.349	0.0138176
648.427	0.0136898
648.505	0.0137067
648.583	0.0137383
648.661	0.0139068
648.739	0.0137121
648.818	0.0136845
648.896	0.0136531
648.974	0.0136659
649.052	0.0136192
649.130	0.0137657
649.208	0.0139169
649.286	0.0137567
649.364	0.0136533
649.443	0.0136831
649.521	0.0137408
649.599	0.0137734
649.677	0.0137554
649.755	0.0136890
649.833	0.0137511
649.911	0.0136769
649.989	0.0137657
650.068	0.0137774
650.146	0.0137230
650.224	0.0137521
650.302	0.0138107
650.380	0.0136418
650.458	0.0137598
650.536	0.0137885
650.614	0.0136810
650.693	0.0136703
650.771	0.0135934
650.849	0.0137289
650.927	0.0136257
651.005	0.0137128
651.083	0.0137705
651.161	0.0137953
651.239	0.0137667
651.318	0.0137272
651.396	0.0135221
651.474	0.0136636
651.552	0.0137153
651.630	0.0138371
651.708	0.0137236
651.786	0.0136868
651.864	0.0136426
651.943	0.0136407
652.021	0.0137495
652.099	0.0137151
652.177	0.0137291
652.255	0.0136229
652.333	0.0136166
652.411	0.0136574
652.489	0.0136848
652.568	0.0136395
652.646	0.0136333
652.724	0.0136875
652.802	0.0136000
652.880	0.0135849
652.958	0.0137225
653.036	0.0136255
653.114	0.0136328
653.193	0.0136004
653.271	0.0137629
653.349	0.0137343
653.427	0.0135751
653.505	0.0135791
653.583	0.0137196
653.661	0.0136729
653.739	0.0137125
653.818	0.0136864
653.896	0.0137334
653.974	0.0136366
654.052	0.0137650
654.130	0.0137550
654.208	0.0137066
654.286	0.0136336
654.364	0.0136721
654.443	0.0135326
654.521	0.0137733
654.599	0.0137848
654.677	0.0137228
654.755	0.0137555
654.833	0.0136694
654.911	0.0137087
654.989	0.0138053
655.068	0.0136047
655.146	0.0137781
655.224	0.0137315
655.302	0.0136026
655.380	0.0136514
655.458	0.0137546
655.536	0.0137481
655.614	0.0137645
655.693	0.0137431
655.771	0.0136259
655.849	0.0136767
655.927	0.0137521
656.005	0.0137068
656.083	0.0136623
656.161	0.0138046
656.239	0.0136909
656.318	0.0137789
656.396	0.0137399
656.474	0.0136572
656.552	0.0135806
656.630	0.0136427
656.708	0.0136688
656.786	0.0135544
656.864	0.0136494
656.943	0.0135997
657.021	0.0136936
657.099	0.0137268
657.177	0.0136801
657.255	0.0137358
657.333	0.0136712
657.411	0.0135612
657.489	0.0135197
657.568	0.0136378
657.646	0.0138441
657.724	0.0135853
657.802	0.0135635
657.880	0.0137033
657.958	0.0137554
658.036	0.0136691
658.114	0.0135670
658.193	0.0136332
658.271	0.0136150
658.349	0.0135894
658.427	0.0137173
658.505	0.0135031
658.583	0.0135960
658.661	0.0135083
658.739	0.0135849
658.818	0.0135687
658.896	0.0135134
658.974	0.0134805
659.052	0.0136131
659.130	0.0134843
659.208	0.0136536
659.286	0.0134970
659.364	0.0135813
659.443	0.0135768
659.521	0.0134712
659.599	0.0136837
659.677	0.0137202
659.755	0.0135860
659.833	0.0136293
659.911	0.0135960
659.989	0.0136672
660.068	0.0137050
660.146	0.0136799
660.224	0.0137553
660.302	0.0136875
660.380	0.0137627
660.458	0.0136630
660.536	0.0137413
660.614	0.0137637
660.693	0.0137313
660.771	0.0135465
660.849	0.0136680
660.927	0.0136551
661.005	0.0136557
661.083	0.0135669
661.161	0.0135290
661.239	0.0136331
661.318	0.0137041
661.396	0.0135419
661.474	0.0134344
661.552	0.0134345
661.630	0.0136475
661.708	0.0134155
661.786	0.0133482
661.864	0.0134705
661.943	0.0135118
662.021	0.0133481
662.099	0.0134126
662.177	0.0133714
662.255	0.0132838
662.333	0.0135280
662.411	0.0134097
662.489	0.0134346
662.568	0.0135580
662.646	0.0134995
662.724	0.0135513
662.802	0.0135838
662.880	0.0136325
662.958	0.0135784
663.036	0.0136168
663.114	0.0136705
663.193	0.0136810
663.271	0.0139111
663.349	0.0137705
663.427	0.0136761
663.505	0.0138087
663.583	0.0138530
663.661	0.0138999
663.739	0.0140518
663.818	0.0138255
663.896	0.0137289
663.974	0.0137916
664.052	0.0138506
664.130	0.0136836
664.208	0.0136859
664.286	0.0136828
664.364	0.0135384
664.443	0.0133706
664.521	0.0133353
664.599	0.0133527
664.677	0.0132932
664.755	0.0130656
664.833	0.0130048
664.911	0.0132146
664.989	0.0129734
665.068	0.0130028
665.146	0.0130695
665.224	0.0129939
665.302	0.0129889
665.380	0.0131079
665.458	0.0129289
665.536	0.0131474
665.614	0.0132130
665.693	0.0131950
665.771	0.0133583
665.849	0.0135712
665.927	0.0137605
666.005	0.0137723
666.083	0.0137177
666.161	0.0139314
666.239	0.0138834
666.318	0.0140277
666.396	0.0141540
666.474	0.0143076
666.552	0.0143298
666.630	0.0141739
666.708	0.0142448
666.786	0.0140022
666.864	0.0142080
666.943	0.0140980
667.021	0.0139647
667.099	0.0137906
667.177	0.0136887
667.255	0.0135619
667.333	0.0134771
667.411	0.0134049
667.489	0.0133097
667.568	0.0131741
667.646	0.0132243
667.724	0.0130283
667.802	0.0129476
667.880	0.0129604
667.958	0.0128813
668.036	0.0127614
668.114	0.0127908
668.193	0.0128857
668.271	0.0128140
668.349	0.0128046
668.427	0.0129345
668.505	0.0129266
668.583	0.0129825
668.661	0.0131281
668.739	0.0132150
668.818	0.0132559
668.896	0.0133735
668.974	0.0134518
669.052	0.0136777
669.130	0.0136399
669.208	0.0137820
669.286	0.0139745
669.364	0.0139068
669.443	0.0141108
669.521	0.0140312
669.599	0.0142641
669.677	0.0143185
669.755	0.0141861
669.833	0.0142079
669.911	0.0144242
669.989	0.0142598
670.068	0.0142372
670.146	0.0141965
670.224	0.0142956
670.302	0.0142609
670.380	0.0142139
670.458	0.0142048
670.536	0.0140992
670.614	0.0139500
670.693	0.0137823
670.771	0.0138068
670.849	0.0135160
670.927	0.0134925
671.005	0.0135078
671.083	0.0132584
671.161	0.0131842
671.239	0.0131046
671.318	0.0129806
671.396	0.0128353
671.474	0.0127460
671.552	0.0127702
671.630	0.0125519
671.708	0.0126524
671.786	0.0125043
671.864	0.0125068
671.943	0.0125056
672.021	0.0127195
672.099	0.0128159
672.177	0.0127439
672.255	0.0126273
672.333	0.0129290
672.411	0.0131989
672.489	0.0133453
672.568	0.0134377
672.646	0.0136861
672.724	0.0138583
672.802	0.0140020
672.880	0.0141247
672.958	0.0143974
673.036	0.0145125
673.114	0.0147167
673.193	0.0147796
673.271	0.0148072
673.349	0.0148895
673.427	0.0147811
673.505	0.0147173
673.583	0.0146925
673.661	0.0147968
673.739	0.0146863
673.818	0.0145452
673.896	0.0144330
673.974	0.0142809
674.052	0.0141089
674.130	0.0141142
674.208	0.0138590
674.286	0.0134795
674.364	0.0133792
674.443	0.0133389
674.521	0.0131628
674.599	0.0129654
674.677	0.0127222
674.755	0.0126219
674.833	0.0125491
674.911	0.0125632
674.989	0.0123704
675.068	0.0123156
675.146	0.0124066
675.224	0.0122511
675.302	0.0122917
675.380	0.0124006
675.458	0.0124487
675.536	0.0126617
675.614	0.0126511
675.693	0.0128129
675.771	0.0128361
675.849	0.0130193
675.927	0.0131411
676.005	0.0133068
676.083	0.0135285
676.161	0.0135709
676.239	0.0135851
676.318	0.0137482
676.396	0.0138388
676.474	0.0139585
676.552	0.0141119
676.630	0.0141271
676.708	0.0142596
676.786	0.0143717
676.864	0.0143082
676.943	0.0143498
677.021	0.0144182
677.099	0.0143997
677.177	0.0143812
677.255	0.0143615
677.333	0.0143723
677.411	0.0142885
677.489	0.0142640
677.568	0.0141788
677.646	0.0142644
677.724	0.0141000
677.802	0.0141366
677.880	0.0140994
677.958	0.0139745
678.036	0.0140203
678.114	0.0138361
678.193	0.0136588
678.271	0.0138029
678.349	0.0138377
678.427	0.0135759
678.505	0.0136472
678.583	0.0136246
678.661	0.0134093
678.739	0.0134724
678.818	0.0134512
678.896	0.0132484
678.974	0.0131273
679.052	0.0131385
679.130	0.0130015
679.208	0.0131112
679.286	0.0131633
679.364	0.0131174
679.443	0.0129320
679.521	0.0128783
679.599	0.0129073
679.677	0.0128474
679.755	0.0128725
679.833	0.0128458
679.911	0.0128677
679.989	0.0128611
680.068	0.0129431
680.146	0.0128387
680.224	0.0128371
680.302	0.0129098
680.380	0.0129972
680.458	0.0130397
680.536	0.0131738
680.614	0.0132277
680.693	0.0133518
680.771	0.0134167
680.849	0.0133777
680.927	0.0135951
681.005	0.0136010
681.083	0.0136669
681.161	0.0136716
681.239	0.0137676
681.318	0.0138821
681.396	0.0140087
681.474	0.0141233
681.552	0.0140259
681.630	0.0140031
681.708	0.0140533
681.786	0.0141020
681.864	0.0140755
681.943	0.0139709
682.021	0.0139739
682.099	0.0141830
682.177	0.0141352
682.255	0.0142464
682.333	0.0142641
682.411	0.0140688
682.489	0.0140864
682.568	0.0141566
682.646	0.0141850
682.724	0.0141738
682.802	0.0141007
682.880	0.0139399
682.958	0.0141793
683.036	0.0140502
683.114	0.0139882
683.193	0.0141151
683.271	0.0139616
683.349	0.0137928
683.427	0.0137240
683.505	0.0137034
683.583	0.0138132
683.661	0.0136917
683.739	0.0136024
683.818	0.0134464
683.896	0.0133356
683.974	0.0132309
684.052	0.0132542
684.130	0.0131080
684.208	0.0130461
684.286	0.0128404
684.364	0.0128028
684.443	0.0127058
684.521	0.0126914
684.599	0.0125893
684.677	0.0124670
684.755	0.0125279
684.833	0.0124251
684.911	0.0123540
684.989	0.0123923
685.068	0.0122018
685.146	0.0123278
685.224	0.0123019
685.302	0.0124149
685.380	0.0124825
685.458	0.0124760
685.536	0.0124788
685.614	0.0126611
685.693	0.0127415
685.771	0.0128923
685.849	0.0131731
685.927	0.0132543
686.005	0.0133147
686.083	0.0135262
686.161	0.0136308
686.239	0.0138033
686.318	0.0140168
686.396	0.0140627
686.474	0.0141909
686.552	0.0142800
686.630	0.0144434
686.708	0.0145116
686.786	0.0145681
686.864	0.0145449
686.943	0.0145860
687.021	0.0145786
687.099	0.0146053
687.177	0.0145170
687.255	0.0146594
687.333	0.0145795
687.411	0.0145489
687.489	0.0145317
687.568	0.0145391
687.646	0.0144885
687.724	0.0143284
687.802	0.0142421
687.880	0.0142145
687.958	0.0142018
688.036	0.0141505
688.114	0.0141315
688.193	0.0138474
688.271	0.0138093
688.349	0.0136882
688.427	0.0136767
688.505	0.0136117
688.583	0.0134385
688.661	0.0132413
688.739	0.0133607
688.818	0.0133349
688.896	0.0131976
688.974	0.0132507
689.052	0.0131113
689.130	0.0128107
689.208	0.0128906
689.286	0.0127180
689.364	0.0127208
689.443	0.0125879
689.521	0.0125626
689.599	0.0125442
689.677	0.0122820
689.755	0.0124196
689.833	0.0123451
689.911	0.0122894
689.989	0.0123355
690.068	0.0123137
690.146	0.0122195
690.224	0.0123340
690.302	0.0123369
690.380	0.0123059
690.458	0.0123650
690.536	0.0123363
690.614	0.0124078
690.693	0.0125455
690.771	0.0126007
690.849	0.0125619
690.927	0.0128022
691.005	0.0129030
691.083	0.0129408
691.161	0.0132066
691.239	0.0133650
691.318	0.0133333
691.396	0.0135920
691.474	0.0137170
691.552	0.0139220
691.630	0.0140598
691.708	0.0140482
691.786	0.0141311
691.864	0.0142138
691.943	0.0143096
692.021	0.0145187
692.099	0.0145580
692.177	0.0147807
692.255	0.0148626
692.333	0.0148186
692.411	0.0148785
692.489	0.0148558
692.568	0.0150311
692.646	0.0151334
692.724	0.0150410
692.802	0.0150577
692.880	0.0151154
692.958	0.0150853
693.036	0.0152721
693.114	0.0151794
693.193	0.0151119
693.271	0.0149134
693.349	0.0148370
693.427	0.0148150
693.505	0.0147301
693.583	0.0145708
693.661	0.0145132
693.739	0.0143946
693.818	0.0142049
693.896	0.0139623
693.974	0.0137882
694.052	0.0135117
694.130	0.0132342
694.208	0.0130182
694.286	0.0127257
694.364	0.0127833
694.443	0.0122931
694.521	0.0118967
694.599	0.0119908
694.677	0.0117754
694.755	0.0113954
694.833	0.0112553
694.911	0.0111005
694.989	0.0111261
695.068	0.0109748
695.146	0.0107746
695.224	0.0107884
695.302	0.0109560
695.380	0.0110544
695.458	0.0108980
695.536	0.0111742
695.614	0.0113961
695.693	0.0115203
695.771	0.0116093
695.849	0.0118935
695.927	0.0122145
696.005	0.0123851
696.083	0.0126894
696.161	0.0129829
696.239	0.0133144
696.318	0.0136156
696.396	0.0138192
696.474	0.0140125
696.552	0.0142905
696.630	0.0144915
696.708	0.0145638
696.786	0.0148410
696.864	0.0148696
696.943	0.0149175
697.021	0.0149757
697.099	0.0151526
697.177	0.0150906
697.255	0.0151022
697.333	0.0149099
697.411	0.0150477
697.489	0.0150589
697.568	0.0149809
697.646	0.0148591
697.724	0.0149458
697.802	0.0148463
697.880	0.0147571
697.958	0.0146008
698.036	0.0147836
698.114	0.0146359
698.193	0.0146420
698.271	0.0143865
698.349	0.0144971
698.427	0.0146067
698.505	0.0145851
698.583	0.0145800
698.661	0.0146728
698.739	0.0144318
698.818	0.0143441
698.896	0.0144279
698.974	0.0143103
699.052	0.0143878
699.130	0.0142746
699.208	0.0141834
699.286	0.0138643
699.364	0.0139085
699.443	0.0137365
699.521	0.0136652
699.599	0.0133878
699.677	0.0132271
699.755	0.0131255
699.833	0.0129952
699.911	0.0128593
699.989	0.0126489
700.068	0.0123182
700.146	0.0123615
700.224	0.0119539
700.302	0.0118280
700.380	0.0117049
700.458	0.0116035
700.536	0.0114852
700.614	0.0112687
700.693	0.0113425
700.771	0.0112418
700.849	0.0112237
700.927	0.0111939
701.005	0.0113007
701.083	0.0112826
701.161	0.0113078
701.239	0.0115483
701.318	0.0117432
701.396	0.0118025
701.474	0.0120400
701.552	0.0121251
701.630	0.0123985
701.708	0.0126148
701.786	0.0128233
701.864	0.0131478
701.943	0.0133434
702.021	0.0135300
702.099	0.0138419
702.177	0.0140315
702.255	0.0142196
702.333	0.0143896
702.411	0.0146201
702.489	0.0147920
702.568	0.0149574
702.646	0.0150563
702.724	0.0151450
702.802	0.0152730
702.880	0.0153057
702.958	0.0154811
703.036	0.0155775
703.114	0.0154474
703.193	0.0154862
703.271	0.0153815
703.349	0.0154090
703.427	0.0153548
703.505	0.0154001
703.583	0.0151204
703.661	0.0150742
703.739	0.0149731
703.818	0.0150381
703.896	0.0148076
703.974	0.0146179
704.052	0.0145894
704.130	0.0145584
704.208	0.0143535
704.286	0.0142604
704.364	0.0141486
704.443	0.0140925
704.521	0.0139101
704.599	0.0139731
704.677	0.0137074
704.755	0.0136711
704.833	0.0134997
704.911	0.0135007
704.989	0.0133880
705.068	0.0130947
705.146	0.0130791
705.224	0.0130130
705.302	0.0130003
705.380	0.0127709
705.458	0.0126736
705.536	0.0125516
705.614	0.0125000
705.693	0.0123896
705.771	0.0123214
705.849	0.0122894
705.927	0.0120869
706.005	0.0120509
706.083	0.0119960
706.161	0.0118365
706.239	0.0117181
706.318	0.0117860
706.396	0.0117856
706.474	0.0117963
706.552	0.0117434
706.630	0.0118240
706.708	0.0119183
706.786	0.0117713
706.864	0.0119253
706.943	0.0120259
707.021	0.0119444
707.099	0.0121819
707.177	0.0123347
707.255	0.0124436
707.333	0.0126642
707.411	0.0127423
707.489	0.0127825
707.568	0.0130100
707.646	0.0131769
707.724	0.0133936
707.802	0.0134463
707.880	0.0136949
707.958	0.0138077
708.036	0.0137852
708.114	0.0142213
708.193	0.0142399
708.271	0.0144880
708.349	0.0145599
708.427	0.0147781
708.505	0.0147421
708.583	0.0148225
708.661	0.0150613
708.739	0.0150407
708.818	0.0151997
708.896	0.0151701
708.974	0.0153233
709.052	0.0154191
709.130	0.0153490
709.208	0.0154022
709.286	0.0152531
709.364	0.0152914
709.443	0.0153822
709.521	0.0151711
709.599	0.0152937
709.677	0.0152029
709.755	0.0150189
709.833	0.0148937
709.911	0.0148241
709.989	0.0146139
710.068	0.0146615
710.146	0.0145478
710.224	0.0144456
710.302	0.0144324
710.380	0.0142680
710.458	0.0139780
710.536	0.0137179
710.614	0.0136597
710.693	0.0135465
710.771	0.0134589
710.849	0.0132755
710.927	0.0131178
711.005	0.0131048
711.083	0.0129175
711.161	0.0127384
711.239	0.0127157
711.318	0.0127270
711.396	0.0124982
711.474	0.0124194
711.552	0.0124459
711.630	0.0124709
711.708	0.0122533
711.786	0.0123779
711.864	0.0121557
711.943	0.0121227
712.021	0.0121915
712.099	0.0121569
712.177	0.0121594
712.255	0.0119507
712.333	0.0119833
712.411	0.0119978
712.489	0.0120009
712.568	0.0119782
712.646	0.0119772
712.724	0.0118538
712.802	0.0119596
712.880	0.0119480
712.958	0.0119665
713.036	0.0120309
713.114	0.0121324
713.193	0.0121591
713.271	0.0122751
713.349	0.0124237
713.427	0.0124795
713.505	0.0126292
713.583	0.0125749
713.661	0.0129488
713.739	0.0130946
713.818	0.0131411
713.896	0.0134735
713.974	0.0136216
714.052	0.0137715
714.130	0.0141183
714.208	0.0141282
714.286	0.0143818
714.364	0.0147619
714.443	0.0148790
714.521	0.0150591
714.599	0.0153058
714.677	0.0152582
714.755	0.0153441
714.833	0.0156081
714.911	0.0157848
714.989	0.0156009
715.068	0.0156934
715.146	0.0157501
715.224	0.0156850
715.302	0.0155868
715.380	0.0156538
715.458	0.0156648
715.536	0.0155656
715.614	0.0155281
715.693	0.0154012
715.771	0.0151929
715.849	0.0151856
715.927	0.0152374
716.005	0.0150182
716.083	0.0147339
716.161	0.0146275
716.239	0.0144389
716.318	0.0143204
716.396	0.0140366
716.474	0.0138843
716.552	0.0138116
716.630	0.0136800
716.708	0.0133763
716.786	0.0130628
716.864	0.0129776
716.943	0.0127053
717.021	0.0124391
717.099	0.0123392
717.177	0.0120592
717.255	0.0119408
717.333	0.0118973
717.411	0.0118880
717.489	0.0116666
717.568	0.0113396
717.646	0.0112991
717.724	0.0111714
717.802	0.0111868
717.880	0.0111473
717.958	0.0110965
718.036	0.0111578
718.114	0.0112672
718.193	0.0111954
718.271	0.0113920
718.349	0.0113509
718.427	0.0113560
718.505	0.0116101
718.583	0.0118684
718.661	0.0118786
718.739	0.0121366
718.818	0.0123288
718.896	0.0126414
718.974	0.0127969
719.052	0.0128884
719.130	0.0132604
719.208	0.0133676
719.286	0.0136902
719.364	0.0138558
719.443	0.0141188
719.521	0.0141830
719.599	0.0145992
719.677	0.0146272
719.755	0.0148915
719.833	0.0149776
719.911	0.0151144
719.989	0.0150117
720.068	0.0152559
720.146	0.0154958
720.224	0.0155558
720.302	0.0154898
720.380	0.0155478
720.458	0.0154708
720.536	0.0156319
720.614	0.0154990
720.693	0.0154316
720.771	0.0154093
720.849	0.0152144
720.927	0.0152050
721.005	0.0150094
721.083	0.0150260
721.161	0.0150233
721.239	0.0148032
721.318	0.0146896
721.396	0.0145287
721.474	0.0142596
721.552	0.0141480
721.630	0.0140395
721.708	0.0139712
721.786	0.0136465
721.864	0.0135618
721.943	0.0134623
722.021	0.0133870
722.099	0.0133251
722.177	0.0132830
722.255	0.0132243
722.333	0.0130418
722.411	0.0130601
722.489	0.0130354
722.568	0.0129484
722.646	0.0130309
722.724	0.0129176
722.802	0.0127673
722.880	0.0128263
722.958	0.0128593
723.036	0.0127020
723.114	0.0127798
723.193	0.0128981
723.271	0.0127523
723.349	0.0126272
723.427	0.0125011
723.505	0.0126283
723.583	0.0125413
723.661	0.0126903
723.739	0.0126280
723.818	0.0123518
723.896	0.0124895
723.974	0.0124615
724.052	0.0124856
724.130	0.0126055
724.208	0.0125376
724.286	0.0126822
724.364	0.0127029
724.443	0.0127319
724.521	0.0127341
724.599	0.0128117
724.677	0.0129644
724.755	0.0130894
724.833	0.0131885
724.911	0.0132697
724.989	0.0131955
725.068	0.0134883
725.146	0.0135551
725.224	0.0136890
725.302	0.0137704
725.380	0.0138182
725.458	0.0137809
725.536	0.0138260
725.614	0.0139002
725.693	0.0140109
725.771	0.0140990
725.849	0.0142375
725.927	0.0140913
726.005	0.0141392
726.083	0.0143153
726.161	0.0143045
726.239	0.0143007
726.318	0.0143642
726.396	0.0144650
726.474	0.0144566
726.552	0.0144641
726.630	0.0144544
726.708	0.0144183
726.786	0.0144561
726.864	0.0143977
726.943	0.0143749
727.021	0.0143607
727.099	0.0144173
727.177	0.0144127
727.255	0.0142306
727.333	0.0141343
727.411	0.0142242
727.489	0.0142239
727.568	0.0139961
727.646	0.0140150
727.724	0.0139796
727.802	0.0139896
727.880	0.0140137
727.958	0.0137807
728.036	0.0137133
728.114	0.0136912
728.193	0.0135738
728.271	0.0134957
728.349	0.0134594
728.427	0.0134885
728.505	0.0134579
728.583	0.0133104
728.661	0.0133047
728.739	0.0131510
728.818	0.0130915
728.896	0.0130888
728.974	0.0130480
729.052	0.0130922
729.130	0.0130590
729.208	0.0129866
729.286	0.0129500
729.364	0.0129979
729.443	0.0128337
729.521	0.0130324
729.599	0.0129366
729.677	0.0130154
729.755	0.0131096
729.833	0.0130077
729.911	0.0131656
729.989	0.0131049
730.068	0.0132034
730.146	0.0132481
730.224	0.0133150
730.302	0.0135073
730.380	0.0134082
730.458	0.0134335
730.536	0.0134616
730.614	0.0135451
730.693	0.0135430
730.771	0.0135355
730.849	0.0135764
730.927	0.0136810
731.005	0.0137630
731.083	0.0138136
731.161	0.0138490
731.239	0.0137532
731.318	0.0138961
731.396	0.0138393
731.474	0.0140137
731.552	0.0137044
731.630	0.0137547
731.708	0.0138777
731.786	0.0138511
731.864	0.0137653
731.943	0.0137595
732.021	0.0137311
732.099	0.0137744
732.177	0.0135307
732.255	0.0135303
732.333	0.0136185
732.411	0.0135543
732.489	0.0135040
732.568	0.0133631
732.646	0.0133240
732.724	0.0134898
732.802	0.0134235
732.880	0.0134649
732.958	0.0134750
733.036	0.0136107
733.114	0.0136367
733.193	0.0136805
733.271	0.0136970
733.349	0.0137208
733.427	0.0137373
733.505	0.0137825
733.583	0.0138322
733.661	0.0137588
733.739	0.0138673
733.818	0.0137775
733.896	0.0139358
733.974	0.0139372
734.052	0.0138059
734.130	0.0140643
734.208	0.0140997
734.286	0.0139825
734.364	0.0139655
734.443	0.0139256
734.521	0.0139342
734.599	0.0139729
734.677	0.0139630
734.755	0.0140501
734.833	0.0139606
734.911	0.0138625
734.989	0.0138355
735.068	0.0137599
735.146	0.0138499
735.224	0.0136720
735.302	0.0138092
735.380	0.0137463
735.458	0.0137796
735.536	0.0137606
735.614	0.0136484
735.693	0.0137333
735.771	0.0136913
735.849	0.0137053
735.927	0.0136143
736.005	0.0134942
736.083	0.0137315
736.161	0.0137069
736.239	0.0135710
736.318	0.0135696
736.396	0.0134620
736.474	0.0134355
736.552	0.0135558
736.630	0.0134647
736.708	0.0132928
736.786	0.0133151
736.864	0.0133700
736.943	0.0132598
737.021	0.0131678
737.099	0.0131071
737.177	0.0129800
737.255	0.0130281
737.333	0.0129729
737.411	0.0126487
737.489	0.0126871
737.568	0.0126199
737.646	0.0125211
737.724	0.0126300
737.802	0.0125230
737.880	0.0126656
737.958	0.0124811
738.036	0.0125249
738.114	0.0125632
738.193	0.0125207
738.271	0.0126360
738.349	0.0126360
738.427	0.0128465
738.505	0.0126949
738.583	0.0128749
738.661	0.0131799
738.739	0.0131431
738.818	0.0132664
738.896	0.0134187
738.974	0.0133939
739.052	0.0135013
739.130	0.0137719
739.208	0.0138879
739.286	0.0140015
739.364	0.0139701
739.443	0.0141840
739.521	0.0143357
739.599	0.0143665
739.677	0.0143776
739.755	0.0146183
739.833	0.0144585
739.911	0.0146085
739.989	0.0146232
740.068	0.0145418
740.146	0.0145724
740.224	0.0146761
740.302	0.0146387
740.380	0.0145567
740.458	0.0146271
740.536	0.0145482
740.614	0.0145950
740.693	0.0145947
740.771	0.0144538
740.849	0.0144241
740.927	0.0144207
741.005	0.0143101
741.083	0.0142292
741.161	0.0142466
741.239	0.0140496
741.318	0.0139467
741.396	0.0138530
741.474	0.0138152
741.552	0.0137500
741.630	0.0137376
741.708	0.0136216
741.786	0.0135964
741.864	0.0137727
741.943	0.0134801
742.021	0.0134167
742.099	0.0133068
742.177	0.0131675
742.255	0.0132388
742.333	0.0131023
742.411	0.0132719
742.489	0.0129342
742.568	0.0128378
742.646	0.0127563
742.724	0.0127176
742.802	0.0127335
742.880	0.0126259
742.958	0.0126279
743.036	0.0126484
743.114	0.0126408
743.193	0.0125169
743.271	0.0125562
743.349	0.0124912
743.427	0.0126199
743.505	0.0125245
743.583	0.0126459
743.661	0.0127552
743.739	0.0128166
743.818	0.0128490
743.896	0.0127162
743.974	0.0129427
744.052	0.0129063
744.130	0.0131831
744.208	0.0131678
744.286	0.0131533
744.364	0.0133730
744.443	0.0134039
744.521	0.0134819
744.599	0.0136564
744.677	0.0136315
744.755	0.0137724
744.833	0.0137545
744.911	0.0140222
744.989	0.0140232
745.068	0.0139631
745.146	0.0140853
745.224	0.0140365
745.302	0.0141898
745.380	0.0143275
745.458	0.0142147
745.536	0.0143420
745.614	0.0143415
745.693	0.0143839
745.771	0.0145452
745.849	0.0144620
745.927	0.0144328
746.005	0.0144215
746.083	0.0144944
746.161	0.0142934
746.239	0.0142601
746.318	0.0141805
746.396	0.0143372
746.474	0.0141988
746.552	0.0141516
746.630	0.0140355
746.708	0.0141457
746.786	0.0140102
746.864	0.0138230
746.943	0.0139308
747.021	0.0138950
747.099	0.0137338
747.177	0.0135990
747.255	0.0136301
747.333	0.0136669
747.411	0.0134815
747.489	0.0133984
747.568	0.0133065
747.646	0.0132849
747.724	0.0133335
747.802	0.0133247
747.880	0.0130972
747.958	0.0131945
748.036	0.0130945
748.114	0.0130511
748.193	0.0131142
748.271	0.0129328
748.349	0.0128681
748.427	0.0128782
748.505	0.0128658
748.583	0.0129790
748.661	0.0128112
748.739	0.0128438
748.818	0.0128673
748.896	0.0128484
748.974	0.0128488
749.052	0.0129162
749.130	0.0130381
749.208	0.0130829
749.286	0.0130226
749.364	0.0131500
749.443	0.0130225
749.521	0.0133492
749.599	0.0134289
749.677	0.0133422
749.755	0.0133908
749.833	0.0135610
749.911	0.0136555
749.989	0.0136651
750.068	0.0137666
750.146	0.0137291
750.224	0.0137776
750.302	0.0140100
750.380	0.0139573
750.458	0.0141429
750.536	0.0139914
750.614	0.0141111
750.693	0.0141112
750.771	0.0141353
750.849	0.0140915
750.927	0.0141632
751.005	0.0142213
751.083	0.0142497
751.161	0.0140884
751.239	0.0142207
751.318	0.0142820
751.396	0.0141801
751.474	0.0142331
751.552	0.0140199
751.630	0.0140482
751.708	0.0140057
751.786	0.0139172
751.864	0.0139125
751.943	0.0139165
752.021	0.0136760
752.099	0.0139002
752.177	0.0138699
752.255	0.0137467
752.333	0.0136820
752.411	0.0137331
752.489	0.0137376
752.568	0.0138235
752.646	0.0138579
752.724	0.0137037
752.802	0.0137277
752.880	0.0136295
752.958	0.0135550
753.036	0.0137044
753.114	0.0137394
753.193	0.0137057
753.271	0.0135591
753.349	0.0134984
753.427	0.0136056
753.505	0.0136967
753.583	0.0136733
753.661	0.0135591
753.739	0.0136521
753.818	0.0134122
753.896	0.0136234
753.974	0.0135138
754.052	0.0134882
754.130	0.0133916
754.208	0.0135515
754.286	0.0134937
754.364	0.0135149
754.443	0.0134652
754.521	0.0135571
754.599	0.0133057
754.677	0.0132386
754.755	0.0133669
754.833	0.0135069
754.911	0.0133105
754.989	0.0132861
755.068	0.0133288
755.146	0.0133125
755.224	0.0132996
755.302	0.0132695
755.380	0.0131367
755.458	0.0132556
755.536	0.0130719
755.614	0.0132873
755.693	0.0132660
755.771	0.0131073
755.849	0.0131824
755.927	0.0132706
756.005	0.0131602
756.083	0.0131830
756.161	0.0131919
756.239	0.0132925
756.318	0.0132925
756.396	0.0134480
756.474	0.0133485
756.552	0.0134035
756.630	0.0133549
756.708	0.0135242
756.786	0.0133962
756.864	0.0136031
756.943	0.0136147
757.021	0.0135571
757.099	0.0135986
757.177	0.0136772
757.255	0.0135616
757.333	0.0136819
757.411	0.0138055
757.489	0.0137876
757.568	0.0137148
757.646	0.0137122
757.724	0.0137337
757.802	0.0138905
757.880	0.0136675
757.958	0.0137485
758.036	0.0138071
758.114	0.0137505
758.193	0.0136765
758.271	0.0139083
758.349	0.0137208
758.427	0.0137997
758.505	0.0139140
758.583	0.0136257
758.661	0.0137770
758.739	0.0138250
758.818	0.0138176
758.896	0.0136260
758.974	0.0136205
759.052	0.0136962
759.130	0.0136691
759.208	0.0134505
759.286	0.0136172
759.364	0.0134746
759.443	0.0133832
759.521	0.0134940
759.599	0.0134180
759.677	0.0133301
759.755	0.0132620
759.833	0.0132812
759.911	0.0134196
759.989	0.0134175
760.068	0.0134541
760.146	0.0134097
760.224	0.0132583
760.302	0.0132207
760.380	0.0133120
760.458	0.0133814
760.536	0.0132933
760.614	0.0133033
760.693	0.0133788
760.771	0.0133053
760.849	0.0132553
760.927	0.0132452
761.005	0.0132677
761.083	0.0133553
761.161	0.0132697
761.239	0.0132613
761.318	0.0132049
761.396	0.0134410
761.474	0.0135210
761.552	0.0135020
761.630	0.0134200
761.708	0.0134698
761.786	0.0136275
761.864	0.0135869
761.943	0.0136417
762.021	0.0136268
762.099	0.0137418
762.177	0.0138232
762.255	0.0137163
762.333	0.0137364
762.411	0.0140090
762.489	0.0140535
762.568	0.0137585
762.646	0.0140188
762.724	0.0140695
762.802	0.0140131
762.880	0.0139613
762.958	0.0139723
763.036	0.0140965
763.114	0.0140394
763.193	0.0139403
763.271	0.0138820
763.349	0.0140399
763.427	0.0138754
763.505	0.0139049
763.583	0.0138641
763.661	0.0136784
763.739	0.0135873
763.818	0.0137553
763.896	0.0136254
763.974	0.0135671
764.052	0.0134984
764.130	0.0136055
764.208	0.0135206
764.286	0.0133351
764.364	0.0134180
764.443	0.0133793
764.521	0.0132547
764.599	0.0133347
764.677	0.0133199
764.755	0.0132810
764.833	0.0132288
764.911	0.0131534
764.989	0.0131653
765.068	0.0131765
765.146	0.0132104
765.224	0.0133210
765.302	0.0133525
765.380	0.0132204
765.458	0.0133219
765.536	0.0133733
765.614	0.0133704
765.693	0.0134612
765.771	0.0133977
765.849	0.0132130
765.927	0.0135081
766.005	0.0135164
766.083	0.0135069
766.161	0.0136426
766.239	0.0136384
766.318	0.0135166
766.396	0.0135516
766.474	0.0137897
766.552	0.0135990
766.630	0.0137048
766.708	0.0138393
766.786	0.0138216
766.864	0.0139089
766.943	0.0137735
767.021	0.0138477
767.099	0.0138651
767.177	0.0137947
767.255	0.0138322
767.333	0.0138017
767.411	0.0137897
767.489	0.0137556
767.568	0.0137689
767.646	0.0137874
767.724	0.0136023
767.802	0.0136127
767.880	0.0137314
767.958	0.0138103
768.036	0.0135672
768.114	0.0136067
768.193	0.0136081
768.271	0.0134962
768.349	0.0134285
768.427	0.0134455
768.505	0.0133718
768.583	0.0132731
768.661	0.0133587
768.739	0.0134483
768.818	0.0132593
768.896	0.0132455
768.974	0.0130917
769.052	0.0132233
769.130	0.0132912
769.208	0.0134464
769.286	0.0134614
769.364	0.0134269
769.443	0.0134102
769.521	0.0133962
769.599	0.0135155
769.677	0.0136420
769.755	0.0135863
769.833	0.0135529
769.911	0.0136662
769.989	0.0137434
770.068	0.0137901
770.146	0.0139162
770.224	0.0138765
770.302	0.0137700
770.380	0.0139810
770.458	0.0139420
770.536	0.0139207
770.614	0.0138338
770.693	0.0139562
770.771	0.0139738
770.849	0.0140150
770.927	0.0139142
771.005	0.0139849
771.083	0.0139207
771.161	0.0139632
771.239	0.0139772
771.318	0.0138770
771.396	0.0140164
771.474	0.0137986
771.552	0.0137694
771.630	0.0139787
771.708	0.0138887
771.786	0.0138388
771.864	0.0138102
771.943	0.0137545
772.021	0.0135410
772.099	0.0136440
772.177	0.0135006
772.255	0.0134850
772.333	0.0133547
772.411	0.0134177
772.489	0.0133830
772.568	0.0132317
772.646	0.0131499
772.724	0.0131886
772.802	0.0131039
772.880	0.0131219
772.958	0.0131223
773.036	0.0131022
773.114	0.0130923
773.193	0.0129218
773.271	0.0129805
773.349	0.0131627
773.427	0.0130682
773.505	0.0131034
773.583	0.0133333
773.661	0.0132647
773.739	0.0131903
773.818	0.0131971
773.896	0.0132036
773.974	0.0133776
774.052	0.0132808
774.130	0.0135864
774.208	0.0135356
774.286	0.0133642
774.364	0.0136096
774.443	0.0135178
774.521	0.0134249
774.599	0.0135004
774.677	0.0135268
774.755	0.0136170
774.833	0.0135937
774.911	0.0138578
774.989	0.0136320
775.068	0.0136617
775.146	0.0136786
775.224	0.0138561
775.302	0.0137878
775.380	0.0137720
775.458	0.0137730
775.536	0.0138882
775.614	0.0137855
775.693	0.0137936
775.771	0.0139680
775.849	0.0138329
775.927	0.0139161
776.005	0.0139303
776.083	0.0138359
776.161	0.0136435
776.239	0.0137077
776.318	0.0136819
776.396	0.0137641
776.474	0.0135262
776.552	0.0136235
776.630	0.0134834
776.708	0.0134135
776.786	0.0133662
776.864	0.0133438
776.943	0.0132573
777.021	0.0132581
777.099	0.0132961
777.177	0.0132599
777.255	0.0130830
777.333	0.0131104
777.411	0.0130619
777.489	0.0132185
777.568	0.0131444
777.646	0.0128985
777.724	0.0129855
777.802	0.0130092
777.880	0.0130543
777.958	0.0130361
778.036	0.0129559
778.114	0.0130083
778.193	0.0132169
778.271	0.0131699
778.349	0.0131693
778.427	0.0133179
778.505	0.0131638
778.583	0.0132584
778.661	0.0133784
778.739	0.0133992
778.818	0.0134599
778.896	0.0135735
778.974	0.0134174
779.052	0.0135748
779.130	0.0135868
779.208	0.0137109
779.286	0.0137048
779.364	0.0137733
779.443	0.0138830
779.521	0.0138345
779.599	0.0139087
779.677	0.0139295
779.755	0.0138378
779.833	0.0139880
779.911	0.0137399
779.989	0.0136996
780.068	0.0138788
780.146	0.0139842
780.224	0.0137238
780.302	0.0137171
780.380	0.0138023
780.458	0.0136088
780.536	0.0134795
780.614	0.0136376
780.693	0.0134853
780.771	0.0134756
780.849	0.0134667
780.927	0.0133361
781.005	0.0134093
781.083	0.0133073
781.161	0.0132883
781.239	0.0133641
781.318	0.0130421
781.396	0.0131222
781.474	0.0130714
781.552	0.0130181
781.630	0.0130618
781.708	0.0130624
781.786	0.0131329
781.864	0.0130487
781.943	0.0132780
782.021	0.0132130
782.099	0.0130599
782.177	0.0131721
782.255	0.0132986
782.333	0.0132854
782.411	0.0133329
782.489	0.0133955
782.568	0.0134015
782.646	0.0135522
782.724	0.0135935
782.802	0.0134330
782.880	0.0135033
782.958	0.0135717
783.036	0.0136236
783.114	0.0135392
783.193	0.0136303
783.271	0.0137273
783.349	0.0136248
783.427	0.0137495
783.505	0.0137324
783.583	0.0136269
783.661	0.0140009
783.739	0.0138042
783.818	0.0138957
783.896	0.0138890
783.974	0.0138387
784.052	0.0139549
784.130	0.0139413
784.208	0.0139614
784.286	0.0138246
784.364	0.0139424
784.443	0.0139333
784.521	0.0140523
784.599	0.0139404
784.677	0.0138589
784.755	0.0138000
784.833	0.0138416
784.911	0.0139346
784.989	0.0139285
785.068	0.0138730
785.146	0.0136333
785.224	0.0136542
785.302	0.0138171
785.380	0.0136526
785.458	0.0136700
785.536	0.0135329
785.614	0.0135732
785.693	0.0134254
785.771	0.0135344
785.849	0.0134167
785.927	0.0134672
786.005	0.0133823
786.083	0.0133267
786.161	0.0132603
786.239	0.0132584
786.318	0.0132613
786.396	0.0131274
786.474	0.0132516
786.552	0.0131991
786.630	0.0132256
786.708	0.0131256
786.786	0.0131943
786.864	0.0132146
786.943	0.0132596
787.021	0.0132427
787.099	0.0132584
787.177	0.0132909
787.255	0.0132931
787.333	0.0134164
787.411	0.0135014
787.489	0.0134231
787.568	0.0134623
787.646	0.0135086
787.724	0.0137041
787.802	0.0136282
787.880	0.0136732
787.958	0.0138114
788.036	0.0137324
788.114	0.0136522
788.193	0.0136539
788.271	0.0137422
788.349	0.0138895
788.427	0.0137870
788.505	0.0137835
788.583	0.0138095
788.661	0.0137556
788.739	0.0139499
788.818	0.0139098
788.896	0.0138093
788.974	0.0139236
789.052	0.0138952
789.130	0.0138066
789.208	0.0137481
789.286	0.0138433
789.364	0.0137601
789.443	0.0137363
789.521	0.0138422
789.599	0.0137125
789.677	0.0136323
789.755	0.0137314
789.833	0.0137057
789.911	0.0137425
789.989	0.0136242
790.068	0.0136862
790.146	0.0135160
790.224	0.0136890
790.302	0.0136958
790.380	0.0136132
790.458	0.0134333
790.536	0.0133701
790.614	0.0132172
790.693	0.0132932
790.771	0.0132384
790.849	0.0131918
790.927	0.0131083
791.005	0.0130888
791.083	0.0130463
791.161	0.0130105
791.239	0.0129506
791.318	0.0130047
791.396	0.0129407
791.474	0.0129711
791.552	0.0128397
791.630	0.0129222
791.708	0.0128693
791.786	0.0129256
791.864	0.0127993
791.943	0.0128999
792.021	0.0129185
792.099	0.0130201
792.177	0.0130168
792.255	0.0130481
792.333	0.0132157
792.411	0.0131495
792.489	0.0132718
792.568	0.0133272
792.646	0.0133341
792.724	0.0135289
792.802	0.0135675
792.880	0.0135687
792.958	0.0136695
793.036	0.0139029
793.114	0.0137641
793.193	0.0138841
793.271	0.0138760
793.349	0.0137589
793.427	0.0138784
793.505	0.0139198
793.583	0.0140324
793.661	0.0138892
793.739	0.0138414
793.818	0.0139880
793.896	0.0139803
793.974	0.0139886
794.052	0.0140395
794.130	0.0139841
794.208	0.0139092
794.286	0.0138370
794.364	0.0139040
794.443	0.0138770
794.521	0.0137962
794.599	0.0137537
794.677	0.0136628
794.755	0.0138027
794.833	0.0137321
794.911	0.0136805
794.989	0.0136569
795.068	0.0135942
795.146	0.0135422
795.224	0.0136575
795.302	0.0136223
795.380	0.0136040
795.458	0.0136410
795.536	0.0137553
795.614	0.0136143
795.693	0.0135061
795.771	0.0134492
795.849	0.0133515
795.927	0.0134494
796.005	0.0133921
796.083	0.0134595
796.161	0.0132707
796.239	0.0133341
796.318	0.0133025
796.396	0.0131565
796.474	0.0132196
796.552	0.0131271
796.630	0.0131404
796.708	0.0131009
796.786	0.0129305
796.864	0.0130242
796.943	0.0130547
797.021	0.0130249
797.099	0.0129433
797.177	0.0129626
797.255	0.0130869
797.333	0.0129820
797.411	0.0129626
797.489	0.0129529
797.568	0.0129762
797.646	0.0129903
797.724	0.0129754
797.802	0.0131149
797.880	0.0129468
797.958	0.0130811
798.036	0.0131205
798.114	0.0131973
798.193	0.0133003
798.271	0.0133488
798.349	0.0133331
798.427	0.0133521
798.505	0.0135243
798.583	0.0135374
798.661	0.0137946
798.739	0.0137973
798.818	0.0136460
798.896	0.0138881
798.974	0.0139721
799.052	0.0138071
799.130	0.0139414
799.208	0.0140167
799.286	0.0139672
799.364	0.0140150
799.443	0.0140659
799.521	0.0139970
799.599	0.0140288
799.677	0.0139914
799.755	0.0139603
799.833	0.0141540
799.911	0.0140166
799.989	0.0140282
800.068	0.0139872
800.146	0.0139775
800.224	0.0139239
800.302	0.0140212
800.380	0.0139181
800.458	0.0139580
800.536	0.0139233
800.614	0.0138987
800.693	0.0139681
800.771	0.0139489
800.849	0.0139279
800.927	0.0138311
801.005	0.0138065
801.083	0.0138383
801.161	0.0137073
801.239	0.0136020
801.318	0.0136967
801.396	0.0136063
801.474	0.0138003
801.552	0.0135691
801.630	0.0134455
801.708	0.0135745
801.786	0.0135001
801.864	0.0132892
801.943	0.0135374
802.021	0.0134061
802.099	0.0132589
802.177	0.0132913
802.255	0.0132277
802.333	0.0133094
802.411	0.0132874
802.489	0.0132312
802.568	0.0131792
802.646	0.0132790
802.724	0.0132778
802.802	0.0132526
802.880	0.0133009
802.958	0.0131129
803.036	0.0131689
803.114	0.0131834
803.193	0.0131576
803.271	0.0131766
803.349	0.0131889
803.427	0.0130893
803.505	0.0131482
803.583	0.0132172
803.661	0.0132012
803.739	0.0132003
803.818	0.0132845
803.896	0.0133017
803.974	0.0132418
804.052	0.0133182
804.130	0.0132034
804.208	0.0133127
804.286	0.0134760
804.364	0.0132437
804.443	0.0135083
804.521	0.0134373
804.599	0.0134904
804.677	0.0134543
804.755	0.0134885
804.833	0.0136857
804.911	0.0137080
804.989	0.0136774
805.068	0.0138451
805.146	0.0137953
805.224	0.0137346
805.302	0.0138976
805.380	0.0139077
805.458	0.0140688
805.536	0.0141985
805.614	0.0140495
805.693	0.0141856
805.771	0.0140126
805.849	0.0138818
805.927	0.0141009
806.005	0.0140773
806.083	0.0140466
806.161	0.0140761
806.239	0.0138654
806.318	0.0139305
806.396	0.0139877
806.474	0.0139137
806.552	0.0138115
806.630	0.0138020
806.708	0.0138297
806.786	0.0136722
806.864	0.0135423
806.943	0.0134883
807.021	0.0135262
807.099	0.0135049
807.177	0.0132107
807.255	0.0134943
807.333	0.0133804
807.411	0.0133079
807.489	0.0133030
807.568	0.0132837
807.646	0.0131590
807.724	0.0131411
807.802	0.0132131
807.880	0.0131007
807.958	0.0130048
808.036	0.0131834
808.114	0.0131398
808.193	0.0131563
808.271	0.0130495
808.349	0.0129504
808.427	0.0132278
808.505	0.0132014
808.583	0.0131479
808.661	0.0130669
808.739	0.0131236
808.818	0.0131782
808.896	0.0131748
808.974	0.0131731
809.052	0.0131995
809.130	0.0130839
809.208	0.0131234
809.286	0.0131376
809.364	0.0133514
809.443	0.0132698
809.521	0.0133481
809.599	0.0133134
809.677	0.0132478
809.755	0.0133673
809.833	0.0134074
809.911	0.0133489
809.989	0.0133650
810.068	0.0134634
810.146	0.0135714
810.224	0.0137370
810.302	0.0137005
810.380	0.0138182
810.458	0.0139020
810.536	0.0139365
810.614	0.0139873
810.693	0.0139541
810.771	0.0142632
810.849	0.0142136
810.927	0.0143147
811.005	0.0143734
811.083	0.0142677
811.161	0.0144416
811.239	0.0143063
811.318	0.0143914
811.396	0.0143168
811.474	0.0143134
811.552	0.0142456
811.630	0.0141975
811.708	0.0141122
811.786	0.0140665
811.864	0.0139181
811.943	0.0140038
812.021	0.0139699
812.099	0.0137843
812.177	0.0137923
812.255	0.0137983
812.333	0.0136739
812.411	0.0136472
812.489	0.0137268
812.568	0.0136610
812.646	0.0136299
812.724	0.0134398
812.802	0.0135079
812.880	0.0134801
812.958	0.0134268
813.036	0.0134295
813.114	0.0132667
813.193	0.0132911
813.271	0.0132464
813.349	0.0132388
813.427	0.0132721
813.505	0.0130874
813.583	0.0131065
813.661	0.0131027
813.739	0.0131498
813.818	0.0131092
813.896	0.0132795
813.974	0.0131691
814.052	0.0131592
814.130	0.0132927
814.208	0.0130749
814.286	0.0132927
814.364	0.0133350
814.443	0.0132104
814.521	0.0133160
814.599	0.0133878
814.677	0.0134750
814.755	0.0134592
814.833	0.0133863
814.911	0.0134189
814.989	0.0134347
815.068	0.0135992
815.146	0.0136220
815.224	0.0136319
815.302	0.0135448
815.380	0.0136676
815.458	0.0137041
815.536	0.0136379
815.614	0.0137027
815.693	0.0137565
815.771	0.0137101
815.849	0.0136580
815.927	0.0136763
816.005	0.0135156
816.083	0.0135500
816.161	0.0137505
816.239	0.0136960
816.318	0.0137025
816.396	0.0136263
816.474	0.0136383
816.552	0.0137916
816.630	0.0137273
816.708	0.0137396
816.786	0.0138268
816.864	0.0136790
816.943	0.0136900
817.021	0.0136276
817.099	0.0137492
817.177	0.0137630
817.255	0.0137947
817.333	0.0139458
817.411	0.0138551
817.489	0.0138282
817.568	0.0137930
817.646	0.0137802
817.724	0.0137585
817.802	0.0137191
817.880	0.0136575
817.958	0.0137370
818.036	0.0135961
818.114	0.0136203
818.193	0.0135899
818.271	0.0136305
818.349	0.0134464
818.427	0.0134664
818.505	0.0134686
818.583	0.0132895
818.661	0.0134087
818.739	0.0133508
818.818	0.0133026
818.896	0.0133006
818.974	0.0132370
819.052	0.0135137
819.130	0.0135010
819.208	0.0132505
819.286	0.0131552
819.364	0.0133686
819.443	0.0133989
819.521	0.0133012
819.599	0.0132874
819.677	0.0132082
819.755	0.0133595
819.833	0.0134516
819.911	0.0134966
819.989	0.0134779
820.068	0.0133611
820.146	0.0134259
820.224	0.0136842
820.302	0.0134904
820.380	0.0135788
820.458	0.0137170
820.536	0.0137471
820.614	0.0138013
820.693	0.0138094
820.771	0.0139109
820.849	0.0139815
820.927	0.0139924
821.005	0.0139877
821.083	0.0139502
821.161	0.0138651
821.239	0.0138919
821.318	0.0139252
821.396	0.0138605
821.474	0.0138045
821.552	0.0136861
821.630	0.0137379
821.708	0.0135548
821.786	0.0134000
821.864	0.0135086
821.943	0.0133431
822.021	0.0134102
822.099	0.0132798
822.177	0.0132363
822.255	0.0132011
822.333	0.0131922
822.411	0.0131947
822.489	0.0132615
822.568	0.0131464
822.646	0.0132074
822.724	0.0132320
822.802	0.0131750
822.880	0.0133820
822.958	0.0133604
823.036	0.0135496
823.114	0.0134799
823.193	0.0136542
823.271	0.0137769
823.349	0.0138115
823.427	0.0138313
823.505	0.0139349
823.583	0.0139974
823.661	0.0140454
823.739	0.0140628
823.818	0.0142664
823.896	0.0142569
823.974	0.0142270
824.052	0.0142768
824.130	0.0142790
824.208	0.0141512
824.286	0.0141190
824.364	0.0141924
824.443	0.0142548
824.521	0.0140591
824.599	0.0139886
824.677	0.0138216
824.755	0.0137473
824.833	0.0138302
824.911	0.0136454
824.989	0.0135479
825.068	0.0136117
825.146	0.0135688
825.224	0.0135197
825.302	0.0134950
825.380	0.0135152
825.458	0.0134217
825.536	0.0134751
825.614	0.0134858
825.693	0.0134772
825.771	0.0135315
825.849	0.0135532
825.927	0.0135696
826.005	0.0135309
826.083	0.0136131
826.161	0.0134850
826.239	0.0136133
826.318	0.0134927
826.396	0.0136002
826.474	0.0137276
826.552	0.0136842
826.630	0.0138077
826.708	0.0136675
826.786	0.0137201
826.864	0.0137488
826.943	0.0136920
827.021	0.0135835
827.099	0.0136931
827.177	0.0137242
827.255	0.0136889
827.333	0.0136284
827.411	0.0135661
827.489	0.0136124
827.568	0.0135044
827.646	0.0134771
827.724	0.0136536
827.802	0.0137360
827.880	0.0135387
827.958	0.0135561
828.036	0.0135140
828.114	0.0133467
828.193	0.0133941
828.271	0.0135693
828.349	0.0135450
828.427	0.0135239
828.505	0.0135803
828.583	0.0135185
828.661	0.0136578
828.739	0.0136641
828.818	0.0137147
828.896	0.0138243
828.974	0.0138066
829.052	0.0136440
829.130	0.0136056
829.208	0.0138367
829.286	0.0137247
829.364	0.0137988
829.443	0.0137762
829.521	0.0138936
829.599	0.0138084
829.677	0.0137424
829.755	0.0139054
829.833	0.0137899
829.911	0.0138158
829.989	0.0137384
830.068	0.0137885
830.146	0.0137340
830.224	0.0136535
830.302	0.0137064
830.380	0.0135924
830.458	0.0136458
830.536	0.0135724
830.614	0.0135486
830.693	0.0133418
830.771	0.0134400
830.849	0.0133254
830.927	0.0134566
831.005	0.0134878
831.083	0.0134385
831.161	0.0133939
831.239	0.0135510
831.318	0.0133797
831.396	0.0133711
831.474	0.0133573
831.552	0.0136053
831.630	0.0135931
831.708	0.0136218
831.786	0.0137660
831.864	0.0137907
831.943	0.0137539
832.021	0.0137853
832.099	0.0138908
832.177	0.0139766
832.255	0.0139613
832.333	0.0139620
832.411	0.0139271
832.489	0.0138947
832.568	0.0137826
832.646	0.0137452
832.724	0.0138267
832.802	0.0137331
832.880	0.0135266
832.958	0.0136369
833.036	0.0134602
833.114	0.0134186
833.193	0.0133711
833.271	0.0132323
833.349	0.0131123
833.427	0.0131046
833.505	0.0130460
833.583	0.0131313
833.661	0.0129700
833.739	0.0129485
833.818	0.0129621
833.896	0.0128707
833.974	0.0130930
834.052	0.0130058
834.130	0.0130122
834.208	0.0130708
834.286	0.0130233
834.364	0.0131454
834.443	0.0131300
834.521	0.0132603
834.599	0.0132722
834.677	0.0133652
834.755	0.0134702
834.833	0.0134593
834.911	0.0133701
834.989	0.0134583
835.068	0.0135785
835.146	0.0137090
835.224	0.0137585
835.302	0.0137389
835.380	0.0137594
835.458	0.0138958
835.536	0.0138409
835.614	0.0138184
835.693	0.0137243
835.771	0.0138950
835.849	0.0139220
835.927	0.0138398
836.005	0.0138862
836.083	0.0139344
836.161	0.0138638
836.239	0.0140169
836.318	0.0137504
836.396	0.0138884
836.474	0.0136289
836.552	0.0136832
836.630	0.0136792
836.708	0.0136022
836.786	0.0136550
836.864	0.0135760
836.943	0.0137533
837.021	0.0136820
837.099	0.0134822
837.177	0.0136648
837.255	0.0137560
837.333	0.0135018
837.411	0.0135654
837.489	0.0135966
837.568	0.0136511
837.646	0.0136209
837.724	0.0136490
837.802	0.0135641
837.880	0.0135765
837.958	0.0135945
838.036	0.0136968
838.114	0.0136401
838.193	0.0135829
838.271	0.0136211
838.349	0.0136357
838.427	0.0134941
838.505	0.0135274
838.583	0.0133933
838.661	0.0133759
838.739	0.0132694
838.818	0.0132139
838.896	0.0132996
838.974	0.0132903
839.052	0.0133443
839.130	0.0132716
839.208	0.0131799
839.286	0.0133333
839.364	0.0130692
839.443	0.0132458
839.521	0.0132617
839.599	0.0132988
839.677	0.0130891
839.755	0.0132457
839.833	0.0132838
839.911	0.0134606
839.989	0.0132849
840.068	0.0131556
840.146	0.0132519
840.224	0.0135439
840.302	0.0135032
840.380	0.0133727
840.458	0.0135022
840.536	0.0135561
840.614	0.0133247
840.693	0.0136021
840.771	0.0134575
840.849	0.0135567
840.927	0.0136806
841.005	0.0135969
841.083	0.0137681
841.161	0.0138105
841.239	0.0137994
841.318	0.0137397
841.396	0.0138082
841.474	0.0138310
841.552	0.0139107
841.630	0.0138512
841.708	0.0139039
841.786	0.0139761
841.864	0.0139165
841.943	0.0141131
842.021	0.0140698
842.099	0.0140012
842.177	0.0139716
842.255	0.0139503
842.333	0.0139807
842.411	0.0140150
842.489	0.0140125
842.568	0.0138302
842.646	0.0138865
842.724	0.0138140
842.802	0.0139380
842.880	0.0139138
842.958	0.0137015
843.036	0.0136531
843.114	0.0135771
843.193	0.0136629
843.271	0.0135165
843.349	0.0133892
843.427	0.0135666
843.505	0.0133659
843.583	0.0133807
843.661	0.0133840
843.739	0.0132925
843.818	0.0133131
843.896	0.0131363
843.974	0.0133694
844.052	0.0133634
844.130	0.0132996
844.208	0.0133507
844.286	0.0133763
844.364	0.0133030
844.443	0.0133166
844.521	0.0132436
844.599	0.0132944
844.677	0.0132285
844.755	0.0132394
844.833	0.0132760
844.911	0.0132991
844.989	0.0131728
845.068	0.0133401
845.146	0.0133033
845.224	0.0132254
845.302	0.0132119
845.380	0.0133930
845.458	0.0133028
845.536	0.0133188
845.614	0.0132796
845.693	0.0133508
845.771	0.0135255
845.849	0.0134522
845.927	0.0133839
846.005	0.0135812
846.083	0.0135938
846.161	0.0136292
846.239	0.0137044
846.318	0.0137523
846.396	0.0137947
846.474	0.0138338
846.552	0.0138535
846.630	0.0139727
846.708	0.0139027
846.786	0.0139783
846.864	0.0138325
846.943	0.0140432
847.021	0.0139780
847.099	0.0139700
847.177	0.0138723
847.255	0.0139485
847.333	0.0139295
847.411	0.0139762
847.489	0.0138165
847.568	0.0138354
847.646	0.0137294
847.724	0.0137965
847.802	0.0137529
847.880	0.0137044
847.958	0.0138576
848.036	0.0137190
848.114	0.0136816
848.193	0.0137022
848.271	0.0136936
848.349	0.0134998
848.427	0.0135231
848.505	0.0135303
848.583	0.0136448
848.661	0.0135615
848.739	0.0136776
848.818	0.0136606
848.896	0.0135165
848.974	0.0137124
849.052	0.0135821
849.130	0.0136195
849.208	0.0135730
849.286	0.0136413
849.364	0.0137688
849.443	0.0137595
849.521	0.0135005
849.599	0.0135134
849.677	0.0135927
849.755	0.0137623
849.833	0.0136340
849.911	0.0134678
849.989	0.0135367
850.068	0.0135062
850.146	0.0135841
850.224	0.0135841
850.302	0.0135116
850.380	0.0134557
850.458	0.0134074
850.536	0.0134069
850.614	0.0134319
850.693	0.0134264
850.771	0.0133952
850.849	0.0134142
850.927	0.0135138
851.005	0.0135385
851.083	0.0135075
851.161	0.0134155
851.239	0.0135796
851.318	0.0135220
851.396	0.0134821
851.474	0.0135066
851.552	0.0135767
851.630	0.0136144
851.708	0.0135738
851.786	0.0135703
851.864	0.0135990
851.943	0.0136137
852.021	0.0137077
852.099	0.0136979
852.177	0.0135762
852.255	0.0136476
852.333	0.0137123
852.411	0.0135619
852.489	0.0137093
852.568	0.0137247
852.646	0.0136991
852.724	0.0137743
852.802	0.0137319
852.880	0.0134972
852.958	0.0134744
853.036	0.0136850
853.114	0.0136202
853.193	0.0134354
853.271	0.0136131
853.349	0.0136166
853.427	0.0134633
853.505	0.0135101
853.583	0.0136083
853.661	0.0136555
853.739	0.0135867
853.818	0.0136320
853.896	0.0135112
853.974	0.0136299
854.052	0.0136304
854.130	0.0135777
854.208	0.0136344
854.286	0.0137582
854.364	0.0138135
854.443	0.0136622
854.521	0.0136588
854.599	0.0137659
854.677	0.0139010
854.755	0.0136474
854.833	0.0137207
854.911	0.0136797
854.989	0.0137047
855.068	0.0136456
855.146	0.0135851
855.224	0.0135983
855.302	0.0135493
855.380	0.0136136
855.458	0.0135647
855.536	0.0133997
855.614	0.0133871
855.693	0.0133423
855.771	0.0134193
855.849	0.0133688
855.927	0.0132568
856.005	0.0132450
856.083	0.0132126
856.161	0.0132981
856.239	0.0131418
856.318	0.0132413
856.396	0.0132416
856.474	0.0132732
856.552	0.0132174
856.630	0.0131837
856.708	0.0132954
856.786	0.0133861
856.864	0.0131855
856.943	0.0133310
857.021	0.0133233
857.099	0.0133199
857.177	0.0133923
857.255	0.0133739
857.333	0.0133624
857.411	0.0134929
857.489	0.0134758
857.568	0.0135751
857.646	0.0134898
857.724	0.0134666
857.802	0.0136746
857.880	0.0136806
857.958	0.0136803
858.036	0.0136720
858.114	0.0136776
858.193	0.0137299
858.271	0.0136633
858.349	0.0137134
858.427	0.0137364
858.505	0.0137579
858.583	0.0137267
858.661	0.0137799
858.739	0.0138258
858.818	0.0137306
858.896	0.0137289
858.974	0.0136495
859.052	0.0138377
859.130	0.0138046
859.208	0.0136336
859.286	0.0135666
859.364	0.0137248
859.443	0.0137085
859.521	0.0136410
859.599	0.0136591
859.677	0.0136447
859.755	0.0135664
859.833	0.0135108
859.911	0.0135157
859.989	0.0133223
860.068	0.0134564
860.146	0.0135492
860.224	0.0134174
860.302	0.0132517
860.380	0.0133919
860.458	0.0132098
860.536	0.0132553
860.614	0.0132209
860.693	0.0131782
860.771	0.0131798
860.849	0.0131780
860.927	0.0132073
861.005	0.0132703
861.083	0.0133334
861.161	0.0132940
861.239	0.0132462
861.318	0.0131775
861.396	0.0133398
861.474	0.0133493
861.552	0.0134433
861.630	0.0132767
861.708	0.0133640
861.786	0.0134020
861.864	0.0133620
861.943	0.0133631
862.021	0.0134483
862.099	0.0135091
862.177	0.0135331
862.255	0.0135156
862.333	0.0135400
862.411	0.0135458
862.489	0.0134273
862.568	0.0135587
862.646	0.0135732
862.724	0.0135245
862.802	0.0136110
862.880	0.0136854
862.958	0.0136570
863.036	0.0136160
863.114	0.0136568
863.193	0.0138331
863.271	0.0138039
863.349	0.0137395
863.427	0.0137766
863.505	0.0138622
863.583	0.0138038
863.661	0.0136361
863.739	0.0137837
863.818	0.0137843
863.896	0.0136918
863.974	0.0136845
864.052	0.0136911
864.130	0.0136701
864.208	0.0136271
864.286	0.0137315
864.364	0.0136562
864.443	0.0136768
864.521	0.0136666
864.599	0.0135648
864.677	0.0136142
864.755	0.0136310
864.833	0.0136727
864.911	0.0135416
864.989	0.0136857
865.068	0.0135786
865.146	0.0135888
865.224	0.0133958
865.302	0.0134627
865.380	0.0133516
865.458	0.0134746
865.536	0.0133524
865.614	0.0133819
865.693	0.0133682
865.771	0.0132458
865.849	0.0132179
865.927	0.0132742
866.005	0.0132839
866.083	0.0131920
866.161	0.0132357
866.239	0.0131960
866.318	0.0131578
866.396	0.0133693
866.474	0.0131488
866.552	0.0132147
866.630	0.0133168
866.708	0.0129749
866.786	0.0132681
866.864	0.0132832
866.943	0.0133407
867.021	0.0133134
867.099	0.0133963
867.177	0.0132980
867.255	0.0132733
867.333	0.0134068
867.411	0.0132963
867.489	0.0133532
867.568	0.0134160
867.646	0.0134196
867.724	0.0135852
867.802	0.0135357
867.880	0.0135811
867.958	0.0136150
868.036	0.0134966
868.114	0.0136452
868.193	0.0136534
868.271	0.0137937
868.349	0.0137395
868.427	0.0137039
868.505	0.0137357
868.583	0.0137215
868.661	0.0137499
868.739	0.0137334
868.818	0.0138098
868.896	0.0136716
868.974	0.0135502
869.052	0.0135369
869.130	0.0136140
869.208	0.0136951
869.286	0.0136591
869.364	0.0136700
869.443	0.0134981
869.521	0.0135056
869.599	0.0135312
869.677	0.0134310
869.755	0.0135606
869.833	0.0135460
869.911	0.0135455
869.989	0.0135699
870.068	0.0135863
870.146	0.0135978
870.224	0.0136311
870.302	0.0135681
870.380	0.0135305
870.458	0.0137345
870.536	0.0136204
870.614	0.0137291
870.693	0.0137759
870.771	0.0136100
870.849	0.0136680
870.927	0.0137568
871.005	0.0136725
871.083	0.0135802
871.161	0.0136773
871.239	0.0136394
871.318	0.0135985
871.396	0.0136398
871.474	0.0137251
871.552	0.0136781
871.630	0.0136813
871.708	0.0136110
871.786	0.0136226
871.864	0.0136642
871.943	0.0136555
872.021	0.0136856
872.099	0.0136745
872.177	0.0136019
872.255	0.0137479
872.333	0.0136219
872.411	0.0136386
872.489	0.0136904
872.568	0.0137790
872.646	0.0137232
872.724	0.0135403
872.802	0.0135672
872.880	0.0136007
872.958	0.0135110
873.036	0.0136444
873.114	0.0136183
873.193	0.0135598
873.271	0.0135252
873.349	0.0135964
873.427	0.0136225
873.505	0.0136010
873.583	0.0134003
873.661	0.0134550
873.739	0.0136452
873.818	0.0135687
873.896	0.0134922
873.974	0.0135211
874.052	0.0134216
874.130	0.0135405
874.208	0.0134389
874.286	0.0134304
874.364	0.0135535
874.443	0.0136100
874.521	0.0135836
874.599	0.0136677
874.677	0.0134994
874.755	0.0135579
874.833	0.0135136
874.911	0.0135397
874.989	0.0135698
875.068	0.0136849
875.146	0.0135162
875.224	0.0136069
875.302	0.0136674
875.380	0.0137377
875.458	0.0135511
875.536	0.0137369
875.614	0.0136307
875.693	0.0138124
875.771	0.0136744
875.849	0.0135688
875.927	0.0136553
876.005	0.0137138
876.083	0.0135739
876.161	0.0137589
876.239	0.0138115
876.318	0.0137213
876.396	0.0136579
876.474	0.0137450
876.552	0.0136771
876.630	0.0137463
876.708	0.0137711
876.786	0.0136705
876.864	0.0137397
876.943	0.0138533
877.021	0.0137000
877.099	0.0137820
877.177	0.0137028
877.255	0.0136687
877.333	0.0137550
877.411	0.0137325
877.489	0.0136435
877.568	0.0136681
877.646	0.0136601
877.724	0.0138021
877.802	0.0136715
877.880	0.0135371
877.958	0.0135278
878.036	0.0136404
878.114	0.0136340
878.193	0.0135214
878.271	0.0134827
878.349	0.0134660
878.427	0.0135637
878.505	0.0134106
878.583	0.0133730
878.661	0.0135365
878.739	0.0135448
878.818	0.0135086
878.896	0.0133936
878.974	0.0134199
879.052	0.0134468
879.130	0.0133739
879.208	0.0133372
879.286	0.0135768
879.364	0.0135426
879.443	0.0134886
879.521	0.0134849
879.599	0.0134908
879.677	0.0135673
879.755	0.0136031
879.833	0.0134673
879.911	0.0135017
879.989	0.0136020
880.068	0.0134911
880.146	0.0134579
880.224	0.0136475
880.302	0.0136134
880.380	0.0136063
880.458	0.0135425
880.536	0.0135983
880.614	0.0136304
880.693	0.0135194
880.771	0.0135415
880.849	0.0136550
880.927	0.0135332
881.005	0.0135895
881.083	0.0136207
881.161	0.0136021
881.239	0.0135699
881.318	0.0136005
881.396	0.0135580
881.474	0.0135451
881.552	0.0136213
881.630	0.0136453
881.708	0.0135411
881.786	0.0136871
881.864	0.0136420
881.943	0.0136173
882.021	0.0134137
882.099	0.0135775
882.177	0.0135345
882.255	0.0133578
882.333	0.0133508
882.411	0.0133521
882.489	0.0134221
882.568	0.0134371
882.646	0.0135167
882.724	0.0133939
882.802	0.0134113
882.880	0.0134528
882.958	0.0134907
883.036	0.0135032
883.114	0.0134339
883.193	0.0135040
883.271	0.0135445
883.349	0.0135580
883.427	0.0136099
883.505	0.0136752
883.583	0.0136705
883.661	0.0135384
883.739	0.0136506
883.818	0.0134975
883.896	0.0135486
883.974	0.0136201
884.052	0.0135600
884.130	0.0135037
884.208	0.0136018
884.286	0.0135695
884.364	0.0135236
884.443	0.0136524
884.521	0.0136188
884.599	0.0135717
884.677	0.0135533
884.755	0.0136800
884.833	0.0136828
884.911	0.0136808
884.989	0.0136323
885.068	0.0137636
885.146	0.0137897
885.224	0.0137578
885.302	0.0137207
885.380	0.0137894
885.458	0.0138322
885.536	0.0137991
885.614	0.0137984
885.693	0.0137943
885.771	0.0137292
885.849	0.0136043
885.927	0.0135671
886.005	0.0136477
886.083	0.0136696
886.161	0.0136400
886.239	0.0134940
886.318	0.0134051
886.396	0.0135044
886.474	0.0133353
886.552	0.0133662
886.630	0.0132882
886.708	0.0134615
886.786	0.0136098
886.864	0.0134785
886.943	0.0135115
887.021	0.0135580
887.099	0.0135583
887.177	0.0135964
887.255	0.0135429
887.333	0.0134860
887.411	0.0135868
887.489	0.0136536
887.568	0.0135741
887.646	0.0135683
887.724	0.0133976
887.802	0.0135765
887.880	0.0135172
887.958	0.0135711
888.036	0.0135542
888.114	0.0134852
888.193	0.0138071
888.271	0.0136398
888.349	0.0135671
888.427	0.0136668
888.505	0.0135667
888.583	0.0137332
888.661	0.0136747
888.739	0.0136768
888.818	0.0136817
888.896	0.0136456
888.974	0.0136794
889.052	0.0138097
889.130	0.0136448
889.208	0.0136848
889.286	0.0137552
889.364	0.0136945
889.443	0.0136269
889.521	0.0134480
889.599	0.0135511
889.677	0.0134850
889.755	0.0135227
889.833	0.0135217
889.911	0.0135986
889.989	0.0135856
890.068	0.0135273
890.146	0.0135011
890.224	0.0135483
890.302	0.0134423
890.380	0.0135454
890.458	0.0135295
890.536	0.0135105
890.614	0.0135085
890.693	0.0135053
890.771	0.0133730
890.849	0.0135829
890.927	0.0135757
891.005	0.0134454
891.083	0.0133925
891.161	0.0133257
891.239	0.0133398
891.318	0.0133537
891.396	0.0133802
891.474	0.0132835
891.552	0.0132536
891.630	0.0132970
891.708	0.0132321
891.786	0.0132909
891.864	0.0133414
891.943	0.0133494
892.021	0.0133674
892.099	0.0133616
892.177	0.0135178
892.255	0.0133388
892.333	0.0135079
892.411	0.0133357
892.489	0.0133212
892.568	0.0134954
892.646	0.0135359
892.724	0.0135447
892.802	0.0133806
892.880	0.0135254
892.958	0.0135523
893.036	0.0133234
893.114	0.0134758
893.193	0.0136037
893.271	0.0135274
893.349	0.0135992
893.427	0.0134252
893.505	0.0135841
893.583	0.0136993
893.661	0.0135636
893.739	0.0135001
893.818	0.0136343
893.896	0.0136068
893.974	0.0136874
894.052	0.0137614
894.130	0.0136852
894.208	0.0136780
894.286	0.0136241
894.364	0.0137507
894.443	0.0138165
894.521	0.0136156
894.599	0.0138831
894.677	0.0135961
894.755	0.0136472
894.833	0.0136165
894.911	0.0135890
894.989	0.0135757
895.068	0.0136068
895.146	0.0136333
895.224	0.0136195
895.302	0.0136313
895.380	0.0135741
895.458	0.0135342
895.536	0.0134705
895.614	0.0135738
895.693	0.0134632
895.771	0.0133351
895.849	0.0134186
895.927	0.0133746
896.005	0.0133738
896.083	0.0132501
896.161	0.0133875
896.239	0.0133526
896.318	0.0134337
896.396	0.0133884
896.474	0.0133886
896.552	0.0133540
896.630	0.0134485
896.708	0.0133896
896.786	0.0134918
896.864	0.0134896
896.943	0.0135139
897.021	0.0135184
897.099	0.0136459
897.177	0.0135075
897.255	0.0136328
897.333	0.0136233
897.411	0.0136610
897.489	0.0137260
897.568	0.0136830
897.646	0.0137514
897.724	0.0136327
897.802	0.0136709
897.880	0.0136887
897.958	0.0137332
898.036	0.0137293
898.114	0.0136790
898.193	0.0135371
898.271	0.0137247
898.349	0.0136334
898.427	0.0137928
898.505	0.0136452
898.583	0.0136001
898.661	0.0138215
898.739	0.0138682
898.818	0.0137620
898.896	0.0137442
898.974	0.0136012
899.052	0.0136278
899.130	0.0138112
899.208	0.0136155
899.286	0.0135480
899.364	0.0136597
899.443	0.0136837
899.521	0.0135743
899.599	0.0135004
899.677	0.0135107
899.755	0.0136089
899.833	0.0135487
899.911	0.0135937
899.989	0.0137222
900.068	0.0135815
900.146	0.0135509
900.224	0.0136999
900.302	0.0135954
900.380	0.0135690
900.458	0.0135397
900.536	0.0136391
900.614	0.0137638
900.693	0.0134466
900.771	0.0134483
900.849	0.0135622
900.927	0.0135451
901.005	0.0136323
901.083	0.0136228
901.161	0.0135741
901.239	0.0136438
901.318	0.0135191
901.396	0.0135764
901.474	0.0135063
901.552	0.0135768
901.630	0.0134513
901.708	0.0135896
901.786	0.0135835
901.864	0.0134955
901.943	0.0134176
902.021	0.0134880
902.099	0.0137039
902.177	0.0135609
902.255	0.0134465
902.333	0.0135294
902.411	0.0135993
902.489	0.0135651
902.568	0.0137003
902.646	0.0136036
902.724	0.0137463
902.802	0.0137188
902.880	0.0135693
902.958	0.0136689
903.036	0.0137707
903.114	0.0136633
903.193	0.0136952
903.271	0.0136938
903.349	0.0137801
903.427	0.0138793
903.505	0.0137704
903.583	0.0137869
903.661	0.0139230
903.739	0.0138577
903.818	0.0137709
903.896	0.0138727
903.974	0.0140517
904.052	0.0138461
904.130	0.0137901
904.208	0.0138950
904.286	0.0136946
904.364	0.0137968
904.443	0.0138977
904.521	0.0137553
904.599	0.0138538
904.677	0.0138801
904.755	0.0137321
904.833	0.0135256
904.911	0.0135749
904.989	0.0136784
905.068	0.0135942
905.146	0.0135625
905.224	0.0135764
905.302	0.0135724
905.380	0.0136497
905.458	0.0136736
905.536	0.0136488
905.614	0.0137031
905.693	0.0134793
905.771	0.0133655
905.849	0.0135596
905.927	0.0135700
906.005	0.0136628
906.083	0.0136710
906.161	0.0135571
906.239	0.0136942
906.318	0.0136337
906.396	0.0136578
906.474	0.0136014
906.552	0.0135172
906.630	0.0135835
906.708	0.0134126
906.786	0.0136526
906.864	0.0136407
906.943	0.0138310
907.021	0.0136032
907.099	0.0136580
907.177	0.0136285
907.255	0.0135162
907.333	0.0136486
907.411	0.0136717
907.489	0.0135731
907.568	0.0136620
907.646	0.0134718
907.724	0.0134383
907.802	0.0136350
907.880	0.0136732
907.958	0.0135421
908.036	0.0136130
908.114	0.0136044
908.193	0.0136802
908.271	0.0135926
908.349	0.0136352
908.427	0.0136581
908.505	0.0137438
908.583	0.0136858
908.661	0.0134514
908.739	0.0135715
908.818	0.0137289
908.896	0.0135500
908.974	0.0135456
909.052	0.0136604
909.130	0.0135923
909.208	0.0135777
909.286	0.0135873
909.364	0.0137312
909.443	0.0136768
909.521	0.0136327
909.599	0.0135167
909.677	0.0135603
909.755	0.0133909
909.833	0.0136050
909.911	0.0135275
909.989	0.0133939
910.068	0.0134394
910.146	0.0135559
910.224	0.0134201
910.302	0.0133231
910.380	0.0135727
910.458	0.0132882
910.536	0.0133796
910.614	0.0133570
910.693	0.0133266
910.771	0.0134164
910.849	0.0135917
910.927	0.0134227
911.005	0.0135181
911.083	0.0134012
911.161	0.0134970
911.239	0.0135732
911.318	0.0137007
911.396	0.0136161
911.474	0.0136019
911.552	0.0136437
911.630	0.0136355
911.708	0.0135987
911.786	0.0135281
911.864	0.0135931
911.943	0.0137491
912.021	0.0135583
912.099	0.0135946
912.177	0.0135482
912.255	0.0136387
912.333	0.0136633
912.411	0.0137612
912.489	0.0136324
912.568	0.0134703
912.646	0.0135797
912.724	0.0135999
912.802	0.0135973
912.880	0.0135023
912.958	0.0134925
913.036	0.0135670
913.114	0.0135773
913.193	0.0135134
913.271	0.0134789
913.349	0.0134399
913.427	0.0135801
913.505	0.0135048
913.583	0.0135662
913.661	0.0135786
913.739	0.0136102
913.818	0.0135665
913.896	0.0136995
913.974	0.0135268
914.052	0.0136250
914.130	0.0136234
914.208	0.0136753
914.286	0.0135547
914.364	0.0135692
914.443	0.0135587
914.521	0.0135474
914.599	0.0135379
914.677	0.0136357
914.755	0.0134405
914.833	0.0135315
914.911	0.0134963
914.989	0.0136237
915.068	0.0135900
915.146	0.0135954
915.224	0.0135129
915.302	0.0133443
915.380	0.0134168
915.458	0.0134635
915.536	0.0134016
915.614	0.0134065
915.693	0.0133833
915.771	0.0134885
915.849	0.0134651
915.927	0.0133515
916.005	0.0134598
916.083	0.0135133
916.161	0.0134641
916.239	0.0135606
916.318	0.0135007
916.396	0.0133221
916.474	0.0134958
916.552	0.0134507
916.630	0.0133457
916.708	0.0135358
916.786	0.0135555
916.864	0.0135997
916.943	0.0135946
917.021	0.0135256
917.099	0.0134934
917.177	0.0135483
917.255	0.0135757
917.333	0.0135354
917.411	0.0135329
917.489	0.0134553
917.568	0.0134413
917.646	0.0133035
917.724	0.0134696
917.802	0.0134904
917.880	0.0134209
917.958	0.0135310
918.036	0.0134879
918.114	0.0133560
918.193	0.0135180
918.271	0.0135260
918.349	0.0135977
918.427	0.0136371
918.505	0.0135522
918.583	0.0134702
918.661	0.0136263
918.739	0.0135855
918.818	0.0135027
918.896	0.0137112
918.974	0.0136417
919.052	0.0135384
919.130	0.0136153
919.208	0.0135798
919.286	0.0136373
919.364	0.0136092
919.443	0.0135873
919.521	0.0136455
919.599	0.0137920
919.677	0.0136826
919.755	0.0137164
919.833	0.0136671
919.911	0.0136984
919.989	0.0137908
920.068	0.0137885
920.146	0.0138023
920.224	0.0135957
920.302	0.0137386
920.380	0.0138018
920.458	0.0138115
920.536	0.0137434
920.614	0.0137075
920.693	0.0137038
920.771	0.0136159
920.849	0.0138414
920.927	0.0136549
921.005	0.0135592
921.083	0.0137241
921.161	0.0135389
921.239	0.0135899
921.318	0.0135375
921.396	0.0134648
921.474	0.0135172
921.552	0.0136022
921.630	0.0135332
921.708	0.0134997
921.786	0.0136202
921.864	0.0134068
921.943	0.0132509
922.021	0.0133505
922.099	0.0134712
922.177	0.0133917
922.255	0.0134547
922.333	0.0133430
922.411	0.0134210
922.489	0.0134999
922.568	0.0134351
922.646	0.0135543
922.724	0.0133765
922.802	0.0134765
922.880	0.0135091
922.958	0.0135576
923.036	0.0136238
923.114	0.0136343
923.193	0.0136007
923.271	0.0135272
923.349	0.0135674
923.427	0.0136822
923.505	0.0136444
923.583	0.0136735
923.661	0.0137505
923.739	0.0136084
923.818	0.0135194
923.896	0.0136378
923.974	0.0136512
924.052	0.0135847
924.130	0.0135875
924.208	0.0135765
924.286	0.0135574
924.364	0.0137228
924.443	0.0136741
924.521	0.0136544
924.599	0.0134750
924.677	0.0133088
924.755	0.0134224
924.833	0.0134348
924.911	0.0135619
924.989	0.0135212
925.068	0.0134647
925.146	0.0135411
925.224	0.0134615
925.302	0.0136073
925.380	0.0135678
925.458	0.0136010
925.536	0.0135612
925.614	0.0134988
925.693	0.0134908
925.771	0.0136177
925.849	0.0136743
925.927	0.0136214
926.005	0.0134328
926.083	0.0136447
926.161	0.0137981
926.239	0.0135390
926.318	0.0135773
926.396	0.0137047
926.474	0.0136368
926.552	0.0136457
926.630	0.0136544
926.708	0.0134873
926.786	0.0137135
926.864	0.0135024
926.943	0.0134039
927.021	0.0137799
927.099	0.0136678
927.177	0.0135291
927.255	0.0137492
927.333	0.0137215
927.411	0.0136378
927.489	0.0136779
927.568	0.0136254
927.646	0.0134934
927.724	0.0136044
927.802	0.0137125
927.880	0.0135349
927.958	0.0134919
928.036	0.0135525
928.114	0.0136727
928.193	0.0137164
928.271	0.0136293
928.349	0.0135579
928.427	0.0136135
928.505	0.0135793
928.583	0.0136198
928.661	0.0136782
928.739	0.0136086
928.818	0.0135357
928.896	0.0136658
928.974	0.0136930
929.052	0.0136501
929.130	0.0137405
929.208	0.0136552
929.286	0.0135997
929.364	0.0136301
929.443	0.0136256
929.521	0.0136512
929.599	0.0135366
929.677	0.0134709
929.755	0.0135832
929.833	0.0136201
929.911	0.0136198
929.989	0.0135954
930.068	0.0135757
930.146	0.0133088
930.224	0.0136349
930.302	0.0134638
930.380	0.0135595
930.458	0.0136362
930.536	0.0135224
930.614	0.0135920
930.693	0.0136262
930.771	0.0134930
930.849	0.0135230
930.927	0.0135281
931.005	0.0135354
931.083	0.0134911
931.161	0.0135558
931.239	0.0135533
931.318	0.0135472
931.396	0.0136032
931.474	0.0134851
931.552	0.0135493
931.630	0.0134994
931.708	0.0134885
931.786	0.0135969
931.864	0.0135257
931.943	0.0136649
932.021	0.0136445
932.099	0.0135706
932.177	0.0135461
932.255	0.0135589
932.333	0.0137852
932.411	0.0135886
932.489	0.0135692
932.568	0.0137231
932.646	0.0134579
932.724	0.0135998
932.802	0.0136090
932.880	0.0135686
932.958	0.0136775
933.036	0.0137192
933.114	0.0136117
933.193	0.0135231
933.271	0.0136463
933.349	0.0135616
933.427	0.0135708
933.505	0.0136482
933.583	0.0135057
933.661	0.0135056
933.739	0.0135538
933.818	0.0136788
933.896	0.0135714
933.974	0.0135139
934.052	0.0134406
934.130	0.0135826
934.208	0.0134848
934.286	0.0134260
934.364	0.0134762
934.443	0.0135054
934.521	0.0134968
934.599	0.0134878
934.677	0.0134734
934.755	0.0134586
934.833	0.0135516
934.911	0.0135825
934.989	0.0135107
935.068	0.0135134
935.146	0.0132727
935.224	0.0134997
935.302	0.0134216
935.380	0.0134351
935.458	0.0134724
935.536	0.0134234
935.614	0.0134657
935.693	0.0133779
935.771	0.0133399
935.849	0.0134260
935.927	0.0133835
936.005	0.0134187
936.083	0.0133602
936.161	0.0133560
936.239	0.0134475
936.318	0.0134522
936.396	0.0135553
936.474	0.0136105
936.552	0.0133598
936.630	0.0133357
936.708	0.0134094
936.786	0.0135283
936.864	0.0135501
936.943	0.0134035
937.021	0.0135093
937.099	0.0136558
937.177	0.0134464
937.255	0.0134700
937.333	0.0134991
937.411	0.0135059
937.489	0.0134834
937.568	0.0135784
937.646	0.0135934
937.724	0.0135277
937.802	0.0136259
937.880	0.0135866
937.958	0.0137120
938.036	0.0135537
938.114	0.0135529
938.193	0.0136639
938.271	0.0135141
938.349	0.0133904
938.427	0.0135174
938.505	0.0135635
938.583	0.0134160
938.661	0.0135151
938.739	0.0134061
938.818	0.0134009
938.896	0.0134996
938.974	0.0135326
939.052	0.0134959
939.130	0.0135239
939.208	0.0134862
939.286	0.0134166
939.364	0.0134978
939.443	0.0135062
939.521	0.0136028
939.599	0.0136382
939.677	0.0136144
939.755	0.0133080
939.833	0.0133465
939.911	0.0134527
939.989	0.0134364
940.068	0.0133360
940.146	0.0133875
940.224	0.0133626
940.302	0.0133862
940.380	0.0133791
940.458	0.0134736
940.536	0.0136099
940.614	0.0133537
940.693	0.0134415
940.771	0.0134159
940.849	0.0134100
940.927	0.0135110
941.005	0.0133873
941.083	0.0135203
941.161	0.0134498
941.239	0.0134577
941.318	0.0134744
941.396	0.0134957
941.474	0.0134433
941.552	0.0135439
941.630	0.0134164
941.708	0.0135760
941.786	0.0135678
941.864	0.0135342
941.943	0.0134964
942.021	0.0135438
942.099	0.0135903
942.177	0.0135723
942.255	0.0135468
942.333	0.0136361
942.411	0.0135594
942.489	0.0135852
942.568	0.0136115
942.646	0.0136932
942.724	0.0134947
942.802	0.0136975
942.880	0.0135515
942.958	0.0134917
943.036	0.0136309
943.114	0.0136497
943.193	0.0135786
943.271	0.0136217
943.349	0.0134839
943.427	0.0135513
943.505	0.0134870
943.583	0.0135886
943.661	0.0134952
943.739	0.0134468
943.818	0.0134237
943.896	0.0133932
943.974	0.0135696
944.052	0.0134355
944.130	0.0133889
944.208	0.0133464
944.286	0.0133701
944.364	0.0134454
944.443	0.0135133
944.521	0.0135329
944.599	0.0133999
944.677	0.0134621
944.755	0.0133730
944.833	0.0134218
944.911	0.0132410
944.989	0.0135176
945.068	0.0135046
945.146	0.0132262
945.224	0.0134030
945.302	0.0133345
945.380	0.0133424
945.458	0.0134875
945.536	0.0133310
945.614	0.0133866
945.693	0.0133619
945.771	0.0132504
945.849	0.0134161
945.927	0.0134400
946.005	0.0132495
946.083	0.0133123
946.161	0.0134690
946.239	0.0134879
946.318	0.0135439
946.396	0.0136064
946.474	0.0134509
946.552	0.0134224
946.630	0.0134716
946.708	0.0135890
946.786	0.0135886
946.864	0.0136169
946.943	0.0137411
947.021	0.0136951
947.099	0.0136142
947.177	0.0136357
947.255	0.0136512
947.333	0.0137996
947.411	0.0136684
947.489	0.0136438
947.568	0.0137967
947.646	0.0137688
947.724	0.0137114
947.802	0.0137152
947.880	0.0136668
947.958	0.0137298
948.036	0.0136448
948.114	0.0136625
948.193	0.0135960
948.271	0.0136391
948.349	0.0137446
948.427	0.0136869
948.505	0.0135937
948.583	0.0135529
948.661	0.0136761
948.739	0.0136940
948.818	0.0135606
948.896	0.0136905
948.974	0.0136398
949.052	0.0134927
949.130	0.0135507
949.208	0.0135088
949.286	0.0135567
949.364	0.0134368
949.443	0.0134694
949.521	0.0135811
949.599	0.0135089
949.677	0.0134881
949.755	0.0135171
949.833	0.0134541
949.911	0.0134362
949.989	0.0135748
950.068	0.0134906
950.146	0.0135514
950.224	0.0133932
950.302	0.0135033
950.380	0.0134415
950.458	0.0135081
950.536	0.0134648
950.614	0.0134916
950.693	0.0133241
950.771	0.0134680
950.849	0.0134422
950.927	0.0133596
951.005	0.0134621
951.083	0.0135126
951.161	0.0134821
951.239	0.0133989
951.318	0.0133996
951.396	0.0135130
951.474	0.0134387
951.552	0.0133157
951.630	0.0134562
951.708	0.0135466
951.786	0.0133805
951.864	0.0136057
951.943	0.0132684
952.021	0.0135471
952.099	0.0135340
952.177	0.0135734
952.255	0.0135760
952.333	0.0135168
952.411	0.0134424
952.489	0.0134605
952.568	0.0135132
952.646	0.0136000
952.724	0.0135367
952.802	0.0135365
952.880	0.0136691
952.958	0.0136707
953.036	0.0136111
953.114	0.0137003
953.193	0.0136398
953.271	0.0136395
953.349	0.0135880
953.427	0.0136319
953.505	0.0138071
953.583	0.0138814
953.661	0.0137652
953.739	0.0137666
953.818	0.0136236
953.896	0.0139055
953.974	0.0138312
954.052	0.0137981
954.130	0.0138357
954.208	0.0136591
954.286	0.0137239
954.364	0.0138460
954.443	0.0137473
954.521	0.0138794
954.599	0.0137833
954.677	0.0137082
954.755	0.0136215
954.833	0.0136998
954.911	0.0136305
954.989	0.0135329
955.068	0.0136012
955.146	0.0135806
955.224	0.0135124
955.302	0.0134856
955.380	0.0134797
955.458	0.0135481
955.536	0.0134625
955.614	0.0135769
955.693	0.0134641
955.771	0.0133592
955.849	0.0135039
955.927	0.0134457
956.005	0.0134633
956.083	0.0133741
956.161	0.0134470
956.239	0.0133901
956.318	0.0134484
956.396	0.0134638
956.474	0.0132992
956.552	0.0134262
956.630	0.0135275
956.708	0.0133697
956.786	0.0134159
956.864	0.0133747
956.943	0.0133776
957.021	0.0134711
957.099	0.0134068
957.177	0.0134158
957.255	0.0133611
957.333	0.0134743
957.411	0.0133416
957.489	0.0135611
957.568	0.0134690
957.646	0.0134072
957.724	0.0134822
957.802	0.0135745
957.880	0.0135250
957.958	0.0135678
958.036	0.0136561
958.114	0.0134206
958.193	0.0135503
958.271	0.0135787
958.349	0.0136462
958.427	0.0136561
958.505	0.0134608
958.583	0.0135620
958.661	0.0137246
958.739	0.0134980
958.818	0.0134896
958.896	0.0135361
958.974	0.0136416
959.052	0.0135234
959.130	0.0134644
959.208	0.0135859
959.286	0.0135841
959.364	0.0134343
959.443	0.0134517
959.521	0.0135785
959.599	0.0134766
959.677	0.0134509
959.755	0.0135352
959.833	0.0135598
959.911	0.0134278
