05/14/2022	16:53:12	Ver.	4.1	UNKNOWN
Optical Delay	639.989416	Delta X		0.078125	Sweeps	1	Scan Rate	0/0
Coordinates	Axis 1	NaN	Axis 2	NaN	Axis 3	NaN	Axis 4	NaN	Axis 5	NaN	Axis 6	0.000000
TX Power	0.000000	RX Power	0.000000

639.989	0.0139484
640.068	0.0138124
640.146	0.0139076
640.224	0.0140200
640.302	0.0139745
640.380	0.0138911
640.458	0.0139157
640.536	0.0139428
640.614	0.0140107
640.693	0.0140010
640.771	0.0139805
640.849	0.0138106
640.927	0.0139868
641.005	0.0140377
641.083	0.0140590
641.161	0.0139093
641.239	0.0139830
641.318	0.0141103
641.396	0.0140629
641.474	0.0140199
641.552	0.0138947
641.630	0.0138577
641.708	0.0141389
641.786	0.0140990
641.864	0.0140230
641.943	0.0137516
642.021	0.0139704
642.099	0.0140273
642.177	0.0139713
642.255	0.0141184
642.333	0.0140910
642.411	0.0139977
642.489	0.0139930
642.568	0.0140128
642.646	0.0139751
642.724	0.0140751
642.802	0.0140439
642.880	0.0141154
642.958	0.0141721
643.036	0.0139706
643.114	0.0138557
643.193	0.0140366
643.271	0.0141923
643.349	0.0140592
643.427	0.0140388
643.505	0.0140929
643.583	0.0141445
643.661	0.0141762
643.739	0.0140002
643.818	0.0139565
643.896	0.0139619
643.974	0.0141132
644.052	0.0142339
644.130	0.0141525
644.208	0.0139137
644.286	0.0140520
644.364	0.0141347
644.443	0.0141267
644.521	0.0140347
644.599	0.0139716
644.677	0.0139928
644.755	0.0141357
644.833	0.0141530
644.911	0.0140305
644.989	0.0140281
645.068	0.0141003
645.146	0.0140249
645.224	0.0140251
645.302	0.0140945
645.380	0.0140069
645.458	0.0140382
645.536	0.0141959
645.614	0.0142450
645.693	0.0139761
645.771	0.0139826
645.849	0.0141228
645.927	0.0140481
646.005	0.0140104
646.083	0.0140347
646.161	0.0141446
646.239	0.0140713
646.318	0.0140269
646.396	0.0140732
646.474	0.0140328
646.552	0.0139253
646.630	0.0141948
646.708	0.0140936
646.786	0.0140517
646.864	0.0138515
646.943	0.0139498
647.021	0.0138829
647.099	0.0138547
647.177	0.0140201
647.255	0.0140034
647.333	0.0140903
647.411	0.0138854
647.489	0.0140208
647.568	0.0139092
647.646	0.0140041
647.724	0.0139839
647.802	0.0139321
647.880	0.0138577
647.958	0.0138020
648.036	0.0138226
648.114	0.0138522
648.193	0.0139404
648.271	0.0139552
648.349	0.0139970
648.427	0.0138644
648.505	0.0139301
648.583	0.0138914
648.661	0.0138871
648.739	0.0140800
648.818	0.0138322
648.896	0.0139889
648.974	0.0141007
649.052	0.0138821
649.130	0.0141447
649.208	0.0140088
649.286	0.0140951
649.364	0.0140308
649.443	0.0139621
649.521	0.0139333
649.599	0.0140808
649.677	0.0140330
649.755	0.0139902
649.833	0.0139935
649.911	0.0137997
649.989	0.0138613
650.068	0.0140895
650.146	0.0139773
650.224	0.0139154
650.302	0.0139783
650.380	0.0138688
650.458	0.0140896
650.536	0.0138905
650.614	0.0138287
650.693	0.0138679
650.771	0.0140473
650.849	0.0140391
650.927	0.0138869
651.005	0.0140093
651.083	0.0140751
651.161	0.0139610
651.239	0.0140678
651.318	0.0139427
651.396	0.0140607
651.474	0.0139432
651.552	0.0138491
651.630	0.0140926
651.708	0.0141071
651.786	0.0139722
651.864	0.0140022
651.943	0.0140953
652.021	0.0139293
652.099	0.0139377
652.177	0.0140364
652.255	0.0139568
652.333	0.0139384
652.411	0.0139629
652.489	0.0139603
652.568	0.0140779
652.646	0.0141131
652.724	0.0140489
652.802	0.0140319
652.880	0.0139836
652.958	0.0141196
653.036	0.0141019
653.114	0.0138703
653.193	0.0140149
653.271	0.0140610
653.349	0.0140592
653.427	0.0138799
653.505	0.0139989
653.583	0.0140083
653.661	0.0138946
653.739	0.0140510
653.818	0.0139693
653.896	0.0139243
653.974	0.0140054
654.052	0.0140355
654.130	0.0139405
654.208	0.0138589
654.286	0.0139507
654.364	0.0139654
654.443	0.0138179
654.521	0.0139819
654.599	0.0139517
654.677	0.0139296
654.755	0.0139446
654.833	0.0138390
654.911	0.0139577
654.989	0.0140665
655.068	0.0139319
655.146	0.0138534
655.224	0.0139492
655.302	0.0139716
655.380	0.0138303
655.458	0.0138647
655.536	0.0138625
655.614	0.0139722
655.693	0.0140341
655.771	0.0139272
655.849	0.0137796
655.927	0.0140132
656.005	0.0139595
656.083	0.0139668
656.161	0.0138254
656.239	0.0138367
656.318	0.0139326
656.396	0.0138882
656.474	0.0138721
656.552	0.0136863
656.630	0.0138131
656.708	0.0139455
656.786	0.0138867
656.864	0.0138518
656.943	0.0139178
657.021	0.0138698
657.099	0.0138852
657.177	0.0140380
657.255	0.0138152
657.333	0.0138960
657.411	0.0138765
657.489	0.0139333
657.568	0.0139458
657.646	0.0138551
657.724	0.0139650
657.802	0.0140095
657.880	0.0139386
657.958	0.0139890
658.036	0.0139159
658.114	0.0141290
658.193	0.0139868
658.271	0.0140565
658.349	0.0140077
658.427	0.0139127
658.505	0.0138955
658.583	0.0139129
658.661	0.0138784
658.739	0.0139885
658.818	0.0139772
658.896	0.0139475
658.974	0.0140316
659.052	0.0139078
659.130	0.0137937
659.208	0.0138570
659.286	0.0139002
659.364	0.0137238
659.443	0.0138792
659.521	0.0138755
659.599	0.0139664
659.677	0.0137988
659.755	0.0139641
659.833	0.0139268
659.911	0.0140833
659.989	0.0140749
660.068	0.0138828
660.146	0.0139229
660.224	0.0139108
660.302	0.0139562
660.380	0.0139931
660.458	0.0139729
660.536	0.0139068
660.614	0.0139607
660.693	0.0138216
660.771	0.0138892
660.849	0.0139040
660.927	0.0139569
661.005	0.0139653
661.083	0.0140358
661.161	0.0140104
661.239	0.0139304
661.318	0.0139931
661.396	0.0138804
661.474	0.0139869
661.552	0.0139165
661.630	0.0139620
661.708	0.0140164
661.786	0.0140147
661.864	0.0139275
661.943	0.0140659
662.021	0.0140436
662.099	0.0141066
662.177	0.0139274
662.255	0.0141310
662.333	0.0140999
662.411	0.0140656
662.489	0.0139163
662.568	0.0140150
662.646	0.0139889
662.724	0.0139089
662.802	0.0139854
662.880	0.0138247
662.958	0.0136952
663.036	0.0138528
663.114	0.0138026
663.193	0.0138010
663.271	0.0136025
663.349	0.0136766
663.427	0.0135537
663.505	0.0136246
663.583	0.0136333
663.661	0.0137981
663.739	0.0137189
663.818	0.0135548
663.896	0.0138371
663.974	0.0137731
664.052	0.0139079
664.130	0.0139700
664.208	0.0139520
664.286	0.0141132
664.364	0.0142348
664.443	0.0142113
664.521	0.0142676
664.599	0.0142009
664.677	0.0144637
664.755	0.0145251
664.833	0.0143537
664.911	0.0143655
664.989	0.0144971
665.068	0.0144353
665.146	0.0145302
665.224	0.0146001
665.302	0.0143799
665.380	0.0143737
665.458	0.0143473
665.536	0.0142745
665.614	0.0141772
665.693	0.0141698
665.771	0.0140031
665.849	0.0138391
665.927	0.0138239
666.005	0.0136859
666.083	0.0137502
666.161	0.0136990
666.239	0.0134702
666.318	0.0134659
666.396	0.0134813
666.474	0.0132877
666.552	0.0133652
666.630	0.0133226
666.708	0.0133158
666.786	0.0131873
666.864	0.0132445
666.943	0.0132878
667.021	0.0134081
667.099	0.0134320
667.177	0.0135566
667.255	0.0136272
667.333	0.0137396
667.411	0.0138079
667.489	0.0139332
667.568	0.0140604
667.646	0.0143030
667.724	0.0143690
667.802	0.0144553
667.880	0.0147095
667.958	0.0147922
668.036	0.0147964
668.114	0.0148370
668.193	0.0147887
668.271	0.0149251
668.349	0.0149096
668.427	0.0151694
668.505	0.0149667
668.583	0.0149271
668.661	0.0148959
668.739	0.0148160
668.818	0.0147073
668.896	0.0147321
668.974	0.0145160
669.052	0.0144305
669.130	0.0142377
669.208	0.0139723
669.286	0.0139820
669.364	0.0138338
669.443	0.0136279
669.521	0.0133070
669.599	0.0133156
669.677	0.0134061
669.755	0.0131977
669.833	0.0130025
669.911	0.0129770
669.989	0.0128836
670.068	0.0128224
670.146	0.0129092
670.224	0.0129258
670.302	0.0128498
670.380	0.0128985
670.458	0.0131355
670.536	0.0131168
670.614	0.0132413
670.693	0.0133077
670.771	0.0134302
670.849	0.0135635
670.927	0.0137502
671.005	0.0138144
671.083	0.0139767
671.161	0.0141362
671.239	0.0142140
671.318	0.0144085
671.396	0.0144896
671.474	0.0144856
671.552	0.0146024
671.630	0.0148457
671.708	0.0149851
671.786	0.0149743
671.864	0.0150674
671.943	0.0149692
672.021	0.0150523
672.099	0.0151387
672.177	0.0151115
672.255	0.0151096
672.333	0.0149939
672.411	0.0150159
672.489	0.0148592
672.568	0.0147569
672.646	0.0147498
672.724	0.0145376
672.802	0.0144698
672.880	0.0143320
672.958	0.0143456
673.036	0.0139822
673.114	0.0140148
673.193	0.0137368
673.271	0.0138356
673.349	0.0136543
673.427	0.0135126
673.505	0.0132782
673.583	0.0131567
673.661	0.0130367
673.739	0.0129169
673.818	0.0128157
673.896	0.0126772
673.974	0.0127978
674.052	0.0126462
674.130	0.0126368
674.208	0.0126205
674.286	0.0125771
674.364	0.0125074
674.443	0.0126540
674.521	0.0126279
674.599	0.0127587
674.677	0.0128977
674.755	0.0129546
674.833	0.0133211
674.911	0.0133385
674.989	0.0134951
675.068	0.0136469
675.146	0.0140403
675.224	0.0141593
675.302	0.0142435
675.380	0.0145434
675.458	0.0147554
675.536	0.0149478
675.614	0.0151042
675.693	0.0152256
675.771	0.0153349
675.849	0.0155273
675.927	0.0157172
676.005	0.0157225
676.083	0.0157679
676.161	0.0158434
676.239	0.0158116
676.318	0.0158311
676.396	0.0157297
676.474	0.0156725
676.552	0.0155643
676.630	0.0154330
676.708	0.0153576
676.786	0.0151339
676.864	0.0150016
676.943	0.0149039
677.021	0.0146535
677.099	0.0143366
677.177	0.0142603
677.255	0.0138500
677.333	0.0135959
677.411	0.0136140
677.489	0.0133226
677.568	0.0129678
677.646	0.0126052
677.724	0.0125378
677.802	0.0124422
677.880	0.0120229
677.958	0.0120957
678.036	0.0120084
678.114	0.0119485
678.193	0.0118461
678.271	0.0118614
678.349	0.0118839
678.427	0.0120041
678.505	0.0119506
678.583	0.0121770
678.661	0.0122704
678.739	0.0124371
678.818	0.0126864
678.896	0.0127818
678.974	0.0130601
679.052	0.0134805
679.130	0.0138090
679.208	0.0139126
679.286	0.0141921
679.364	0.0142817
679.443	0.0147652
679.521	0.0148631
679.599	0.0151781
679.677	0.0155601
679.755	0.0156293
679.833	0.0157299
679.911	0.0159129
679.989	0.0161239
680.068	0.0160187
680.146	0.0160974
680.224	0.0161118
680.302	0.0159035
680.380	0.0161012
680.458	0.0159631
680.536	0.0158345
680.614	0.0157476
680.693	0.0153393
680.771	0.0153521
680.849	0.0150732
680.927	0.0147122
681.005	0.0145768
681.083	0.0144358
681.161	0.0142570
681.239	0.0139506
681.318	0.0137304
681.396	0.0135902
681.474	0.0134032
681.552	0.0131841
681.630	0.0131252
681.708	0.0129491
681.786	0.0128038
681.864	0.0125216
681.943	0.0124287
682.021	0.0123392
682.099	0.0125140
682.177	0.0124355
682.255	0.0122923
682.333	0.0123885
682.411	0.0123553
682.489	0.0125192
682.568	0.0123772
682.646	0.0124777
682.724	0.0126592
682.802	0.0126521
682.880	0.0128114
682.958	0.0128121
683.036	0.0128239
683.114	0.0130436
683.193	0.0131767
683.271	0.0132401
683.349	0.0133699
683.427	0.0135825
683.505	0.0136537
683.583	0.0138282
683.661	0.0139465
683.739	0.0141606
683.818	0.0143516
683.896	0.0142547
683.974	0.0144505
684.052	0.0147414
684.130	0.0148146
684.208	0.0149396
684.286	0.0149657
684.364	0.0150186
684.443	0.0150883
684.521	0.0151318
684.599	0.0151983
684.677	0.0153277
684.755	0.0152685
684.833	0.0152983
684.911	0.0152032
684.989	0.0152557
685.068	0.0152991
685.146	0.0151669
685.224	0.0151668
685.302	0.0149387
685.380	0.0150223
685.458	0.0149866
685.536	0.0149924
685.614	0.0148862
685.693	0.0146801
685.771	0.0144730
685.849	0.0144143
685.927	0.0143627
686.005	0.0141253
686.083	0.0141027
686.161	0.0140301
686.239	0.0139305
686.318	0.0136331
686.396	0.0138193
686.474	0.0136316
686.552	0.0132931
686.630	0.0133180
686.708	0.0131785
686.786	0.0130698
686.864	0.0128392
686.943	0.0129182
687.021	0.0128526
687.099	0.0128131
687.177	0.0126549
687.255	0.0126154
687.333	0.0126410
687.411	0.0127554
687.489	0.0128362
687.568	0.0127339
687.646	0.0128336
687.724	0.0128851
687.802	0.0129846
687.880	0.0129801
687.958	0.0131025
688.036	0.0133223
688.114	0.0133350
688.193	0.0134558
688.271	0.0135435
688.349	0.0136330
688.427	0.0139201
688.505	0.0140102
688.583	0.0140120
688.661	0.0141335
688.739	0.0143329
688.818	0.0145393
688.896	0.0144939
688.974	0.0143974
689.052	0.0146296
689.130	0.0147000
689.208	0.0148000
689.286	0.0147821
689.364	0.0147493
689.443	0.0146918
689.521	0.0147343
689.599	0.0148223
689.677	0.0147401
689.755	0.0146915
689.833	0.0147173
689.911	0.0144994
689.989	0.0146095
690.068	0.0146577
690.146	0.0144688
690.224	0.0143073
690.302	0.0143108
690.380	0.0142206
690.458	0.0144024
690.536	0.0143412
690.614	0.0142509
690.693	0.0142727
690.771	0.0143069
690.849	0.0142328
690.927	0.0141345
691.005	0.0142358
691.083	0.0141819
691.161	0.0140681
691.239	0.0141254
691.318	0.0140151
691.396	0.0139724
691.474	0.0141142
691.552	0.0139417
691.630	0.0139863
691.708	0.0139164
691.786	0.0138829
691.864	0.0137347
691.943	0.0137025
692.021	0.0136804
692.099	0.0136724
692.177	0.0137152
692.255	0.0134968
692.333	0.0134656
692.411	0.0135786
692.489	0.0135065
692.568	0.0135137
692.646	0.0135406
692.724	0.0133786
692.802	0.0135666
692.880	0.0137480
692.958	0.0137175
693.036	0.0137890
693.114	0.0137402
693.193	0.0138201
693.271	0.0137716
693.349	0.0137347
693.427	0.0138853
693.505	0.0139028
693.583	0.0139512
693.661	0.0140643
693.739	0.0140546
693.818	0.0139833
693.896	0.0140269
693.974	0.0141347
694.052	0.0141171
694.130	0.0142511
694.208	0.0141856
694.286	0.0142233
694.364	0.0142319
694.443	0.0143416
694.521	0.0142786
694.599	0.0142554
694.677	0.0143639
694.755	0.0143287
694.833	0.0143425
694.911	0.0142541
694.989	0.0142478
695.068	0.0143675
695.146	0.0142353
695.224	0.0141503
695.302	0.0141550
695.380	0.0141550
695.458	0.0140977
695.536	0.0141374
695.614	0.0139945
695.693	0.0139919
695.771	0.0141218
695.849	0.0138824
695.927	0.0139345
696.005	0.0138838
696.083	0.0138145
696.161	0.0138366
696.239	0.0139051
696.318	0.0138627
696.396	0.0139521
696.474	0.0139185
696.552	0.0137815
696.630	0.0137929
696.708	0.0138914
696.786	0.0138911
696.864	0.0140400
696.943	0.0140780
697.021	0.0142122
697.099	0.0142281
697.177	0.0143297
697.255	0.0142792
697.333	0.0142243
697.411	0.0142628
697.489	0.0144184
697.568	0.0144684
697.646	0.0145528
697.724	0.0144469
697.802	0.0145252
697.880	0.0145168
697.958	0.0145880
698.036	0.0145458
698.114	0.0146810
698.193	0.0145895
698.271	0.0143581
698.349	0.0144027
698.427	0.0142974
698.505	0.0142026
698.583	0.0141740
698.661	0.0140682
698.739	0.0141055
698.818	0.0138552
698.896	0.0137717
698.974	0.0137051
699.052	0.0135989
699.130	0.0135199
699.208	0.0134279
699.286	0.0133890
699.364	0.0132182
699.443	0.0133042
699.521	0.0130367
699.599	0.0129408
699.677	0.0129842
699.755	0.0128976
699.833	0.0130282
699.911	0.0129665
699.989	0.0128313
700.068	0.0129651
700.146	0.0129801
700.224	0.0130004
700.302	0.0129715
700.380	0.0129882
700.458	0.0129391
700.536	0.0130634
700.614	0.0132376
700.693	0.0133342
700.771	0.0133411
700.849	0.0135044
700.927	0.0135567
701.005	0.0137323
701.083	0.0138126
701.161	0.0140818
701.239	0.0142966
701.318	0.0144326
701.396	0.0145750
701.474	0.0147345
701.552	0.0147683
701.630	0.0149390
701.708	0.0150341
701.786	0.0152283
701.864	0.0152209
701.943	0.0153872
702.021	0.0153861
702.099	0.0154974
702.177	0.0155538
702.255	0.0155663
702.333	0.0154721
702.411	0.0155160
702.489	0.0155996
702.568	0.0156287
702.646	0.0155560
702.724	0.0154504
702.802	0.0154288
702.880	0.0153391
702.958	0.0153764
703.036	0.0152013
703.114	0.0150998
703.193	0.0148657
703.271	0.0148496
703.349	0.0148177
703.427	0.0147124
703.505	0.0145564
703.583	0.0143332
703.661	0.0141209
703.739	0.0139391
703.818	0.0139124
703.896	0.0137493
703.974	0.0135268
704.052	0.0135958
704.130	0.0133106
704.208	0.0129932
704.286	0.0129817
704.364	0.0128355
704.443	0.0127667
704.521	0.0125466
704.599	0.0124841
704.677	0.0122831
704.755	0.0124512
704.833	0.0122497
704.911	0.0122971
704.989	0.0122595
705.068	0.0121847
705.146	0.0123056
705.224	0.0123384
705.302	0.0123257
705.380	0.0123695
705.458	0.0125492
705.536	0.0127489
705.614	0.0128803
705.693	0.0129465
705.771	0.0130280
705.849	0.0131580
705.927	0.0133685
706.005	0.0136568
706.083	0.0136727
706.161	0.0138480
706.239	0.0140963
706.318	0.0142095
706.396	0.0143094
706.474	0.0144160
706.552	0.0145976
706.630	0.0146738
706.708	0.0146063
706.786	0.0148072
706.864	0.0149611
706.943	0.0149157
707.021	0.0150099
707.099	0.0150471
707.177	0.0151572
707.255	0.0150586
707.333	0.0149197
707.411	0.0150055
707.489	0.0150604
707.568	0.0150134
707.646	0.0148405
707.724	0.0149484
707.802	0.0149293
707.880	0.0148489
707.958	0.0148404
708.036	0.0148579
708.114	0.0148392
708.193	0.0147978
708.271	0.0148038
708.349	0.0146312
708.427	0.0146162
708.505	0.0145660
708.583	0.0146372
708.661	0.0144839
708.739	0.0145017
708.818	0.0142796
708.896	0.0143483
708.974	0.0142520
709.052	0.0141426
709.130	0.0140327
709.208	0.0140809
709.286	0.0138354
709.364	0.0138032
709.443	0.0137890
709.521	0.0137379
709.599	0.0135110
709.677	0.0134336
709.755	0.0133304
709.833	0.0132744
709.911	0.0131920
709.989	0.0130044
710.068	0.0130158
710.146	0.0129596
710.224	0.0128915
710.302	0.0128504
710.380	0.0127587
710.458	0.0125563
710.536	0.0126153
710.614	0.0129085
710.693	0.0126183
710.771	0.0125249
710.849	0.0126775
710.927	0.0126736
711.005	0.0126846
711.083	0.0127952
711.161	0.0127499
711.239	0.0129386
711.318	0.0130473
711.396	0.0129593
711.474	0.0131074
711.552	0.0132247
711.630	0.0133526
711.708	0.0135687
711.786	0.0135523
711.864	0.0136916
711.943	0.0137737
712.021	0.0140427
712.099	0.0141879
712.177	0.0141821
712.255	0.0143102
712.333	0.0145844
712.411	0.0146802
712.489	0.0146960
712.568	0.0146815
712.646	0.0149389
712.724	0.0150476
712.802	0.0151991
712.880	0.0151862
712.958	0.0152027
713.036	0.0153101
713.114	0.0153008
713.193	0.0151752
713.271	0.0153288
713.349	0.0153027
713.427	0.0151424
713.505	0.0150208
713.583	0.0151968
713.661	0.0150282
713.739	0.0148547
713.818	0.0148591
713.896	0.0146409
713.974	0.0145957
714.052	0.0145719
714.130	0.0144388
714.208	0.0142429
714.286	0.0141370
714.364	0.0140594
714.443	0.0139143
714.521	0.0138196
714.599	0.0137292
714.677	0.0136823
714.755	0.0137757
714.833	0.0136478
714.911	0.0136287
714.989	0.0134729
715.068	0.0136724
715.146	0.0135223
715.224	0.0133885
715.302	0.0136326
715.380	0.0136071
715.458	0.0134914
715.536	0.0137717
715.614	0.0135960
715.693	0.0135253
715.771	0.0135995
715.849	0.0135265
715.927	0.0135046
716.005	0.0134900
716.083	0.0134554
716.161	0.0135440
716.239	0.0136805
716.318	0.0136962
716.396	0.0136424
716.474	0.0136462
716.552	0.0135837
716.630	0.0136375
716.708	0.0136394
716.786	0.0136610
716.864	0.0137956
716.943	0.0136777
717.021	0.0137479
717.099	0.0138831
717.177	0.0138123
717.255	0.0138653
717.333	0.0137929
717.411	0.0137934
717.489	0.0139162
717.568	0.0141001
717.646	0.0139152
717.724	0.0138026
717.802	0.0140678
717.880	0.0140018
717.958	0.0138847
718.036	0.0140483
718.114	0.0141726
718.193	0.0141533
718.271	0.0141363
718.349	0.0143572
718.427	0.0143087
718.505	0.0143840
718.583	0.0143057
718.661	0.0143053
718.739	0.0145039
718.818	0.0143494
718.896	0.0144794
718.974	0.0146304
719.052	0.0144990
719.130	0.0143731
719.208	0.0146191
719.286	0.0144748
719.364	0.0143726
719.443	0.0144135
719.521	0.0144405
719.599	0.0143420
719.677	0.0143016
719.755	0.0143301
719.833	0.0141582
719.911	0.0143369
719.989	0.0143842
720.068	0.0143748
720.146	0.0141816
720.224	0.0142138
720.302	0.0141992
720.380	0.0142113
720.458	0.0141027
720.536	0.0143068
720.614	0.0143069
720.693	0.0142891
720.771	0.0142256
720.849	0.0142496
720.927	0.0140734
721.005	0.0142339
721.083	0.0142188
721.161	0.0143232
721.239	0.0142655
721.318	0.0141401
721.396	0.0141193
721.474	0.0141328
721.552	0.0141587
721.630	0.0141109
721.708	0.0140760
721.786	0.0139683
721.864	0.0139090
721.943	0.0139512
722.021	0.0138737
722.099	0.0140170
722.177	0.0138260
722.255	0.0137843
722.333	0.0138980
722.411	0.0139059
722.489	0.0139020
722.568	0.0137737
722.646	0.0136469
722.724	0.0136148
722.802	0.0136138
722.880	0.0138146
722.958	0.0136497
723.036	0.0136816
723.114	0.0136237
723.193	0.0135398
723.271	0.0135966
723.349	0.0137096
723.427	0.0135186
723.505	0.0136974
723.583	0.0138207
723.661	0.0137770
723.739	0.0136846
723.818	0.0136039
723.896	0.0139419
723.974	0.0138120
724.052	0.0137970
724.130	0.0137834
724.208	0.0138118
724.286	0.0139127
724.364	0.0138531
724.443	0.0140067
724.521	0.0138356
724.599	0.0140556
724.677	0.0140033
724.755	0.0138508
724.833	0.0140253
724.911	0.0140747
724.989	0.0140458
725.068	0.0139314
725.146	0.0139807
725.224	0.0139638
725.302	0.0139888
725.380	0.0140170
725.458	0.0140936
725.536	0.0139036
725.614	0.0140247
725.693	0.0138408
725.771	0.0140000
725.849	0.0139384
725.927	0.0140166
726.005	0.0140924
726.083	0.0139494
726.161	0.0139059
726.239	0.0138265
726.318	0.0138514
726.396	0.0139845
726.474	0.0139367
726.552	0.0139464
726.630	0.0139814
726.708	0.0140476
726.786	0.0137711
726.864	0.0140258
726.943	0.0138779
727.021	0.0140074
727.099	0.0140209
727.177	0.0141637
727.255	0.0142191
727.333	0.0140319
727.411	0.0142459
727.489	0.0142493
727.568	0.0143980
727.646	0.0143276
727.724	0.0143188
727.802	0.0144434
727.880	0.0143900
727.958	0.0143737
728.036	0.0143927
728.114	0.0145760
728.193	0.0145444
728.271	0.0145260
728.349	0.0144495
728.427	0.0144949
728.505	0.0145672
728.583	0.0145380
728.661	0.0143706
728.739	0.0142819
728.818	0.0142912
728.896	0.0142210
728.974	0.0142554
729.052	0.0140704
729.130	0.0142201
729.208	0.0141223
729.286	0.0140273
729.364	0.0139037
729.443	0.0137932
729.521	0.0136884
729.599	0.0138942
729.677	0.0137462
729.755	0.0135921
729.833	0.0135750
729.911	0.0135830
729.989	0.0135625
730.068	0.0134009
730.146	0.0132312
730.224	0.0132635
730.302	0.0131598
730.380	0.0129606
730.458	0.0131480
730.536	0.0131168
730.614	0.0130752
730.693	0.0131596
730.771	0.0130798
730.849	0.0130897
730.927	0.0130079
731.005	0.0131983
731.083	0.0130470
731.161	0.0132800
731.239	0.0132342
731.318	0.0133672
731.396	0.0135461
731.474	0.0136268
731.552	0.0137360
731.630	0.0138403
731.708	0.0140974
731.786	0.0141982
731.864	0.0142999
731.943	0.0145273
732.021	0.0146188
732.099	0.0146094
732.177	0.0148009
732.255	0.0148357
732.333	0.0149221
732.411	0.0150259
732.489	0.0151147
732.568	0.0150520
732.646	0.0152200
732.724	0.0151981
732.802	0.0151595
732.880	0.0151594
732.958	0.0150605
733.036	0.0151120
733.114	0.0149169
733.193	0.0149808
733.271	0.0148884
733.349	0.0149290
733.427	0.0147469
733.505	0.0147122
733.583	0.0147006
733.661	0.0145321
733.739	0.0144920
733.818	0.0144045
733.896	0.0144579
733.974	0.0141811
734.052	0.0140012
734.130	0.0139394
734.208	0.0137862
734.286	0.0137844
734.364	0.0137477
734.443	0.0136259
734.521	0.0135175
734.599	0.0132697
734.677	0.0134822
734.755	0.0133479
734.833	0.0132182
734.911	0.0133871
734.989	0.0132696
735.068	0.0129765
735.146	0.0130322
735.224	0.0130765
735.302	0.0131100
735.380	0.0129737
735.458	0.0130360
735.536	0.0129109
735.614	0.0130613
735.693	0.0129683
735.771	0.0128582
735.849	0.0130105
735.927	0.0129944
736.005	0.0130410
736.083	0.0129762
736.161	0.0130910
736.239	0.0131721
736.318	0.0132530
736.396	0.0131177
736.474	0.0131396
736.552	0.0132879
736.630	0.0134834
736.708	0.0133946
736.786	0.0134119
736.864	0.0134928
736.943	0.0134724
737.021	0.0136042
737.099	0.0136730
737.177	0.0136667
737.255	0.0136866
737.333	0.0138676
737.411	0.0139918
737.489	0.0140041
737.568	0.0140382
737.646	0.0141599
737.724	0.0141534
737.802	0.0143122
737.880	0.0144437
737.958	0.0143704
738.036	0.0144564
738.114	0.0146379
738.193	0.0147820
738.271	0.0146124
738.349	0.0146789
738.427	0.0147281
738.505	0.0147414
738.583	0.0148249
738.661	0.0147575
738.739	0.0148754
738.818	0.0146867
738.896	0.0147810
738.974	0.0146818
739.052	0.0146227
739.130	0.0145876
739.208	0.0144875
739.286	0.0143554
739.364	0.0143192
739.443	0.0143031
739.521	0.0140236
739.599	0.0140617
739.677	0.0139516
739.755	0.0138533
739.833	0.0137148
739.911	0.0138091
739.989	0.0138094
740.068	0.0136546
740.146	0.0137348
740.224	0.0136153
740.302	0.0134396
740.380	0.0135158
740.458	0.0134486
740.536	0.0135317
740.614	0.0135606
740.693	0.0135063
740.771	0.0134521
740.849	0.0136047
740.927	0.0137727
741.005	0.0137730
741.083	0.0137805
741.161	0.0137684
741.239	0.0138202
741.318	0.0139386
741.396	0.0139365
741.474	0.0139649
741.552	0.0139463
741.630	0.0139167
741.708	0.0139045
741.786	0.0139270
741.864	0.0139808
741.943	0.0138763
742.021	0.0140034
742.099	0.0139910
742.177	0.0140173
742.255	0.0140475
742.333	0.0139936
742.411	0.0139907
742.489	0.0138680
742.568	0.0139354
742.646	0.0140082
742.724	0.0140643
742.802	0.0139845
742.880	0.0140064
742.958	0.0138683
743.036	0.0138924
743.114	0.0141678
743.193	0.0141943
743.271	0.0140319
743.349	0.0140791
743.427	0.0140327
743.505	0.0142233
743.583	0.0142311
743.661	0.0140577
743.739	0.0140603
743.818	0.0142770
743.896	0.0141648
743.974	0.0143056
744.052	0.0142781
744.130	0.0141543
744.208	0.0144527
744.286	0.0144473
744.364	0.0142637
744.443	0.0144016
744.521	0.0144414
744.599	0.0143599
744.677	0.0142733
744.755	0.0143342
744.833	0.0143523
744.911	0.0142344
744.989	0.0142722
745.068	0.0143095
745.146	0.0143054
745.224	0.0144015
745.302	0.0144833
745.380	0.0142694
745.458	0.0142378
745.536	0.0143113
745.614	0.0143628
745.693	0.0144098
745.771	0.0142728
745.849	0.0142371
745.927	0.0141839
746.005	0.0142272
746.083	0.0140750
746.161	0.0142330
746.239	0.0140270
746.318	0.0141056
746.396	0.0141691
746.474	0.0139327
746.552	0.0140314
746.630	0.0139189
746.708	0.0139340
746.786	0.0139198
746.864	0.0137505
746.943	0.0138440
747.021	0.0138807
747.099	0.0136325
747.177	0.0138524
747.255	0.0136302
747.333	0.0137444
747.411	0.0136876
747.489	0.0135860
747.568	0.0135970
747.646	0.0135851
747.724	0.0135066
747.802	0.0135874
747.880	0.0135382
747.958	0.0135816
748.036	0.0135433
748.114	0.0135055
748.193	0.0136286
748.271	0.0134746
748.349	0.0135454
748.427	0.0136928
748.505	0.0136982
748.583	0.0136605
748.661	0.0137495
748.739	0.0136935
748.818	0.0137170
748.896	0.0138236
748.974	0.0137997
749.052	0.0138300
749.130	0.0138873
749.208	0.0140723
749.286	0.0139999
749.364	0.0139120
749.443	0.0140726
749.521	0.0143272
749.599	0.0142890
749.677	0.0142201
749.755	0.0142553
749.833	0.0142670
749.911	0.0141225
749.989	0.0141531
750.068	0.0141203
750.146	0.0142387
750.224	0.0141804
750.302	0.0142068
750.380	0.0142740
750.458	0.0142935
750.536	0.0140006
750.614	0.0140798
750.693	0.0142381
750.771	0.0142258
750.849	0.0141491
750.927	0.0141102
751.005	0.0141043
751.083	0.0141513
751.161	0.0141228
751.239	0.0140926
751.318	0.0141694
751.396	0.0141439
751.474	0.0142785
751.552	0.0141328
751.630	0.0140858
751.708	0.0141306
751.786	0.0140823
751.864	0.0139947
751.943	0.0141992
752.021	0.0142927
752.099	0.0142637
752.177	0.0141939
752.255	0.0140822
752.333	0.0141223
752.411	0.0141459
752.489	0.0141309
752.568	0.0140933
752.646	0.0140139
752.724	0.0139918
752.802	0.0140873
752.880	0.0141312
752.958	0.0140201
753.036	0.0139195
753.114	0.0138723
753.193	0.0138744
753.271	0.0139709
753.349	0.0139851
753.427	0.0139473
753.505	0.0138972
753.583	0.0138056
753.661	0.0137215
753.739	0.0138264
753.818	0.0138151
753.896	0.0137070
753.974	0.0138773
754.052	0.0137693
754.130	0.0137255
754.208	0.0136597
754.286	0.0136513
754.364	0.0135880
754.443	0.0138203
754.521	0.0137811
754.599	0.0136369
754.677	0.0136945
754.755	0.0137765
754.833	0.0138967
754.911	0.0136974
754.989	0.0138284
755.068	0.0137815
755.146	0.0138640
755.224	0.0138627
755.302	0.0137344
755.380	0.0138114
755.458	0.0138800
755.536	0.0138351
755.614	0.0140054
755.693	0.0140170
755.771	0.0139304
755.849	0.0139813
755.927	0.0141287
756.005	0.0141203
756.083	0.0141260
756.161	0.0142519
756.239	0.0142106
756.318	0.0142425
756.396	0.0141547
756.474	0.0141430
756.552	0.0141106
756.630	0.0141555
756.708	0.0141311
756.786	0.0142752
756.864	0.0142311
756.943	0.0140642
757.021	0.0140492
757.099	0.0140341
757.177	0.0142344
757.255	0.0140916
757.333	0.0141536
757.411	0.0140848
757.489	0.0141285
757.568	0.0138765
757.646	0.0139156
757.724	0.0141646
757.802	0.0138583
757.880	0.0139177
757.958	0.0139006
758.036	0.0139034
758.114	0.0138547
758.193	0.0137437
758.271	0.0137349
758.349	0.0139217
758.427	0.0137671
758.505	0.0136900
758.583	0.0138288
758.661	0.0137327
758.739	0.0136008
758.818	0.0138051
758.896	0.0137164
758.974	0.0136784
759.052	0.0136414
759.130	0.0136755
759.208	0.0137154
759.286	0.0137221
759.364	0.0136396
759.443	0.0136329
759.521	0.0136925
759.599	0.0136923
759.677	0.0136488
759.755	0.0137142
759.833	0.0136208
759.911	0.0136424
759.989	0.0137267
760.068	0.0137460
760.146	0.0138340
760.224	0.0136954
760.302	0.0139349
760.380	0.0139575
760.458	0.0139288
760.536	0.0139813
760.614	0.0139198
760.693	0.0139652
760.771	0.0141982
760.849	0.0142450
760.927	0.0141048
761.005	0.0142430
761.083	0.0143214
761.161	0.0143510
761.239	0.0141942
761.318	0.0142837
761.396	0.0143633
761.474	0.0143984
761.552	0.0143140
761.630	0.0142330
761.708	0.0143711
761.786	0.0143114
761.864	0.0143553
761.943	0.0144093
762.021	0.0142887
762.099	0.0142870
762.177	0.0142793
762.255	0.0144185
762.333	0.0143785
762.411	0.0142921
762.489	0.0142612
762.568	0.0141928
762.646	0.0142004
762.724	0.0142508
762.802	0.0140755
762.880	0.0140587
762.958	0.0140501
763.036	0.0140044
763.114	0.0140631
763.193	0.0140502
763.271	0.0138795
763.349	0.0137370
763.427	0.0139643
763.505	0.0137775
763.583	0.0136541
763.661	0.0136782
763.739	0.0138178
763.818	0.0138483
763.896	0.0138264
763.974	0.0137465
764.052	0.0137565
764.130	0.0137187
764.208	0.0138767
764.286	0.0136681
764.364	0.0136122
764.443	0.0136992
764.521	0.0139231
764.599	0.0137701
764.677	0.0137081
764.755	0.0137919
764.833	0.0138167
764.911	0.0138599
764.989	0.0137882
765.068	0.0138464
765.146	0.0139771
765.224	0.0138745
765.302	0.0139643
765.380	0.0138943
765.458	0.0139413
765.536	0.0139381
765.614	0.0139744
765.693	0.0139767
765.771	0.0139680
765.849	0.0140359
765.927	0.0140073
766.005	0.0139704
766.083	0.0140377
766.161	0.0138449
766.239	0.0140209
766.318	0.0139723
766.396	0.0140164
766.474	0.0138900
766.552	0.0137482
766.630	0.0140662
766.708	0.0140005
766.786	0.0140276
766.864	0.0139667
766.943	0.0139386
767.021	0.0139780
767.099	0.0138119
767.177	0.0139779
767.255	0.0139806
767.333	0.0140276
767.411	0.0139511
767.489	0.0140701
767.568	0.0139204
767.646	0.0139864
767.724	0.0140793
767.802	0.0140385
767.880	0.0140121
767.958	0.0141257
768.036	0.0140611
768.114	0.0139988
768.193	0.0141041
768.271	0.0141515
768.349	0.0141992
768.427	0.0141943
768.505	0.0141932
768.583	0.0142236
768.661	0.0140863
768.739	0.0142129
768.818	0.0140865
768.896	0.0140251
768.974	0.0141557
769.052	0.0143002
769.130	0.0141867
769.208	0.0142505
769.286	0.0142947
769.364	0.0141969
769.443	0.0141994
769.521	0.0140909
769.599	0.0140852
769.677	0.0141924
769.755	0.0140541
769.833	0.0139637
769.911	0.0140417
769.989	0.0139847
770.068	0.0139166
770.146	0.0139756
770.224	0.0139069
770.302	0.0138124
770.380	0.0138992
770.458	0.0137078
770.536	0.0137163
770.614	0.0138428
770.693	0.0137379
770.771	0.0137516
770.849	0.0138307
770.927	0.0138038
771.005	0.0138148
771.083	0.0137339
771.161	0.0137862
771.239	0.0139153
771.318	0.0138943
771.396	0.0137510
771.474	0.0137559
771.552	0.0137581
771.630	0.0139105
771.708	0.0138422
771.786	0.0138599
771.864	0.0138880
771.943	0.0139165
772.021	0.0140681
772.099	0.0140682
772.177	0.0140591
772.255	0.0141107
772.333	0.0140189
772.411	0.0142440
772.489	0.0142238
772.568	0.0142546
772.646	0.0142930
772.724	0.0141014
772.802	0.0143897
772.880	0.0144452
772.958	0.0143903
773.036	0.0144450
773.114	0.0145071
773.193	0.0144943
773.271	0.0144943
773.349	0.0144876
773.427	0.0144794
773.505	0.0143818
773.583	0.0144914
773.661	0.0144357
773.739	0.0144662
773.818	0.0145830
773.896	0.0144644
773.974	0.0144719
774.052	0.0144666
774.130	0.0142627
774.208	0.0142732
774.286	0.0143671
774.364	0.0142315
774.443	0.0142032
774.521	0.0140808
774.599	0.0141902
774.677	0.0140643
774.755	0.0140469
774.833	0.0140843
774.911	0.0139697
774.989	0.0139332
775.068	0.0138713
775.146	0.0138171
775.224	0.0137665
775.302	0.0138549
775.380	0.0138005
775.458	0.0138029
775.536	0.0138240
775.614	0.0136745
775.693	0.0138345
775.771	0.0137903
775.849	0.0137585
775.927	0.0137187
776.005	0.0138512
776.083	0.0138534
776.161	0.0138535
776.239	0.0139043
776.318	0.0138774
776.396	0.0140643
776.474	0.0139986
776.552	0.0139874
776.630	0.0141100
776.708	0.0141129
776.786	0.0140298
776.864	0.0141708
776.943	0.0140102
777.021	0.0140722
777.099	0.0141984
777.177	0.0140907
777.255	0.0141938
777.333	0.0141749
777.411	0.0142271
777.489	0.0140963
777.568	0.0140566
777.646	0.0141372
777.724	0.0141235
777.802	0.0140864
777.880	0.0141972
777.958	0.0140854
778.036	0.0140809
778.114	0.0142596
778.193	0.0140157
778.271	0.0140446
778.349	0.0139796
778.427	0.0140401
778.505	0.0140524
778.583	0.0140126
778.661	0.0140322
778.739	0.0140466
778.818	0.0139489
778.896	0.0140267
778.974	0.0139574
779.052	0.0139040
779.130	0.0138332
779.208	0.0139507
779.286	0.0138932
779.364	0.0138110
779.443	0.0137836
779.521	0.0138836
779.599	0.0139134
779.677	0.0136932
779.755	0.0139396
779.833	0.0138642
779.911	0.0138018
779.989	0.0136884
780.068	0.0139103
780.146	0.0137749
780.224	0.0139954
780.302	0.0139409
780.380	0.0139021
780.458	0.0139618
780.536	0.0138833
780.614	0.0139257
780.693	0.0139661
780.771	0.0139532
780.849	0.0139378
780.927	0.0140788
781.005	0.0139056
781.083	0.0140581
781.161	0.0139807
781.239	0.0140910
781.318	0.0140234
781.396	0.0139643
781.474	0.0141034
781.552	0.0139442
781.630	0.0141394
781.708	0.0139423
781.786	0.0141136
781.864	0.0140784
781.943	0.0142990
782.021	0.0142348
782.099	0.0140996
782.177	0.0141874
782.255	0.0142347
782.333	0.0141731
782.411	0.0141601
782.489	0.0141829
782.568	0.0142467
782.646	0.0140299
782.724	0.0140157
782.802	0.0140990
782.880	0.0141222
782.958	0.0141541
783.036	0.0141934
783.114	0.0140626
783.193	0.0140376
783.271	0.0140900
783.349	0.0138474
783.427	0.0138845
783.505	0.0139072
783.583	0.0137949
783.661	0.0139059
783.739	0.0137762
783.818	0.0137132
783.896	0.0137913
783.974	0.0137075
784.052	0.0136760
784.130	0.0136726
784.208	0.0137959
784.286	0.0138786
784.364	0.0138287
784.443	0.0136826
784.521	0.0137230
784.599	0.0137113
784.677	0.0137701
784.755	0.0137691
784.833	0.0137413
784.911	0.0136654
784.989	0.0138152
785.068	0.0138985
785.146	0.0137605
785.224	0.0138824
785.302	0.0139909
785.380	0.0138948
785.458	0.0139635
785.536	0.0139264
785.614	0.0140269
785.693	0.0139979
785.771	0.0139037
785.849	0.0140852
785.927	0.0139975
786.005	0.0140555
786.083	0.0141078
786.161	0.0140161
786.239	0.0141837
786.318	0.0140443
786.396	0.0141413
786.474	0.0140809
786.552	0.0142728
786.630	0.0141821
786.708	0.0140639
786.786	0.0142114
786.864	0.0140737
786.943	0.0142112
787.021	0.0142474
787.099	0.0141575
787.177	0.0141558
787.255	0.0140894
787.333	0.0141474
787.411	0.0140849
787.489	0.0141234
787.568	0.0140637
787.646	0.0140476
787.724	0.0140740
787.802	0.0141178
787.880	0.0140165
787.958	0.0140498
788.036	0.0140064
788.114	0.0139445
788.193	0.0140315
788.271	0.0139869
788.349	0.0139545
788.427	0.0138537
788.505	0.0139883
788.583	0.0139143
788.661	0.0139789
788.739	0.0140112
788.818	0.0140261
788.896	0.0138885
788.974	0.0138022
789.052	0.0139616
789.130	0.0139246
789.208	0.0138670
789.286	0.0140524
789.364	0.0140401
789.443	0.0139883
789.521	0.0138754
789.599	0.0140619
789.677	0.0138374
789.755	0.0139742
789.833	0.0139695
789.911	0.0139999
789.989	0.0140069
790.068	0.0139809
790.146	0.0140807
790.224	0.0139958
790.302	0.0138863
790.380	0.0140041
790.458	0.0140962
790.536	0.0141949
790.614	0.0141451
790.693	0.0141891
790.771	0.0140985
790.849	0.0139723
790.927	0.0140211
791.005	0.0141019
791.083	0.0141008
791.161	0.0140209
791.239	0.0141106
791.318	0.0140886
791.396	0.0140862
791.474	0.0140979
791.552	0.0142624
791.630	0.0141808
791.708	0.0140879
791.786	0.0141613
791.864	0.0141798
791.943	0.0141494
792.021	0.0142382
792.099	0.0141576
792.177	0.0143069
792.255	0.0142723
792.333	0.0143040
792.411	0.0141398
792.489	0.0141699
792.568	0.0142402
792.646	0.0140713
792.724	0.0142597
792.802	0.0142973
792.880	0.0141590
792.958	0.0139397
793.036	0.0142004
793.114	0.0141994
793.193	0.0142006
793.271	0.0140267
793.349	0.0140932
793.427	0.0141383
793.505	0.0140796
793.583	0.0141030
793.661	0.0140144
793.739	0.0140147
793.818	0.0140476
793.896	0.0140030
793.974	0.0140964
794.052	0.0140136
794.130	0.0139773
794.208	0.0139767
794.286	0.0139010
794.364	0.0138629
794.443	0.0138651
794.521	0.0137937
794.599	0.0138969
794.677	0.0137850
794.755	0.0138623
794.833	0.0139420
794.911	0.0137104
794.989	0.0137132
795.068	0.0138023
795.146	0.0138271
795.224	0.0138340
795.302	0.0138613
795.380	0.0137113
795.458	0.0137356
795.536	0.0137909
795.614	0.0138243
795.693	0.0137624
795.771	0.0136957
795.849	0.0137035
795.927	0.0137855
796.005	0.0137181
796.083	0.0138198
796.161	0.0138488
796.239	0.0139936
796.318	0.0137420
796.396	0.0137012
796.474	0.0137727
796.552	0.0138756
796.630	0.0138547
796.708	0.0138533
796.786	0.0138062
796.864	0.0139505
796.943	0.0139188
797.021	0.0137005
797.099	0.0139109
797.177	0.0140501
797.255	0.0140272
797.333	0.0140516
797.411	0.0140673
797.489	0.0140591
797.568	0.0141405
797.646	0.0141306
797.724	0.0140089
797.802	0.0141578
797.880	0.0142261
797.958	0.0142040
798.036	0.0143366
798.114	0.0143499
798.193	0.0143900
798.271	0.0144112
798.349	0.0142677
798.427	0.0142992
798.505	0.0143143
798.583	0.0143759
798.661	0.0144007
798.739	0.0145116
798.818	0.0143381
798.896	0.0143658
798.974	0.0143563
799.052	0.0144226
799.130	0.0143779
799.208	0.0142524
799.286	0.0142136
799.364	0.0142701
799.443	0.0143174
799.521	0.0142680
799.599	0.0141660
799.677	0.0142625
799.755	0.0141609
799.833	0.0141930
799.911	0.0141853
799.989	0.0140791
800.068	0.0141866
800.146	0.0139484
800.224	0.0139055
800.302	0.0139489
800.380	0.0139132
800.458	0.0139071
800.536	0.0140759
800.614	0.0139165
800.693	0.0138475
800.771	0.0138185
800.849	0.0137911
800.927	0.0137300
801.005	0.0137863
801.083	0.0137418
801.161	0.0138021
801.239	0.0136863
801.318	0.0137767
801.396	0.0138049
801.474	0.0137508
801.552	0.0136390
801.630	0.0136608
801.708	0.0137455
801.786	0.0138382
801.864	0.0138255
801.943	0.0138169
802.021	0.0139568
802.099	0.0138576
802.177	0.0137450
802.255	0.0138435
802.333	0.0139874
802.411	0.0139999
802.489	0.0140785
802.568	0.0141409
802.646	0.0138768
802.724	0.0140827
802.802	0.0140849
802.880	0.0141787
802.958	0.0141658
803.036	0.0142050
803.114	0.0141669
803.193	0.0141215
803.271	0.0141470
803.349	0.0141041
803.427	0.0142784
803.505	0.0142525
803.583	0.0142681
803.661	0.0142407
803.739	0.0143225
803.818	0.0142916
803.896	0.0143008
803.974	0.0142258
804.052	0.0141510
804.130	0.0140955
804.208	0.0142548
804.286	0.0143466
804.364	0.0141379
804.443	0.0140752
804.521	0.0141482
804.599	0.0140139
804.677	0.0142583
804.755	0.0142133
804.833	0.0140132
804.911	0.0140024
804.989	0.0139812
805.068	0.0140322
805.146	0.0139485
805.224	0.0138477
805.302	0.0140691
805.380	0.0140812
805.458	0.0139283
805.536	0.0139287
805.614	0.0139717
805.693	0.0138895
805.771	0.0138660
805.849	0.0138708
805.927	0.0138928
806.005	0.0137692
806.083	0.0137601
806.161	0.0137598
806.239	0.0136689
806.318	0.0138097
806.396	0.0136879
806.474	0.0137263
806.552	0.0136548
806.630	0.0137326
806.708	0.0138232
806.786	0.0137843
806.864	0.0138059
806.943	0.0136709
807.021	0.0135980
807.099	0.0137216
807.177	0.0137074
807.255	0.0137467
807.333	0.0136906
807.411	0.0137272
807.489	0.0139046
807.568	0.0137634
807.646	0.0137727
807.724	0.0138754
807.802	0.0137691
807.880	0.0138280
807.958	0.0138840
808.036	0.0138163
808.114	0.0139238
808.193	0.0139230
808.271	0.0139221
808.349	0.0139886
808.427	0.0138879
808.505	0.0139679
808.583	0.0140896
808.661	0.0140549
808.739	0.0139211
808.818	0.0140092
808.896	0.0141013
808.974	0.0141826
809.052	0.0140700
809.130	0.0141852
809.208	0.0141579
809.286	0.0141931
809.364	0.0142994
809.443	0.0142474
809.521	0.0142061
809.599	0.0141968
809.677	0.0142805
809.755	0.0143621
809.833	0.0142609
809.911	0.0143074
809.989	0.0143444
810.068	0.0141972
810.146	0.0143401
810.224	0.0143566
810.302	0.0142699
810.380	0.0142325
810.458	0.0143527
810.536	0.0142174
810.614	0.0141958
810.693	0.0141461
810.771	0.0140314
810.849	0.0141487
810.927	0.0140291
811.005	0.0139072
811.083	0.0140017
811.161	0.0139662
811.239	0.0138172
811.318	0.0139568
811.396	0.0139775
811.474	0.0139594
811.552	0.0138416
811.630	0.0138940
811.708	0.0139073
811.786	0.0139361
811.864	0.0138186
811.943	0.0138172
812.021	0.0139388
812.099	0.0137914
812.177	0.0138826
812.255	0.0139429
812.333	0.0140208
812.411	0.0139332
812.489	0.0138577
812.568	0.0139552
812.646	0.0138938
812.724	0.0139019
812.802	0.0138165
812.880	0.0138052
812.958	0.0138750
813.036	0.0138069
813.114	0.0138107
813.193	0.0138253
813.271	0.0137022
813.349	0.0136981
813.427	0.0138870
813.505	0.0138779
813.583	0.0139245
813.661	0.0139062
813.739	0.0138967
813.818	0.0139355
813.896	0.0139652
813.974	0.0139803
814.052	0.0139136
814.130	0.0139285
814.208	0.0139441
814.286	0.0138146
814.364	0.0138275
814.443	0.0138754
814.521	0.0139410
814.599	0.0140665
814.677	0.0139772
814.755	0.0139863
814.833	0.0140435
814.911	0.0141062
814.989	0.0139873
815.068	0.0141343
815.146	0.0141752
815.224	0.0139687
815.302	0.0140981
815.380	0.0141387
815.458	0.0140270
815.536	0.0138478
815.614	0.0140063
815.693	0.0139284
815.771	0.0138734
815.849	0.0139049
815.927	0.0138568
816.005	0.0137256
816.083	0.0136388
816.161	0.0137945
816.239	0.0138522
816.318	0.0137847
816.396	0.0137874
816.474	0.0137490
816.552	0.0138080
816.630	0.0139558
816.708	0.0137747
816.786	0.0136357
816.864	0.0137870
816.943	0.0138519
817.021	0.0137727
817.099	0.0139485
817.177	0.0138462
817.255	0.0140278
817.333	0.0141209
817.411	0.0140865
817.489	0.0141759
817.568	0.0141674
817.646	0.0142802
817.724	0.0142702
817.802	0.0142989
817.880	0.0141856
817.958	0.0142295
818.036	0.0142829
818.114	0.0141515
818.193	0.0141090
818.271	0.0142738
818.349	0.0140102
818.427	0.0141841
818.505	0.0142876
818.583	0.0141253
818.661	0.0141846
818.739	0.0142343
818.818	0.0141048
818.896	0.0139967
818.974	0.0141113
819.052	0.0140900
819.130	0.0140378
819.208	0.0141317
819.286	0.0140424
819.364	0.0138790
819.443	0.0139368
819.521	0.0140022
819.599	0.0141407
819.677	0.0140831
819.755	0.0139191
819.833	0.0137374
819.911	0.0139167
819.989	0.0137978
820.068	0.0139033
820.146	0.0138805
820.224	0.0138288
820.302	0.0138304
820.380	0.0138467
820.458	0.0138523
820.536	0.0138461
820.614	0.0140321
820.693	0.0138567
820.771	0.0139069
820.849	0.0138205
820.927	0.0137965
821.005	0.0139877
821.083	0.0139025
821.161	0.0137366
821.239	0.0138733
821.318	0.0137800
821.396	0.0137573
821.474	0.0137994
821.552	0.0137535
821.630	0.0138432
821.708	0.0136748
821.786	0.0138302
821.864	0.0136727
821.943	0.0138332
822.021	0.0138084
822.099	0.0138396
822.177	0.0138904
822.255	0.0140743
822.333	0.0138528
822.411	0.0139476
822.489	0.0142757
822.568	0.0142360
822.646	0.0142397
822.724	0.0141009
822.802	0.0142249
822.880	0.0142494
822.958	0.0142598
823.036	0.0143673
823.114	0.0144414
823.193	0.0144422
823.271	0.0143942
823.349	0.0143221
823.427	0.0143660
823.505	0.0142345
823.583	0.0142255
823.661	0.0143291
823.739	0.0143445
823.818	0.0141251
823.896	0.0140675
823.974	0.0142545
824.052	0.0141587
824.130	0.0140375
824.208	0.0140451
824.286	0.0140128
824.364	0.0139160
824.443	0.0139117
824.521	0.0138635
824.599	0.0138367
824.677	0.0139209
824.755	0.0139227
824.833	0.0139037
824.911	0.0140480
824.989	0.0140972
825.068	0.0139625
825.146	0.0139499
825.224	0.0139558
825.302	0.0138942
825.380	0.0139815
825.458	0.0138650
825.536	0.0139352
825.614	0.0140474
825.693	0.0139431
825.771	0.0140465
825.849	0.0139165
825.927	0.0138734
826.005	0.0140109
826.083	0.0139201
826.161	0.0138378
826.239	0.0137908
826.318	0.0139303
826.396	0.0139002
826.474	0.0139967
826.552	0.0137943
826.630	0.0138223
826.708	0.0137652
826.786	0.0137962
826.864	0.0138254
826.943	0.0139443
827.021	0.0138113
827.099	0.0138744
827.177	0.0138802
827.255	0.0138340
827.333	0.0136835
827.411	0.0138010
827.489	0.0138599
827.568	0.0139467
827.646	0.0138488
827.724	0.0138061
827.802	0.0138534
827.880	0.0138705
827.958	0.0138484
828.036	0.0138827
828.114	0.0136467
828.193	0.0137868
828.271	0.0138294
828.349	0.0136845
828.427	0.0137213
828.505	0.0135990
828.583	0.0137602
828.661	0.0137769
828.739	0.0137892
828.818	0.0136302
828.896	0.0138194
828.974	0.0137357
829.052	0.0137820
829.130	0.0138976
829.208	0.0138481
829.286	0.0138230
829.364	0.0138142
829.443	0.0139705
829.521	0.0140641
829.599	0.0141043
829.677	0.0139115
829.755	0.0139998
829.833	0.0138622
829.911	0.0140189
829.989	0.0142066
830.068	0.0141159
830.146	0.0141147
830.224	0.0142470
830.302	0.0141425
830.380	0.0140945
830.458	0.0141247
830.536	0.0142750
830.614	0.0143614
830.693	0.0142607
830.771	0.0141618
830.849	0.0141355
830.927	0.0143241
831.005	0.0141461
831.083	0.0142295
831.161	0.0141299
831.239	0.0140561
831.318	0.0141052
831.396	0.0140790
831.474	0.0138818
831.552	0.0138552
831.630	0.0138405
831.708	0.0138519
831.786	0.0138880
831.864	0.0137252
831.943	0.0137440
832.021	0.0137130
832.099	0.0138429
832.177	0.0137579
832.255	0.0137576
832.333	0.0137951
832.411	0.0139175
832.489	0.0138607
832.568	0.0138990
832.646	0.0139107
832.724	0.0140751
832.802	0.0139784
832.880	0.0140053
832.958	0.0140302
833.036	0.0139040
833.114	0.0138223
833.193	0.0138575
833.271	0.0138860
833.349	0.0137810
833.427	0.0139890
833.505	0.0138506
833.583	0.0138566
833.661	0.0137895
833.739	0.0138849
833.818	0.0140974
833.896	0.0139318
833.974	0.0139435
834.052	0.0139227
834.130	0.0140453
834.208	0.0140326
834.286	0.0139999
834.364	0.0141306
834.443	0.0141131
834.521	0.0139780
834.599	0.0141452
834.677	0.0141514
834.755	0.0140636
834.833	0.0142563
834.911	0.0143353
834.989	0.0142345
835.068	0.0142476
835.146	0.0142383
835.224	0.0143642
835.302	0.0143332
835.380	0.0142931
835.458	0.0142305
835.536	0.0142600
835.614	0.0142249
835.693	0.0142406
835.771	0.0142337
835.849	0.0140246
835.927	0.0141730
836.005	0.0141131
836.083	0.0139664
836.161	0.0140043
836.239	0.0138567
836.318	0.0139779
836.396	0.0136192
836.474	0.0138069
836.552	0.0137721
836.630	0.0138008
836.708	0.0137151
836.786	0.0137318
836.864	0.0136412
836.943	0.0135670
837.021	0.0135054
837.099	0.0135996
837.177	0.0135689
837.255	0.0133989
837.333	0.0134595
837.411	0.0135989
837.489	0.0136974
837.568	0.0135795
837.646	0.0137199
837.724	0.0136546
837.802	0.0137081
837.880	0.0137418
837.958	0.0136667
838.036	0.0137288
838.114	0.0138628
838.193	0.0137627
838.271	0.0138589
838.349	0.0138907
838.427	0.0139081
838.505	0.0138765
838.583	0.0138805
838.661	0.0138981
838.739	0.0139122
838.818	0.0139422
838.896	0.0138820
838.974	0.0140179
839.052	0.0140585
839.130	0.0139416
839.208	0.0139731
839.286	0.0142603
839.364	0.0140503
839.443	0.0142063
839.521	0.0141143
839.599	0.0141899
839.677	0.0142085
839.755	0.0142731
839.833	0.0144071
839.911	0.0142404
839.989	0.0144560
840.068	0.0144125
840.146	0.0143247
840.224	0.0142870
840.302	0.0143038
840.380	0.0141953
840.458	0.0142178
840.536	0.0140491
840.614	0.0141306
840.693	0.0140289
840.771	0.0139585
840.849	0.0139644
840.927	0.0139107
841.005	0.0138514
841.083	0.0138522
841.161	0.0137231
841.239	0.0138757
841.318	0.0138210
841.396	0.0137879
841.474	0.0137901
841.552	0.0137302
841.630	0.0138074
841.708	0.0138663
841.786	0.0137756
841.864	0.0138953
841.943	0.0137672
842.021	0.0138270
842.099	0.0138770
842.177	0.0139994
842.255	0.0138945
842.333	0.0138378
842.411	0.0138877
842.489	0.0139906
842.568	0.0139359
842.646	0.0140031
842.724	0.0139593
842.802	0.0140156
842.880	0.0140715
842.958	0.0141672
843.036	0.0139159
843.114	0.0140729
843.193	0.0140893
843.271	0.0140583
843.349	0.0140063
843.427	0.0140916
843.505	0.0140785
843.583	0.0141351
843.661	0.0141206
843.739	0.0140520
843.818	0.0141993
843.896	0.0142671
843.974	0.0140460
844.052	0.0139560
844.130	0.0140142
844.208	0.0139220
844.286	0.0139544
844.364	0.0139410
844.443	0.0138596
844.521	0.0139404
844.599	0.0138651
844.677	0.0139304
844.755	0.0138830
844.833	0.0140340
844.911	0.0139542
844.989	0.0139037
845.068	0.0140286
845.146	0.0138999
845.224	0.0139447
845.302	0.0140350
845.380	0.0141637
845.458	0.0141312
845.536	0.0140830
845.614	0.0141420
845.693	0.0140446
845.771	0.0139558
845.849	0.0141704
845.927	0.0141649
846.005	0.0142439
846.083	0.0142278
846.161	0.0142531
846.239	0.0141924
846.318	0.0141192
846.396	0.0141444
846.474	0.0141175
846.552	0.0140081
846.630	0.0142020
846.708	0.0142307
846.786	0.0140502
846.864	0.0139235
846.943	0.0140542
847.021	0.0140251
847.099	0.0138400
847.177	0.0139811
847.255	0.0140121
847.333	0.0141536
847.411	0.0141860
847.489	0.0139565
847.568	0.0137999
847.646	0.0140090
847.724	0.0141863
847.802	0.0140841
847.880	0.0140471
847.958	0.0140348
848.036	0.0141604
848.114	0.0139777
848.193	0.0139803
848.271	0.0140547
848.349	0.0139868
848.427	0.0140668
848.505	0.0139704
848.583	0.0141647
848.661	0.0139596
848.739	0.0140382
848.818	0.0138493
848.896	0.0137580
848.974	0.0139033
849.052	0.0138873
849.130	0.0137620
849.208	0.0138531
849.286	0.0138485
849.364	0.0138842
849.443	0.0137244
849.521	0.0137138
849.599	0.0137464
849.677	0.0138277
849.755	0.0138411
849.833	0.0138183
849.911	0.0137830
849.989	0.0138974
850.068	0.0139228
850.146	0.0138814
850.224	0.0138638
850.302	0.0139830
850.380	0.0138195
850.458	0.0138111
850.536	0.0140370
850.614	0.0141254
850.693	0.0140373
850.771	0.0141154
850.849	0.0141734
850.927	0.0141330
851.005	0.0141677
851.083	0.0141614
851.161	0.0143260
851.239	0.0142410
851.318	0.0140009
851.396	0.0141734
851.474	0.0141554
851.552	0.0141237
851.630	0.0141702
851.708	0.0139581
851.786	0.0139991
851.864	0.0138628
851.943	0.0140038
852.021	0.0139147
852.099	0.0139964
852.177	0.0138795
852.255	0.0137351
852.333	0.0137989
852.411	0.0138587
852.489	0.0139874
852.568	0.0138255
852.646	0.0139993
852.724	0.0139365
852.802	0.0137893
852.880	0.0138737
852.958	0.0139643
853.036	0.0140360
853.114	0.0139014
853.193	0.0139473
853.271	0.0140381
853.349	0.0138916
853.427	0.0140089
853.505	0.0139606
853.583	0.0139927
853.661	0.0139949
853.739	0.0140507
853.818	0.0141652
853.896	0.0140434
853.974	0.0141012
854.052	0.0139947
854.130	0.0139609
854.208	0.0140186
854.286	0.0139603
854.364	0.0139183
854.443	0.0138776
854.521	0.0139156
854.599	0.0138259
854.677	0.0138409
854.755	0.0139350
854.833	0.0138279
854.911	0.0139095
854.989	0.0139181
855.068	0.0139166
855.146	0.0140485
855.224	0.0139115
855.302	0.0138711
855.380	0.0138923
855.458	0.0138592
855.536	0.0140784
855.614	0.0139004
855.693	0.0139577
855.771	0.0139185
855.849	0.0140136
855.927	0.0138683
856.005	0.0137862
856.083	0.0140073
856.161	0.0142029
856.239	0.0141186
856.318	0.0139063
856.396	0.0139659
856.474	0.0140887
856.552	0.0140854
856.630	0.0140356
856.708	0.0139977
856.786	0.0139367
856.864	0.0140809
856.943	0.0141386
857.021	0.0141334
857.099	0.0141100
857.177	0.0141652
857.255	0.0140778
857.333	0.0139856
857.411	0.0140005
857.489	0.0139126
857.568	0.0139552
857.646	0.0140659
857.724	0.0141705
857.802	0.0141101
857.880	0.0140284
857.958	0.0139556
858.036	0.0140621
858.114	0.0141402
858.193	0.0140887
858.271	0.0140073
858.349	0.0140069
858.427	0.0140956
858.505	0.0139600
858.583	0.0140893
858.661	0.0140783
858.739	0.0140575
858.818	0.0140769
858.896	0.0140026
858.974	0.0139577
859.052	0.0139368
859.130	0.0139446
859.208	0.0139413
859.286	0.0138680
859.364	0.0138774
859.443	0.0139590
859.521	0.0138245
859.599	0.0139351
859.677	0.0137702
859.755	0.0138294
859.833	0.0138345
859.911	0.0137885
859.989	0.0139227
860.068	0.0138945
860.146	0.0137710
860.224	0.0137061
860.302	0.0139513
860.380	0.0138602
860.458	0.0138380
860.536	0.0138787
860.614	0.0139234
860.693	0.0138481
860.771	0.0138069
860.849	0.0139459
860.927	0.0139970
861.005	0.0140636
861.083	0.0139910
861.161	0.0139597
861.239	0.0139617
861.318	0.0139143
861.396	0.0140390
861.474	0.0139362
861.552	0.0138939
861.630	0.0138332
861.708	0.0138914
861.786	0.0138554
861.864	0.0138904
861.943	0.0139355
862.021	0.0138811
862.099	0.0139626
862.177	0.0138545
862.255	0.0138639
862.333	0.0140262
862.411	0.0139663
862.489	0.0139240
862.568	0.0141791
862.646	0.0141201
862.724	0.0140568
862.802	0.0140376
862.880	0.0141337
862.958	0.0141073
863.036	0.0140313
863.114	0.0142635
863.193	0.0143692
863.271	0.0143274
863.349	0.0141499
863.427	0.0142744
863.505	0.0143158
863.583	0.0142292
863.661	0.0143086
863.739	0.0140824
863.818	0.0140786
863.896	0.0141939
863.974	0.0142171
864.052	0.0142461
864.130	0.0141863
864.208	0.0141605
864.286	0.0141443
864.364	0.0141771
864.443	0.0140357
864.521	0.0141058
864.599	0.0139222
864.677	0.0140090
864.755	0.0139907
864.833	0.0139943
864.911	0.0137067
864.989	0.0137650
865.068	0.0139564
865.146	0.0138912
865.224	0.0136636
865.302	0.0136555
865.380	0.0138133
865.458	0.0139098
865.536	0.0137363
865.614	0.0138446
865.693	0.0138476
865.771	0.0138845
865.849	0.0139955
865.927	0.0141478
866.005	0.0139467
866.083	0.0141206
866.161	0.0140150
866.239	0.0141905
866.318	0.0142087
866.396	0.0142567
866.474	0.0141319
866.552	0.0141649
866.630	0.0141760
866.708	0.0141924
866.786	0.0142226
866.864	0.0141348
866.943	0.0139883
867.021	0.0142130
867.099	0.0142877
867.177	0.0141528
867.255	0.0140675
867.333	0.0140269
867.411	0.0141820
867.489	0.0142362
867.568	0.0142613
867.646	0.0142146
867.724	0.0142622
867.802	0.0142185
867.880	0.0142626
867.958	0.0140549
868.036	0.0142641
868.114	0.0141599
868.193	0.0141808
868.271	0.0141739
868.349	0.0142118
868.427	0.0141684
868.505	0.0142204
868.583	0.0140266
868.661	0.0139497
868.739	0.0140089
868.818	0.0140921
868.896	0.0140081
868.974	0.0140015
869.052	0.0139734
869.130	0.0139226
869.208	0.0140005
869.286	0.0139483
869.364	0.0139169
869.443	0.0140121
869.521	0.0139333
869.599	0.0139803
869.677	0.0140009
869.755	0.0138642
869.833	0.0139535
869.911	0.0139352
869.989	0.0138702
870.068	0.0138588
870.146	0.0136135
870.224	0.0137698
870.302	0.0139172
870.380	0.0137806
870.458	0.0138209
870.536	0.0139225
870.614	0.0139430
870.693	0.0139523
870.771	0.0141273
870.849	0.0141332
870.927	0.0141698
871.005	0.0141528
871.083	0.0142586
871.161	0.0142103
871.239	0.0142525
871.318	0.0142431
871.396	0.0141957
871.474	0.0142139
871.552	0.0142862
871.630	0.0141669
871.708	0.0142275
871.786	0.0140223
871.864	0.0140878
871.943	0.0140471
872.021	0.0141302
872.099	0.0141334
872.177	0.0138923
872.255	0.0138847
872.333	0.0139140
872.411	0.0138971
872.489	0.0137994
872.568	0.0137350
872.646	0.0137447
872.724	0.0135042
872.802	0.0137148
872.880	0.0137431
872.958	0.0136082
873.036	0.0135976
873.114	0.0136759
873.193	0.0137112
873.271	0.0136629
873.349	0.0138327
873.427	0.0137454
873.505	0.0137640
873.583	0.0140114
873.661	0.0139515
873.739	0.0139841
873.818	0.0140762
873.896	0.0139773
873.974	0.0142062
874.052	0.0142532
874.130	0.0139658
874.208	0.0141688
874.286	0.0142942
874.364	0.0141973
874.443	0.0141126
874.521	0.0142616
874.599	0.0141764
874.677	0.0141579
874.755	0.0141167
874.833	0.0140674
874.911	0.0141814
874.989	0.0140540
875.068	0.0141541
875.146	0.0141105
875.224	0.0140982
875.302	0.0140178
875.380	0.0139542
875.458	0.0139005
875.536	0.0140336
875.614	0.0140028
875.693	0.0137780
875.771	0.0138576
875.849	0.0138556
875.927	0.0139848
876.005	0.0139319
876.083	0.0140745
876.161	0.0139184
876.239	0.0140522
876.318	0.0141462
876.396	0.0140547
876.474	0.0139701
876.552	0.0141798
876.630	0.0141499
876.708	0.0139579
876.786	0.0140673
876.864	0.0140047
876.943	0.0140732
877.021	0.0139989
877.099	0.0139291
877.177	0.0140677
877.255	0.0139185
877.333	0.0139235
877.411	0.0140007
877.489	0.0139091
877.568	0.0139688
877.646	0.0139666
877.724	0.0138462
877.802	0.0137967
877.880	0.0136378
877.958	0.0138817
878.036	0.0138442
878.114	0.0138081
878.193	0.0136798
878.271	0.0137830
878.349	0.0138795
878.427	0.0137077
878.505	0.0137479
878.583	0.0138453
878.661	0.0137582
878.739	0.0139639
878.818	0.0138879
878.896	0.0139867
878.974	0.0139467
879.052	0.0139182
879.130	0.0141405
879.208	0.0139423
879.286	0.0140583
879.364	0.0142033
879.443	0.0141801
879.521	0.0142086
879.599	0.0142200
879.677	0.0140782
879.755	0.0141303
879.833	0.0141621
879.911	0.0140951
879.989	0.0140819
880.068	0.0142099
880.146	0.0140967
880.224	0.0140247
880.302	0.0141582
880.380	0.0141406
880.458	0.0141009
880.536	0.0139509
880.614	0.0138742
880.693	0.0139704
880.771	0.0140745
880.849	0.0139980
880.927	0.0139645
881.005	0.0139510
881.083	0.0139921
881.161	0.0140001
881.239	0.0138224
881.318	0.0139713
881.396	0.0139088
881.474	0.0139845
881.552	0.0139642
881.630	0.0138256
881.708	0.0138891
881.786	0.0139787
881.864	0.0139829
881.943	0.0139172
882.021	0.0139548
882.099	0.0139873
882.177	0.0139334
882.255	0.0139034
882.333	0.0139301
882.411	0.0139179
882.489	0.0139240
882.568	0.0138733
882.646	0.0140144
882.724	0.0139335
882.802	0.0138574
882.880	0.0139223
882.958	0.0141257
883.036	0.0140337
883.114	0.0140643
883.193	0.0140175
883.271	0.0139586
883.349	0.0139997
883.427	0.0140010
883.505	0.0139030
883.583	0.0139992
883.661	0.0140380
883.739	0.0141019
883.818	0.0138392
883.896	0.0139494
883.974	0.0139482
884.052	0.0140946
884.130	0.0139644
884.208	0.0139811
884.286	0.0140056
884.364	0.0139518
884.443	0.0138536
884.521	0.0139617
884.599	0.0140807
884.677	0.0140432
884.755	0.0142065
884.833	0.0141398
884.911	0.0141007
884.989	0.0139177
885.068	0.0140911
885.146	0.0142703
885.224	0.0141503
885.302	0.0140865
885.380	0.0141699
885.458	0.0140466
885.536	0.0140744
885.614	0.0140838
885.693	0.0139752
885.771	0.0139321
885.849	0.0138647
885.927	0.0138609
886.005	0.0140072
886.083	0.0139122
886.161	0.0138760
886.239	0.0139774
886.318	0.0140610
886.396	0.0139022
886.474	0.0140148
886.552	0.0141597
886.630	0.0141288
886.708	0.0141531
886.786	0.0140758
886.864	0.0140170
886.943	0.0140952
887.021	0.0141273
887.099	0.0141013
887.177	0.0140609
887.255	0.0141164
887.333	0.0140825
887.411	0.0140671
887.489	0.0140060
887.568	0.0141158
887.646	0.0140967
887.724	0.0141695
887.802	0.0140403
887.880	0.0140125
887.958	0.0140961
888.036	0.0140638
888.114	0.0141096
888.193	0.0140575
888.271	0.0141531
888.349	0.0141440
888.427	0.0141212
888.505	0.0139945
888.583	0.0140613
888.661	0.0141290
888.739	0.0141080
888.818	0.0139919
888.896	0.0141513
888.974	0.0139394
889.052	0.0139104
889.130	0.0140369
889.208	0.0140983
889.286	0.0140930
889.364	0.0139739
889.443	0.0140225
889.521	0.0140578
889.599	0.0141524
889.677	0.0139826
889.755	0.0141555
889.833	0.0141637
889.911	0.0140987
889.989	0.0141402
890.068	0.0140556
890.146	0.0140369
890.224	0.0139967
890.302	0.0139902
890.380	0.0141308
890.458	0.0139345
890.536	0.0141478
890.614	0.0139561
890.693	0.0139817
890.771	0.0140215
890.849	0.0139301
890.927	0.0140247
891.005	0.0139616
891.083	0.0138697
891.161	0.0139281
891.239	0.0138258
891.318	0.0140459
891.396	0.0139423
891.474	0.0139211
891.552	0.0139629
891.630	0.0140993
891.708	0.0139704
891.786	0.0139655
891.864	0.0140585
891.943	0.0140294
892.021	0.0141618
892.099	0.0140821
892.177	0.0141331
892.255	0.0141800
892.333	0.0140935
892.411	0.0140675
892.489	0.0141009
892.568	0.0141608
892.646	0.0142424
892.724	0.0143210
892.802	0.0143130
892.880	0.0140821
892.958	0.0142060
893.036	0.0142497
893.114	0.0143284
893.193	0.0142756
893.271	0.0141871
893.349	0.0141640
893.427	0.0142654
893.505	0.0142451
893.583	0.0142329
893.661	0.0140621
893.739	0.0141232
893.818	0.0140893
893.896	0.0141599
893.974	0.0139895
894.052	0.0141018
894.130	0.0140697
894.208	0.0139641
894.286	0.0140568
894.364	0.0140124
894.443	0.0140478
894.521	0.0140510
894.599	0.0140234
894.677	0.0139206
894.755	0.0141193
894.833	0.0139887
894.911	0.0139642
894.989	0.0139846
895.068	0.0138764
895.146	0.0139810
895.224	0.0140054
895.302	0.0139446
895.380	0.0138942
895.458	0.0137758
895.536	0.0138557
895.614	0.0136871
895.693	0.0137952
895.771	0.0138050
895.849	0.0139674
895.927	0.0137202
896.005	0.0136806
896.083	0.0138317
896.161	0.0138656
896.239	0.0138855
896.318	0.0137748
896.396	0.0138392
896.474	0.0138285
896.552	0.0138451
896.630	0.0139046
896.708	0.0137775
896.786	0.0137251
896.864	0.0138161
896.943	0.0137923
897.021	0.0140070
897.099	0.0137437
897.177	0.0138519
897.255	0.0137002
897.333	0.0137465
897.411	0.0136575
897.489	0.0137845
897.568	0.0138564
897.646	0.0138375
897.724	0.0137757
897.802	0.0138053
897.880	0.0137215
897.958	0.0139565
898.036	0.0137880
898.114	0.0138129
898.193	0.0137851
898.271	0.0139642
898.349	0.0138679
898.427	0.0138806
898.505	0.0139211
898.583	0.0139051
898.661	0.0139943
898.739	0.0139452
898.818	0.0139310
898.896	0.0139639
898.974	0.0139468
899.052	0.0139343
899.130	0.0137811
899.208	0.0138709
899.286	0.0139085
899.364	0.0140002
899.443	0.0140562
899.521	0.0139762
899.599	0.0141139
899.677	0.0141011
899.755	0.0138899
899.833	0.0139703
899.911	0.0140677
899.989	0.0140527
900.068	0.0141512
900.146	0.0142053
900.224	0.0140337
900.302	0.0141257
900.380	0.0140478
900.458	0.0140264
900.536	0.0139291
900.614	0.0140413
900.693	0.0140437
900.771	0.0140464
900.849	0.0139337
900.927	0.0139515
901.005	0.0140329
901.083	0.0139864
901.161	0.0138614
901.239	0.0140263
901.318	0.0141086
901.396	0.0140308
901.474	0.0139435
901.552	0.0140257
901.630	0.0139575
901.708	0.0139790
901.786	0.0141483
901.864	0.0140003
901.943	0.0140326
902.021	0.0140107
902.099	0.0140526
902.177	0.0139463
902.255	0.0140375
902.333	0.0139412
902.411	0.0138722
902.489	0.0140904
902.568	0.0138363
902.646	0.0137270
902.724	0.0139198
902.802	0.0138193
902.880	0.0140377
902.958	0.0139822
903.036	0.0139024
903.114	0.0139050
903.193	0.0138662
903.271	0.0138036
903.349	0.0138442
903.427	0.0138673
903.505	0.0138443
903.583	0.0139755
903.661	0.0139696
903.739	0.0138535
903.818	0.0137730
903.896	0.0139684
903.974	0.0138862
904.052	0.0139468
904.130	0.0139242
904.208	0.0139237
904.286	0.0139791
904.364	0.0140086
904.443	0.0139456
904.521	0.0138732
904.599	0.0138995
904.677	0.0139467
904.755	0.0138875
904.833	0.0139384
904.911	0.0140462
904.989	0.0140356
905.068	0.0139067
905.146	0.0139964
905.224	0.0139594
905.302	0.0139888
905.380	0.0140089
905.458	0.0139234
905.536	0.0140790
905.614	0.0140186
905.693	0.0139739
905.771	0.0141292
905.849	0.0140573
905.927	0.0140225
906.005	0.0139810
906.083	0.0139409
906.161	0.0140212
906.239	0.0141550
906.318	0.0141148
906.396	0.0139959
906.474	0.0140511
906.552	0.0140545
906.630	0.0139293
906.708	0.0140071
906.786	0.0139464
906.864	0.0139356
906.943	0.0140651
907.021	0.0140172
907.099	0.0140439
907.177	0.0142233
907.255	0.0140813
907.333	0.0140256
907.411	0.0140488
907.489	0.0139780
907.568	0.0141150
907.646	0.0141504
907.724	0.0141370
907.802	0.0140047
907.880	0.0139456
907.958	0.0139915
908.036	0.0140591
908.114	0.0138982
908.193	0.0139509
908.271	0.0140699
908.349	0.0139186
908.427	0.0139500
908.505	0.0139142
908.583	0.0139083
908.661	0.0138898
908.739	0.0138684
908.818	0.0139051
908.896	0.0138029
908.974	0.0138670
909.052	0.0138048
909.130	0.0137203
909.208	0.0139077
909.286	0.0138217
909.364	0.0139165
909.443	0.0139186
909.521	0.0139009
909.599	0.0138052
909.677	0.0140136
909.755	0.0140145
909.833	0.0139719
909.911	0.0138895
909.989	0.0139813
910.068	0.0138670
910.146	0.0139722
910.224	0.0139697
910.302	0.0139694
910.380	0.0139511
910.458	0.0141393
910.536	0.0139138
910.614	0.0138949
910.693	0.0140578
910.771	0.0140849
910.849	0.0141134
910.927	0.0141608
911.005	0.0141100
911.083	0.0139964
911.161	0.0140099
911.239	0.0141316
911.318	0.0141048
911.396	0.0140073
911.474	0.0141166
911.552	0.0140722
911.630	0.0140673
911.708	0.0140480
911.786	0.0141263
911.864	0.0139234
911.943	0.0140143
912.021	0.0139314
912.099	0.0138386
912.177	0.0140232
912.255	0.0140366
912.333	0.0139165
912.411	0.0138459
912.489	0.0139585
912.568	0.0139526
912.646	0.0138683
912.724	0.0138796
912.802	0.0138222
912.880	0.0138996
912.958	0.0138392
913.036	0.0138927
913.114	0.0138996
913.193	0.0138429
913.271	0.0137342
913.349	0.0137876
913.427	0.0136122
913.505	0.0137263
913.583	0.0138808
913.661	0.0137504
913.739	0.0137677
913.818	0.0136996
913.896	0.0138403
913.974	0.0137597
914.052	0.0138483
914.130	0.0139202
914.208	0.0137544
914.286	0.0137374
914.364	0.0138153
914.443	0.0138422
914.521	0.0137483
914.599	0.0139996
914.677	0.0139031
914.755	0.0138549
914.833	0.0137926
914.911	0.0139964
914.989	0.0139008
915.068	0.0138181
915.146	0.0139554
915.224	0.0139300
915.302	0.0139741
915.380	0.0138887
915.458	0.0139927
915.536	0.0140041
915.614	0.0141012
915.693	0.0141774
915.771	0.0140337
915.849	0.0140453
915.927	0.0140459
916.005	0.0140656
916.083	0.0140414
916.161	0.0140585
916.239	0.0140891
916.318	0.0138382
916.396	0.0139137
916.474	0.0139757
916.552	0.0139763
916.630	0.0139674
916.708	0.0138204
916.786	0.0139395
916.864	0.0139197
916.943	0.0139934
917.021	0.0138230
917.099	0.0137215
917.177	0.0139072
917.255	0.0140118
917.333	0.0140073
917.411	0.0139038
917.489	0.0139822
917.568	0.0139922
917.646	0.0140238
917.724	0.0140665
917.802	0.0140204
917.880	0.0137593
917.958	0.0140333
918.036	0.0139162
918.114	0.0138868
918.193	0.0140133
918.271	0.0140388
918.349	0.0142314
918.427	0.0140765
918.505	0.0141090
918.583	0.0140190
918.661	0.0142147
918.739	0.0139820
918.818	0.0140447
918.896	0.0142812
918.974	0.0141920
919.052	0.0140645
919.130	0.0142420
919.208	0.0141448
919.286	0.0142449
919.364	0.0141262
919.443	0.0141348
919.521	0.0143201
919.599	0.0142200
919.677	0.0143309
919.755	0.0141979
919.833	0.0142183
919.911	0.0141359
919.989	0.0142987
920.068	0.0142042
920.146	0.0141140
920.224	0.0141099
920.302	0.0141033
920.380	0.0140494
920.458	0.0142432
920.536	0.0140781
920.614	0.0140077
920.693	0.0139759
920.771	0.0139022
920.849	0.0139201
920.927	0.0138799
921.005	0.0140346
921.083	0.0139095
921.161	0.0139513
921.239	0.0139790
921.318	0.0138696
921.396	0.0138701
921.474	0.0138227
921.552	0.0139491
921.630	0.0138982
921.708	0.0136723
921.786	0.0138171
921.864	0.0138429
921.943	0.0140313
922.021	0.0138055
922.099	0.0138552
922.177	0.0138565
922.255	0.0138561
922.333	0.0137243
922.411	0.0139659
922.489	0.0139258
922.568	0.0139190
922.646	0.0138560
922.724	0.0139120
922.802	0.0138557
922.880	0.0139686
922.958	0.0140198
923.036	0.0140407
923.114	0.0140716
923.193	0.0139835
923.271	0.0140092
923.349	0.0137888
923.427	0.0139357
923.505	0.0140691
923.583	0.0140279
923.661	0.0140108
923.739	0.0140288
923.818	0.0140467
923.896	0.0139832
923.974	0.0139625
924.052	0.0139309
924.130	0.0140185
924.208	0.0141194
924.286	0.0140293
924.364	0.0139711
924.443	0.0139787
924.521	0.0140794
924.599	0.0139933
924.677	0.0140073
924.755	0.0139307
924.833	0.0139462
924.911	0.0138234
924.989	0.0137371
925.068	0.0138374
925.146	0.0138207
925.224	0.0138708
925.302	0.0138106
925.380	0.0137682
925.458	0.0138002
925.536	0.0136597
925.614	0.0136626
925.693	0.0137986
925.771	0.0136495
925.849	0.0137015
925.927	0.0138293
926.005	0.0138377
926.083	0.0137088
926.161	0.0138742
926.239	0.0138776
926.318	0.0137238
926.396	0.0137988
926.474	0.0138158
926.552	0.0139061
926.630	0.0138086
926.708	0.0136934
926.786	0.0140074
926.864	0.0139497
926.943	0.0139346
927.021	0.0139801
927.099	0.0139101
927.177	0.0140116
927.255	0.0139439
927.333	0.0138127
927.411	0.0138076
927.489	0.0139644
927.568	0.0140545
927.646	0.0140003
927.724	0.0138761
927.802	0.0139339
927.880	0.0138514
927.958	0.0138442
928.036	0.0138739
928.114	0.0140031
928.193	0.0139782
928.271	0.0139969
928.349	0.0140078
928.427	0.0140541
928.505	0.0140821
928.583	0.0141537
928.661	0.0141113
928.739	0.0141030
928.818	0.0139680
928.896	0.0139141
928.974	0.0140417
929.052	0.0142164
929.130	0.0139436
929.208	0.0140482
929.286	0.0140437
929.364	0.0139494
929.443	0.0140479
929.521	0.0140008
929.599	0.0141553
929.677	0.0141099
929.755	0.0140269
929.833	0.0140816
929.911	0.0140340
929.989	0.0141677
930.068	0.0141136
930.146	0.0141115
930.224	0.0139819
930.302	0.0140560
930.380	0.0139591
930.458	0.0139835
930.536	0.0140125
930.614	0.0139561
930.693	0.0139832
930.771	0.0138395
930.849	0.0139084
930.927	0.0139796
931.005	0.0140325
931.083	0.0139485
931.161	0.0140637
931.239	0.0140012
931.318	0.0139854
931.396	0.0139312
931.474	0.0139688
931.552	0.0139467
931.630	0.0139172
931.708	0.0139594
931.786	0.0138480
931.864	0.0139417
931.943	0.0139812
932.021	0.0138902
932.099	0.0138560
932.177	0.0139597
932.255	0.0140455
932.333	0.0139374
932.411	0.0138998
932.489	0.0139547
932.568	0.0140639
932.646	0.0139246
932.724	0.0139095
932.802	0.0139468
932.880	0.0138606
932.958	0.0139522
933.036	0.0140045
933.114	0.0139957
933.193	0.0139171
933.271	0.0139741
933.349	0.0139587
933.427	0.0140490
933.505	0.0139973
933.583	0.0140741
933.661	0.0140247
933.739	0.0138792
933.818	0.0139643
933.896	0.0140707
933.974	0.0140768
934.052	0.0140331
934.130	0.0139864
934.208	0.0140179
934.286	0.0139418
934.364	0.0138832
934.443	0.0141131
934.521	0.0139374
934.599	0.0138575
934.677	0.0140831
934.755	0.0138824
934.833	0.0138361
934.911	0.0139331
934.989	0.0140042
935.068	0.0139464
935.146	0.0139378
935.224	0.0140863
935.302	0.0139078
935.380	0.0141165
935.458	0.0141210
935.536	0.0140256
935.614	0.0140086
935.693	0.0140348
935.771	0.0139210
935.849	0.0141255
935.927	0.0140981
936.005	0.0139031
936.083	0.0140683
936.161	0.0140816
936.239	0.0142226
936.318	0.0139990
936.396	0.0140401
936.474	0.0140392
936.552	0.0140295
936.630	0.0141280
936.708	0.0140607
936.786	0.0140832
936.864	0.0140663
936.943	0.0139674
937.021	0.0140784
937.099	0.0142246
937.177	0.0139790
937.255	0.0139037
937.333	0.0138670
937.411	0.0138680
937.489	0.0137292
937.568	0.0138772
937.646	0.0139347
937.724	0.0139379
937.802	0.0138505
937.880	0.0137810
937.958	0.0138123
938.036	0.0139575
938.114	0.0137595
938.193	0.0138481
938.271	0.0140309
938.349	0.0138450
938.427	0.0137757
938.505	0.0138426
938.583	0.0139042
938.661	0.0138381
938.739	0.0137573
938.818	0.0138039
938.896	0.0136572
938.974	0.0138121
939.052	0.0139014
939.130	0.0137313
939.208	0.0137041
939.286	0.0137873
939.364	0.0137697
939.443	0.0138276
939.521	0.0138890
939.599	0.0137116
939.677	0.0138425
939.755	0.0138458
939.833	0.0138204
939.911	0.0138760
939.989	0.0139030
940.068	0.0139018
940.146	0.0139322
940.224	0.0138295
940.302	0.0138879
940.380	0.0139584
940.458	0.0139061
940.536	0.0137771
940.614	0.0140023
940.693	0.0140061
940.771	0.0139861
940.849	0.0140742
940.927	0.0139738
941.005	0.0141568
941.083	0.0140202
941.161	0.0140762
941.239	0.0140324
941.318	0.0142368
941.396	0.0140746
941.474	0.0139859
941.552	0.0140953
941.630	0.0141153
941.708	0.0140749
941.786	0.0141702
941.864	0.0142251
941.943	0.0141831
942.021	0.0141119
942.099	0.0140525
942.177	0.0141094
942.255	0.0141440
942.333	0.0142290
942.411	0.0140619
942.489	0.0142968
942.568	0.0141162
942.646	0.0141181
942.724	0.0141091
942.802	0.0141638
942.880	0.0140591
942.958	0.0141658
943.036	0.0140528
943.114	0.0139600
943.193	0.0141074
943.271	0.0140391
943.349	0.0139353
943.427	0.0141740
943.505	0.0141789
943.583	0.0140907
943.661	0.0140337
943.739	0.0139223
943.818	0.0140631
943.896	0.0140929
943.974	0.0141917
944.052	0.0140364
944.130	0.0139879
944.208	0.0140775
944.286	0.0141493
944.364	0.0141002
944.443	0.0140294
944.521	0.0140066
944.599	0.0140982
944.677	0.0141181
944.755	0.0141119
944.833	0.0140986
944.911	0.0140668
944.989	0.0141570
945.068	0.0140648
945.146	0.0140819
945.224	0.0140524
945.302	0.0140617
945.380	0.0141901
945.458	0.0140932
945.536	0.0142243
945.614	0.0140202
945.693	0.0141872
945.771	0.0141690
945.849	0.0140955
945.927	0.0140979
946.005	0.0139928
946.083	0.0141364
946.161	0.0141190
946.239	0.0141510
946.318	0.0139897
946.396	0.0140297
946.474	0.0141189
946.552	0.0140670
946.630	0.0138737
946.708	0.0140933
946.786	0.0140974
946.864	0.0138898
946.943	0.0139626
947.021	0.0141300
947.099	0.0140907
947.177	0.0139705
947.255	0.0140440
947.333	0.0140441
947.411	0.0139488
947.489	0.0141320
947.568	0.0139376
947.646	0.0138752
947.724	0.0138097
947.802	0.0139042
947.880	0.0140154
947.958	0.0139230
948.036	0.0138049
948.114	0.0141180
948.193	0.0139281
948.271	0.0139136
948.349	0.0137990
948.427	0.0139848
948.505	0.0139496
948.583	0.0139396
948.661	0.0140513
948.739	0.0139623
948.818	0.0139095
948.896	0.0139541
948.974	0.0140374
949.052	0.0138927
949.130	0.0139337
949.208	0.0139175
949.286	0.0140498
949.364	0.0139758
949.443	0.0139280
949.521	0.0139101
949.599	0.0139971
949.677	0.0138952
949.755	0.0139790
949.833	0.0139042
949.911	0.0139042
949.989	0.0139043
950.068	0.0138945
950.146	0.0140228
950.224	0.0138954
950.302	0.0138997
950.380	0.0140244
950.458	0.0139445
950.536	0.0139371
950.614	0.0139532
950.693	0.0139564
950.771	0.0139075
950.849	0.0139376
950.927	0.0139501
951.005	0.0140011
951.083	0.0139512
951.161	0.0138718
951.239	0.0140139
951.318	0.0139262
951.396	0.0140004
951.474	0.0138811
951.552	0.0139395
951.630	0.0138499
951.708	0.0138567
951.786	0.0139687
951.864	0.0139935
951.943	0.0138623
952.021	0.0139117
952.099	0.0139758
952.177	0.0141164
952.255	0.0139742
952.333	0.0139517
952.411	0.0140600
952.489	0.0138749
952.568	0.0139181
952.646	0.0140652
952.724	0.0141679
952.802	0.0140287
952.880	0.0140681
952.958	0.0139663
953.036	0.0140359
953.114	0.0140459
953.193	0.0139853
953.271	0.0141229
953.349	0.0139285
953.427	0.0140459
953.505	0.0143237
953.583	0.0142036
953.661	0.0140305
953.739	0.0139877
953.818	0.0141409
953.896	0.0141182
953.974	0.0140243
954.052	0.0139675
954.130	0.0140961
954.208	0.0140142
954.286	0.0140482
954.364	0.0139536
954.443	0.0140028
954.521	0.0140382
954.599	0.0141208
954.677	0.0142029
954.755	0.0139877
954.833	0.0139506
954.911	0.0139375
954.989	0.0140734
955.068	0.0141594
955.146	0.0140392
955.224	0.0139877
955.302	0.0140966
955.380	0.0141032
955.458	0.0140730
955.536	0.0139834
955.614	0.0140250
955.693	0.0140085
955.771	0.0139712
955.849	0.0140237
955.927	0.0140150
956.005	0.0140782
956.083	0.0140846
956.161	0.0138248
956.239	0.0139803
956.318	0.0141177
956.396	0.0140198
956.474	0.0141252
956.552	0.0140755
956.630	0.0139056
956.708	0.0139865
956.786	0.0140170
956.864	0.0139060
956.943	0.0139468
957.021	0.0139288
957.099	0.0140000
957.177	0.0140067
957.255	0.0138588
957.333	0.0139560
957.411	0.0138985
957.489	0.0139045
957.568	0.0138382
957.646	0.0139379
957.724	0.0138602
957.802	0.0139426
957.880	0.0140807
957.958	0.0138973
958.036	0.0139162
958.114	0.0138454
958.193	0.0139597
958.271	0.0139861
958.349	0.0139266
958.427	0.0139127
958.505	0.0139020
958.583	0.0140692
958.661	0.0140199
958.739	0.0139277
958.818	0.0140437
958.896	0.0139885
958.974	0.0139161
959.052	0.0141092
959.130	0.0141309
959.208	0.0140154
959.286	0.0139548
959.364	0.0139407
959.443	0.0138718
959.521	0.0141085
959.599	0.0140686
959.677	0.0139935
959.755	0.0141994
959.833	0.0140437
959.911	0.0141749
