05/14/2022	16:53:32	Ver.	4.1	UNKNOWN
Optical Delay	639.989416	Delta X		0.078125	Sweeps	1	Scan Rate	0/0
Coordinates	Axis 1	NaN	Axis 2	NaN	Axis 3	NaN	Axis 4	NaN	Axis 5	NaN	Axis 6	0.000000
TX Power	0.000000	RX Power	0.000000

639.989	0.0139218
640.068	0.0139758
640.146	0.0140076
640.224	0.0140240
640.302	0.0140025
640.380	0.0140132
640.458	0.0140334
640.536	0.0141350
640.614	0.0140983
640.693	0.0139840
640.771	0.0139525
640.849	0.0139819
640.927	0.0139922
641.005	0.0140016
641.083	0.0141394
641.161	0.0141251
641.239	0.0141576
641.318	0.0139825
641.396	0.0139903
641.474	0.0140672
641.552	0.0139455
641.630	0.0140409
641.708	0.0140833
641.786	0.0140077
641.864	0.0138887
641.943	0.0141493
642.021	0.0139784
642.099	0.0139398
642.177	0.0138781
642.255	0.0140087
642.333	0.0140490
642.411	0.0140331
642.489	0.0140156
642.568	0.0139381
642.646	0.0140887
642.724	0.0138405
642.802	0.0138715
642.880	0.0139064
642.958	0.0138794
643.036	0.0139697
643.114	0.0139721
643.193	0.0137853
643.271	0.0138565
643.349	0.0139877
643.427	0.0139087
643.505	0.0138669
643.583	0.0139014
643.661	0.0138509
643.739	0.0137574
643.818	0.0138634
643.896	0.0138611
643.974	0.0137842
644.052	0.0138977
644.130	0.0138699
644.208	0.0137646
644.286	0.0137837
644.364	0.0138716
644.443	0.0137370
644.521	0.0136643
644.599	0.0137208
644.677	0.0136703
644.755	0.0138516
644.833	0.0138428
644.911	0.0138512
644.989	0.0137389
645.068	0.0137769
645.146	0.0138429
645.224	0.0138905
645.302	0.0138661
645.380	0.0138786
645.458	0.0138698
645.536	0.0139576
645.614	0.0140408
645.693	0.0138483
645.771	0.0139209
645.849	0.0138057
645.927	0.0138332
646.005	0.0139791
646.083	0.0138619
646.161	0.0138938
646.239	0.0140886
646.318	0.0138718
646.396	0.0138985
646.474	0.0138795
646.552	0.0137442
646.630	0.0139636
646.708	0.0139588
646.786	0.0139132
646.864	0.0139671
646.943	0.0139336
647.021	0.0139235
647.099	0.0139761
647.177	0.0140443
647.255	0.0139521
647.333	0.0140001
647.411	0.0139355
647.489	0.0138033
647.568	0.0139643
647.646	0.0140758
647.724	0.0139999
647.802	0.0140532
647.880	0.0139852
647.958	0.0139079
648.036	0.0139879
648.114	0.0139793
648.193	0.0140140
648.271	0.0138750
648.349	0.0140734
648.427	0.0139281
648.505	0.0139426
648.583	0.0138548
648.661	0.0138925
648.739	0.0138820
648.818	0.0137714
648.896	0.0138622
648.974	0.0138364
649.052	0.0137923
649.130	0.0137419
649.208	0.0139665
649.286	0.0139224
649.364	0.0139350
649.443	0.0138059
649.521	0.0138428
649.599	0.0138535
649.677	0.0139101
649.755	0.0138368
649.833	0.0139513
649.911	0.0138687
649.989	0.0139290
650.068	0.0139555
650.146	0.0138356
650.224	0.0139043
650.302	0.0138582
650.380	0.0139102
650.458	0.0139007
650.536	0.0139733
650.614	0.0138599
650.693	0.0137690
650.771	0.0138844
650.849	0.0140113
650.927	0.0138158
651.005	0.0138885
651.083	0.0137899
651.161	0.0137193
651.239	0.0138271
651.318	0.0139310
651.396	0.0137884
651.474	0.0137628
651.552	0.0139658
651.630	0.0137400
651.708	0.0137849
651.786	0.0138722
651.864	0.0137768
651.943	0.0137781
652.021	0.0139525
652.099	0.0138697
652.177	0.0138598
652.255	0.0138725
652.333	0.0138255
652.411	0.0138586
652.489	0.0138722
652.568	0.0138905
652.646	0.0139024
652.724	0.0138155
652.802	0.0138012
652.880	0.0139178
652.958	0.0137813
653.036	0.0138560
653.114	0.0138601
653.193	0.0138577
653.271	0.0138653
653.349	0.0139169
653.427	0.0139200
653.505	0.0138830
653.583	0.0138866
653.661	0.0139687
653.739	0.0139339
653.818	0.0139551
653.896	0.0139097
653.974	0.0140368
654.052	0.0139926
654.130	0.0138634
654.208	0.0139188
654.286	0.0139639
654.364	0.0139645
654.443	0.0139056
654.521	0.0138851
654.599	0.0140308
654.677	0.0140179
654.755	0.0138785
654.833	0.0139050
654.911	0.0139037
654.989	0.0138108
655.068	0.0138826
655.146	0.0138495
655.224	0.0139177
655.302	0.0138924
655.380	0.0140789
655.458	0.0139474
655.536	0.0138905
655.614	0.0138934
655.693	0.0139025
655.771	0.0139665
655.849	0.0140472
655.927	0.0139750
656.005	0.0139576
656.083	0.0139150
656.161	0.0138638
656.239	0.0140231
656.318	0.0139057
656.396	0.0138448
656.474	0.0138506
656.552	0.0139198
656.630	0.0138420
656.708	0.0138222
656.786	0.0138879
656.864	0.0137607
656.943	0.0138937
657.021	0.0138920
657.099	0.0139810
657.177	0.0139217
657.255	0.0137908
657.333	0.0138261
657.411	0.0137891
657.489	0.0138712
657.568	0.0139427
657.646	0.0138020
657.724	0.0139082
657.802	0.0139533
657.880	0.0138960
657.958	0.0138442
658.036	0.0138915
658.114	0.0139016
658.193	0.0138295
658.271	0.0139799
658.349	0.0139218
658.427	0.0139567
658.505	0.0139973
658.583	0.0137991
658.661	0.0138913
658.739	0.0138292
658.818	0.0139573
658.896	0.0140133
658.974	0.0139746
659.052	0.0138524
659.130	0.0139649
659.208	0.0139392
659.286	0.0139497
659.364	0.0136960
659.443	0.0138372
659.521	0.0138145
659.599	0.0137173
659.677	0.0137501
659.755	0.0138154
659.833	0.0138935
659.911	0.0139350
659.989	0.0139076
660.068	0.0138960
660.146	0.0139508
660.224	0.0140039
660.302	0.0141402
660.380	0.0139627
660.458	0.0139144
660.536	0.0139908
660.614	0.0139290
660.693	0.0139642
660.771	0.0140578
660.849	0.0140137
660.927	0.0140206
661.005	0.0141286
661.083	0.0139055
661.161	0.0139606
661.239	0.0139710
661.318	0.0139115
661.396	0.0138632
661.474	0.0138342
661.552	0.0140553
661.630	0.0140673
661.708	0.0139962
661.786	0.0139040
661.864	0.0140150
661.943	0.0140318
662.021	0.0141411
662.099	0.0140956
662.177	0.0139429
662.255	0.0139294
662.333	0.0140363
662.411	0.0140516
662.489	0.0141409
662.568	0.0141068
662.646	0.0140874
662.724	0.0139110
662.802	0.0139481
662.880	0.0140393
662.958	0.0139075
663.036	0.0138521
663.114	0.0137628
663.193	0.0136916
663.271	0.0137034
663.349	0.0137096
663.427	0.0135766
663.505	0.0137469
663.583	0.0135677
663.661	0.0136202
663.739	0.0137072
663.818	0.0135408
663.896	0.0134921
663.974	0.0135539
664.052	0.0137766
664.130	0.0136411
664.208	0.0136125
664.286	0.0137417
664.364	0.0137939
664.443	0.0139934
664.521	0.0138937
664.599	0.0140872
664.677	0.0141880
664.755	0.0142399
664.833	0.0143087
664.911	0.0143173
664.989	0.0144270
665.068	0.0146928
665.146	0.0145837
665.224	0.0146087
665.302	0.0146221
665.380	0.0144977
665.458	0.0144874
665.536	0.0145263
665.614	0.0144753
665.693	0.0144281
665.771	0.0143545
665.849	0.0142574
665.927	0.0141183
666.005	0.0139343
666.083	0.0139079
666.161	0.0137701
666.239	0.0135969
666.318	0.0135909
666.396	0.0135656
666.474	0.0133217
666.552	0.0132902
666.630	0.0131639
666.708	0.0131058
666.786	0.0129481
666.864	0.0129668
666.943	0.0129815
667.021	0.0130761
667.099	0.0130675
667.177	0.0130732
667.255	0.0132164
667.333	0.0132552
667.411	0.0131669
667.489	0.0134473
667.568	0.0134984
667.646	0.0136250
667.724	0.0138087
667.802	0.0140127
667.880	0.0139498
667.958	0.0141698
668.036	0.0144370
668.114	0.0146361
668.193	0.0148577
668.271	0.0147499
668.349	0.0149158
668.427	0.0150436
668.505	0.0150858
668.583	0.0149395
668.661	0.0150881
668.739	0.0151665
668.818	0.0150387
668.896	0.0148255
668.974	0.0148409
669.052	0.0147712
669.130	0.0145811
669.208	0.0144979
669.286	0.0143201
669.364	0.0140828
669.443	0.0140575
669.521	0.0138168
669.599	0.0135995
669.677	0.0134220
669.755	0.0132336
669.833	0.0131965
669.911	0.0130698
669.989	0.0127119
670.068	0.0128383
670.146	0.0128487
670.224	0.0127254
670.302	0.0128750
670.380	0.0127656
670.458	0.0125533
670.536	0.0127448
670.614	0.0128301
670.693	0.0129430
670.771	0.0130106
670.849	0.0131686
670.927	0.0132420
671.005	0.0133881
671.083	0.0136327
671.161	0.0136508
671.239	0.0138443
671.318	0.0140257
671.396	0.0141072
671.474	0.0140799
671.552	0.0143764
671.630	0.0144759
671.708	0.0146091
671.786	0.0148618
671.864	0.0148447
671.943	0.0150890
672.021	0.0150620
672.099	0.0149942
672.177	0.0149473
672.255	0.0150897
672.333	0.0151485
672.411	0.0149963
672.489	0.0149457
672.568	0.0149256
672.646	0.0149763
672.724	0.0149081
672.802	0.0147330
672.880	0.0146570
672.958	0.0145733
673.036	0.0143221
673.114	0.0142022
673.193	0.0141286
673.271	0.0140639
673.349	0.0140712
673.427	0.0137972
673.505	0.0135883
673.583	0.0135145
673.661	0.0132584
673.739	0.0133259
673.818	0.0131857
673.896	0.0129755
673.974	0.0128431
674.052	0.0127162
674.130	0.0127105
674.208	0.0127097
674.286	0.0126020
674.364	0.0124509
674.443	0.0125380
674.521	0.0125456
674.599	0.0126389
674.677	0.0125149
674.755	0.0126006
674.833	0.0127042
674.911	0.0127691
674.989	0.0126855
675.068	0.0129214
675.146	0.0130708
675.224	0.0131897
675.302	0.0134189
675.380	0.0135695
675.458	0.0137057
675.536	0.0140172
675.614	0.0141515
675.693	0.0144658
675.771	0.0145618
675.849	0.0147834
675.927	0.0151378
676.005	0.0151244
676.083	0.0154065
676.161	0.0153851
676.239	0.0155890
676.318	0.0157912
676.396	0.0156783
676.474	0.0158230
676.552	0.0157724
676.630	0.0158030
676.708	0.0156081
676.786	0.0157961
676.864	0.0156794
676.943	0.0153741
677.021	0.0152705
677.099	0.0151324
677.177	0.0149580
677.255	0.0148008
677.333	0.0145123
677.411	0.0143927
677.489	0.0140797
677.568	0.0136750
677.646	0.0134472
677.724	0.0131516
677.802	0.0129997
677.880	0.0126807
677.958	0.0123416
678.036	0.0122703
678.114	0.0119716
678.193	0.0117375
678.271	0.0115204
678.349	0.0113513
678.427	0.0114597
678.505	0.0113946
678.583	0.0113750
678.661	0.0114124
678.739	0.0113949
678.818	0.0114862
678.896	0.0117174
678.974	0.0120631
679.052	0.0122068
679.130	0.0123923
679.208	0.0126302
679.286	0.0130697
679.364	0.0134166
679.443	0.0135849
679.521	0.0139765
679.599	0.0146016
679.677	0.0147366
679.755	0.0149734
679.833	0.0152985
679.911	0.0155208
679.989	0.0158083
680.068	0.0160387
680.146	0.0160154
680.224	0.0162824
680.302	0.0164988
680.380	0.0163293
680.458	0.0164817
680.536	0.0163783
680.614	0.0164027
680.693	0.0162983
680.771	0.0161758
680.849	0.0162381
680.927	0.0159365
681.005	0.0157173
681.083	0.0155625
681.161	0.0153423
681.239	0.0151263
681.318	0.0147994
681.396	0.0145517
681.474	0.0144148
681.552	0.0140395
681.630	0.0135992
681.708	0.0134402
681.786	0.0132368
681.864	0.0129729
681.943	0.0129634
682.021	0.0127952
682.099	0.0126137
682.177	0.0123280
682.255	0.0122786
682.333	0.0122961
682.411	0.0122925
682.489	0.0122580
682.568	0.0121153
682.646	0.0121024
682.724	0.0121316
682.802	0.0122727
682.880	0.0123692
682.958	0.0122910
683.036	0.0122749
683.114	0.0125422
683.193	0.0126327
683.271	0.0125795
683.349	0.0126893
683.427	0.0128837
683.505	0.0130133
683.583	0.0132870
683.661	0.0132780
683.739	0.0133953
683.818	0.0136552
683.896	0.0136897
683.974	0.0139837
684.052	0.0142246
684.130	0.0143747
684.208	0.0143084
684.286	0.0144052
684.364	0.0146337
684.443	0.0147400
684.521	0.0147577
684.599	0.0150109
684.677	0.0148248
684.755	0.0149417
684.833	0.0150455
684.911	0.0149871
684.989	0.0150626
685.068	0.0150809
685.146	0.0151565
685.224	0.0151305
685.302	0.0151799
685.380	0.0152677
685.458	0.0151727
685.536	0.0149275
685.614	0.0150166
685.693	0.0151616
685.771	0.0150179
685.849	0.0147601
685.927	0.0147139
686.005	0.0146999
686.083	0.0145104
686.161	0.0145461
686.239	0.0144124
686.318	0.0143004
686.396	0.0139993
686.474	0.0141401
686.552	0.0140170
686.630	0.0138367
686.708	0.0136448
686.786	0.0136325
686.864	0.0135548
686.943	0.0133220
687.021	0.0131635
687.099	0.0129977
687.177	0.0130034
687.255	0.0129890
687.333	0.0129309
687.411	0.0127163
687.489	0.0127094
687.568	0.0126375
687.646	0.0125558
687.724	0.0125528
687.802	0.0127510
687.880	0.0127692
687.958	0.0128117
688.036	0.0129018
688.114	0.0127818
688.193	0.0129266
688.271	0.0130628
688.349	0.0132791
688.427	0.0132872
688.505	0.0134904
688.583	0.0135973
688.661	0.0137463
688.739	0.0139191
688.818	0.0140239
688.896	0.0141039
688.974	0.0142902
689.052	0.0145244
689.130	0.0145623
689.208	0.0145492
689.286	0.0147409
689.364	0.0147937
689.443	0.0149233
689.521	0.0148965
689.599	0.0148598
689.677	0.0148425
689.755	0.0148584
689.833	0.0147884
689.911	0.0148410
689.989	0.0148750
690.068	0.0148077
690.146	0.0148099
690.224	0.0147327
690.302	0.0144928
690.380	0.0144189
690.458	0.0144280
690.536	0.0145134
690.614	0.0143333
690.693	0.0142904
690.771	0.0141641
690.849	0.0141126
690.927	0.0142660
691.005	0.0140924
691.083	0.0141208
691.161	0.0142342
691.239	0.0140392
691.318	0.0140745
691.396	0.0141071
691.474	0.0142521
691.552	0.0140064
691.630	0.0140247
691.708	0.0141177
691.786	0.0138474
691.864	0.0138348
691.943	0.0137776
692.021	0.0139045
692.099	0.0136977
692.177	0.0136391
692.255	0.0133743
692.333	0.0134583
692.411	0.0134532
692.489	0.0132990
692.568	0.0133713
692.646	0.0133225
692.724	0.0134682
692.802	0.0133057
692.880	0.0132248
692.958	0.0132160
693.036	0.0131802
693.114	0.0133423
693.193	0.0133261
693.271	0.0133304
693.349	0.0132188
693.427	0.0130787
693.505	0.0132236
693.583	0.0132279
693.661	0.0133554
693.739	0.0133558
693.818	0.0131567
693.896	0.0132818
693.974	0.0135238
694.052	0.0133900
694.130	0.0134483
694.208	0.0135196
694.286	0.0136260
694.364	0.0138121
694.443	0.0138232
694.521	0.0139404
694.599	0.0139585
694.677	0.0139807
694.755	0.0141523
694.833	0.0141059
694.911	0.0142867
694.989	0.0143279
695.068	0.0143188
695.146	0.0145264
695.224	0.0145151
695.302	0.0144011
695.380	0.0144235
695.458	0.0145569
695.536	0.0147231
695.614	0.0145766
695.693	0.0145496
695.771	0.0145578
695.849	0.0146581
695.927	0.0144245
696.005	0.0143378
696.083	0.0143357
696.161	0.0142160
696.239	0.0142899
696.318	0.0140549
696.396	0.0140660
696.474	0.0140782
696.552	0.0138729
696.630	0.0138020
696.708	0.0137955
696.786	0.0137156
696.864	0.0136018
696.943	0.0136608
697.021	0.0136657
697.099	0.0135062
697.177	0.0136131
697.255	0.0138129
697.333	0.0137238
697.411	0.0137058
697.489	0.0139046
697.568	0.0139928
697.646	0.0140991
697.724	0.0140111
697.802	0.0142347
697.880	0.0142963
697.958	0.0143631
698.036	0.0143792
698.114	0.0146516
698.193	0.0145557
698.271	0.0146103
698.349	0.0146397
698.427	0.0144662
698.505	0.0145917
698.583	0.0144545
698.661	0.0143349
698.739	0.0144324
698.818	0.0143809
698.896	0.0142942
698.974	0.0142664
699.052	0.0142437
699.130	0.0140045
699.208	0.0138200
699.286	0.0138888
699.364	0.0136243
699.443	0.0135825
699.521	0.0135088
699.599	0.0134763
699.677	0.0133241
699.755	0.0133295
699.833	0.0131428
699.911	0.0133849
699.989	0.0131601
700.068	0.0131100
700.146	0.0131796
700.224	0.0128471
700.302	0.0130256
700.380	0.0130920
700.458	0.0129424
700.536	0.0129270
700.614	0.0129446
700.693	0.0130369
700.771	0.0130219
700.849	0.0129762
700.927	0.0129362
701.005	0.0131222
701.083	0.0133309
701.161	0.0133068
701.239	0.0132670
701.318	0.0134465
701.396	0.0134274
701.474	0.0135825
701.552	0.0136071
701.630	0.0138612
701.708	0.0141037
701.786	0.0141084
701.864	0.0142278
701.943	0.0144016
702.021	0.0145938
702.099	0.0145671
702.177	0.0146728
702.255	0.0147652
702.333	0.0150373
702.411	0.0151513
702.489	0.0151023
702.568	0.0152240
702.646	0.0150778
702.724	0.0151320
702.802	0.0152372
702.880	0.0151701
702.958	0.0152585
703.036	0.0152364
703.114	0.0152262
703.193	0.0151193
703.271	0.0151865
703.349	0.0150435
703.427	0.0149005
703.505	0.0149585
703.583	0.0146949
703.661	0.0144759
703.739	0.0145642
703.818	0.0145071
703.896	0.0142672
703.974	0.0141505
704.052	0.0138777
704.130	0.0137873
704.208	0.0135992
704.286	0.0135850
704.364	0.0133106
704.443	0.0130784
704.521	0.0129094
704.599	0.0127430
704.677	0.0128222
704.755	0.0125954
704.833	0.0123738
704.911	0.0122495
704.989	0.0122078
705.068	0.0119525
705.146	0.0119954
705.224	0.0119647
705.302	0.0120161
705.380	0.0119611
705.458	0.0119614
705.536	0.0120422
705.614	0.0122032
705.693	0.0122284
705.771	0.0122980
705.849	0.0125917
705.927	0.0126230
706.005	0.0128569
706.083	0.0130566
706.161	0.0132986
706.239	0.0134804
706.318	0.0136615
706.396	0.0138906
706.474	0.0140578
706.552	0.0142934
706.630	0.0143637
706.708	0.0145737
706.786	0.0148045
706.864	0.0150125
706.943	0.0151040
707.021	0.0150523
707.099	0.0153069
707.177	0.0153156
707.255	0.0151772
707.333	0.0153308
707.411	0.0152500
707.489	0.0153393
707.568	0.0153641
707.646	0.0153764
707.724	0.0153312
707.802	0.0151511
707.880	0.0152054
707.958	0.0150885
708.036	0.0148802
708.114	0.0149174
708.193	0.0148996
708.271	0.0146517
708.349	0.0145856
708.427	0.0145985
708.505	0.0145771
708.583	0.0143226
708.661	0.0143002
708.739	0.0142721
708.818	0.0139645
708.896	0.0140643
708.974	0.0140620
709.052	0.0140419
709.130	0.0137977
709.208	0.0138760
709.286	0.0139113
709.364	0.0138154
709.443	0.0137562
709.521	0.0137058
709.599	0.0137543
709.677	0.0138493
709.755	0.0136123
709.833	0.0136856
709.911	0.0135432
709.989	0.0134509
710.068	0.0135928
710.146	0.0133640
710.224	0.0134361
710.302	0.0135241
710.380	0.0131736
710.458	0.0130939
710.536	0.0130770
710.614	0.0130889
710.693	0.0130672
710.771	0.0129456
710.849	0.0130095
710.927	0.0130013
711.005	0.0129366
711.083	0.0130078
711.161	0.0128441
711.239	0.0128646
711.318	0.0130270
711.396	0.0130738
711.474	0.0130474
711.552	0.0129807
711.630	0.0129318
711.708	0.0130240
711.786	0.0130283
711.864	0.0130955
711.943	0.0131194
712.021	0.0132796
712.099	0.0131951
712.177	0.0134090
712.255	0.0135033
712.333	0.0134814
712.411	0.0136914
712.489	0.0136966
712.568	0.0139479
712.646	0.0140942
712.724	0.0142732
712.802	0.0143320
712.880	0.0144869
712.958	0.0146611
713.036	0.0147366
713.114	0.0148906
713.193	0.0149841
713.271	0.0150848
713.349	0.0152102
713.427	0.0152325
713.505	0.0153848
713.583	0.0153639
713.661	0.0154221
713.739	0.0154622
713.818	0.0156172
713.896	0.0155128
713.974	0.0153676
714.052	0.0154359
714.130	0.0153542
714.208	0.0150819
714.286	0.0151743
714.364	0.0148972
714.443	0.0146923
714.521	0.0147042
714.599	0.0143829
714.677	0.0140722
714.755	0.0140515
714.833	0.0138196
714.911	0.0138278
714.989	0.0136739
715.068	0.0135682
715.146	0.0135629
715.224	0.0133699
715.302	0.0133845
715.380	0.0132722
715.458	0.0130936
715.536	0.0132146
715.614	0.0131432
715.693	0.0130765
715.771	0.0131017
715.849	0.0130579
715.927	0.0131116
716.005	0.0130291
716.083	0.0131293
716.161	0.0130857
716.239	0.0130681
716.318	0.0132275
716.396	0.0131490
716.474	0.0133430
716.552	0.0133215
716.630	0.0133263
716.708	0.0133409
716.786	0.0133222
716.864	0.0135759
716.943	0.0137035
717.021	0.0137508
717.099	0.0137757
717.177	0.0139253
717.255	0.0139134
717.333	0.0140788
717.411	0.0140419
717.489	0.0140936
717.568	0.0140580
717.646	0.0140098
717.724	0.0140864
717.802	0.0140199
717.880	0.0139474
717.958	0.0139745
718.036	0.0138972
718.114	0.0139104
718.193	0.0140485
718.271	0.0139659
718.349	0.0140009
718.427	0.0139153
718.505	0.0139899
718.583	0.0140865
718.661	0.0140436
718.739	0.0138168
718.818	0.0141187
718.896	0.0141669
718.974	0.0140739
719.052	0.0141341
719.130	0.0141177
719.208	0.0141424
719.286	0.0141772
719.364	0.0143723
719.443	0.0142337
719.521	0.0142349
719.599	0.0142671
719.677	0.0145171
719.755	0.0143967
719.833	0.0142770
719.911	0.0143243
719.989	0.0142601
720.068	0.0142900
720.146	0.0143050
720.224	0.0142074
720.302	0.0141730
720.380	0.0142214
720.458	0.0141137
720.536	0.0141317
720.614	0.0141844
720.693	0.0141117
720.771	0.0138758
720.849	0.0139828
720.927	0.0140644
721.005	0.0140180
721.083	0.0141472
721.161	0.0139372
721.239	0.0140174
721.318	0.0140292
721.396	0.0141137
721.474	0.0139582
721.552	0.0139281
721.630	0.0139491
721.708	0.0138202
721.786	0.0137299
721.864	0.0138219
721.943	0.0137790
722.021	0.0136574
722.099	0.0137541
722.177	0.0135703
722.255	0.0135284
722.333	0.0134690
722.411	0.0135703
722.489	0.0136293
722.568	0.0134799
722.646	0.0134173
722.724	0.0132681
722.802	0.0134518
722.880	0.0134550
722.958	0.0133109
723.036	0.0133392
723.114	0.0134556
723.193	0.0134119
723.271	0.0133343
723.349	0.0134720
723.427	0.0134309
723.505	0.0132882
723.583	0.0133318
723.661	0.0134638
723.739	0.0133672
723.818	0.0135423
723.896	0.0137468
723.974	0.0135990
724.052	0.0136542
724.130	0.0137775
724.208	0.0140506
724.286	0.0140019
724.364	0.0140609
724.443	0.0139435
724.521	0.0139785
724.599	0.0141725
724.677	0.0140881
724.755	0.0141906
724.833	0.0143333
724.911	0.0142950
724.989	0.0143486
725.068	0.0142810
725.146	0.0144280
725.224	0.0143357
725.302	0.0144287
725.380	0.0143211
725.458	0.0143138
725.536	0.0143130
725.614	0.0144082
725.693	0.0143459
725.771	0.0141615
725.849	0.0143211
725.927	0.0140924
726.005	0.0142087
726.083	0.0141874
726.161	0.0141064
726.239	0.0141613
726.318	0.0140627
726.396	0.0139663
726.474	0.0140778
726.552	0.0138651
726.630	0.0139352
726.708	0.0137887
726.786	0.0139526
726.864	0.0140014
726.943	0.0139174
727.021	0.0137944
727.099	0.0139285
727.177	0.0137267
727.255	0.0138036
727.333	0.0137252
727.411	0.0137023
727.489	0.0138085
727.568	0.0138444
727.646	0.0139988
727.724	0.0140736
727.802	0.0141074
727.880	0.0139874
727.958	0.0142368
728.036	0.0144337
728.114	0.0144109
728.193	0.0144416
728.271	0.0145484
728.349	0.0146722
728.427	0.0147264
728.505	0.0145676
728.583	0.0147018
728.661	0.0145966
728.739	0.0146053
728.818	0.0144753
728.896	0.0145863
728.974	0.0144983
729.052	0.0144216
729.130	0.0142313
729.208	0.0140593
729.286	0.0141127
729.364	0.0139681
729.443	0.0140042
729.521	0.0139182
729.599	0.0137076
729.677	0.0136069
729.755	0.0135339
729.833	0.0135911
729.911	0.0135122
729.989	0.0134365
730.068	0.0134032
730.146	0.0132844
730.224	0.0131143
730.302	0.0132028
730.380	0.0131430
730.458	0.0132428
730.536	0.0130885
730.614	0.0130303
730.693	0.0131428
730.771	0.0130747
730.849	0.0131244
730.927	0.0130891
731.005	0.0131270
731.083	0.0131377
731.161	0.0130491
731.239	0.0130917
731.318	0.0131506
731.396	0.0130981
731.474	0.0128571
731.552	0.0130244
731.630	0.0130587
731.708	0.0132594
731.786	0.0131250
731.864	0.0133113
731.943	0.0134760
732.021	0.0134411
732.099	0.0136589
732.177	0.0135720
732.255	0.0138116
732.333	0.0137054
732.411	0.0138799
732.489	0.0139053
732.568	0.0139516
732.646	0.0142064
732.724	0.0141403
732.802	0.0143779
732.880	0.0145148
732.958	0.0144421
733.036	0.0146474
733.114	0.0145677
733.193	0.0146262
733.271	0.0147369
733.349	0.0146867
733.427	0.0149174
733.505	0.0148665
733.583	0.0149346
733.661	0.0150440
733.739	0.0149116
733.818	0.0149473
733.896	0.0147510
733.974	0.0148575
734.052	0.0148715
734.130	0.0147983
734.208	0.0146914
734.286	0.0145016
734.364	0.0146124
734.443	0.0143933
734.521	0.0143928
734.599	0.0143627
734.677	0.0140963
734.755	0.0140582
734.833	0.0140319
734.911	0.0139027
734.989	0.0139973
735.068	0.0136768
735.146	0.0136445
735.224	0.0136122
735.302	0.0134451
735.380	0.0134408
735.458	0.0133526
735.536	0.0135137
735.614	0.0134032
735.693	0.0133001
735.771	0.0133064
735.849	0.0131924
735.927	0.0132787
736.005	0.0132544
736.083	0.0131896
736.161	0.0130796
736.239	0.0132201
736.318	0.0131048
736.396	0.0129990
736.474	0.0128682
736.552	0.0130411
736.630	0.0130103
736.708	0.0130048
736.786	0.0129414
736.864	0.0131364
736.943	0.0130103
737.021	0.0130689
737.099	0.0131158
737.177	0.0130111
737.255	0.0129633
737.333	0.0132705
737.411	0.0132465
737.489	0.0133028
737.568	0.0135468
737.646	0.0135613
737.724	0.0137251
737.802	0.0139122
737.880	0.0138276
737.958	0.0141679
738.036	0.0141116
738.114	0.0142564
738.193	0.0143583
738.271	0.0146250
738.349	0.0147214
738.427	0.0148289
738.505	0.0148214
738.583	0.0148810
738.661	0.0150088
738.739	0.0150974
738.818	0.0151443
738.896	0.0151371
738.974	0.0150732
739.052	0.0153976
739.130	0.0152325
739.208	0.0153704
739.286	0.0152246
739.364	0.0151690
739.443	0.0151905
739.521	0.0152769
739.599	0.0149213
739.677	0.0150189
739.755	0.0147525
739.833	0.0146053
739.911	0.0144968
739.989	0.0142961
740.068	0.0142122
740.146	0.0140897
740.224	0.0140170
740.302	0.0138715
740.380	0.0135567
740.458	0.0136292
740.536	0.0135118
740.614	0.0135078
740.693	0.0134193
740.771	0.0132932
740.849	0.0133598
740.927	0.0133500
741.005	0.0133728
741.083	0.0133755
741.161	0.0132970
741.239	0.0134374
741.318	0.0134872
741.396	0.0134380
741.474	0.0137526
741.552	0.0136965
741.630	0.0136196
741.708	0.0136127
741.786	0.0137637
741.864	0.0135662
741.943	0.0135497
742.021	0.0136894
742.099	0.0137314
742.177	0.0136603
742.255	0.0137910
742.333	0.0137341
742.411	0.0135960
742.489	0.0136102
742.568	0.0136219
742.646	0.0137701
742.724	0.0135641
742.802	0.0134908
742.880	0.0136552
742.958	0.0133969
743.036	0.0137272
743.114	0.0136592
743.193	0.0135860
743.271	0.0134853
743.349	0.0136010
743.427	0.0136728
743.505	0.0134844
743.583	0.0138932
743.661	0.0137982
743.739	0.0138819
743.818	0.0137993
743.896	0.0138347
743.974	0.0139737
744.052	0.0139853
744.130	0.0139554
744.208	0.0140255
744.286	0.0140670
744.364	0.0141318
744.443	0.0142809
744.521	0.0142204
744.599	0.0142796
744.677	0.0142420
744.755	0.0141782
744.833	0.0141244
744.911	0.0141988
744.989	0.0142343
745.068	0.0142616
745.146	0.0142388
745.224	0.0141572
745.302	0.0142469
745.380	0.0142273
745.458	0.0141030
745.536	0.0141309
745.614	0.0140453
745.693	0.0140528
745.771	0.0141063
745.849	0.0139649
745.927	0.0139367
746.005	0.0140846
746.083	0.0139960
746.161	0.0139640
746.239	0.0139132
746.318	0.0139542
746.396	0.0138818
746.474	0.0139901
746.552	0.0139252
746.630	0.0140809
746.708	0.0140276
746.786	0.0138481
746.864	0.0140766
746.943	0.0140775
747.021	0.0140382
747.099	0.0139365
747.177	0.0141057
747.255	0.0141720
747.333	0.0139088
747.411	0.0139902
747.489	0.0140162
747.568	0.0138979
747.646	0.0140523
747.724	0.0140096
747.802	0.0140534
747.880	0.0139220
747.958	0.0138763
748.036	0.0138372
748.114	0.0137663
748.193	0.0137949
748.271	0.0137399
748.349	0.0136221
748.427	0.0136121
748.505	0.0135322
748.583	0.0135825
748.661	0.0135336
748.739	0.0134985
748.818	0.0136068
748.896	0.0135712
748.974	0.0134879
749.052	0.0137140
749.130	0.0136132
749.208	0.0136994
749.286	0.0137343
749.364	0.0138345
749.443	0.0139095
749.521	0.0138155
749.599	0.0138592
749.677	0.0139493
749.755	0.0139536
749.833	0.0139716
749.911	0.0140087
749.989	0.0140192
750.068	0.0140064
750.146	0.0140347
750.224	0.0140442
750.302	0.0139307
750.380	0.0138773
750.458	0.0137289
750.536	0.0139426
750.614	0.0139733
750.693	0.0137725
750.771	0.0138381
750.849	0.0138917
750.927	0.0138980
751.005	0.0137339
751.083	0.0138738
751.161	0.0137526
751.239	0.0137273
751.318	0.0138409
751.396	0.0138319
751.474	0.0139352
751.552	0.0139238
751.630	0.0138524
751.708	0.0139610
751.786	0.0139773
751.864	0.0140246
751.943	0.0139032
752.021	0.0138189
752.099	0.0141574
752.177	0.0140111
752.255	0.0140491
752.333	0.0141454
752.411	0.0139984
752.489	0.0138950
752.568	0.0139909
752.646	0.0140895
752.724	0.0140244
752.802	0.0140638
752.880	0.0140576
752.958	0.0139410
753.036	0.0140084
753.114	0.0138845
753.193	0.0139468
753.271	0.0139619
753.349	0.0139708
753.427	0.0139404
753.505	0.0140914
753.583	0.0138559
753.661	0.0136939
753.739	0.0139117
753.818	0.0137962
753.896	0.0137788
753.974	0.0137618
754.052	0.0138227
754.130	0.0137125
754.208	0.0136914
754.286	0.0136910
754.364	0.0135471
754.443	0.0137275
754.521	0.0136208
754.599	0.0136222
754.677	0.0135583
754.755	0.0135547
754.833	0.0135870
754.911	0.0135821
754.989	0.0136848
755.068	0.0136874
755.146	0.0136142
755.224	0.0136365
755.302	0.0136458
755.380	0.0137083
755.458	0.0137627
755.536	0.0136524
755.614	0.0137641
755.693	0.0138983
755.771	0.0138130
755.849	0.0137952
755.927	0.0138593
756.005	0.0138684
756.083	0.0138641
756.161	0.0140034
756.239	0.0138666
756.318	0.0140797
756.396	0.0139892
756.474	0.0141379
756.552	0.0141585
756.630	0.0142363
756.708	0.0141793
756.786	0.0142608
756.864	0.0145052
756.943	0.0143410
757.021	0.0142172
757.099	0.0142704
757.177	0.0143520
757.255	0.0143008
757.333	0.0142194
757.411	0.0144284
757.489	0.0142928
757.568	0.0143755
757.646	0.0143485
757.724	0.0142297
757.802	0.0141802
757.880	0.0140548
757.958	0.0142439
758.036	0.0141283
758.114	0.0139642
758.193	0.0141224
758.271	0.0139592
758.349	0.0139849
758.427	0.0140618
758.505	0.0139236
758.583	0.0138478
758.661	0.0138167
758.739	0.0139085
758.818	0.0138837
758.896	0.0139210
758.974	0.0139143
759.052	0.0139806
759.130	0.0137833
759.208	0.0137880
759.286	0.0136552
759.364	0.0138004
759.443	0.0138953
759.521	0.0139001
759.599	0.0139854
759.677	0.0136993
759.755	0.0137155
759.833	0.0138245
759.911	0.0138110
759.989	0.0136189
760.068	0.0136714
760.146	0.0136729
760.224	0.0135851
760.302	0.0136526
760.380	0.0136222
760.458	0.0135035
760.536	0.0136040
760.614	0.0135213
760.693	0.0136450
760.771	0.0135385
760.849	0.0134814
760.927	0.0134317
761.005	0.0133897
761.083	0.0134598
761.161	0.0136684
761.239	0.0136038
761.318	0.0136831
761.396	0.0137376
761.474	0.0136168
761.552	0.0138326
761.630	0.0139924
761.708	0.0138999
761.786	0.0140019
761.864	0.0139838
761.943	0.0140036
762.021	0.0142439
762.099	0.0141972
762.177	0.0141103
762.255	0.0142255
762.333	0.0142092
762.411	0.0141586
762.489	0.0142211
762.568	0.0140826
762.646	0.0141871
762.724	0.0142019
762.802	0.0141070
762.880	0.0139263
762.958	0.0141244
763.036	0.0140088
763.114	0.0140321
763.193	0.0139123
763.271	0.0137768
763.349	0.0139035
763.427	0.0139307
763.505	0.0139739
763.583	0.0138895
763.661	0.0138458
763.739	0.0138506
763.818	0.0138007
763.896	0.0139108
763.974	0.0138647
764.052	0.0139007
764.130	0.0140604
764.208	0.0138785
764.286	0.0138673
764.364	0.0138423
764.443	0.0138474
764.521	0.0140113
764.599	0.0140347
764.677	0.0139218
764.755	0.0138706
764.833	0.0137115
764.911	0.0139999
764.989	0.0139713
765.068	0.0138815
765.146	0.0138749
765.224	0.0138659
765.302	0.0139342
765.380	0.0138548
765.458	0.0138171
765.536	0.0138181
765.614	0.0138132
765.693	0.0138760
765.771	0.0140156
765.849	0.0138107
765.927	0.0137120
766.005	0.0138874
766.083	0.0138192
766.161	0.0138316
766.239	0.0139832
766.318	0.0138027
766.396	0.0136595
766.474	0.0137030
766.552	0.0137061
766.630	0.0138335
766.708	0.0140792
766.786	0.0139626
766.864	0.0137318
766.943	0.0139848
767.021	0.0140730
767.099	0.0138775
767.177	0.0137715
767.255	0.0139312
767.333	0.0140305
767.411	0.0140282
767.489	0.0139787
767.568	0.0139223
767.646	0.0139040
767.724	0.0142151
767.802	0.0141446
767.880	0.0141939
767.958	0.0141174
768.036	0.0142018
768.114	0.0140328
768.193	0.0142007
768.271	0.0143017
768.349	0.0142368
768.427	0.0140358
768.505	0.0140949
768.583	0.0141537
768.661	0.0142130
768.739	0.0141710
768.818	0.0142188
768.896	0.0141749
768.974	0.0141262
769.052	0.0142802
769.130	0.0142798
769.208	0.0141641
769.286	0.0141257
769.364	0.0141358
769.443	0.0142291
769.521	0.0141889
769.599	0.0142782
769.677	0.0142168
769.755	0.0141958
769.833	0.0142299
769.911	0.0140836
769.989	0.0141397
770.068	0.0140475
770.146	0.0141700
770.224	0.0140253
770.302	0.0140173
770.380	0.0139890
770.458	0.0138158
770.536	0.0138219
770.614	0.0136772
770.693	0.0137511
770.771	0.0137280
770.849	0.0137330
770.927	0.0137166
771.005	0.0137056
771.083	0.0137675
771.161	0.0136579
771.239	0.0136701
771.318	0.0134713
771.396	0.0136625
771.474	0.0136531
771.552	0.0135710
771.630	0.0137369
771.708	0.0136131
771.786	0.0136614
771.864	0.0136152
771.943	0.0136163
772.021	0.0136564
772.099	0.0137594
772.177	0.0138240
772.255	0.0138065
772.333	0.0138455
772.411	0.0138178
772.489	0.0139157
772.568	0.0138300
772.646	0.0138742
772.724	0.0139075
772.802	0.0141357
772.880	0.0140768
772.958	0.0141379
773.036	0.0141975
773.114	0.0141846
773.193	0.0142439
773.271	0.0141862
773.349	0.0140835
773.427	0.0140440
773.505	0.0141479
773.583	0.0141827
773.661	0.0142103
773.739	0.0141994
773.818	0.0142606
773.896	0.0140715
773.974	0.0140944
774.052	0.0141193
774.130	0.0140655
774.208	0.0140340
774.286	0.0141132
774.364	0.0139426
774.443	0.0139056
774.521	0.0140002
774.599	0.0139796
774.677	0.0139608
774.755	0.0137238
774.833	0.0140173
774.911	0.0138727
774.989	0.0138393
775.068	0.0138185
775.146	0.0137923
775.224	0.0137123
775.302	0.0137754
775.380	0.0136555
775.458	0.0137261
775.536	0.0137164
775.614	0.0137627
775.693	0.0137437
775.771	0.0136147
775.849	0.0136086
775.927	0.0136114
776.005	0.0137022
776.083	0.0135828
776.161	0.0136225
776.239	0.0135597
776.318	0.0136014
776.396	0.0137667
776.474	0.0137349
776.552	0.0137755
776.630	0.0137753
776.708	0.0141037
776.786	0.0139082
776.864	0.0138694
776.943	0.0139584
777.021	0.0140876
777.099	0.0140401
777.177	0.0139967
777.255	0.0140450
777.333	0.0141280
777.411	0.0139854
777.489	0.0140301
777.568	0.0139799
777.646	0.0138071
777.724	0.0139444
777.802	0.0139781
777.880	0.0140171
777.958	0.0138732
778.036	0.0136794
778.114	0.0138094
778.193	0.0137086
778.271	0.0137063
778.349	0.0137686
778.427	0.0137932
778.505	0.0135778
778.583	0.0137121
778.661	0.0136361
778.739	0.0136865
778.818	0.0137479
778.896	0.0137241
778.974	0.0137555
779.052	0.0137284
779.130	0.0138452
779.208	0.0137178
779.286	0.0136331
779.364	0.0139027
779.443	0.0138355
779.521	0.0138836
779.599	0.0139444
779.677	0.0138338
779.755	0.0138570
779.833	0.0139066
779.911	0.0137867
779.989	0.0138170
780.068	0.0140459
780.146	0.0138583
780.224	0.0139572
780.302	0.0139656
780.380	0.0139655
780.458	0.0139455
780.536	0.0138153
780.614	0.0138669
780.693	0.0139462
780.771	0.0138920
780.849	0.0139018
780.927	0.0138757
781.005	0.0139963
781.083	0.0139911
781.161	0.0139186
781.239	0.0138796
781.318	0.0139314
781.396	0.0140838
781.474	0.0141566
781.552	0.0139758
781.630	0.0141310
781.708	0.0140636
781.786	0.0142184
781.864	0.0140475
781.943	0.0138781
782.021	0.0140893
782.099	0.0140273
782.177	0.0140446
782.255	0.0139905
782.333	0.0139759
782.411	0.0139535
782.489	0.0139884
782.568	0.0141262
782.646	0.0139266
782.724	0.0140057
782.802	0.0140940
782.880	0.0139937
782.958	0.0139494
783.036	0.0140032
783.114	0.0139383
783.193	0.0139218
783.271	0.0139876
783.349	0.0139710
783.427	0.0138168
783.505	0.0137022
783.583	0.0139027
783.661	0.0137934
783.739	0.0135942
783.818	0.0137310
783.896	0.0136420
783.974	0.0136354
784.052	0.0136281
784.130	0.0135632
784.208	0.0137354
784.286	0.0137093
784.364	0.0136357
784.443	0.0136205
784.521	0.0135071
784.599	0.0136607
784.677	0.0135781
784.755	0.0136379
784.833	0.0137679
784.911	0.0137545
784.989	0.0138257
785.068	0.0137463
785.146	0.0138832
785.224	0.0138340
785.302	0.0138896
785.380	0.0138774
785.458	0.0139630
785.536	0.0139620
785.614	0.0139925
785.693	0.0139445
785.771	0.0141512
785.849	0.0141998
785.927	0.0141067
786.005	0.0141986
786.083	0.0141860
786.161	0.0141814
786.239	0.0142454
786.318	0.0142490
786.396	0.0142448
786.474	0.0143298
786.552	0.0142424
786.630	0.0140896
786.708	0.0142039
786.786	0.0141621
786.864	0.0143600
786.943	0.0142278
787.021	0.0140905
787.099	0.0141830
787.177	0.0140913
787.255	0.0143384
787.333	0.0140897
787.411	0.0140817
787.489	0.0141502
787.568	0.0141071
787.646	0.0140328
787.724	0.0141087
787.802	0.0140549
787.880	0.0141387
787.958	0.0139944
788.036	0.0140192
788.114	0.0140124
788.193	0.0140543
788.271	0.0139959
788.349	0.0139018
788.427	0.0138064
788.505	0.0138510
788.583	0.0137432
788.661	0.0138149
788.739	0.0139137
788.818	0.0136987
788.896	0.0136974
788.974	0.0137096
789.052	0.0137551
789.130	0.0137255
789.208	0.0136990
789.286	0.0137794
789.364	0.0136121
789.443	0.0135803
789.521	0.0135695
789.599	0.0136198
789.677	0.0135270
789.755	0.0135007
789.833	0.0135426
789.911	0.0136039
789.989	0.0136038
790.068	0.0134231
790.146	0.0136483
790.224	0.0136495
790.302	0.0136992
790.380	0.0134409
790.458	0.0135396
790.536	0.0135072
790.614	0.0136622
790.693	0.0136544
790.771	0.0136096
790.849	0.0136968
790.927	0.0138152
791.005	0.0137190
791.083	0.0137050
791.161	0.0137733
791.239	0.0136917
791.318	0.0138577
791.396	0.0140157
791.474	0.0138786
791.552	0.0139179
791.630	0.0139621
791.708	0.0138622
791.786	0.0139592
791.864	0.0139569
791.943	0.0138895
792.021	0.0140302
792.099	0.0140160
792.177	0.0141561
792.255	0.0141429
792.333	0.0140100
792.411	0.0142400
792.489	0.0141913
792.568	0.0142934
792.646	0.0140087
792.724	0.0141116
792.802	0.0142028
792.880	0.0141074
792.958	0.0142250
793.036	0.0142170
793.114	0.0141454
793.193	0.0141205
793.271	0.0140739
793.349	0.0140626
793.427	0.0140421
793.505	0.0140419
793.583	0.0141190
793.661	0.0140173
793.739	0.0139236
793.818	0.0140528
793.896	0.0139331
793.974	0.0138487
794.052	0.0139141
794.130	0.0138907
794.208	0.0139107
794.286	0.0139270
794.364	0.0139259
794.443	0.0139661
794.521	0.0140193
794.599	0.0137571
794.677	0.0137970
794.755	0.0139494
794.833	0.0138860
794.911	0.0138064
794.989	0.0137981
795.068	0.0138147
795.146	0.0139933
795.224	0.0137583
795.302	0.0139816
795.380	0.0139374
795.458	0.0137755
795.536	0.0138667
795.614	0.0139365
795.693	0.0139633
795.771	0.0138844
795.849	0.0139053
795.927	0.0140251
796.005	0.0139598
796.083	0.0138173
796.161	0.0138744
796.239	0.0140124
796.318	0.0138837
796.396	0.0138988
796.474	0.0138618
796.552	0.0139023
796.630	0.0140249
796.708	0.0139252
796.786	0.0139075
796.864	0.0140185
796.943	0.0140342
797.021	0.0139703
797.099	0.0140375
797.177	0.0138857
797.255	0.0139540
797.333	0.0139924
797.411	0.0139720
797.489	0.0139191
797.568	0.0139318
797.646	0.0138641
797.724	0.0140082
797.802	0.0139681
797.880	0.0139487
797.958	0.0139642
798.036	0.0139956
798.114	0.0140269
798.193	0.0138979
798.271	0.0140800
798.349	0.0140459
798.427	0.0140011
798.505	0.0140768
798.583	0.0141819
798.661	0.0140382
798.739	0.0141675
798.818	0.0142336
798.896	0.0142109
798.974	0.0142126
799.052	0.0143192
799.130	0.0141852
799.208	0.0140523
799.286	0.0141216
799.364	0.0141415
799.443	0.0140793
799.521	0.0139475
799.599	0.0139408
799.677	0.0140372
799.755	0.0138407
799.833	0.0137911
799.911	0.0138873
799.989	0.0139846
800.068	0.0139025
800.146	0.0137263
800.224	0.0138588
800.302	0.0136674
800.380	0.0139077
800.458	0.0137461
800.536	0.0137516
800.614	0.0137003
800.693	0.0138278
800.771	0.0136496
800.849	0.0136604
800.927	0.0136825
801.005	0.0136439
801.083	0.0136210
801.161	0.0136675
801.239	0.0135743
801.318	0.0137466
801.396	0.0135737
801.474	0.0135593
801.552	0.0137244
801.630	0.0134901
801.708	0.0135152
801.786	0.0137150
801.864	0.0135361
801.943	0.0135874
802.021	0.0135565
802.099	0.0136042
802.177	0.0136066
802.255	0.0135091
802.333	0.0136408
802.411	0.0135584
802.489	0.0136126
802.568	0.0137424
802.646	0.0136707
802.724	0.0137281
802.802	0.0138772
802.880	0.0138528
802.958	0.0138163
803.036	0.0139073
803.114	0.0139049
803.193	0.0139496
803.271	0.0140543
803.349	0.0138370
803.427	0.0139574
803.505	0.0142062
803.583	0.0140508
803.661	0.0141189
803.739	0.0141370
803.818	0.0142355
803.896	0.0141841
803.974	0.0141612
804.052	0.0142854
804.130	0.0142664
804.208	0.0142690
804.286	0.0143353
804.364	0.0142236
804.443	0.0142950
804.521	0.0144320
804.599	0.0142734
804.677	0.0142176
804.755	0.0142694
804.833	0.0142083
804.911	0.0141046
804.989	0.0142301
805.068	0.0141172
805.146	0.0140004
805.224	0.0138783
805.302	0.0138725
805.380	0.0139972
805.458	0.0138944
805.536	0.0138509
805.614	0.0139008
805.693	0.0139497
805.771	0.0139362
805.849	0.0139182
805.927	0.0139563
806.005	0.0139177
806.083	0.0139924
806.161	0.0137788
806.239	0.0138923
806.318	0.0138472
806.396	0.0138947
806.474	0.0138517
806.552	0.0138335
806.630	0.0137565
806.708	0.0139106
806.786	0.0138960
806.864	0.0137005
806.943	0.0137366
807.021	0.0136501
807.099	0.0135818
807.177	0.0135531
807.255	0.0135132
807.333	0.0135497
807.411	0.0135599
807.489	0.0137427
807.568	0.0136246
807.646	0.0136194
807.724	0.0136806
807.802	0.0137238
807.880	0.0137350
807.958	0.0137286
808.036	0.0138718
808.114	0.0138295
808.193	0.0138267
808.271	0.0137975
808.349	0.0139060
808.427	0.0139464
808.505	0.0138893
808.583	0.0138881
808.661	0.0138245
808.739	0.0137781
808.818	0.0138242
808.896	0.0138359
808.974	0.0139252
809.052	0.0139551
809.130	0.0138391
809.208	0.0139571
809.286	0.0140102
809.364	0.0138853
809.443	0.0139342
809.521	0.0141235
809.599	0.0141480
809.677	0.0141257
809.755	0.0140266
809.833	0.0139789
809.911	0.0140148
809.989	0.0141066
810.068	0.0139363
810.146	0.0139680
810.224	0.0140752
810.302	0.0140001
810.380	0.0140278
810.458	0.0141196
810.536	0.0141225
810.614	0.0140475
810.693	0.0141322
810.771	0.0141203
810.849	0.0141509
810.927	0.0143841
811.005	0.0142747
811.083	0.0141296
811.161	0.0141831
811.239	0.0140654
811.318	0.0139587
811.396	0.0139751
811.474	0.0138577
811.552	0.0136148
811.630	0.0136623
811.708	0.0137022
811.786	0.0135760
811.864	0.0134084
811.943	0.0136515
812.021	0.0135296
812.099	0.0134709
812.177	0.0134100
812.255	0.0135514
812.333	0.0135754
812.411	0.0135505
812.489	0.0137138
812.568	0.0139040
812.646	0.0139491
812.724	0.0139591
812.802	0.0139396
812.880	0.0139596
812.958	0.0140172
813.036	0.0140019
813.114	0.0140933
813.193	0.0142467
813.271	0.0139385
813.349	0.0139483
813.427	0.0139869
813.505	0.0140246
813.583	0.0139490
813.661	0.0138622
813.739	0.0138025
813.818	0.0138271
813.896	0.0138327
813.974	0.0137621
814.052	0.0138309
814.130	0.0137347
814.208	0.0139158
814.286	0.0138235
814.364	0.0138367
814.443	0.0139003
814.521	0.0140414
814.599	0.0140320
814.677	0.0138707
814.755	0.0139240
814.833	0.0139263
814.911	0.0139627
814.989	0.0140450
815.068	0.0138869
815.146	0.0140623
815.224	0.0140112
815.302	0.0139748
815.380	0.0139441
815.458	0.0140066
815.536	0.0140847
815.614	0.0140975
815.693	0.0140405
815.771	0.0139973
815.849	0.0140775
815.927	0.0140272
816.005	0.0140537
816.083	0.0140784
816.161	0.0140009
816.239	0.0140150
816.318	0.0139024
816.396	0.0138670
816.474	0.0138846
816.552	0.0136927
816.630	0.0136100
816.708	0.0136948
816.786	0.0136448
816.864	0.0135486
816.943	0.0135396
817.021	0.0135937
817.099	0.0136189
817.177	0.0137247
817.255	0.0135606
817.333	0.0135811
817.411	0.0136563
817.489	0.0137782
817.568	0.0137875
817.646	0.0139571
817.724	0.0140572
817.802	0.0140568
817.880	0.0142603
817.958	0.0142628
818.036	0.0142596
818.114	0.0141429
818.193	0.0141643
818.271	0.0140942
818.349	0.0142402
818.427	0.0140953
818.505	0.0140347
818.583	0.0139501
818.661	0.0140651
818.739	0.0140046
818.818	0.0137324
818.896	0.0138517
818.974	0.0137860
819.052	0.0138043
819.130	0.0138280
819.208	0.0139219
819.286	0.0139516
819.364	0.0139719
819.443	0.0139578
819.521	0.0140732
819.599	0.0142027
819.677	0.0142345
819.755	0.0141566
819.833	0.0141541
819.911	0.0141238
819.989	0.0141556
820.068	0.0141602
820.146	0.0141476
820.224	0.0140267
820.302	0.0140036
820.380	0.0139021
820.458	0.0138213
820.536	0.0139417
820.614	0.0138841
820.693	0.0139289
820.771	0.0139802
820.849	0.0137489
820.927	0.0138128
821.005	0.0138362
821.083	0.0136295
821.161	0.0137344
821.239	0.0138078
821.318	0.0139460
821.396	0.0139119
821.474	0.0140556
821.552	0.0139992
821.630	0.0139394
821.708	0.0137531
821.786	0.0139417
821.864	0.0140053
821.943	0.0139998
822.021	0.0139658
822.099	0.0137811
822.177	0.0137373
822.255	0.0138335
822.333	0.0136256
822.411	0.0137705
822.489	0.0138513
822.568	0.0137793
822.646	0.0139300
822.724	0.0139066
822.802	0.0139699
822.880	0.0140100
822.958	0.0140372
823.036	0.0138776
823.114	0.0137437
823.193	0.0140221
823.271	0.0139134
823.349	0.0140153
823.427	0.0137270
823.505	0.0137567
823.583	0.0138230
823.661	0.0137384
823.739	0.0137909
823.818	0.0136361
823.896	0.0136686
823.974	0.0137309
824.052	0.0137585
824.130	0.0138150
824.208	0.0139422
824.286	0.0138836
824.364	0.0139777
824.443	0.0139928
824.521	0.0141146
824.599	0.0141321
824.677	0.0140125
824.755	0.0141886
824.833	0.0141277
824.911	0.0140092
824.989	0.0141074
825.068	0.0139687
825.146	0.0138659
825.224	0.0138596
825.302	0.0139523
825.380	0.0137496
825.458	0.0136620
825.536	0.0136793
825.614	0.0136996
825.693	0.0134952
825.771	0.0134568
825.849	0.0134325
825.927	0.0134552
826.005	0.0133114
826.083	0.0133695
826.161	0.0132684
826.239	0.0134093
826.318	0.0133483
826.396	0.0134179
826.474	0.0135300
826.552	0.0133913
826.630	0.0134908
826.708	0.0135567
826.786	0.0134074
826.864	0.0135908
826.943	0.0136497
827.021	0.0136591
827.099	0.0137430
827.177	0.0137477
827.255	0.0139031
827.333	0.0138265
827.411	0.0140393
827.489	0.0141134
827.568	0.0141891
827.646	0.0143597
827.724	0.0142548
827.802	0.0142554
827.880	0.0144730
827.958	0.0146432
828.036	0.0145253
828.114	0.0145679
828.193	0.0145365
828.271	0.0143855
828.349	0.0145580
828.427	0.0145165
828.505	0.0144139
828.583	0.0145601
828.661	0.0144089
828.739	0.0143047
828.818	0.0140588
828.896	0.0142637
828.974	0.0140594
829.052	0.0139746
829.130	0.0139021
829.208	0.0138635
829.286	0.0138494
829.364	0.0138367
829.443	0.0136895
829.521	0.0136880
829.599	0.0137611
829.677	0.0136185
829.755	0.0136166
829.833	0.0138072
829.911	0.0135429
829.989	0.0137166
830.068	0.0137561
830.146	0.0137459
830.224	0.0137748
830.302	0.0138722
830.380	0.0138754
830.458	0.0137750
830.536	0.0138252
830.614	0.0138934
830.693	0.0139461
830.771	0.0140336
830.849	0.0139341
830.927	0.0142036
831.005	0.0142264
831.083	0.0142496
831.161	0.0143681
831.239	0.0143578
831.318	0.0142621
831.396	0.0143013
831.474	0.0145798
831.552	0.0144505
831.630	0.0144888
831.708	0.0142834
831.786	0.0141847
831.864	0.0141651
831.943	0.0140565
832.021	0.0140010
832.099	0.0139205
832.177	0.0138126
832.255	0.0137958
832.333	0.0136344
832.411	0.0135751
832.489	0.0136260
832.568	0.0134595
832.646	0.0134580
832.724	0.0135683
832.802	0.0135569
832.880	0.0135126
832.958	0.0134227
833.036	0.0135359
833.114	0.0136353
833.193	0.0136513
833.271	0.0136842
833.349	0.0136086
833.427	0.0136685
833.505	0.0135740
833.583	0.0136110
833.661	0.0135600
833.739	0.0136501
833.818	0.0135829
833.896	0.0136095
833.974	0.0134772
834.052	0.0133122
834.130	0.0133648
834.208	0.0134072
834.286	0.0134954
834.364	0.0133830
834.443	0.0134480
834.521	0.0135806
834.599	0.0135191
834.677	0.0136993
834.755	0.0139024
834.833	0.0137734
834.911	0.0139603
834.989	0.0138904
835.068	0.0139883
835.146	0.0141515
835.224	0.0141837
835.302	0.0142496
835.380	0.0143403
835.458	0.0143694
835.536	0.0144633
835.614	0.0143610
835.693	0.0145858
835.771	0.0145918
835.849	0.0144920
835.927	0.0145229
836.005	0.0145272
836.083	0.0145236
836.161	0.0145863
836.239	0.0145181
836.318	0.0145393
836.396	0.0144100
836.474	0.0142111
836.552	0.0141830
836.630	0.0141174
836.708	0.0140581
836.786	0.0140730
836.864	0.0138496
836.943	0.0138704
837.021	0.0138050
837.099	0.0136793
837.177	0.0136992
837.255	0.0136108
837.333	0.0134107
837.411	0.0133597
837.489	0.0134304
837.568	0.0134200
837.646	0.0133662
837.724	0.0134019
837.802	0.0134302
837.880	0.0135394
837.958	0.0135043
838.036	0.0136404
838.114	0.0137248
838.193	0.0138696
838.271	0.0137554
838.349	0.0138123
838.427	0.0138892
838.505	0.0137872
838.583	0.0139803
838.661	0.0140417
838.739	0.0139005
838.818	0.0138976
838.896	0.0138891
838.974	0.0138164
839.052	0.0139137
839.130	0.0139640
839.208	0.0138051
839.286	0.0136646
839.364	0.0137486
839.443	0.0139812
839.521	0.0138161
839.599	0.0139356
839.677	0.0139438
839.755	0.0139079
839.833	0.0139442
839.911	0.0141300
839.989	0.0142244
840.068	0.0141221
840.146	0.0141951
840.224	0.0143148
840.302	0.0143915
840.380	0.0143529
840.458	0.0142564
840.536	0.0144576
840.614	0.0143588
840.693	0.0143324
840.771	0.0143151
840.849	0.0142909
840.927	0.0141714
841.005	0.0139330
841.083	0.0139592
841.161	0.0139503
841.239	0.0138616
841.318	0.0139210
841.396	0.0138177
841.474	0.0135715
841.552	0.0137154
841.630	0.0137815
841.708	0.0136543
841.786	0.0137862
841.864	0.0137954
841.943	0.0137401
842.021	0.0137323
842.099	0.0139221
842.177	0.0139009
842.255	0.0139016
842.333	0.0140356
842.411	0.0138945
842.489	0.0139462
842.568	0.0140660
842.646	0.0140106
842.724	0.0138799
842.802	0.0138998
842.880	0.0139514
842.958	0.0140090
843.036	0.0139457
843.114	0.0138242
843.193	0.0138708
843.271	0.0139195
843.349	0.0138725
843.427	0.0139342
843.505	0.0137882
843.583	0.0138403
843.661	0.0138993
843.739	0.0138802
843.818	0.0138863
843.896	0.0139011
843.974	0.0137882
844.052	0.0138481
844.130	0.0139808
844.208	0.0138490
844.286	0.0140243
844.364	0.0139970
844.443	0.0139388
844.521	0.0138937
844.599	0.0140614
844.677	0.0140482
844.755	0.0140495
844.833	0.0139542
844.911	0.0139599
844.989	0.0141705
845.068	0.0141670
845.146	0.0140456
845.224	0.0140381
845.302	0.0140199
845.380	0.0137923
845.458	0.0138493
845.536	0.0138435
845.614	0.0137729
845.693	0.0137255
845.771	0.0137971
845.849	0.0138805
845.927	0.0138974
846.005	0.0138057
846.083	0.0138764
846.161	0.0139581
846.239	0.0140180
846.318	0.0138409
846.396	0.0139533
846.474	0.0139594
846.552	0.0140559
846.630	0.0138547
846.708	0.0138026
846.786	0.0139462
846.864	0.0139691
846.943	0.0139669
847.021	0.0139536
847.099	0.0139619
847.177	0.0140102
847.255	0.0137572
847.333	0.0138351
847.411	0.0138371
847.489	0.0138048
847.568	0.0137953
847.646	0.0138460
847.724	0.0139518
847.802	0.0138269
847.880	0.0138787
847.958	0.0138454
848.036	0.0140714
848.114	0.0140095
848.193	0.0139272
848.271	0.0138677
848.349	0.0138621
848.427	0.0138537
848.505	0.0139267
848.583	0.0139920
848.661	0.0139081
848.739	0.0140443
848.818	0.0139873
848.896	0.0140022
848.974	0.0140473
849.052	0.0140611
849.130	0.0139662
849.208	0.0139866
849.286	0.0139792
849.364	0.0140746
849.443	0.0138598
849.521	0.0139752
849.599	0.0138543
849.677	0.0137749
849.755	0.0135343
849.833	0.0136337
849.911	0.0135616
849.989	0.0135851
850.068	0.0135595
850.146	0.0135474
850.224	0.0134286
850.302	0.0135586
850.380	0.0135417
850.458	0.0136967
850.536	0.0137920
850.614	0.0136750
850.693	0.0138207
850.771	0.0138020
850.849	0.0139574
850.927	0.0140747
851.005	0.0141337
851.083	0.0140527
851.161	0.0139742
851.239	0.0143713
851.318	0.0142054
851.396	0.0142702
851.474	0.0143220
851.552	0.0143035
851.630	0.0141023
851.708	0.0143060
851.786	0.0142503
851.864	0.0141665
851.943	0.0141528
852.021	0.0140925
852.099	0.0141898
852.177	0.0141019
852.255	0.0140630
852.333	0.0139212
852.411	0.0137619
852.489	0.0139400
852.568	0.0139411
852.646	0.0137259
852.724	0.0137155
852.802	0.0137926
852.880	0.0137699
852.958	0.0138105
853.036	0.0136108
853.114	0.0136900
853.193	0.0137505
853.271	0.0137385
853.349	0.0137316
853.427	0.0137552
853.505	0.0138004
853.583	0.0137839
853.661	0.0138604
853.739	0.0139236
853.818	0.0140416
853.896	0.0140337
853.974	0.0140469
854.052	0.0141268
854.130	0.0141825
854.208	0.0141271
854.286	0.0140926
854.364	0.0142069
854.443	0.0141084
854.521	0.0141491
854.599	0.0142099
854.677	0.0140294
854.755	0.0140275
854.833	0.0140137
854.911	0.0139542
854.989	0.0140113
855.068	0.0139335
855.146	0.0137589
855.224	0.0138766
855.302	0.0138763
855.380	0.0139959
855.458	0.0139585
855.536	0.0138560
855.614	0.0139394
855.693	0.0139973
855.771	0.0138566
855.849	0.0138753
855.927	0.0139482
856.005	0.0138653
856.083	0.0139942
856.161	0.0138148
856.239	0.0140282
856.318	0.0139687
856.396	0.0137830
856.474	0.0138295
856.552	0.0138329
856.630	0.0138750
856.708	0.0138686
856.786	0.0139585
856.864	0.0138262
856.943	0.0138987
857.021	0.0137797
857.099	0.0137017
857.177	0.0138902
857.255	0.0137981
857.333	0.0138226
857.411	0.0139404
857.489	0.0138818
857.568	0.0139951
857.646	0.0138329
857.724	0.0137951
857.802	0.0137691
857.880	0.0137737
857.958	0.0137789
858.036	0.0137284
858.114	0.0138096
858.193	0.0137687
858.271	0.0138941
858.349	0.0138458
858.427	0.0138363
858.505	0.0138065
858.583	0.0139611
858.661	0.0138808
858.739	0.0140410
858.818	0.0140163
858.896	0.0140429
858.974	0.0140620
859.052	0.0140055
859.130	0.0140372
859.208	0.0141853
859.286	0.0141234
859.364	0.0142381
859.443	0.0141870
859.521	0.0139669
859.599	0.0141318
859.677	0.0140028
859.755	0.0138953
859.833	0.0139013
859.911	0.0140331
859.989	0.0138750
860.068	0.0138877
860.146	0.0137052
860.224	0.0137380
860.302	0.0136549
860.380	0.0136934
860.458	0.0137331
860.536	0.0137365
860.614	0.0136046
860.693	0.0136819
860.771	0.0136772
860.849	0.0138248
860.927	0.0140350
861.005	0.0139249
861.083	0.0139219
861.161	0.0140201
861.239	0.0140714
861.318	0.0139298
861.396	0.0141521
861.474	0.0141689
861.552	0.0141218
861.630	0.0140448
861.708	0.0139935
861.786	0.0140060
861.864	0.0141184
861.943	0.0139324
862.021	0.0138120
862.099	0.0136967
862.177	0.0139232
862.255	0.0138783
862.333	0.0137991
862.411	0.0137982
862.489	0.0138354
862.568	0.0138921
862.646	0.0137904
862.724	0.0139095
862.802	0.0139264
862.880	0.0138843
862.958	0.0140333
863.036	0.0139279
863.114	0.0140337
863.193	0.0139919
863.271	0.0141814
863.349	0.0141940
863.427	0.0140801
863.505	0.0142471
863.583	0.0142570
863.661	0.0141893
863.739	0.0142802
863.818	0.0142492
863.896	0.0141457
863.974	0.0142156
864.052	0.0142731
864.130	0.0143822
864.208	0.0141819
864.286	0.0141297
864.364	0.0141263
864.443	0.0141395
864.521	0.0142239
864.599	0.0140038
864.677	0.0141477
864.755	0.0139809
864.833	0.0140755
864.911	0.0139030
864.989	0.0138750
865.068	0.0138338
865.146	0.0140525
865.224	0.0136987
865.302	0.0136171
865.380	0.0136132
865.458	0.0136772
865.536	0.0137329
865.614	0.0136613
865.693	0.0137367
865.771	0.0137940
865.849	0.0138113
865.927	0.0138290
866.005	0.0137971
866.083	0.0139603
866.161	0.0138908
866.239	0.0138543
866.318	0.0139601
866.396	0.0139888
866.474	0.0137248
866.552	0.0138534
866.630	0.0139658
866.708	0.0139786
866.786	0.0140194
866.864	0.0139392
866.943	0.0139522
867.021	0.0138871
867.099	0.0138084
867.177	0.0138836
867.255	0.0138182
867.333	0.0139159
867.411	0.0139770
867.489	0.0138180
867.568	0.0138393
867.646	0.0139063
867.724	0.0141573
867.802	0.0139953
867.880	0.0139661
867.958	0.0140425
868.036	0.0139309
868.114	0.0139345
868.193	0.0139915
868.271	0.0139782
868.349	0.0138495
868.427	0.0139840
868.505	0.0139147
868.583	0.0139239
868.661	0.0141026
868.739	0.0139384
868.818	0.0137794
868.896	0.0138356
868.974	0.0138195
869.052	0.0138718
869.130	0.0139489
869.208	0.0138160
869.286	0.0137408
869.364	0.0137588
869.443	0.0138377
869.521	0.0138750
869.599	0.0138789
869.677	0.0138699
869.755	0.0138705
869.833	0.0138256
869.911	0.0139024
869.989	0.0139147
870.068	0.0139756
870.146	0.0139251
870.224	0.0139969
870.302	0.0139851
870.380	0.0139465
870.458	0.0138464
870.536	0.0138943
870.614	0.0138831
870.693	0.0138541
870.771	0.0139211
870.849	0.0139985
870.927	0.0139415
871.005	0.0139443
871.083	0.0139056
871.161	0.0139915
871.239	0.0141273
871.318	0.0141261
871.396	0.0141541
871.474	0.0141121
871.552	0.0142619
871.630	0.0143008
871.708	0.0141428
871.786	0.0142488
871.864	0.0142393
871.943	0.0143110
872.021	0.0141024
872.099	0.0141580
872.177	0.0143112
872.255	0.0140295
872.333	0.0140551
872.411	0.0140538
872.489	0.0141084
872.568	0.0138408
872.646	0.0138100
872.724	0.0137322
872.802	0.0138027
872.880	0.0137087
872.958	0.0137162
873.036	0.0136140
873.114	0.0136413
873.193	0.0136691
873.271	0.0136238
873.349	0.0135562
873.427	0.0136222
873.505	0.0135744
873.583	0.0135666
873.661	0.0135579
873.739	0.0136722
873.818	0.0136203
873.896	0.0135384
873.974	0.0136194
874.052	0.0138512
874.130	0.0138331
874.208	0.0138488
874.286	0.0137607
874.364	0.0139490
874.443	0.0140982
874.521	0.0140601
874.599	0.0141053
874.677	0.0141362
874.755	0.0141781
874.833	0.0143067
874.911	0.0143943
874.989	0.0142328
875.068	0.0143135
875.146	0.0143309
875.224	0.0143244
875.302	0.0142998
875.380	0.0142645
875.458	0.0140601
875.536	0.0140421
875.614	0.0139732
875.693	0.0138222
875.771	0.0139169
875.849	0.0139311
875.927	0.0138185
876.005	0.0137133
876.083	0.0138466
876.161	0.0137563
876.239	0.0137128
876.318	0.0137725
876.396	0.0137629
876.474	0.0137128
876.552	0.0137985
876.630	0.0137581
876.708	0.0139449
876.786	0.0139848
876.864	0.0139642
876.943	0.0141257
877.021	0.0139194
877.099	0.0138990
877.177	0.0140355
877.255	0.0140759
877.333	0.0140164
877.411	0.0138878
877.489	0.0140616
877.568	0.0139845
877.646	0.0140168
877.724	0.0139407
877.802	0.0139278
877.880	0.0138460
877.958	0.0138588
878.036	0.0137473
878.114	0.0138088
878.193	0.0135618
878.271	0.0135796
878.349	0.0135963
878.427	0.0135770
878.505	0.0134757
878.583	0.0135219
878.661	0.0135987
878.739	0.0136145
878.818	0.0135637
878.896	0.0136690
878.974	0.0134910
879.052	0.0137101
879.130	0.0137594
879.208	0.0138294
879.286	0.0138967
879.364	0.0138374
879.443	0.0138905
879.521	0.0140391
879.599	0.0140140
879.677	0.0138900
879.755	0.0140019
879.833	0.0139220
879.911	0.0141426
879.989	0.0140468
880.068	0.0139304
880.146	0.0140891
880.224	0.0140549
880.302	0.0141222
880.380	0.0139886
880.458	0.0140175
880.536	0.0140382
880.614	0.0139713
880.693	0.0140127
880.771	0.0138824
880.849	0.0139260
880.927	0.0137994
881.005	0.0138197
881.083	0.0138297
881.161	0.0138461
881.239	0.0139063
881.318	0.0138120
881.396	0.0137151
881.474	0.0138197
881.552	0.0137103
881.630	0.0138239
881.708	0.0140857
881.786	0.0139587
881.864	0.0140306
881.943	0.0139623
882.021	0.0138316
882.099	0.0139501
882.177	0.0140511
882.255	0.0139412
882.333	0.0140186
882.411	0.0140315
882.489	0.0140580
882.568	0.0140024
882.646	0.0139587
882.724	0.0139172
882.802	0.0141333
882.880	0.0140054
882.958	0.0139855
883.036	0.0139733
883.114	0.0141499
883.193	0.0140542
883.271	0.0141516
883.349	0.0140382
883.427	0.0140453
883.505	0.0139495
883.583	0.0140427
883.661	0.0139699
883.739	0.0140489
883.818	0.0139648
883.896	0.0139233
883.974	0.0138833
884.052	0.0139226
884.130	0.0138598
884.208	0.0138641
884.286	0.0140067
884.364	0.0139785
884.443	0.0140530
884.521	0.0138598
884.599	0.0138551
884.677	0.0139162
884.755	0.0139949
884.833	0.0138441
884.911	0.0139955
884.989	0.0139511
885.068	0.0138384
885.146	0.0140009
885.224	0.0139652
885.302	0.0140681
885.380	0.0141079
885.458	0.0139350
885.536	0.0139104
885.614	0.0139083
885.693	0.0140192
885.771	0.0139655
885.849	0.0140396
885.927	0.0140066
886.005	0.0139943
886.083	0.0139636
886.161	0.0137561
886.239	0.0140853
886.318	0.0139008
886.396	0.0138540
886.474	0.0140171
886.552	0.0140837
886.630	0.0138568
886.708	0.0138416
886.786	0.0139809
886.864	0.0139021
886.943	0.0139416
887.021	0.0141348
887.099	0.0140247
887.177	0.0142116
887.255	0.0143081
887.333	0.0141103
887.411	0.0141839
887.489	0.0142455
887.568	0.0142117
887.646	0.0142240
887.724	0.0142467
887.802	0.0142284
887.880	0.0142137
887.958	0.0140733
888.036	0.0140623
888.114	0.0140916
888.193	0.0141279
888.271	0.0138828
888.349	0.0140547
888.427	0.0140069
888.505	0.0139638
888.583	0.0140147
888.661	0.0141409
888.739	0.0140614
888.818	0.0139456
888.896	0.0138831
888.974	0.0139553
889.052	0.0139354
889.130	0.0140369
889.208	0.0140623
889.286	0.0140459
889.364	0.0141119
889.443	0.0140724
889.521	0.0140955
889.599	0.0140238
889.677	0.0140295
889.755	0.0140691
889.833	0.0140524
889.911	0.0139209
889.989	0.0140118
890.068	0.0140686
890.146	0.0140604
890.224	0.0141577
890.302	0.0141680
890.380	0.0140266
890.458	0.0141694
890.536	0.0142158
890.614	0.0141473
890.693	0.0140820
890.771	0.0139861
890.849	0.0141181
890.927	0.0139926
891.005	0.0139137
891.083	0.0137310
891.161	0.0137623
891.239	0.0138464
891.318	0.0137032
891.396	0.0135977
891.474	0.0136013
891.552	0.0136205
891.630	0.0134676
891.708	0.0134338
891.786	0.0135033
891.864	0.0134453
891.943	0.0136536
892.021	0.0136433
892.099	0.0137417
892.177	0.0136495
892.255	0.0137082
892.333	0.0136935
892.411	0.0136832
892.489	0.0140178
892.568	0.0138136
892.646	0.0138916
892.724	0.0138743
892.802	0.0138652
892.880	0.0140040
892.958	0.0139755
893.036	0.0139422
893.114	0.0139740
893.193	0.0138489
893.271	0.0138729
893.349	0.0138278
893.427	0.0139127
893.505	0.0138933
893.583	0.0139680
893.661	0.0139419
893.739	0.0138313
893.818	0.0138175
893.896	0.0137644
893.974	0.0138922
894.052	0.0139885
894.130	0.0138201
894.208	0.0138018
894.286	0.0138812
894.364	0.0137821
894.443	0.0137809
894.521	0.0139286
894.599	0.0140060
894.677	0.0139383
894.755	0.0138273
894.833	0.0139652
894.911	0.0139554
894.989	0.0139431
895.068	0.0139730
895.146	0.0139294
895.224	0.0139196
895.302	0.0140915
895.380	0.0140374
895.458	0.0138313
895.536	0.0139243
895.614	0.0140185
895.693	0.0139484
895.771	0.0140474
895.849	0.0139887
895.927	0.0139300
896.005	0.0139603
896.083	0.0138397
896.161	0.0138138
896.239	0.0138064
896.318	0.0139249
896.396	0.0139375
896.474	0.0137968
896.552	0.0139148
896.630	0.0138271
896.708	0.0137933
896.786	0.0139088
896.864	0.0139968
896.943	0.0140103
897.021	0.0138717
897.099	0.0137978
897.177	0.0137791
897.255	0.0139076
897.333	0.0138167
897.411	0.0140030
897.489	0.0140131
897.568	0.0139693
897.646	0.0138747
897.724	0.0139449
897.802	0.0138012
897.880	0.0137766
897.958	0.0136673
898.036	0.0137402
898.114	0.0138386
898.193	0.0137556
898.271	0.0137469
898.349	0.0138452
898.427	0.0135707
898.505	0.0136112
898.583	0.0137759
898.661	0.0136666
898.739	0.0136917
898.818	0.0136944
898.896	0.0136134
898.974	0.0136476
899.052	0.0137045
899.130	0.0136203
899.208	0.0138225
899.286	0.0137225
899.364	0.0137370
899.443	0.0138119
899.521	0.0136652
899.599	0.0138744
899.677	0.0140051
899.755	0.0139513
899.833	0.0139548
899.911	0.0139719
899.989	0.0139223
900.068	0.0139561
900.146	0.0139371
900.224	0.0139562
900.302	0.0139754
900.380	0.0140457
900.458	0.0138187
900.536	0.0138641
900.614	0.0138269
900.693	0.0140145
900.771	0.0139745
900.849	0.0138871
900.927	0.0139722
901.005	0.0141005
901.083	0.0140739
901.161	0.0140281
901.239	0.0140592
901.318	0.0141300
901.396	0.0140402
901.474	0.0139243
901.552	0.0139920
901.630	0.0138882
901.708	0.0140082
901.786	0.0139190
901.864	0.0139027
901.943	0.0138720
902.021	0.0137852
902.099	0.0138656
902.177	0.0139497
902.255	0.0137466
902.333	0.0138390
902.411	0.0137951
902.489	0.0138938
902.568	0.0139330
902.646	0.0137719
902.724	0.0138983
902.802	0.0139801
902.880	0.0139465
902.958	0.0138799
903.036	0.0138972
903.114	0.0137941
903.193	0.0137187
903.271	0.0138381
903.349	0.0137968
903.427	0.0138602
903.505	0.0137821
903.583	0.0136353
903.661	0.0137152
903.739	0.0136899
903.818	0.0135242
903.896	0.0136481
903.974	0.0137108
904.052	0.0135992
904.130	0.0135725
904.208	0.0136832
904.286	0.0135851
904.364	0.0136220
904.443	0.0137999
904.521	0.0138378
904.599	0.0138617
904.677	0.0139820
904.755	0.0139016
904.833	0.0140018
904.911	0.0139146
904.989	0.0139717
905.068	0.0139715
905.146	0.0138140
905.224	0.0140435
905.302	0.0139681
905.380	0.0139211
905.458	0.0138889
905.536	0.0137711
905.614	0.0139108
905.693	0.0138519
905.771	0.0138289
905.849	0.0137216
905.927	0.0138644
906.005	0.0139318
906.083	0.0138583
906.161	0.0138464
906.239	0.0139623
906.318	0.0138577
906.396	0.0138876
906.474	0.0138244
906.552	0.0138383
906.630	0.0139574
906.708	0.0138882
906.786	0.0139730
906.864	0.0139063
906.943	0.0138990
907.021	0.0139614
907.099	0.0139020
907.177	0.0138409
907.255	0.0140313
907.333	0.0138801
907.411	0.0139043
907.489	0.0138282
907.568	0.0141040
907.646	0.0140539
907.724	0.0138578
907.802	0.0140047
907.880	0.0138047
907.958	0.0139903
908.036	0.0139570
908.114	0.0139517
908.193	0.0139975
908.271	0.0140408
908.349	0.0139812
908.427	0.0140739
908.505	0.0138453
908.583	0.0138873
908.661	0.0138006
908.739	0.0137470
908.818	0.0140089
908.896	0.0138738
908.974	0.0137759
909.052	0.0136496
909.130	0.0136629
909.208	0.0136506
909.286	0.0137538
909.364	0.0137563
909.443	0.0136670
909.521	0.0136742
909.599	0.0136839
909.677	0.0138548
909.755	0.0138081
909.833	0.0138203
909.911	0.0138916
909.989	0.0138476
910.068	0.0137698
910.146	0.0137535
910.224	0.0139497
910.302	0.0138179
910.380	0.0137802
910.458	0.0138976
910.536	0.0138142
910.614	0.0136951
910.693	0.0137791
910.771	0.0139265
910.849	0.0139120
910.927	0.0139568
911.005	0.0138028
911.083	0.0139268
911.161	0.0138373
911.239	0.0138900
911.318	0.0138869
911.396	0.0139223
911.474	0.0139539
911.552	0.0140775
911.630	0.0140531
911.708	0.0140203
911.786	0.0140853
911.864	0.0141570
911.943	0.0140203
912.021	0.0139693
912.099	0.0141039
912.177	0.0139150
912.255	0.0140161
912.333	0.0140842
912.411	0.0139137
912.489	0.0139537
912.568	0.0140190
912.646	0.0138933
912.724	0.0140349
912.802	0.0139748
912.880	0.0139595
912.958	0.0139883
913.036	0.0139528
913.114	0.0139452
913.193	0.0139813
913.271	0.0138863
913.349	0.0139687
913.427	0.0140503
913.505	0.0138744
913.583	0.0139468
913.661	0.0139892
913.739	0.0138294
913.818	0.0137864
913.896	0.0137090
913.974	0.0139590
914.052	0.0139866
914.130	0.0137492
914.208	0.0137698
914.286	0.0137170
914.364	0.0137383
914.443	0.0137907
914.521	0.0138703
914.599	0.0137906
914.677	0.0138322
914.755	0.0138670
914.833	0.0138137
914.911	0.0139832
914.989	0.0139838
915.068	0.0139558
915.146	0.0138938
915.224	0.0139537
915.302	0.0139674
915.380	0.0140771
915.458	0.0141579
915.536	0.0141531
915.614	0.0140566
915.693	0.0140134
915.771	0.0139760
915.849	0.0140839
915.927	0.0140780
916.005	0.0141004
916.083	0.0140365
916.161	0.0140810
916.239	0.0138884
916.318	0.0139355
916.396	0.0140427
916.474	0.0140451
916.552	0.0140438
916.630	0.0140031
916.708	0.0140205
916.786	0.0139698
916.864	0.0140073
916.943	0.0139973
917.021	0.0139565
917.099	0.0138404
917.177	0.0138746
917.255	0.0139132
917.333	0.0138580
917.411	0.0138226
917.489	0.0138141
917.568	0.0137025
917.646	0.0137742
917.724	0.0138641
917.802	0.0138995
917.880	0.0138358
917.958	0.0137754
918.036	0.0136470
918.114	0.0138019
918.193	0.0138596
918.271	0.0138116
918.349	0.0138483
918.427	0.0137733
918.505	0.0138997
918.583	0.0138612
918.661	0.0138129
918.739	0.0139249
918.818	0.0138760
918.896	0.0139213
918.974	0.0140309
919.052	0.0139333
919.130	0.0139233
919.208	0.0137878
919.286	0.0138479
919.364	0.0139388
919.443	0.0139091
919.521	0.0137759
919.599	0.0137435
919.677	0.0138080
919.755	0.0138059
919.833	0.0139350
919.911	0.0139571
919.989	0.0139150
920.068	0.0138558
920.146	0.0139980
920.224	0.0140466
920.302	0.0138152
920.380	0.0138707
920.458	0.0140598
920.536	0.0140764
920.614	0.0139629
920.693	0.0138873
920.771	0.0140643
920.849	0.0139925
920.927	0.0139365
921.005	0.0141150
921.083	0.0139684
921.161	0.0137243
921.239	0.0136630
921.318	0.0137703
921.396	0.0137370
921.474	0.0136919
921.552	0.0135860
921.630	0.0135903
921.708	0.0137419
921.786	0.0138277
921.864	0.0137284
921.943	0.0135892
922.021	0.0137466
922.099	0.0137674
922.177	0.0137062
922.255	0.0137819
922.333	0.0138276
922.411	0.0137828
922.489	0.0137601
922.568	0.0136828
922.646	0.0137527
922.724	0.0136859
922.802	0.0136453
922.880	0.0138683
922.958	0.0137927
923.036	0.0137755
923.114	0.0136892
923.193	0.0138165
923.271	0.0137991
923.349	0.0138371
923.427	0.0139084
923.505	0.0138383
923.583	0.0137405
923.661	0.0139461
923.739	0.0139025
923.818	0.0140562
923.896	0.0140343
923.974	0.0138583
924.052	0.0140729
924.130	0.0139746
924.208	0.0141553
924.286	0.0138162
924.364	0.0139568
924.443	0.0139672
924.521	0.0139369
924.599	0.0140747
924.677	0.0139514
924.755	0.0139304
924.833	0.0139557
924.911	0.0138694
924.989	0.0140449
925.068	0.0139999
925.146	0.0140250
925.224	0.0138947
925.302	0.0138737
925.380	0.0139636
925.458	0.0138580
925.536	0.0139370
925.614	0.0137048
925.693	0.0138019
925.771	0.0138337
925.849	0.0137045
925.927	0.0137254
926.005	0.0137049
926.083	0.0136635
926.161	0.0138078
926.239	0.0137713
926.318	0.0137257
926.396	0.0136704
926.474	0.0137815
926.552	0.0136446
926.630	0.0136932
926.708	0.0138245
926.786	0.0138008
926.864	0.0137266
926.943	0.0137440
927.021	0.0137829
927.099	0.0139936
927.177	0.0140159
927.255	0.0139001
927.333	0.0141001
927.411	0.0139528
927.489	0.0139184
927.568	0.0139389
927.646	0.0138403
927.724	0.0137523
927.802	0.0137383
927.880	0.0139124
927.958	0.0138560
928.036	0.0137511
928.114	0.0138296
928.193	0.0137013
928.271	0.0137862
928.349	0.0138457
928.427	0.0137870
928.505	0.0138898
928.583	0.0138514
928.661	0.0138015
928.739	0.0137685
928.818	0.0138424
928.896	0.0138588
928.974	0.0138708
929.052	0.0138202
929.130	0.0139599
929.208	0.0138269
929.286	0.0137966
929.364	0.0138079
929.443	0.0139021
929.521	0.0138951
929.599	0.0139320
929.677	0.0138868
929.755	0.0139207
929.833	0.0138667
929.911	0.0138889
929.989	0.0139355
930.068	0.0138733
930.146	0.0139577
930.224	0.0140299
930.302	0.0139433
930.380	0.0139606
930.458	0.0140823
930.536	0.0139904
930.614	0.0140700
930.693	0.0139506
930.771	0.0140189
930.849	0.0140891
930.927	0.0139762
931.005	0.0140162
931.083	0.0140890
931.161	0.0140504
931.239	0.0139253
931.318	0.0139569
931.396	0.0141123
931.474	0.0140819
931.552	0.0139463
931.630	0.0139293
931.708	0.0140512
931.786	0.0139681
931.864	0.0139690
931.943	0.0139483
932.021	0.0139319
932.099	0.0137728
932.177	0.0139223
932.255	0.0139001
932.333	0.0139792
932.411	0.0140231
932.489	0.0138880
932.568	0.0138718
932.646	0.0140258
932.724	0.0139976
932.802	0.0140674
932.880	0.0138811
932.958	0.0138647
933.036	0.0138780
933.114	0.0139162
933.193	0.0137895
933.271	0.0138605
933.349	0.0138710
933.427	0.0137781
933.505	0.0137660
933.583	0.0137601
933.661	0.0138015
933.739	0.0137060
933.818	0.0136494
933.896	0.0139371
933.974	0.0138418
934.052	0.0137640
934.130	0.0137492
934.208	0.0137913
934.286	0.0136934
934.364	0.0138050
934.443	0.0136355
934.521	0.0137893
934.599	0.0138423
934.677	0.0137387
934.755	0.0138944
934.833	0.0137334
934.911	0.0135868
934.989	0.0136452
935.068	0.0136681
935.146	0.0137846
935.224	0.0137816
935.302	0.0138160
935.380	0.0137402
935.458	0.0137070
935.536	0.0137278
935.614	0.0136933
935.693	0.0137465
935.771	0.0138244
935.849	0.0136929
935.927	0.0138157
936.005	0.0138395
936.083	0.0138815
936.161	0.0137603
936.239	0.0137423
936.318	0.0138040
936.396	0.0137415
936.474	0.0136966
936.552	0.0137813
936.630	0.0139397
936.708	0.0139417
936.786	0.0139166
936.864	0.0138004
936.943	0.0139104
937.021	0.0139561
937.099	0.0139634
937.177	0.0138583
937.255	0.0139001
937.333	0.0140159
937.411	0.0139260
937.489	0.0138108
937.568	0.0137424
937.646	0.0138388
937.724	0.0138091
937.802	0.0138724
937.880	0.0138235
937.958	0.0138826
938.036	0.0137917
938.114	0.0138995
938.193	0.0138049
938.271	0.0138267
938.349	0.0139076
938.427	0.0139861
938.505	0.0138506
938.583	0.0138468
938.661	0.0138997
938.739	0.0139699
938.818	0.0140089
938.896	0.0140351
938.974	0.0140494
939.052	0.0139749
939.130	0.0140479
939.208	0.0141686
939.286	0.0141486
939.364	0.0140094
939.443	0.0140985
939.521	0.0140173
939.599	0.0140474
939.677	0.0140346
939.755	0.0140499
939.833	0.0140028
939.911	0.0140540
939.989	0.0139933
940.068	0.0139308
940.146	0.0139812
940.224	0.0139722
940.302	0.0140299
940.380	0.0140189
940.458	0.0140632
940.536	0.0141065
940.614	0.0139516
940.693	0.0139808
940.771	0.0139968
940.849	0.0139800
940.927	0.0140121
941.005	0.0139997
941.083	0.0140420
941.161	0.0140217
941.239	0.0140054
941.318	0.0138977
941.396	0.0140160
941.474	0.0140421
941.552	0.0139899
941.630	0.0141817
941.708	0.0140263
941.786	0.0140066
941.864	0.0140759
941.943	0.0140437
942.021	0.0139468
942.099	0.0139883
942.177	0.0139904
942.255	0.0139771
942.333	0.0139987
942.411	0.0141031
942.489	0.0140410
942.568	0.0140464
942.646	0.0140849
942.724	0.0140498
942.802	0.0139684
942.880	0.0140353
942.958	0.0139586
943.036	0.0140655
943.114	0.0139484
943.193	0.0138387
943.271	0.0139549
943.349	0.0140139
943.427	0.0139532
943.505	0.0139624
943.583	0.0139405
943.661	0.0138464
943.739	0.0139198
943.818	0.0138639
943.896	0.0136691
943.974	0.0137548
944.052	0.0137731
944.130	0.0137817
944.208	0.0137930
944.286	0.0139456
944.364	0.0139355
944.443	0.0136495
944.521	0.0137285
944.599	0.0139536
944.677	0.0139008
944.755	0.0137167
944.833	0.0138645
944.911	0.0138503
944.989	0.0137246
945.068	0.0137386
945.146	0.0138656
945.224	0.0138515
945.302	0.0138586
945.380	0.0138680
945.458	0.0137800
945.536	0.0139322
945.614	0.0138882
945.693	0.0139435
945.771	0.0139597
945.849	0.0139582
945.927	0.0139566
946.005	0.0139305
946.083	0.0141546
946.161	0.0141088
946.239	0.0138667
946.318	0.0140734
946.396	0.0140906
946.474	0.0140137
946.552	0.0139774
946.630	0.0139127
946.708	0.0138091
946.786	0.0139635
946.864	0.0137743
946.943	0.0139194
947.021	0.0139836
947.099	0.0138666
947.177	0.0139599
947.255	0.0139759
947.333	0.0139568
947.411	0.0138117
947.489	0.0138410
947.568	0.0138935
947.646	0.0139899
947.724	0.0138848
947.802	0.0139592
947.880	0.0139207
947.958	0.0138541
948.036	0.0138696
948.114	0.0139105
948.193	0.0139787
948.271	0.0139221
948.349	0.0138529
948.427	0.0138729
948.505	0.0137605
948.583	0.0138130
948.661	0.0138000
948.739	0.0138667
948.818	0.0139014
948.896	0.0139077
948.974	0.0138544
949.052	0.0139062
949.130	0.0137254
949.208	0.0137016
949.286	0.0137218
949.364	0.0135668
949.443	0.0137422
949.521	0.0137875
949.599	0.0139310
949.677	0.0139198
949.755	0.0136926
949.833	0.0138863
949.911	0.0137569
949.989	0.0138980
950.068	0.0140840
950.146	0.0139195
950.224	0.0137930
950.302	0.0139449
950.380	0.0139954
950.458	0.0140388
950.536	0.0139582
950.614	0.0139124
950.693	0.0140755
950.771	0.0138492
950.849	0.0139777
950.927	0.0139888
951.005	0.0139047
951.083	0.0139024
951.161	0.0139413
951.239	0.0139680
951.318	0.0139076
951.396	0.0139700
951.474	0.0139959
951.552	0.0139092
951.630	0.0140657
951.708	0.0139905
951.786	0.0139491
951.864	0.0140627
951.943	0.0139652
952.021	0.0139346
952.099	0.0139487
952.177	0.0139805
952.255	0.0139467
952.333	0.0138631
952.411	0.0139796
952.489	0.0139429
952.568	0.0140184
952.646	0.0139854
952.724	0.0139463
952.802	0.0140024
952.880	0.0138479
952.958	0.0140416
953.036	0.0139115
953.114	0.0139275
953.193	0.0139248
953.271	0.0137777
953.349	0.0138815
953.427	0.0138570
953.505	0.0138638
953.583	0.0139103
953.661	0.0140717
953.739	0.0138874
953.818	0.0137818
953.896	0.0138628
953.974	0.0137778
954.052	0.0137379
954.130	0.0137647
954.208	0.0138012
954.286	0.0139021
954.364	0.0138046
954.443	0.0138700
954.521	0.0138424
954.599	0.0138010
954.677	0.0137475
954.755	0.0138798
954.833	0.0139069
954.911	0.0139373
954.989	0.0138643
955.068	0.0137592
955.146	0.0139201
955.224	0.0139890
955.302	0.0139339
955.380	0.0139166
955.458	0.0140614
955.536	0.0140167
955.614	0.0140325
955.693	0.0138962
955.771	0.0139372
955.849	0.0138956
955.927	0.0139876
956.005	0.0138639
956.083	0.0140199
956.161	0.0141364
956.239	0.0139046
956.318	0.0138651
956.396	0.0140184
956.474	0.0138721
956.552	0.0140072
956.630	0.0141259
956.708	0.0139344
956.786	0.0139793
956.864	0.0139978
956.943	0.0138935
957.021	0.0138932
957.099	0.0138789
957.177	0.0138578
957.255	0.0139192
957.333	0.0139693
957.411	0.0138948
957.489	0.0138885
957.568	0.0138245
957.646	0.0137322
957.724	0.0139122
957.802	0.0137486
957.880	0.0137006
957.958	0.0137766
958.036	0.0137921
958.114	0.0138245
958.193	0.0138522
958.271	0.0139659
958.349	0.0137362
958.427	0.0139342
958.505	0.0138840
958.583	0.0138835
958.661	0.0140856
958.739	0.0138834
958.818	0.0139674
958.896	0.0140961
958.974	0.0140609
959.052	0.0141339
959.130	0.0141174
959.208	0.0141007
959.286	0.0139518
959.364	0.0139553
959.443	0.0140592
959.521	0.0141861
959.599	0.0141493
959.677	0.0140614
959.755	0.0142522
959.833	0.0140947
959.911	0.0141180
