05/14/2022	16:53:47	Ver.	4.1	UNKNOWN
Optical Delay	639.989416	Delta X		0.078125	Sweeps	1	Scan Rate	0/0
Coordinates	Axis 1	NaN	Axis 2	NaN	Axis 3	NaN	Axis 4	NaN	Axis 5	NaN	Axis 6	0.000000
TX Power	0.000000	RX Power	0.000000

639.989	0.0141242
640.068	0.0141861
640.146	0.0140931
640.224	0.0140408
640.302	0.0141615
640.380	0.0140688
640.458	0.0140171
640.536	0.0140266
640.614	0.0140302
640.693	0.0140184
640.771	0.0140698
640.849	0.0139671
640.927	0.0140411
641.005	0.0140275
641.083	0.0140484
641.161	0.0139310
641.239	0.0138314
641.318	0.0139797
641.396	0.0140797
641.474	0.0139261
641.552	0.0139099
641.630	0.0139529
641.708	0.0138955
641.786	0.0139204
641.864	0.0139627
641.943	0.0138542
642.021	0.0139644
642.099	0.0138860
642.177	0.0139352
642.255	0.0139782
642.333	0.0139238
642.411	0.0138509
642.489	0.0138138
642.568	0.0138779
642.646	0.0138972
642.724	0.0138956
642.802	0.0138721
642.880	0.0139751
642.958	0.0137992
643.036	0.0138846
643.114	0.0138766
643.193	0.0139137
643.271	0.0138868
643.349	0.0139035
643.427	0.0139450
643.505	0.0140090
643.583	0.0138605
643.661	0.0140471
643.739	0.0139688
643.818	0.0140362
643.896	0.0139359
643.974	0.0140696
644.052	0.0138699
644.130	0.0139745
644.208	0.0139600
644.286	0.0140566
644.364	0.0140980
644.443	0.0141661
644.521	0.0140103
644.599	0.0138194
644.677	0.0140678
644.755	0.0139762
644.833	0.0139088
644.911	0.0140079
644.989	0.0140402
645.068	0.0140007
645.146	0.0139984
645.224	0.0140233
645.302	0.0140559
645.380	0.0140466
645.458	0.0139578
645.536	0.0139476
645.614	0.0141058
645.693	0.0139392
645.771	0.0140115
645.849	0.0139931
645.927	0.0138277
646.005	0.0139851
646.083	0.0139751
646.161	0.0138853
646.239	0.0139489
646.318	0.0139050
646.396	0.0139759
646.474	0.0140486
646.552	0.0138608
646.630	0.0138967
646.708	0.0138825
646.786	0.0138358
646.864	0.0140007
646.943	0.0138766
647.021	0.0139439
647.099	0.0140076
647.177	0.0140547
647.255	0.0139133
647.333	0.0138564
647.411	0.0139452
647.489	0.0140018
647.568	0.0139497
647.646	0.0138741
647.724	0.0138601
647.802	0.0137582
647.880	0.0139408
647.958	0.0140050
648.036	0.0140097
648.114	0.0139494
648.193	0.0139548
648.271	0.0140728
648.349	0.0139252
648.427	0.0138988
648.505	0.0138644
648.583	0.0137741
648.661	0.0138414
648.739	0.0138094
648.818	0.0139651
648.896	0.0138382
648.974	0.0138803
649.052	0.0137814
649.130	0.0139857
649.208	0.0139844
649.286	0.0140040
649.364	0.0137806
649.443	0.0138617
649.521	0.0139581
649.599	0.0137930
649.677	0.0138853
649.755	0.0140028
649.833	0.0139207
649.911	0.0139335
649.989	0.0137748
650.068	0.0138876
650.146	0.0138439
650.224	0.0140794
650.302	0.0138239
650.380	0.0137907
650.458	0.0138740
650.536	0.0139493
650.614	0.0139063
650.693	0.0138923
650.771	0.0138581
650.849	0.0138786
650.927	0.0140027
651.005	0.0138675
651.083	0.0139378
651.161	0.0139797
651.239	0.0140312
651.318	0.0139008
651.396	0.0139934
651.474	0.0139742
651.552	0.0140830
651.630	0.0139664
651.708	0.0139801
651.786	0.0140675
651.864	0.0139664
651.943	0.0138737
652.021	0.0140826
652.099	0.0138824
652.177	0.0139526
652.255	0.0139128
652.333	0.0140239
652.411	0.0139487
652.489	0.0139375
652.568	0.0139931
652.646	0.0142143
652.724	0.0140131
652.802	0.0139963
652.880	0.0138480
652.958	0.0138806
653.036	0.0139745
653.114	0.0139174
653.193	0.0139053
653.271	0.0140343
653.349	0.0140108
653.427	0.0138730
653.505	0.0139178
653.583	0.0138819
653.661	0.0139343
653.739	0.0139955
653.818	0.0140039
653.896	0.0139642
653.974	0.0139503
654.052	0.0139308
654.130	0.0139185
654.208	0.0139414
654.286	0.0139668
654.364	0.0139928
654.443	0.0140197
654.521	0.0140137
654.599	0.0139505
654.677	0.0139626
654.755	0.0139764
654.833	0.0139933
654.911	0.0140820
654.989	0.0139113
655.068	0.0138945
655.146	0.0140105
655.224	0.0139841
655.302	0.0137791
655.380	0.0139276
655.458	0.0139343
655.536	0.0139219
655.614	0.0139679
655.693	0.0139745
655.771	0.0140937
655.849	0.0140397
655.927	0.0141817
656.005	0.0139527
656.083	0.0140453
656.161	0.0140958
656.239	0.0139555
656.318	0.0138282
656.396	0.0139719
656.474	0.0139937
656.552	0.0138735
656.630	0.0139111
656.708	0.0137525
656.786	0.0138355
656.864	0.0140047
656.943	0.0139758
657.021	0.0139256
657.099	0.0137571
657.177	0.0140376
657.255	0.0140158
657.333	0.0140251
657.411	0.0139471
657.489	0.0138293
657.568	0.0140205
657.646	0.0139877
657.724	0.0141378
657.802	0.0139577
657.880	0.0138733
657.958	0.0140006
658.036	0.0140676
658.114	0.0140222
658.193	0.0140630
658.271	0.0139902
658.349	0.0141383
658.427	0.0140722
658.505	0.0140013
658.583	0.0141136
658.661	0.0140261
658.739	0.0141180
658.818	0.0139125
658.896	0.0139888
658.974	0.0140601
659.052	0.0140097
659.130	0.0140261
659.208	0.0140297
659.286	0.0139001
659.364	0.0138987
659.443	0.0137919
659.521	0.0139339
659.599	0.0139095
659.677	0.0138583
659.755	0.0138096
659.833	0.0139558
659.911	0.0139327
659.989	0.0139771
660.068	0.0139550
660.146	0.0140685
660.224	0.0139529
660.302	0.0140197
660.380	0.0140151
660.458	0.0141101
660.536	0.0140281
660.614	0.0140774
660.693	0.0140707
660.771	0.0140898
660.849	0.0140116
660.927	0.0138815
661.005	0.0139610
661.083	0.0140303
661.161	0.0139568
661.239	0.0140254
661.318	0.0139610
661.396	0.0139450
661.474	0.0139204
661.552	0.0139247
661.630	0.0139548
661.708	0.0139611
661.786	0.0139883
661.864	0.0139759
661.943	0.0141783
662.021	0.0141440
662.099	0.0141387
662.177	0.0141848
662.255	0.0140237
662.333	0.0140402
662.411	0.0141040
662.489	0.0141206
662.568	0.0139998
662.646	0.0140996
662.724	0.0142154
662.802	0.0140524
662.880	0.0141422
662.958	0.0139440
663.036	0.0139847
663.114	0.0140311
663.193	0.0138401
663.271	0.0137093
663.349	0.0137611
663.427	0.0137974
663.505	0.0138261
663.583	0.0136575
663.661	0.0137054
663.739	0.0136429
663.818	0.0136147
663.896	0.0137462
663.974	0.0137784
664.052	0.0136865
664.130	0.0137440
664.208	0.0137765
664.286	0.0137622
664.364	0.0138522
664.443	0.0138219
664.521	0.0139719
664.599	0.0141016
664.677	0.0140579
664.755	0.0141385
664.833	0.0141940
664.911	0.0142645
664.989	0.0143028
665.068	0.0142694
665.146	0.0144772
665.224	0.0144153
665.302	0.0145014
665.380	0.0145348
665.458	0.0144516
665.536	0.0144765
665.614	0.0144646
665.693	0.0143797
665.771	0.0142525
665.849	0.0142120
665.927	0.0141602
666.005	0.0140130
666.083	0.0139890
666.161	0.0138685
666.239	0.0136349
666.318	0.0135591
666.396	0.0135106
666.474	0.0133203
666.552	0.0133823
666.630	0.0132178
666.708	0.0131692
666.786	0.0131176
666.864	0.0130439
666.943	0.0131051
667.021	0.0131281
667.099	0.0131018
667.177	0.0130954
667.255	0.0131782
667.333	0.0131800
667.411	0.0134484
667.489	0.0133050
667.568	0.0135745
667.646	0.0136099
667.724	0.0137904
667.802	0.0138860
667.880	0.0141537
667.958	0.0142045
668.036	0.0143732
668.114	0.0145863
668.193	0.0146143
668.271	0.0148948
668.349	0.0149009
668.427	0.0149911
668.505	0.0151611
668.583	0.0151749
668.661	0.0151585
668.739	0.0151717
668.818	0.0150835
668.896	0.0150979
668.974	0.0149802
669.052	0.0150594
669.130	0.0147533
669.208	0.0145232
669.286	0.0144590
669.364	0.0142081
669.443	0.0140695
669.521	0.0139888
669.599	0.0137543
669.677	0.0136085
669.755	0.0133594
669.833	0.0133131
669.911	0.0130628
669.989	0.0129933
670.068	0.0128452
670.146	0.0127644
670.224	0.0127509
670.302	0.0126762
670.380	0.0126649
670.458	0.0127893
670.536	0.0128294
670.614	0.0127959
670.693	0.0128304
670.771	0.0130180
670.849	0.0129990
670.927	0.0132423
671.005	0.0134615
671.083	0.0136052
671.161	0.0136900
671.239	0.0137598
671.318	0.0138993
671.396	0.0140063
671.474	0.0142694
671.552	0.0144701
671.630	0.0144221
671.708	0.0146296
671.786	0.0149046
671.864	0.0149137
671.943	0.0149041
672.021	0.0149685
672.099	0.0151562
672.177	0.0151939
672.255	0.0150941
672.333	0.0151227
672.411	0.0150753
672.489	0.0150308
672.568	0.0149706
672.646	0.0148592
672.724	0.0147735
672.802	0.0147083
672.880	0.0147579
672.958	0.0145934
673.036	0.0145686
673.114	0.0143952
673.193	0.0141294
673.271	0.0140598
673.349	0.0139474
673.427	0.0138595
673.505	0.0137516
673.583	0.0137074
673.661	0.0135818
673.739	0.0133433
673.818	0.0132500
673.896	0.0132007
673.974	0.0131031
674.052	0.0128078
674.130	0.0127392
674.208	0.0127472
674.286	0.0126086
674.364	0.0126101
674.443	0.0125489
674.521	0.0125166
674.599	0.0125408
674.677	0.0124311
674.755	0.0125719
674.833	0.0126440
674.911	0.0126832
674.989	0.0127914
675.068	0.0128455
675.146	0.0129623
675.224	0.0133240
675.302	0.0133159
675.380	0.0134700
675.458	0.0136272
675.536	0.0137307
675.614	0.0139116
675.693	0.0141142
675.771	0.0143562
675.849	0.0143948
675.927	0.0147392
676.005	0.0149945
676.083	0.0150589
676.161	0.0151637
676.239	0.0153955
676.318	0.0155170
676.396	0.0157269
676.474	0.0156773
676.552	0.0159053
676.630	0.0158414
676.708	0.0158963
676.786	0.0158669
676.864	0.0157749
676.943	0.0159309
677.021	0.0158344
677.099	0.0154435
677.177	0.0152246
677.255	0.0152384
677.333	0.0150631
677.411	0.0149076
677.489	0.0145029
677.568	0.0143343
677.646	0.0139986
677.724	0.0135091
677.802	0.0135052
677.880	0.0131081
677.958	0.0126915
678.036	0.0126021
678.114	0.0124526
678.193	0.0120895
678.271	0.0120013
678.349	0.0117404
678.427	0.0114770
678.505	0.0116222
678.583	0.0114282
678.661	0.0114401
678.739	0.0115047
678.818	0.0115578
678.896	0.0116129
678.974	0.0117445
679.052	0.0120701
679.130	0.0120820
679.208	0.0124145
679.286	0.0127395
679.364	0.0129532
679.443	0.0132854
679.521	0.0136990
679.599	0.0139970
679.677	0.0143201
679.755	0.0145877
679.833	0.0147495
679.911	0.0152259
679.989	0.0153756
680.068	0.0155986
680.146	0.0158682
680.224	0.0160339
680.302	0.0161202
680.380	0.0161748
680.458	0.0162136
680.536	0.0163002
680.614	0.0163079
680.693	0.0161493
680.771	0.0161146
680.849	0.0159848
680.927	0.0159357
681.005	0.0156371
681.083	0.0154107
681.161	0.0152058
681.239	0.0150188
681.318	0.0147642
681.396	0.0145030
681.474	0.0143976
681.552	0.0141393
681.630	0.0137054
681.708	0.0135279
681.786	0.0134506
681.864	0.0132207
681.943	0.0129668
682.021	0.0129612
682.099	0.0126125
682.177	0.0126394
682.255	0.0124575
682.333	0.0124458
682.411	0.0123473
682.489	0.0123918
682.568	0.0122238
682.646	0.0122146
682.724	0.0122765
682.802	0.0122843
682.880	0.0122295
682.958	0.0123407
683.036	0.0123585
683.114	0.0124807
683.193	0.0125122
683.271	0.0126088
683.349	0.0128381
683.427	0.0127832
683.505	0.0130257
683.583	0.0130386
683.661	0.0131693
683.739	0.0133126
683.818	0.0135945
683.896	0.0136194
683.974	0.0137738
684.052	0.0139380
684.130	0.0140838
684.208	0.0141735
684.286	0.0142999
684.364	0.0146442
684.443	0.0146085
684.521	0.0146998
684.599	0.0147883
684.677	0.0149760
684.755	0.0151048
684.833	0.0150934
684.911	0.0151691
684.989	0.0153129
685.068	0.0153450
685.146	0.0153278
685.224	0.0154409
685.302	0.0155309
685.380	0.0156777
685.458	0.0154641
685.536	0.0154663
685.614	0.0153239
685.693	0.0153301
685.771	0.0151411
685.849	0.0152016
685.927	0.0150606
686.005	0.0150264
686.083	0.0146871
686.161	0.0148690
686.239	0.0147154
686.318	0.0145078
686.396	0.0143800
686.474	0.0142995
686.552	0.0140977
686.630	0.0139890
686.708	0.0138683
686.786	0.0138097
686.864	0.0135346
686.943	0.0134916
687.021	0.0132701
687.099	0.0132348
687.177	0.0131091
687.255	0.0130051
687.333	0.0129443
687.411	0.0127876
687.489	0.0126716
687.568	0.0125263
687.646	0.0127412
687.724	0.0127067
687.802	0.0126077
687.880	0.0125342
687.958	0.0126778
688.036	0.0126102
688.114	0.0126524
688.193	0.0128146
688.271	0.0128694
688.349	0.0130836
688.427	0.0131129
688.505	0.0131947
688.583	0.0132732
688.661	0.0133899
688.739	0.0136411
688.818	0.0138264
688.896	0.0139768
688.974	0.0139735
689.052	0.0141302
689.130	0.0141605
689.208	0.0145549
689.286	0.0145133
689.364	0.0145964
689.443	0.0147971
689.521	0.0148247
689.599	0.0149994
689.677	0.0149522
689.755	0.0149553
689.833	0.0149014
689.911	0.0150057
689.989	0.0147717
690.068	0.0148328
690.146	0.0149364
690.224	0.0148032
690.302	0.0149329
690.380	0.0148520
690.458	0.0148095
690.536	0.0145507
690.614	0.0144554
690.693	0.0144357
690.771	0.0144007
690.849	0.0143193
690.927	0.0143443
691.005	0.0143140
691.083	0.0142348
691.161	0.0141425
691.239	0.0142236
691.318	0.0140462
691.396	0.0141171
691.474	0.0140832
691.552	0.0141449
691.630	0.0140241
691.708	0.0139362
691.786	0.0138150
691.864	0.0139784
691.943	0.0139139
692.021	0.0138403
692.099	0.0137777
692.177	0.0138248
692.255	0.0136745
692.333	0.0135643
692.411	0.0135708
692.489	0.0135297
692.568	0.0134988
692.646	0.0134565
692.724	0.0133877
692.802	0.0134244
692.880	0.0135152
692.958	0.0132670
693.036	0.0133882
693.114	0.0135109
693.193	0.0134048
693.271	0.0132978
693.349	0.0133839
693.427	0.0133315
693.505	0.0133468
693.583	0.0133209
693.661	0.0133829
693.739	0.0134010
693.818	0.0133874
693.896	0.0132882
693.974	0.0133933
694.052	0.0134820
694.130	0.0135737
694.208	0.0135389
694.286	0.0136265
694.364	0.0138415
694.443	0.0137596
694.521	0.0138940
694.599	0.0139934
694.677	0.0139535
694.755	0.0141917
694.833	0.0142018
694.911	0.0145088
694.989	0.0144255
695.068	0.0146294
695.146	0.0146594
695.224	0.0146937
695.302	0.0147864
695.380	0.0148045
695.458	0.0149054
695.536	0.0150028
695.614	0.0150404
695.693	0.0149382
695.771	0.0148540
695.849	0.0149947
695.927	0.0149068
696.005	0.0148002
696.083	0.0147790
696.161	0.0146939
696.239	0.0145203
696.318	0.0144737
696.396	0.0144144
696.474	0.0143382
696.552	0.0142715
696.630	0.0140955
696.708	0.0140603
696.786	0.0139689
696.864	0.0138261
696.943	0.0138194
697.021	0.0137385
697.099	0.0135871
697.177	0.0136223
697.255	0.0136385
697.333	0.0136243
697.411	0.0135861
697.489	0.0136696
697.568	0.0136022
697.646	0.0137458
697.724	0.0137745
697.802	0.0138250
697.880	0.0138303
697.958	0.0139090
698.036	0.0140329
698.114	0.0138716
698.193	0.0139413
698.271	0.0141097
698.349	0.0141252
698.427	0.0142648
698.505	0.0142435
698.583	0.0141280
698.661	0.0142014
698.739	0.0142091
698.818	0.0142066
698.896	0.0140969
698.974	0.0140041
699.052	0.0139972
699.130	0.0139642
699.208	0.0138697
699.286	0.0138257
699.364	0.0135361
699.443	0.0137396
699.521	0.0136026
699.599	0.0135111
699.677	0.0134541
699.755	0.0135168
699.833	0.0134042
699.911	0.0132442
699.989	0.0131078
700.068	0.0131890
700.146	0.0132095
700.224	0.0131599
700.302	0.0132496
700.380	0.0131738
700.458	0.0131000
700.536	0.0133094
700.614	0.0131395
700.693	0.0131854
700.771	0.0131677
700.849	0.0132033
700.927	0.0132574
701.005	0.0131905
701.083	0.0132397
701.161	0.0132672
701.239	0.0134621
701.318	0.0135165
701.396	0.0134871
701.474	0.0135615
701.552	0.0137100
701.630	0.0137230
701.708	0.0137997
701.786	0.0140251
701.864	0.0140670
701.943	0.0143009
702.021	0.0143882
702.099	0.0143954
702.177	0.0145460
702.255	0.0147279
702.333	0.0149701
702.411	0.0150690
702.489	0.0149900
702.568	0.0150073
702.646	0.0153401
702.724	0.0151700
702.802	0.0152158
702.880	0.0152012
702.958	0.0152672
703.036	0.0152589
703.114	0.0153455
703.193	0.0153578
703.271	0.0151863
703.349	0.0150873
703.427	0.0151960
703.505	0.0151012
703.583	0.0150179
703.661	0.0149115
703.739	0.0147269
703.818	0.0146512
703.896	0.0145590
703.974	0.0143513
704.052	0.0143221
704.130	0.0143034
704.208	0.0140085
704.286	0.0138999
704.364	0.0136632
704.443	0.0134988
704.521	0.0135579
704.599	0.0133234
704.677	0.0129842
704.755	0.0128161
704.833	0.0127649
704.911	0.0125551
704.989	0.0123939
705.068	0.0122638
705.146	0.0121865
705.224	0.0121326
705.302	0.0119849
705.380	0.0120669
705.458	0.0120398
705.536	0.0120534
705.614	0.0121331
705.693	0.0121179
705.771	0.0122883
705.849	0.0123522
705.927	0.0125689
706.005	0.0126836
706.083	0.0130708
706.161	0.0132082
706.239	0.0132833
706.318	0.0133636
706.396	0.0137829
706.474	0.0139405
706.552	0.0142498
706.630	0.0144000
706.708	0.0145264
706.786	0.0145936
706.864	0.0148945
706.943	0.0148952
707.021	0.0149833
707.099	0.0152585
707.177	0.0150759
707.255	0.0152991
707.333	0.0154339
707.411	0.0154344
707.489	0.0153010
707.568	0.0153300
707.646	0.0154082
707.724	0.0152605
707.802	0.0153733
707.880	0.0153011
707.958	0.0152804
708.036	0.0152209
708.114	0.0151743
708.193	0.0151121
708.271	0.0149131
708.349	0.0148851
708.427	0.0147636
708.505	0.0146069
708.583	0.0145532
708.661	0.0144558
708.739	0.0143536
708.818	0.0142126
708.896	0.0140501
708.974	0.0139738
709.052	0.0140442
709.130	0.0137841
709.208	0.0137735
709.286	0.0136690
709.364	0.0136098
709.443	0.0135109
709.521	0.0135007
709.599	0.0136475
709.677	0.0136239
709.755	0.0134687
709.833	0.0134345
709.911	0.0134167
709.989	0.0135641
710.068	0.0135466
710.146	0.0135439
710.224	0.0136117
710.302	0.0134491
710.380	0.0132924
710.458	0.0133143
710.536	0.0133659
710.614	0.0132162
710.693	0.0132620
710.771	0.0133557
710.849	0.0132466
710.927	0.0131896
711.005	0.0131639
711.083	0.0133125
711.161	0.0132686
711.239	0.0131653
711.318	0.0132548
711.396	0.0132590
711.474	0.0131909
711.552	0.0133158
711.630	0.0132590
711.708	0.0134304
711.786	0.0133318
711.864	0.0133501
711.943	0.0135015
712.021	0.0134350
712.099	0.0135128
712.177	0.0135390
712.255	0.0135115
712.333	0.0137336
712.411	0.0136182
712.489	0.0137286
712.568	0.0138455
712.646	0.0139275
712.724	0.0139859
712.802	0.0142568
712.880	0.0142265
712.958	0.0142554
713.036	0.0143806
713.114	0.0145116
713.193	0.0145728
713.271	0.0146760
713.349	0.0147332
713.427	0.0150037
713.505	0.0151007
713.583	0.0150356
713.661	0.0151404
713.739	0.0153008
713.818	0.0152836
713.896	0.0153703
713.974	0.0154568
714.052	0.0154564
714.130	0.0154375
714.208	0.0153272
714.286	0.0153541
714.364	0.0150798
714.443	0.0151895
714.521	0.0149017
714.599	0.0147232
714.677	0.0146346
714.755	0.0145916
714.833	0.0141834
714.911	0.0141450
714.989	0.0139982
715.068	0.0137480
715.146	0.0136987
715.224	0.0137766
715.302	0.0135426
715.380	0.0134527
715.458	0.0133689
715.536	0.0132939
715.614	0.0132085
715.693	0.0130353
715.771	0.0130633
715.849	0.0129349
715.927	0.0129610
716.005	0.0132005
716.083	0.0129029
716.161	0.0129993
716.239	0.0130869
716.318	0.0130276
716.396	0.0130704
716.474	0.0130643
716.552	0.0130984
716.630	0.0132191
716.708	0.0133356
716.786	0.0134555
716.864	0.0134179
716.943	0.0135271
717.021	0.0137542
717.099	0.0138283
717.177	0.0138848
717.255	0.0139233
717.333	0.0139774
717.411	0.0140126
717.489	0.0142319
717.568	0.0141062
717.646	0.0141528
717.724	0.0142226
717.802	0.0141490
717.880	0.0141653
717.958	0.0141426
718.036	0.0140593
718.114	0.0141495
718.193	0.0141547
718.271	0.0139472
718.349	0.0139887
718.427	0.0139803
718.505	0.0141719
718.583	0.0141773
718.661	0.0141287
718.739	0.0140636
718.818	0.0140877
718.896	0.0142448
718.974	0.0141657
719.052	0.0142274
719.130	0.0141411
719.208	0.0142138
719.286	0.0142255
719.364	0.0142829
719.443	0.0143010
719.521	0.0143808
719.599	0.0143047
719.677	0.0142387
719.755	0.0141562
719.833	0.0142728
719.911	0.0142828
719.989	0.0142518
720.068	0.0143415
720.146	0.0143992
720.224	0.0143071
720.302	0.0143401
720.380	0.0143072
720.458	0.0143349
720.536	0.0142268
720.614	0.0143438
720.693	0.0143741
720.771	0.0141801
720.849	0.0141749
720.927	0.0141602
721.005	0.0143843
721.083	0.0141607
721.161	0.0140703
721.239	0.0141011
721.318	0.0140752
721.396	0.0142199
721.474	0.0141357
721.552	0.0140620
721.630	0.0140527
721.708	0.0140659
721.786	0.0140756
721.864	0.0140744
721.943	0.0139977
722.021	0.0139086
722.099	0.0138831
722.177	0.0137579
722.255	0.0137455
722.333	0.0136684
722.411	0.0137330
722.489	0.0135861
722.568	0.0136362
722.646	0.0135401
722.724	0.0135749
722.802	0.0134637
722.880	0.0135529
722.958	0.0135056
723.036	0.0135436
723.114	0.0133845
723.193	0.0136102
723.271	0.0134585
723.349	0.0133424
723.427	0.0134716
723.505	0.0134135
723.583	0.0136317
723.661	0.0136705
723.739	0.0136945
723.818	0.0137328
723.896	0.0136452
723.974	0.0138004
724.052	0.0138093
724.130	0.0138776
724.208	0.0140265
724.286	0.0141534
724.364	0.0141683
724.443	0.0140621
724.521	0.0144332
724.599	0.0143973
724.677	0.0143007
724.755	0.0145049
724.833	0.0145702
724.911	0.0146564
724.989	0.0143639
725.068	0.0145182
725.146	0.0147164
725.224	0.0145449
725.302	0.0147215
725.380	0.0147102
725.458	0.0145824
725.536	0.0146147
725.614	0.0145575
725.693	0.0146172
725.771	0.0144843
725.849	0.0144360
725.927	0.0142563
726.005	0.0142982
726.083	0.0142590
726.161	0.0140973
726.239	0.0140358
726.318	0.0139405
726.396	0.0138451
726.474	0.0137923
726.552	0.0137836
726.630	0.0137212
726.708	0.0136412
726.786	0.0134467
726.864	0.0134153
726.943	0.0134879
727.021	0.0132847
727.099	0.0133644
727.177	0.0133942
727.255	0.0132214
727.333	0.0133227
727.411	0.0133068
727.489	0.0134694
727.568	0.0134129
727.646	0.0134696
727.724	0.0135663
727.802	0.0136494
727.880	0.0138076
727.958	0.0138085
728.036	0.0138622
728.114	0.0138462
728.193	0.0140570
728.271	0.0142007
728.349	0.0143593
728.427	0.0144459
728.505	0.0144752
728.583	0.0143193
728.661	0.0146195
728.739	0.0147639
728.818	0.0146626
728.896	0.0148504
728.974	0.0146965
729.052	0.0147185
729.130	0.0147122
729.208	0.0146637
729.286	0.0145074
729.364	0.0145887
729.443	0.0143936
729.521	0.0143246
729.599	0.0140977
729.677	0.0140615
729.755	0.0139391
729.833	0.0137953
729.911	0.0136409
729.989	0.0136179
730.068	0.0135391
730.146	0.0134702
730.224	0.0133952
730.302	0.0133514
730.380	0.0134502
730.458	0.0133204
730.536	0.0131755
730.614	0.0131348
730.693	0.0132790
730.771	0.0132182
730.849	0.0130960
730.927	0.0131663
731.005	0.0132096
731.083	0.0131961
731.161	0.0131780
731.239	0.0132324
731.318	0.0132346
731.396	0.0132710
731.474	0.0131461
731.552	0.0133260
731.630	0.0132810
731.708	0.0132882
731.786	0.0133060
731.864	0.0134306
731.943	0.0133515
732.021	0.0136732
732.099	0.0136406
732.177	0.0136156
732.255	0.0137710
732.333	0.0138654
732.411	0.0137099
732.489	0.0139142
732.568	0.0138891
732.646	0.0140566
732.724	0.0141773
732.802	0.0140750
732.880	0.0140797
732.958	0.0142525
733.036	0.0143435
733.114	0.0144213
733.193	0.0143488
733.271	0.0145517
733.349	0.0145505
733.427	0.0145247
733.505	0.0146574
733.583	0.0146697
733.661	0.0147409
733.739	0.0147536
733.818	0.0148417
733.896	0.0149249
733.974	0.0150085
734.052	0.0148466
734.130	0.0149132
734.208	0.0150613
734.286	0.0149574
734.364	0.0149300
734.443	0.0146746
734.521	0.0148217
734.599	0.0147006
734.677	0.0147437
734.755	0.0145853
734.833	0.0145188
734.911	0.0143018
734.989	0.0144010
735.068	0.0143691
735.146	0.0141196
735.224	0.0140475
735.302	0.0140336
735.380	0.0139261
735.458	0.0139013
735.536	0.0138910
735.614	0.0137549
735.693	0.0136526
735.771	0.0136312
735.849	0.0133853
735.927	0.0135756
736.005	0.0134897
736.083	0.0135010
736.161	0.0134537
736.239	0.0133168
736.318	0.0134201
736.396	0.0133439
736.474	0.0134540
736.552	0.0133682
736.630	0.0132750
736.708	0.0133051
736.786	0.0132423
736.864	0.0132642
736.943	0.0132531
737.021	0.0132401
737.099	0.0132783
737.177	0.0132687
737.255	0.0131390
737.333	0.0131818
737.411	0.0133772
737.489	0.0133916
737.568	0.0134767
737.646	0.0136352
737.724	0.0135721
737.802	0.0136675
737.880	0.0136967
737.958	0.0138553
738.036	0.0138574
738.114	0.0141122
738.193	0.0140118
738.271	0.0142322
738.349	0.0143855
738.427	0.0144515
738.505	0.0145913
738.583	0.0147070
738.661	0.0148662
738.739	0.0149654
738.818	0.0149777
738.896	0.0151716
738.974	0.0152346
739.052	0.0152451
739.130	0.0152582
739.208	0.0153629
739.286	0.0153838
739.364	0.0152721
739.443	0.0152356
739.521	0.0152628
739.599	0.0151075
739.677	0.0150886
739.755	0.0149794
739.833	0.0149390
739.911	0.0147994
739.989	0.0146106
740.068	0.0146097
740.146	0.0144046
740.224	0.0142262
740.302	0.0140407
740.380	0.0140243
740.458	0.0138425
740.536	0.0137965
740.614	0.0137071
740.693	0.0136964
740.771	0.0135255
740.849	0.0134766
740.927	0.0132845
741.005	0.0132963
741.083	0.0132504
741.161	0.0132839
741.239	0.0132387
741.318	0.0131495
741.396	0.0131349
741.474	0.0132513
741.552	0.0131891
741.630	0.0134034
741.708	0.0135074
741.786	0.0134019
741.864	0.0133833
741.943	0.0135421
742.021	0.0135397
742.099	0.0134477
742.177	0.0135754
742.255	0.0135381
742.333	0.0134511
742.411	0.0134853
742.489	0.0135722
742.568	0.0135375
742.646	0.0135111
742.724	0.0135477
742.802	0.0135607
742.880	0.0135695
742.958	0.0137208
743.036	0.0137545
743.114	0.0136032
743.193	0.0136246
743.271	0.0138010
743.349	0.0135934
743.427	0.0137875
743.505	0.0137922
743.583	0.0138289
743.661	0.0140049
743.739	0.0139877
743.818	0.0140956
743.896	0.0141663
743.974	0.0142229
744.052	0.0141306
744.130	0.0142449
744.208	0.0143127
744.286	0.0142251
744.364	0.0143330
744.443	0.0143661
744.521	0.0143059
744.599	0.0144246
744.677	0.0144004
744.755	0.0145419
744.833	0.0144055
744.911	0.0144083
744.989	0.0145447
745.068	0.0145802
745.146	0.0145574
745.224	0.0145196
745.302	0.0144291
745.380	0.0144154
745.458	0.0144358
745.536	0.0143926
745.614	0.0144655
745.693	0.0141846
745.771	0.0142107
745.849	0.0141801
745.927	0.0140865
746.005	0.0140006
746.083	0.0140718
746.161	0.0141183
746.239	0.0139042
746.318	0.0139309
746.396	0.0139513
746.474	0.0139260
746.552	0.0138774
746.630	0.0137632
746.708	0.0138063
746.786	0.0139663
746.864	0.0137949
746.943	0.0138449
747.021	0.0139092
747.099	0.0140367
747.177	0.0139772
747.255	0.0137820
747.333	0.0139452
747.411	0.0140279
747.489	0.0140511
747.568	0.0140328
747.646	0.0139988
747.724	0.0139011
747.802	0.0139782
747.880	0.0140595
747.958	0.0139387
748.036	0.0138966
748.114	0.0138840
748.193	0.0140018
748.271	0.0138869
748.349	0.0138660
748.427	0.0137193
748.505	0.0136954
748.583	0.0136485
748.661	0.0136845
748.739	0.0136806
748.818	0.0136582
748.896	0.0135557
748.974	0.0135361
749.052	0.0136482
749.130	0.0135716
749.208	0.0137415
749.286	0.0136653
749.364	0.0136381
749.443	0.0134698
749.521	0.0137463
749.599	0.0138001
749.677	0.0136286
749.755	0.0137780
749.833	0.0137924
749.911	0.0138005
749.989	0.0138584
750.068	0.0138038
750.146	0.0138133
750.224	0.0138987
750.302	0.0138785
750.380	0.0138990
750.458	0.0139214
750.536	0.0138741
750.614	0.0139196
750.693	0.0139666
750.771	0.0137546
750.849	0.0138887
750.927	0.0138759
751.005	0.0139274
751.083	0.0140063
751.161	0.0138239
751.239	0.0138354
751.318	0.0138978
751.396	0.0139310
751.474	0.0140224
751.552	0.0139104
751.630	0.0139728
751.708	0.0140691
751.786	0.0140360
751.864	0.0139555
751.943	0.0140137
752.021	0.0141199
752.099	0.0140489
752.177	0.0141035
752.255	0.0142333
752.333	0.0142587
752.411	0.0141361
752.489	0.0143660
752.568	0.0143167
752.646	0.0140533
752.724	0.0142825
752.802	0.0143816
752.880	0.0142000
752.958	0.0140699
753.036	0.0143274
753.114	0.0143316
753.193	0.0141411
753.271	0.0141553
753.349	0.0142719
753.427	0.0141914
753.505	0.0141672
753.583	0.0142387
753.661	0.0140480
753.739	0.0140725
753.818	0.0139845
753.896	0.0140536
753.974	0.0139443
754.052	0.0138913
754.130	0.0139057
754.208	0.0140052
754.286	0.0139550
754.364	0.0139352
754.443	0.0136813
754.521	0.0139059
754.599	0.0139144
754.677	0.0137695
754.755	0.0137921
754.833	0.0137264
754.911	0.0136874
754.989	0.0136182
755.068	0.0136781
755.146	0.0136233
755.224	0.0136658
755.302	0.0137920
755.380	0.0138665
755.458	0.0137280
755.536	0.0136619
755.614	0.0138603
755.693	0.0137513
755.771	0.0139753
755.849	0.0138693
755.927	0.0139221
756.005	0.0138010
756.083	0.0139658
756.161	0.0139441
756.239	0.0139108
756.318	0.0140197
756.396	0.0140627
756.474	0.0139237
756.552	0.0140693
756.630	0.0140975
756.708	0.0141595
756.786	0.0140754
756.864	0.0140602
756.943	0.0139928
757.021	0.0140343
757.099	0.0140990
757.177	0.0141707
757.255	0.0142108
757.333	0.0141857
757.411	0.0142021
757.489	0.0140395
757.568	0.0140890
757.646	0.0140059
757.724	0.0141679
757.802	0.0141903
757.880	0.0142194
757.958	0.0139681
758.036	0.0141196
758.114	0.0140054
758.193	0.0138863
758.271	0.0141428
758.349	0.0140231
758.427	0.0138735
758.505	0.0139890
758.583	0.0139117
758.661	0.0139203
758.739	0.0138510
758.818	0.0140205
758.896	0.0139207
758.974	0.0138005
759.052	0.0139147
759.130	0.0139084
759.208	0.0140116
759.286	0.0138643
759.364	0.0137074
759.443	0.0138787
759.521	0.0138758
759.599	0.0138557
759.677	0.0138604
759.755	0.0137903
759.833	0.0137490
759.911	0.0137012
759.989	0.0138567
760.068	0.0138013
760.146	0.0139403
760.224	0.0137966
760.302	0.0138322
760.380	0.0138992
760.458	0.0138853
760.536	0.0138062
760.614	0.0136752
760.693	0.0137790
760.771	0.0136618
760.849	0.0136179
760.927	0.0137038
761.005	0.0137287
761.083	0.0138717
761.161	0.0137817
761.239	0.0137836
761.318	0.0137344
761.396	0.0137848
761.474	0.0138701
761.552	0.0138892
761.630	0.0139147
761.708	0.0139221
761.786	0.0139201
761.864	0.0141356
761.943	0.0140971
762.021	0.0140262
762.099	0.0141054
762.177	0.0141129
762.255	0.0142242
762.333	0.0142691
762.411	0.0141949
762.489	0.0142321
762.568	0.0143301
762.646	0.0142419
762.724	0.0142545
762.802	0.0142565
762.880	0.0142806
762.958	0.0142918
763.036	0.0142855
763.114	0.0140968
763.193	0.0141281
763.271	0.0140725
763.349	0.0141104
763.427	0.0140454
763.505	0.0139942
763.583	0.0139071
763.661	0.0139718
763.739	0.0139555
763.818	0.0140324
763.896	0.0139964
763.974	0.0138995
764.052	0.0140633
764.130	0.0140413
764.208	0.0140007
764.286	0.0141283
764.364	0.0141787
764.443	0.0140515
764.521	0.0140833
764.599	0.0141854
764.677	0.0141740
764.755	0.0141556
764.833	0.0140726
764.911	0.0141809
764.989	0.0141291
765.068	0.0141869
765.146	0.0141189
765.224	0.0139810
765.302	0.0139153
765.380	0.0140990
765.458	0.0140788
765.536	0.0139254
765.614	0.0139853
765.693	0.0140483
765.771	0.0137903
765.849	0.0138904
765.927	0.0137975
766.005	0.0138817
766.083	0.0138141
766.161	0.0136114
766.239	0.0138026
766.318	0.0137460
766.396	0.0136988
766.474	0.0136694
766.552	0.0136834
766.630	0.0136972
766.708	0.0137976
766.786	0.0137208
766.864	0.0135939
766.943	0.0136465
767.021	0.0136788
767.099	0.0138763
767.177	0.0138148
767.255	0.0138148
767.333	0.0138087
767.411	0.0139296
767.489	0.0139850
767.568	0.0138155
767.646	0.0140023
767.724	0.0140816
767.802	0.0141101
767.880	0.0141219
767.958	0.0140707
768.036	0.0141451
768.114	0.0143449
768.193	0.0141150
768.271	0.0143076
768.349	0.0142834
768.427	0.0143199
768.505	0.0142914
768.583	0.0143768
768.661	0.0143488
768.739	0.0143143
768.818	0.0143851
768.896	0.0143344
768.974	0.0141885
769.052	0.0144510
769.130	0.0142875
769.208	0.0144721
769.286	0.0144114
769.364	0.0145271
769.443	0.0144446
769.521	0.0143231
769.599	0.0142536
769.677	0.0142995
769.755	0.0142987
769.833	0.0142889
769.911	0.0143443
769.989	0.0142023
770.068	0.0140411
770.146	0.0142344
770.224	0.0140504
770.302	0.0140592
770.380	0.0139566
770.458	0.0139781
770.536	0.0138067
770.614	0.0137588
770.693	0.0137505
770.771	0.0137706
770.849	0.0135981
770.927	0.0137497
771.005	0.0136962
771.083	0.0136057
771.161	0.0136048
771.239	0.0135223
771.318	0.0133871
771.396	0.0134673
771.474	0.0135522
771.552	0.0135287
771.630	0.0135848
771.708	0.0133494
771.786	0.0135171
771.864	0.0134613
771.943	0.0135232
772.021	0.0136674
772.099	0.0135905
772.177	0.0134706
772.255	0.0136271
772.333	0.0137218
772.411	0.0137577
772.489	0.0137746
772.568	0.0138628
772.646	0.0138875
772.724	0.0140390
772.802	0.0140069
772.880	0.0140586
772.958	0.0142194
773.036	0.0141546
773.114	0.0142223
773.193	0.0142861
773.271	0.0142255
773.349	0.0143642
773.427	0.0143363
773.505	0.0142435
773.583	0.0143383
773.661	0.0143229
773.739	0.0143752
773.818	0.0143801
773.896	0.0142780
773.974	0.0143156
774.052	0.0142282
774.130	0.0141822
774.208	0.0141785
774.286	0.0141161
774.364	0.0140313
774.443	0.0140973
774.521	0.0140545
774.599	0.0140990
774.677	0.0140308
774.755	0.0140463
774.833	0.0139613
774.911	0.0139079
774.989	0.0138842
775.068	0.0138599
775.146	0.0139101
775.224	0.0139072
775.302	0.0138062
775.380	0.0138457
775.458	0.0138712
775.536	0.0138067
775.614	0.0137748
775.693	0.0139053
775.771	0.0137491
775.849	0.0137618
775.927	0.0139271
776.005	0.0139675
776.083	0.0139959
776.161	0.0139574
776.239	0.0139076
776.318	0.0138107
776.396	0.0139904
776.474	0.0142303
776.552	0.0140661
776.630	0.0141058
776.708	0.0142514
776.786	0.0141180
776.864	0.0141454
776.943	0.0141142
777.021	0.0141467
777.099	0.0141782
777.177	0.0141956
777.255	0.0141605
777.333	0.0141960
777.411	0.0141864
777.489	0.0142108
777.568	0.0143040
777.646	0.0141753
777.724	0.0139397
777.802	0.0139346
777.880	0.0140549
777.958	0.0141557
778.036	0.0140816
778.114	0.0139320
778.193	0.0140940
778.271	0.0138364
778.349	0.0140076
778.427	0.0139038
778.505	0.0137125
778.583	0.0139450
778.661	0.0139675
778.739	0.0137265
778.818	0.0138493
778.896	0.0137418
778.974	0.0137048
779.052	0.0137763
779.130	0.0136753
779.208	0.0136921
779.286	0.0137663
779.364	0.0135442
779.443	0.0137593
779.521	0.0138000
779.599	0.0136713
779.677	0.0137395
779.755	0.0136900
779.833	0.0137647
779.911	0.0137530
779.989	0.0138427
780.068	0.0137647
780.146	0.0138194
780.224	0.0140423
780.302	0.0140075
780.380	0.0139043
780.458	0.0138766
780.536	0.0138254
780.614	0.0138560
780.693	0.0139270
780.771	0.0139777
780.849	0.0140958
780.927	0.0138383
781.005	0.0140060
781.083	0.0140859
781.161	0.0140205
781.239	0.0140694
781.318	0.0140967
781.396	0.0140769
781.474	0.0142565
781.552	0.0141547
781.630	0.0140796
781.708	0.0141417
781.786	0.0142266
781.864	0.0143261
781.943	0.0142575
782.021	0.0142937
782.099	0.0143875
782.177	0.0143306
782.255	0.0142412
782.333	0.0142725
782.411	0.0143850
782.489	0.0143399
782.568	0.0142210
782.646	0.0143172
782.724	0.0143464
782.802	0.0143578
782.880	0.0142277
782.958	0.0142600
783.036	0.0141299
783.114	0.0141231
783.193	0.0141408
783.271	0.0140780
783.349	0.0140861
783.427	0.0139352
783.505	0.0139965
783.583	0.0139612
783.661	0.0138472
783.739	0.0136974
783.818	0.0137139
783.896	0.0138301
783.974	0.0138151
784.052	0.0135820
784.130	0.0135542
784.208	0.0134662
784.286	0.0135161
784.364	0.0137012
784.443	0.0134213
784.521	0.0135291
784.599	0.0135604
784.677	0.0135905
784.755	0.0136046
784.833	0.0136229
784.911	0.0136154
784.989	0.0136765
785.068	0.0136149
785.146	0.0137812
785.224	0.0136639
785.302	0.0137008
785.380	0.0137844
785.458	0.0137840
785.536	0.0138474
785.614	0.0138635
785.693	0.0138889
785.771	0.0138079
785.849	0.0139236
785.927	0.0140266
786.005	0.0139359
786.083	0.0140974
786.161	0.0142081
786.239	0.0142661
786.318	0.0141302
786.396	0.0141698
786.474	0.0142265
786.552	0.0142075
786.630	0.0141350
786.708	0.0140303
786.786	0.0143275
786.864	0.0141130
786.943	0.0140755
787.021	0.0140984
787.099	0.0141644
787.177	0.0142246
787.255	0.0141475
787.333	0.0141343
787.411	0.0140948
787.489	0.0139234
787.568	0.0140573
787.646	0.0140993
787.724	0.0140652
787.802	0.0140447
787.880	0.0140112
787.958	0.0140695
788.036	0.0139645
788.114	0.0140189
788.193	0.0141150
788.271	0.0139847
788.349	0.0140792
788.427	0.0139667
788.505	0.0139031
788.583	0.0138487
788.661	0.0138760
788.739	0.0138747
788.818	0.0137392
788.896	0.0137724
788.974	0.0137104
789.052	0.0137801
789.130	0.0137340
789.208	0.0136920
789.286	0.0135886
789.364	0.0136724
789.443	0.0137593
789.521	0.0137321
789.599	0.0137998
789.677	0.0137515
789.755	0.0137370
789.833	0.0138243
789.911	0.0139190
789.989	0.0138044
790.068	0.0138110
790.146	0.0137691
790.224	0.0137360
790.302	0.0139133
790.380	0.0140567
790.458	0.0138213
790.536	0.0138595
790.614	0.0138084
790.693	0.0140723
790.771	0.0139913
790.849	0.0140018
790.927	0.0140611
791.005	0.0139506
791.083	0.0141035
791.161	0.0140944
791.239	0.0141016
791.318	0.0140918
791.396	0.0143032
791.474	0.0142339
791.552	0.0142889
791.630	0.0140709
791.708	0.0142367
791.786	0.0142947
791.864	0.0142698
791.943	0.0142632
792.021	0.0142737
792.099	0.0143297
792.177	0.0142452
792.255	0.0143356
792.333	0.0143892
792.411	0.0143087
792.489	0.0143997
792.568	0.0143129
792.646	0.0142562
792.724	0.0142387
792.802	0.0143250
792.880	0.0142452
792.958	0.0141092
793.036	0.0142525
793.114	0.0142873
793.193	0.0141763
793.271	0.0142900
793.349	0.0141605
793.427	0.0141426
793.505	0.0142315
793.583	0.0140273
793.661	0.0140971
793.739	0.0140612
793.818	0.0140377
793.896	0.0140068
793.974	0.0139003
794.052	0.0138469
794.130	0.0140500
794.208	0.0139886
794.286	0.0139262
794.364	0.0139244
794.443	0.0139565
794.521	0.0139556
794.599	0.0139159
794.677	0.0138905
794.755	0.0140591
794.833	0.0139893
794.911	0.0138725
794.989	0.0139040
795.068	0.0140022
795.146	0.0139851
795.224	0.0139347
795.302	0.0140057
795.380	0.0140275
795.458	0.0140073
795.536	0.0139152
795.614	0.0139515
795.693	0.0140142
795.771	0.0138586
795.849	0.0139749
795.927	0.0139693
796.005	0.0139781
796.083	0.0139763
796.161	0.0140355
796.239	0.0140298
796.318	0.0139099
796.396	0.0140491
796.474	0.0139711
796.552	0.0139277
796.630	0.0139732
796.708	0.0138648
796.786	0.0139206
796.864	0.0139285
796.943	0.0140118
797.021	0.0140501
797.099	0.0139302
797.177	0.0140132
797.255	0.0139590
797.333	0.0138731
797.411	0.0140185
797.489	0.0139761
797.568	0.0142023
797.646	0.0140436
797.724	0.0139642
797.802	0.0139668
797.880	0.0139889
797.958	0.0139840
798.036	0.0140293
798.114	0.0139487
798.193	0.0140670
798.271	0.0141778
798.349	0.0139824
798.427	0.0140210
798.505	0.0139907
798.583	0.0140668
798.661	0.0141463
798.739	0.0142013
798.818	0.0142529
798.896	0.0140927
798.974	0.0140213
799.052	0.0141254
799.130	0.0141042
799.208	0.0141530
799.286	0.0140014
799.364	0.0140909
799.443	0.0142339
799.521	0.0141650
799.599	0.0140588
799.677	0.0140417
799.755	0.0139682
799.833	0.0140990
799.911	0.0141024
799.989	0.0139924
800.068	0.0139642
800.146	0.0139979
800.224	0.0137379
800.302	0.0138507
800.380	0.0139251
800.458	0.0139892
800.536	0.0140203
800.614	0.0138982
800.693	0.0139761
800.771	0.0138912
800.849	0.0138813
800.927	0.0138048
801.005	0.0138901
801.083	0.0139049
801.161	0.0138451
801.239	0.0138473
801.318	0.0137933
801.396	0.0137643
801.474	0.0137528
801.552	0.0137435
801.630	0.0138426
801.708	0.0139168
801.786	0.0138642
801.864	0.0138266
801.943	0.0137518
802.021	0.0137828
802.099	0.0138760
802.177	0.0136459
802.255	0.0136121
802.333	0.0137225
802.411	0.0138778
802.489	0.0138650
802.568	0.0138577
802.646	0.0137753
802.724	0.0139323
802.802	0.0139479
802.880	0.0138610
802.958	0.0139121
803.036	0.0139973
803.114	0.0140038
803.193	0.0140292
803.271	0.0140073
803.349	0.0140799
803.427	0.0140170
803.505	0.0142556
803.583	0.0140894
803.661	0.0141572
803.739	0.0142256
803.818	0.0142358
803.896	0.0143194
803.974	0.0143097
804.052	0.0142944
804.130	0.0143810
804.208	0.0142844
804.286	0.0142814
804.364	0.0145641
804.443	0.0143119
804.521	0.0141962
804.599	0.0143072
804.677	0.0143263
804.755	0.0143410
804.833	0.0144123
804.911	0.0143472
804.989	0.0142593
805.068	0.0144105
805.146	0.0141607
805.224	0.0141558
805.302	0.0141167
805.380	0.0140900
805.458	0.0139962
805.536	0.0140215
805.614	0.0140974
805.693	0.0140792
805.771	0.0138330
805.849	0.0140032
805.927	0.0140246
806.005	0.0137633
806.083	0.0137661
806.161	0.0139075
806.239	0.0139383
806.318	0.0137881
806.396	0.0137790
806.474	0.0139428
806.552	0.0138760
806.630	0.0138345
806.708	0.0139027
806.786	0.0138312
806.864	0.0137912
806.943	0.0139581
807.021	0.0139708
807.099	0.0139072
807.177	0.0138060
807.255	0.0139036
807.333	0.0136846
807.411	0.0137954
807.489	0.0138406
807.568	0.0136449
807.646	0.0137517
807.724	0.0136395
807.802	0.0136568
807.880	0.0136031
807.958	0.0135899
808.036	0.0136012
808.114	0.0137720
808.193	0.0136558
808.271	0.0135820
808.349	0.0137513
808.427	0.0138447
808.505	0.0137063
808.583	0.0138554
808.661	0.0139571
808.739	0.0138367
808.818	0.0138730
808.896	0.0139977
808.974	0.0139942
809.052	0.0140823
809.130	0.0139667
809.208	0.0140337
809.286	0.0142326
809.364	0.0142313
809.443	0.0140362
809.521	0.0141772
809.599	0.0141663
809.677	0.0141866
809.755	0.0141929
809.833	0.0142628
809.911	0.0141956
809.989	0.0142710
810.068	0.0142699
810.146	0.0140978
810.224	0.0141969
810.302	0.0142141
810.380	0.0142308
810.458	0.0141590
810.536	0.0140180
810.614	0.0141324
810.693	0.0140588
810.771	0.0140217
810.849	0.0141042
810.927	0.0140850
811.005	0.0140441
811.083	0.0141879
811.161	0.0141183
811.239	0.0140962
811.318	0.0141308
811.396	0.0140781
811.474	0.0141155
811.552	0.0140135
811.630	0.0140887
811.708	0.0138527
811.786	0.0138914
811.864	0.0139100
811.943	0.0138338
812.021	0.0136870
812.099	0.0138004
812.177	0.0137418
812.255	0.0135547
812.333	0.0135840
812.411	0.0138378
812.489	0.0137543
812.568	0.0136868
812.646	0.0136355
812.724	0.0136237
812.802	0.0138439
812.880	0.0137586
812.958	0.0139613
813.036	0.0138361
813.114	0.0139117
813.193	0.0140712
813.271	0.0140524
813.349	0.0140894
813.427	0.0140638
813.505	0.0140217
813.583	0.0142604
813.661	0.0140657
813.739	0.0139933
813.818	0.0140980
813.896	0.0140221
813.974	0.0140121
814.052	0.0139156
814.130	0.0139068
814.208	0.0140263
814.286	0.0140015
814.364	0.0139978
814.443	0.0140941
814.521	0.0138824
814.599	0.0139037
814.677	0.0139428
814.755	0.0140228
814.833	0.0139806
814.911	0.0139882
814.989	0.0140388
815.068	0.0139423
815.146	0.0139201
815.224	0.0140391
815.302	0.0140176
815.380	0.0138889
815.458	0.0140125
815.536	0.0139509
815.614	0.0139893
815.693	0.0140738
815.771	0.0139942
815.849	0.0139336
815.927	0.0138939
816.005	0.0140160
816.083	0.0140928
816.161	0.0139053
816.239	0.0140765
816.318	0.0140743
816.396	0.0138643
816.474	0.0139986
816.552	0.0139207
816.630	0.0137832
816.708	0.0140874
816.786	0.0139932
816.864	0.0138922
816.943	0.0138467
817.021	0.0139368
817.099	0.0139613
817.177	0.0138569
817.255	0.0137276
817.333	0.0139162
817.411	0.0139826
817.489	0.0138046
817.568	0.0139872
817.646	0.0141659
817.724	0.0138735
817.802	0.0141103
817.880	0.0142171
817.958	0.0142158
818.036	0.0143973
818.114	0.0144746
818.193	0.0145368
818.271	0.0145506
818.349	0.0143739
818.427	0.0145494
818.505	0.0145899
818.583	0.0145228
818.661	0.0142896
818.739	0.0141895
818.818	0.0143745
818.896	0.0142230
818.974	0.0141695
819.052	0.0139774
819.130	0.0139964
819.208	0.0138432
819.286	0.0138535
819.364	0.0138501
819.443	0.0139030
819.521	0.0138123
819.599	0.0138918
819.677	0.0138522
819.755	0.0139849
819.833	0.0138470
819.911	0.0140122
819.989	0.0139151
820.068	0.0138313
820.146	0.0139200
820.224	0.0140900
820.302	0.0139973
820.380	0.0138850
820.458	0.0139114
820.536	0.0139395
820.614	0.0138544
820.693	0.0138319
820.771	0.0137768
820.849	0.0136793
820.927	0.0137530
821.005	0.0137207
821.083	0.0135388
821.161	0.0135939
821.239	0.0136954
821.318	0.0136852
821.396	0.0136543
821.474	0.0136216
821.552	0.0136910
821.630	0.0138072
821.708	0.0136259
821.786	0.0137092
821.864	0.0138715
821.943	0.0137402
822.021	0.0137383
822.099	0.0138402
822.177	0.0139382
822.255	0.0139719
822.333	0.0137865
822.411	0.0140188
822.489	0.0140205
822.568	0.0139202
822.646	0.0140612
822.724	0.0140888
822.802	0.0138442
822.880	0.0139484
822.958	0.0139252
823.036	0.0138727
823.114	0.0138751
823.193	0.0139269
823.271	0.0139103
823.349	0.0138470
823.427	0.0138719
823.505	0.0139400
823.583	0.0138413
823.661	0.0138879
823.739	0.0138363
823.818	0.0138010
823.896	0.0138441
823.974	0.0138705
824.052	0.0139243
824.130	0.0138106
824.208	0.0138612
824.286	0.0137065
824.364	0.0138742
824.443	0.0140218
824.521	0.0140347
824.599	0.0140410
824.677	0.0141934
824.755	0.0144243
824.833	0.0144374
824.911	0.0144116
824.989	0.0144757
825.068	0.0145956
825.146	0.0146156
825.224	0.0144484
825.302	0.0146148
825.380	0.0145693
825.458	0.0146616
825.536	0.0145945
825.614	0.0143520
825.693	0.0144357
825.771	0.0142412
825.849	0.0139832
825.927	0.0139651
826.005	0.0138723
826.083	0.0137377
826.161	0.0136037
826.239	0.0136396
826.318	0.0136475
826.396	0.0134641
826.474	0.0134693
826.552	0.0133839
826.630	0.0132623
826.708	0.0133815
826.786	0.0134135
826.864	0.0134364
826.943	0.0134196
827.021	0.0136353
827.099	0.0135693
827.177	0.0136705
827.255	0.0138831
827.333	0.0138235
827.411	0.0137868
827.489	0.0139091
827.568	0.0140889
827.646	0.0141978
827.724	0.0142844
827.802	0.0142990
827.880	0.0143649
827.958	0.0143878
828.036	0.0144143
828.114	0.0145332
828.193	0.0147029
828.271	0.0145889
828.349	0.0145073
828.427	0.0145069
828.505	0.0145703
828.583	0.0146229
828.661	0.0144744
828.739	0.0145630
828.818	0.0143787
828.896	0.0143031
828.974	0.0141799
829.052	0.0140438
829.130	0.0139671
829.208	0.0138438
829.286	0.0137668
829.364	0.0137265
829.443	0.0137563
829.521	0.0135947
829.599	0.0134679
829.677	0.0136160
829.755	0.0135225
829.833	0.0135373
829.911	0.0136465
829.989	0.0133812
830.068	0.0135364
830.146	0.0137216
830.224	0.0137769
830.302	0.0137071
830.380	0.0138546
830.458	0.0138935
830.536	0.0138609
830.614	0.0138262
830.693	0.0138541
830.771	0.0139709
830.849	0.0138688
830.927	0.0140060
831.005	0.0140483
831.083	0.0139059
831.161	0.0139832
831.239	0.0140042
831.318	0.0139339
831.396	0.0138810
831.474	0.0139218
831.552	0.0141126
831.630	0.0141273
831.708	0.0139768
831.786	0.0140745
831.864	0.0141846
831.943	0.0140323
832.021	0.0139952
832.099	0.0140121
832.177	0.0141482
832.255	0.0141431
832.333	0.0142232
832.411	0.0140827
832.489	0.0139460
832.568	0.0140321
832.646	0.0139645
832.724	0.0139725
832.802	0.0139851
832.880	0.0138553
832.958	0.0136768
833.036	0.0136872
833.114	0.0136703
833.193	0.0138207
833.271	0.0136940
833.349	0.0137360
833.427	0.0137513
833.505	0.0137489
833.583	0.0137393
833.661	0.0138391
833.739	0.0136893
833.818	0.0136592
833.896	0.0137215
833.974	0.0136983
834.052	0.0137103
834.130	0.0136109
834.208	0.0137373
834.286	0.0138702
834.364	0.0137900
834.443	0.0137223
834.521	0.0136758
834.599	0.0137890
834.677	0.0138830
834.755	0.0139206
834.833	0.0139474
834.911	0.0140845
834.989	0.0139457
835.068	0.0140395
835.146	0.0142603
835.224	0.0142284
835.302	0.0143657
835.380	0.0143709
835.458	0.0142909
835.536	0.0144585
835.614	0.0143484
835.693	0.0143974
835.771	0.0144742
835.849	0.0146343
835.927	0.0145573
836.005	0.0146795
836.083	0.0145752
836.161	0.0145673
836.239	0.0145635
836.318	0.0143970
836.396	0.0143333
836.474	0.0143136
836.552	0.0142748
836.630	0.0142374
836.708	0.0140913
836.786	0.0140447
836.864	0.0137776
836.943	0.0138480
837.021	0.0137766
837.099	0.0138209
837.177	0.0137387
837.255	0.0136954
837.333	0.0136030
837.411	0.0135770
837.489	0.0136710
837.568	0.0136185
837.646	0.0133534
837.724	0.0134288
837.802	0.0135243
837.880	0.0134984
837.958	0.0134563
838.036	0.0134928
838.114	0.0136713
838.193	0.0135355
838.271	0.0135671
838.349	0.0136672
838.427	0.0136523
838.505	0.0138415
838.583	0.0137815
838.661	0.0139100
838.739	0.0139536
838.818	0.0140539
838.896	0.0140276
838.974	0.0140434
839.052	0.0142940
839.130	0.0140932
839.208	0.0140948
839.286	0.0142664
839.364	0.0142082
839.443	0.0139496
839.521	0.0139613
839.599	0.0140022
839.677	0.0140588
839.755	0.0140779
839.833	0.0140887
839.911	0.0140779
839.989	0.0140850
840.068	0.0142770
840.146	0.0141618
840.224	0.0142550
840.302	0.0143323
840.380	0.0142818
840.458	0.0142645
840.536	0.0144338
840.614	0.0142171
840.693	0.0142232
840.771	0.0143466
840.849	0.0143169
840.927	0.0144448
841.005	0.0143021
841.083	0.0142104
841.161	0.0142492
841.239	0.0141216
841.318	0.0139257
841.396	0.0139328
841.474	0.0140803
841.552	0.0139343
841.630	0.0138470
841.708	0.0137209
841.786	0.0136993
841.864	0.0137207
841.943	0.0137649
842.021	0.0137422
842.099	0.0138759
842.177	0.0136303
842.255	0.0137025
842.333	0.0136337
842.411	0.0138819
842.489	0.0139217
842.568	0.0138239
842.646	0.0138503
842.724	0.0139896
842.802	0.0140646
842.880	0.0140583
842.958	0.0140369
843.036	0.0139571
843.114	0.0140702
843.193	0.0138802
843.271	0.0141650
843.349	0.0140453
843.427	0.0140653
843.505	0.0138647
843.583	0.0138047
843.661	0.0139629
843.739	0.0140356
843.818	0.0138847
843.896	0.0138356
843.974	0.0138490
844.052	0.0137209
844.130	0.0136816
844.208	0.0137189
844.286	0.0138011
844.364	0.0137975
844.443	0.0137305
844.521	0.0137991
844.599	0.0138161
844.677	0.0137096
844.755	0.0138597
844.833	0.0139026
844.911	0.0139825
844.989	0.0140001
845.068	0.0140351
845.146	0.0140163
845.224	0.0139016
845.302	0.0141578
845.380	0.0141592
845.458	0.0141400
845.536	0.0141345
845.614	0.0142497
845.693	0.0142114
845.771	0.0141151
845.849	0.0141971
845.927	0.0142154
846.005	0.0141554
846.083	0.0140084
846.161	0.0140495
846.239	0.0140907
846.318	0.0140331
846.396	0.0139463
846.474	0.0141022
846.552	0.0137907
846.630	0.0137302
846.708	0.0137863
846.786	0.0138267
846.864	0.0138477
846.943	0.0137417
847.021	0.0137159
847.099	0.0137177
847.177	0.0137853
847.255	0.0138194
847.333	0.0138724
847.411	0.0137666
847.489	0.0138009
847.568	0.0138718
847.646	0.0138359
847.724	0.0139627
847.802	0.0140893
847.880	0.0139928
847.958	0.0141235
848.036	0.0140423
848.114	0.0142786
848.193	0.0141496
848.271	0.0141019
848.349	0.0141456
848.427	0.0140781
848.505	0.0140771
848.583	0.0140739
848.661	0.0140280
848.739	0.0139912
848.818	0.0140675
848.896	0.0140439
848.974	0.0139233
849.052	0.0139069
849.130	0.0139590
849.208	0.0140332
849.286	0.0140280
849.364	0.0139995
849.443	0.0141364
849.521	0.0141245
849.599	0.0140443
849.677	0.0139902
849.755	0.0139865
849.833	0.0140069
849.911	0.0140444
849.989	0.0137691
850.068	0.0137656
850.146	0.0138131
850.224	0.0137860
850.302	0.0137118
850.380	0.0138332
850.458	0.0138287
850.536	0.0136735
850.614	0.0138017
850.693	0.0138976
850.771	0.0139994
850.849	0.0137869
850.927	0.0140417
851.005	0.0140443
851.083	0.0141760
851.161	0.0143177
851.239	0.0142772
851.318	0.0142287
851.396	0.0143092
851.474	0.0142858
851.552	0.0142661
851.630	0.0144022
851.708	0.0141707
851.786	0.0142739
851.864	0.0142038
851.943	0.0143001
852.021	0.0140957
852.099	0.0141266
852.177	0.0141551
852.255	0.0140513
852.333	0.0140618
852.411	0.0140771
852.489	0.0139256
852.568	0.0139831
852.646	0.0138932
852.724	0.0139181
852.802	0.0139714
852.880	0.0137392
852.958	0.0138493
853.036	0.0137973
853.114	0.0137015
853.193	0.0137355
853.271	0.0137871
853.349	0.0138208
853.427	0.0135495
853.505	0.0136540
853.583	0.0137119
853.661	0.0137199
853.739	0.0136147
853.818	0.0137965
853.896	0.0137994
853.974	0.0140661
854.052	0.0140020
854.130	0.0140399
854.208	0.0141005
854.286	0.0139453
854.364	0.0140483
854.443	0.0141315
854.521	0.0141812
854.599	0.0140051
854.677	0.0141824
854.755	0.0140841
854.833	0.0139930
854.911	0.0140406
854.989	0.0140434
855.068	0.0139289
855.146	0.0138123
855.224	0.0137897
855.302	0.0138337
855.380	0.0136554
855.458	0.0137849
855.536	0.0136723
855.614	0.0137508
855.693	0.0136561
855.771	0.0137029
855.849	0.0136124
855.927	0.0138490
856.005	0.0138142
856.083	0.0139069
856.161	0.0138831
856.239	0.0139102
856.318	0.0138837
856.396	0.0139314
856.474	0.0142135
856.552	0.0140779
856.630	0.0139104
856.708	0.0140441
856.786	0.0141895
856.864	0.0141675
856.943	0.0139812
857.021	0.0141066
857.099	0.0139057
857.177	0.0138998
857.255	0.0138196
857.333	0.0138941
857.411	0.0138525
857.489	0.0139326
857.568	0.0138847
857.646	0.0139252
857.724	0.0136905
857.802	0.0138526
857.880	0.0138033
857.958	0.0138548
858.036	0.0138590
858.114	0.0138161
858.193	0.0138741
858.271	0.0138969
858.349	0.0139162
858.427	0.0137902
858.505	0.0140058
858.583	0.0140122
858.661	0.0139114
858.739	0.0141328
858.818	0.0140534
858.896	0.0142278
858.974	0.0142615
859.052	0.0141923
859.130	0.0141376
859.208	0.0141823
859.286	0.0143011
859.364	0.0142959
859.443	0.0142198
859.521	0.0140813
859.599	0.0141370
859.677	0.0141212
859.755	0.0139966
859.833	0.0140206
859.911	0.0139545
859.989	0.0139122
860.068	0.0138145
860.146	0.0138417
860.224	0.0137508
860.302	0.0137516
860.380	0.0136241
860.458	0.0136085
860.536	0.0136330
860.614	0.0136329
860.693	0.0138292
860.771	0.0138127
860.849	0.0138240
860.927	0.0138327
861.005	0.0138932
861.083	0.0139338
861.161	0.0139574
861.239	0.0140260
861.318	0.0139833
861.396	0.0140873
861.474	0.0142262
861.552	0.0142220
861.630	0.0142522
861.708	0.0142777
861.786	0.0142929
861.864	0.0141147
861.943	0.0141641
862.021	0.0141586
862.099	0.0140687
862.177	0.0141541
862.255	0.0140469
862.333	0.0139501
862.411	0.0138761
862.489	0.0139252
862.568	0.0139262
862.646	0.0138972
862.724	0.0140314
862.802	0.0139247
862.880	0.0137691
862.958	0.0139584
863.036	0.0140849
863.114	0.0140657
863.193	0.0140953
863.271	0.0142532
863.349	0.0142091
863.427	0.0142468
863.505	0.0143389
863.583	0.0143636
863.661	0.0143128
863.739	0.0142912
863.818	0.0141014
863.896	0.0143929
863.974	0.0146176
864.052	0.0141615
864.130	0.0142748
864.208	0.0143017
864.286	0.0142168
864.364	0.0141805
864.443	0.0142392
864.521	0.0140060
864.599	0.0141380
864.677	0.0138311
864.755	0.0137621
864.833	0.0137596
864.911	0.0136794
864.989	0.0136398
865.068	0.0135741
865.146	0.0136945
865.224	0.0135478
865.302	0.0136671
865.380	0.0134935
865.458	0.0137119
865.536	0.0136349
865.614	0.0137650
865.693	0.0136149
865.771	0.0136776
865.849	0.0137479
865.927	0.0137979
866.005	0.0138701
866.083	0.0139664
866.161	0.0140569
866.239	0.0140786
866.318	0.0141274
866.396	0.0141002
866.474	0.0141329
866.552	0.0141615
866.630	0.0141653
866.708	0.0141284
866.786	0.0141552
866.864	0.0141198
866.943	0.0140504
867.021	0.0140977
867.099	0.0138648
867.177	0.0140099
867.255	0.0141000
867.333	0.0140932
867.411	0.0139381
867.489	0.0140099
867.568	0.0139977
867.646	0.0141029
867.724	0.0140896
867.802	0.0141215
867.880	0.0140384
867.958	0.0140707
868.036	0.0141690
868.114	0.0141393
868.193	0.0142686
868.271	0.0142521
868.349	0.0143412
868.427	0.0142087
868.505	0.0141209
868.583	0.0140426
868.661	0.0141375
868.739	0.0141339
868.818	0.0139899
868.896	0.0142667
868.974	0.0140398
869.052	0.0139349
869.130	0.0139914
869.208	0.0138924
869.286	0.0140395
869.364	0.0139219
869.443	0.0139202
869.521	0.0139287
869.599	0.0139998
869.677	0.0139737
869.755	0.0138444
869.833	0.0139104
869.911	0.0139722
869.989	0.0139436
870.068	0.0141087
870.146	0.0139660
870.224	0.0139520
870.302	0.0139431
870.380	0.0140331
870.458	0.0140285
870.536	0.0139653
870.614	0.0140006
870.693	0.0139909
870.771	0.0141441
870.849	0.0140170
870.927	0.0139863
871.005	0.0140871
871.083	0.0141228
871.161	0.0139555
871.239	0.0140148
871.318	0.0139619
871.396	0.0141447
871.474	0.0141473
871.552	0.0142194
871.630	0.0142790
871.708	0.0141921
871.786	0.0142345
871.864	0.0142151
871.943	0.0141383
872.021	0.0141921
872.099	0.0142990
872.177	0.0142934
872.255	0.0141733
872.333	0.0142043
872.411	0.0141388
872.489	0.0139690
872.568	0.0140421
872.646	0.0139095
872.724	0.0138939
872.802	0.0138657
872.880	0.0138116
872.958	0.0138069
873.036	0.0138160
873.114	0.0136851
873.193	0.0136249
873.271	0.0137140
873.349	0.0137048
873.427	0.0135426
873.505	0.0136349
873.583	0.0135031
873.661	0.0135703
873.739	0.0137793
873.818	0.0136253
873.896	0.0137205
873.974	0.0138314
874.052	0.0135668
874.130	0.0137124
874.208	0.0137029
874.286	0.0139159
874.364	0.0138195
874.443	0.0140096
874.521	0.0139444
874.599	0.0139786
874.677	0.0139931
874.755	0.0141005
874.833	0.0141299
874.911	0.0140785
874.989	0.0142294
875.068	0.0140347
875.146	0.0141965
875.224	0.0141939
875.302	0.0141120
875.380	0.0140682
875.458	0.0141178
875.536	0.0140101
875.614	0.0140498
875.693	0.0140243
875.771	0.0140669
875.849	0.0140374
875.927	0.0139018
876.005	0.0139003
876.083	0.0138988
876.161	0.0138058
876.239	0.0138981
876.318	0.0138743
876.396	0.0138403
876.474	0.0138810
876.552	0.0138248
876.630	0.0138842
876.708	0.0140434
876.786	0.0139466
876.864	0.0140245
876.943	0.0140132
877.021	0.0140829
877.099	0.0141293
877.177	0.0142630
877.255	0.0141970
877.333	0.0141630
877.411	0.0141154
877.489	0.0142403
877.568	0.0142701
877.646	0.0141753
877.724	0.0141589
877.802	0.0140488
877.880	0.0141482
877.958	0.0140400
878.036	0.0140855
878.114	0.0139123
878.193	0.0138958
878.271	0.0137785
878.349	0.0137452
878.427	0.0138859
878.505	0.0137963
878.583	0.0138096
878.661	0.0138371
878.739	0.0137531
878.818	0.0137877
878.896	0.0138583
878.974	0.0138731
879.052	0.0139454
879.130	0.0139609
879.208	0.0139312
879.286	0.0139671
879.364	0.0139469
879.443	0.0140849
879.521	0.0141479
879.599	0.0141438
879.677	0.0140384
879.755	0.0141013
879.833	0.0141594
879.911	0.0142050
879.989	0.0142342
880.068	0.0141534
880.146	0.0141079
880.224	0.0139948
880.302	0.0140858
880.380	0.0140918
880.458	0.0141133
880.536	0.0141067
880.614	0.0140453
880.693	0.0139648
880.771	0.0140617
880.849	0.0139817
880.927	0.0140807
881.005	0.0139838
881.083	0.0138720
881.161	0.0140290
881.239	0.0139323
881.318	0.0140079
881.396	0.0140028
881.474	0.0139042
881.552	0.0140163
881.630	0.0139674
881.708	0.0140195
881.786	0.0139267
881.864	0.0140772
881.943	0.0140956
882.021	0.0141232
882.099	0.0141342
882.177	0.0140176
882.255	0.0140505
882.333	0.0141345
882.411	0.0141388
882.489	0.0139588
882.568	0.0140752
882.646	0.0141204
882.724	0.0142474
882.802	0.0141615
882.880	0.0141393
882.958	0.0141637
883.036	0.0141461
883.114	0.0140426
883.193	0.0141439
883.271	0.0140921
883.349	0.0140399
883.427	0.0140536
883.505	0.0141414
883.583	0.0140255
883.661	0.0139666
883.739	0.0138517
883.818	0.0140367
883.896	0.0139666
883.974	0.0139989
884.052	0.0140305
884.130	0.0140337
884.208	0.0141151
884.286	0.0139578
884.364	0.0139682
884.443	0.0141199
884.521	0.0140584
884.599	0.0139231
884.677	0.0140506
884.755	0.0141755
884.833	0.0141589
884.911	0.0140011
884.989	0.0141160
885.068	0.0143497
885.146	0.0142561
885.224	0.0142293
885.302	0.0141416
885.380	0.0141375
885.458	0.0142057
885.536	0.0142236
885.614	0.0142747
885.693	0.0142629
885.771	0.0141818
885.849	0.0140238
885.927	0.0139438
886.005	0.0138937
886.083	0.0140308
886.161	0.0139820
886.239	0.0141106
886.318	0.0138457
886.396	0.0138968
886.474	0.0140767
886.552	0.0140147
886.630	0.0139788
886.708	0.0141068
886.786	0.0140291
886.864	0.0140093
886.943	0.0139898
887.021	0.0141891
887.099	0.0142033
887.177	0.0142094
887.255	0.0142370
887.333	0.0142670
887.411	0.0140739
887.489	0.0142666
887.568	0.0141143
887.646	0.0141873
887.724	0.0142280
887.802	0.0141834
887.880	0.0140275
887.958	0.0141991
888.036	0.0141817
888.114	0.0141122
888.193	0.0139665
888.271	0.0140246
888.349	0.0140572
888.427	0.0139273
888.505	0.0139143
888.583	0.0138980
888.661	0.0138596
888.739	0.0138175
888.818	0.0139763
888.896	0.0138700
888.974	0.0137912
889.052	0.0138649
889.130	0.0138634
889.208	0.0140706
889.286	0.0138307
889.364	0.0139339
889.443	0.0140945
889.521	0.0139969
889.599	0.0139687
889.677	0.0140179
889.755	0.0140738
889.833	0.0140285
889.911	0.0139384
889.989	0.0138834
890.068	0.0139310
890.146	0.0138626
890.224	0.0139924
890.302	0.0141078
890.380	0.0140600
890.458	0.0141379
890.536	0.0139913
890.614	0.0141544
890.693	0.0140742
890.771	0.0139673
890.849	0.0139912
890.927	0.0140688
891.005	0.0139633
891.083	0.0138244
891.161	0.0139173
891.239	0.0138568
891.318	0.0138903
891.396	0.0139030
891.474	0.0138041
891.552	0.0138456
891.630	0.0138500
891.708	0.0137830
891.786	0.0137864
891.864	0.0139751
891.943	0.0137692
892.021	0.0139762
892.099	0.0139523
892.177	0.0139382
892.255	0.0138770
892.333	0.0139324
892.411	0.0140700
892.489	0.0140152
892.568	0.0138892
892.646	0.0139352
892.724	0.0141672
892.802	0.0139500
892.880	0.0141237
892.958	0.0140137
893.036	0.0140166
893.114	0.0141219
893.193	0.0141328
893.271	0.0140644
893.349	0.0139869
893.427	0.0142004
893.505	0.0141025
893.583	0.0140205
893.661	0.0140366
893.739	0.0140531
893.818	0.0141263
893.896	0.0141136
893.974	0.0140676
894.052	0.0139023
894.130	0.0140586
894.208	0.0139780
894.286	0.0139556
894.364	0.0139862
894.443	0.0139784
894.521	0.0140157
894.599	0.0139669
894.677	0.0140578
894.755	0.0139693
894.833	0.0141344
894.911	0.0139978
894.989	0.0139249
895.068	0.0139722
895.146	0.0140601
895.224	0.0140604
895.302	0.0139731
895.380	0.0139685
895.458	0.0140130
895.536	0.0140462
895.614	0.0139970
895.693	0.0140334
895.771	0.0141982
895.849	0.0140314
895.927	0.0138749
896.005	0.0139356
896.083	0.0140241
896.161	0.0138331
896.239	0.0138136
896.318	0.0140567
896.396	0.0139144
896.474	0.0139487
896.552	0.0138465
896.630	0.0138161
896.708	0.0138823
896.786	0.0139288
896.864	0.0137569
896.943	0.0138887
897.021	0.0139816
897.099	0.0139275
897.177	0.0139325
897.255	0.0140464
897.333	0.0138364
897.411	0.0140006
897.489	0.0139750
897.568	0.0139866
897.646	0.0139002
897.724	0.0140105
897.802	0.0139558
897.880	0.0138932
897.958	0.0138960
898.036	0.0139278
898.114	0.0138735
898.193	0.0138668
898.271	0.0138760
898.349	0.0140237
898.427	0.0139445
898.505	0.0139526
898.583	0.0140211
898.661	0.0139475
898.739	0.0137868
898.818	0.0139738
898.896	0.0138963
898.974	0.0139616
899.052	0.0138537
899.130	0.0139132
899.208	0.0138924
899.286	0.0138675
899.364	0.0139117
899.443	0.0138804
899.521	0.0139664
899.599	0.0139885
899.677	0.0139474
899.755	0.0139017
899.833	0.0139886
899.911	0.0141098
899.989	0.0140487
900.068	0.0140732
900.146	0.0141315
900.224	0.0140340
900.302	0.0141151
900.380	0.0140674
900.458	0.0140515
900.536	0.0140835
900.614	0.0140977
900.693	0.0140871
900.771	0.0141331
900.849	0.0141126
900.927	0.0140061
901.005	0.0139204
901.083	0.0140648
901.161	0.0140092
901.239	0.0139066
901.318	0.0139277
901.396	0.0140048
901.474	0.0140852
901.552	0.0140605
901.630	0.0140012
901.708	0.0140436
901.786	0.0140963
901.864	0.0140538
901.943	0.0141354
902.021	0.0139959
902.099	0.0139595
902.177	0.0139695
902.255	0.0141071
902.333	0.0139445
902.411	0.0138149
902.489	0.0138797
902.568	0.0139808
902.646	0.0139323
902.724	0.0139682
902.802	0.0138492
902.880	0.0138906
902.958	0.0138155
903.036	0.0138341
903.114	0.0138988
903.193	0.0139526
903.271	0.0137648
903.349	0.0137542
903.427	0.0137901
903.505	0.0138080
903.583	0.0138118
903.661	0.0138674
903.739	0.0139478
903.818	0.0138330
903.896	0.0137995
903.974	0.0137663
904.052	0.0138081
904.130	0.0137344
904.208	0.0138212
904.286	0.0139241
904.364	0.0138763
904.443	0.0138422
904.521	0.0138593
904.599	0.0138435
904.677	0.0139297
904.755	0.0139374
904.833	0.0140063
904.911	0.0141052
904.989	0.0141059
905.068	0.0141320
905.146	0.0140650
905.224	0.0141256
905.302	0.0141580
905.380	0.0141605
905.458	0.0141338
905.536	0.0141389
905.614	0.0140432
905.693	0.0141245
905.771	0.0141119
905.849	0.0140620
905.927	0.0141392
906.005	0.0140922
906.083	0.0140057
906.161	0.0143140
906.239	0.0140111
906.318	0.0140715
906.396	0.0139317
906.474	0.0141217
906.552	0.0140771
906.630	0.0142098
906.708	0.0141158
906.786	0.0141128
906.864	0.0139393
906.943	0.0140335
907.021	0.0140205
907.099	0.0139717
907.177	0.0140116
907.255	0.0139522
907.333	0.0140269
907.411	0.0139306
907.489	0.0141159
907.568	0.0140717
907.646	0.0141250
907.724	0.0139458
907.802	0.0139536
907.880	0.0140414
907.958	0.0139105
908.036	0.0139848
908.114	0.0139706
908.193	0.0139071
908.271	0.0140018
908.349	0.0139369
908.427	0.0139350
908.505	0.0140325
908.583	0.0139685
908.661	0.0138969
908.739	0.0139217
908.818	0.0138547
908.896	0.0138620
908.974	0.0139108
909.052	0.0138217
909.130	0.0139538
909.208	0.0138430
909.286	0.0138545
909.364	0.0138133
909.443	0.0140300
909.521	0.0138935
909.599	0.0140356
909.677	0.0138731
909.755	0.0140120
909.833	0.0139641
909.911	0.0139030
909.989	0.0140953
910.068	0.0139784
910.146	0.0140265
910.224	0.0141271
910.302	0.0140541
910.380	0.0140136
910.458	0.0139857
910.536	0.0140344
910.614	0.0140982
910.693	0.0142432
910.771	0.0139965
910.849	0.0141171
910.927	0.0140835
911.005	0.0139492
911.083	0.0139365
911.161	0.0140597
911.239	0.0140852
911.318	0.0140934
911.396	0.0140499
911.474	0.0140265
911.552	0.0140667
911.630	0.0140274
911.708	0.0140902
911.786	0.0140985
911.864	0.0140897
911.943	0.0139462
912.021	0.0139416
912.099	0.0140890
912.177	0.0140887
912.255	0.0141469
912.333	0.0140711
912.411	0.0140133
912.489	0.0139861
912.568	0.0141243
912.646	0.0139843
912.724	0.0140323
912.802	0.0140887
912.880	0.0139680
912.958	0.0140567
913.036	0.0139132
913.114	0.0138978
913.193	0.0138700
913.271	0.0140486
913.349	0.0139046
913.427	0.0139651
913.505	0.0138984
913.583	0.0138860
913.661	0.0138901
913.739	0.0139125
913.818	0.0140001
913.896	0.0139085
913.974	0.0139359
914.052	0.0138432
914.130	0.0139309
914.208	0.0138508
914.286	0.0138812
914.364	0.0138258
914.443	0.0138525
914.521	0.0139270
914.599	0.0139982
914.677	0.0140145
914.755	0.0137623
914.833	0.0138940
914.911	0.0139809
914.989	0.0140856
915.068	0.0140594
915.146	0.0139580
915.224	0.0141293
915.302	0.0141566
915.380	0.0141006
915.458	0.0140364
915.536	0.0141458
915.614	0.0142078
915.693	0.0141745
915.771	0.0141929
915.849	0.0142867
915.927	0.0142072
916.005	0.0140115
916.083	0.0140566
916.161	0.0141377
916.239	0.0141233
916.318	0.0142564
916.396	0.0141487
916.474	0.0139868
916.552	0.0140347
916.630	0.0141642
916.708	0.0140025
916.786	0.0139677
916.864	0.0141013
916.943	0.0141543
917.021	0.0139587
917.099	0.0141247
917.177	0.0138916
917.255	0.0139404
917.333	0.0138992
917.411	0.0139253
917.489	0.0137535
917.568	0.0138152
917.646	0.0138964
917.724	0.0137560
917.802	0.0138099
917.880	0.0138039
917.958	0.0138639
918.036	0.0138678
918.114	0.0139202
918.193	0.0137310
918.271	0.0138731
918.349	0.0137582
918.427	0.0139722
918.505	0.0138645
918.583	0.0139635
918.661	0.0141109
918.739	0.0139568
918.818	0.0140327
918.896	0.0139509
918.974	0.0141734
919.052	0.0139935
919.130	0.0139075
919.208	0.0139316
919.286	0.0138596
919.364	0.0139837
919.443	0.0140074
919.521	0.0140240
919.599	0.0138451
919.677	0.0139641
919.755	0.0139679
919.833	0.0139850
919.911	0.0139466
919.989	0.0139501
920.068	0.0139291
920.146	0.0141576
920.224	0.0139236
920.302	0.0139994
920.380	0.0140110
920.458	0.0141264
920.536	0.0141856
920.614	0.0140804
920.693	0.0141166
920.771	0.0140855
920.849	0.0141610
920.927	0.0141898
921.005	0.0140572
921.083	0.0140076
921.161	0.0138206
921.239	0.0139252
921.318	0.0139702
921.396	0.0138327
921.474	0.0137995
921.552	0.0139236
921.630	0.0138957
921.708	0.0137391
921.786	0.0139064
921.864	0.0138893
921.943	0.0138280
922.021	0.0137671
922.099	0.0138221
922.177	0.0137675
922.255	0.0138223
922.333	0.0138721
922.411	0.0137528
922.489	0.0137354
922.568	0.0139586
922.646	0.0138405
922.724	0.0137973
922.802	0.0138971
922.880	0.0139415
922.958	0.0138889
923.036	0.0138309
923.114	0.0140027
923.193	0.0138936
923.271	0.0138300
923.349	0.0139586
923.427	0.0139558
923.505	0.0138767
923.583	0.0139846
923.661	0.0140505
923.739	0.0141103
923.818	0.0140665
923.896	0.0140536
923.974	0.0141095
924.052	0.0139321
924.130	0.0140800
924.208	0.0140524
924.286	0.0142091
924.364	0.0141508
924.443	0.0139711
924.521	0.0139849
924.599	0.0140633
924.677	0.0140809
924.755	0.0140806
924.833	0.0140138
924.911	0.0140553
924.989	0.0140572
925.068	0.0140844
925.146	0.0141112
925.224	0.0140015
925.302	0.0138746
925.380	0.0140145
925.458	0.0139066
925.536	0.0139141
925.614	0.0140542
925.693	0.0138725
925.771	0.0139008
925.849	0.0138959
925.927	0.0138445
926.005	0.0138789
926.083	0.0138596
926.161	0.0138387
926.239	0.0138998
926.318	0.0139412
926.396	0.0139620
926.474	0.0138230
926.552	0.0137231
926.630	0.0138475
926.708	0.0137460
926.786	0.0137866
926.864	0.0140406
926.943	0.0139902
927.021	0.0138406
927.099	0.0141026
927.177	0.0139468
927.255	0.0139823
927.333	0.0139702
927.411	0.0139915
927.489	0.0140976
927.568	0.0140269
927.646	0.0141943
927.724	0.0141291
927.802	0.0140701
927.880	0.0141185
927.958	0.0140195
928.036	0.0140285
928.114	0.0141512
928.193	0.0140568
928.271	0.0140031
928.349	0.0141061
928.427	0.0139239
928.505	0.0140644
928.583	0.0139582
928.661	0.0138882
928.739	0.0140600
928.818	0.0140716
928.896	0.0139624
928.974	0.0139645
929.052	0.0141587
929.130	0.0140691
929.208	0.0140060
929.286	0.0140243
929.364	0.0140726
929.443	0.0140324
929.521	0.0140381
929.599	0.0138847
929.677	0.0140013
929.755	0.0140299
929.833	0.0139561
929.911	0.0139124
929.989	0.0140742
930.068	0.0138710
930.146	0.0138652
930.224	0.0139532
930.302	0.0139245
930.380	0.0137866
930.458	0.0138630
930.536	0.0139846
930.614	0.0139023
930.693	0.0140177
930.771	0.0139349
930.849	0.0138767
930.927	0.0139436
931.005	0.0139658
931.083	0.0139374
931.161	0.0139115
931.239	0.0139150
931.318	0.0140181
931.396	0.0139851
931.474	0.0139651
931.552	0.0139594
931.630	0.0138396
931.708	0.0138239
931.786	0.0137968
931.864	0.0137850
931.943	0.0138715
932.021	0.0138439
932.099	0.0138615
932.177	0.0139487
932.255	0.0138134
932.333	0.0137576
932.411	0.0138130
932.489	0.0137736
932.568	0.0138300
932.646	0.0138099
932.724	0.0138613
932.802	0.0138436
932.880	0.0137415
932.958	0.0138734
933.036	0.0137808
933.114	0.0137932
933.193	0.0136987
933.271	0.0138077
933.349	0.0136761
933.427	0.0137047
933.505	0.0136284
933.583	0.0137183
933.661	0.0136399
933.739	0.0137096
933.818	0.0137221
933.896	0.0136366
933.974	0.0135828
934.052	0.0138216
934.130	0.0136793
934.208	0.0135996
934.286	0.0137875
934.364	0.0138133
934.443	0.0136911
934.521	0.0139236
934.599	0.0137413
934.677	0.0137115
934.755	0.0138742
934.833	0.0138484
934.911	0.0138351
934.989	0.0138766
935.068	0.0140270
935.146	0.0137508
935.224	0.0137774
935.302	0.0139198
935.380	0.0139220
935.458	0.0139907
935.536	0.0140871
935.614	0.0139742
935.693	0.0139494
935.771	0.0140936
935.849	0.0140514
935.927	0.0140656
936.005	0.0139892
936.083	0.0141396
936.161	0.0141713
936.239	0.0140350
936.318	0.0141492
936.396	0.0142369
936.474	0.0141677
936.552	0.0141167
936.630	0.0141815
936.708	0.0142137
936.786	0.0142197
936.864	0.0140246
936.943	0.0139677
937.021	0.0141421
937.099	0.0140975
937.177	0.0140704
937.255	0.0140007
937.333	0.0139297
937.411	0.0140786
937.489	0.0140676
937.568	0.0140967
937.646	0.0139355
937.724	0.0138916
937.802	0.0139065
937.880	0.0139069
937.958	0.0140073
938.036	0.0140110
938.114	0.0138121
938.193	0.0138834
938.271	0.0139735
938.349	0.0140236
938.427	0.0139548
938.505	0.0139159
938.583	0.0139104
938.661	0.0139154
938.739	0.0139528
938.818	0.0139214
938.896	0.0138679
938.974	0.0139825
939.052	0.0141200
939.130	0.0139397
939.208	0.0139598
939.286	0.0139951
939.364	0.0140370
939.443	0.0140449
939.521	0.0140968
939.599	0.0140146
939.677	0.0140524
939.755	0.0140725
939.833	0.0140434
939.911	0.0140498
939.989	0.0140331
940.068	0.0139471
940.146	0.0139338
940.224	0.0139678
940.302	0.0140675
940.380	0.0142348
940.458	0.0139249
940.536	0.0139983
940.614	0.0140243
940.693	0.0140160
940.771	0.0139523
940.849	0.0140426
940.927	0.0141204
941.005	0.0141600
941.083	0.0139330
941.161	0.0140668
941.239	0.0141669
941.318	0.0141250
941.396	0.0140993
941.474	0.0140370
941.552	0.0140457
941.630	0.0140846
941.708	0.0141510
941.786	0.0140668
941.864	0.0140663
941.943	0.0142094
942.021	0.0140530
942.099	0.0140021
942.177	0.0141142
942.255	0.0140465
942.333	0.0139883
942.411	0.0140762
942.489	0.0141728
942.568	0.0141122
942.646	0.0140843
942.724	0.0141916
942.802	0.0140896
942.880	0.0141380
942.958	0.0142069
943.036	0.0140877
943.114	0.0141245
943.193	0.0139730
943.271	0.0140936
943.349	0.0140536
943.427	0.0140096
943.505	0.0140495
943.583	0.0140215
943.661	0.0139110
943.739	0.0139085
943.818	0.0139562
943.896	0.0138907
943.974	0.0138574
944.052	0.0137292
944.130	0.0138815
944.208	0.0139001
944.286	0.0139698
944.364	0.0139055
944.443	0.0139095
944.521	0.0139161
944.599	0.0139391
944.677	0.0138371
944.755	0.0139096
944.833	0.0139045
944.911	0.0138817
944.989	0.0139436
945.068	0.0140118
945.146	0.0137287
945.224	0.0140769
945.302	0.0138440
945.380	0.0138116
945.458	0.0139294
945.536	0.0140674
945.614	0.0139734
945.693	0.0140548
945.771	0.0139423
945.849	0.0139928
945.927	0.0140624
946.005	0.0140279
946.083	0.0139476
946.161	0.0140350
946.239	0.0141144
946.318	0.0140736
946.396	0.0142001
946.474	0.0141790
946.552	0.0140565
946.630	0.0140430
946.708	0.0139557
946.786	0.0141068
946.864	0.0138815
946.943	0.0139818
947.021	0.0141026
947.099	0.0141021
947.177	0.0139257
947.255	0.0140182
947.333	0.0139491
947.411	0.0140540
947.489	0.0139469
947.568	0.0140202
947.646	0.0139231
947.724	0.0139684
947.802	0.0139560
947.880	0.0141157
947.958	0.0140044
948.036	0.0141119
948.114	0.0140614
948.193	0.0140314
948.271	0.0140265
948.349	0.0140604
948.427	0.0141917
948.505	0.0140137
948.583	0.0139338
948.661	0.0139553
948.739	0.0138546
948.818	0.0139092
948.896	0.0139973
948.974	0.0140375
949.052	0.0138863
949.130	0.0139013
949.208	0.0139048
949.286	0.0138743
949.364	0.0139239
949.443	0.0137827
949.521	0.0137816
949.599	0.0138683
949.677	0.0138268
949.755	0.0138092
949.833	0.0139262
949.911	0.0138458
949.989	0.0137701
950.068	0.0139142
950.146	0.0138307
950.224	0.0139590
950.302	0.0138980
950.380	0.0139506
950.458	0.0140213
950.536	0.0139317
950.614	0.0139607
950.693	0.0139701
950.771	0.0138253
950.849	0.0139548
950.927	0.0140762
951.005	0.0139478
951.083	0.0139954
951.161	0.0139298
951.239	0.0140266
951.318	0.0138815
951.396	0.0139091
951.474	0.0140109
951.552	0.0140244
951.630	0.0139491
951.708	0.0140598
951.786	0.0139049
951.864	0.0139441
951.943	0.0139834
952.021	0.0139538
952.099	0.0140347
952.177	0.0140521
952.255	0.0138902
952.333	0.0138778
952.411	0.0140329
952.489	0.0140065
952.568	0.0138960
952.646	0.0139726
952.724	0.0139398
952.802	0.0140177
952.880	0.0138894
952.958	0.0138705
953.036	0.0139354
953.114	0.0139052
953.193	0.0139356
953.271	0.0139664
953.349	0.0140251
953.427	0.0140498
953.505	0.0140213
953.583	0.0139631
953.661	0.0140429
953.739	0.0140233
953.818	0.0139190
953.896	0.0139442
953.974	0.0138747
954.052	0.0139020
954.130	0.0139558
954.208	0.0139214
954.286	0.0139603
954.364	0.0138496
954.443	0.0139499
954.521	0.0139023
954.599	0.0139357
954.677	0.0139262
954.755	0.0139108
954.833	0.0139443
954.911	0.0139978
954.989	0.0140406
955.068	0.0140364
955.146	0.0140053
955.224	0.0140159
955.302	0.0140371
955.380	0.0140184
955.458	0.0139934
955.536	0.0140540
955.614	0.0140632
955.693	0.0141004
955.771	0.0141989
955.849	0.0140081
955.927	0.0140552
956.005	0.0141441
956.083	0.0140559
956.161	0.0141049
956.239	0.0141017
956.318	0.0141730
956.396	0.0141314
956.474	0.0141463
956.552	0.0141665
956.630	0.0140228
956.708	0.0139790
956.786	0.0142771
956.864	0.0140141
956.943	0.0140752
957.021	0.0140747
957.099	0.0140646
957.177	0.0140424
957.255	0.0141091
957.333	0.0139274
957.411	0.0137595
957.489	0.0139041
957.568	0.0138921
957.646	0.0138934
957.724	0.0138278
957.802	0.0137065
957.880	0.0139125
957.958	0.0138737
958.036	0.0138289
958.114	0.0138459
958.193	0.0138540
958.271	0.0138062
958.349	0.0139450
958.427	0.0139183
958.505	0.0138296
958.583	0.0138837
958.661	0.0138931
958.739	0.0138334
958.818	0.0138129
958.896	0.0137640
958.974	0.0138474
959.052	0.0139436
959.130	0.0140512
959.208	0.0139055
959.286	0.0138347
959.364	0.0138879
959.443	0.0138888
959.521	0.0139609
959.599	0.0140205
959.677	0.0139547
959.755	0.0140784
959.833	0.0141105
959.911	0.0140524
