05/14/2022	16:53:57	Ver.	4.1	UNKNOWN
Optical Delay	639.989416	Delta X		0.078125	Sweeps	1	Scan Rate	0/0
Coordinates	Axis 1	NaN	Axis 2	NaN	Axis 3	NaN	Axis 4	NaN	Axis 5	NaN	Axis 6	0.000000
TX Power	0.000000	RX Power	0.000000

639.989	0.0139823
640.068	0.0138464
640.146	0.0137750
640.224	0.0137977
640.302	0.0139624
640.380	0.0139233
640.458	0.0138138
640.536	0.0139185
640.614	0.0138668
640.693	0.0139365
640.771	0.0139621
640.849	0.0138664
640.927	0.0140589
641.005	0.0138706
641.083	0.0137588
641.161	0.0140705
641.239	0.0140037
641.318	0.0138965
641.396	0.0138889
641.474	0.0139593
641.552	0.0138165
641.630	0.0138962
641.708	0.0138490
641.786	0.0139602
641.864	0.0139359
641.943	0.0139399
642.021	0.0139738
642.099	0.0139392
642.177	0.0139426
642.255	0.0138821
642.333	0.0139376
642.411	0.0138870
642.489	0.0138359
642.568	0.0138808
642.646	0.0138307
642.724	0.0138259
642.802	0.0139101
642.880	0.0138328
642.958	0.0138573
643.036	0.0138566
643.114	0.0140073
643.193	0.0137984
643.271	0.0138988
643.349	0.0138444
643.427	0.0138363
643.505	0.0138510
643.583	0.0139024
643.661	0.0139259
643.739	0.0138805
643.818	0.0140097
643.896	0.0138919
643.974	0.0139636
644.052	0.0139058
644.130	0.0138894
644.208	0.0136990
644.286	0.0139031
644.364	0.0138605
644.443	0.0138654
644.521	0.0138359
644.599	0.0137644
644.677	0.0138311
644.755	0.0138622
644.833	0.0138282
644.911	0.0138509
644.989	0.0138795
645.068	0.0138122
645.146	0.0138923
645.224	0.0138852
645.302	0.0138254
645.380	0.0139469
645.458	0.0138703
645.536	0.0136954
645.614	0.0137622
645.693	0.0138965
645.771	0.0138192
645.849	0.0138760
645.927	0.0139754
646.005	0.0139027
646.083	0.0137871
646.161	0.0138148
646.239	0.0138791
646.318	0.0139172
646.396	0.0138628
646.474	0.0139863
646.552	0.0139557
646.630	0.0139014
646.708	0.0139035
646.786	0.0138609
646.864	0.0138760
646.943	0.0139181
647.021	0.0137991
647.099	0.0138612
647.177	0.0139203
647.255	0.0140256
647.333	0.0138600
647.411	0.0139875
647.489	0.0138730
647.568	0.0137994
647.646	0.0139518
647.724	0.0139909
647.802	0.0138704
647.880	0.0138082
647.958	0.0138793
648.036	0.0139843
648.114	0.0138763
648.193	0.0139101
648.271	0.0137743
648.349	0.0139247
648.427	0.0139336
648.505	0.0138639
648.583	0.0139315
648.661	0.0139375
648.739	0.0139658
648.818	0.0140383
648.896	0.0140788
648.974	0.0140149
649.052	0.0139615
649.130	0.0139292
649.208	0.0141403
649.286	0.0140677
649.364	0.0139741
649.443	0.0138905
649.521	0.0138490
649.599	0.0139397
649.677	0.0140467
649.755	0.0140518
649.833	0.0139322
649.911	0.0140041
649.989	0.0139995
650.068	0.0140025
650.146	0.0139029
650.224	0.0140193
650.302	0.0140173
650.380	0.0139236
650.458	0.0138139
650.536	0.0139073
650.614	0.0138941
650.693	0.0139742
650.771	0.0140228
650.849	0.0138729
650.927	0.0138194
651.005	0.0138272
651.083	0.0141272
651.161	0.0140411
651.239	0.0139323
651.318	0.0139069
651.396	0.0139446
651.474	0.0140492
651.552	0.0139523
651.630	0.0140641
651.708	0.0139001
651.786	0.0139365
651.864	0.0139096
651.943	0.0140746
652.021	0.0140620
652.099	0.0138477
652.177	0.0139684
652.255	0.0138598
652.333	0.0140031
652.411	0.0139317
652.489	0.0139397
652.568	0.0138887
652.646	0.0138508
652.724	0.0139364
652.802	0.0140874
652.880	0.0140266
652.958	0.0139813
653.036	0.0138791
653.114	0.0139181
653.193	0.0138843
653.271	0.0138293
653.349	0.0138187
653.427	0.0140057
653.505	0.0139190
653.583	0.0139724
653.661	0.0140157
653.739	0.0140044
653.818	0.0139722
653.896	0.0138575
653.974	0.0139512
654.052	0.0139526
654.130	0.0140258
654.208	0.0139944
654.286	0.0140136
654.364	0.0139610
654.443	0.0138251
654.521	0.0138541
654.599	0.0140200
654.677	0.0139169
654.755	0.0139695
654.833	0.0139849
654.911	0.0139501
654.989	0.0138596
655.068	0.0139493
655.146	0.0140413
655.224	0.0139840
655.302	0.0139521
655.380	0.0140130
655.458	0.0139465
655.536	0.0139934
655.614	0.0141320
655.693	0.0139758
655.771	0.0140029
655.849	0.0140167
655.927	0.0140170
656.005	0.0140186
656.083	0.0139434
656.161	0.0140372
656.239	0.0139397
656.318	0.0138761
656.396	0.0139746
656.474	0.0139444
656.552	0.0139608
656.630	0.0140378
656.708	0.0138960
656.786	0.0139909
656.864	0.0138947
656.943	0.0140384
657.021	0.0139671
657.099	0.0139755
657.177	0.0141849
657.255	0.0140108
657.333	0.0140493
657.411	0.0140034
657.489	0.0140654
657.568	0.0140324
657.646	0.0139474
657.724	0.0140130
657.802	0.0139901
657.880	0.0140608
657.958	0.0141120
658.036	0.0140403
658.114	0.0140031
658.193	0.0139982
658.271	0.0139894
658.349	0.0141028
658.427	0.0141465
658.505	0.0140498
658.583	0.0141489
658.661	0.0141275
658.739	0.0140970
658.818	0.0140600
658.896	0.0138895
658.974	0.0138480
659.052	0.0139812
659.130	0.0139251
659.208	0.0138628
659.286	0.0140491
659.364	0.0140293
659.443	0.0139846
659.521	0.0140343
659.599	0.0138958
659.677	0.0140134
659.755	0.0140713
659.833	0.0139600
659.911	0.0139995
659.989	0.0140701
660.068	0.0140843
660.146	0.0140411
660.224	0.0140985
660.302	0.0140644
660.380	0.0139648
660.458	0.0139716
660.536	0.0141473
660.614	0.0138675
660.693	0.0140499
660.771	0.0141302
660.849	0.0139787
660.927	0.0140754
661.005	0.0138985
661.083	0.0139721
661.161	0.0138318
661.239	0.0139828
661.318	0.0139027
661.396	0.0139783
661.474	0.0140138
661.552	0.0139121
661.630	0.0139794
661.708	0.0137992
661.786	0.0139683
661.864	0.0138973
661.943	0.0140046
662.021	0.0140169
662.099	0.0139053
662.177	0.0139667
662.255	0.0140292
662.333	0.0141538
662.411	0.0139763
662.489	0.0139891
662.568	0.0139947
662.646	0.0139854
662.724	0.0138071
662.802	0.0137291
662.880	0.0138576
662.958	0.0137885
663.036	0.0136556
663.114	0.0135859
663.193	0.0137019
663.271	0.0137235
663.349	0.0135789
663.427	0.0137067
663.505	0.0135614
663.583	0.0136053
663.661	0.0135462
663.739	0.0135551
663.818	0.0135717
663.896	0.0136143
663.974	0.0135728
664.052	0.0137246
664.130	0.0137330
664.208	0.0138848
664.286	0.0140211
664.364	0.0139021
664.443	0.0141228
664.521	0.0142023
664.599	0.0140721
664.677	0.0143078
664.755	0.0143420
664.833	0.0143230
664.911	0.0145111
664.989	0.0144407
665.068	0.0143559
665.146	0.0144505
665.224	0.0145153
665.302	0.0145667
665.380	0.0142738
665.458	0.0143472
665.536	0.0142843
665.614	0.0142100
665.693	0.0140879
665.771	0.0139839
665.849	0.0138380
665.927	0.0136790
666.005	0.0137047
666.083	0.0135889
666.161	0.0133654
666.239	0.0134054
666.318	0.0133031
666.396	0.0131660
666.474	0.0132493
666.552	0.0131874
666.630	0.0130417
666.708	0.0128400
666.786	0.0128698
666.864	0.0130890
666.943	0.0130401
667.021	0.0129901
667.099	0.0131013
667.177	0.0131989
667.255	0.0132175
667.333	0.0134882
667.411	0.0135050
667.489	0.0137730
667.568	0.0137929
667.646	0.0138910
667.724	0.0141674
667.802	0.0143750
667.880	0.0144480
667.958	0.0146732
668.036	0.0146706
668.114	0.0148238
668.193	0.0149650
668.271	0.0149641
668.349	0.0150172
668.427	0.0151124
668.505	0.0151117
668.583	0.0151349
668.661	0.0150883
668.739	0.0149949
668.818	0.0147750
668.896	0.0148337
668.974	0.0146734
669.052	0.0144432
669.130	0.0143989
669.208	0.0142169
669.286	0.0139635
669.364	0.0137580
669.443	0.0135980
669.521	0.0134222
669.599	0.0133329
669.677	0.0131918
669.755	0.0129849
669.833	0.0128157
669.911	0.0128923
669.989	0.0128266
670.068	0.0127360
670.146	0.0127104
670.224	0.0126463
670.302	0.0126834
670.380	0.0127233
670.458	0.0128181
670.536	0.0129440
670.614	0.0130489
670.693	0.0131838
670.771	0.0133347
670.849	0.0134190
670.927	0.0136293
671.005	0.0137998
671.083	0.0139579
671.161	0.0139579
671.239	0.0141566
671.318	0.0143014
671.396	0.0143062
671.474	0.0144957
671.552	0.0147953
671.630	0.0147410
671.708	0.0149450
671.786	0.0149840
671.864	0.0149773
671.943	0.0150645
672.021	0.0151040
672.099	0.0149046
672.177	0.0149627
672.255	0.0150336
672.333	0.0149626
672.411	0.0150307
672.489	0.0147980
672.568	0.0147622
672.646	0.0146815
672.724	0.0146252
672.802	0.0145635
672.880	0.0143582
672.958	0.0141751
673.036	0.0140488
673.114	0.0140057
673.193	0.0138976
673.271	0.0137056
673.349	0.0136692
673.427	0.0133681
673.505	0.0133326
673.583	0.0133273
673.661	0.0131744
673.739	0.0131268
673.818	0.0128792
673.896	0.0128528
673.974	0.0128487
674.052	0.0127325
674.130	0.0126045
674.208	0.0125444
674.286	0.0126211
674.364	0.0125529
674.443	0.0126191
674.521	0.0126434
674.599	0.0125897
674.677	0.0126180
674.755	0.0128342
674.833	0.0129926
674.911	0.0130054
674.989	0.0131679
675.068	0.0133852
675.146	0.0133772
675.224	0.0137650
675.302	0.0137717
675.380	0.0139951
675.458	0.0140956
675.536	0.0143217
675.614	0.0145126
675.693	0.0147073
675.771	0.0149876
675.849	0.0153136
675.927	0.0154082
676.005	0.0155268
676.083	0.0155564
676.161	0.0157478
676.239	0.0158408
676.318	0.0158069
676.396	0.0158945
676.474	0.0160159
676.552	0.0158927
676.630	0.0158322
676.708	0.0158820
676.786	0.0156869
676.864	0.0156625
676.943	0.0154690
677.021	0.0152316
677.099	0.0150713
677.177	0.0148245
677.255	0.0144464
677.333	0.0143008
677.411	0.0140775
677.489	0.0137141
677.568	0.0134488
677.646	0.0131574
677.724	0.0127101
677.802	0.0125413
677.880	0.0123678
677.958	0.0120651
678.036	0.0117689
678.114	0.0116694
678.193	0.0114613
678.271	0.0113520
678.349	0.0112943
678.427	0.0113609
678.505	0.0112062
678.583	0.0113960
678.661	0.0115144
678.739	0.0117027
678.818	0.0116681
678.896	0.0119783
678.974	0.0121188
679.052	0.0125465
679.130	0.0128529
679.208	0.0130754
679.286	0.0135763
679.364	0.0137601
679.443	0.0140570
679.521	0.0144589
679.599	0.0148242
679.677	0.0150931
679.755	0.0152239
679.833	0.0157932
679.911	0.0158606
679.989	0.0161665
680.068	0.0161485
680.146	0.0163306
680.224	0.0163526
680.302	0.0165232
680.380	0.0164117
680.458	0.0163457
680.536	0.0163452
680.614	0.0162650
680.693	0.0160125
680.771	0.0157508
680.849	0.0156550
680.927	0.0155482
681.005	0.0153423
681.083	0.0152055
681.161	0.0147827
681.239	0.0145855
681.318	0.0144247
681.396	0.0139824
681.474	0.0138937
681.552	0.0136619
681.630	0.0134583
681.708	0.0130904
681.786	0.0129533
681.864	0.0128616
681.943	0.0128130
682.021	0.0125388
682.099	0.0124981
682.177	0.0124622
682.255	0.0122982
682.333	0.0120849
682.411	0.0121858
682.489	0.0121570
682.568	0.0123199
682.646	0.0123717
682.724	0.0123335
682.802	0.0122050
682.880	0.0122907
682.958	0.0123770
683.036	0.0125064
683.114	0.0125690
683.193	0.0128358
683.271	0.0129549
683.349	0.0129298
683.427	0.0131687
683.505	0.0133129
683.583	0.0135133
683.661	0.0135307
683.739	0.0136391
683.818	0.0139156
683.896	0.0142043
683.974	0.0142446
684.052	0.0145395
684.130	0.0144674
684.208	0.0146429
684.286	0.0147854
684.364	0.0147854
684.443	0.0150153
684.521	0.0150349
684.599	0.0151742
684.677	0.0152843
684.755	0.0153719
684.833	0.0154268
684.911	0.0153319
684.989	0.0154961
685.068	0.0154073
685.146	0.0154838
685.224	0.0155711
685.302	0.0155950
685.380	0.0155669
685.458	0.0155029
685.536	0.0152645
685.614	0.0151502
685.693	0.0150845
685.771	0.0150138
685.849	0.0150631
685.927	0.0147973
686.005	0.0145360
686.083	0.0145573
686.161	0.0143655
686.239	0.0140053
686.318	0.0139438
686.396	0.0139043
686.474	0.0137165
686.552	0.0134785
686.630	0.0133455
686.708	0.0131251
686.786	0.0131454
686.864	0.0129514
686.943	0.0127963
687.021	0.0126588
687.099	0.0126035
687.177	0.0124145
687.255	0.0124036
687.333	0.0124535
687.411	0.0121778
687.489	0.0121555
687.568	0.0122565
687.646	0.0122367
687.724	0.0122558
687.802	0.0122993
687.880	0.0124239
687.958	0.0123924
688.036	0.0125933
688.114	0.0126211
688.193	0.0128153
688.271	0.0128740
688.349	0.0130317
688.427	0.0131281
688.505	0.0134460
688.583	0.0135361
688.661	0.0136655
688.739	0.0137974
688.818	0.0141351
688.896	0.0142664
688.974	0.0143181
689.052	0.0144139
689.130	0.0146736
689.208	0.0147717
689.286	0.0148902
689.364	0.0150887
689.443	0.0150269
689.521	0.0151328
689.599	0.0151375
689.677	0.0152123
689.755	0.0151568
689.833	0.0152012
689.911	0.0150763
689.989	0.0151618
690.068	0.0150259
690.146	0.0150189
690.224	0.0149757
690.302	0.0150448
690.380	0.0147243
690.458	0.0146145
690.536	0.0145391
690.614	0.0145431
690.693	0.0142466
690.771	0.0143099
690.849	0.0141956
690.927	0.0142782
691.005	0.0140818
691.083	0.0140729
691.161	0.0139575
691.239	0.0138912
691.318	0.0139426
691.396	0.0139516
691.474	0.0139753
691.552	0.0136221
691.630	0.0136336
691.708	0.0135881
691.786	0.0136175
691.864	0.0135435
691.943	0.0135818
692.021	0.0134563
692.099	0.0134694
692.177	0.0135004
692.255	0.0134694
692.333	0.0134292
692.411	0.0135184
692.489	0.0134984
692.568	0.0134406
692.646	0.0133693
692.724	0.0134075
692.802	0.0133448
692.880	0.0133355
692.958	0.0133443
693.036	0.0133144
693.114	0.0132531
693.193	0.0132143
693.271	0.0133118
693.349	0.0133347
693.427	0.0131287
693.505	0.0133456
693.583	0.0134047
693.661	0.0133411
693.739	0.0133691
693.818	0.0135043
693.896	0.0134882
693.974	0.0133845
694.052	0.0133998
694.130	0.0136893
694.208	0.0138386
694.286	0.0138224
694.364	0.0139611
694.443	0.0140071
694.521	0.0140401
694.599	0.0143478
694.677	0.0143673
694.755	0.0145055
694.833	0.0145777
694.911	0.0146619
694.989	0.0148125
695.068	0.0148241
695.146	0.0147714
695.224	0.0149018
695.302	0.0149016
695.380	0.0150199
695.458	0.0149290
695.536	0.0148336
695.614	0.0148759
695.693	0.0146896
695.771	0.0145724
695.849	0.0145798
695.927	0.0145345
696.005	0.0144257
696.083	0.0143417
696.161	0.0142495
696.239	0.0143379
696.318	0.0141284
696.396	0.0138963
696.474	0.0138404
696.552	0.0139151
696.630	0.0137773
696.708	0.0136137
696.786	0.0134448
696.864	0.0133505
696.943	0.0132202
697.021	0.0133139
697.099	0.0131802
697.177	0.0131889
697.255	0.0132295
697.333	0.0132173
697.411	0.0133124
697.489	0.0133078
697.568	0.0132053
697.646	0.0134039
697.724	0.0133881
697.802	0.0134634
697.880	0.0136665
697.958	0.0137857
698.036	0.0137337
698.114	0.0138136
698.193	0.0139118
698.271	0.0138728
698.349	0.0138988
698.427	0.0140639
698.505	0.0140827
698.583	0.0141415
698.661	0.0143041
698.739	0.0141782
698.818	0.0141264
698.896	0.0140287
698.974	0.0139880
699.052	0.0141549
699.130	0.0140707
699.208	0.0139428
699.286	0.0138712
699.364	0.0138692
699.443	0.0137232
699.521	0.0137470
699.599	0.0136086
699.677	0.0136260
699.755	0.0136305
699.833	0.0135836
699.911	0.0134900
699.989	0.0135046
700.068	0.0135512
700.146	0.0133900
700.224	0.0135289
700.302	0.0134692
700.380	0.0134859
700.458	0.0134638
700.536	0.0134167
700.614	0.0133850
700.693	0.0134944
700.771	0.0134713
700.849	0.0133997
700.927	0.0133591
701.005	0.0135547
701.083	0.0134361
701.161	0.0135188
701.239	0.0135512
701.318	0.0136600
701.396	0.0137798
701.474	0.0137128
701.552	0.0138166
701.630	0.0140368
701.708	0.0140923
701.786	0.0142059
701.864	0.0143314
701.943	0.0143747
702.021	0.0145488
702.099	0.0147214
702.177	0.0148120
702.255	0.0149178
702.333	0.0149017
702.411	0.0149684
702.489	0.0149908
702.568	0.0150328
702.646	0.0152332
702.724	0.0150778
702.802	0.0151026
702.880	0.0149916
702.958	0.0149554
703.036	0.0150767
703.114	0.0149694
703.193	0.0150908
703.271	0.0148399
703.349	0.0148727
703.427	0.0147695
703.505	0.0146770
703.583	0.0147182
703.661	0.0146423
703.739	0.0145581
703.818	0.0142963
703.896	0.0142790
703.974	0.0143026
704.052	0.0140017
704.130	0.0139187
704.208	0.0137955
704.286	0.0134234
704.364	0.0133430
704.443	0.0133315
704.521	0.0132409
704.599	0.0129361
704.677	0.0127189
704.755	0.0125647
704.833	0.0124721
704.911	0.0124258
704.989	0.0121813
705.068	0.0120715
705.146	0.0121323
705.224	0.0119695
705.302	0.0119704
705.380	0.0119511
705.458	0.0120419
705.536	0.0120190
705.614	0.0122603
705.693	0.0124773
705.771	0.0124741
705.849	0.0127002
705.927	0.0129492
706.005	0.0132349
706.083	0.0132188
706.161	0.0135355
706.239	0.0135835
706.318	0.0138297
706.396	0.0140478
706.474	0.0141820
706.552	0.0143851
706.630	0.0145300
706.708	0.0147096
706.786	0.0146751
706.864	0.0150848
706.943	0.0151831
707.021	0.0151379
707.099	0.0152411
707.177	0.0152426
707.255	0.0153426
707.333	0.0152309
707.411	0.0153822
707.489	0.0152963
707.568	0.0153218
707.646	0.0152032
707.724	0.0151440
707.802	0.0151890
707.880	0.0152264
707.958	0.0151398
708.036	0.0151067
708.114	0.0149747
708.193	0.0150066
708.271	0.0146988
708.349	0.0145924
708.427	0.0143845
708.505	0.0144275
708.583	0.0142828
708.661	0.0141860
708.739	0.0139513
708.818	0.0139586
708.896	0.0138670
708.974	0.0137839
709.052	0.0139142
709.130	0.0136559
709.208	0.0135959
709.286	0.0135782
709.364	0.0133449
709.443	0.0133440
709.521	0.0133813
709.599	0.0133749
709.677	0.0133636
709.755	0.0131602
709.833	0.0132213
709.911	0.0132934
709.989	0.0133293
710.068	0.0132929
710.146	0.0133650
710.224	0.0132849
710.302	0.0131765
710.380	0.0135186
710.458	0.0132090
710.536	0.0132722
710.614	0.0132931
710.693	0.0132050
710.771	0.0131395
710.849	0.0132480
710.927	0.0132676
711.005	0.0132288
711.083	0.0133024
711.161	0.0133754
711.239	0.0132471
711.318	0.0134136
711.396	0.0133703
711.474	0.0133803
711.552	0.0135553
711.630	0.0134650
711.708	0.0135339
711.786	0.0134296
711.864	0.0135315
711.943	0.0136700
712.021	0.0135111
712.099	0.0136241
712.177	0.0137049
712.255	0.0136948
712.333	0.0138026
712.411	0.0137614
712.489	0.0139124
712.568	0.0139342
712.646	0.0139804
712.724	0.0141154
712.802	0.0141504
712.880	0.0141946
712.958	0.0143120
713.036	0.0144245
713.114	0.0144518
713.193	0.0146271
713.271	0.0147804
713.349	0.0148419
713.427	0.0148221
713.505	0.0149591
713.583	0.0150996
713.661	0.0151708
713.739	0.0152800
713.818	0.0151364
713.896	0.0152815
713.974	0.0153271
714.052	0.0153757
714.130	0.0152633
714.208	0.0152627
714.286	0.0151628
714.364	0.0151601
714.443	0.0151466
714.521	0.0147009
714.599	0.0147737
714.677	0.0146407
714.755	0.0143694
714.833	0.0142131
714.911	0.0140944
714.989	0.0140051
715.068	0.0138903
715.146	0.0136093
715.224	0.0136655
715.302	0.0134351
715.380	0.0133166
715.458	0.0132099
715.536	0.0130546
715.614	0.0129443
715.693	0.0129959
715.771	0.0130444
715.849	0.0127060
715.927	0.0128171
716.005	0.0129493
716.083	0.0128316
716.161	0.0128620
716.239	0.0127242
716.318	0.0127647
716.396	0.0129485
716.474	0.0130323
716.552	0.0130442
716.630	0.0131668
716.708	0.0133576
716.786	0.0133313
716.864	0.0134180
716.943	0.0135449
717.021	0.0136987
717.099	0.0137498
717.177	0.0139148
717.255	0.0140251
717.333	0.0141161
717.411	0.0140482
717.489	0.0141978
717.568	0.0141776
717.646	0.0141165
717.724	0.0140872
717.802	0.0142243
717.880	0.0141709
717.958	0.0140196
718.036	0.0140829
718.114	0.0141047
718.193	0.0140669
718.271	0.0141116
718.349	0.0140482
718.427	0.0140811
718.505	0.0142063
718.583	0.0139489
718.661	0.0140129
718.739	0.0140786
718.818	0.0140739
718.896	0.0140192
718.974	0.0141586
719.052	0.0140438
719.130	0.0141319
719.208	0.0142411
719.286	0.0143125
719.364	0.0141259
719.443	0.0141319
719.521	0.0142275
719.599	0.0142165
719.677	0.0144201
719.755	0.0143425
719.833	0.0143610
719.911	0.0142522
719.989	0.0144682
720.068	0.0143217
720.146	0.0143705
720.224	0.0142778
720.302	0.0144727
720.380	0.0143324
720.458	0.0143293
720.536	0.0144209
720.614	0.0144902
720.693	0.0143545
720.771	0.0142073
720.849	0.0142645
720.927	0.0140838
721.005	0.0140796
721.083	0.0141566
721.161	0.0141916
721.239	0.0140666
721.318	0.0141278
721.396	0.0139911
721.474	0.0139680
721.552	0.0139839
721.630	0.0139503
721.708	0.0140337
721.786	0.0138979
721.864	0.0139133
721.943	0.0136528
722.021	0.0138133
722.099	0.0139243
722.177	0.0138686
722.255	0.0137285
722.333	0.0137009
722.411	0.0136499
722.489	0.0135934
722.568	0.0135880
722.646	0.0135661
722.724	0.0135889
722.802	0.0136139
722.880	0.0134739
722.958	0.0134528
723.036	0.0135699
723.114	0.0134641
723.193	0.0133974
723.271	0.0133556
723.349	0.0134797
723.427	0.0135235
723.505	0.0134245
723.583	0.0133878
723.661	0.0134595
723.739	0.0135829
723.818	0.0134303
723.896	0.0136700
723.974	0.0136053
724.052	0.0137339
724.130	0.0137142
724.208	0.0138052
724.286	0.0138495
724.364	0.0140822
724.443	0.0140787
724.521	0.0142541
724.599	0.0143445
724.677	0.0143394
724.755	0.0142634
724.833	0.0144165
724.911	0.0145003
724.989	0.0144711
725.068	0.0144876
725.146	0.0145804
725.224	0.0145592
725.302	0.0147041
725.380	0.0145545
725.458	0.0145264
725.536	0.0145705
725.614	0.0144541
725.693	0.0144888
725.771	0.0141606
725.849	0.0141414
725.927	0.0141443
726.005	0.0141792
726.083	0.0139094
726.161	0.0137771
726.239	0.0139124
726.318	0.0137404
726.396	0.0136897
726.474	0.0136206
726.552	0.0134200
726.630	0.0133631
726.708	0.0133286
726.786	0.0133724
726.864	0.0134076
726.943	0.0132839
727.021	0.0130539
727.099	0.0131528
727.177	0.0130219
727.255	0.0130225
727.333	0.0131046
727.411	0.0131150
727.489	0.0133465
727.568	0.0133742
727.646	0.0132941
727.724	0.0134292
727.802	0.0137103
727.880	0.0137930
727.958	0.0137992
728.036	0.0139773
728.114	0.0141011
728.193	0.0141647
728.271	0.0142172
728.349	0.0143465
728.427	0.0144663
728.505	0.0144805
728.583	0.0144913
728.661	0.0146460
728.739	0.0147253
728.818	0.0145403
728.896	0.0147237
728.974	0.0146985
729.052	0.0144743
729.130	0.0144473
729.208	0.0144707
729.286	0.0144627
729.364	0.0144122
729.443	0.0143188
729.521	0.0141281
729.599	0.0141069
729.677	0.0140487
729.755	0.0137762
729.833	0.0136092
729.911	0.0135617
729.989	0.0135357
730.068	0.0135089
730.146	0.0133281
730.224	0.0133837
730.302	0.0132911
730.380	0.0133465
730.458	0.0132565
730.536	0.0131622
730.614	0.0131202
730.693	0.0132121
730.771	0.0131746
730.849	0.0132855
730.927	0.0133157
731.005	0.0133797
731.083	0.0133325
731.161	0.0132887
731.239	0.0132974
731.318	0.0134876
731.396	0.0135130
731.474	0.0135278
731.552	0.0134734
731.630	0.0135863
731.708	0.0136926
731.786	0.0135655
731.864	0.0137638
731.943	0.0139154
732.021	0.0137882
732.099	0.0139279
732.177	0.0139577
732.255	0.0140610
732.333	0.0139423
732.411	0.0141515
732.489	0.0139854
732.568	0.0141198
732.646	0.0142457
732.724	0.0143024
732.802	0.0143106
732.880	0.0144101
732.958	0.0144325
733.036	0.0144758
733.114	0.0144909
733.193	0.0144787
733.271	0.0146301
733.349	0.0146776
733.427	0.0146184
733.505	0.0147762
733.583	0.0146249
733.661	0.0147681
733.739	0.0149603
733.818	0.0148708
733.896	0.0150156
733.974	0.0149886
734.052	0.0147785
734.130	0.0149346
734.208	0.0150590
734.286	0.0148981
734.364	0.0147714
734.443	0.0147859
734.521	0.0147869
734.599	0.0147154
734.677	0.0147791
734.755	0.0146470
734.833	0.0145364
734.911	0.0144780
734.989	0.0143148
735.068	0.0142172
735.146	0.0142196
735.224	0.0139761
735.302	0.0137402
735.380	0.0137238
735.458	0.0138362
735.536	0.0135695
735.614	0.0134778
735.693	0.0133974
735.771	0.0134696
735.849	0.0133930
735.927	0.0131464
736.005	0.0131386
736.083	0.0132586
736.161	0.0132477
736.239	0.0131143
736.318	0.0131935
736.396	0.0131744
736.474	0.0131983
736.552	0.0132272
736.630	0.0131623
736.708	0.0130891
736.786	0.0131561
736.864	0.0132320
736.943	0.0130542
737.021	0.0131760
737.099	0.0131785
737.177	0.0131815
737.255	0.0132050
737.333	0.0131657
737.411	0.0131233
737.489	0.0131737
737.568	0.0132583
737.646	0.0133741
737.724	0.0135618
737.802	0.0134843
737.880	0.0135654
737.958	0.0136967
738.036	0.0137877
738.114	0.0139437
738.193	0.0139024
738.271	0.0142079
738.349	0.0143320
738.427	0.0144105
738.505	0.0146056
738.583	0.0146151
738.661	0.0147781
738.739	0.0148926
738.818	0.0149737
738.896	0.0150584
738.974	0.0150602
739.052	0.0151067
739.130	0.0150564
739.208	0.0150163
739.286	0.0152486
739.364	0.0150856
739.443	0.0152051
739.521	0.0149893
739.599	0.0151502
739.677	0.0150033
739.755	0.0148098
739.833	0.0148480
739.911	0.0148145
739.989	0.0145863
740.068	0.0144588
740.146	0.0143628
740.224	0.0142428
740.302	0.0140488
740.380	0.0138702
740.458	0.0138902
740.536	0.0138426
740.614	0.0136225
740.693	0.0135503
740.771	0.0133695
740.849	0.0134007
740.927	0.0134015
741.005	0.0132723
741.083	0.0133838
741.161	0.0134029
741.239	0.0133624
741.318	0.0132430
741.396	0.0132993
741.474	0.0133646
741.552	0.0133115
741.630	0.0133594
741.708	0.0134048
741.786	0.0133488
741.864	0.0133812
741.943	0.0134711
742.021	0.0133789
742.099	0.0135934
742.177	0.0134794
742.255	0.0134927
742.333	0.0135781
742.411	0.0136051
742.489	0.0135747
742.568	0.0134566
742.646	0.0135298
742.724	0.0135003
742.802	0.0135246
742.880	0.0135529
742.958	0.0135220
743.036	0.0134518
743.114	0.0136397
743.193	0.0137095
743.271	0.0137606
743.349	0.0138197
743.427	0.0140018
743.505	0.0138748
743.583	0.0138398
743.661	0.0139985
743.739	0.0141357
743.818	0.0140645
743.896	0.0142753
743.974	0.0142971
744.052	0.0141531
744.130	0.0144114
744.208	0.0144693
744.286	0.0144993
744.364	0.0145006
744.443	0.0145300
744.521	0.0145831
744.599	0.0145289
744.677	0.0145119
744.755	0.0146608
744.833	0.0145555
744.911	0.0145280
744.989	0.0144819
745.068	0.0145692
745.146	0.0145242
745.224	0.0144050
745.302	0.0144879
745.380	0.0144154
745.458	0.0143925
745.536	0.0142130
745.614	0.0143075
745.693	0.0142433
745.771	0.0140793
745.849	0.0141171
745.927	0.0140479
746.005	0.0139620
746.083	0.0140299
746.161	0.0138052
746.239	0.0136062
746.318	0.0137611
746.396	0.0137981
746.474	0.0137640
746.552	0.0136334
746.630	0.0136729
746.708	0.0136193
746.786	0.0135577
746.864	0.0136733
746.943	0.0137279
747.021	0.0137733
747.099	0.0138142
747.177	0.0137331
747.255	0.0137798
747.333	0.0139329
747.411	0.0139286
747.489	0.0137576
747.568	0.0139124
747.646	0.0140343
747.724	0.0138347
747.802	0.0138563
747.880	0.0138397
747.958	0.0138663
748.036	0.0139619
748.114	0.0139109
748.193	0.0137885
748.271	0.0137206
748.349	0.0137747
748.427	0.0138096
748.505	0.0138918
748.583	0.0137405
748.661	0.0134553
748.739	0.0136050
748.818	0.0137434
748.896	0.0136959
748.974	0.0135243
749.052	0.0135548
749.130	0.0135546
749.208	0.0136928
749.286	0.0135942
749.364	0.0135497
749.443	0.0135992
749.521	0.0138573
749.599	0.0138394
749.677	0.0138644
749.755	0.0138846
749.833	0.0139488
749.911	0.0138646
749.989	0.0139629
750.068	0.0139940
750.146	0.0139064
750.224	0.0140730
750.302	0.0141142
750.380	0.0139528
750.458	0.0139315
750.536	0.0139188
750.614	0.0140887
750.693	0.0140453
750.771	0.0138721
750.849	0.0139964
750.927	0.0139642
751.005	0.0139060
751.083	0.0138564
751.161	0.0139905
751.239	0.0139877
751.318	0.0140381
751.396	0.0139291
751.474	0.0141152
751.552	0.0140932
751.630	0.0139472
751.708	0.0140660
751.786	0.0140287
751.864	0.0140758
751.943	0.0142734
752.021	0.0143083
752.099	0.0141068
752.177	0.0143346
752.255	0.0142067
752.333	0.0143022
752.411	0.0142947
752.489	0.0142444
752.568	0.0143117
752.646	0.0143403
752.724	0.0143969
752.802	0.0144244
752.880	0.0144476
752.958	0.0141310
753.036	0.0142590
753.114	0.0142326
753.193	0.0142589
753.271	0.0142603
753.349	0.0141972
753.427	0.0141117
753.505	0.0140668
753.583	0.0140707
753.661	0.0140807
753.739	0.0141114
753.818	0.0140969
753.896	0.0139058
753.974	0.0139352
754.052	0.0138399
754.130	0.0138303
754.208	0.0139229
754.286	0.0138577
754.364	0.0137997
754.443	0.0136631
754.521	0.0137321
754.599	0.0136221
754.677	0.0136827
754.755	0.0135391
754.833	0.0135603
754.911	0.0135954
754.989	0.0135222
755.068	0.0136118
755.146	0.0136121
755.224	0.0135573
755.302	0.0135637
755.380	0.0135205
755.458	0.0137827
755.536	0.0137701
755.614	0.0137150
755.693	0.0137418
755.771	0.0137492
755.849	0.0138522
755.927	0.0138226
756.005	0.0139500
756.083	0.0137206
756.161	0.0137622
756.239	0.0137793
756.318	0.0138773
756.396	0.0138317
756.474	0.0138884
756.552	0.0138933
756.630	0.0138358
756.708	0.0138843
756.786	0.0140182
756.864	0.0140269
756.943	0.0140045
757.021	0.0139077
757.099	0.0140433
757.177	0.0139231
757.255	0.0139582
757.333	0.0140078
757.411	0.0139489
757.489	0.0139410
757.568	0.0140917
757.646	0.0139474
757.724	0.0140672
757.802	0.0140693
757.880	0.0140879
757.958	0.0140561
758.036	0.0140395
758.114	0.0139471
758.193	0.0138719
758.271	0.0141219
758.349	0.0140144
758.427	0.0139906
758.505	0.0140125
758.583	0.0139497
758.661	0.0140354
758.739	0.0140561
758.818	0.0139344
758.896	0.0139622
758.974	0.0139265
759.052	0.0139614
759.130	0.0138997
759.208	0.0138218
759.286	0.0140307
759.364	0.0138669
759.443	0.0137567
759.521	0.0137730
759.599	0.0140321
759.677	0.0138462
759.755	0.0139100
759.833	0.0139280
759.911	0.0139278
759.989	0.0139004
760.068	0.0138711
760.146	0.0137840
760.224	0.0137746
760.302	0.0137643
760.380	0.0137164
760.458	0.0138828
760.536	0.0139233
760.614	0.0137311
760.693	0.0137397
760.771	0.0139491
760.849	0.0138718
760.927	0.0137637
761.005	0.0137511
761.083	0.0137064
761.161	0.0136978
761.239	0.0137142
761.318	0.0138025
761.396	0.0137702
761.474	0.0138345
761.552	0.0138690
761.630	0.0138842
761.708	0.0139290
761.786	0.0139309
761.864	0.0138816
761.943	0.0140508
762.021	0.0140264
762.099	0.0138874
762.177	0.0139980
762.255	0.0140858
762.333	0.0140616
762.411	0.0140808
762.489	0.0141566
762.568	0.0139893
762.646	0.0141445
762.724	0.0138935
762.802	0.0139533
762.880	0.0140561
762.958	0.0138804
763.036	0.0138145
763.114	0.0138501
763.193	0.0137840
763.271	0.0137921
763.349	0.0137814
763.427	0.0139890
763.505	0.0137944
763.583	0.0137632
763.661	0.0139558
763.739	0.0138178
763.818	0.0139419
763.896	0.0140022
763.974	0.0140788
764.052	0.0141069
764.130	0.0140302
764.208	0.0140992
764.286	0.0141995
764.364	0.0142811
764.443	0.0139685
764.521	0.0142863
764.599	0.0142950
764.677	0.0141077
764.755	0.0141947
764.833	0.0142282
764.911	0.0142641
764.989	0.0141843
765.068	0.0142249
765.146	0.0141785
765.224	0.0142094
765.302	0.0140734
765.380	0.0139724
765.458	0.0140396
765.536	0.0139217
765.614	0.0138535
765.693	0.0139575
765.771	0.0139746
765.849	0.0137527
765.927	0.0137277
766.005	0.0137592
766.083	0.0137772
766.161	0.0135846
766.239	0.0135925
766.318	0.0136387
766.396	0.0136382
766.474	0.0136776
766.552	0.0136764
766.630	0.0137222
766.708	0.0135152
766.786	0.0135011
766.864	0.0134640
766.943	0.0135463
767.021	0.0134027
767.099	0.0136279
767.177	0.0137052
767.255	0.0137283
767.333	0.0135567
767.411	0.0137421
767.489	0.0138132
767.568	0.0138531
767.646	0.0140089
767.724	0.0138913
767.802	0.0138424
767.880	0.0139743
767.958	0.0140201
768.036	0.0141251
768.114	0.0140983
768.193	0.0141543
768.271	0.0142232
768.349	0.0141449
768.427	0.0142078
768.505	0.0142584
768.583	0.0141858
768.661	0.0142870
768.739	0.0142268
768.818	0.0142745
768.896	0.0143871
768.974	0.0143761
769.052	0.0141916
769.130	0.0143748
769.208	0.0142861
769.286	0.0142026
769.364	0.0143141
769.443	0.0143195
769.521	0.0143088
769.599	0.0143368
769.677	0.0142326
769.755	0.0141707
769.833	0.0141463
769.911	0.0142295
769.989	0.0139493
770.068	0.0139265
770.146	0.0139465
770.224	0.0139615
770.302	0.0139677
770.380	0.0137405
770.458	0.0137185
770.536	0.0137282
770.614	0.0136431
770.693	0.0135664
770.771	0.0135963
770.849	0.0135722
770.927	0.0135473
771.005	0.0135278
771.083	0.0134686
771.161	0.0135265
771.239	0.0135530
771.318	0.0134925
771.396	0.0134538
771.474	0.0133871
771.552	0.0135640
771.630	0.0135129
771.708	0.0134147
771.786	0.0134005
771.864	0.0135089
771.943	0.0135768
772.021	0.0135883
772.099	0.0135287
772.177	0.0137291
772.255	0.0136496
772.333	0.0137751
772.411	0.0138792
772.489	0.0138205
772.568	0.0139916
772.646	0.0139835
772.724	0.0139442
772.802	0.0142237
772.880	0.0142429
772.958	0.0142522
773.036	0.0143224
773.114	0.0143719
773.193	0.0142101
773.271	0.0144179
773.349	0.0143430
773.427	0.0144803
773.505	0.0143642
773.583	0.0143332
773.661	0.0143079
773.739	0.0143768
773.818	0.0141377
773.896	0.0142538
773.974	0.0142414
774.052	0.0141370
774.130	0.0141702
774.208	0.0140405
774.286	0.0139412
774.364	0.0138988
774.443	0.0139445
774.521	0.0138108
774.599	0.0138316
774.677	0.0139745
774.755	0.0137315
774.833	0.0137514
774.911	0.0137436
774.989	0.0137715
775.068	0.0137388
775.146	0.0136849
775.224	0.0137527
775.302	0.0137666
775.380	0.0137947
775.458	0.0137394
775.536	0.0136859
775.614	0.0136836
775.693	0.0137015
775.771	0.0138644
775.849	0.0139761
775.927	0.0137765
776.005	0.0138657
776.083	0.0138739
776.161	0.0138181
776.239	0.0139427
776.318	0.0140727
776.396	0.0139580
776.474	0.0139442
776.552	0.0140198
776.630	0.0141095
776.708	0.0140193
776.786	0.0141893
776.864	0.0140918
776.943	0.0140239
777.021	0.0142220
777.099	0.0141603
777.177	0.0141111
777.255	0.0140840
777.333	0.0141479
777.411	0.0139355
777.489	0.0140772
777.568	0.0141731
777.646	0.0141303
777.724	0.0139819
777.802	0.0138965
777.880	0.0140578
777.958	0.0139112
778.036	0.0139682
778.114	0.0139278
778.193	0.0139981
778.271	0.0138073
778.349	0.0138446
778.427	0.0137869
778.505	0.0137524
778.583	0.0137184
778.661	0.0137553
778.739	0.0137390
778.818	0.0135735
778.896	0.0136317
778.974	0.0136455
779.052	0.0135226
779.130	0.0135381
779.208	0.0135853
779.286	0.0136091
779.364	0.0136971
779.443	0.0136510
779.521	0.0136844
779.599	0.0137196
779.677	0.0136092
779.755	0.0136770
779.833	0.0136696
779.911	0.0136745
779.989	0.0138006
780.068	0.0138721
780.146	0.0138451
780.224	0.0137945
780.302	0.0139007
780.380	0.0139559
780.458	0.0138920
780.536	0.0139736
780.614	0.0140371
780.693	0.0141388
780.771	0.0140811
780.849	0.0139812
780.927	0.0138611
781.005	0.0140708
781.083	0.0141129
781.161	0.0142574
781.239	0.0142480
781.318	0.0141477
781.396	0.0141065
781.474	0.0142242
781.552	0.0140842
781.630	0.0142164
781.708	0.0142493
781.786	0.0142609
781.864	0.0143858
781.943	0.0142374
782.021	0.0143987
782.099	0.0144899
782.177	0.0144716
782.255	0.0144666
782.333	0.0144474
782.411	0.0143584
782.489	0.0143172
782.568	0.0143113
782.646	0.0141935
782.724	0.0140878
782.802	0.0141969
782.880	0.0139777
782.958	0.0141219
783.036	0.0140174
783.114	0.0138790
783.193	0.0138471
783.271	0.0139579
783.349	0.0137304
783.427	0.0137154
783.505	0.0136510
783.583	0.0136880
783.661	0.0136315
783.739	0.0134760
783.818	0.0134069
783.896	0.0134545
783.974	0.0135026
784.052	0.0133229
784.130	0.0133798
784.208	0.0133362
784.286	0.0133981
784.364	0.0133434
784.443	0.0132394
784.521	0.0134143
784.599	0.0133446
784.677	0.0133262
784.755	0.0132960
784.833	0.0133788
784.911	0.0133967
784.989	0.0135004
785.068	0.0134376
785.146	0.0134356
785.224	0.0135718
785.302	0.0137109
785.380	0.0138158
785.458	0.0138207
785.536	0.0137289
785.614	0.0138051
785.693	0.0140995
785.771	0.0139469
785.849	0.0139885
785.927	0.0139482
786.005	0.0141164
786.083	0.0140860
786.161	0.0142171
786.239	0.0142531
786.318	0.0142194
786.396	0.0143249
786.474	0.0143484
786.552	0.0142520
786.630	0.0142629
786.708	0.0142740
786.786	0.0142818
786.864	0.0143864
786.943	0.0142789
787.021	0.0143026
787.099	0.0142103
787.177	0.0143140
787.255	0.0141812
787.333	0.0141758
787.411	0.0142826
787.489	0.0142018
787.568	0.0140826
787.646	0.0142651
787.724	0.0141698
787.802	0.0141267
787.880	0.0138506
787.958	0.0141496
788.036	0.0140490
788.114	0.0138833
788.193	0.0138785
788.271	0.0139533
788.349	0.0139027
788.427	0.0137766
788.505	0.0138807
788.583	0.0139556
788.661	0.0137911
788.739	0.0137068
788.818	0.0135747
788.896	0.0136810
788.974	0.0136202
789.052	0.0136158
789.130	0.0135847
789.208	0.0135703
789.286	0.0136514
789.364	0.0135803
789.443	0.0134901
789.521	0.0135970
789.599	0.0136592
789.677	0.0135909
789.755	0.0137560
789.833	0.0136139
789.911	0.0136079
789.989	0.0136864
790.068	0.0136893
790.146	0.0137220
790.224	0.0137815
790.302	0.0138506
790.380	0.0137999
790.458	0.0138687
790.536	0.0138884
790.614	0.0138577
790.693	0.0138757
790.771	0.0139518
790.849	0.0138850
790.927	0.0139132
791.005	0.0139973
791.083	0.0141369
791.161	0.0141885
791.239	0.0140577
791.318	0.0141322
791.396	0.0141644
791.474	0.0143518
791.552	0.0142648
791.630	0.0141029
791.708	0.0142727
791.786	0.0143587
791.864	0.0143217
791.943	0.0142964
792.021	0.0142173
792.099	0.0143615
792.177	0.0143178
792.255	0.0141457
792.333	0.0143225
792.411	0.0142201
792.489	0.0143225
792.568	0.0144627
792.646	0.0140298
792.724	0.0140857
792.802	0.0141917
792.880	0.0140858
792.958	0.0141115
793.036	0.0139675
793.114	0.0141575
793.193	0.0140143
793.271	0.0139075
793.349	0.0138232
793.427	0.0139285
793.505	0.0138125
793.583	0.0139450
793.661	0.0138498
793.739	0.0137663
793.818	0.0137103
793.896	0.0138142
793.974	0.0137737
794.052	0.0138473
794.130	0.0136481
794.208	0.0136848
794.286	0.0136542
794.364	0.0137003
794.443	0.0136197
794.521	0.0137391
794.599	0.0136609
794.677	0.0137170
794.755	0.0137254
794.833	0.0136951
794.911	0.0136774
794.989	0.0137331
795.068	0.0137534
795.146	0.0137860
795.224	0.0139023
795.302	0.0137840
795.380	0.0139105
795.458	0.0138764
795.536	0.0138236
795.614	0.0140161
795.693	0.0139680
795.771	0.0139624
795.849	0.0139898
795.927	0.0140199
796.005	0.0140041
796.083	0.0139769
796.161	0.0140251
796.239	0.0141045
796.318	0.0139137
796.396	0.0140981
796.474	0.0140872
796.552	0.0140378
796.630	0.0140088
796.708	0.0139870
796.786	0.0138032
796.864	0.0140629
796.943	0.0140856
797.021	0.0139755
797.099	0.0139572
797.177	0.0139614
797.255	0.0138639
797.333	0.0139677
797.411	0.0139522
797.489	0.0138977
797.568	0.0139204
797.646	0.0140386
797.724	0.0139626
797.802	0.0139104
797.880	0.0139427
797.958	0.0140124
798.036	0.0137983
798.114	0.0138198
798.193	0.0139832
798.271	0.0138385
798.349	0.0139732
798.427	0.0138477
798.505	0.0138376
798.583	0.0138409
798.661	0.0138474
798.739	0.0138587
798.818	0.0139785
798.896	0.0139034
798.974	0.0139227
799.052	0.0139535
799.130	0.0139406
799.208	0.0140140
799.286	0.0138600
799.364	0.0138798
799.443	0.0138469
799.521	0.0138469
799.599	0.0139095
799.677	0.0138935
799.755	0.0138368
799.833	0.0139143
799.911	0.0137481
799.989	0.0137379
800.068	0.0138623
800.146	0.0138493
800.224	0.0137589
800.302	0.0138484
800.380	0.0138522
800.458	0.0138931
800.536	0.0138075
800.614	0.0137739
800.693	0.0138515
800.771	0.0139641
800.849	0.0137896
800.927	0.0138228
801.005	0.0138360
801.083	0.0138623
801.161	0.0137700
801.239	0.0138885
801.318	0.0138432
801.396	0.0138028
801.474	0.0137974
801.552	0.0137537
801.630	0.0137747
801.708	0.0138024
801.786	0.0138525
801.864	0.0138194
801.943	0.0136578
802.021	0.0137544
802.099	0.0137822
802.177	0.0137212
802.255	0.0137230
802.333	0.0136314
802.411	0.0137994
802.489	0.0138249
802.568	0.0137157
802.646	0.0137952
802.724	0.0138610
802.802	0.0137931
802.880	0.0139796
802.958	0.0138058
803.036	0.0139378
803.114	0.0138301
803.193	0.0140270
803.271	0.0140408
803.349	0.0139410
803.427	0.0140973
803.505	0.0139814
803.583	0.0139711
803.661	0.0140369
803.739	0.0140912
803.818	0.0141723
803.896	0.0141556
803.974	0.0141485
804.052	0.0141800
804.130	0.0142698
804.208	0.0140953
804.286	0.0141115
804.364	0.0141367
804.443	0.0140211
804.521	0.0141446
804.599	0.0141119
804.677	0.0139808
804.755	0.0139771
804.833	0.0139275
804.911	0.0139330
804.989	0.0140540
805.068	0.0139411
805.146	0.0138845
805.224	0.0138119
805.302	0.0139080
805.380	0.0140051
805.458	0.0139451
805.536	0.0138935
805.614	0.0137686
805.693	0.0138012
805.771	0.0137364
805.849	0.0138306
805.927	0.0136852
806.005	0.0136844
806.083	0.0136783
806.161	0.0135130
806.239	0.0135948
806.318	0.0136153
806.396	0.0134881
806.474	0.0137611
806.552	0.0136975
806.630	0.0136898
806.708	0.0137893
806.786	0.0137148
806.864	0.0137856
806.943	0.0138031
807.021	0.0138142
807.099	0.0137023
807.177	0.0137580
807.255	0.0138763
807.333	0.0139622
807.411	0.0137843
807.489	0.0139097
807.568	0.0138126
807.646	0.0138090
807.724	0.0137112
807.802	0.0137298
807.880	0.0136051
807.958	0.0137089
808.036	0.0136183
808.114	0.0136104
808.193	0.0134686
808.271	0.0135291
808.349	0.0136122
808.427	0.0136295
808.505	0.0136143
808.583	0.0135909
808.661	0.0137285
808.739	0.0137896
808.818	0.0139431
808.896	0.0139559
808.974	0.0140221
809.052	0.0140298
809.130	0.0142061
809.208	0.0141759
809.286	0.0141656
809.364	0.0141756
809.443	0.0141213
809.521	0.0143163
809.599	0.0142378
809.677	0.0140527
809.755	0.0142495
809.833	0.0141767
809.911	0.0142312
809.989	0.0142220
810.068	0.0140908
810.146	0.0141950
810.224	0.0141898
810.302	0.0141461
810.380	0.0142368
810.458	0.0142640
810.536	0.0140259
810.614	0.0141755
810.693	0.0141830
810.771	0.0140735
810.849	0.0139432
810.927	0.0139462
811.005	0.0139327
811.083	0.0138139
811.161	0.0137871
811.239	0.0137604
811.318	0.0137463
811.396	0.0138220
811.474	0.0139012
811.552	0.0138072
811.630	0.0137388
811.708	0.0137788
811.786	0.0138785
811.864	0.0137750
811.943	0.0136308
812.021	0.0137242
812.099	0.0137389
812.177	0.0137228
812.255	0.0136157
812.333	0.0136385
812.411	0.0136224
812.489	0.0136411
812.568	0.0135300
812.646	0.0136900
812.724	0.0136613
812.802	0.0136065
812.880	0.0136547
812.958	0.0136315
813.036	0.0137530
813.114	0.0136202
813.193	0.0137830
813.271	0.0136786
813.349	0.0137365
813.427	0.0138865
813.505	0.0138465
813.583	0.0139023
813.661	0.0139000
813.739	0.0139111
813.818	0.0141178
813.896	0.0142668
813.974	0.0141898
814.052	0.0141634
814.130	0.0140303
814.208	0.0140154
814.286	0.0141496
814.364	0.0140609
814.443	0.0140133
814.521	0.0139985
814.599	0.0139459
814.677	0.0139515
814.755	0.0139670
814.833	0.0139667
814.911	0.0139344
814.989	0.0138309
815.068	0.0139246
815.146	0.0140250
815.224	0.0139906
815.302	0.0138740
815.380	0.0140634
815.458	0.0138929
815.536	0.0139218
815.614	0.0141119
815.693	0.0140131
815.771	0.0140303
815.849	0.0140611
815.927	0.0140254
816.005	0.0139655
816.083	0.0140215
816.161	0.0140707
816.239	0.0140385
816.318	0.0139028
816.396	0.0140865
816.474	0.0140945
816.552	0.0140498
816.630	0.0140902
816.708	0.0139801
816.786	0.0140134
816.864	0.0139056
816.943	0.0139407
817.021	0.0139370
817.099	0.0138585
817.177	0.0137831
817.255	0.0138819
817.333	0.0140427
817.411	0.0139260
817.489	0.0139492
817.568	0.0140623
817.646	0.0140121
817.724	0.0140071
817.802	0.0140907
817.880	0.0141267
817.958	0.0141792
818.036	0.0142806
818.114	0.0141971
818.193	0.0143252
818.271	0.0142071
818.349	0.0142553
818.427	0.0144783
818.505	0.0142543
818.583	0.0142791
818.661	0.0142657
818.739	0.0140474
818.818	0.0142004
818.896	0.0140688
818.974	0.0139996
819.052	0.0139790
819.130	0.0139920
819.208	0.0138911
819.286	0.0139458
819.364	0.0138060
819.443	0.0137289
819.521	0.0135973
819.599	0.0137072
819.677	0.0136397
819.755	0.0135092
819.833	0.0135357
819.911	0.0137831
819.989	0.0136530
820.068	0.0136002
820.146	0.0136203
820.224	0.0136233
820.302	0.0136584
820.380	0.0136935
820.458	0.0137451
820.536	0.0136722
820.614	0.0137836
820.693	0.0138239
820.771	0.0136938
820.849	0.0137052
820.927	0.0137733
821.005	0.0138228
821.083	0.0138609
821.161	0.0139987
821.239	0.0138509
821.318	0.0138496
821.396	0.0136687
821.474	0.0138139
821.552	0.0139419
821.630	0.0139207
821.708	0.0138182
821.786	0.0139138
821.864	0.0140115
821.943	0.0139945
822.021	0.0139133
822.099	0.0142152
822.177	0.0140707
822.255	0.0140516
822.333	0.0141821
822.411	0.0141515
822.489	0.0142127
822.568	0.0140566
822.646	0.0142162
822.724	0.0140800
822.802	0.0140230
822.880	0.0139305
822.958	0.0140530
823.036	0.0138872
823.114	0.0139555
823.193	0.0136649
823.271	0.0137017
823.349	0.0136922
823.427	0.0135825
823.505	0.0136250
823.583	0.0138055
823.661	0.0138049
823.739	0.0137688
823.818	0.0138886
823.896	0.0138966
823.974	0.0140204
824.052	0.0139728
824.130	0.0140101
824.208	0.0140957
824.286	0.0139733
824.364	0.0139974
824.443	0.0140642
824.521	0.0140765
824.599	0.0142605
824.677	0.0142131
824.755	0.0142730
824.833	0.0142530
824.911	0.0142745
824.989	0.0142342
825.068	0.0143755
825.146	0.0145464
825.224	0.0145585
825.302	0.0143722
825.380	0.0142953
825.458	0.0143820
825.536	0.0145045
825.614	0.0141601
825.693	0.0142039
825.771	0.0139350
825.849	0.0139872
825.927	0.0137832
826.005	0.0135088
826.083	0.0133878
826.161	0.0134389
826.239	0.0132571
826.318	0.0131788
826.396	0.0131927
826.474	0.0130756
826.552	0.0132854
826.630	0.0132367
826.708	0.0131434
826.786	0.0130794
826.864	0.0131935
826.943	0.0132292
827.021	0.0132500
827.099	0.0134596
827.177	0.0135668
827.255	0.0136550
827.333	0.0138422
827.411	0.0138452
827.489	0.0140011
827.568	0.0141533
827.646	0.0141667
827.724	0.0142457
827.802	0.0143081
827.880	0.0143949
827.958	0.0144843
828.036	0.0145214
828.114	0.0144910
828.193	0.0144701
828.271	0.0143800
828.349	0.0142759
828.427	0.0142719
828.505	0.0141930
828.583	0.0141748
828.661	0.0143266
828.739	0.0139838
828.818	0.0139374
828.896	0.0139874
828.974	0.0137579
829.052	0.0137574
829.130	0.0136356
829.208	0.0135001
829.286	0.0135443
829.364	0.0134430
829.443	0.0134206
829.521	0.0134468
829.599	0.0133817
829.677	0.0134326
829.755	0.0133891
829.833	0.0133545
829.911	0.0134380
829.989	0.0135062
830.068	0.0136234
830.146	0.0137422
830.224	0.0136252
830.302	0.0138844
830.380	0.0137624
830.458	0.0139207
830.536	0.0139729
830.614	0.0141219
830.693	0.0140314
830.771	0.0141043
830.849	0.0141573
830.927	0.0141874
831.005	0.0142207
831.083	0.0140879
831.161	0.0141389
831.239	0.0140101
831.318	0.0138653
831.396	0.0137625
831.474	0.0138391
831.552	0.0138269
831.630	0.0137501
831.708	0.0138202
831.786	0.0138461
831.864	0.0139279
831.943	0.0141478
832.021	0.0140611
832.099	0.0140858
832.177	0.0142348
832.255	0.0143064
832.333	0.0142638
832.411	0.0143089
832.489	0.0144261
832.568	0.0143169
832.646	0.0143676
832.724	0.0142327
832.802	0.0143246
832.880	0.0140670
832.958	0.0138988
833.036	0.0137859
833.114	0.0138192
833.193	0.0137373
833.271	0.0135941
833.349	0.0135216
833.427	0.0134109
833.505	0.0133329
833.583	0.0133635
833.661	0.0133037
833.739	0.0134725
833.818	0.0134667
833.896	0.0134349
833.974	0.0134908
834.052	0.0134792
834.130	0.0135250
834.208	0.0135886
834.286	0.0135750
834.364	0.0136860
834.443	0.0137682
834.521	0.0137457
834.599	0.0137439
834.677	0.0138184
834.755	0.0138753
834.833	0.0139530
834.911	0.0139768
834.989	0.0141740
835.068	0.0140692
835.146	0.0141286
835.224	0.0143314
835.302	0.0142931
835.380	0.0143006
835.458	0.0144102
835.536	0.0144543
835.614	0.0145758
835.693	0.0146227
835.771	0.0144798
835.849	0.0144273
835.927	0.0145031
836.005	0.0144109
836.083	0.0143259
836.161	0.0141337
836.239	0.0143572
836.318	0.0142910
836.396	0.0141400
836.474	0.0141883
836.552	0.0141227
836.630	0.0140292
836.708	0.0138803
836.786	0.0140163
836.864	0.0140025
836.943	0.0137434
837.021	0.0139302
837.099	0.0138114
837.177	0.0137680
837.255	0.0137842
837.333	0.0137306
837.411	0.0137581
837.489	0.0137415
837.568	0.0136688
837.646	0.0138235
837.724	0.0136687
837.802	0.0137859
837.880	0.0136319
837.958	0.0135117
838.036	0.0135674
838.114	0.0136449
838.193	0.0135733
838.271	0.0135049
838.349	0.0136248
838.427	0.0136380
838.505	0.0137112
838.583	0.0135794
838.661	0.0137665
838.739	0.0139332
838.818	0.0139730
838.896	0.0140644
838.974	0.0140971
839.052	0.0141414
839.130	0.0141663
839.208	0.0141901
839.286	0.0143478
839.364	0.0142337
839.443	0.0142162
839.521	0.0142277
839.599	0.0140608
839.677	0.0140694
839.755	0.0142074
839.833	0.0140054
839.911	0.0139465
839.989	0.0139813
840.068	0.0138927
840.146	0.0140041
840.224	0.0140238
840.302	0.0139841
840.380	0.0140714
840.458	0.0140835
840.536	0.0140686
840.614	0.0141332
840.693	0.0141360
840.771	0.0140636
840.849	0.0141280
840.927	0.0141364
841.005	0.0143079
841.083	0.0141813
841.161	0.0142715
841.239	0.0141731
841.318	0.0139255
841.396	0.0138980
841.474	0.0140330
841.552	0.0140836
841.630	0.0138200
841.708	0.0137151
841.786	0.0138720
841.864	0.0136902
841.943	0.0137415
842.021	0.0137684
842.099	0.0135967
842.177	0.0136267
842.255	0.0136906
842.333	0.0137265
842.411	0.0136246
842.489	0.0136757
842.568	0.0138348
842.646	0.0137064
842.724	0.0137747
842.802	0.0138209
842.880	0.0138893
842.958	0.0140144
843.036	0.0140823
843.114	0.0139607
843.193	0.0139439
843.271	0.0140024
843.349	0.0139401
843.427	0.0140418
843.505	0.0139703
843.583	0.0138394
843.661	0.0139487
843.739	0.0137753
843.818	0.0137435
843.896	0.0138316
843.974	0.0137324
844.052	0.0137120
844.130	0.0135638
844.208	0.0135551
844.286	0.0137251
844.364	0.0137196
844.443	0.0136867
844.521	0.0136256
844.599	0.0137492
844.677	0.0137616
844.755	0.0138145
844.833	0.0138908
844.911	0.0138602
844.989	0.0139006
845.068	0.0139696
845.146	0.0139728
845.224	0.0139967
845.302	0.0142610
845.380	0.0143591
845.458	0.0141753
845.536	0.0142364
845.614	0.0144588
845.693	0.0144073
845.771	0.0145087
845.849	0.0145397
845.927	0.0143069
846.005	0.0145618
846.083	0.0144843
846.161	0.0144361
846.239	0.0142202
846.318	0.0140579
846.396	0.0140307
846.474	0.0139236
846.552	0.0139422
846.630	0.0138313
846.708	0.0137202
846.786	0.0136685
846.864	0.0135715
846.943	0.0135789
847.021	0.0135986
847.099	0.0136202
847.177	0.0136798
847.255	0.0138863
847.333	0.0139354
847.411	0.0138522
847.489	0.0139713
847.568	0.0141202
847.646	0.0141116
847.724	0.0142192
847.802	0.0141134
847.880	0.0142819
847.958	0.0142231
848.036	0.0140948
848.114	0.0141855
848.193	0.0141686
848.271	0.0140804
848.349	0.0140297
848.427	0.0142319
848.505	0.0140254
848.583	0.0140257
848.661	0.0139640
848.739	0.0140352
848.818	0.0138239
848.896	0.0138872
848.974	0.0139257
849.052	0.0140052
849.130	0.0138035
849.208	0.0137850
849.286	0.0138078
849.364	0.0138966
849.443	0.0138654
849.521	0.0139433
849.599	0.0138931
849.677	0.0137241
849.755	0.0140049
849.833	0.0137830
849.911	0.0136684
849.989	0.0137069
850.068	0.0136142
850.146	0.0135402
850.224	0.0136658
850.302	0.0137142
850.380	0.0138144
850.458	0.0137193
850.536	0.0136056
850.614	0.0137211
850.693	0.0138377
850.771	0.0137740
850.849	0.0138107
850.927	0.0137576
851.005	0.0139090
851.083	0.0139209
851.161	0.0140511
851.239	0.0141254
851.318	0.0140449
851.396	0.0141252
851.474	0.0140270
851.552	0.0140453
851.630	0.0141137
851.708	0.0141093
851.786	0.0139997
851.864	0.0140734
851.943	0.0140601
852.021	0.0138992
852.099	0.0138237
852.177	0.0138961
852.255	0.0138486
852.333	0.0137597
852.411	0.0138537
852.489	0.0138383
852.568	0.0137383
852.646	0.0136363
852.724	0.0137829
852.802	0.0136358
852.880	0.0136431
852.958	0.0136287
853.036	0.0136805
853.114	0.0137860
853.193	0.0136221
853.271	0.0136177
853.349	0.0136985
853.427	0.0136423
853.505	0.0137933
853.583	0.0137273
853.661	0.0137242
853.739	0.0136704
853.818	0.0137486
853.896	0.0137627
853.974	0.0137514
854.052	0.0138419
854.130	0.0139185
854.208	0.0139397
854.286	0.0140537
854.364	0.0141102
854.443	0.0141254
854.521	0.0140742
854.599	0.0141320
854.677	0.0140536
854.755	0.0141066
854.833	0.0140020
854.911	0.0139819
854.989	0.0139603
855.068	0.0139865
855.146	0.0138940
855.224	0.0138367
855.302	0.0138402
855.380	0.0137983
855.458	0.0136606
855.536	0.0137029
855.614	0.0136642
855.693	0.0136994
855.771	0.0136602
855.849	0.0135936
855.927	0.0137495
856.005	0.0138105
856.083	0.0139048
856.161	0.0140564
856.239	0.0139726
856.318	0.0140356
856.396	0.0141965
856.474	0.0141515
856.552	0.0142227
856.630	0.0141269
856.708	0.0142719
856.786	0.0142983
856.864	0.0143468
856.943	0.0142593
857.021	0.0142102
857.099	0.0140883
857.177	0.0139708
857.255	0.0139761
857.333	0.0137936
857.411	0.0137908
857.489	0.0137177
857.568	0.0136445
857.646	0.0136350
857.724	0.0135760
857.802	0.0135892
857.880	0.0135927
857.958	0.0136292
858.036	0.0136716
858.114	0.0137747
858.193	0.0138055
858.271	0.0138391
858.349	0.0139927
858.427	0.0139861
858.505	0.0140990
858.583	0.0140686
858.661	0.0141716
858.739	0.0143488
858.818	0.0142265
858.896	0.0142642
858.974	0.0143999
859.052	0.0144070
859.130	0.0144593
859.208	0.0142077
859.286	0.0141463
859.364	0.0141799
859.443	0.0140701
859.521	0.0140601
859.599	0.0141945
859.677	0.0141529
859.755	0.0140084
859.833	0.0138467
859.911	0.0138290
859.989	0.0138061
860.068	0.0138238
860.146	0.0138611
860.224	0.0137262
860.302	0.0137520
860.380	0.0137738
860.458	0.0135880
860.536	0.0137329
860.614	0.0136269
860.693	0.0137603
860.771	0.0138860
860.849	0.0138596
860.927	0.0137646
861.005	0.0140733
861.083	0.0139529
861.161	0.0140567
861.239	0.0141741
861.318	0.0141156
861.396	0.0141796
861.474	0.0142822
861.552	0.0142426
861.630	0.0141893
861.708	0.0142694
861.786	0.0142056
861.864	0.0141946
861.943	0.0142462
862.021	0.0140513
862.099	0.0138548
862.177	0.0138908
862.255	0.0138274
862.333	0.0137984
862.411	0.0137122
862.489	0.0138229
862.568	0.0138741
862.646	0.0138526
862.724	0.0138741
862.802	0.0136681
862.880	0.0137820
862.958	0.0138145
863.036	0.0138823
863.114	0.0140176
863.193	0.0140485
863.271	0.0140052
863.349	0.0141058
863.427	0.0141747
863.505	0.0142509
863.583	0.0142917
863.661	0.0142880
863.739	0.0142176
863.818	0.0144501
863.896	0.0143501
863.974	0.0141536
864.052	0.0142928
864.130	0.0142467
864.208	0.0142294
864.286	0.0141965
864.364	0.0141370
864.443	0.0140141
864.521	0.0138776
864.599	0.0139084
864.677	0.0138001
864.755	0.0136674
864.833	0.0137696
864.911	0.0137048
864.989	0.0135271
865.068	0.0135564
865.146	0.0135107
865.224	0.0134656
865.302	0.0134676
865.380	0.0135821
865.458	0.0136096
865.536	0.0135979
865.614	0.0136876
865.693	0.0139907
865.771	0.0140706
865.849	0.0140636
865.927	0.0141164
866.005	0.0140690
866.083	0.0142549
866.161	0.0141718
866.239	0.0141022
866.318	0.0142947
866.396	0.0143382
866.474	0.0142941
866.552	0.0142355
866.630	0.0141844
866.708	0.0141212
866.786	0.0140803
866.864	0.0141408
866.943	0.0141447
867.021	0.0139207
867.099	0.0140136
867.177	0.0140086
867.255	0.0139410
867.333	0.0138577
867.411	0.0138617
867.489	0.0140714
867.568	0.0140672
867.646	0.0138438
867.724	0.0138747
867.802	0.0140978
867.880	0.0140472
867.958	0.0141221
868.036	0.0142194
868.114	0.0139310
868.193	0.0141692
868.271	0.0141702
868.349	0.0139869
868.427	0.0141279
868.505	0.0140916
868.583	0.0140799
868.661	0.0139027
868.739	0.0140363
868.818	0.0139559
868.896	0.0139668
868.974	0.0139074
869.052	0.0137021
869.130	0.0137830
869.208	0.0138258
869.286	0.0137802
869.364	0.0139104
869.443	0.0136546
869.521	0.0138091
869.599	0.0137404
869.677	0.0138108
869.755	0.0138564
869.833	0.0138529
869.911	0.0140029
869.989	0.0138888
870.068	0.0140020
870.146	0.0139643
870.224	0.0138428
870.302	0.0140040
870.380	0.0139417
870.458	0.0139429
870.536	0.0138527
870.614	0.0139938
870.693	0.0138268
870.771	0.0138766
870.849	0.0139321
870.927	0.0139048
871.005	0.0139837
871.083	0.0140065
871.161	0.0140214
871.239	0.0141269
871.318	0.0139191
871.396	0.0139355
871.474	0.0139417
871.552	0.0140799
871.630	0.0140195
871.708	0.0140189
871.786	0.0141384
871.864	0.0142164
871.943	0.0141306
872.021	0.0141113
872.099	0.0141647
872.177	0.0140405
872.255	0.0140947
872.333	0.0139375
872.411	0.0139496
872.489	0.0138257
872.568	0.0137555
872.646	0.0137370
872.724	0.0138208
872.802	0.0137576
872.880	0.0136008
872.958	0.0136182
873.036	0.0135764
873.114	0.0135775
873.193	0.0135434
873.271	0.0136363
873.349	0.0136519
873.427	0.0134770
873.505	0.0137366
873.583	0.0136658
873.661	0.0136663
873.739	0.0137132
873.818	0.0137469
873.896	0.0137358
873.974	0.0137719
874.052	0.0137669
874.130	0.0138904
874.208	0.0138901
874.286	0.0139115
874.364	0.0140749
874.443	0.0139214
874.521	0.0141290
874.599	0.0141792
874.677	0.0141042
874.755	0.0140309
874.833	0.0142854
874.911	0.0140932
874.989	0.0140969
875.068	0.0140678
875.146	0.0142961
875.224	0.0141840
875.302	0.0141015
875.380	0.0140693
875.458	0.0141978
875.536	0.0139626
875.614	0.0139271
875.693	0.0139993
875.771	0.0139340
875.849	0.0138810
875.927	0.0139496
876.005	0.0139654
876.083	0.0139600
876.161	0.0139925
876.239	0.0138943
876.318	0.0138130
876.396	0.0139737
876.474	0.0139489
876.552	0.0139687
876.630	0.0139972
876.708	0.0139448
876.786	0.0141855
876.864	0.0141924
876.943	0.0141251
877.021	0.0141207
877.099	0.0140891
877.177	0.0141161
877.255	0.0141818
877.333	0.0141226
877.411	0.0140587
877.489	0.0141856
877.568	0.0139809
877.646	0.0138982
877.724	0.0141013
877.802	0.0139376
877.880	0.0137888
877.958	0.0137824
878.036	0.0137990
878.114	0.0138628
878.193	0.0137835
878.271	0.0136765
878.349	0.0137652
878.427	0.0136281
878.505	0.0136555
878.583	0.0137836
878.661	0.0137505
878.739	0.0138496
878.818	0.0139172
878.896	0.0138928
878.974	0.0138172
879.052	0.0138252
879.130	0.0141837
879.208	0.0141801
879.286	0.0141961
879.364	0.0141312
879.443	0.0141229
879.521	0.0140771
879.599	0.0139361
879.677	0.0140616
879.755	0.0140192
879.833	0.0141857
879.911	0.0140501
879.989	0.0140733
880.068	0.0140826
880.146	0.0139384
880.224	0.0140438
880.302	0.0139953
880.380	0.0139265
880.458	0.0139770
880.536	0.0140137
880.614	0.0137471
880.693	0.0138586
880.771	0.0138304
880.849	0.0137578
880.927	0.0138685
881.005	0.0139761
881.083	0.0139525
881.161	0.0138368
881.239	0.0139096
881.318	0.0140022
881.396	0.0138662
881.474	0.0139933
881.552	0.0139665
881.630	0.0141508
881.708	0.0141557
881.786	0.0139567
881.864	0.0140130
881.943	0.0140264
882.021	0.0141563
882.099	0.0141722
882.177	0.0140305
882.255	0.0140114
882.333	0.0140942
882.411	0.0141815
882.489	0.0141838
882.568	0.0141106
882.646	0.0142014
882.724	0.0141888
882.802	0.0141243
882.880	0.0141562
882.958	0.0141330
883.036	0.0141327
883.114	0.0140209
883.193	0.0139761
883.271	0.0140974
883.349	0.0140745
883.427	0.0139350
883.505	0.0141504
883.583	0.0140954
883.661	0.0141190
883.739	0.0140662
883.818	0.0140302
883.896	0.0139146
883.974	0.0139706
884.052	0.0140093
884.130	0.0138631
884.208	0.0138809
884.286	0.0138890
884.364	0.0138566
884.443	0.0139021
884.521	0.0139665
884.599	0.0138251
884.677	0.0140581
884.755	0.0139798
884.833	0.0139791
884.911	0.0142071
884.989	0.0140006
885.068	0.0140582
885.146	0.0141928
885.224	0.0140498
885.302	0.0141489
885.380	0.0140514
885.458	0.0140749
885.536	0.0140584
885.614	0.0140342
885.693	0.0140201
885.771	0.0137887
885.849	0.0138242
885.927	0.0139137
886.005	0.0138599
886.083	0.0137022
886.161	0.0136345
886.239	0.0138027
886.318	0.0137486
886.396	0.0138564
886.474	0.0138580
886.552	0.0138460
886.630	0.0138828
886.708	0.0139126
886.786	0.0139854
886.864	0.0141030
886.943	0.0139944
887.021	0.0140891
887.099	0.0141994
887.177	0.0141749
887.255	0.0141950
887.333	0.0139873
887.411	0.0141122
887.489	0.0140681
887.568	0.0140831
887.646	0.0140060
887.724	0.0140283
887.802	0.0141232
887.880	0.0140452
887.958	0.0138982
888.036	0.0139590
888.114	0.0138735
888.193	0.0139012
888.271	0.0137946
888.349	0.0138433
888.427	0.0137657
888.505	0.0139803
888.583	0.0138506
888.661	0.0139267
888.739	0.0139619
888.818	0.0138554
888.896	0.0138647
888.974	0.0138447
889.052	0.0138977
889.130	0.0139647
889.208	0.0139750
889.286	0.0137902
889.364	0.0138758
889.443	0.0138451
889.521	0.0139739
889.599	0.0139187
889.677	0.0139268
889.755	0.0139074
889.833	0.0139986
889.911	0.0139797
889.989	0.0139527
890.068	0.0140092
890.146	0.0140238
890.224	0.0139757
890.302	0.0139745
890.380	0.0139851
890.458	0.0140890
890.536	0.0139513
890.614	0.0138689
890.693	0.0137903
890.771	0.0139326
890.849	0.0140064
890.927	0.0139975
891.005	0.0138620
891.083	0.0138378
891.161	0.0137386
891.239	0.0138396
891.318	0.0138306
891.396	0.0137378
891.474	0.0138671
891.552	0.0137018
891.630	0.0137835
891.708	0.0137149
891.786	0.0137492
891.864	0.0139114
891.943	0.0139055
892.021	0.0138260
892.099	0.0140578
892.177	0.0139533
892.255	0.0139352
892.333	0.0139328
892.411	0.0139488
892.489	0.0139213
892.568	0.0139780
892.646	0.0139216
892.724	0.0140355
892.802	0.0139799
892.880	0.0138397
892.958	0.0137876
893.036	0.0137711
893.114	0.0138450
893.193	0.0137074
893.271	0.0138801
893.349	0.0139193
893.427	0.0137978
893.505	0.0138422
893.583	0.0139957
893.661	0.0138893
893.739	0.0139635
893.818	0.0139870
893.896	0.0139976
893.974	0.0138963
894.052	0.0139422
894.130	0.0140546
894.208	0.0139664
894.286	0.0139532
894.364	0.0139450
894.443	0.0138479
894.521	0.0139069
894.599	0.0138192
894.677	0.0139082
894.755	0.0140910
894.833	0.0139863
894.911	0.0139211
894.989	0.0138707
895.068	0.0140074
895.146	0.0139773
895.224	0.0137805
895.302	0.0140706
895.380	0.0140022
895.458	0.0139949
895.536	0.0138659
895.614	0.0138718
895.693	0.0139191
895.771	0.0140245
895.849	0.0140816
895.927	0.0139333
896.005	0.0140088
896.083	0.0137459
896.161	0.0138419
896.239	0.0139242
896.318	0.0138646
896.396	0.0137552
896.474	0.0139085
896.552	0.0139491
896.630	0.0137289
896.708	0.0138897
896.786	0.0138152
896.864	0.0139017
896.943	0.0139812
897.021	0.0138747
897.099	0.0137343
897.177	0.0138622
897.255	0.0138541
897.333	0.0138280
897.411	0.0139181
897.489	0.0138117
897.568	0.0137776
897.646	0.0139503
897.724	0.0139770
897.802	0.0138001
897.880	0.0137868
897.958	0.0136378
898.036	0.0137760
898.114	0.0137926
898.193	0.0138327
898.271	0.0138673
898.349	0.0137196
898.427	0.0139581
898.505	0.0137980
898.583	0.0137441
898.661	0.0137698
898.739	0.0138419
898.818	0.0139256
898.896	0.0138684
898.974	0.0137817
899.052	0.0137867
899.130	0.0137914
899.208	0.0137671
899.286	0.0138292
899.364	0.0137935
899.443	0.0137511
899.521	0.0139034
899.599	0.0138284
899.677	0.0138240
899.755	0.0139373
899.833	0.0139211
899.911	0.0138441
899.989	0.0138557
900.068	0.0138097
900.146	0.0141295
900.224	0.0140618
900.302	0.0140624
900.380	0.0141067
900.458	0.0140257
900.536	0.0140726
900.614	0.0140211
900.693	0.0141703
900.771	0.0141353
900.849	0.0140649
900.927	0.0140506
901.005	0.0139314
901.083	0.0140697
901.161	0.0139960
901.239	0.0140803
901.318	0.0139452
901.396	0.0139154
901.474	0.0140287
901.552	0.0142064
901.630	0.0140962
901.708	0.0140453
901.786	0.0140756
901.864	0.0141178
901.943	0.0140631
902.021	0.0140782
902.099	0.0142226
902.177	0.0142049
902.255	0.0140398
902.333	0.0139944
902.411	0.0140619
902.489	0.0139655
902.568	0.0138322
902.646	0.0137811
902.724	0.0140192
902.802	0.0139208
902.880	0.0138287
902.958	0.0137180
903.036	0.0137160
903.114	0.0138335
903.193	0.0136737
903.271	0.0138401
903.349	0.0138654
903.427	0.0137931
903.505	0.0138940
903.583	0.0137570
903.661	0.0136881
903.739	0.0138892
903.818	0.0137915
903.896	0.0137216
903.974	0.0138177
904.052	0.0137234
904.130	0.0137982
904.208	0.0137181
904.286	0.0136829
904.364	0.0138142
904.443	0.0137597
904.521	0.0138922
904.599	0.0138904
904.677	0.0138234
904.755	0.0139764
904.833	0.0139443
904.911	0.0139999
904.989	0.0139651
905.068	0.0139599
905.146	0.0139761
905.224	0.0138765
905.302	0.0140623
905.380	0.0140612
905.458	0.0139712
905.536	0.0141619
905.614	0.0140813
905.693	0.0141740
905.771	0.0141405
905.849	0.0138335
905.927	0.0140591
906.005	0.0140073
906.083	0.0139070
906.161	0.0140086
906.239	0.0140051
906.318	0.0138680
906.396	0.0138896
906.474	0.0139999
906.552	0.0140845
906.630	0.0139339
906.708	0.0140222
906.786	0.0140601
906.864	0.0139290
906.943	0.0140034
907.021	0.0140784
907.099	0.0139981
907.177	0.0139957
907.255	0.0140737
907.333	0.0141809
907.411	0.0141594
907.489	0.0140031
907.568	0.0139334
907.646	0.0141008
907.724	0.0139285
907.802	0.0139554
907.880	0.0139027
907.958	0.0139441
908.036	0.0137842
908.114	0.0137700
908.193	0.0138117
908.271	0.0137581
908.349	0.0138618
908.427	0.0139141
908.505	0.0139603
908.583	0.0139830
908.661	0.0138625
908.739	0.0139350
908.818	0.0141042
908.896	0.0140070
908.974	0.0138422
909.052	0.0138120
909.130	0.0139912
909.208	0.0138600
909.286	0.0138967
909.364	0.0139368
909.443	0.0138634
909.521	0.0137292
909.599	0.0137956
909.677	0.0138469
909.755	0.0138704
909.833	0.0139317
909.911	0.0138142
909.989	0.0140076
910.068	0.0137801
910.146	0.0138689
910.224	0.0139806
910.302	0.0139967
910.380	0.0140450
910.458	0.0139679
910.536	0.0140648
910.614	0.0140501
910.693	0.0141221
910.771	0.0140404
910.849	0.0139904
910.927	0.0140440
911.005	0.0139693
911.083	0.0140225
911.161	0.0139806
911.239	0.0140126
911.318	0.0139336
911.396	0.0141450
911.474	0.0140388
911.552	0.0139870
911.630	0.0139352
911.708	0.0139547
911.786	0.0139539
911.864	0.0139608
911.943	0.0138128
912.021	0.0140797
912.099	0.0140559
912.177	0.0140227
912.255	0.0140746
912.333	0.0140322
912.411	0.0141281
912.489	0.0140666
912.568	0.0140859
912.646	0.0139998
912.724	0.0139704
912.802	0.0140940
912.880	0.0139136
912.958	0.0139404
913.036	0.0138849
913.114	0.0139722
913.193	0.0138753
913.271	0.0140039
913.349	0.0138047
913.427	0.0139214
913.505	0.0139283
913.583	0.0140009
913.661	0.0140082
913.739	0.0138770
913.818	0.0137759
913.896	0.0139120
913.974	0.0140062
914.052	0.0138108
914.130	0.0137762
914.208	0.0138110
914.286	0.0136345
914.364	0.0137384
914.443	0.0138930
914.521	0.0138270
914.599	0.0136938
914.677	0.0136998
914.755	0.0138000
914.833	0.0139404
914.911	0.0138701
914.989	0.0138800
915.068	0.0138370
915.146	0.0139289
915.224	0.0140978
915.302	0.0139800
915.380	0.0139003
915.458	0.0139524
915.536	0.0139931
915.614	0.0140576
915.693	0.0140646
915.771	0.0140476
915.849	0.0140328
915.927	0.0140204
916.005	0.0140486
916.083	0.0140746
916.161	0.0139707
916.239	0.0139727
916.318	0.0138990
916.396	0.0139417
916.474	0.0140182
916.552	0.0140585
916.630	0.0137842
916.708	0.0138967
916.786	0.0139086
916.864	0.0139792
916.943	0.0138639
917.021	0.0137404
917.099	0.0138939
917.177	0.0139745
917.255	0.0138637
917.333	0.0138773
917.411	0.0138177
917.489	0.0137982
917.568	0.0138828
917.646	0.0138783
917.724	0.0139494
917.802	0.0137839
917.880	0.0137321
917.958	0.0136408
918.036	0.0138710
918.114	0.0139471
918.193	0.0138065
918.271	0.0138143
918.349	0.0139107
918.427	0.0138551
918.505	0.0138626
918.583	0.0139149
918.661	0.0139608
918.739	0.0139001
918.818	0.0139993
918.896	0.0139159
918.974	0.0140598
919.052	0.0140038
919.130	0.0141518
919.208	0.0140987
919.286	0.0140205
919.364	0.0139117
919.443	0.0140427
919.521	0.0139877
919.599	0.0141483
919.677	0.0138499
919.755	0.0139719
919.833	0.0138723
919.911	0.0137534
919.989	0.0139146
920.068	0.0139491
920.146	0.0138993
920.224	0.0138538
920.302	0.0141241
920.380	0.0140390
920.458	0.0139655
920.536	0.0140765
920.614	0.0140347
920.693	0.0138902
920.771	0.0140125
920.849	0.0140677
920.927	0.0140275
921.005	0.0139603
921.083	0.0138678
921.161	0.0139964
921.239	0.0138910
921.318	0.0139275
921.396	0.0137836
921.474	0.0137887
921.552	0.0137425
921.630	0.0138577
921.708	0.0137909
921.786	0.0137837
921.864	0.0138309
921.943	0.0138085
922.021	0.0138692
922.099	0.0137482
922.177	0.0138039
922.255	0.0136517
922.333	0.0138448
922.411	0.0136251
922.489	0.0136936
922.568	0.0137667
922.646	0.0138267
922.724	0.0139247
922.802	0.0138357
922.880	0.0137158
922.958	0.0138869
923.036	0.0138931
923.114	0.0138373
923.193	0.0138770
923.271	0.0139413
923.349	0.0138836
923.427	0.0139780
923.505	0.0139754
923.583	0.0139964
923.661	0.0140401
923.739	0.0139846
923.818	0.0140688
923.896	0.0140397
923.974	0.0138757
924.052	0.0140560
924.130	0.0140551
924.208	0.0139973
924.286	0.0140355
924.364	0.0141531
924.443	0.0141643
924.521	0.0141636
924.599	0.0140321
924.677	0.0141080
924.755	0.0140773
924.833	0.0141275
924.911	0.0140289
924.989	0.0140621
925.068	0.0140948
925.146	0.0140347
925.224	0.0138121
925.302	0.0138794
925.380	0.0139559
925.458	0.0140021
925.536	0.0138847
925.614	0.0138181
925.693	0.0137691
925.771	0.0140170
925.849	0.0139080
925.927	0.0138215
926.005	0.0138845
926.083	0.0136889
926.161	0.0138835
926.239	0.0138258
926.318	0.0138631
926.396	0.0137259
926.474	0.0137045
926.552	0.0135992
926.630	0.0138394
926.708	0.0138145
926.786	0.0138229
926.864	0.0137985
926.943	0.0139861
927.021	0.0139203
927.099	0.0138657
927.177	0.0138797
927.255	0.0138718
927.333	0.0139253
927.411	0.0138636
927.489	0.0139075
927.568	0.0138889
927.646	0.0139148
927.724	0.0138879
927.802	0.0139851
927.880	0.0139016
927.958	0.0137872
928.036	0.0138990
928.114	0.0139427
928.193	0.0137440
928.271	0.0139255
928.349	0.0139301
928.427	0.0139548
928.505	0.0139151
928.583	0.0138036
928.661	0.0139169
928.739	0.0138303
928.818	0.0139159
928.896	0.0138549
928.974	0.0138538
929.052	0.0138840
929.130	0.0137910
929.208	0.0139040
929.286	0.0138904
929.364	0.0139363
929.443	0.0138580
929.521	0.0138341
929.599	0.0138856
929.677	0.0138354
929.755	0.0138727
929.833	0.0138609
929.911	0.0139976
929.989	0.0138769
930.068	0.0138360
930.146	0.0137199
930.224	0.0138690
930.302	0.0138828
930.380	0.0137546
930.458	0.0137251
930.536	0.0137981
930.614	0.0138970
930.693	0.0138217
930.771	0.0137844
930.849	0.0138561
930.927	0.0139089
931.005	0.0138598
931.083	0.0140401
931.161	0.0140406
931.239	0.0139243
931.318	0.0139110
931.396	0.0139075
931.474	0.0137694
931.552	0.0141658
931.630	0.0139581
931.708	0.0138623
931.786	0.0140351
931.864	0.0140245
931.943	0.0140212
932.021	0.0139778
932.099	0.0138767
932.177	0.0139034
932.255	0.0137794
932.333	0.0138293
932.411	0.0139368
932.489	0.0138390
932.568	0.0137847
932.646	0.0139965
932.724	0.0139122
932.802	0.0139688
932.880	0.0139286
932.958	0.0139854
933.036	0.0139611
933.114	0.0139793
933.193	0.0140080
933.271	0.0140090
933.349	0.0140364
933.427	0.0139661
933.505	0.0139158
933.583	0.0140147
933.661	0.0138456
933.739	0.0138679
933.818	0.0139141
933.896	0.0138801
933.974	0.0139195
934.052	0.0138554
934.130	0.0138914
934.208	0.0138158
934.286	0.0138238
934.364	0.0139185
934.443	0.0137885
934.521	0.0138935
934.599	0.0138676
934.677	0.0140106
934.755	0.0138740
934.833	0.0139941
934.911	0.0139811
934.989	0.0140732
935.068	0.0139722
935.146	0.0138491
935.224	0.0139328
935.302	0.0140703
935.380	0.0140650
935.458	0.0141183
935.536	0.0140498
935.614	0.0140136
935.693	0.0141476
935.771	0.0140126
935.849	0.0141514
935.927	0.0139621
936.005	0.0141445
936.083	0.0140969
936.161	0.0141393
936.239	0.0141869
936.318	0.0140517
936.396	0.0141029
936.474	0.0140572
936.552	0.0139941
936.630	0.0141245
936.708	0.0140119
936.786	0.0139977
936.864	0.0139667
936.943	0.0140555
937.021	0.0140142
937.099	0.0140235
937.177	0.0140210
937.255	0.0139119
937.333	0.0139332
937.411	0.0139614
937.489	0.0139887
937.568	0.0139575
937.646	0.0139955
937.724	0.0140149
937.802	0.0140588
937.880	0.0140665
937.958	0.0139278
938.036	0.0140428
938.114	0.0140278
938.193	0.0139671
938.271	0.0139415
938.349	0.0139780
938.427	0.0138132
938.505	0.0139080
938.583	0.0140530
938.661	0.0139308
938.739	0.0138917
938.818	0.0137926
938.896	0.0138605
938.974	0.0140191
939.052	0.0138404
939.130	0.0140002
939.208	0.0140756
939.286	0.0141046
939.364	0.0138562
939.443	0.0140353
939.521	0.0141194
939.599	0.0141315
939.677	0.0139899
939.755	0.0140643
939.833	0.0141008
939.911	0.0139244
939.989	0.0140504
940.068	0.0140859
940.146	0.0140452
940.224	0.0140769
940.302	0.0141042
940.380	0.0141125
940.458	0.0141025
940.536	0.0140775
940.614	0.0139436
940.693	0.0139808
940.771	0.0140073
940.849	0.0139687
940.927	0.0139001
941.005	0.0139619
941.083	0.0138847
941.161	0.0139823
941.239	0.0139294
941.318	0.0139056
941.396	0.0140433
941.474	0.0140182
941.552	0.0139910
941.630	0.0140510
941.708	0.0141741
941.786	0.0140592
941.864	0.0140969
941.943	0.0140807
942.021	0.0139655
942.099	0.0140533
942.177	0.0141632
942.255	0.0140977
942.333	0.0139300
942.411	0.0139005
942.489	0.0140649
942.568	0.0140907
942.646	0.0139993
942.724	0.0140215
942.802	0.0139610
942.880	0.0140144
942.958	0.0140918
943.036	0.0137780
943.114	0.0138414
943.193	0.0138344
943.271	0.0139700
943.349	0.0137730
943.427	0.0139435
943.505	0.0137663
943.583	0.0138772
943.661	0.0138217
943.739	0.0137992
943.818	0.0139056
943.896	0.0138428
943.974	0.0137383
944.052	0.0138306
944.130	0.0137582
944.208	0.0138839
944.286	0.0137965
944.364	0.0138613
944.443	0.0139509
944.521	0.0139871
944.599	0.0137576
944.677	0.0137539
944.755	0.0137147
944.833	0.0137912
944.911	0.0136903
944.989	0.0138268
945.068	0.0138510
945.146	0.0137738
945.224	0.0138973
945.302	0.0138073
945.380	0.0138609
945.458	0.0137831
945.536	0.0137744
945.614	0.0138926
945.693	0.0139085
945.771	0.0138147
945.849	0.0140020
945.927	0.0139426
946.005	0.0139401
946.083	0.0139611
946.161	0.0140298
946.239	0.0138332
946.318	0.0139125
946.396	0.0139359
946.474	0.0139895
946.552	0.0141758
946.630	0.0139357
946.708	0.0138962
946.786	0.0140578
946.864	0.0140742
946.943	0.0139449
947.021	0.0139605
947.099	0.0140226
947.177	0.0139102
947.255	0.0138625
947.333	0.0139134
947.411	0.0140391
947.489	0.0137761
947.568	0.0139048
947.646	0.0139473
947.724	0.0138284
947.802	0.0137492
947.880	0.0137876
947.958	0.0138767
948.036	0.0137997
948.114	0.0138285
948.193	0.0139342
948.271	0.0138488
948.349	0.0137267
948.427	0.0137798
948.505	0.0139794
948.583	0.0139615
948.661	0.0138921
948.739	0.0138795
948.818	0.0138158
948.896	0.0139303
948.974	0.0138851
949.052	0.0138577
949.130	0.0138807
949.208	0.0138299
949.286	0.0137007
949.364	0.0137302
949.443	0.0137435
949.521	0.0138115
949.599	0.0137505
949.677	0.0137592
949.755	0.0137164
949.833	0.0138490
949.911	0.0137606
949.989	0.0137615
950.068	0.0138536
950.146	0.0139236
950.224	0.0137894
950.302	0.0136871
950.380	0.0138668
950.458	0.0139143
950.536	0.0139400
950.614	0.0139381
950.693	0.0139793
950.771	0.0139798
950.849	0.0138096
950.927	0.0138624
951.005	0.0140932
951.083	0.0140051
951.161	0.0139832
951.239	0.0139445
951.318	0.0140297
951.396	0.0140308
951.474	0.0139585
951.552	0.0140245
951.630	0.0140320
951.708	0.0140067
951.786	0.0141693
951.864	0.0140952
951.943	0.0139355
952.021	0.0138643
952.099	0.0141301
952.177	0.0139799
952.255	0.0140092
952.333	0.0138934
952.411	0.0139964
952.489	0.0140000
952.568	0.0142049
952.646	0.0141115
952.724	0.0140125
952.802	0.0138792
952.880	0.0139273
952.958	0.0140417
953.036	0.0139206
953.114	0.0139692
953.193	0.0140405
953.271	0.0139627
953.349	0.0139397
953.427	0.0138357
953.505	0.0137177
953.583	0.0139694
953.661	0.0139973
953.739	0.0139879
953.818	0.0139513
953.896	0.0139405
953.974	0.0140535
954.052	0.0140327
954.130	0.0139120
954.208	0.0139322
954.286	0.0138558
954.364	0.0139156
954.443	0.0139809
954.521	0.0138039
954.599	0.0138958
954.677	0.0138390
954.755	0.0138252
954.833	0.0138654
954.911	0.0138512
954.989	0.0139169
955.068	0.0138621
955.146	0.0139848
955.224	0.0139266
955.302	0.0138568
955.380	0.0138830
955.458	0.0139285
955.536	0.0140032
955.614	0.0140359
955.693	0.0139519
955.771	0.0138452
955.849	0.0139632
955.927	0.0140037
956.005	0.0140184
956.083	0.0139742
956.161	0.0140643
956.239	0.0139436
956.318	0.0138708
956.396	0.0139413
956.474	0.0140604
956.552	0.0140094
956.630	0.0138261
956.708	0.0138902
956.786	0.0138911
956.864	0.0138086
956.943	0.0137916
957.021	0.0137755
957.099	0.0138191
957.177	0.0139459
957.255	0.0137636
957.333	0.0137915
957.411	0.0137566
957.489	0.0138351
957.568	0.0137190
957.646	0.0137184
957.724	0.0139505
957.802	0.0138707
957.880	0.0137691
957.958	0.0137665
958.036	0.0138103
958.114	0.0139710
958.193	0.0138195
958.271	0.0138687
958.349	0.0137828
958.427	0.0138527
958.505	0.0138858
958.583	0.0139218
958.661	0.0137802
958.739	0.0139661
958.818	0.0138634
958.896	0.0138709
958.974	0.0139567
959.052	0.0139909
959.130	0.0141151
959.208	0.0140757
959.286	0.0140546
959.364	0.0140931
959.443	0.0141158
959.521	0.0140382
959.599	0.0141047
959.677	0.0142310
959.755	0.0141329
959.833	0.0141966
959.911	0.0141853
