05/14/2022	16:54:57	Ver.	4.1	UNKNOWN
Optical Delay	639.989416	Delta X		0.078125	Sweeps	1	Scan Rate	0/0
Coordinates	Axis 1	NaN	Axis 2	NaN	Axis 3	NaN	Axis 4	NaN	Axis 5	NaN	Axis 6	0.000000
TX Power	0.000000	RX Power	0.000000

639.989	0.0150188
640.068	0.0151289
640.146	0.0151431
640.224	0.0150631
640.302	0.0150663
640.380	0.0148947
640.458	0.0149297
640.536	0.0148801
640.614	0.0150182
640.693	0.0151026
640.771	0.0150124
640.849	0.0151434
640.927	0.0150562
641.005	0.0151577
641.083	0.0150397
641.161	0.0150009
641.239	0.0149777
641.318	0.0149664
641.396	0.0151158
641.474	0.0150420
641.552	0.0150891
641.630	0.0150454
641.708	0.0149422
641.786	0.0149980
641.864	0.0150830
641.943	0.0149544
642.021	0.0149652
642.099	0.0148588
642.177	0.0149283
642.255	0.0149015
642.333	0.0150194
642.411	0.0148929
642.489	0.0149314
642.568	0.0149055
642.646	0.0148478
642.724	0.0148903
642.802	0.0150616
642.880	0.0148089
642.958	0.0149117
643.036	0.0150887
643.114	0.0148940
643.193	0.0149220
643.271	0.0148727
643.349	0.0149717
643.427	0.0149033
643.505	0.0149512
643.583	0.0148811
643.661	0.0148714
643.739	0.0149669
643.818	0.0148405
643.896	0.0148643
643.974	0.0149677
644.052	0.0149242
644.130	0.0149789
644.208	0.0148653
644.286	0.0148482
644.364	0.0149081
644.443	0.0148167
644.521	0.0149695
644.599	0.0148891
644.677	0.0147256
644.755	0.0148610
644.833	0.0150230
644.911	0.0150832
644.989	0.0149417
645.068	0.0148990
645.146	0.0148796
645.224	0.0149324
645.302	0.0149297
645.380	0.0148082
645.458	0.0147939
645.536	0.0147470
645.614	0.0147691
645.693	0.0149652
645.771	0.0148749
645.849	0.0149158
645.927	0.0149766
646.005	0.0150040
646.083	0.0150072
646.161	0.0148359
646.239	0.0147942
646.318	0.0148982
646.396	0.0149564
646.474	0.0149600
646.552	0.0150646
646.630	0.0148903
646.708	0.0150780
646.786	0.0149786
646.864	0.0148123
646.943	0.0147665
647.021	0.0148984
647.099	0.0149138
647.177	0.0147771
647.255	0.0149712
647.333	0.0148727
647.411	0.0149683
647.489	0.0149186
647.568	0.0147877
647.646	0.0149089
647.724	0.0149797
647.802	0.0148721
647.880	0.0148613
647.958	0.0149778
648.036	0.0150333
648.114	0.0149062
648.193	0.0147839
648.271	0.0149642
648.349	0.0151019
648.427	0.0150969
648.505	0.0150348
648.583	0.0150131
648.661	0.0150101
648.739	0.0149277
648.818	0.0148842
648.896	0.0150803
648.974	0.0149436
649.052	0.0148566
649.130	0.0149909
649.208	0.0150923
649.286	0.0150569
649.364	0.0149793
649.443	0.0148278
649.521	0.0150101
649.599	0.0150601
649.677	0.0149140
649.755	0.0149742
649.833	0.0150232
649.911	0.0150140
649.989	0.0150712
650.068	0.0149731
650.146	0.0147930
650.224	0.0149924
650.302	0.0150024
650.380	0.0149817
650.458	0.0149344
650.536	0.0149316
650.614	0.0149762
650.693	0.0149825
650.771	0.0150409
650.849	0.0150557
650.927	0.0149847
651.005	0.0150129
651.083	0.0149574
651.161	0.0150405
651.239	0.0149686
651.318	0.0148769
651.396	0.0147614
651.474	0.0150115
651.552	0.0149731
651.630	0.0150437
651.708	0.0150220
651.786	0.0148516
651.864	0.0150121
651.943	0.0149615
652.021	0.0149345
652.099	0.0149640
652.177	0.0149427
652.255	0.0147993
652.333	0.0149669
652.411	0.0149494
652.489	0.0148283
652.568	0.0150726
652.646	0.0149140
652.724	0.0148701
652.802	0.0149316
652.880	0.0148917
652.958	0.0147982
653.036	0.0149666
653.114	0.0149320
653.193	0.0148294
653.271	0.0149201
653.349	0.0150201
653.427	0.0150230
653.505	0.0150283
653.583	0.0149280
653.661	0.0148982
653.739	0.0149551
653.818	0.0149950
653.896	0.0149411
653.974	0.0149469
654.052	0.0149146
654.130	0.0149200
654.208	0.0149596
654.286	0.0149614
654.364	0.0149078
654.443	0.0148444
654.521	0.0148563
654.599	0.0148839
654.677	0.0151022
654.755	0.0149315
654.833	0.0149053
654.911	0.0148762
654.989	0.0148693
655.068	0.0148669
655.146	0.0149853
655.224	0.0150120
655.302	0.0148479
655.380	0.0148895
655.458	0.0149972
655.536	0.0149025
655.614	0.0149236
655.693	0.0148742
655.771	0.0149139
655.849	0.0149113
655.927	0.0150613
656.005	0.0149521
656.083	0.0150208
656.161	0.0148557
656.239	0.0148708
656.318	0.0149492
656.396	0.0148009
656.474	0.0148805
656.552	0.0148034
656.630	0.0149755
656.708	0.0147928
656.786	0.0148759
656.864	0.0148601
656.943	0.0148631
657.021	0.0149166
657.099	0.0151293
657.177	0.0149945
657.255	0.0150302
657.333	0.0149838
657.411	0.0149587
657.489	0.0149697
657.568	0.0148631
657.646	0.0150065
657.724	0.0150010
657.802	0.0149882
657.880	0.0149790
657.958	0.0149179
658.036	0.0150235
658.114	0.0150036
658.193	0.0149132
658.271	0.0149718
658.349	0.0148385
658.427	0.0150089
658.505	0.0149116
658.583	0.0149967
658.661	0.0149636
658.739	0.0149397
658.818	0.0149262
658.896	0.0147916
658.974	0.0149010
659.052	0.0148283
659.130	0.0149250
659.208	0.0148715
659.286	0.0149117
659.364	0.0150140
659.443	0.0147071
659.521	0.0147047
659.599	0.0147394
659.677	0.0148461
659.755	0.0148565
659.833	0.0148738
659.911	0.0148189
659.989	0.0148805
660.068	0.0148940
660.146	0.0149733
660.224	0.0149170
660.302	0.0150776
660.380	0.0149884
660.458	0.0149374
660.536	0.0149583
660.614	0.0150267
660.693	0.0149998
660.771	0.0149533
660.849	0.0148654
660.927	0.0150847
661.005	0.0150234
661.083	0.0147939
661.161	0.0147808
661.239	0.0149562
661.318	0.0149925
661.396	0.0148132
661.474	0.0147970
661.552	0.0149422
661.630	0.0148828
661.708	0.0147974
661.786	0.0148774
661.864	0.0148725
661.943	0.0149456
662.021	0.0149065
662.099	0.0147621
662.177	0.0149275
662.255	0.0148158
662.333	0.0150127
662.411	0.0150082
662.489	0.0149674
662.568	0.0150418
662.646	0.0148971
662.724	0.0149752
662.802	0.0149777
662.880	0.0149624
662.958	0.0149847
663.036	0.0148254
663.114	0.0149139
663.193	0.0147597
663.271	0.0147936
663.349	0.0147759
663.427	0.0146736
663.505	0.0147436
663.583	0.0146820
663.661	0.0147462
663.739	0.0146986
663.818	0.0147228
663.896	0.0147238
663.974	0.0147671
664.052	0.0146815
664.130	0.0147398
664.208	0.0147273
664.286	0.0149007
664.364	0.0148911
664.443	0.0148202
664.521	0.0148583
664.599	0.0150988
664.677	0.0151395
664.755	0.0150882
664.833	0.0152013
664.911	0.0152402
664.989	0.0153277
665.068	0.0153948
665.146	0.0155061
665.224	0.0154969
665.302	0.0155996
665.380	0.0155234
665.458	0.0155441
665.536	0.0156427
665.614	0.0155294
665.693	0.0154774
665.771	0.0154594
665.849	0.0153378
665.927	0.0153261
666.005	0.0152013
666.083	0.0150275
666.161	0.0149209
666.239	0.0149700
666.318	0.0147514
666.396	0.0147427
666.474	0.0145539
666.552	0.0143576
666.630	0.0145072
666.708	0.0142773
666.786	0.0143275
666.864	0.0141147
666.943	0.0139870
667.021	0.0140862
667.099	0.0139358
667.177	0.0139973
667.255	0.0140410
667.333	0.0141196
667.411	0.0141002
667.489	0.0143163
667.568	0.0145447
667.646	0.0144807
667.724	0.0146349
667.802	0.0148988
667.880	0.0149123
667.958	0.0150098
668.036	0.0153066
668.114	0.0155203
668.193	0.0157412
668.271	0.0158762
668.349	0.0160463
668.427	0.0161249
668.505	0.0163753
668.583	0.0162000
668.661	0.0162931
668.739	0.0163408
668.818	0.0162950
668.896	0.0163901
668.974	0.0163187
669.052	0.0160828
669.130	0.0161510
669.208	0.0157899
669.286	0.0156145
669.364	0.0153912
669.443	0.0152416
669.521	0.0151314
669.599	0.0147961
669.677	0.0145296
669.755	0.0144341
669.833	0.0140726
669.911	0.0139211
669.989	0.0137956
670.068	0.0136319
670.146	0.0134792
670.224	0.0134576
670.302	0.0133935
670.380	0.0133313
670.458	0.0133282
670.536	0.0133919
670.614	0.0133518
670.693	0.0134737
670.771	0.0135548
670.849	0.0137820
670.927	0.0139300
671.005	0.0141191
671.083	0.0142399
671.161	0.0144462
671.239	0.0147408
671.318	0.0150344
671.396	0.0150306
671.474	0.0151841
671.552	0.0154688
671.630	0.0157795
671.708	0.0159190
671.786	0.0158997
671.864	0.0160430
671.943	0.0163505
672.021	0.0164001
672.099	0.0164008
672.177	0.0165777
672.255	0.0165179
672.333	0.0164731
672.411	0.0164896
672.489	0.0162991
672.568	0.0162441
672.646	0.0161681
672.724	0.0160252
672.802	0.0160404
672.880	0.0157848
672.958	0.0154763
673.036	0.0154648
673.114	0.0151128
673.193	0.0149886
673.271	0.0148241
673.349	0.0147504
673.427	0.0146203
673.505	0.0143938
673.583	0.0141582
673.661	0.0140392
673.739	0.0140472
673.818	0.0139064
673.896	0.0136391
673.974	0.0138074
674.052	0.0136008
674.130	0.0136330
674.208	0.0136682
674.286	0.0134419
674.364	0.0136070
674.443	0.0134341
674.521	0.0135644
674.599	0.0136246
674.677	0.0138086
674.755	0.0137309
674.833	0.0138686
674.911	0.0139046
674.989	0.0140338
675.068	0.0141779
675.146	0.0142486
675.224	0.0143099
675.302	0.0145751
675.380	0.0146515
675.458	0.0148176
675.536	0.0151093
675.614	0.0150311
675.693	0.0150862
675.771	0.0152286
675.849	0.0154346
675.927	0.0156969
676.005	0.0159025
676.083	0.0160600
676.161	0.0159734
676.239	0.0161636
676.318	0.0163944
676.396	0.0164707
676.474	0.0164804
676.552	0.0166290
676.630	0.0166017
676.708	0.0165833
676.786	0.0165955
676.864	0.0164821
676.943	0.0166098
677.021	0.0165775
677.099	0.0164678
677.177	0.0163708
677.255	0.0161079
677.333	0.0161041
677.411	0.0157874
677.489	0.0157418
677.568	0.0154870
677.646	0.0151984
677.724	0.0150931
677.802	0.0149346
677.880	0.0145671
677.958	0.0141715
678.036	0.0139861
678.114	0.0136561
678.193	0.0134634
678.271	0.0132153
678.349	0.0128661
678.427	0.0128156
678.505	0.0126412
678.583	0.0123921
678.661	0.0124010
678.739	0.0122693
678.818	0.0122874
678.896	0.0122147
678.974	0.0122031
679.052	0.0124675
679.130	0.0125064
679.208	0.0126762
679.286	0.0129364
679.364	0.0132115
679.443	0.0132522
679.521	0.0137244
679.599	0.0142682
679.677	0.0144196
679.755	0.0148144
679.833	0.0152498
679.911	0.0157048
679.989	0.0160081
680.068	0.0163595
680.146	0.0167007
680.224	0.0171114
680.302	0.0174096
680.380	0.0175513
680.458	0.0177211
680.536	0.0180424
680.614	0.0180204
680.693	0.0180928
680.771	0.0180092
680.849	0.0180127
680.927	0.0179935
681.005	0.0177866
681.083	0.0177916
681.161	0.0175601
681.239	0.0174047
681.318	0.0170773
681.396	0.0168753
681.474	0.0165967
681.552	0.0162509
681.630	0.0160172
681.708	0.0156222
681.786	0.0152197
681.864	0.0150512
681.943	0.0144524
682.021	0.0143135
682.099	0.0139893
682.177	0.0136599
682.255	0.0134719
682.333	0.0132724
682.411	0.0129962
682.489	0.0127735
682.568	0.0127789
682.646	0.0123304
682.724	0.0123850
682.802	0.0123251
682.880	0.0122459
682.958	0.0122957
683.036	0.0123950
683.114	0.0125153
683.193	0.0125531
683.271	0.0124765
683.349	0.0126230
683.427	0.0129782
683.505	0.0131213
683.583	0.0132123
683.661	0.0134476
683.739	0.0137537
683.818	0.0139629
683.896	0.0142857
683.974	0.0147255
684.052	0.0148233
684.130	0.0151829
684.208	0.0154761
684.286	0.0158171
684.364	0.0159895
684.443	0.0162196
684.521	0.0164493
684.599	0.0166722
684.677	0.0167057
684.755	0.0169687
684.833	0.0170514
684.911	0.0170606
684.989	0.0173349
685.068	0.0173470
685.146	0.0173289
685.224	0.0173620
685.302	0.0174847
685.380	0.0172301
685.458	0.0173489
685.536	0.0172054
685.614	0.0170816
685.693	0.0170133
685.771	0.0168850
685.849	0.0166548
685.927	0.0164355
686.005	0.0163439
686.083	0.0160157
686.161	0.0158113
686.239	0.0156187
686.318	0.0152319
686.396	0.0150793
686.474	0.0149424
686.552	0.0144501
686.630	0.0142705
686.708	0.0139640
686.786	0.0138338
686.864	0.0136914
686.943	0.0134420
687.021	0.0132989
687.099	0.0132021
687.177	0.0131299
687.255	0.0128882
687.333	0.0128655
687.411	0.0128565
687.489	0.0127846
687.568	0.0127879
687.646	0.0127961
687.724	0.0128786
687.802	0.0129619
687.880	0.0130650
687.958	0.0131683
688.036	0.0131786
688.114	0.0133316
688.193	0.0135748
688.271	0.0136265
688.349	0.0136841
688.427	0.0138298
688.505	0.0141794
688.583	0.0142043
688.661	0.0143906
688.739	0.0147207
688.818	0.0148640
688.896	0.0149752
688.974	0.0152042
689.052	0.0155573
689.130	0.0155704
689.208	0.0157995
689.286	0.0161093
689.364	0.0162711
689.443	0.0162545
689.521	0.0165344
689.599	0.0167885
689.677	0.0167418
689.755	0.0169150
689.833	0.0170450
689.911	0.0169373
689.989	0.0169084
690.068	0.0169759
690.146	0.0170318
690.224	0.0169902
690.302	0.0169746
690.380	0.0166896
690.458	0.0167014
690.536	0.0165015
690.614	0.0164948
690.693	0.0162500
690.771	0.0161547
690.849	0.0158582
690.927	0.0155719
691.005	0.0154395
691.083	0.0152847
691.161	0.0150783
691.239	0.0147994
691.318	0.0146648
691.396	0.0145129
691.474	0.0142054
691.552	0.0139764
691.630	0.0139359
691.708	0.0136931
691.786	0.0134908
691.864	0.0135067
691.943	0.0133200
692.021	0.0133481
692.099	0.0133434
692.177	0.0131676
692.255	0.0131172
692.333	0.0132263
692.411	0.0132995
692.489	0.0134139
692.568	0.0134902
692.646	0.0135832
692.724	0.0137610
692.802	0.0138101
692.880	0.0139157
692.958	0.0140629
693.036	0.0143351
693.114	0.0144003
693.193	0.0146333
693.271	0.0146689
693.349	0.0147670
693.427	0.0148903
693.505	0.0150015
693.583	0.0150303
693.661	0.0149031
693.739	0.0148431
693.818	0.0149746
693.896	0.0150182
693.974	0.0150053
694.052	0.0151594
694.130	0.0150372
694.208	0.0149883
694.286	0.0150521
694.364	0.0151505
694.443	0.0151455
694.521	0.0149757
694.599	0.0150633
694.677	0.0152100
694.755	0.0152909
694.833	0.0152908
694.911	0.0154259
694.989	0.0153594
695.068	0.0154955
695.146	0.0156336
695.224	0.0157154
695.302	0.0157481
695.380	0.0157560
695.458	0.0159026
695.536	0.0159819
695.614	0.0158166
695.693	0.0157036
695.771	0.0159322
695.849	0.0158968
695.927	0.0157957
696.005	0.0158301
696.083	0.0156585
696.161	0.0157401
696.239	0.0155964
696.318	0.0154034
696.396	0.0153802
696.474	0.0153450
696.552	0.0152689
696.630	0.0150837
696.708	0.0150040
696.786	0.0149503
696.864	0.0146757
696.943	0.0146874
697.021	0.0145750
697.099	0.0144408
697.177	0.0144535
697.255	0.0143671
697.333	0.0142920
697.411	0.0141610
697.489	0.0139397
697.568	0.0141042
697.646	0.0139832
697.724	0.0139575
697.802	0.0140408
697.880	0.0139455
697.958	0.0139096
698.036	0.0142145
698.114	0.0141005
698.193	0.0141504
698.271	0.0143156
698.349	0.0141804
698.427	0.0142343
698.505	0.0144971
698.583	0.0147560
698.661	0.0148277
698.739	0.0149725
698.818	0.0149848
698.896	0.0150818
698.974	0.0151822
699.052	0.0153838
699.130	0.0153297
699.208	0.0154862
699.286	0.0156391
699.364	0.0156890
699.443	0.0156415
699.521	0.0156140
699.599	0.0158242
699.677	0.0158368
699.755	0.0157372
699.833	0.0158596
699.911	0.0157309
699.989	0.0157514
700.068	0.0156994
700.146	0.0157309
700.224	0.0156601
700.302	0.0156520
700.380	0.0156193
700.458	0.0155470
700.536	0.0156108
700.614	0.0154154
700.693	0.0153737
700.771	0.0151711
700.849	0.0152763
700.927	0.0151816
701.005	0.0149806
701.083	0.0149049
701.161	0.0147813
701.239	0.0147641
701.318	0.0147300
701.396	0.0145103
701.474	0.0143789
701.552	0.0143539
701.630	0.0143208
701.708	0.0144230
701.786	0.0142959
701.864	0.0141751
701.943	0.0143005
702.021	0.0142194
702.099	0.0142142
702.177	0.0145658
702.255	0.0146130
702.333	0.0146679
702.411	0.0146597
702.489	0.0147934
702.568	0.0149089
702.646	0.0150399
702.724	0.0151801
702.802	0.0152508
702.880	0.0151418
702.958	0.0153096
703.036	0.0153800
703.114	0.0155520
703.193	0.0155578
703.271	0.0156011
703.349	0.0155731
703.427	0.0157114
703.505	0.0157443
703.583	0.0156878
703.661	0.0157990
703.739	0.0157463
703.818	0.0156916
703.896	0.0156776
703.974	0.0157180
704.052	0.0158534
704.130	0.0156637
704.208	0.0155804
704.286	0.0156073
704.364	0.0155195
704.443	0.0155132
704.521	0.0154697
704.599	0.0153017
704.677	0.0153045
704.755	0.0152807
704.833	0.0149947
704.911	0.0149643
704.989	0.0148508
705.068	0.0147035
705.146	0.0146259
705.224	0.0144891
705.302	0.0143496
705.380	0.0142229
705.458	0.0142269
705.536	0.0141621
705.614	0.0141344
705.693	0.0139594
705.771	0.0138531
705.849	0.0139098
705.927	0.0138509
706.005	0.0139893
706.083	0.0140232
706.161	0.0140760
706.239	0.0139640
706.318	0.0140027
706.396	0.0141664
706.474	0.0143895
706.552	0.0142478
706.630	0.0143744
706.708	0.0144382
706.786	0.0144793
706.864	0.0145929
706.943	0.0147865
707.021	0.0147163
707.099	0.0149310
707.177	0.0150823
707.255	0.0152747
707.333	0.0153509
707.411	0.0154782
707.489	0.0156619
707.568	0.0157468
707.646	0.0159305
707.724	0.0159698
707.802	0.0161394
707.880	0.0162331
707.958	0.0163400
708.036	0.0163637
708.114	0.0164400
708.193	0.0165182
708.271	0.0164609
708.349	0.0164751
708.427	0.0164054
708.505	0.0162476
708.583	0.0162020
708.661	0.0161646
708.739	0.0160764
708.818	0.0159823
708.896	0.0158685
708.974	0.0157481
709.052	0.0155829
709.130	0.0153637
709.208	0.0153222
709.286	0.0152827
709.364	0.0152057
709.443	0.0150421
709.521	0.0148080
709.599	0.0147738
709.677	0.0146413
709.755	0.0145346
709.833	0.0145410
709.911	0.0142670
709.989	0.0143026
710.068	0.0144458
710.146	0.0143002
710.224	0.0142164
710.302	0.0141780
710.380	0.0142770
710.458	0.0141966
710.536	0.0141362
710.614	0.0140000
710.693	0.0140012
710.771	0.0140424
710.849	0.0139985
710.927	0.0140455
711.005	0.0138847
711.083	0.0140297
711.161	0.0140851
711.239	0.0141306
711.318	0.0140462
711.396	0.0141955
711.474	0.0142896
711.552	0.0143224
711.630	0.0143913
711.708	0.0144493
711.786	0.0144934
711.864	0.0146400
711.943	0.0147009
712.021	0.0148895
712.099	0.0148963
712.177	0.0150170
712.255	0.0150394
712.333	0.0153002
712.411	0.0153415
712.489	0.0153792
712.568	0.0153465
712.646	0.0155317
712.724	0.0156342
712.802	0.0156013
712.880	0.0156750
712.958	0.0156837
713.036	0.0155891
713.114	0.0155906
713.193	0.0155730
713.271	0.0154383
713.349	0.0154789
713.427	0.0153699
713.505	0.0152831
713.583	0.0151896
713.661	0.0150712
713.739	0.0151592
713.818	0.0152574
713.896	0.0151190
713.974	0.0150822
714.052	0.0151419
714.130	0.0149129
714.208	0.0149797
714.286	0.0148161
714.364	0.0148565
714.443	0.0149896
714.521	0.0150025
714.599	0.0149265
714.677	0.0150229
714.755	0.0149977
714.833	0.0151099
714.911	0.0151550
714.989	0.0151991
715.068	0.0152403
715.146	0.0152517
715.224	0.0153860
715.302	0.0154324
715.380	0.0155228
715.458	0.0154409
715.536	0.0156059
715.614	0.0156353
715.693	0.0155249
715.771	0.0155768
715.849	0.0155553
715.927	0.0154549
716.005	0.0154491
716.083	0.0154639
716.161	0.0152409
716.239	0.0152699
716.318	0.0152133
716.396	0.0149023
716.474	0.0146606
716.552	0.0145592
716.630	0.0146105
716.708	0.0145449
716.786	0.0143293
716.864	0.0142384
716.943	0.0140929
717.021	0.0139038
717.099	0.0139349
717.177	0.0139973
717.255	0.0137769
717.333	0.0136568
717.411	0.0137881
717.489	0.0140524
717.568	0.0139280
717.646	0.0139761
717.724	0.0140338
717.802	0.0140167
717.880	0.0141469
717.958	0.0142751
718.036	0.0143849
718.114	0.0144650
718.193	0.0145361
718.271	0.0147621
718.349	0.0148034
718.427	0.0147942
718.505	0.0150925
718.583	0.0151601
718.661	0.0151339
718.739	0.0152375
718.818	0.0153342
718.896	0.0154681
718.974	0.0155733
719.052	0.0155268
719.130	0.0156269
719.208	0.0155674
719.286	0.0155314
719.364	0.0156304
719.443	0.0155170
719.521	0.0157085
719.599	0.0156120
719.677	0.0155858
719.755	0.0156601
719.833	0.0156460
719.911	0.0155998
719.989	0.0155900
720.068	0.0157694
720.146	0.0156586
720.224	0.0156721
720.302	0.0157404
720.380	0.0157197
720.458	0.0155042
720.536	0.0156667
720.614	0.0154963
720.693	0.0154682
720.771	0.0155470
720.849	0.0154499
720.927	0.0154159
721.005	0.0153706
721.083	0.0152518
721.161	0.0152484
721.239	0.0149743
721.318	0.0151947
721.396	0.0151821
721.474	0.0149348
721.552	0.0148321
721.630	0.0150344
721.708	0.0149373
721.786	0.0146767
721.864	0.0147159
721.943	0.0147449
722.021	0.0146008
722.099	0.0145553
722.177	0.0143925
722.255	0.0143898
722.333	0.0144228
722.411	0.0143745
722.489	0.0142960
722.568	0.0141444
722.646	0.0140833
722.724	0.0141774
722.802	0.0143976
722.880	0.0142934
722.958	0.0143513
723.036	0.0144404
723.114	0.0144495
723.193	0.0143871
723.271	0.0143748
723.349	0.0146992
723.427	0.0147442
723.505	0.0147401
723.583	0.0146468
723.661	0.0148412
723.739	0.0147556
723.818	0.0148619
723.896	0.0148162
723.974	0.0148035
724.052	0.0149440
724.130	0.0150011
724.208	0.0148496
724.286	0.0149848
724.364	0.0149948
724.443	0.0148470
724.521	0.0150940
724.599	0.0150853
724.677	0.0150614
724.755	0.0149633
724.833	0.0149612
724.911	0.0151209
724.989	0.0150970
725.068	0.0150998
725.146	0.0152305
725.224	0.0152670
725.302	0.0150032
725.380	0.0153249
725.458	0.0154518
725.536	0.0152914
725.614	0.0153429
725.693	0.0154118
725.771	0.0153740
725.849	0.0154468
725.927	0.0155287
726.005	0.0155734
726.083	0.0157359
726.161	0.0157400
726.239	0.0155881
726.318	0.0155215
726.396	0.0156651
726.474	0.0156772
726.552	0.0156406
726.630	0.0157665
726.708	0.0156579
726.786	0.0157121
726.864	0.0155636
726.943	0.0155318
727.021	0.0154268
727.099	0.0154975
727.177	0.0152011
727.255	0.0151638
727.333	0.0150490
727.411	0.0150114
727.489	0.0149586
727.568	0.0148059
727.646	0.0147530
727.724	0.0146918
727.802	0.0144808
727.880	0.0145247
727.958	0.0145668
728.036	0.0144212
728.114	0.0146407
728.193	0.0144083
728.271	0.0143639
728.349	0.0144646
728.427	0.0145017
728.505	0.0145567
728.583	0.0145635
728.661	0.0145838
728.739	0.0146284
728.818	0.0146402
728.896	0.0146879
728.974	0.0145689
729.052	0.0148464
729.130	0.0147427
729.208	0.0148285
729.286	0.0148498
729.364	0.0150233
729.443	0.0150278
729.521	0.0149401
729.599	0.0150694
729.677	0.0151436
729.755	0.0150546
729.833	0.0151141
729.911	0.0150849
729.989	0.0152546
730.068	0.0153032
730.146	0.0153123
730.224	0.0152674
730.302	0.0150989
730.380	0.0153001
730.458	0.0154379
730.536	0.0152766
730.614	0.0152544
730.693	0.0153462
730.771	0.0152408
730.849	0.0153590
730.927	0.0152621
731.005	0.0152865
731.083	0.0151962
731.161	0.0150613
731.239	0.0151965
731.318	0.0151314
731.396	0.0150908
731.474	0.0151627
731.552	0.0151816
731.630	0.0151819
731.708	0.0150214
731.786	0.0149734
731.864	0.0150229
731.943	0.0150170
732.021	0.0150072
732.099	0.0150374
732.177	0.0149169
732.255	0.0148698
732.333	0.0150762
732.411	0.0148393
732.489	0.0145654
732.568	0.0147633
732.646	0.0149526
732.724	0.0148279
732.802	0.0148979
732.880	0.0150208
732.958	0.0148812
733.036	0.0150074
733.114	0.0148866
733.193	0.0150424
733.271	0.0150856
733.349	0.0150021
733.427	0.0151003
733.505	0.0151873
733.583	0.0149858
733.661	0.0151581
733.739	0.0151125
733.818	0.0151377
733.896	0.0149774
733.974	0.0151466
734.052	0.0151061
734.130	0.0150924
734.208	0.0151389
734.286	0.0151637
734.364	0.0150914
734.443	0.0151304
734.521	0.0151206
734.599	0.0152162
734.677	0.0152364
734.755	0.0153008
734.833	0.0151267
734.911	0.0152666
734.989	0.0152704
735.068	0.0152264
735.146	0.0151811
735.224	0.0151862
735.302	0.0151379
735.380	0.0152161
735.458	0.0153952
735.536	0.0152028
735.614	0.0150970
735.693	0.0151040
735.771	0.0152036
735.849	0.0151327
735.927	0.0149866
736.005	0.0150193
736.083	0.0149368
736.161	0.0148137
736.239	0.0148589
736.318	0.0146832
736.396	0.0148027
736.474	0.0146961
736.552	0.0146067
736.630	0.0144762
736.708	0.0145118
736.786	0.0145974
736.864	0.0144145
736.943	0.0145615
737.021	0.0145885
737.099	0.0144794
737.177	0.0144685
737.255	0.0144813
737.333	0.0143855
737.411	0.0145456
737.489	0.0144495
737.568	0.0145969
737.646	0.0145206
737.724	0.0146210
737.802	0.0146989
737.880	0.0146578
737.958	0.0147380
738.036	0.0147834
738.114	0.0147900
738.193	0.0147326
738.271	0.0148636
738.349	0.0148869
738.427	0.0149345
738.505	0.0148222
738.583	0.0147520
738.661	0.0149229
738.739	0.0149131
738.818	0.0148220
738.896	0.0148522
738.974	0.0149673
739.052	0.0150004
739.130	0.0148198
739.208	0.0149509
739.286	0.0150046
739.364	0.0148523
739.443	0.0150927
739.521	0.0151490
739.599	0.0152050
739.677	0.0153251
739.755	0.0152312
739.833	0.0153715
739.911	0.0153918
739.989	0.0154146
740.068	0.0153497
740.146	0.0154687
740.224	0.0153706
740.302	0.0155412
740.380	0.0154731
740.458	0.0154315
740.536	0.0153175
740.614	0.0154555
740.693	0.0154224
740.771	0.0154287
740.849	0.0154414
740.927	0.0153611
741.005	0.0153020
741.083	0.0153760
741.161	0.0153075
741.239	0.0154561
741.318	0.0152829
741.396	0.0152511
741.474	0.0150636
741.552	0.0152644
741.630	0.0151005
741.708	0.0150694
741.786	0.0149690
741.864	0.0148512
741.943	0.0148897
742.021	0.0148376
742.099	0.0147741
742.177	0.0146851
742.255	0.0147906
742.333	0.0146482
742.411	0.0145911
742.489	0.0146345
742.568	0.0146257
742.646	0.0145013
742.724	0.0144666
742.802	0.0145857
742.880	0.0144366
742.958	0.0144209
743.036	0.0145847
743.114	0.0145795
743.193	0.0145799
743.271	0.0145918
743.349	0.0146667
743.427	0.0145914
743.505	0.0146535
743.583	0.0146513
743.661	0.0147556
743.739	0.0147017
743.818	0.0148425
743.896	0.0147132
743.974	0.0148964
744.052	0.0148816
744.130	0.0148900
744.208	0.0149086
744.286	0.0149596
744.364	0.0148933
744.443	0.0150616
744.521	0.0149761
744.599	0.0150742
744.677	0.0150307
744.755	0.0150551
744.833	0.0151141
744.911	0.0150420
744.989	0.0149995
745.068	0.0149992
745.146	0.0150512
745.224	0.0152555
745.302	0.0152180
745.380	0.0150882
745.458	0.0150843
745.536	0.0152229
745.614	0.0152155
745.693	0.0150543
745.771	0.0152334
745.849	0.0150840
745.927	0.0150228
746.005	0.0150972
746.083	0.0150773
746.161	0.0150348
746.239	0.0151696
746.318	0.0151038
746.396	0.0151520
746.474	0.0150740
746.552	0.0151317
746.630	0.0149861
746.708	0.0150690
746.786	0.0150906
746.864	0.0151772
746.943	0.0150030
747.021	0.0151960
747.099	0.0148739
747.177	0.0148374
747.255	0.0149896
747.333	0.0148857
747.411	0.0149207
747.489	0.0149177
747.568	0.0149265
747.646	0.0148745
747.724	0.0150654
747.802	0.0150137
747.880	0.0147565
747.958	0.0148574
748.036	0.0148950
748.114	0.0148930
748.193	0.0148371
748.271	0.0149208
748.349	0.0148476
748.427	0.0150459
748.505	0.0148718
748.583	0.0149669
748.661	0.0150568
748.739	0.0149209
748.818	0.0148277
748.896	0.0149201
748.974	0.0149191
749.052	0.0148159
749.130	0.0148851
749.208	0.0146032
749.286	0.0147120
749.364	0.0147742
749.443	0.0148196
749.521	0.0147745
749.599	0.0146187
749.677	0.0145667
749.755	0.0145561
749.833	0.0145789
749.911	0.0147044
749.989	0.0145662
750.068	0.0145448
750.146	0.0146106
750.224	0.0146171
750.302	0.0147613
750.380	0.0146738
750.458	0.0147218
750.536	0.0145959
750.614	0.0146404
750.693	0.0148293
750.771	0.0147092
750.849	0.0148102
750.927	0.0150011
751.005	0.0149157
751.083	0.0149781
751.161	0.0148258
751.239	0.0148909
751.318	0.0151255
751.396	0.0151795
751.474	0.0150235
751.552	0.0151350
751.630	0.0151673
751.708	0.0152721
751.786	0.0153673
751.864	0.0153471
751.943	0.0151832
752.021	0.0152167
752.099	0.0152032
752.177	0.0152635
752.255	0.0151615
752.333	0.0151588
752.411	0.0151575
752.489	0.0151653
752.568	0.0151382
752.646	0.0150733
752.724	0.0150107
752.802	0.0149586
752.880	0.0148742
752.958	0.0148871
753.036	0.0150698
753.114	0.0148615
753.193	0.0148871
753.271	0.0147270
753.349	0.0148055
753.427	0.0147823
753.505	0.0146909
753.583	0.0147863
753.661	0.0147418
753.739	0.0147183
753.818	0.0148492
753.896	0.0149118
753.974	0.0148705
754.052	0.0149121
754.130	0.0149409
754.208	0.0148821
754.286	0.0149057
754.364	0.0149305
754.443	0.0151128
754.521	0.0151035
754.599	0.0149465
754.677	0.0149898
754.755	0.0149329
754.833	0.0150164
754.911	0.0148707
754.989	0.0149746
755.068	0.0149129
755.146	0.0148377
755.224	0.0149358
755.302	0.0149596
755.380	0.0149030
755.458	0.0148609
755.536	0.0148336
755.614	0.0149534
755.693	0.0149679
755.771	0.0149258
755.849	0.0149098
755.927	0.0149267
756.005	0.0149576
756.083	0.0150497
756.161	0.0149615
756.239	0.0149649
756.318	0.0151857
756.396	0.0152131
756.474	0.0151209
756.552	0.0151308
756.630	0.0151520
756.708	0.0152016
756.786	0.0150656
756.864	0.0152454
756.943	0.0151034
757.021	0.0150398
757.099	0.0152375
757.177	0.0151681
757.255	0.0150346
757.333	0.0149509
757.411	0.0150006
757.489	0.0149102
757.568	0.0149355
757.646	0.0147491
757.724	0.0146085
757.802	0.0148846
757.880	0.0148802
757.958	0.0148555
758.036	0.0148401
758.114	0.0147423
758.193	0.0146651
758.271	0.0147228
758.349	0.0147346
758.427	0.0147723
758.505	0.0148041
758.583	0.0146803
758.661	0.0148283
758.739	0.0148866
758.818	0.0149831
758.896	0.0149789
758.974	0.0148147
759.052	0.0148404
759.130	0.0151504
759.208	0.0149323
759.286	0.0149928
759.364	0.0151691
759.443	0.0150218
759.521	0.0151971
759.599	0.0152297
759.677	0.0152274
759.755	0.0153761
759.833	0.0152327
759.911	0.0151789
759.989	0.0153564
760.068	0.0153036
760.146	0.0151796
760.224	0.0152339
760.302	0.0153300
760.380	0.0153245
760.458	0.0152594
760.536	0.0152330
760.614	0.0151899
760.693	0.0151808
760.771	0.0150568
760.849	0.0151540
760.927	0.0150207
761.005	0.0150772
761.083	0.0150953
761.161	0.0148793
761.239	0.0150356
761.318	0.0150593
761.396	0.0151263
761.474	0.0150715
761.552	0.0148562
761.630	0.0149856
761.708	0.0149568
761.786	0.0149207
761.864	0.0149163
761.943	0.0148207
762.021	0.0148608
762.099	0.0148320
762.177	0.0148267
762.255	0.0147717
762.333	0.0148920
762.411	0.0148423
762.489	0.0147460
762.568	0.0147292
762.646	0.0147285
762.724	0.0146320
762.802	0.0147240
762.880	0.0147286
762.958	0.0146514
763.036	0.0145680
763.114	0.0146017
763.193	0.0147535
763.271	0.0145260
763.349	0.0146117
763.427	0.0146632
763.505	0.0145058
763.583	0.0145595
763.661	0.0144038
763.739	0.0144969
763.818	0.0147016
763.896	0.0145000
763.974	0.0145955
764.052	0.0145525
764.130	0.0145327
764.208	0.0145348
764.286	0.0146581
764.364	0.0149307
764.443	0.0146384
764.521	0.0147530
764.599	0.0148918
764.677	0.0149178
764.755	0.0149908
764.833	0.0149661
764.911	0.0151102
764.989	0.0152444
765.068	0.0153532
765.146	0.0153785
765.224	0.0153627
765.302	0.0152771
765.380	0.0155182
765.458	0.0154809
765.536	0.0153236
765.614	0.0154279
765.693	0.0154389
765.771	0.0153918
765.849	0.0154322
765.927	0.0153568
766.005	0.0153667
766.083	0.0154090
766.161	0.0152111
766.239	0.0150579
766.318	0.0150118
766.396	0.0151758
766.474	0.0149776
766.552	0.0149943
766.630	0.0149783
766.708	0.0147797
766.786	0.0147187
766.864	0.0148511
766.943	0.0147548
767.021	0.0148178
767.099	0.0146096
767.177	0.0144949
767.255	0.0146662
767.333	0.0145528
767.411	0.0144980
767.489	0.0146273
767.568	0.0145107
767.646	0.0145390
767.724	0.0146054
767.802	0.0146404
767.880	0.0146709
767.958	0.0145669
768.036	0.0146196
768.114	0.0147388
768.193	0.0147606
768.271	0.0148815
768.349	0.0147075
768.427	0.0148828
768.505	0.0147330
768.583	0.0150896
768.661	0.0149765
768.739	0.0149780
768.818	0.0149597
768.896	0.0151106
768.974	0.0150204
769.052	0.0149338
769.130	0.0150778
769.208	0.0150725
769.286	0.0150191
769.364	0.0151022
769.443	0.0151199
769.521	0.0150883
769.599	0.0149492
769.677	0.0150020
769.755	0.0149442
769.833	0.0150202
769.911	0.0149269
769.989	0.0149245
770.068	0.0149658
770.146	0.0150024
770.224	0.0149071
770.302	0.0149288
770.380	0.0149898
770.458	0.0148781
770.536	0.0149907
770.614	0.0149572
770.693	0.0149653
770.771	0.0149355
770.849	0.0150520
770.927	0.0148953
771.005	0.0147675
771.083	0.0148621
771.161	0.0149158
771.239	0.0148205
771.318	0.0150535
771.396	0.0150455
771.474	0.0150116
771.552	0.0149187
771.630	0.0150345
771.708	0.0149474
771.786	0.0149598
771.864	0.0149512
771.943	0.0151179
772.021	0.0148943
772.099	0.0149964
772.177	0.0148711
772.255	0.0149400
772.333	0.0150633
772.411	0.0149503
772.489	0.0148439
772.568	0.0148669
772.646	0.0149527
772.724	0.0149261
772.802	0.0149815
772.880	0.0148710
772.958	0.0149840
773.036	0.0150937
773.114	0.0150021
773.193	0.0149818
773.271	0.0149776
773.349	0.0149902
773.427	0.0149319
773.505	0.0149148
773.583	0.0150362
773.661	0.0150745
773.739	0.0150222
773.818	0.0149454
773.896	0.0149959
773.974	0.0150444
774.052	0.0150313
774.130	0.0149261
774.208	0.0149803
774.286	0.0148736
774.364	0.0151461
774.443	0.0150434
774.521	0.0149925
774.599	0.0149155
774.677	0.0148696
774.755	0.0149904
774.833	0.0148437
774.911	0.0148382
774.989	0.0148067
775.068	0.0149406
775.146	0.0147330
775.224	0.0146795
775.302	0.0147263
775.380	0.0147648
775.458	0.0147724
775.536	0.0147050
775.614	0.0147166
775.693	0.0147611
775.771	0.0147270
775.849	0.0147186
775.927	0.0147258
776.005	0.0148241
776.083	0.0148177
776.161	0.0148067
776.239	0.0148154
776.318	0.0148283
776.396	0.0148549
776.474	0.0149146
776.552	0.0148859
776.630	0.0149165
776.708	0.0149974
776.786	0.0149854
776.864	0.0150228
776.943	0.0151417
777.021	0.0151398
777.099	0.0151618
777.177	0.0151686
777.255	0.0151597
777.333	0.0152164
777.411	0.0152022
777.489	0.0151250
777.568	0.0151825
777.646	0.0153061
777.724	0.0152068
777.802	0.0150704
777.880	0.0152325
777.958	0.0150928
778.036	0.0151694
778.114	0.0151070
778.193	0.0151746
778.271	0.0151809
778.349	0.0150755
778.427	0.0150153
778.505	0.0150145
778.583	0.0150551
778.661	0.0149497
778.739	0.0148553
778.818	0.0148270
778.896	0.0149251
778.974	0.0147404
779.052	0.0149006
779.130	0.0147556
779.208	0.0146774
779.286	0.0147096
779.364	0.0147095
779.443	0.0146168
779.521	0.0146319
779.599	0.0145966
779.677	0.0147815
779.755	0.0147157
779.833	0.0147936
779.911	0.0148852
779.989	0.0147459
780.068	0.0147357
780.146	0.0147092
780.224	0.0147644
780.302	0.0148605
780.380	0.0148921
780.458	0.0148077
780.536	0.0149591
780.614	0.0149615
780.693	0.0150823
780.771	0.0149936
780.849	0.0151315
780.927	0.0150944
781.005	0.0151582
781.083	0.0151667
781.161	0.0151093
781.239	0.0151262
781.318	0.0151495
781.396	0.0152070
781.474	0.0153697
781.552	0.0152516
781.630	0.0153033
781.708	0.0152760
781.786	0.0151968
781.864	0.0153258
781.943	0.0152964
782.021	0.0152984
782.099	0.0153954
782.177	0.0151804
782.255	0.0152754
782.333	0.0152708
782.411	0.0153303
782.489	0.0152135
782.568	0.0152149
782.646	0.0151543
782.724	0.0151579
782.802	0.0151550
782.880	0.0151616
782.958	0.0151608
783.036	0.0150787
783.114	0.0149490
783.193	0.0149619
783.271	0.0149751
783.349	0.0149403
783.427	0.0148984
783.505	0.0149162
783.583	0.0150228
783.661	0.0150071
783.739	0.0147460
783.818	0.0148181
783.896	0.0148174
783.974	0.0148044
784.052	0.0148760
784.130	0.0149320
784.208	0.0146288
784.286	0.0147604
784.364	0.0147724
784.443	0.0147891
784.521	0.0147034
784.599	0.0146968
784.677	0.0148409
784.755	0.0147581
784.833	0.0147057
784.911	0.0146483
784.989	0.0148943
785.068	0.0147836
785.146	0.0146658
785.224	0.0148264
785.302	0.0147579
785.380	0.0147523
785.458	0.0149545
785.536	0.0148530
785.614	0.0148391
785.693	0.0150491
785.771	0.0149677
785.849	0.0149627
785.927	0.0149155
786.005	0.0150858
786.083	0.0150619
786.161	0.0151434
786.239	0.0152122
786.318	0.0152140
786.396	0.0151022
786.474	0.0151424
786.552	0.0151221
786.630	0.0152192
786.708	0.0152971
786.786	0.0151494
786.864	0.0152429
786.943	0.0152532
787.021	0.0151682
787.099	0.0150401
787.177	0.0151601
787.255	0.0151929
787.333	0.0148998
787.411	0.0150455
787.489	0.0150108
787.568	0.0150690
787.646	0.0149326
787.724	0.0150243
787.802	0.0149372
787.880	0.0149138
787.958	0.0149731
788.036	0.0149154
788.114	0.0149539
788.193	0.0148367
788.271	0.0149403
788.349	0.0147826
788.427	0.0148210
788.505	0.0149554
788.583	0.0147247
788.661	0.0147505
788.739	0.0147527
788.818	0.0147407
788.896	0.0148150
788.974	0.0147544
789.052	0.0148198
789.130	0.0149449
789.208	0.0148857
789.286	0.0147906
789.364	0.0146892
789.443	0.0149437
789.521	0.0149635
789.599	0.0148746
789.677	0.0147887
789.755	0.0148853
789.833	0.0148141
789.911	0.0148588
789.989	0.0149004
790.068	0.0148425
790.146	0.0148203
790.224	0.0149687
790.302	0.0150436
790.380	0.0148788
790.458	0.0150237
790.536	0.0149303
790.614	0.0150073
790.693	0.0150497
790.771	0.0149254
790.849	0.0149012
790.927	0.0149538
791.005	0.0149667
791.083	0.0150697
791.161	0.0150211
791.239	0.0151633
791.318	0.0151188
791.396	0.0149962
791.474	0.0150228
791.552	0.0149438
791.630	0.0150237
791.708	0.0149285
791.786	0.0151498
791.864	0.0150237
791.943	0.0151717
792.021	0.0150214
792.099	0.0150337
792.177	0.0151958
792.255	0.0150549
792.333	0.0150154
792.411	0.0149251
792.489	0.0150603
792.568	0.0151612
792.646	0.0151252
792.724	0.0150842
792.802	0.0150729
792.880	0.0149995
792.958	0.0151588
793.036	0.0150481
793.114	0.0151566
793.193	0.0150172
793.271	0.0149961
793.349	0.0151757
793.427	0.0149889
793.505	0.0150419
793.583	0.0149907
793.661	0.0149423
793.739	0.0151093
793.818	0.0150033
793.896	0.0148733
793.974	0.0148870
794.052	0.0149374
794.130	0.0148800
794.208	0.0147732
794.286	0.0147454
794.364	0.0147762
794.443	0.0148904
794.521	0.0146938
794.599	0.0147810
794.677	0.0148931
794.755	0.0145590
794.833	0.0146470
794.911	0.0146946
794.989	0.0147727
795.068	0.0145658
795.146	0.0146546
795.224	0.0145983
795.302	0.0148016
795.380	0.0148309
795.458	0.0147978
795.536	0.0148923
795.614	0.0149684
795.693	0.0149468
795.771	0.0147482
795.849	0.0148600
795.927	0.0148852
796.005	0.0149348
796.083	0.0149445
796.161	0.0149967
796.239	0.0148558
796.318	0.0149903
796.396	0.0149294
796.474	0.0149763
796.552	0.0149654
796.630	0.0149749
796.708	0.0149686
796.786	0.0149419
796.864	0.0150500
796.943	0.0150800
797.021	0.0149627
797.099	0.0149602
797.177	0.0150784
797.255	0.0150359
797.333	0.0150640
797.411	0.0151351
797.489	0.0151771
797.568	0.0150865
797.646	0.0150365
797.724	0.0149765
797.802	0.0151919
797.880	0.0151381
797.958	0.0151442
798.036	0.0152940
798.114	0.0152596
798.193	0.0152293
798.271	0.0151757
798.349	0.0151644
798.427	0.0151328
798.505	0.0152158
798.583	0.0150227
798.661	0.0150703
798.739	0.0151057
798.818	0.0150519
798.896	0.0150729
798.974	0.0149796
799.052	0.0151098
799.130	0.0149940
799.208	0.0149519
799.286	0.0149972
799.364	0.0150938
799.443	0.0149023
799.521	0.0148740
799.599	0.0149057
799.677	0.0148958
799.755	0.0149354
799.833	0.0149663
799.911	0.0149603
799.989	0.0148092
800.068	0.0147173
800.146	0.0148099
800.224	0.0148761
800.302	0.0149088
800.380	0.0149939
800.458	0.0148064
800.536	0.0148685
800.614	0.0148839
800.693	0.0148075
800.771	0.0149101
800.849	0.0148884
800.927	0.0149690
801.005	0.0147683
801.083	0.0148698
801.161	0.0148099
801.239	0.0148163
801.318	0.0148463
801.396	0.0150960
801.474	0.0147828
801.552	0.0148850
801.630	0.0148669
801.708	0.0149931
801.786	0.0149380
801.864	0.0148541
801.943	0.0150404
802.021	0.0149794
802.099	0.0148221
802.177	0.0149464
802.255	0.0150846
802.333	0.0150777
802.411	0.0151292
802.489	0.0150624
802.568	0.0150153
802.646	0.0150575
802.724	0.0151317
802.802	0.0151575
802.880	0.0150029
802.958	0.0150091
803.036	0.0152886
803.114	0.0150657
803.193	0.0150742
803.271	0.0151336
803.349	0.0150311
803.427	0.0150555
803.505	0.0150164
803.583	0.0150212
803.661	0.0150200
803.739	0.0150913
803.818	0.0151621
803.896	0.0151115
803.974	0.0149564
804.052	0.0150098
804.130	0.0150108
804.208	0.0151235
804.286	0.0150591
804.364	0.0151463
804.443	0.0151802
804.521	0.0151572
804.599	0.0150875
804.677	0.0149928
804.755	0.0151348
804.833	0.0150843
804.911	0.0150742
804.989	0.0151663
805.068	0.0149625
805.146	0.0150404
805.224	0.0150544
805.302	0.0149364
805.380	0.0149670
805.458	0.0150147
805.536	0.0149736
805.614	0.0148653
805.693	0.0149262
805.771	0.0150346
805.849	0.0149785
805.927	0.0150288
806.005	0.0148536
806.083	0.0149484
806.161	0.0150500
806.239	0.0151038
806.318	0.0148308
806.396	0.0149728
806.474	0.0149769
806.552	0.0151327
806.630	0.0149799
806.708	0.0149323
806.786	0.0150472
806.864	0.0149632
806.943	0.0150684
807.021	0.0150856
807.099	0.0149669
807.177	0.0149513
807.255	0.0148447
807.333	0.0149359
807.411	0.0149545
807.489	0.0149409
807.568	0.0150806
807.646	0.0149545
807.724	0.0149121
807.802	0.0148859
807.880	0.0149722
807.958	0.0149658
808.036	0.0147638
808.114	0.0148764
808.193	0.0148453
808.271	0.0147226
808.349	0.0149026
808.427	0.0148123
808.505	0.0148524
808.583	0.0148386
808.661	0.0148286
808.739	0.0148250
808.818	0.0148027
808.896	0.0149711
808.974	0.0150352
809.052	0.0150641
809.130	0.0148942
809.208	0.0149803
809.286	0.0149223
809.364	0.0151180
809.443	0.0151298
809.521	0.0150460
809.599	0.0149017
809.677	0.0150624
809.755	0.0152757
809.833	0.0150996
809.911	0.0151685
809.989	0.0151425
810.068	0.0152062
810.146	0.0151517
810.224	0.0153008
810.302	0.0152361
810.380	0.0152750
810.458	0.0152206
810.536	0.0150657
810.614	0.0150841
810.693	0.0151978
810.771	0.0152260
810.849	0.0150372
810.927	0.0152254
811.005	0.0151696
811.083	0.0151250
811.161	0.0151046
811.239	0.0150719
811.318	0.0150760
811.396	0.0149933
811.474	0.0149043
811.552	0.0151188
811.630	0.0149120
811.708	0.0149025
811.786	0.0149607
811.864	0.0148579
811.943	0.0149956
812.021	0.0151551
812.099	0.0148930
812.177	0.0149790
812.255	0.0151255
812.333	0.0151122
812.411	0.0148589
812.489	0.0148592
812.568	0.0149700
812.646	0.0148679
812.724	0.0148358
812.802	0.0148466
812.880	0.0148283
812.958	0.0148632
813.036	0.0149023
813.114	0.0147519
813.193	0.0149591
813.271	0.0148452
813.349	0.0147708
813.427	0.0147471
813.505	0.0147287
813.583	0.0146089
813.661	0.0146184
813.739	0.0147878
813.818	0.0146764
813.896	0.0148069
813.974	0.0147786
814.052	0.0149342
814.130	0.0149413
814.208	0.0149814
814.286	0.0150046
814.364	0.0150261
814.443	0.0149489
814.521	0.0149605
814.599	0.0149848
814.677	0.0150803
814.755	0.0150772
814.833	0.0149134
814.911	0.0149577
814.989	0.0152058
815.068	0.0150105
815.146	0.0149012
815.224	0.0150466
815.302	0.0150504
815.380	0.0148109
815.458	0.0148771
815.536	0.0149357
815.614	0.0148970
815.693	0.0148206
815.771	0.0148329
815.849	0.0148544
815.927	0.0146935
816.005	0.0148035
816.083	0.0150131
816.161	0.0148076
816.239	0.0149081
816.318	0.0149400
816.396	0.0150724
816.474	0.0151336
816.552	0.0152108
816.630	0.0151095
816.708	0.0151051
816.786	0.0152747
816.864	0.0151508
816.943	0.0150472
817.021	0.0151842
817.099	0.0150870
817.177	0.0151449
817.255	0.0148831
817.333	0.0147526
817.411	0.0147455
817.489	0.0147011
817.568	0.0147623
817.646	0.0148100
817.724	0.0145478
817.802	0.0144869
817.880	0.0146771
817.958	0.0147150
818.036	0.0148912
818.114	0.0149655
818.193	0.0147733
818.271	0.0147758
818.349	0.0149448
818.427	0.0150626
818.505	0.0149859
818.583	0.0150264
818.661	0.0151240
818.739	0.0149112
818.818	0.0149390
818.896	0.0151221
818.974	0.0149622
819.052	0.0148266
819.130	0.0150093
819.208	0.0149540
819.286	0.0148421
819.364	0.0149255
819.443	0.0149410
819.521	0.0149837
819.599	0.0148763
819.677	0.0151186
819.755	0.0149911
819.833	0.0149898
819.911	0.0149886
819.989	0.0149350
820.068	0.0148916
820.146	0.0149393
820.224	0.0149624
820.302	0.0149802
820.380	0.0150203
820.458	0.0151182
820.536	0.0149556
820.614	0.0150687
820.693	0.0150213
820.771	0.0148968
820.849	0.0147982
820.927	0.0148709
821.005	0.0149205
821.083	0.0149134
821.161	0.0149425
821.239	0.0148663
821.318	0.0149329
821.396	0.0148755
821.474	0.0146262
821.552	0.0146942
821.630	0.0146209
821.708	0.0146090
821.786	0.0146152
821.864	0.0145376
821.943	0.0145645
822.021	0.0146145
822.099	0.0146564
822.177	0.0146925
822.255	0.0145560
822.333	0.0148416
822.411	0.0147584
822.489	0.0147379
822.568	0.0148556
822.646	0.0151370
822.724	0.0152988
822.802	0.0153513
822.880	0.0153548
822.958	0.0153397
823.036	0.0155570
823.114	0.0154686
823.193	0.0154400
823.271	0.0155004
823.349	0.0155521
823.427	0.0156326
823.505	0.0154832
823.583	0.0154604
823.661	0.0153765
823.739	0.0152915
823.818	0.0152341
823.896	0.0152730
823.974	0.0150934
824.052	0.0151534
824.130	0.0149631
824.208	0.0149035
824.286	0.0145650
824.364	0.0146671
824.443	0.0147178
824.521	0.0146637
824.599	0.0145219
824.677	0.0144345
824.755	0.0144576
824.833	0.0143525
824.911	0.0143919
824.989	0.0142937
825.068	0.0143077
825.146	0.0143839
825.224	0.0142748
825.302	0.0144122
825.380	0.0142747
825.458	0.0144997
825.536	0.0146523
825.614	0.0145801
825.693	0.0145937
825.771	0.0148982
825.849	0.0149736
825.927	0.0148690
826.005	0.0150019
826.083	0.0151351
826.161	0.0153489
826.239	0.0152567
826.318	0.0153522
826.396	0.0154320
826.474	0.0154109
826.552	0.0154054
826.630	0.0153680
826.708	0.0154330
826.786	0.0152772
826.864	0.0153299
826.943	0.0152593
827.021	0.0153901
827.099	0.0153221
827.177	0.0151178
827.255	0.0151841
827.333	0.0149799
827.411	0.0149512
827.489	0.0149192
827.568	0.0148901
827.646	0.0147886
827.724	0.0146101
827.802	0.0147069
827.880	0.0146278
827.958	0.0147468
828.036	0.0145714
828.114	0.0145560
828.193	0.0145860
828.271	0.0147263
828.349	0.0148770
828.427	0.0148713
828.505	0.0148466
828.583	0.0149481
828.661	0.0148536
828.739	0.0149574
828.818	0.0151022
828.896	0.0150179
828.974	0.0151785
829.052	0.0151002
829.130	0.0151573
829.208	0.0154263
829.286	0.0152771
829.364	0.0153539
829.443	0.0152882
829.521	0.0152341
829.599	0.0154570
829.677	0.0153311
829.755	0.0152423
829.833	0.0152261
829.911	0.0152840
829.989	0.0153488
830.068	0.0153246
830.146	0.0151993
830.224	0.0151186
830.302	0.0150751
830.380	0.0152393
830.458	0.0152090
830.536	0.0149725
830.614	0.0150712
830.693	0.0149809
830.771	0.0148273
830.849	0.0147509
830.927	0.0148681
831.005	0.0148435
831.083	0.0147955
831.161	0.0146509
831.239	0.0146799
831.318	0.0146438
831.396	0.0146233
831.474	0.0146446
831.552	0.0146156
831.630	0.0146134
831.708	0.0145699
831.786	0.0145636
831.864	0.0146394
831.943	0.0146566
832.021	0.0146181
832.099	0.0147211
832.177	0.0146162
832.255	0.0146547
832.333	0.0148488
832.411	0.0148930
832.489	0.0149911
832.568	0.0150168
832.646	0.0149487
832.724	0.0149873
832.802	0.0151942
832.880	0.0152489
832.958	0.0152781
833.036	0.0154260
833.114	0.0153947
833.193	0.0154861
833.271	0.0155402
833.349	0.0155553
833.427	0.0154390
833.505	0.0155655
833.583	0.0155461
833.661	0.0153973
833.739	0.0153457
833.818	0.0153352
833.896	0.0152186
833.974	0.0151544
834.052	0.0151052
834.130	0.0149285
834.208	0.0148739
834.286	0.0146733
834.364	0.0145194
834.443	0.0145370
834.521	0.0144402
834.599	0.0144220
834.677	0.0143942
834.755	0.0143760
834.833	0.0143961
834.911	0.0144972
834.989	0.0145712
835.068	0.0145588
835.146	0.0146562
835.224	0.0147096
835.302	0.0147437
835.380	0.0147554
835.458	0.0146326
835.536	0.0149045
835.614	0.0149480
835.693	0.0150835
835.771	0.0150180
835.849	0.0150232
835.927	0.0149988
836.005	0.0150362
836.083	0.0152152
836.161	0.0152482
836.239	0.0153220
836.318	0.0153963
836.396	0.0152195
836.474	0.0154311
836.552	0.0152081
836.630	0.0153284
836.708	0.0151348
836.786	0.0152094
836.864	0.0152251
836.943	0.0152849
837.021	0.0153390
837.099	0.0150838
837.177	0.0150569
837.255	0.0150047
837.333	0.0150771
837.411	0.0149828
837.489	0.0150414
837.568	0.0149441
837.646	0.0149192
837.724	0.0148486
837.802	0.0146630
837.880	0.0147491
837.958	0.0148833
838.036	0.0146982
838.114	0.0146906
838.193	0.0146690
838.271	0.0145415
838.349	0.0145639
838.427	0.0146955
838.505	0.0146093
838.583	0.0146619
838.661	0.0145821
838.739	0.0145786
838.818	0.0145771
838.896	0.0145452
838.974	0.0146972
839.052	0.0147160
839.130	0.0147861
839.208	0.0149252
839.286	0.0148887
839.364	0.0148991
839.443	0.0150123
839.521	0.0151308
839.599	0.0151331
839.677	0.0151929
839.755	0.0153250
839.833	0.0152321
839.911	0.0153390
839.989	0.0153355
840.068	0.0153823
840.146	0.0153133
840.224	0.0153465
840.302	0.0152215
840.380	0.0150414
840.458	0.0151440
840.536	0.0149707
840.614	0.0149615
840.693	0.0149587
840.771	0.0149678
840.849	0.0147652
840.927	0.0148235
841.005	0.0147335
841.083	0.0147942
841.161	0.0147378
841.239	0.0149252
841.318	0.0149079
841.396	0.0147868
841.474	0.0147655
841.552	0.0148949
841.630	0.0148173
841.708	0.0148209
841.786	0.0149646
841.864	0.0148643
841.943	0.0148489
842.021	0.0148063
842.099	0.0148380
842.177	0.0149829
842.255	0.0147970
842.333	0.0147816
842.411	0.0147715
842.489	0.0147767
842.568	0.0147425
842.646	0.0148478
842.724	0.0148706
842.802	0.0147758
842.880	0.0149303
842.958	0.0149110
843.036	0.0148836
843.114	0.0148202
843.193	0.0150011
843.271	0.0149947
843.349	0.0150866
843.427	0.0151025
843.505	0.0150043
843.583	0.0151447
843.661	0.0151521
843.739	0.0151243
843.818	0.0149851
843.896	0.0150488
843.974	0.0150115
844.052	0.0149065
844.130	0.0149545
844.208	0.0149521
844.286	0.0149205
844.364	0.0148407
844.443	0.0147818
844.521	0.0146721
844.599	0.0145443
844.677	0.0146729
844.755	0.0147507
844.833	0.0146632
844.911	0.0146249
844.989	0.0145887
845.068	0.0146329
845.146	0.0146863
845.224	0.0147737
845.302	0.0147442
845.380	0.0148455
845.458	0.0148911
845.536	0.0149277
845.614	0.0150324
845.693	0.0151814
845.771	0.0150544
845.849	0.0150647
845.927	0.0151750
846.005	0.0151380
846.083	0.0151271
846.161	0.0152058
846.239	0.0150362
846.318	0.0151901
846.396	0.0151180
846.474	0.0151258
846.552	0.0151725
846.630	0.0150225
846.708	0.0150329
846.786	0.0149791
846.864	0.0149637
846.943	0.0148092
847.021	0.0148322
847.099	0.0149792
847.177	0.0149679
847.255	0.0148771
847.333	0.0148911
847.411	0.0149841
847.489	0.0149434
847.568	0.0150467
847.646	0.0150877
847.724	0.0151161
847.802	0.0150996
847.880	0.0150806
847.958	0.0152031
848.036	0.0151098
848.114	0.0151775
848.193	0.0151344
848.271	0.0152718
848.349	0.0152608
848.427	0.0151703
848.505	0.0150619
848.583	0.0150925
848.661	0.0152148
848.739	0.0149570
848.818	0.0148875
848.896	0.0150087
848.974	0.0148803
849.052	0.0147472
849.130	0.0147596
849.208	0.0149432
849.286	0.0147864
849.364	0.0147369
849.443	0.0147971
849.521	0.0147642
849.599	0.0149222
849.677	0.0150159
849.755	0.0147747
849.833	0.0149120
849.911	0.0150806
849.989	0.0148835
850.068	0.0149820
850.146	0.0150184
850.224	0.0148721
850.302	0.0149009
850.380	0.0149847
850.458	0.0149815
850.536	0.0150858
850.614	0.0149655
850.693	0.0149298
850.771	0.0150325
850.849	0.0149793
850.927	0.0149107
851.005	0.0150210
851.083	0.0148643
851.161	0.0148896
851.239	0.0148740
851.318	0.0148463
851.396	0.0149068
851.474	0.0149675
851.552	0.0150784
851.630	0.0150622
851.708	0.0149307
851.786	0.0150226
851.864	0.0152559
851.943	0.0152913
852.021	0.0153488
852.099	0.0152708
852.177	0.0152547
852.255	0.0152859
852.333	0.0154587
852.411	0.0153304
852.489	0.0153888
852.568	0.0154107
852.646	0.0153225
852.724	0.0152772
852.802	0.0151930
852.880	0.0149918
852.958	0.0149422
853.036	0.0149839
853.114	0.0149606
853.193	0.0148893
853.271	0.0149154
853.349	0.0149354
853.427	0.0148007
853.505	0.0148448
853.583	0.0146780
853.661	0.0147571
853.739	0.0148113
853.818	0.0148018
853.896	0.0148689
853.974	0.0149390
854.052	0.0148880
854.130	0.0149414
854.208	0.0150294
854.286	0.0151330
854.364	0.0151264
854.443	0.0151215
854.521	0.0150539
854.599	0.0149753
854.677	0.0150086
854.755	0.0151141
854.833	0.0149624
854.911	0.0150633
854.989	0.0148589
855.068	0.0148064
855.146	0.0148978
855.224	0.0148804
855.302	0.0148101
855.380	0.0148933
855.458	0.0147870
855.536	0.0147398
855.614	0.0148542
855.693	0.0148644
855.771	0.0147207
855.849	0.0148711
855.927	0.0148742
856.005	0.0148264
856.083	0.0150472
856.161	0.0150254
856.239	0.0150319
856.318	0.0150816
856.396	0.0150421
856.474	0.0150909
856.552	0.0151962
856.630	0.0151462
856.708	0.0152637
856.786	0.0154163
856.864	0.0152334
856.943	0.0152785
857.021	0.0152860
857.099	0.0152271
857.177	0.0152265
857.255	0.0152433
857.333	0.0152528
857.411	0.0151141
857.489	0.0152926
857.568	0.0152200
857.646	0.0151705
857.724	0.0150021
857.802	0.0150990
857.880	0.0149790
857.958	0.0149236
858.036	0.0148795
858.114	0.0148137
858.193	0.0148373
858.271	0.0148758
858.349	0.0148942
858.427	0.0148613
858.505	0.0147217
858.583	0.0149207
858.661	0.0150169
858.739	0.0149249
858.818	0.0149964
858.896	0.0149807
858.974	0.0150659
859.052	0.0150229
859.130	0.0152007
859.208	0.0152002
859.286	0.0152693
859.364	0.0153567
859.443	0.0150839
859.521	0.0150591
859.599	0.0151302
859.677	0.0151147
859.755	0.0150303
859.833	0.0151157
859.911	0.0150773
859.989	0.0149986
860.068	0.0149659
860.146	0.0149471
860.224	0.0149120
860.302	0.0148146
860.380	0.0149462
860.458	0.0148869
860.536	0.0149878
860.614	0.0150468
860.693	0.0149429
860.771	0.0149693
860.849	0.0149306
860.927	0.0149461
861.005	0.0149128
861.083	0.0149756
861.161	0.0148049
861.239	0.0148706
861.318	0.0150452
861.396	0.0149113
861.474	0.0148588
861.552	0.0147827
861.630	0.0148653
861.708	0.0150245
861.786	0.0149900
861.864	0.0148003
861.943	0.0149323
862.021	0.0148912
862.099	0.0150331
862.177	0.0149240
862.255	0.0149588
862.333	0.0150330
862.411	0.0150626
862.489	0.0150252
862.568	0.0150711
862.646	0.0150975
862.724	0.0151261
862.802	0.0149790
862.880	0.0149752
862.958	0.0150037
863.036	0.0150075
863.114	0.0150885
863.193	0.0152108
863.271	0.0151575
863.349	0.0149248
863.427	0.0150579
863.505	0.0150143
863.583	0.0150999
863.661	0.0150999
863.739	0.0148703
863.818	0.0150898
863.896	0.0151144
863.974	0.0150957
864.052	0.0151204
864.130	0.0150799
864.208	0.0150839
864.286	0.0148280
864.364	0.0149860
864.443	0.0150920
864.521	0.0150386
864.599	0.0149767
864.677	0.0149419
864.755	0.0149726
864.833	0.0148812
864.911	0.0147997
864.989	0.0147691
865.068	0.0147357
865.146	0.0147498
865.224	0.0147256
865.302	0.0147002
865.380	0.0145250
865.458	0.0145105
865.536	0.0145790
865.614	0.0145584
865.693	0.0145477
865.771	0.0146871
865.849	0.0146027
865.927	0.0146985
866.005	0.0147681
866.083	0.0148680
866.161	0.0148878
866.239	0.0149352
866.318	0.0150147
866.396	0.0150471
866.474	0.0151329
866.552	0.0151131
866.630	0.0150385
866.708	0.0149994
866.786	0.0151500
866.864	0.0151031
866.943	0.0150021
867.021	0.0150858
867.099	0.0150531
867.177	0.0148899
867.255	0.0149418
867.333	0.0150996
867.411	0.0149338
867.489	0.0149718
867.568	0.0150331
867.646	0.0149567
867.724	0.0150621
867.802	0.0150169
867.880	0.0149994
867.958	0.0150011
868.036	0.0150612
868.114	0.0149508
868.193	0.0149063
868.271	0.0151137
868.349	0.0150924
868.427	0.0151363
868.505	0.0150275
868.583	0.0151488
868.661	0.0151218
868.739	0.0149991
868.818	0.0150892
868.896	0.0150209
868.974	0.0151611
869.052	0.0150837
869.130	0.0149534
869.208	0.0149631
869.286	0.0149318
869.364	0.0149575
869.443	0.0150377
869.521	0.0148801
869.599	0.0148512
869.677	0.0148953
869.755	0.0148009
869.833	0.0148348
869.911	0.0147580
869.989	0.0147586
870.068	0.0147249
870.146	0.0148048
870.224	0.0146867
870.302	0.0146996
870.380	0.0147308
870.458	0.0146740
870.536	0.0146954
870.614	0.0147533
870.693	0.0147356
870.771	0.0148017
870.849	0.0146891
870.927	0.0147649
871.005	0.0149660
871.083	0.0148671
871.161	0.0150459
871.239	0.0151723
871.318	0.0152372
871.396	0.0151690
871.474	0.0151803
871.552	0.0152843
871.630	0.0154433
871.708	0.0153027
871.786	0.0152694
871.864	0.0155006
871.943	0.0154254
872.021	0.0152661
872.099	0.0153607
872.177	0.0153046
872.255	0.0154353
872.333	0.0152387
872.411	0.0152398
872.489	0.0152591
872.568	0.0153185
872.646	0.0151287
872.724	0.0151748
872.802	0.0151071
872.880	0.0150909
872.958	0.0150123
873.036	0.0150330
873.114	0.0150100
873.193	0.0149762
873.271	0.0149345
873.349	0.0148823
873.427	0.0148665
873.505	0.0148431
873.583	0.0148188
873.661	0.0147742
873.739	0.0149393
873.818	0.0148952
873.896	0.0148112
873.974	0.0148927
874.052	0.0148121
874.130	0.0149262
874.208	0.0147986
874.286	0.0147739
874.364	0.0148734
874.443	0.0147976
874.521	0.0148855
874.599	0.0149567
874.677	0.0150561
874.755	0.0148441
874.833	0.0149294
874.911	0.0150121
874.989	0.0150449
875.068	0.0150230
875.146	0.0149992
875.224	0.0151340
875.302	0.0147974
875.380	0.0149991
875.458	0.0150942
875.536	0.0151624
875.614	0.0152212
875.693	0.0149316
875.771	0.0150572
875.849	0.0151859
875.927	0.0152117
876.005	0.0150731
876.083	0.0151963
876.161	0.0151225
876.239	0.0151822
876.318	0.0150891
876.396	0.0151019
876.474	0.0149404
876.552	0.0151451
876.630	0.0151067
876.708	0.0150906
876.786	0.0151005
876.864	0.0150531
876.943	0.0149520
877.021	0.0149206
877.099	0.0148762
877.177	0.0148878
877.255	0.0148853
877.333	0.0150561
877.411	0.0151024
877.489	0.0151088
877.568	0.0150933
877.646	0.0152111
877.724	0.0152176
877.802	0.0150526
877.880	0.0150943
877.958	0.0151233
878.036	0.0151738
878.114	0.0149973
878.193	0.0148582
878.271	0.0152030
878.349	0.0149192
878.427	0.0149022
878.505	0.0150438
878.583	0.0150475
878.661	0.0148753
878.739	0.0147005
878.818	0.0148522
878.896	0.0148993
878.974	0.0146416
879.052	0.0147417
879.130	0.0148215
879.208	0.0148660
879.286	0.0148663
879.364	0.0147824
879.443	0.0148511
879.521	0.0148660
879.599	0.0147665
879.677	0.0149538
879.755	0.0149888
879.833	0.0149850
879.911	0.0152902
879.989	0.0151579
880.068	0.0149760
880.146	0.0150472
880.224	0.0150933
880.302	0.0150115
880.380	0.0149607
880.458	0.0151201
880.536	0.0150258
880.614	0.0149036
880.693	0.0150275
880.771	0.0148962
880.849	0.0148589
880.927	0.0149068
881.005	0.0148196
881.083	0.0148668
881.161	0.0148518
881.239	0.0149599
881.318	0.0149874
881.396	0.0149608
881.474	0.0148914
881.552	0.0148721
881.630	0.0148225
881.708	0.0149897
881.786	0.0149516
881.864	0.0149460
881.943	0.0150020
882.021	0.0148814
882.099	0.0148325
882.177	0.0148830
882.255	0.0149264
882.333	0.0149283
882.411	0.0149326
882.489	0.0150887
882.568	0.0149691
882.646	0.0149577
882.724	0.0150773
882.802	0.0148607
882.880	0.0148873
882.958	0.0148893
883.036	0.0149908
883.114	0.0150195
883.193	0.0148486
883.271	0.0149651
883.349	0.0148605
883.427	0.0149469
883.505	0.0149869
883.583	0.0148131
883.661	0.0147933
883.739	0.0148363
883.818	0.0149021
883.896	0.0149667
883.974	0.0148551
884.052	0.0149625
884.130	0.0150124
884.208	0.0148988
884.286	0.0150034
884.364	0.0149201
884.443	0.0150709
884.521	0.0149158
884.599	0.0150816
884.677	0.0150918
884.755	0.0150959
884.833	0.0150014
884.911	0.0150214
884.989	0.0149902
885.068	0.0150515
885.146	0.0150542
885.224	0.0149931
885.302	0.0150824
885.380	0.0151231
885.458	0.0150064
885.536	0.0150047
885.614	0.0151348
885.693	0.0149533
885.771	0.0149132
885.849	0.0149292
885.927	0.0149183
886.005	0.0149055
886.083	0.0149043
886.161	0.0148766
886.239	0.0148132
886.318	0.0148828
886.396	0.0150542
886.474	0.0149423
886.552	0.0148647
886.630	0.0149535
886.708	0.0149554
886.786	0.0150148
886.864	0.0150017
886.943	0.0150686
887.021	0.0149789
887.099	0.0149873
887.177	0.0151369
887.255	0.0150996
887.333	0.0151598
887.411	0.0151278
887.489	0.0150903
887.568	0.0151364
887.646	0.0151041
887.724	0.0151148
887.802	0.0149628
887.880	0.0148962
887.958	0.0150366
888.036	0.0150023
888.114	0.0149139
888.193	0.0149908
888.271	0.0149512
888.349	0.0148923
888.427	0.0149776
888.505	0.0149837
888.583	0.0150238
888.661	0.0149055
888.739	0.0150072
888.818	0.0147643
888.896	0.0147306
888.974	0.0147703
889.052	0.0149423
889.130	0.0148706
889.208	0.0147839
889.286	0.0148123
889.364	0.0148820
889.443	0.0149158
889.521	0.0150246
889.599	0.0149516
889.677	0.0150229
889.755	0.0152061
889.833	0.0150441
889.911	0.0151331
889.989	0.0150727
890.068	0.0151499
890.146	0.0151342
890.224	0.0152186
890.302	0.0151677
890.380	0.0151363
890.458	0.0152193
890.536	0.0152472
890.614	0.0151706
890.693	0.0150236
890.771	0.0150337
890.849	0.0152855
890.927	0.0151051
891.005	0.0151453
891.083	0.0149667
891.161	0.0149319
891.239	0.0150383
891.318	0.0148488
891.396	0.0148672
891.474	0.0149216
891.552	0.0148518
891.630	0.0148175
891.708	0.0147238
891.786	0.0148204
891.864	0.0147598
891.943	0.0148972
892.021	0.0148869
892.099	0.0148370
892.177	0.0148518
892.255	0.0150218
892.333	0.0148785
892.411	0.0150404
892.489	0.0149432
892.568	0.0150037
892.646	0.0150354
892.724	0.0149998
892.802	0.0150307
892.880	0.0151880
892.958	0.0150696
893.036	0.0150336
893.114	0.0150175
893.193	0.0151505
893.271	0.0150594
893.349	0.0151148
893.427	0.0151204
893.505	0.0151026
893.583	0.0151484
893.661	0.0150261
893.739	0.0149834
893.818	0.0149395
893.896	0.0151441
893.974	0.0149493
894.052	0.0150261
894.130	0.0151447
894.208	0.0150456
894.286	0.0149688
894.364	0.0149829
894.443	0.0149906
894.521	0.0150456
894.599	0.0150555
894.677	0.0149722
894.755	0.0150209
894.833	0.0149229
894.911	0.0151667
894.989	0.0152233
895.068	0.0150671
895.146	0.0150829
895.224	0.0150599
895.302	0.0151629
895.380	0.0150306
895.458	0.0151144
895.536	0.0150354
895.614	0.0150198
895.693	0.0151431
895.771	0.0151121
895.849	0.0152101
895.927	0.0149828
896.005	0.0150985
896.083	0.0152237
896.161	0.0150703
896.239	0.0150291
896.318	0.0153173
896.396	0.0150066
896.474	0.0151445
896.552	0.0150874
896.630	0.0151192
896.708	0.0150075
896.786	0.0150156
896.864	0.0150863
896.943	0.0151277
897.021	0.0149641
897.099	0.0148808
897.177	0.0148280
897.255	0.0150414
897.333	0.0150385
897.411	0.0148942
897.489	0.0149110
897.568	0.0149335
897.646	0.0149526
897.724	0.0150033
897.802	0.0149320
897.880	0.0149483
897.958	0.0150327
898.036	0.0150156
898.114	0.0149793
898.193	0.0151637
898.271	0.0150813
898.349	0.0151087
898.427	0.0152019
898.505	0.0149397
898.583	0.0150557
898.661	0.0150592
898.739	0.0150175
898.818	0.0151180
898.896	0.0150132
898.974	0.0149373
899.052	0.0148742
899.130	0.0150153
899.208	0.0150351
899.286	0.0148415
899.364	0.0149042
899.443	0.0149743
899.521	0.0151295
899.599	0.0149960
899.677	0.0149773
899.755	0.0150375
899.833	0.0150515
899.911	0.0150732
899.989	0.0149988
900.068	0.0149674
900.146	0.0149062
900.224	0.0148854
900.302	0.0149319
900.380	0.0148672
900.458	0.0148487
900.536	0.0148531
900.614	0.0148492
900.693	0.0149335
900.771	0.0148471
900.849	0.0149491
900.927	0.0148862
901.005	0.0149847
901.083	0.0149717
901.161	0.0149628
901.239	0.0150554
901.318	0.0149718
901.396	0.0149704
901.474	0.0149378
901.552	0.0150520
901.630	0.0150345
901.708	0.0150595
901.786	0.0149773
901.864	0.0150722
901.943	0.0150748
902.021	0.0151024
902.099	0.0150833
902.177	0.0150159
902.255	0.0150986
902.333	0.0150291
902.411	0.0151302
902.489	0.0151617
902.568	0.0150915
902.646	0.0152422
902.724	0.0152005
902.802	0.0150008
902.880	0.0151064
902.958	0.0151126
903.036	0.0150348
903.114	0.0149810
903.193	0.0150692
903.271	0.0149723
903.349	0.0148801
903.427	0.0149493
903.505	0.0148568
903.583	0.0147287
903.661	0.0148232
903.739	0.0148546
903.818	0.0146173
903.896	0.0146771
903.974	0.0149256
904.052	0.0148370
904.130	0.0146880
904.208	0.0147942
904.286	0.0148215
904.364	0.0148264
904.443	0.0147887
904.521	0.0147680
904.599	0.0148412
904.677	0.0149039
904.755	0.0147481
904.833	0.0147985
904.911	0.0148122
904.989	0.0147366
905.068	0.0150388
905.146	0.0149297
905.224	0.0147992
905.302	0.0146655
905.380	0.0148320
905.458	0.0148270
905.536	0.0148229
905.614	0.0147424
905.693	0.0147480
905.771	0.0148417
905.849	0.0147539
905.927	0.0147709
906.005	0.0146971
906.083	0.0148172
906.161	0.0148159
906.239	0.0147782
906.318	0.0148134
906.396	0.0146956
906.474	0.0148908
906.552	0.0149797
906.630	0.0149739
906.708	0.0148873
906.786	0.0148140
906.864	0.0149657
906.943	0.0148204
907.021	0.0149995
907.099	0.0151055
907.177	0.0150653
907.255	0.0150384
907.333	0.0149933
907.411	0.0150431
907.489	0.0150512
907.568	0.0149615
907.646	0.0149937
907.724	0.0148872
907.802	0.0149487
907.880	0.0150739
907.958	0.0150043
908.036	0.0147873
908.114	0.0148723
908.193	0.0149110
908.271	0.0148982
908.349	0.0147798
908.427	0.0146928
908.505	0.0148114
908.583	0.0147554
908.661	0.0148615
908.739	0.0149121
908.818	0.0149352
908.896	0.0149091
908.974	0.0148654
909.052	0.0148875
909.130	0.0148281
909.208	0.0149371
909.286	0.0148544
909.364	0.0148322
909.443	0.0148753
909.521	0.0148524
909.599	0.0148079
909.677	0.0148697
909.755	0.0149899
909.833	0.0148505
909.911	0.0148467
909.989	0.0148753
910.068	0.0149604
910.146	0.0149599
910.224	0.0148631
910.302	0.0150020
910.380	0.0149519
910.458	0.0149965
910.536	0.0149487
910.614	0.0149459
910.693	0.0149284
910.771	0.0149117
910.849	0.0149303
910.927	0.0149759
911.005	0.0149480
911.083	0.0150664
911.161	0.0150523
911.239	0.0149747
911.318	0.0150970
911.396	0.0151659
911.474	0.0149532
911.552	0.0150609
911.630	0.0149222
911.708	0.0149613
911.786	0.0150500
911.864	0.0149371
911.943	0.0149307
912.021	0.0149520
912.099	0.0149249
912.177	0.0148766
912.255	0.0148383
912.333	0.0148862
912.411	0.0149390
912.489	0.0148087
912.568	0.0147694
912.646	0.0149877
912.724	0.0147777
912.802	0.0148730
912.880	0.0147143
912.958	0.0148869
913.036	0.0150478
913.114	0.0149089
913.193	0.0149856
913.271	0.0150376
913.349	0.0149850
913.427	0.0147235
913.505	0.0148051
913.583	0.0148380
913.661	0.0149662
913.739	0.0148601
913.818	0.0150106
913.896	0.0148317
913.974	0.0149376
914.052	0.0148650
914.130	0.0147958
914.208	0.0148634
914.286	0.0148861
914.364	0.0147388
914.443	0.0147510
914.521	0.0146858
914.599	0.0148032
914.677	0.0150027
914.755	0.0149506
914.833	0.0149494
914.911	0.0149081
914.989	0.0149732
915.068	0.0150060
915.146	0.0151604
915.224	0.0151523
915.302	0.0150458
915.380	0.0150910
915.458	0.0153082
915.536	0.0151266
915.614	0.0152673
915.693	0.0152457
915.771	0.0151781
915.849	0.0152113
915.927	0.0151219
916.005	0.0150845
916.083	0.0150883
916.161	0.0150792
916.239	0.0149809
916.318	0.0150764
916.396	0.0150032
916.474	0.0148524
916.552	0.0148408
916.630	0.0149294
916.708	0.0148104
916.786	0.0147434
916.864	0.0147794
916.943	0.0148209
917.021	0.0148331
917.099	0.0148660
917.177	0.0148415
917.255	0.0148743
917.333	0.0148829
917.411	0.0148829
917.489	0.0148724
917.568	0.0148611
917.646	0.0148811
917.724	0.0147800
917.802	0.0148054
917.880	0.0148038
917.958	0.0148371
918.036	0.0149972
918.114	0.0148238
918.193	0.0148519
918.271	0.0148460
918.349	0.0149596
918.427	0.0148409
918.505	0.0148361
918.583	0.0148760
918.661	0.0147980
918.739	0.0148006
918.818	0.0149200
918.896	0.0147676
918.974	0.0148631
919.052	0.0149764
919.130	0.0149853
919.208	0.0148250
919.286	0.0149270
919.364	0.0149920
919.443	0.0148859
919.521	0.0148718
919.599	0.0151073
919.677	0.0149270
919.755	0.0150166
919.833	0.0151096
919.911	0.0150093
919.989	0.0148565
920.068	0.0150729
920.146	0.0150267
920.224	0.0149561
920.302	0.0149483
920.380	0.0149836
920.458	0.0149027
920.536	0.0150055
920.614	0.0148527
920.693	0.0149068
920.771	0.0149886
920.849	0.0149597
920.927	0.0148689
921.005	0.0149735
921.083	0.0148093
921.161	0.0148633
921.239	0.0149557
921.318	0.0149555
921.396	0.0147974
921.474	0.0148148
921.552	0.0148190
921.630	0.0148794
921.708	0.0147849
921.786	0.0147491
921.864	0.0146692
921.943	0.0148439
922.021	0.0147034
922.099	0.0147748
922.177	0.0147311
922.255	0.0148172
922.333	0.0147385
922.411	0.0147757
922.489	0.0147812
922.568	0.0147889
922.646	0.0147997
922.724	0.0148322
922.802	0.0148177
922.880	0.0148831
922.958	0.0150158
923.036	0.0148927
923.114	0.0150792
923.193	0.0151553
923.271	0.0150425
923.349	0.0150822
923.427	0.0150526
923.505	0.0151969
923.583	0.0150990
923.661	0.0151001
923.739	0.0152144
923.818	0.0151939
923.896	0.0150140
923.974	0.0149889
924.052	0.0150874
924.130	0.0148734
924.208	0.0151138
924.286	0.0149810
924.364	0.0150317
924.443	0.0149953
924.521	0.0149555
924.599	0.0150716
924.677	0.0150113
924.755	0.0149393
924.833	0.0149880
924.911	0.0148724
924.989	0.0149429
925.068	0.0149962
925.146	0.0148650
925.224	0.0147922
925.302	0.0149481
925.380	0.0148911
925.458	0.0149413
925.536	0.0148254
925.614	0.0149081
925.693	0.0151048
925.771	0.0149567
925.849	0.0148845
925.927	0.0150181
926.005	0.0149809
926.083	0.0148450
926.161	0.0150744
926.239	0.0149985
926.318	0.0148689
926.396	0.0148611
926.474	0.0148427
926.552	0.0148185
926.630	0.0148843
926.708	0.0148362
926.786	0.0148531
926.864	0.0148755
926.943	0.0148103
927.021	0.0148307
927.099	0.0148856
927.177	0.0147947
927.255	0.0148196
927.333	0.0148856
927.411	0.0147870
927.489	0.0148502
927.568	0.0146791
927.646	0.0148643
927.724	0.0148050
927.802	0.0147399
927.880	0.0148043
927.958	0.0147507
928.036	0.0147425
928.114	0.0149734
928.193	0.0148052
928.271	0.0148212
928.349	0.0149502
928.427	0.0150188
928.505	0.0147393
928.583	0.0147683
928.661	0.0148650
928.739	0.0149763
928.818	0.0148701
928.896	0.0149006
928.974	0.0150178
929.052	0.0151246
929.130	0.0150566
929.208	0.0149753
929.286	0.0149968
929.364	0.0151089
929.443	0.0152566
929.521	0.0151386
929.599	0.0150928
929.677	0.0149899
929.755	0.0151205
929.833	0.0150648
929.911	0.0150797
929.989	0.0150356
930.068	0.0151051
930.146	0.0150227
930.224	0.0150284
930.302	0.0150225
930.380	0.0149992
930.458	0.0148700
930.536	0.0147923
930.614	0.0149132
930.693	0.0149106
930.771	0.0148404
930.849	0.0148418
930.927	0.0147221
931.005	0.0146552
931.083	0.0148467
931.161	0.0147433
931.239	0.0147071
931.318	0.0147571
931.396	0.0148376
931.474	0.0147189
931.552	0.0147894
931.630	0.0147953
931.708	0.0147818
931.786	0.0146664
931.864	0.0148158
931.943	0.0148409
932.021	0.0147404
932.099	0.0149278
932.177	0.0148251
932.255	0.0148611
932.333	0.0149711
932.411	0.0149732
932.489	0.0148689
932.568	0.0148128
932.646	0.0149969
932.724	0.0150285
932.802	0.0150404
932.880	0.0150076
932.958	0.0149690
933.036	0.0150435
933.114	0.0149937
933.193	0.0149250
933.271	0.0149149
933.349	0.0149820
933.427	0.0148394
933.505	0.0149991
933.583	0.0150694
933.661	0.0149202
933.739	0.0151566
933.818	0.0150294
933.896	0.0150516
933.974	0.0149934
934.052	0.0151830
934.130	0.0150089
934.208	0.0149924
934.286	0.0150482
934.364	0.0150739
934.443	0.0150261
934.521	0.0150511
934.599	0.0151476
934.677	0.0150319
934.755	0.0148338
934.833	0.0149320
934.911	0.0148182
934.989	0.0147832
935.068	0.0150583
935.146	0.0149193
935.224	0.0149712
935.302	0.0149739
935.380	0.0149835
935.458	0.0148335
935.536	0.0148657
935.614	0.0148439
935.693	0.0148668
935.771	0.0149474
935.849	0.0150399
935.927	0.0149989
936.005	0.0150421
936.083	0.0151844
936.161	0.0150900
936.239	0.0151012
936.318	0.0151346
936.396	0.0151161
936.474	0.0150761
936.552	0.0151135
936.630	0.0150705
936.708	0.0151210
936.786	0.0149812
936.864	0.0150617
936.943	0.0150139
937.021	0.0148929
937.099	0.0148432
937.177	0.0150089
937.255	0.0147771
937.333	0.0149928
937.411	0.0149365
937.489	0.0149883
937.568	0.0149959
937.646	0.0148649
937.724	0.0148437
937.802	0.0149809
937.880	0.0149234
937.958	0.0147511
938.036	0.0149490
938.114	0.0148598
938.193	0.0148239
938.271	0.0148959
938.349	0.0148124
938.427	0.0148067
938.505	0.0148801
938.583	0.0148095
938.661	0.0148898
938.739	0.0147450
938.818	0.0147977
938.896	0.0147219
938.974	0.0147590
939.052	0.0149288
939.130	0.0147948
939.208	0.0147858
939.286	0.0149693
939.364	0.0148463
939.443	0.0147718
939.521	0.0149180
939.599	0.0149606
939.677	0.0150226
939.755	0.0150662
939.833	0.0149495
939.911	0.0148734
939.989	0.0150706
940.068	0.0149857
940.146	0.0150288
940.224	0.0150164
940.302	0.0150323
940.380	0.0151245
940.458	0.0149043
940.536	0.0150380
940.614	0.0149303
940.693	0.0149648
940.771	0.0151162
940.849	0.0149366
940.927	0.0149565
941.005	0.0149421
941.083	0.0149719
941.161	0.0148092
941.239	0.0147991
941.318	0.0149830
941.396	0.0150365
941.474	0.0149024
941.552	0.0148495
941.630	0.0149323
941.708	0.0149233
941.786	0.0148180
941.864	0.0149625
941.943	0.0148911
942.021	0.0149678
942.099	0.0149582
942.177	0.0148706
942.255	0.0147682
942.333	0.0149026
942.411	0.0149454
942.489	0.0149487
942.568	0.0150233
942.646	0.0149723
942.724	0.0150713
942.802	0.0150585
942.880	0.0150418
942.958	0.0149200
943.036	0.0149683
943.114	0.0149456
943.193	0.0149702
943.271	0.0149332
943.349	0.0148873
943.427	0.0147530
943.505	0.0149427
943.583	0.0149165
943.661	0.0149091
943.739	0.0149000
943.818	0.0148969
943.896	0.0149711
943.974	0.0148561
944.052	0.0149191
944.130	0.0149476
944.208	0.0150315
944.286	0.0148951
944.364	0.0149511
944.443	0.0151530
944.521	0.0150017
944.599	0.0150777
944.677	0.0150233
944.755	0.0149323
944.833	0.0151349
944.911	0.0150501
944.989	0.0149593
945.068	0.0150258
945.146	0.0150367
945.224	0.0150881
945.302	0.0150887
945.380	0.0149995
945.458	0.0149191
945.536	0.0151888
945.614	0.0150143
945.693	0.0149160
945.771	0.0150204
945.849	0.0150256
945.927	0.0148751
946.005	0.0148871
946.083	0.0150680
946.161	0.0147984
946.239	0.0149668
946.318	0.0150414
946.396	0.0149374
946.474	0.0148648
946.552	0.0150233
946.630	0.0150287
946.708	0.0149977
946.786	0.0149261
946.864	0.0150534
946.943	0.0149187
947.021	0.0149252
947.099	0.0149049
947.177	0.0150149
947.255	0.0149618
947.333	0.0149994
947.411	0.0150325
947.489	0.0150288
947.568	0.0149942
947.646	0.0148563
947.724	0.0149244
947.802	0.0149634
947.880	0.0151546
947.958	0.0150378
948.036	0.0151579
948.114	0.0150762
948.193	0.0150163
948.271	0.0150197
948.349	0.0150407
948.427	0.0150901
948.505	0.0151080
948.583	0.0152303
948.661	0.0151163
948.739	0.0150227
948.818	0.0150864
948.896	0.0151067
948.974	0.0151438
949.052	0.0149762
949.130	0.0151125
949.208	0.0150183
949.286	0.0150108
949.364	0.0150311
949.443	0.0150832
949.521	0.0150252
949.599	0.0150631
949.677	0.0151736
949.755	0.0151110
949.833	0.0150901
949.911	0.0151091
949.989	0.0151646
950.068	0.0151025
950.146	0.0149921
950.224	0.0150618
950.302	0.0149905
950.380	0.0149855
950.458	0.0150845
950.536	0.0151209
950.614	0.0151511
950.693	0.0149593
950.771	0.0150205
950.849	0.0151875
950.927	0.0149249
951.005	0.0149301
951.083	0.0150900
951.161	0.0150629
951.239	0.0149737
951.318	0.0149598
951.396	0.0150160
951.474	0.0149682
951.552	0.0148970
951.630	0.0150074
951.708	0.0149509
951.786	0.0151291
951.864	0.0150886
951.943	0.0149966
952.021	0.0151704
952.099	0.0151971
952.177	0.0150667
952.255	0.0150482
952.333	0.0150694
952.411	0.0150668
952.489	0.0149274
952.568	0.0150072
952.646	0.0151436
952.724	0.0150761
952.802	0.0149458
952.880	0.0151681
952.958	0.0150036
953.036	0.0151040
953.114	0.0151042
953.193	0.0152340
953.271	0.0150014
953.349	0.0149889
953.427	0.0150262
953.505	0.0150249
953.583	0.0151828
953.661	0.0151445
953.739	0.0150922
953.818	0.0152629
953.896	0.0151432
953.974	0.0149902
954.052	0.0149542
954.130	0.0150786
954.208	0.0150122
954.286	0.0150628
954.364	0.0149879
954.443	0.0150602
954.521	0.0151043
954.599	0.0151755
954.677	0.0150652
954.755	0.0150404
954.833	0.0149380
954.911	0.0150225
954.989	0.0150612
955.068	0.0150482
955.146	0.0150417
955.224	0.0150381
955.302	0.0150219
955.380	0.0150456
955.458	0.0149236
955.536	0.0150800
955.614	0.0149647
955.693	0.0149790
955.771	0.0150214
955.849	0.0149112
955.927	0.0148919
956.005	0.0149256
956.083	0.0149540
956.161	0.0149554
956.239	0.0149277
956.318	0.0150962
956.396	0.0150005
956.474	0.0149341
956.552	0.0150025
956.630	0.0149673
956.708	0.0150642
956.786	0.0150050
956.864	0.0151208
956.943	0.0151686
957.021	0.0149784
957.099	0.0149191
957.177	0.0148391
957.255	0.0149806
957.333	0.0149838
957.411	0.0149393
957.489	0.0149194
957.568	0.0149398
957.646	0.0149210
957.724	0.0148154
957.802	0.0149561
957.880	0.0148856
957.958	0.0148366
958.036	0.0149979
958.114	0.0150095
958.193	0.0150570
958.271	0.0149465
958.349	0.0149345
958.427	0.0149094
958.505	0.0149638
958.583	0.0149609
958.661	0.0150096
958.739	0.0151087
958.818	0.0150420
958.896	0.0151717
958.974	0.0151701
959.052	0.0151622
959.130	0.0152386
959.208	0.0152231
959.286	0.0151027
959.364	0.0153148
959.443	0.0151633
959.521	0.0152212
959.599	0.0152876
959.677	0.0152396
959.755	0.0152110
959.833	0.0153185
959.911	0.0153609
