05/14/2022	16:55:37	Ver.	4.1	UNKNOWN
Optical Delay	639.989416	Delta X		0.078125	Sweeps	1	Scan Rate	0/0
Coordinates	Axis 1	NaN	Axis 2	NaN	Axis 3	NaN	Axis 4	NaN	Axis 5	NaN	Axis 6	0.000000
TX Power	0.000000	RX Power	0.000000

639.989	0.0149229
640.068	0.0149744
640.146	0.0149251
640.224	0.0149728
640.302	0.0149660
640.380	0.0151123
640.458	0.0149361
640.536	0.0150323
640.614	0.0150121
640.693	0.0149207
640.771	0.0149338
640.849	0.0149848
640.927	0.0150072
641.005	0.0149884
641.083	0.0149178
641.161	0.0149113
641.239	0.0149133
641.318	0.0150345
641.396	0.0150459
641.474	0.0151209
641.552	0.0150332
641.630	0.0148495
641.708	0.0150436
641.786	0.0150856
641.864	0.0151222
641.943	0.0148377
642.021	0.0150139
642.099	0.0150866
642.177	0.0149191
642.255	0.0151479
642.333	0.0151328
642.411	0.0150341
642.489	0.0150040
642.568	0.0150361
642.646	0.0149254
642.724	0.0148600
642.802	0.0150227
642.880	0.0150231
642.958	0.0151237
643.036	0.0150164
643.114	0.0151194
643.193	0.0150832
643.271	0.0150840
643.349	0.0149863
643.427	0.0150436
643.505	0.0151124
643.583	0.0151234
643.661	0.0150523
643.739	0.0150069
643.818	0.0151444
643.896	0.0150537
643.974	0.0151948
644.052	0.0151333
644.130	0.0150674
644.208	0.0151045
644.286	0.0151387
644.364	0.0149969
644.443	0.0149969
644.521	0.0150241
644.599	0.0150316
644.677	0.0151027
644.755	0.0150372
644.833	0.0150740
644.911	0.0150383
644.989	0.0149748
645.068	0.0149340
645.146	0.0151046
645.224	0.0149923
645.302	0.0150034
645.380	0.0150581
645.458	0.0149330
645.536	0.0149149
645.614	0.0149984
645.693	0.0150745
645.771	0.0149741
645.849	0.0148502
645.927	0.0149431
646.005	0.0149027
646.083	0.0148693
646.161	0.0149458
646.239	0.0149277
646.318	0.0149570
646.396	0.0149667
646.474	0.0148877
646.552	0.0149129
646.630	0.0150039
646.708	0.0150212
646.786	0.0149603
646.864	0.0150932
646.943	0.0149135
647.021	0.0147330
647.099	0.0149448
647.177	0.0148981
647.255	0.0150538
647.333	0.0149228
647.411	0.0149009
647.489	0.0149394
647.568	0.0148824
647.646	0.0149934
647.724	0.0149480
647.802	0.0149581
647.880	0.0148801
647.958	0.0148460
648.036	0.0150040
648.114	0.0149091
648.193	0.0149185
648.271	0.0149146
648.349	0.0148795
648.427	0.0149178
648.505	0.0149778
648.583	0.0151728
648.661	0.0149124
648.739	0.0147949
648.818	0.0150468
648.896	0.0149560
648.974	0.0149464
649.052	0.0149014
649.130	0.0149154
649.208	0.0149456
649.286	0.0150314
649.364	0.0150958
649.443	0.0146738
649.521	0.0148682
649.599	0.0148035
649.677	0.0151755
649.755	0.0148555
649.833	0.0149121
649.911	0.0149306
649.989	0.0150402
650.068	0.0148652
650.146	0.0148629
650.224	0.0149742
650.302	0.0149757
650.380	0.0149178
650.458	0.0148976
650.536	0.0150896
650.614	0.0149786
650.693	0.0150294
650.771	0.0148977
650.849	0.0149985
650.927	0.0150973
651.005	0.0149497
651.083	0.0149788
651.161	0.0149583
651.239	0.0149737
651.318	0.0149372
651.396	0.0148284
651.474	0.0149857
651.552	0.0149917
651.630	0.0149414
651.708	0.0148695
651.786	0.0149420
651.864	0.0148777
651.943	0.0149603
652.021	0.0148973
652.099	0.0149899
652.177	0.0150567
652.255	0.0149162
652.333	0.0149285
652.411	0.0147631
652.489	0.0150132
652.568	0.0148775
652.646	0.0150179
652.724	0.0149834
652.802	0.0149084
652.880	0.0149134
652.958	0.0149825
653.036	0.0148406
653.114	0.0148247
653.193	0.0150266
653.271	0.0148875
653.349	0.0149776
653.427	0.0150108
653.505	0.0148915
653.583	0.0149377
653.661	0.0148979
653.739	0.0148992
653.818	0.0149635
653.896	0.0151496
653.974	0.0149658
654.052	0.0150066
654.130	0.0150319
654.208	0.0149148
654.286	0.0148727
654.364	0.0150166
654.443	0.0149827
654.521	0.0148856
654.599	0.0149377
654.677	0.0149340
654.755	0.0148389
654.833	0.0148837
654.911	0.0148176
654.989	0.0148554
655.068	0.0148851
655.146	0.0148727
655.224	0.0147235
655.302	0.0148341
655.380	0.0148815
655.458	0.0148326
655.536	0.0149091
655.614	0.0149242
655.693	0.0148061
655.771	0.0149065
655.849	0.0148459
655.927	0.0148611
656.005	0.0149052
656.083	0.0149963
656.161	0.0149670
656.239	0.0150415
656.318	0.0150362
656.396	0.0149661
656.474	0.0149410
656.552	0.0149942
656.630	0.0151687
656.708	0.0149552
656.786	0.0149213
656.864	0.0149877
656.943	0.0147733
657.021	0.0148132
657.099	0.0150291
657.177	0.0148322
657.255	0.0148495
657.333	0.0148138
657.411	0.0147058
657.489	0.0149269
657.568	0.0148761
657.646	0.0148868
657.724	0.0149178
657.802	0.0147475
657.880	0.0148228
657.958	0.0146830
658.036	0.0149120
658.114	0.0148673
658.193	0.0148559
658.271	0.0149310
658.349	0.0148712
658.427	0.0149925
658.505	0.0150010
658.583	0.0149432
658.661	0.0151205
658.739	0.0151041
658.818	0.0149484
658.896	0.0150372
658.974	0.0148576
659.052	0.0150358
659.130	0.0151116
659.208	0.0149822
659.286	0.0149817
659.364	0.0147899
659.443	0.0148395
659.521	0.0148965
659.599	0.0149619
659.677	0.0148483
659.755	0.0148953
659.833	0.0148956
659.911	0.0147013
659.989	0.0148539
660.068	0.0148886
660.146	0.0149440
660.224	0.0147617
660.302	0.0149319
660.380	0.0149841
660.458	0.0149482
660.536	0.0149413
660.614	0.0149764
660.693	0.0149916
660.771	0.0149146
660.849	0.0149413
660.927	0.0150783
661.005	0.0149355
661.083	0.0150301
661.161	0.0150081
661.239	0.0149776
661.318	0.0149395
661.396	0.0148571
661.474	0.0149107
661.552	0.0149122
661.630	0.0148061
661.708	0.0147792
661.786	0.0146750
661.864	0.0146826
661.943	0.0146500
662.021	0.0145959
662.099	0.0144554
662.177	0.0146667
662.255	0.0147163
662.333	0.0146155
662.411	0.0146834
662.489	0.0146710
662.568	0.0146286
662.646	0.0146372
662.724	0.0150340
662.802	0.0148975
662.880	0.0148566
662.958	0.0149954
663.036	0.0151398
663.114	0.0152009
663.193	0.0152003
663.271	0.0152615
663.349	0.0153901
663.427	0.0154323
663.505	0.0154877
663.583	0.0155445
663.661	0.0154807
663.739	0.0155108
663.818	0.0155024
663.896	0.0154446
663.974	0.0154140
664.052	0.0154412
664.130	0.0152174
664.208	0.0152495
664.286	0.0150906
664.364	0.0151276
664.443	0.0149602
664.521	0.0148669
664.599	0.0147414
664.677	0.0145721
664.755	0.0144796
664.833	0.0143926
664.911	0.0142041
664.989	0.0141252
665.068	0.0140694
665.146	0.0140561
665.224	0.0139670
665.302	0.0141052
665.380	0.0139600
665.458	0.0139803
665.536	0.0139848
665.614	0.0140916
665.693	0.0142274
665.771	0.0143822
665.849	0.0144495
665.927	0.0143629
666.005	0.0144990
666.083	0.0147374
666.161	0.0150482
666.239	0.0153293
666.318	0.0154279
666.396	0.0155072
666.474	0.0156812
666.552	0.0158176
666.630	0.0159519
666.708	0.0161254
666.786	0.0160612
666.864	0.0161665
666.943	0.0162332
667.021	0.0161992
667.099	0.0161345
667.177	0.0161198
667.255	0.0160286
667.333	0.0159900
667.411	0.0157185
667.489	0.0155318
667.568	0.0153204
667.646	0.0152260
667.724	0.0150166
667.802	0.0147852
667.880	0.0144779
667.958	0.0142925
668.036	0.0141825
668.114	0.0139072
668.193	0.0136138
668.271	0.0135134
668.349	0.0133933
668.427	0.0133258
668.505	0.0133501
668.583	0.0132295
668.661	0.0131776
668.739	0.0133295
668.818	0.0133559
668.896	0.0133461
668.974	0.0134778
669.052	0.0136899
669.130	0.0139127
669.208	0.0141717
669.286	0.0142518
669.364	0.0143724
669.443	0.0146375
669.521	0.0147673
669.599	0.0151942
669.677	0.0153157
669.755	0.0154002
669.833	0.0157335
669.911	0.0156709
669.989	0.0161295
670.068	0.0161747
670.146	0.0160915
670.224	0.0163962
670.302	0.0163486
670.380	0.0164935
670.458	0.0164814
670.536	0.0163336
670.614	0.0163323
670.693	0.0163058
670.771	0.0161988
670.849	0.0160827
670.927	0.0158566
671.005	0.0156887
671.083	0.0156153
671.161	0.0153095
671.239	0.0152165
671.318	0.0149738
671.396	0.0148824
671.474	0.0146541
671.552	0.0144418
671.630	0.0142390
671.708	0.0139514
671.786	0.0140213
671.864	0.0139817
671.943	0.0136169
672.021	0.0136829
672.099	0.0136314
672.177	0.0135708
672.255	0.0136370
672.333	0.0135347
672.411	0.0134897
672.489	0.0134568
672.568	0.0136601
672.646	0.0137328
672.724	0.0138876
672.802	0.0138167
672.880	0.0139169
672.958	0.0140344
673.036	0.0140312
673.114	0.0143465
673.193	0.0144214
673.271	0.0145597
673.349	0.0146098
673.427	0.0147769
673.505	0.0148659
673.583	0.0148461
673.661	0.0149124
673.739	0.0151397
673.818	0.0151967
673.896	0.0151323
673.974	0.0153186
674.052	0.0154893
674.130	0.0155759
674.208	0.0155518
674.286	0.0156478
674.364	0.0158208
674.443	0.0157502
674.521	0.0158730
674.599	0.0159614
674.677	0.0160561
674.755	0.0161042
674.833	0.0163079
674.911	0.0162812
674.989	0.0162873
675.068	0.0162781
675.146	0.0163279
675.224	0.0161942
675.302	0.0162307
675.380	0.0161867
675.458	0.0161632
675.536	0.0160736
675.614	0.0159551
675.693	0.0156574
675.771	0.0156339
675.849	0.0155905
675.927	0.0153494
676.005	0.0150282
676.083	0.0147978
676.161	0.0145377
676.239	0.0143828
676.318	0.0140900
676.396	0.0138371
676.474	0.0135491
676.552	0.0133854
676.630	0.0131905
676.708	0.0129575
676.786	0.0128679
676.864	0.0126399
676.943	0.0123971
677.021	0.0123450
677.099	0.0125534
677.177	0.0123351
677.255	0.0122362
677.333	0.0125209
677.411	0.0126524
677.489	0.0128093
677.568	0.0128731
677.646	0.0131760
677.724	0.0134660
677.802	0.0138079
677.880	0.0139587
677.958	0.0143539
678.036	0.0147580
678.114	0.0152238
678.193	0.0154887
678.271	0.0158070
678.349	0.0161856
678.427	0.0166669
678.505	0.0168573
678.583	0.0172952
678.661	0.0175247
678.739	0.0177422
678.818	0.0178355
678.896	0.0179715
678.974	0.0180231
679.052	0.0181340
679.130	0.0180003
679.208	0.0179227
679.286	0.0179301
679.364	0.0176875
679.443	0.0176173
679.521	0.0171655
679.599	0.0170525
679.677	0.0168857
679.755	0.0163825
679.833	0.0161504
679.911	0.0157793
679.989	0.0154345
680.068	0.0150433
680.146	0.0148073
680.224	0.0143232
680.302	0.0141206
680.380	0.0136098
680.458	0.0134799
680.536	0.0131422
680.614	0.0127942
680.693	0.0125602
680.771	0.0124737
680.849	0.0122604
680.927	0.0121455
681.005	0.0120639
681.083	0.0119940
681.161	0.0120570
681.239	0.0120473
681.318	0.0122715
681.396	0.0122424
681.474	0.0122968
681.552	0.0123884
681.630	0.0125640
681.708	0.0127985
681.786	0.0130694
681.864	0.0131639
681.943	0.0134464
682.021	0.0137315
682.099	0.0140257
682.177	0.0144078
682.255	0.0145546
682.333	0.0149561
682.411	0.0152513
682.489	0.0155081
682.568	0.0157616
682.646	0.0162637
682.724	0.0164915
682.802	0.0164165
682.880	0.0168068
682.958	0.0169347
683.036	0.0170706
683.114	0.0171584
683.193	0.0174850
683.271	0.0173192
683.349	0.0174651
683.427	0.0175213
683.505	0.0173981
683.583	0.0174241
683.661	0.0173653
683.739	0.0171478
683.818	0.0171983
683.896	0.0169715
683.974	0.0168999
684.052	0.0166497
684.130	0.0164188
684.208	0.0161604
684.286	0.0159801
684.364	0.0157767
684.443	0.0154106
684.521	0.0151103
684.599	0.0149580
684.677	0.0145643
684.755	0.0143881
684.833	0.0142445
684.911	0.0138413
684.989	0.0136214
685.068	0.0133403
685.146	0.0132010
685.224	0.0131346
685.302	0.0130146
685.380	0.0127389
685.458	0.0127055
685.536	0.0128737
685.614	0.0126247
685.693	0.0124600
685.771	0.0125393
685.849	0.0126267
685.927	0.0126242
686.005	0.0127975
686.083	0.0129933
686.161	0.0130231
686.239	0.0132120
686.318	0.0133788
686.396	0.0134267
686.474	0.0138020
686.552	0.0137406
686.630	0.0138818
686.708	0.0141115
686.786	0.0143472
686.864	0.0146095
686.943	0.0147301
687.021	0.0148857
687.099	0.0150510
687.177	0.0151608
687.255	0.0154086
687.333	0.0156297
687.411	0.0156046
687.489	0.0159190
687.568	0.0161987
687.646	0.0161716
687.724	0.0162646
687.802	0.0165365
687.880	0.0165962
687.958	0.0166943
688.036	0.0168593
688.114	0.0168037
688.193	0.0168695
688.271	0.0168629
688.349	0.0169514
688.427	0.0169260
688.505	0.0167952
688.583	0.0167265
688.661	0.0167265
688.739	0.0166696
688.818	0.0165418
688.896	0.0164159
688.974	0.0162370
689.052	0.0160302
689.130	0.0156878
689.208	0.0156875
689.286	0.0154798
689.364	0.0153022
689.443	0.0150281
689.521	0.0147887
689.599	0.0144794
689.677	0.0143338
689.755	0.0140417
689.833	0.0140235
689.911	0.0136302
689.989	0.0136575
690.068	0.0133219
690.146	0.0132052
690.224	0.0132614
690.302	0.0129482
690.380	0.0129625
690.458	0.0130930
690.536	0.0130194
690.614	0.0130222
690.693	0.0130708
690.771	0.0132113
690.849	0.0132204
690.927	0.0133687
691.005	0.0134763
691.083	0.0136771
691.161	0.0139329
691.239	0.0141754
691.318	0.0144064
691.396	0.0147322
691.474	0.0148260
691.552	0.0149737
691.630	0.0151946
691.708	0.0152522
691.786	0.0154012
691.864	0.0157407
691.943	0.0155959
692.021	0.0156808
692.099	0.0157015
692.177	0.0158535
692.255	0.0157613
692.333	0.0157429
692.411	0.0158560
692.489	0.0156304
692.568	0.0155217
692.646	0.0155076
692.724	0.0157600
692.802	0.0155474
692.880	0.0156554
692.958	0.0155865
693.036	0.0155190
693.114	0.0156600
693.193	0.0155609
693.271	0.0156278
693.349	0.0155865
693.427	0.0155271
693.505	0.0157829
693.583	0.0157912
693.661	0.0156089
693.739	0.0157489
693.818	0.0159405
693.896	0.0157620
693.974	0.0156693
694.052	0.0158668
694.130	0.0156080
694.208	0.0154404
694.286	0.0154350
694.364	0.0154807
694.443	0.0153861
694.521	0.0152006
694.599	0.0151739
694.677	0.0151425
694.755	0.0151398
694.833	0.0150081
694.911	0.0148784
694.989	0.0147202
695.068	0.0147553
695.146	0.0146184
695.224	0.0144209
695.302	0.0144401
695.380	0.0143829
695.458	0.0143449
695.536	0.0142156
695.614	0.0141939
695.693	0.0141632
695.771	0.0141071
695.849	0.0140759
695.927	0.0141627
696.005	0.0141669
696.083	0.0140885
696.161	0.0141066
696.239	0.0141734
696.318	0.0142130
696.396	0.0142545
696.474	0.0144186
696.552	0.0144698
696.630	0.0143207
696.708	0.0145586
696.786	0.0144740
696.864	0.0145138
696.943	0.0147445
697.021	0.0147988
697.099	0.0147927
697.177	0.0150256
697.255	0.0150678
697.333	0.0149165
697.411	0.0150685
697.489	0.0150307
697.568	0.0149866
697.646	0.0152782
697.724	0.0153535
697.802	0.0154321
697.880	0.0153436
697.958	0.0153772
698.036	0.0154678
698.114	0.0153891
698.193	0.0153432
698.271	0.0154777
698.349	0.0154376
698.427	0.0156202
698.505	0.0155197
698.583	0.0155197
698.661	0.0156278
698.739	0.0155224
698.818	0.0154057
698.896	0.0154490
698.974	0.0153609
699.052	0.0155301
699.130	0.0153248
699.208	0.0153455
699.286	0.0152813
699.364	0.0152665
699.443	0.0151585
699.521	0.0150248
699.599	0.0148261
699.677	0.0147545
699.755	0.0147429
699.833	0.0144785
699.911	0.0145050
699.989	0.0144086
700.068	0.0141849
700.146	0.0141545
700.224	0.0141502
700.302	0.0139732
700.380	0.0140582
700.458	0.0140041
700.536	0.0140632
700.614	0.0139739
700.693	0.0140983
700.771	0.0139962
700.849	0.0142599
700.927	0.0142394
701.005	0.0143517
701.083	0.0146174
701.161	0.0146973
701.239	0.0149071
701.318	0.0147980
701.396	0.0149313
701.474	0.0151340
701.552	0.0153062
701.630	0.0153560
701.708	0.0154164
701.786	0.0156455
701.864	0.0156914
701.943	0.0156939
702.021	0.0156517
702.099	0.0158879
702.177	0.0158907
702.255	0.0160410
702.333	0.0157756
702.411	0.0158276
702.489	0.0157578
702.568	0.0156797
702.646	0.0156870
702.724	0.0157014
702.802	0.0155177
702.880	0.0156824
702.958	0.0154415
703.036	0.0153031
703.114	0.0152133
703.193	0.0150394
703.271	0.0150580
703.349	0.0149002
703.427	0.0146904
703.505	0.0146980
703.583	0.0145371
703.661	0.0144785
703.739	0.0144942
703.818	0.0143953
703.896	0.0142658
703.974	0.0141869
704.052	0.0140965
704.130	0.0142944
704.208	0.0142465
704.286	0.0141843
704.364	0.0143805
704.443	0.0143957
704.521	0.0144040
704.599	0.0144070
704.677	0.0143722
704.755	0.0144611
704.833	0.0144852
704.911	0.0146311
704.989	0.0146173
705.068	0.0147180
705.146	0.0147252
705.224	0.0145952
705.302	0.0148510
705.380	0.0148491
705.458	0.0147449
705.536	0.0148036
705.614	0.0148285
705.693	0.0148991
705.771	0.0149584
705.849	0.0150250
705.927	0.0151603
706.005	0.0150913
706.083	0.0151354
706.161	0.0153176
706.239	0.0154146
706.318	0.0154268
706.396	0.0154815
706.474	0.0157867
706.552	0.0159619
706.630	0.0159689
706.708	0.0158671
706.786	0.0160725
706.864	0.0160563
706.943	0.0161098
707.021	0.0160658
707.099	0.0159669
707.177	0.0159552
707.255	0.0159227
707.333	0.0158258
707.411	0.0157372
707.489	0.0156498
707.568	0.0156041
707.646	0.0154656
707.724	0.0153334
707.802	0.0152702
707.880	0.0150658
707.958	0.0150497
708.036	0.0148917
708.114	0.0146896
708.193	0.0148545
708.271	0.0147388
708.349	0.0146266
708.427	0.0145817
708.505	0.0145592
708.583	0.0143447
708.661	0.0145025
708.739	0.0143993
708.818	0.0144112
708.896	0.0144437
708.974	0.0143089
709.052	0.0142253
709.130	0.0141803
709.208	0.0141815
709.286	0.0142889
709.364	0.0142210
709.443	0.0142540
709.521	0.0143645
709.599	0.0140596
709.677	0.0142447
709.755	0.0143589
709.833	0.0141493
709.911	0.0141782
709.989	0.0142723
710.068	0.0143710
710.146	0.0143913
710.224	0.0145070
710.302	0.0144790
710.380	0.0146609
710.458	0.0146681
710.536	0.0147955
710.614	0.0150109
710.693	0.0149268
710.771	0.0151052
710.849	0.0152065
710.927	0.0152637
711.005	0.0155450
711.083	0.0155501
711.161	0.0156912
711.239	0.0157439
711.318	0.0156442
711.396	0.0158417
711.474	0.0157764
711.552	0.0158610
711.630	0.0159237
711.708	0.0157530
711.786	0.0157059
711.864	0.0156445
711.943	0.0155322
712.021	0.0156112
712.099	0.0156660
712.177	0.0153712
712.255	0.0152969
712.333	0.0154129
712.411	0.0152882
712.489	0.0151395
712.568	0.0150624
712.646	0.0149836
712.724	0.0149590
712.802	0.0148172
712.880	0.0147523
712.958	0.0146810
713.036	0.0146579
713.114	0.0145293
713.193	0.0146178
713.271	0.0147043
713.349	0.0145244
713.427	0.0145889
713.505	0.0147336
713.583	0.0147355
713.661	0.0148033
713.739	0.0149636
713.818	0.0149300
713.896	0.0149986
713.974	0.0150677
714.052	0.0150990
714.130	0.0151708
714.208	0.0153161
714.286	0.0154328
714.364	0.0153912
714.443	0.0153860
714.521	0.0154347
714.599	0.0152803
714.677	0.0153819
714.755	0.0154153
714.833	0.0155200
714.911	0.0154965
714.989	0.0152894
715.068	0.0152603
715.146	0.0151506
715.224	0.0149516
715.302	0.0149558
715.380	0.0148486
715.458	0.0148116
715.536	0.0146033
715.614	0.0145127
715.693	0.0143469
715.771	0.0143884
715.849	0.0143540
715.927	0.0142384
716.005	0.0142293
716.083	0.0140164
716.161	0.0140131
716.239	0.0140684
716.318	0.0142915
716.396	0.0140511
716.474	0.0140755
716.552	0.0142328
716.630	0.0142345
716.708	0.0144273
716.786	0.0145493
716.864	0.0144911
716.943	0.0144610
717.021	0.0144672
717.099	0.0148643
717.177	0.0148551
717.255	0.0148466
717.333	0.0150495
717.411	0.0151689
717.489	0.0153476
717.568	0.0152991
717.646	0.0153909
717.724	0.0154686
717.802	0.0155030
717.880	0.0156125
717.958	0.0156419
718.036	0.0155495
718.114	0.0156970
718.193	0.0157059
718.271	0.0157572
718.349	0.0158612
718.427	0.0157264
718.505	0.0156513
718.583	0.0158566
718.661	0.0158408
718.739	0.0157623
718.818	0.0158199
718.896	0.0157153
718.974	0.0156453
719.052	0.0156738
719.130	0.0156169
719.208	0.0157075
719.286	0.0155321
719.364	0.0155486
719.443	0.0154594
719.521	0.0154457
719.599	0.0153021
719.677	0.0152007
719.755	0.0152176
719.833	0.0150044
719.911	0.0148557
719.989	0.0148570
720.068	0.0147566
720.146	0.0147926
720.224	0.0144870
720.302	0.0144263
720.380	0.0143130
720.458	0.0143302
720.536	0.0141903
720.614	0.0140981
720.693	0.0140424
720.771	0.0140568
720.849	0.0139992
720.927	0.0139916
721.005	0.0140594
721.083	0.0138884
721.161	0.0140880
721.239	0.0141336
721.318	0.0139518
721.396	0.0141380
721.474	0.0142459
721.552	0.0141456
721.630	0.0142997
721.708	0.0143069
721.786	0.0145045
721.864	0.0147419
721.943	0.0145021
722.021	0.0146143
722.099	0.0148815
722.177	0.0149664
722.255	0.0149025
722.333	0.0150360
722.411	0.0149901
722.489	0.0150688
722.568	0.0152067
722.646	0.0152328
722.724	0.0152459
722.802	0.0152678
722.880	0.0153868
722.958	0.0152058
723.036	0.0152342
723.114	0.0152135
723.193	0.0153319
723.271	0.0152377
723.349	0.0150983
723.427	0.0151105
723.505	0.0150212
723.583	0.0151909
723.661	0.0151238
723.739	0.0150908
723.818	0.0150340
723.896	0.0151827
723.974	0.0152899
724.052	0.0151682
724.130	0.0150843
724.208	0.0152708
724.286	0.0151583
724.364	0.0152472
724.443	0.0153675
724.521	0.0153023
724.599	0.0154828
724.677	0.0154182
724.755	0.0154803
724.833	0.0155019
724.911	0.0154942
724.989	0.0155274
725.068	0.0154989
725.146	0.0153773
725.224	0.0155082
725.302	0.0155138
725.380	0.0156416
725.458	0.0153662
725.536	0.0154153
725.614	0.0153956
725.693	0.0153034
725.771	0.0152386
725.849	0.0151492
725.927	0.0150304
726.005	0.0149667
726.083	0.0149261
726.161	0.0148896
726.239	0.0149016
726.318	0.0149026
726.396	0.0146508
726.474	0.0147856
726.552	0.0146349
726.630	0.0147537
726.708	0.0145959
726.786	0.0146857
726.864	0.0147082
726.943	0.0146466
727.021	0.0146825
727.099	0.0146989
727.177	0.0145888
727.255	0.0145320
727.333	0.0145895
727.411	0.0147147
727.489	0.0146003
727.568	0.0145846
727.646	0.0147221
727.724	0.0147314
727.802	0.0145812
727.880	0.0145472
727.958	0.0144495
728.036	0.0144302
728.114	0.0146460
728.193	0.0146241
728.271	0.0144189
728.349	0.0145328
728.427	0.0146395
728.505	0.0146317
728.583	0.0145232
728.661	0.0147089
728.739	0.0147156
728.818	0.0148430
728.896	0.0147426
728.974	0.0147661
729.052	0.0148317
729.130	0.0149073
729.208	0.0148539
729.286	0.0149975
729.364	0.0150945
729.443	0.0151369
729.521	0.0152525
729.599	0.0153906
729.677	0.0154820
729.755	0.0153380
729.833	0.0155457
729.911	0.0155432
729.989	0.0155071
730.068	0.0156237
730.146	0.0158089
730.224	0.0155769
730.302	0.0155363
730.380	0.0154456
730.458	0.0154438
730.536	0.0156205
730.614	0.0152424
730.693	0.0153463
730.771	0.0151689
730.849	0.0151360
730.927	0.0150261
731.005	0.0150284
731.083	0.0147195
731.161	0.0147328
731.239	0.0147791
731.318	0.0146227
731.396	0.0146638
731.474	0.0146053
731.552	0.0144875
731.630	0.0144866
731.708	0.0144189
731.786	0.0145094
731.864	0.0143680
731.943	0.0142838
732.021	0.0143355
732.099	0.0144917
732.177	0.0145802
732.255	0.0144498
732.333	0.0143945
732.411	0.0145943
732.489	0.0146512
732.568	0.0146407
732.646	0.0146373
732.724	0.0147221
732.802	0.0149812
732.880	0.0148313
732.958	0.0149833
733.036	0.0149809
733.114	0.0150418
733.193	0.0148255
733.271	0.0149611
733.349	0.0149846
733.427	0.0151286
733.505	0.0150108
733.583	0.0153113
733.661	0.0153266
733.739	0.0151434
733.818	0.0150846
733.896	0.0152287
733.974	0.0152587
734.052	0.0152267
734.130	0.0152207
734.208	0.0152499
734.286	0.0152127
734.364	0.0152992
734.443	0.0152200
734.521	0.0151791
734.599	0.0150851
734.677	0.0150911
734.755	0.0151405
734.833	0.0149922
734.911	0.0149268
734.989	0.0147262
735.068	0.0147884
735.146	0.0146967
735.224	0.0147383
735.302	0.0147140
735.380	0.0144538
735.458	0.0143858
735.536	0.0145821
735.614	0.0145782
735.693	0.0144546
735.771	0.0145155
735.849	0.0144703
735.927	0.0144057
736.005	0.0144981
736.083	0.0146837
736.161	0.0147442
736.239	0.0146210
736.318	0.0147816
736.396	0.0148789
736.474	0.0148957
736.552	0.0151110
736.630	0.0152087
736.708	0.0150414
736.786	0.0152810
736.864	0.0152463
736.943	0.0151971
737.021	0.0152113
737.099	0.0152309
737.177	0.0152689
737.255	0.0154057
737.333	0.0152795
737.411	0.0152060
737.489	0.0152356
737.568	0.0152886
737.646	0.0151027
737.724	0.0150932
737.802	0.0152177
737.880	0.0151034
737.958	0.0149699
738.036	0.0149616
738.114	0.0150009
738.193	0.0149145
738.271	0.0148895
738.349	0.0148970
738.427	0.0147197
738.505	0.0147544
738.583	0.0147014
738.661	0.0147828
738.739	0.0147897
738.818	0.0146506
738.896	0.0147707
738.974	0.0147987
739.052	0.0147346
739.130	0.0147816
739.208	0.0147208
739.286	0.0148746
739.364	0.0150130
739.443	0.0149715
739.521	0.0149165
739.599	0.0149209
739.677	0.0149961
739.755	0.0148667
739.833	0.0149155
739.911	0.0149576
739.989	0.0150414
740.068	0.0149876
740.146	0.0148823
740.224	0.0152188
740.302	0.0150848
740.380	0.0150866
740.458	0.0150031
740.536	0.0150851
740.614	0.0149340
740.693	0.0149968
740.771	0.0149317
740.849	0.0149333
740.927	0.0149345
741.005	0.0149644
741.083	0.0147867
741.161	0.0148947
741.239	0.0147079
741.318	0.0146770
741.396	0.0145885
741.474	0.0145522
741.552	0.0146204
741.630	0.0145959
741.708	0.0146475
741.786	0.0145827
741.864	0.0145619
741.943	0.0146494
742.021	0.0147179
742.099	0.0146663
742.177	0.0147605
742.255	0.0147071
742.333	0.0147496
742.411	0.0146235
742.489	0.0148573
742.568	0.0148707
742.646	0.0149044
742.724	0.0149416
742.802	0.0149635
742.880	0.0149822
742.958	0.0148647
743.036	0.0148684
743.114	0.0150887
743.193	0.0150494
743.271	0.0149038
743.349	0.0148360
743.427	0.0148937
743.505	0.0147678
743.583	0.0149256
743.661	0.0150340
743.739	0.0149316
743.818	0.0148640
743.896	0.0148887
743.974	0.0148797
744.052	0.0148001
744.130	0.0148852
744.208	0.0148888
744.286	0.0148853
744.364	0.0149866
744.443	0.0148647
744.521	0.0149919
744.599	0.0150175
744.677	0.0150290
744.755	0.0150343
744.833	0.0150798
744.911	0.0150607
744.989	0.0150532
745.068	0.0150545
745.146	0.0151576
745.224	0.0152026
745.302	0.0151569
745.380	0.0151833
745.458	0.0152267
745.536	0.0150916
745.614	0.0151233
745.693	0.0151746
745.771	0.0152502
745.849	0.0152545
745.927	0.0151980
746.005	0.0153597
746.083	0.0153314
746.161	0.0153267
746.239	0.0152002
746.318	0.0151485
746.396	0.0152431
746.474	0.0153193
746.552	0.0152233
746.630	0.0153759
746.708	0.0151797
746.786	0.0152192
746.864	0.0152164
746.943	0.0152044
747.021	0.0151933
747.099	0.0151992
747.177	0.0151350
747.255	0.0149877
747.333	0.0150058
747.411	0.0151819
747.489	0.0149188
747.568	0.0150251
747.646	0.0149445
747.724	0.0147784
747.802	0.0148074
747.880	0.0148089
747.958	0.0147584
748.036	0.0146930
748.114	0.0147111
748.193	0.0146868
748.271	0.0146092
748.349	0.0146220
748.427	0.0146413
748.505	0.0145282
748.583	0.0145652
748.661	0.0145854
748.739	0.0145279
748.818	0.0145269
748.896	0.0143421
748.974	0.0144026
749.052	0.0144334
749.130	0.0144808
749.208	0.0145461
749.286	0.0144114
749.364	0.0146397
749.443	0.0144881
749.521	0.0145522
749.599	0.0146165
749.677	0.0146871
749.755	0.0149146
749.833	0.0148195
749.911	0.0148050
749.989	0.0150465
750.068	0.0150747
750.146	0.0151846
750.224	0.0152261
750.302	0.0152973
750.380	0.0152339
750.458	0.0152754
750.536	0.0154668
750.614	0.0154535
750.693	0.0153941
750.771	0.0154104
750.849	0.0154581
750.927	0.0154573
751.005	0.0155387
751.083	0.0154182
751.161	0.0154279
751.239	0.0153851
751.318	0.0153112
751.396	0.0152986
751.474	0.0152646
751.552	0.0151535
751.630	0.0151826
751.708	0.0150908
751.786	0.0149536
751.864	0.0149001
751.943	0.0149188
752.021	0.0149139
752.099	0.0148204
752.177	0.0148907
752.255	0.0146996
752.333	0.0147846
752.411	0.0147423
752.489	0.0146520
752.568	0.0146066
752.646	0.0145034
752.724	0.0147153
752.802	0.0146379
752.880	0.0146471
752.958	0.0146185
753.036	0.0144997
753.114	0.0147283
753.193	0.0147405
753.271	0.0146001
753.349	0.0147525
753.427	0.0146566
753.505	0.0147172
753.583	0.0148132
753.661	0.0147846
753.739	0.0146841
753.818	0.0147581
753.896	0.0146129
753.974	0.0148463
754.052	0.0147836
754.130	0.0147836
754.208	0.0147466
754.286	0.0148358
754.364	0.0149031
754.443	0.0148250
754.521	0.0149423
754.599	0.0148476
754.677	0.0149441
754.755	0.0150630
754.833	0.0149239
754.911	0.0150790
754.989	0.0152358
755.068	0.0151595
755.146	0.0151514
755.224	0.0151852
755.302	0.0149667
755.380	0.0152051
755.458	0.0150580
755.536	0.0150206
755.614	0.0149919
755.693	0.0150542
755.771	0.0150062
755.849	0.0150071
755.927	0.0149374
756.005	0.0147601
756.083	0.0149725
756.161	0.0148359
756.239	0.0148405
756.318	0.0147284
756.396	0.0146088
756.474	0.0147036
756.552	0.0147067
756.630	0.0146315
756.708	0.0144856
756.786	0.0145973
756.864	0.0144867
756.943	0.0145356
757.021	0.0144030
757.099	0.0145736
757.177	0.0145698
757.255	0.0146683
757.333	0.0146972
757.411	0.0146124
757.489	0.0145754
757.568	0.0146848
757.646	0.0147600
757.724	0.0148508
757.802	0.0148698
757.880	0.0148385
757.958	0.0149085
758.036	0.0149167
758.114	0.0148302
758.193	0.0150488
758.271	0.0148733
758.349	0.0150337
758.427	0.0150832
758.505	0.0152086
758.583	0.0150192
758.661	0.0150772
758.739	0.0151005
758.818	0.0150694
758.896	0.0151272
758.974	0.0151316
759.052	0.0150767
759.130	0.0150472
759.208	0.0151063
759.286	0.0151543
759.364	0.0150436
759.443	0.0151207
759.521	0.0150739
759.599	0.0151755
759.677	0.0150688
759.755	0.0150049
759.833	0.0150954
759.911	0.0150412
759.989	0.0149358
760.068	0.0150713
760.146	0.0151646
760.224	0.0151483
760.302	0.0151489
760.380	0.0151743
760.458	0.0150241
760.536	0.0149993
760.614	0.0149972
760.693	0.0150005
760.771	0.0148415
760.849	0.0148315
760.927	0.0149128
761.005	0.0147871
761.083	0.0148356
761.161	0.0148776
761.239	0.0147755
761.318	0.0145490
761.396	0.0145730
761.474	0.0145888
761.552	0.0145525
761.630	0.0143708
761.708	0.0144049
761.786	0.0143227
761.864	0.0143692
761.943	0.0143848
762.021	0.0143005
762.099	0.0143217
762.177	0.0144823
762.255	0.0143803
762.333	0.0144195
762.411	0.0143600
762.489	0.0146039
762.568	0.0144617
762.646	0.0145159
762.724	0.0145271
762.802	0.0146974
762.880	0.0147768
762.958	0.0148129
763.036	0.0149261
763.114	0.0149289
763.193	0.0150774
763.271	0.0151202
763.349	0.0151751
763.427	0.0153407
763.505	0.0152902
763.583	0.0153265
763.661	0.0154593
763.739	0.0154763
763.818	0.0155330
763.896	0.0155788
763.974	0.0155437
764.052	0.0156045
764.130	0.0156324
764.208	0.0154921
764.286	0.0155273
764.364	0.0155087
764.443	0.0156416
764.521	0.0155988
764.599	0.0153628
764.677	0.0153491
764.755	0.0153597
764.833	0.0152385
764.911	0.0151817
764.989	0.0152296
765.068	0.0150658
765.146	0.0149767
765.224	0.0148785
765.302	0.0148632
765.380	0.0147746
765.458	0.0147508
765.536	0.0146538
765.614	0.0146550
765.693	0.0145490
765.771	0.0145905
765.849	0.0146284
765.927	0.0145551
766.005	0.0146426
766.083	0.0147411
766.161	0.0146169
766.239	0.0147474
766.318	0.0148984
766.396	0.0147978
766.474	0.0147472
766.552	0.0146730
766.630	0.0147156
766.708	0.0148891
766.786	0.0147240
766.864	0.0146505
766.943	0.0147796
767.021	0.0147285
767.099	0.0148600
767.177	0.0147732
767.255	0.0148901
767.333	0.0148856
767.411	0.0148537
767.489	0.0149758
767.568	0.0147683
767.646	0.0148032
767.724	0.0148946
767.802	0.0149396
767.880	0.0150385
767.958	0.0149732
768.036	0.0150518
768.114	0.0150394
768.193	0.0149503
768.271	0.0149916
768.349	0.0150018
768.427	0.0150590
768.505	0.0150201
768.583	0.0149281
768.661	0.0149905
768.739	0.0150312
768.818	0.0149727
768.896	0.0149133
768.974	0.0149751
769.052	0.0149368
769.130	0.0147600
769.208	0.0147809
769.286	0.0148804
769.364	0.0149682
769.443	0.0147810
769.521	0.0149072
769.599	0.0148411
769.677	0.0147803
769.755	0.0149198
769.833	0.0149850
769.911	0.0149573
769.989	0.0149773
770.068	0.0148438
770.146	0.0149182
770.224	0.0149661
770.302	0.0150796
770.380	0.0149860
770.458	0.0149274
770.536	0.0149252
770.614	0.0151489
770.693	0.0149911
770.771	0.0149963
770.849	0.0150486
770.927	0.0151325
771.005	0.0151027
771.083	0.0150864
771.161	0.0151620
771.239	0.0150813
771.318	0.0150928
771.396	0.0151879
771.474	0.0152909
771.552	0.0151212
771.630	0.0151057
771.708	0.0151259
771.786	0.0151309
771.864	0.0151191
771.943	0.0150214
772.021	0.0150793
772.099	0.0152539
772.177	0.0149563
772.255	0.0148596
772.333	0.0150339
772.411	0.0150263
772.489	0.0149756
772.568	0.0149364
772.646	0.0148780
772.724	0.0148885
772.802	0.0148614
772.880	0.0148381
772.958	0.0148244
773.036	0.0147321
773.114	0.0149187
773.193	0.0147069
773.271	0.0147293
773.349	0.0146577
773.427	0.0146906
773.505	0.0146953
773.583	0.0147190
773.661	0.0148240
773.739	0.0146111
773.818	0.0146207
773.896	0.0146054
773.974	0.0147681
774.052	0.0148430
774.130	0.0146703
774.208	0.0147466
774.286	0.0148962
774.364	0.0148305
774.443	0.0147079
774.521	0.0149287
774.599	0.0149448
774.677	0.0148127
774.755	0.0149416
774.833	0.0150238
774.911	0.0151247
774.989	0.0151528
775.068	0.0150557
775.146	0.0150493
775.224	0.0151570
775.302	0.0151965
775.380	0.0152692
775.458	0.0151727
775.536	0.0151562
775.614	0.0150291
775.693	0.0151718
775.771	0.0153307
775.849	0.0150960
775.927	0.0151183
776.005	0.0152216
776.083	0.0150857
776.161	0.0149527
776.239	0.0150545
776.318	0.0149238
776.396	0.0149492
776.474	0.0150459
776.552	0.0150619
776.630	0.0149844
776.708	0.0148643
776.786	0.0148681
776.864	0.0149013
776.943	0.0149062
777.021	0.0148257
777.099	0.0147088
777.177	0.0146311
777.255	0.0147332
777.333	0.0148065
777.411	0.0147733
777.489	0.0147628
777.568	0.0147373
777.646	0.0147527
777.724	0.0146621
777.802	0.0148238
777.880	0.0147159
777.958	0.0148840
778.036	0.0147537
778.114	0.0147861
778.193	0.0148824
778.271	0.0147420
778.349	0.0148154
778.427	0.0148692
778.505	0.0147931
778.583	0.0148297
778.661	0.0148117
778.739	0.0149448
778.818	0.0148292
778.896	0.0148376
778.974	0.0149382
779.052	0.0149638
779.130	0.0149849
779.208	0.0149853
779.286	0.0151319
779.364	0.0149809
779.443	0.0149931
779.521	0.0150899
779.599	0.0152222
779.677	0.0151526
779.755	0.0152489
779.833	0.0152126
779.911	0.0151120
779.989	0.0151413
780.068	0.0151302
780.146	0.0151051
780.224	0.0152190
780.302	0.0151823
780.380	0.0151193
780.458	0.0151268
780.536	0.0150031
780.614	0.0152135
780.693	0.0151344
780.771	0.0152101
780.849	0.0151160
780.927	0.0150793
781.005	0.0149378
781.083	0.0149462
781.161	0.0150301
781.239	0.0150554
781.318	0.0149561
781.396	0.0149825
781.474	0.0149292
781.552	0.0148386
781.630	0.0148380
781.708	0.0149986
781.786	0.0149449
781.864	0.0148023
781.943	0.0147456
782.021	0.0147225
782.099	0.0147163
782.177	0.0145869
782.255	0.0147334
782.333	0.0147165
782.411	0.0146033
782.489	0.0147792
782.568	0.0146249
782.646	0.0148020
782.724	0.0147300
782.802	0.0146313
782.880	0.0145562
782.958	0.0147930
783.036	0.0146007
783.114	0.0148479
783.193	0.0147764
783.271	0.0149293
783.349	0.0149204
783.427	0.0148777
783.505	0.0149322
783.583	0.0148708
783.661	0.0149478
783.739	0.0150034
783.818	0.0149750
783.896	0.0151711
783.974	0.0150619
784.052	0.0150885
784.130	0.0150638
784.208	0.0151760
784.286	0.0150385
784.364	0.0150826
784.443	0.0150889
784.521	0.0150120
784.599	0.0151835
784.677	0.0151530
784.755	0.0151736
784.833	0.0152728
784.911	0.0152972
784.989	0.0151622
785.068	0.0152678
785.146	0.0151778
785.224	0.0152242
785.302	0.0153742
785.380	0.0153936
785.458	0.0152385
785.536	0.0152352
785.614	0.0152275
785.693	0.0151743
785.771	0.0151130
785.849	0.0151952
785.927	0.0151472
786.005	0.0150441
786.083	0.0149897
786.161	0.0151756
786.239	0.0149847
786.318	0.0148213
786.396	0.0147627
786.474	0.0147401
786.552	0.0147108
786.630	0.0147324
786.708	0.0146485
786.786	0.0145621
786.864	0.0147451
786.943	0.0146661
787.021	0.0145577
787.099	0.0144917
787.177	0.0144941
787.255	0.0144023
787.333	0.0143288
787.411	0.0145669
787.489	0.0145874
787.568	0.0145903
787.646	0.0145755
787.724	0.0146735
787.802	0.0146712
787.880	0.0147778
787.958	0.0146947
788.036	0.0148913
788.114	0.0148892
788.193	0.0148740
788.271	0.0149448
788.349	0.0149946
788.427	0.0151106
788.505	0.0148695
788.583	0.0150406
788.661	0.0150193
788.739	0.0150974
788.818	0.0149738
788.896	0.0151222
788.974	0.0150537
789.052	0.0151426
789.130	0.0150704
789.208	0.0151640
789.286	0.0151207
789.364	0.0151622
789.443	0.0151525
789.521	0.0152354
789.599	0.0151067
789.677	0.0151097
789.755	0.0150883
789.833	0.0150079
789.911	0.0152282
789.989	0.0151938
790.068	0.0150431
790.146	0.0150506
790.224	0.0152111
790.302	0.0153000
790.380	0.0152997
790.458	0.0150441
790.536	0.0152281
790.614	0.0151663
790.693	0.0150013
790.771	0.0152409
790.849	0.0150531
790.927	0.0149619
791.005	0.0150208
791.083	0.0149527
791.161	0.0149702
791.239	0.0149999
791.318	0.0150135
791.396	0.0148457
791.474	0.0149973
791.552	0.0149817
791.630	0.0149699
791.708	0.0148054
791.786	0.0147606
791.864	0.0148143
791.943	0.0148805
792.021	0.0148544
792.099	0.0146773
792.177	0.0146633
792.255	0.0147936
792.333	0.0146180
792.411	0.0146152
792.489	0.0145978
792.568	0.0144668
792.646	0.0145028
792.724	0.0145441
792.802	0.0145675
792.880	0.0146457
792.958	0.0146722
793.036	0.0145672
793.114	0.0145837
793.193	0.0145726
793.271	0.0146284
793.349	0.0145996
793.427	0.0146992
793.505	0.0147740
793.583	0.0145895
793.661	0.0148013
793.739	0.0148668
793.818	0.0146866
793.896	0.0147847
793.974	0.0147617
794.052	0.0148531
794.130	0.0149672
794.208	0.0149685
794.286	0.0149670
794.364	0.0148823
794.443	0.0150269
794.521	0.0151115
794.599	0.0150175
794.677	0.0150882
794.755	0.0150445
794.833	0.0149758
794.911	0.0150631
794.989	0.0150201
795.068	0.0150747
795.146	0.0150866
795.224	0.0150413
795.302	0.0150719
795.380	0.0148737
795.458	0.0149557
795.536	0.0149619
795.614	0.0150356
795.693	0.0150626
795.771	0.0151299
795.849	0.0149249
795.927	0.0149714
796.005	0.0150395
796.083	0.0150356
796.161	0.0149577
796.239	0.0150443
796.318	0.0149728
796.396	0.0150236
796.474	0.0151302
796.552	0.0150236
796.630	0.0149352
796.708	0.0148470
796.786	0.0149254
796.864	0.0148717
796.943	0.0148618
797.021	0.0149565
797.099	0.0148901
797.177	0.0149844
797.255	0.0148170
797.333	0.0147539
797.411	0.0148460
797.489	0.0147551
797.568	0.0147916
797.646	0.0148543
797.724	0.0146838
797.802	0.0146971
797.880	0.0146316
797.958	0.0147135
798.036	0.0147482
798.114	0.0147930
798.193	0.0148795
798.271	0.0147365
798.349	0.0147972
798.427	0.0147464
798.505	0.0148464
798.583	0.0148243
798.661	0.0147274
798.739	0.0149089
798.818	0.0148411
798.896	0.0148516
798.974	0.0149026
799.052	0.0148617
799.130	0.0149473
799.208	0.0150027
799.286	0.0150049
799.364	0.0149564
799.443	0.0151196
799.521	0.0148706
799.599	0.0149120
799.677	0.0149543
799.755	0.0148965
799.833	0.0149726
799.911	0.0149061
799.989	0.0148909
800.068	0.0148511
800.146	0.0149616
800.224	0.0148266
800.302	0.0148685
800.380	0.0149160
800.458	0.0149211
800.536	0.0147882
800.614	0.0149177
800.693	0.0149660
800.771	0.0149174
800.849	0.0149986
800.927	0.0149297
801.005	0.0149500
801.083	0.0149986
801.161	0.0149995
801.239	0.0149511
801.318	0.0149665
801.396	0.0149379
801.474	0.0149650
801.552	0.0149876
801.630	0.0149555
801.708	0.0149597
801.786	0.0150069
801.864	0.0150069
801.943	0.0149632
802.021	0.0149850
802.099	0.0149829
802.177	0.0150051
802.255	0.0150130
802.333	0.0148949
802.411	0.0148983
802.489	0.0150290
802.568	0.0148888
802.646	0.0150764
802.724	0.0150128
802.802	0.0149403
802.880	0.0149958
802.958	0.0150646
803.036	0.0149924
803.114	0.0149050
803.193	0.0150092
803.271	0.0149930
803.349	0.0150156
803.427	0.0150026
803.505	0.0149199
803.583	0.0149449
803.661	0.0148936
803.739	0.0148825
803.818	0.0147982
803.896	0.0149579
803.974	0.0148814
804.052	0.0148041
804.130	0.0149085
804.208	0.0150197
804.286	0.0148943
804.364	0.0149755
804.443	0.0149813
804.521	0.0148487
804.599	0.0149274
804.677	0.0150592
804.755	0.0148946
804.833	0.0151123
804.911	0.0149843
804.989	0.0151085
805.068	0.0150702
805.146	0.0148746
805.224	0.0149923
805.302	0.0151951
805.380	0.0150935
805.458	0.0150386
805.536	0.0149040
805.614	0.0149422
805.693	0.0149747
805.771	0.0148751
805.849	0.0148134
805.927	0.0148148
806.005	0.0149151
806.083	0.0148286
806.161	0.0147617
806.239	0.0149587
806.318	0.0146899
806.396	0.0147354
806.474	0.0147698
806.552	0.0146160
806.630	0.0149236
806.708	0.0147124
806.786	0.0148775
806.864	0.0148463
806.943	0.0147823
807.021	0.0148936
807.099	0.0147299
807.177	0.0148575
807.255	0.0147979
807.333	0.0148113
807.411	0.0148527
807.489	0.0148730
807.568	0.0147691
807.646	0.0147315
807.724	0.0148924
807.802	0.0147801
807.880	0.0147865
807.958	0.0149062
808.036	0.0149886
808.114	0.0149298
808.193	0.0150156
808.271	0.0150847
808.349	0.0150748
808.427	0.0150977
808.505	0.0150744
808.583	0.0151388
808.661	0.0151477
808.739	0.0150274
808.818	0.0151071
808.896	0.0151148
808.974	0.0150822
809.052	0.0151941
809.130	0.0151514
809.208	0.0149821
809.286	0.0151398
809.364	0.0151219
809.443	0.0151336
809.521	0.0152477
809.599	0.0150180
809.677	0.0150177
809.755	0.0151328
809.833	0.0149807
809.911	0.0150574
809.989	0.0152089
810.068	0.0150571
810.146	0.0149442
810.224	0.0149734
810.302	0.0148739
810.380	0.0149222
810.458	0.0149417
810.536	0.0150330
810.614	0.0148822
810.693	0.0147205
810.771	0.0147520
810.849	0.0147604
810.927	0.0147659
811.005	0.0146847
811.083	0.0147615
811.161	0.0147301
811.239	0.0147675
811.318	0.0147821
811.396	0.0147543
811.474	0.0148064
811.552	0.0146384
811.630	0.0147268
811.708	0.0146485
811.786	0.0148181
811.864	0.0148854
811.943	0.0148437
812.021	0.0147572
812.099	0.0147553
812.177	0.0147285
812.255	0.0148311
812.333	0.0149786
812.411	0.0150162
812.489	0.0148969
812.568	0.0149564
812.646	0.0150607
812.724	0.0150431
812.802	0.0151343
812.880	0.0151087
812.958	0.0149232
813.036	0.0151163
813.114	0.0150022
813.193	0.0149634
813.271	0.0151585
813.349	0.0150955
813.427	0.0151601
813.505	0.0150410
813.583	0.0149434
813.661	0.0149159
813.739	0.0150138
813.818	0.0148742
813.896	0.0149335
813.974	0.0149408
814.052	0.0148618
814.130	0.0149642
814.208	0.0150602
814.286	0.0151220
814.364	0.0148927
814.443	0.0149483
814.521	0.0151668
814.599	0.0151704
814.677	0.0150818
814.755	0.0150869
814.833	0.0152177
814.911	0.0151089
814.989	0.0150769
815.068	0.0151338
815.146	0.0150163
815.224	0.0149843
815.302	0.0149123
815.380	0.0148460
815.458	0.0148508
815.536	0.0149976
815.614	0.0149616
815.693	0.0150578
815.771	0.0149345
815.849	0.0149925
815.927	0.0150200
816.005	0.0148359
816.083	0.0151825
816.161	0.0152950
816.239	0.0152623
816.318	0.0152650
816.396	0.0154206
816.474	0.0152391
816.552	0.0151933
816.630	0.0152826
816.708	0.0152068
816.786	0.0150869
816.864	0.0150966
816.943	0.0148931
817.021	0.0147895
817.099	0.0145795
817.177	0.0145097
817.255	0.0143793
817.333	0.0142826
817.411	0.0142432
817.489	0.0143282
817.568	0.0142704
817.646	0.0142348
817.724	0.0144532
817.802	0.0144055
817.880	0.0143793
817.958	0.0145237
818.036	0.0146465
818.114	0.0146754
818.193	0.0149727
818.271	0.0148238
818.349	0.0150195
818.427	0.0152451
818.505	0.0151428
818.583	0.0151158
818.661	0.0151931
818.739	0.0152632
818.818	0.0152137
818.896	0.0151982
818.974	0.0152689
819.052	0.0152129
819.130	0.0149907
819.208	0.0151453
819.286	0.0151550
819.364	0.0150052
819.443	0.0151261
819.521	0.0148422
819.599	0.0148656
819.677	0.0147378
819.755	0.0145711
819.833	0.0148144
819.911	0.0146706
819.989	0.0145924
820.068	0.0145919
820.146	0.0144724
820.224	0.0143326
820.302	0.0143327
820.380	0.0144403
820.458	0.0144437
820.536	0.0144640
820.614	0.0145291
820.693	0.0144576
820.771	0.0146974
820.849	0.0148096
820.927	0.0148878
821.005	0.0150109
821.083	0.0152332
821.161	0.0152575
821.239	0.0152975
821.318	0.0153189
821.396	0.0153887
821.474	0.0153925
821.552	0.0154737
821.630	0.0153761
821.708	0.0154221
821.786	0.0153983
821.864	0.0153336
821.943	0.0153773
822.021	0.0153454
822.099	0.0153465
822.177	0.0152753
822.255	0.0153440
822.333	0.0152355
822.411	0.0153069
822.489	0.0152351
822.568	0.0150886
822.646	0.0150269
822.724	0.0150111
822.802	0.0148932
822.880	0.0146588
822.958	0.0145104
823.036	0.0146288
823.114	0.0144311
823.193	0.0142845
823.271	0.0142117
823.349	0.0142310
823.427	0.0141370
823.505	0.0140671
823.583	0.0140451
823.661	0.0141154
823.739	0.0142751
823.818	0.0143925
823.896	0.0144212
823.974	0.0147153
824.052	0.0147779
824.130	0.0149719
824.208	0.0150153
824.286	0.0151299
824.364	0.0153121
824.443	0.0152244
824.521	0.0153151
824.599	0.0154348
824.677	0.0154763
824.755	0.0153369
824.833	0.0153776
824.911	0.0153072
824.989	0.0153506
825.068	0.0153851
825.146	0.0153349
825.224	0.0152026
825.302	0.0150568
825.380	0.0150593
825.458	0.0150378
825.536	0.0148030
825.614	0.0147630
825.693	0.0146854
825.771	0.0145923
825.849	0.0144601
825.927	0.0145129
826.005	0.0143741
826.083	0.0145409
826.161	0.0143977
826.239	0.0144249
826.318	0.0144495
826.396	0.0144074
826.474	0.0145262
826.552	0.0146590
826.630	0.0149123
826.708	0.0147582
826.786	0.0148841
826.864	0.0150342
826.943	0.0150690
827.021	0.0152929
827.099	0.0153193
827.177	0.0152768
827.255	0.0153783
827.333	0.0154073
827.411	0.0153330
827.489	0.0152863
827.568	0.0153221
827.646	0.0153379
827.724	0.0153065
827.802	0.0153220
827.880	0.0152960
827.958	0.0151090
828.036	0.0151368
828.114	0.0151839
828.193	0.0150919
828.271	0.0150358
828.349	0.0147742
828.427	0.0148045
828.505	0.0147920
828.583	0.0149368
828.661	0.0146529
828.739	0.0145277
828.818	0.0146106
828.896	0.0146431
828.974	0.0144472
829.052	0.0144869
829.130	0.0145016
829.208	0.0143448
829.286	0.0145480
829.364	0.0145949
829.443	0.0144929
829.521	0.0145687
829.599	0.0146304
829.677	0.0145951
829.755	0.0146996
829.833	0.0146542
829.911	0.0147224
829.989	0.0148173
830.068	0.0148740
830.146	0.0149389
830.224	0.0148664
830.302	0.0149080
830.380	0.0149634
830.458	0.0150118
830.536	0.0149902
830.614	0.0150940
830.693	0.0152314
830.771	0.0153447
830.849	0.0152847
830.927	0.0151820
831.005	0.0153861
831.083	0.0152982
831.161	0.0153561
831.239	0.0153124
831.318	0.0151949
831.396	0.0153075
831.474	0.0152753
831.552	0.0152758
831.630	0.0152708
831.708	0.0152315
831.786	0.0150253
831.864	0.0149681
831.943	0.0147663
832.021	0.0148201
832.099	0.0146730
832.177	0.0146104
832.255	0.0146469
832.333	0.0145493
832.411	0.0144677
832.489	0.0144595
832.568	0.0143733
832.646	0.0144096
832.724	0.0144225
832.802	0.0143289
832.880	0.0143677
832.958	0.0142628
833.036	0.0143288
833.114	0.0143247
833.193	0.0145727
833.271	0.0145236
833.349	0.0144917
833.427	0.0146179
833.505	0.0147383
833.583	0.0146892
833.661	0.0148894
833.739	0.0149549
833.818	0.0149020
833.896	0.0150748
833.974	0.0151643
834.052	0.0152396
834.130	0.0151154
834.208	0.0152939
834.286	0.0152211
834.364	0.0153460
834.443	0.0152383
834.521	0.0153234
834.599	0.0152330
834.677	0.0153118
834.755	0.0152709
834.833	0.0153127
834.911	0.0150792
834.989	0.0148756
835.068	0.0149969
835.146	0.0149777
835.224	0.0149007
835.302	0.0146920
835.380	0.0147387
835.458	0.0147338
835.536	0.0146284
835.614	0.0145553
835.693	0.0145564
835.771	0.0145667
835.849	0.0146446
835.927	0.0146716
836.005	0.0147720
836.083	0.0147045
836.161	0.0146143
836.239	0.0147504
836.318	0.0147559
836.396	0.0147885
836.474	0.0147758
836.552	0.0146091
836.630	0.0145387
836.708	0.0144812
836.786	0.0145050
836.864	0.0145745
836.943	0.0146452
837.021	0.0145235
837.099	0.0145875
837.177	0.0146498
837.255	0.0147070
837.333	0.0147762
837.411	0.0145993
837.489	0.0147926
837.568	0.0149014
837.646	0.0148568
837.724	0.0149903
837.802	0.0150981
837.880	0.0150618
837.958	0.0153624
838.036	0.0153539
838.114	0.0152831
838.193	0.0153580
838.271	0.0153596
838.349	0.0154953
838.427	0.0154023
838.505	0.0153671
838.583	0.0153739
838.661	0.0155345
838.739	0.0153230
838.818	0.0152345
838.896	0.0153189
838.974	0.0152176
839.052	0.0151535
839.130	0.0151189
839.208	0.0149735
839.286	0.0150248
839.364	0.0149350
839.443	0.0149316
839.521	0.0149151
839.599	0.0148068
839.677	0.0147968
839.755	0.0148450
839.833	0.0145306
839.911	0.0147130
839.989	0.0146841
840.068	0.0147210
840.146	0.0146171
840.224	0.0148074
840.302	0.0145213
840.380	0.0146297
840.458	0.0146221
840.536	0.0147305
840.614	0.0149397
840.693	0.0148737
840.771	0.0148728
840.849	0.0149863
840.927	0.0149996
841.005	0.0151144
841.083	0.0149809
841.161	0.0150987
841.239	0.0151247
841.318	0.0151052
841.396	0.0150981
841.474	0.0149580
841.552	0.0151247
841.630	0.0151083
841.708	0.0150982
841.786	0.0150822
841.864	0.0150826
841.943	0.0151321
842.021	0.0150343
842.099	0.0150521
842.177	0.0152139
842.255	0.0151012
842.333	0.0150758
842.411	0.0150482
842.489	0.0150147
842.568	0.0150461
842.646	0.0150710
842.724	0.0151571
842.802	0.0150882
842.880	0.0149113
842.958	0.0151028
843.036	0.0151819
843.114	0.0150397
843.193	0.0150063
843.271	0.0149983
843.349	0.0150103
843.427	0.0149615
843.505	0.0147637
843.583	0.0148091
843.661	0.0149194
843.739	0.0149139
843.818	0.0148914
843.896	0.0147503
843.974	0.0149946
844.052	0.0150240
844.130	0.0149716
844.208	0.0149777
844.286	0.0152336
844.364	0.0151506
844.443	0.0153304
844.521	0.0152380
844.599	0.0151623
844.677	0.0151640
844.755	0.0152427
844.833	0.0152565
844.911	0.0152556
844.989	0.0153583
845.068	0.0152098
845.146	0.0150716
845.224	0.0150029
845.302	0.0150583
845.380	0.0150600
845.458	0.0149119
845.536	0.0147801
845.614	0.0147230
845.693	0.0147390
845.771	0.0148160
845.849	0.0147002
845.927	0.0148336
846.005	0.0147984
846.083	0.0147255
846.161	0.0148012
846.239	0.0148930
846.318	0.0148498
846.396	0.0148359
846.474	0.0149358
846.552	0.0151450
846.630	0.0150813
846.708	0.0150770
846.786	0.0151241
846.864	0.0151952
846.943	0.0151791
847.021	0.0152651
847.099	0.0152473
847.177	0.0151094
847.255	0.0150348
847.333	0.0151624
847.411	0.0149918
847.489	0.0150141
847.568	0.0152077
847.646	0.0150053
847.724	0.0148988
847.802	0.0148193
847.880	0.0148158
847.958	0.0147887
848.036	0.0147398
848.114	0.0148322
848.193	0.0147992
848.271	0.0146646
848.349	0.0146225
848.427	0.0147250
848.505	0.0146896
848.583	0.0146200
848.661	0.0146523
848.739	0.0147891
848.818	0.0149261
848.896	0.0149010
848.974	0.0147780
849.052	0.0150170
849.130	0.0150575
849.208	0.0149477
849.286	0.0150148
849.364	0.0150480
849.443	0.0149109
849.521	0.0150267
849.599	0.0150493
849.677	0.0149196
849.755	0.0149023
849.833	0.0150446
849.911	0.0150198
849.989	0.0148107
850.068	0.0149774
850.146	0.0148737
850.224	0.0149026
850.302	0.0150506
850.380	0.0149780
850.458	0.0150594
850.536	0.0149184
850.614	0.0149767
850.693	0.0149620
850.771	0.0149474
850.849	0.0151096
850.927	0.0150986
851.005	0.0150262
851.083	0.0149917
851.161	0.0149624
851.239	0.0150629
851.318	0.0149659
851.396	0.0151227
851.474	0.0150295
851.552	0.0148761
851.630	0.0149021
851.708	0.0148704
851.786	0.0148445
851.864	0.0148943
851.943	0.0148345
852.021	0.0147968
852.099	0.0148127
852.177	0.0147673
852.255	0.0148167
852.333	0.0147980
852.411	0.0149100
852.489	0.0149554
852.568	0.0149004
852.646	0.0150008
852.724	0.0148907
852.802	0.0149581
852.880	0.0149210
852.958	0.0150268
853.036	0.0151150
853.114	0.0150318
853.193	0.0150881
853.271	0.0149835
853.349	0.0150073
853.427	0.0149381
853.505	0.0150087
853.583	0.0149327
853.661	0.0149602
853.739	0.0148546
853.818	0.0148494
853.896	0.0148969
853.974	0.0147237
854.052	0.0146460
854.130	0.0147958
854.208	0.0148326
854.286	0.0146206
854.364	0.0146615
854.443	0.0146696
854.521	0.0146864
854.599	0.0147760
854.677	0.0149047
854.755	0.0149456
854.833	0.0148038
854.911	0.0149482
854.989	0.0149981
855.068	0.0151296
855.146	0.0151144
855.224	0.0150661
855.302	0.0153127
855.380	0.0152376
855.458	0.0151716
855.536	0.0150841
855.614	0.0150195
855.693	0.0151875
855.771	0.0151337
855.849	0.0150667
855.927	0.0151862
856.005	0.0151044
856.083	0.0150211
856.161	0.0149856
856.239	0.0149532
856.318	0.0148682
856.396	0.0149239
856.474	0.0148509
856.552	0.0147826
856.630	0.0148846
856.708	0.0147701
856.786	0.0147820
856.864	0.0147083
856.943	0.0147099
857.021	0.0147776
857.099	0.0147927
857.177	0.0147271
857.255	0.0148244
857.333	0.0148157
857.411	0.0148862
857.489	0.0148927
857.568	0.0149144
857.646	0.0149976
857.724	0.0149854
857.802	0.0150110
857.880	0.0149763
857.958	0.0150153
858.036	0.0151382
858.114	0.0150591
858.193	0.0150666
858.271	0.0150728
858.349	0.0150217
858.427	0.0150020
858.505	0.0149323
858.583	0.0148414
858.661	0.0148367
858.739	0.0149500
858.818	0.0146819
858.896	0.0147453
858.974	0.0146320
859.052	0.0146803
859.130	0.0147050
859.208	0.0146427
859.286	0.0146740
859.364	0.0146526
859.443	0.0146144
859.521	0.0147047
859.599	0.0147948
859.677	0.0148070
859.755	0.0149220
859.833	0.0149032
859.911	0.0149679
859.989	0.0149390
860.068	0.0149099
860.146	0.0150426
860.224	0.0150963
860.302	0.0149545
860.380	0.0150165
860.458	0.0149174
860.536	0.0148456
860.614	0.0149644
860.693	0.0150484
860.771	0.0148542
860.849	0.0150055
860.927	0.0149127
861.005	0.0149733
861.083	0.0149451
861.161	0.0148937
861.239	0.0149799
861.318	0.0150835
861.396	0.0149346
861.474	0.0150201
861.552	0.0151266
861.630	0.0150735
861.708	0.0151174
861.786	0.0152251
861.864	0.0151782
861.943	0.0152405
862.021	0.0151325
862.099	0.0152316
862.177	0.0152614
862.255	0.0151971
862.333	0.0151745
862.411	0.0153120
862.489	0.0150851
862.568	0.0149264
862.646	0.0150154
862.724	0.0150249
862.802	0.0146715
862.880	0.0148954
862.958	0.0147102
863.036	0.0146689
863.114	0.0146777
863.193	0.0147571
863.271	0.0147478
863.349	0.0146675
863.427	0.0146653
863.505	0.0146661
863.583	0.0145788
863.661	0.0148373
863.739	0.0146622
863.818	0.0145844
863.896	0.0146885
863.974	0.0147984
864.052	0.0149443
864.130	0.0148719
864.208	0.0149428
864.286	0.0148743
864.364	0.0148161
864.443	0.0149257
864.521	0.0149288
864.599	0.0150729
864.677	0.0150219
864.755	0.0149706
864.833	0.0150528
864.911	0.0151785
864.989	0.0151077
865.068	0.0151028
865.146	0.0150405
865.224	0.0151263
865.302	0.0150325
865.380	0.0150901
865.458	0.0150787
865.536	0.0151434
865.614	0.0149818
865.693	0.0151450
865.771	0.0150816
865.849	0.0150180
865.927	0.0150935
866.005	0.0151553
866.083	0.0150450
866.161	0.0151108
866.239	0.0151643
866.318	0.0151743
866.396	0.0150572
866.474	0.0149997
866.552	0.0150955
866.630	0.0149514
866.708	0.0150697
866.786	0.0150897
866.864	0.0150181
866.943	0.0149424
867.021	0.0150671
867.099	0.0151518
867.177	0.0151853
867.255	0.0151176
867.333	0.0151744
867.411	0.0151028
867.489	0.0150888
867.568	0.0151476
867.646	0.0151135
867.724	0.0150002
867.802	0.0150160
867.880	0.0150547
867.958	0.0149068
868.036	0.0149108
868.114	0.0148870
868.193	0.0147182
868.271	0.0146697
868.349	0.0148248
868.427	0.0147462
868.505	0.0145943
868.583	0.0147140
868.661	0.0148177
868.739	0.0146608
868.818	0.0146050
868.896	0.0146157
868.974	0.0149013
869.052	0.0148632
869.130	0.0146509
869.208	0.0149087
869.286	0.0148911
869.364	0.0150814
869.443	0.0150576
869.521	0.0150961
869.599	0.0150259
869.677	0.0150784
869.755	0.0151641
869.833	0.0151384
869.911	0.0152379
869.989	0.0151939
870.068	0.0151590
870.146	0.0152290
870.224	0.0151548
870.302	0.0152296
870.380	0.0151554
870.458	0.0150357
870.536	0.0150813
870.614	0.0148794
870.693	0.0149549
870.771	0.0150179
870.849	0.0148878
870.927	0.0149093
871.005	0.0149443
871.083	0.0147319
871.161	0.0149500
871.239	0.0149224
871.318	0.0150907
871.396	0.0148676
871.474	0.0148940
871.552	0.0149697
871.630	0.0148490
871.708	0.0149386
871.786	0.0148749
871.864	0.0148167
871.943	0.0148453
872.021	0.0148019
872.099	0.0148896
872.177	0.0147860
872.255	0.0148999
872.333	0.0148098
872.411	0.0147660
872.489	0.0149099
872.568	0.0149079
872.646	0.0147902
872.724	0.0148625
872.802	0.0148793
872.880	0.0148100
872.958	0.0148697
873.036	0.0148137
873.114	0.0149140
873.193	0.0149187
873.271	0.0149172
873.349	0.0148203
873.427	0.0149337
873.505	0.0149656
873.583	0.0147379
873.661	0.0149508
873.739	0.0148758
873.818	0.0148039
873.896	0.0149123
873.974	0.0149992
874.052	0.0149561
874.130	0.0148910
874.208	0.0149096
874.286	0.0149488
874.364	0.0148183
874.443	0.0150312
874.521	0.0149120
874.599	0.0149914
874.677	0.0149110
874.755	0.0149419
874.833	0.0150233
874.911	0.0150452
874.989	0.0150993
875.068	0.0149253
875.146	0.0149538
875.224	0.0150356
875.302	0.0151203
875.380	0.0151595
875.458	0.0152083
875.536	0.0150405
875.614	0.0149632
875.693	0.0150203
875.771	0.0149702
875.849	0.0148217
875.927	0.0148043
876.005	0.0148487
876.083	0.0148595
876.161	0.0148023
876.239	0.0147581
876.318	0.0145509
876.396	0.0145757
876.474	0.0146619
876.552	0.0147482
876.630	0.0147134
876.708	0.0146669
876.786	0.0147072
876.864	0.0146972
876.943	0.0148235
877.021	0.0147974
877.099	0.0147895
877.177	0.0149202
877.255	0.0149802
877.333	0.0150356
877.411	0.0148267
877.489	0.0151679
877.568	0.0151279
877.646	0.0152050
877.724	0.0152105
877.802	0.0150983
877.880	0.0152673
877.958	0.0153341
878.036	0.0151402
878.114	0.0151393
878.193	0.0150072
878.271	0.0149843
878.349	0.0150910
878.427	0.0150774
878.505	0.0150407
878.583	0.0148782
878.661	0.0149015
878.739	0.0149740
878.818	0.0148796
878.896	0.0148540
878.974	0.0149292
879.052	0.0148580
879.130	0.0148577
879.208	0.0147737
879.286	0.0146846
879.364	0.0148097
879.443	0.0149972
879.521	0.0149364
879.599	0.0148922
879.677	0.0149233
879.755	0.0149511
879.833	0.0149237
879.911	0.0151083
879.989	0.0151380
880.068	0.0150460
880.146	0.0150844
880.224	0.0150658
880.302	0.0150768
880.380	0.0151204
880.458	0.0150450
880.536	0.0150857
880.614	0.0149683
880.693	0.0149878
880.771	0.0149860
880.849	0.0149485
880.927	0.0150513
881.005	0.0149487
881.083	0.0148100
881.161	0.0149056
881.239	0.0149670
881.318	0.0148897
881.396	0.0148958
881.474	0.0148193
881.552	0.0149353
881.630	0.0149198
881.708	0.0148922
881.786	0.0147950
881.864	0.0147021
881.943	0.0149169
882.021	0.0148237
882.099	0.0147398
882.177	0.0147976
882.255	0.0148482
882.333	0.0147036
882.411	0.0148179
882.489	0.0148048
882.568	0.0148415
882.646	0.0148859
882.724	0.0148683
882.802	0.0149644
882.880	0.0149625
882.958	0.0150647
883.036	0.0150220
883.114	0.0151958
883.193	0.0150966
883.271	0.0151825
883.349	0.0151131
883.427	0.0151311
883.505	0.0151038
883.583	0.0151949
883.661	0.0150524
883.739	0.0150677
883.818	0.0151752
883.896	0.0150998
883.974	0.0150601
884.052	0.0149254
884.130	0.0148828
884.208	0.0149031
884.286	0.0147950
884.364	0.0146461
884.443	0.0147611
884.521	0.0146285
884.599	0.0146030
884.677	0.0145457
884.755	0.0146760
884.833	0.0145097
884.911	0.0145635
884.989	0.0147097
885.068	0.0148017
885.146	0.0147272
885.224	0.0149383
885.302	0.0148710
885.380	0.0149288
885.458	0.0149686
885.536	0.0151012
885.614	0.0152321
885.693	0.0151190
885.771	0.0151057
885.849	0.0151205
885.927	0.0151897
886.005	0.0152541
886.083	0.0149906
886.161	0.0151180
886.239	0.0150862
886.318	0.0150607
886.396	0.0149728
886.474	0.0149821
886.552	0.0149143
886.630	0.0149179
886.708	0.0148535
886.786	0.0147889
886.864	0.0148316
886.943	0.0147907
887.021	0.0147365
887.099	0.0147661
887.177	0.0148103
887.255	0.0147410
887.333	0.0146356
887.411	0.0148055
887.489	0.0147623
887.568	0.0148209
887.646	0.0148191
887.724	0.0147509
887.802	0.0148903
887.880	0.0149876
887.958	0.0149966
888.036	0.0150347
888.114	0.0149566
888.193	0.0150846
888.271	0.0150454
888.349	0.0151119
888.427	0.0150573
888.505	0.0149458
888.583	0.0151191
888.661	0.0151472
888.739	0.0149986
888.818	0.0151528
888.896	0.0151952
888.974	0.0150966
889.052	0.0151421
889.130	0.0151565
889.208	0.0151074
889.286	0.0151427
889.364	0.0151086
889.443	0.0151369
889.521	0.0151177
889.599	0.0152213
889.677	0.0151134
889.755	0.0150954
889.833	0.0149745
889.911	0.0149969
889.989	0.0151562
890.068	0.0150543
890.146	0.0149747
890.224	0.0147915
890.302	0.0148860
890.380	0.0149933
890.458	0.0150005
890.536	0.0150910
890.614	0.0149561
890.693	0.0148920
890.771	0.0149671
890.849	0.0150851
890.927	0.0150955
891.005	0.0148174
891.083	0.0150707
891.161	0.0151579
891.239	0.0149802
891.318	0.0150477
891.396	0.0150549
891.474	0.0150819
891.552	0.0150359
891.630	0.0151785
891.708	0.0152006
891.786	0.0149767
891.864	0.0151756
891.943	0.0151263
892.021	0.0149134
892.099	0.0149509
892.177	0.0150603
892.255	0.0148479
892.333	0.0150185
892.411	0.0149318
892.489	0.0148274
892.568	0.0150230
892.646	0.0148299
892.724	0.0148558
892.802	0.0148212
892.880	0.0147208
892.958	0.0148584
893.036	0.0149911
893.114	0.0149179
893.193	0.0150259
893.271	0.0150143
893.349	0.0150133
893.427	0.0150133
893.505	0.0149133
893.583	0.0148234
893.661	0.0148550
893.739	0.0149302
893.818	0.0149951
893.896	0.0147757
893.974	0.0149796
894.052	0.0148511
894.130	0.0147321
894.208	0.0148876
894.286	0.0150706
894.364	0.0148711
894.443	0.0148337
894.521	0.0147991
894.599	0.0147962
894.677	0.0147206
894.755	0.0147736
894.833	0.0147897
894.911	0.0148244
894.989	0.0148186
895.068	0.0149597
895.146	0.0148170
895.224	0.0147942
895.302	0.0148602
895.380	0.0149224
895.458	0.0148186
895.536	0.0147707
895.614	0.0148738
895.693	0.0149757
895.771	0.0148133
895.849	0.0147836
895.927	0.0148467
896.005	0.0148222
896.083	0.0148396
896.161	0.0149325
896.239	0.0148889
896.318	0.0148207
896.396	0.0148425
896.474	0.0149316
896.552	0.0147746
896.630	0.0148943
896.708	0.0149835
896.786	0.0148093
896.864	0.0148849
896.943	0.0148889
897.021	0.0149952
897.099	0.0150450
897.177	0.0150326
897.255	0.0148493
897.333	0.0149693
897.411	0.0150191
897.489	0.0150251
897.568	0.0148844
897.646	0.0149125
897.724	0.0150521
897.802	0.0149959
897.880	0.0148703
897.958	0.0149405
898.036	0.0148734
898.114	0.0148725
898.193	0.0147780
898.271	0.0148643
898.349	0.0149578
898.427	0.0147325
898.505	0.0147239
898.583	0.0148212
898.661	0.0147975
898.739	0.0148328
898.818	0.0146864
898.896	0.0146530
898.974	0.0146590
899.052	0.0147623
899.130	0.0147306
899.208	0.0147676
899.286	0.0146514
899.364	0.0146099
899.443	0.0147234
899.521	0.0149225
899.599	0.0148821
899.677	0.0147079
899.755	0.0147144
899.833	0.0147472
899.911	0.0148394
899.989	0.0148133
900.068	0.0148156
900.146	0.0147772
900.224	0.0148164
900.302	0.0148654
900.380	0.0148015
900.458	0.0147959
900.536	0.0149130
900.614	0.0147978
900.693	0.0148259
900.771	0.0149854
900.849	0.0151265
900.927	0.0149659
901.005	0.0150598
901.083	0.0150180
901.161	0.0148764
901.239	0.0148374
901.318	0.0150338
901.396	0.0147901
901.474	0.0148491
901.552	0.0147758
901.630	0.0147924
901.708	0.0148763
901.786	0.0148029
901.864	0.0147474
901.943	0.0148738
902.021	0.0148349
902.099	0.0148022
902.177	0.0149330
902.255	0.0148840
902.333	0.0149962
902.411	0.0148721
902.489	0.0147423
902.568	0.0149319
902.646	0.0148843
902.724	0.0147746
902.802	0.0148491
902.880	0.0149969
902.958	0.0149231
903.036	0.0149240
903.114	0.0148624
903.193	0.0149172
903.271	0.0150264
903.349	0.0149955
903.427	0.0150121
903.505	0.0148873
903.583	0.0150719
903.661	0.0149622
903.739	0.0148785
903.818	0.0149104
903.896	0.0148516
903.974	0.0147655
904.052	0.0147169
904.130	0.0147378
904.208	0.0148997
904.286	0.0148448
904.364	0.0147693
904.443	0.0148725
904.521	0.0147057
904.599	0.0147822
904.677	0.0149409
904.755	0.0147314
904.833	0.0148186
904.911	0.0148528
904.989	0.0149493
905.068	0.0148418
905.146	0.0150500
905.224	0.0149333
905.302	0.0149364
905.380	0.0151218
905.458	0.0149403
905.536	0.0149135
905.614	0.0150615
905.693	0.0149954
905.771	0.0150608
905.849	0.0151085
905.927	0.0149723
906.005	0.0149767
906.083	0.0150520
906.161	0.0150598
906.239	0.0150062
906.318	0.0149171
906.396	0.0148407
906.474	0.0149831
906.552	0.0148828
906.630	0.0148685
906.708	0.0148671
906.786	0.0148858
906.864	0.0149082
906.943	0.0149483
907.021	0.0148525
907.099	0.0149564
907.177	0.0148808
907.255	0.0148545
907.333	0.0148251
907.411	0.0148524
907.489	0.0149612
907.568	0.0150128
907.646	0.0147967
907.724	0.0148847
907.802	0.0150169
907.880	0.0148758
907.958	0.0147887
908.036	0.0148685
908.114	0.0148955
908.193	0.0149339
908.271	0.0149895
908.349	0.0150779
908.427	0.0149506
908.505	0.0149158
908.583	0.0149211
908.661	0.0148688
908.739	0.0150610
908.818	0.0148960
908.896	0.0150873
908.974	0.0151583
909.052	0.0149106
909.130	0.0150016
909.208	0.0149110
909.286	0.0150424
909.364	0.0151562
909.443	0.0151067
909.521	0.0150111
909.599	0.0150050
909.677	0.0149743
909.755	0.0149421
909.833	0.0150292
909.911	0.0150053
909.989	0.0147623
910.068	0.0147940
910.146	0.0149033
910.224	0.0149335
910.302	0.0147687
910.380	0.0148438
910.458	0.0147763
910.536	0.0147074
910.614	0.0147977
910.693	0.0148947
910.771	0.0148741
910.849	0.0148947
910.927	0.0150043
911.005	0.0147501
911.083	0.0150463
911.161	0.0150706
911.239	0.0151424
911.318	0.0151104
911.396	0.0150404
911.474	0.0150859
911.552	0.0148943
911.630	0.0149687
911.708	0.0148621
911.786	0.0147986
911.864	0.0148140
911.943	0.0147134
912.021	0.0148044
912.099	0.0147904
912.177	0.0148003
912.255	0.0147012
912.333	0.0146638
912.411	0.0147031
912.489	0.0147208
912.568	0.0148536
912.646	0.0147084
912.724	0.0147102
912.802	0.0148642
912.880	0.0148479
912.958	0.0149454
913.036	0.0149099
913.114	0.0150190
913.193	0.0149308
913.271	0.0150971
913.349	0.0151157
913.427	0.0149545
913.505	0.0150176
913.583	0.0151221
913.661	0.0152184
913.739	0.0150568
913.818	0.0150271
913.896	0.0150479
913.974	0.0149976
914.052	0.0149950
914.130	0.0151372
914.208	0.0149689
914.286	0.0149107
914.364	0.0150835
914.443	0.0150739
914.521	0.0149039
914.599	0.0149474
914.677	0.0148493
914.755	0.0150019
914.833	0.0150172
914.911	0.0148390
914.989	0.0148441
915.068	0.0149986
915.146	0.0149146
915.224	0.0149542
915.302	0.0147690
915.380	0.0146922
915.458	0.0148891
915.536	0.0148156
915.614	0.0147569
915.693	0.0148663
915.771	0.0147270
915.849	0.0148088
915.927	0.0148368
916.005	0.0146754
916.083	0.0145855
916.161	0.0147303
916.239	0.0146532
916.318	0.0147081
916.396	0.0147652
916.474	0.0146583
916.552	0.0147036
916.630	0.0148239
916.708	0.0147485
916.786	0.0147977
916.864	0.0147265
916.943	0.0147787
917.021	0.0148251
917.099	0.0148075
917.177	0.0148647
917.255	0.0149515
917.333	0.0148231
917.411	0.0149585
917.489	0.0150459
917.568	0.0148538
917.646	0.0148910
917.724	0.0149754
917.802	0.0149162
917.880	0.0148333
917.958	0.0148724
918.036	0.0147733
918.114	0.0149811
918.193	0.0149255
918.271	0.0149083
918.349	0.0148607
918.427	0.0148351
918.505	0.0148689
918.583	0.0148068
918.661	0.0150037
918.739	0.0147974
918.818	0.0149368
918.896	0.0148473
918.974	0.0149174
919.052	0.0149313
919.130	0.0148442
919.208	0.0149119
919.286	0.0149004
919.364	0.0149266
919.443	0.0148552
919.521	0.0147783
919.599	0.0147016
919.677	0.0147689
919.755	0.0148792
919.833	0.0146918
919.911	0.0147279
919.989	0.0148271
920.068	0.0146623
920.146	0.0146780
920.224	0.0146352
920.302	0.0148120
920.380	0.0148730
920.458	0.0148126
920.536	0.0146478
920.614	0.0146955
920.693	0.0147834
920.771	0.0149081
920.849	0.0149127
920.927	0.0148453
921.005	0.0149310
921.083	0.0149459
921.161	0.0150183
921.239	0.0149780
921.318	0.0150490
921.396	0.0149623
921.474	0.0150415
921.552	0.0150414
921.630	0.0150329
921.708	0.0150239
921.786	0.0150698
921.864	0.0151452
921.943	0.0150122
922.021	0.0151051
922.099	0.0149934
922.177	0.0150124
922.255	0.0151517
922.333	0.0150870
922.411	0.0150545
922.489	0.0150713
922.568	0.0151694
922.646	0.0149857
922.724	0.0150236
922.802	0.0149925
922.880	0.0150765
922.958	0.0151508
923.036	0.0151058
923.114	0.0149572
923.193	0.0149999
923.271	0.0150835
923.349	0.0149951
923.427	0.0150067
923.505	0.0150507
923.583	0.0148441
923.661	0.0149737
923.739	0.0150538
923.818	0.0148120
923.896	0.0148312
923.974	0.0149131
924.052	0.0148797
924.130	0.0149842
924.208	0.0150446
924.286	0.0148225
924.364	0.0149278
924.443	0.0150711
924.521	0.0148830
924.599	0.0149561
924.677	0.0149776
924.755	0.0150437
924.833	0.0149453
924.911	0.0151196
924.989	0.0151328
925.068	0.0149930
925.146	0.0149430
925.224	0.0149690
925.302	0.0149689
925.380	0.0150086
925.458	0.0149989
925.536	0.0149459
925.614	0.0149677
925.693	0.0149915
925.771	0.0149450
925.849	0.0148638
925.927	0.0147274
926.005	0.0147350
926.083	0.0147935
926.161	0.0148325
926.239	0.0148702
926.318	0.0147359
926.396	0.0147968
926.474	0.0148529
926.552	0.0148442
926.630	0.0148103
926.708	0.0147993
926.786	0.0149255
926.864	0.0149000
926.943	0.0149316
927.021	0.0148613
927.099	0.0148763
927.177	0.0150163
927.255	0.0149108
927.333	0.0149075
927.411	0.0150971
927.489	0.0148661
927.568	0.0150029
927.646	0.0149490
927.724	0.0149136
927.802	0.0150616
927.880	0.0151532
927.958	0.0151665
928.036	0.0152168
928.114	0.0149244
928.193	0.0149555
928.271	0.0152043
928.349	0.0150480
928.427	0.0148749
928.505	0.0150766
928.583	0.0149895
928.661	0.0150549
928.739	0.0150365
928.818	0.0150272
928.896	0.0148438
928.974	0.0149596
929.052	0.0149484
929.130	0.0147827
929.208	0.0148223
929.286	0.0148671
929.364	0.0149691
929.443	0.0149528
929.521	0.0148937
929.599	0.0148671
929.677	0.0150094
929.755	0.0149209
929.833	0.0147999
929.911	0.0148064
929.989	0.0148014
930.068	0.0147811
930.146	0.0146181
930.224	0.0147135
930.302	0.0146679
930.380	0.0148091
930.458	0.0146367
930.536	0.0146666
930.614	0.0147301
930.693	0.0149478
930.771	0.0148015
930.849	0.0147250
930.927	0.0149879
931.005	0.0148702
931.083	0.0148485
931.161	0.0147694
931.239	0.0149360
931.318	0.0149050
931.396	0.0148577
931.474	0.0149096
931.552	0.0149681
931.630	0.0149967
931.708	0.0149998
931.786	0.0149348
931.864	0.0149761
931.943	0.0149357
932.021	0.0149850
932.099	0.0149195
932.177	0.0149050
932.255	0.0149126
932.333	0.0148919
932.411	0.0148997
932.489	0.0148550
932.568	0.0150243
932.646	0.0151414
932.724	0.0148448
932.802	0.0148907
932.880	0.0150759
932.958	0.0149524
933.036	0.0149491
933.114	0.0149503
933.193	0.0148627
933.271	0.0149409
933.349	0.0150043
933.427	0.0148827
933.505	0.0149536
933.583	0.0149403
933.661	0.0149706
933.739	0.0149122
933.818	0.0149453
933.896	0.0150625
933.974	0.0149847
934.052	0.0148332
934.130	0.0150089
934.208	0.0149386
934.286	0.0149885
934.364	0.0150017
934.443	0.0150842
934.521	0.0149331
934.599	0.0149163
934.677	0.0149409
934.755	0.0151247
934.833	0.0151321
934.911	0.0150359
934.989	0.0150922
935.068	0.0150863
935.146	0.0150617
935.224	0.0150388
935.302	0.0150343
935.380	0.0150552
935.458	0.0151134
935.536	0.0149139
935.614	0.0148962
935.693	0.0149202
935.771	0.0149531
935.849	0.0148920
935.927	0.0148487
936.005	0.0148119
936.083	0.0148130
936.161	0.0149068
936.239	0.0148049
936.318	0.0147617
936.396	0.0147180
936.474	0.0147437
936.552	0.0147929
936.630	0.0148033
936.708	0.0147717
936.786	0.0147656
936.864	0.0148681
936.943	0.0147384
937.021	0.0148170
937.099	0.0148619
937.177	0.0149143
937.255	0.0147992
937.333	0.0147723
937.411	0.0148798
937.489	0.0149300
937.568	0.0150134
937.646	0.0149929
937.724	0.0149504
937.802	0.0149205
937.880	0.0149973
937.958	0.0148224
938.036	0.0149113
938.114	0.0148509
938.193	0.0148110
938.271	0.0149176
938.349	0.0149038
938.427	0.0149577
938.505	0.0150094
938.583	0.0148684
938.661	0.0149658
938.739	0.0150380
938.818	0.0150368
938.896	0.0149141
938.974	0.0150077
939.052	0.0150951
939.130	0.0149142
939.208	0.0149656
939.286	0.0149918
939.364	0.0148238
939.443	0.0149643
939.521	0.0150309
939.599	0.0148804
939.677	0.0148784
939.755	0.0148341
939.833	0.0148528
939.911	0.0149434
939.989	0.0149438
940.068	0.0149747
940.146	0.0149548
940.224	0.0148653
940.302	0.0148802
940.380	0.0150465
940.458	0.0148578
940.536	0.0148752
940.614	0.0148687
940.693	0.0148730
940.771	0.0148553
940.849	0.0148969
940.927	0.0149685
941.005	0.0149477
941.083	0.0150293
941.161	0.0149626
941.239	0.0148415
941.318	0.0148624
941.396	0.0148956
941.474	0.0149573
941.552	0.0149427
941.630	0.0149048
941.708	0.0149500
941.786	0.0150665
941.864	0.0149799
941.943	0.0149727
942.021	0.0150301
942.099	0.0150723
942.177	0.0149442
942.255	0.0148727
942.333	0.0149117
942.411	0.0150383
942.489	0.0150501
942.568	0.0150363
942.646	0.0151888
942.724	0.0151446
942.802	0.0150194
942.880	0.0150291
942.958	0.0153679
943.036	0.0151900
943.114	0.0150681
943.193	0.0152671
943.271	0.0152156
943.349	0.0153146
943.427	0.0152245
943.505	0.0152044
943.583	0.0152748
943.661	0.0150902
943.739	0.0151100
943.818	0.0152682
943.896	0.0152379
943.974	0.0151502
944.052	0.0151527
944.130	0.0151300
944.208	0.0151848
944.286	0.0151563
944.364	0.0150503
944.443	0.0149747
944.521	0.0151270
944.599	0.0150877
944.677	0.0150746
944.755	0.0150223
944.833	0.0151228
944.911	0.0150263
944.989	0.0150443
945.068	0.0150563
945.146	0.0150539
945.224	0.0151051
945.302	0.0149921
945.380	0.0149043
945.458	0.0149126
945.536	0.0149799
945.614	0.0150029
945.693	0.0149298
945.771	0.0148935
945.849	0.0149416
945.927	0.0151477
946.005	0.0149482
946.083	0.0148528
946.161	0.0150182
946.239	0.0149244
946.318	0.0149548
946.396	0.0148759
946.474	0.0150198
946.552	0.0148894
946.630	0.0150024
946.708	0.0149468
946.786	0.0148499
946.864	0.0149703
946.943	0.0149854
947.021	0.0149896
947.099	0.0149119
947.177	0.0149105
947.255	0.0148660
947.333	0.0149197
947.411	0.0149471
947.489	0.0149451
947.568	0.0148899
947.646	0.0148752
947.724	0.0148928
947.802	0.0149804
947.880	0.0150704
947.958	0.0151262
948.036	0.0150043
948.114	0.0150178
948.193	0.0149958
948.271	0.0151009
948.349	0.0151592
948.427	0.0150904
948.505	0.0150073
948.583	0.0150201
948.661	0.0150644
948.739	0.0150462
948.818	0.0150233
948.896	0.0150410
948.974	0.0150008
949.052	0.0151176
949.130	0.0150119
949.208	0.0150864
949.286	0.0148869
949.364	0.0149144
949.443	0.0150046
949.521	0.0150578
949.599	0.0148824
949.677	0.0149889
949.755	0.0149026
949.833	0.0150500
949.911	0.0150388
949.989	0.0148354
950.068	0.0147256
950.146	0.0148559
950.224	0.0148666
950.302	0.0149916
950.380	0.0148875
950.458	0.0149937
950.536	0.0148164
950.614	0.0149368
950.693	0.0150278
950.771	0.0149835
950.849	0.0150044
950.927	0.0149719
951.005	0.0148911
951.083	0.0150620
951.161	0.0151293
951.239	0.0150451
951.318	0.0150676
951.396	0.0151598
951.474	0.0151083
951.552	0.0151053
951.630	0.0151395
951.708	0.0151049
951.786	0.0151149
951.864	0.0151430
951.943	0.0150723
952.021	0.0152504
952.099	0.0152586
952.177	0.0153558
952.255	0.0150737
952.333	0.0151846
952.411	0.0152920
952.489	0.0152849
952.568	0.0152242
952.646	0.0150422
952.724	0.0152465
952.802	0.0151750
952.880	0.0151714
952.958	0.0150566
953.036	0.0151863
953.114	0.0150878
953.193	0.0150043
953.271	0.0151505
953.349	0.0151376
953.427	0.0150124
953.505	0.0150311
953.583	0.0151253
953.661	0.0150524
953.739	0.0151485
953.818	0.0150391
953.896	0.0150367
953.974	0.0150850
954.052	0.0152209
954.130	0.0151252
954.208	0.0152131
954.286	0.0151550
954.364	0.0151395
954.443	0.0150307
954.521	0.0149222
954.599	0.0150726
954.677	0.0149962
954.755	0.0149017
954.833	0.0149641
954.911	0.0150829
954.989	0.0150811
955.068	0.0148888
955.146	0.0148038
955.224	0.0149444
955.302	0.0148593
955.380	0.0149135
955.458	0.0149543
955.536	0.0149139
955.614	0.0147737
955.693	0.0148591
955.771	0.0149973
955.849	0.0149645
955.927	0.0148962
956.005	0.0148514
956.083	0.0148601
956.161	0.0147413
956.239	0.0147892
956.318	0.0147568
956.396	0.0146911
956.474	0.0147065
956.552	0.0149106
956.630	0.0148856
956.708	0.0148325
956.786	0.0148567
956.864	0.0149422
956.943	0.0149754
957.021	0.0149517
957.099	0.0148705
957.177	0.0149335
957.255	0.0149620
957.333	0.0149117
957.411	0.0149450
957.489	0.0150881
957.568	0.0151186
957.646	0.0150478
957.724	0.0149496
957.802	0.0151415
957.880	0.0150867
957.958	0.0150011
958.036	0.0151009
958.114	0.0150721
958.193	0.0151131
958.271	0.0150308
958.349	0.0150729
958.427	0.0151363
958.505	0.0151620
958.583	0.0149612
958.661	0.0150188
958.739	0.0151942
958.818	0.0149861
958.896	0.0149909
958.974	0.0150208
959.052	0.0150546
959.130	0.0150854
959.208	0.0148655
959.286	0.0149319
959.364	0.0149566
959.443	0.0150016
959.521	0.0148911
959.599	0.0149075
959.677	0.0150266
959.755	0.0149192
959.833	0.0149254
959.911	0.0148531
