05/14/2022	16:56:07	Ver.	4.1	UNKNOWN
Optical Delay	639.989416	Delta X		0.078125	Sweeps	1	Scan Rate	0/0
Coordinates	Axis 1	NaN	Axis 2	NaN	Axis 3	NaN	Axis 4	NaN	Axis 5	NaN	Axis 6	0.000000
TX Power	0.000000	RX Power	0.000000

639.989	0.0149989
640.068	0.0150031
640.146	0.0149878
640.224	0.0150224
640.302	0.0150108
640.380	0.0150664
640.458	0.0150547
640.536	0.0149990
640.614	0.0150387
640.693	0.0150967
640.771	0.0150933
640.849	0.0149650
640.927	0.0150519
641.005	0.0150843
641.083	0.0150240
641.161	0.0149857
641.239	0.0150967
641.318	0.0150874
641.396	0.0150056
641.474	0.0150172
641.552	0.0150775
641.630	0.0151250
641.708	0.0150189
641.786	0.0149792
641.864	0.0149432
641.943	0.0149752
642.021	0.0150919
642.099	0.0149377
642.177	0.0149113
642.255	0.0150777
642.333	0.0149270
642.411	0.0147858
642.489	0.0150583
642.568	0.0149129
642.646	0.0148368
642.724	0.0149177
642.802	0.0149554
642.880	0.0148273
642.958	0.0148943
643.036	0.0149211
643.114	0.0149687
643.193	0.0147524
643.271	0.0148947
643.349	0.0149151
643.427	0.0149010
643.505	0.0147813
643.583	0.0148006
643.661	0.0148814
643.739	0.0148040
643.818	0.0149160
643.896	0.0149149
643.974	0.0146877
644.052	0.0147881
644.130	0.0146720
644.208	0.0148987
644.286	0.0147940
644.364	0.0146867
644.443	0.0147765
644.521	0.0148499
644.599	0.0148839
644.677	0.0147694
644.755	0.0147123
644.833	0.0146658
644.911	0.0147552
644.989	0.0149165
645.068	0.0147780
645.146	0.0146544
645.224	0.0147238
645.302	0.0148458
645.380	0.0147616
645.458	0.0147546
645.536	0.0147865
645.614	0.0148704
645.693	0.0147792
645.771	0.0148067
645.849	0.0148563
645.927	0.0145346
646.005	0.0147066
646.083	0.0148235
646.161	0.0147309
646.239	0.0147265
646.318	0.0146413
646.396	0.0147199
646.474	0.0147454
646.552	0.0146612
646.630	0.0148298
646.708	0.0148610
646.786	0.0148082
646.864	0.0147539
646.943	0.0145419
647.021	0.0147926
647.099	0.0147346
647.177	0.0146828
647.255	0.0146004
647.333	0.0147662
647.411	0.0148126
647.489	0.0147354
647.568	0.0146349
647.646	0.0147082
647.724	0.0147025
647.802	0.0147101
647.880	0.0145995
647.958	0.0148168
648.036	0.0148081
648.114	0.0148200
648.193	0.0147487
648.271	0.0147657
648.349	0.0147359
648.427	0.0147460
648.505	0.0146973
648.583	0.0148293
648.661	0.0148420
648.739	0.0147009
648.818	0.0147945
648.896	0.0148178
648.974	0.0148344
649.052	0.0147884
649.130	0.0146919
649.208	0.0147806
649.286	0.0147742
649.364	0.0147731
649.443	0.0148919
649.521	0.0148813
649.599	0.0147765
649.677	0.0147694
649.755	0.0148573
649.833	0.0148090
649.911	0.0147609
649.989	0.0149009
650.068	0.0147318
650.146	0.0147536
650.224	0.0147978
650.302	0.0148823
650.380	0.0148315
650.458	0.0148232
650.536	0.0148132
650.614	0.0148524
650.693	0.0147606
650.771	0.0148027
650.849	0.0148030
650.927	0.0149816
651.005	0.0148003
651.083	0.0148701
651.161	0.0147192
651.239	0.0148534
651.318	0.0149018
651.396	0.0149562
651.474	0.0147925
651.552	0.0149522
651.630	0.0150335
651.708	0.0150319
651.786	0.0148565
651.864	0.0148978
651.943	0.0149387
652.021	0.0149781
652.099	0.0150099
652.177	0.0148171
652.255	0.0149104
652.333	0.0148940
652.411	0.0148876
652.489	0.0148751
652.568	0.0149240
652.646	0.0149642
652.724	0.0149454
652.802	0.0148360
652.880	0.0148006
652.958	0.0149786
653.036	0.0147819
653.114	0.0149387
653.193	0.0149381
653.271	0.0149274
653.349	0.0148875
653.427	0.0148100
653.505	0.0150052
653.583	0.0148898
653.661	0.0149010
653.739	0.0147533
653.818	0.0147636
653.896	0.0150562
653.974	0.0149807
654.052	0.0149118
654.130	0.0149948
654.208	0.0150099
654.286	0.0150577
654.364	0.0149577
654.443	0.0149023
654.521	0.0150303
654.599	0.0151026
654.677	0.0150848
654.755	0.0150372
654.833	0.0149065
654.911	0.0149436
654.989	0.0149669
655.068	0.0149690
655.146	0.0150500
655.224	0.0149995
655.302	0.0150116
655.380	0.0150327
655.458	0.0148827
655.536	0.0150205
655.614	0.0149609
655.693	0.0149026
655.771	0.0148307
655.849	0.0149114
655.927	0.0148640
656.005	0.0149545
656.083	0.0150008
656.161	0.0149557
656.239	0.0148278
656.318	0.0149919
656.396	0.0150150
656.474	0.0150179
656.552	0.0149139
656.630	0.0149679
656.708	0.0150551
656.786	0.0150249
656.864	0.0150208
656.943	0.0149666
657.021	0.0149839
657.099	0.0149341
657.177	0.0149146
657.255	0.0151654
657.333	0.0148735
657.411	0.0149419
657.489	0.0149076
657.568	0.0149769
657.646	0.0149574
657.724	0.0149847
657.802	0.0150544
657.880	0.0149216
657.958	0.0150601
658.036	0.0149653
658.114	0.0148287
658.193	0.0148987
658.271	0.0149145
658.349	0.0148017
658.427	0.0148532
658.505	0.0147432
658.583	0.0148104
658.661	0.0147710
658.739	0.0147804
658.818	0.0148032
658.896	0.0148502
658.974	0.0148472
659.052	0.0148466
659.130	0.0146892
659.208	0.0148952
659.286	0.0148527
659.364	0.0148705
659.443	0.0150105
659.521	0.0149438
659.599	0.0150435
659.677	0.0150359
659.755	0.0150321
659.833	0.0148957
659.911	0.0149703
659.989	0.0149924
660.068	0.0149418
660.146	0.0149479
660.224	0.0149072
660.302	0.0148238
660.380	0.0148700
660.458	0.0147703
660.536	0.0147707
660.614	0.0148184
660.693	0.0147828
660.771	0.0147435
660.849	0.0148489
660.927	0.0147275
661.005	0.0147259
661.083	0.0148245
661.161	0.0147508
661.239	0.0147797
661.318	0.0147346
661.396	0.0147108
661.474	0.0148646
661.552	0.0148790
661.630	0.0149097
661.708	0.0149277
661.786	0.0148811
661.864	0.0148068
661.943	0.0149269
662.021	0.0149014
662.099	0.0149570
662.177	0.0149670
662.255	0.0148329
662.333	0.0148217
662.411	0.0147839
662.489	0.0147179
662.568	0.0148322
662.646	0.0148161
662.724	0.0146655
662.802	0.0145872
662.880	0.0145536
662.958	0.0146390
663.036	0.0145413
663.114	0.0145216
663.193	0.0146526
663.271	0.0145914
663.349	0.0145618
663.427	0.0144525
663.505	0.0144872
663.583	0.0145167
663.661	0.0147791
663.739	0.0147892
663.818	0.0147623
663.896	0.0148743
663.974	0.0150098
664.052	0.0149174
664.130	0.0151151
664.208	0.0151373
664.286	0.0152276
664.364	0.0152820
664.443	0.0152339
664.521	0.0153930
664.599	0.0154723
664.677	0.0154613
664.755	0.0155151
664.833	0.0154749
664.911	0.0152875
664.989	0.0152782
665.068	0.0152414
665.146	0.0151009
665.224	0.0150211
665.302	0.0150210
665.380	0.0147844
665.458	0.0146829
665.536	0.0145536
665.614	0.0145012
665.693	0.0142987
665.771	0.0140691
665.849	0.0141113
665.927	0.0140410
666.005	0.0140956
666.083	0.0138519
666.161	0.0138789
666.239	0.0139011
666.318	0.0138399
666.396	0.0137353
666.474	0.0137969
666.552	0.0139194
666.630	0.0140749
666.708	0.0141953
666.786	0.0143333
666.864	0.0144566
666.943	0.0146194
667.021	0.0147063
667.099	0.0149828
667.177	0.0151130
667.255	0.0152183
667.333	0.0153982
667.411	0.0156036
667.489	0.0158125
667.568	0.0158680
667.646	0.0160644
667.724	0.0160889
667.802	0.0160913
667.880	0.0161123
667.958	0.0161051
668.036	0.0159771
668.114	0.0158963
668.193	0.0158419
668.271	0.0157378
668.349	0.0155624
668.427	0.0153324
668.505	0.0151949
668.583	0.0148792
668.661	0.0147709
668.739	0.0145744
668.818	0.0142805
668.896	0.0141766
668.974	0.0138268
669.052	0.0138160
669.130	0.0135976
669.208	0.0135316
669.286	0.0133238
669.364	0.0134050
669.443	0.0131271
669.521	0.0132310
669.599	0.0133419
669.677	0.0132604
669.755	0.0132883
669.833	0.0135621
669.911	0.0137767
669.989	0.0138903
670.068	0.0141319
670.146	0.0143551
670.224	0.0144107
670.302	0.0145526
670.380	0.0148330
670.458	0.0152572
670.536	0.0153864
670.614	0.0155866
670.693	0.0157230
670.771	0.0160323
670.849	0.0161929
670.927	0.0162501
671.005	0.0164271
671.083	0.0164829
671.161	0.0164666
671.239	0.0165759
671.318	0.0166865
671.396	0.0167412
671.474	0.0165327
671.552	0.0164487
671.630	0.0163696
671.708	0.0160853
671.786	0.0159801
671.864	0.0156588
671.943	0.0156791
672.021	0.0155102
672.099	0.0151849
672.177	0.0148761
672.255	0.0148351
672.333	0.0145911
672.411	0.0144217
672.489	0.0142088
672.568	0.0139734
672.646	0.0138694
672.724	0.0136694
672.802	0.0137100
672.880	0.0136167
672.958	0.0134400
673.036	0.0133337
673.114	0.0131893
673.193	0.0133482
673.271	0.0134357
673.349	0.0133950
673.427	0.0133267
673.505	0.0136670
673.583	0.0137827
673.661	0.0137545
673.739	0.0139417
673.818	0.0140801
673.896	0.0139342
673.974	0.0142564
674.052	0.0143946
674.130	0.0146558
674.208	0.0147219
674.286	0.0146672
674.364	0.0148683
674.443	0.0149827
674.521	0.0150417
674.599	0.0150758
674.677	0.0149736
674.755	0.0152431
674.833	0.0152550
674.911	0.0152663
674.989	0.0154078
675.068	0.0153661
675.146	0.0153471
675.224	0.0154884
675.302	0.0154491
675.380	0.0155038
675.458	0.0155791
675.536	0.0156147
675.614	0.0156297
675.693	0.0158262
675.771	0.0160259
675.849	0.0159008
675.927	0.0158817
676.005	0.0159327
676.083	0.0159633
676.161	0.0158849
676.239	0.0160902
676.318	0.0160621
676.396	0.0159833
676.474	0.0160594
676.552	0.0158173
676.630	0.0156567
676.708	0.0156008
676.786	0.0156009
676.864	0.0153272
676.943	0.0150813
677.021	0.0150394
677.099	0.0148640
677.177	0.0146028
677.255	0.0142105
677.333	0.0141463
677.411	0.0138564
677.489	0.0135986
677.568	0.0132725
677.646	0.0130725
677.724	0.0130141
677.802	0.0128523
677.880	0.0126962
677.958	0.0126418
678.036	0.0125925
678.114	0.0124506
678.193	0.0123814
678.271	0.0124958
678.349	0.0125394
678.427	0.0128096
678.505	0.0129565
678.583	0.0131882
678.661	0.0134585
678.739	0.0137526
678.818	0.0139961
678.896	0.0143065
678.974	0.0147524
679.052	0.0151797
679.130	0.0154455
679.208	0.0159103
679.286	0.0162070
679.364	0.0165884
679.443	0.0168708
679.521	0.0172760
679.599	0.0174607
679.677	0.0177973
679.755	0.0179067
679.833	0.0179574
679.911	0.0180862
679.989	0.0181013
680.068	0.0181753
680.146	0.0181095
680.224	0.0177671
680.302	0.0177188
680.380	0.0176444
680.458	0.0173314
680.536	0.0170211
680.614	0.0167888
680.693	0.0165649
680.771	0.0160362
680.849	0.0156916
680.927	0.0153987
681.005	0.0148717
681.083	0.0147277
681.161	0.0142487
681.239	0.0139253
681.318	0.0137728
681.396	0.0133385
681.474	0.0130724
681.552	0.0128805
681.630	0.0124722
681.708	0.0123989
681.786	0.0122507
681.864	0.0121622
681.943	0.0120164
682.021	0.0120420
682.099	0.0119581
682.177	0.0119845
682.255	0.0120840
682.333	0.0122240
682.411	0.0122433
682.489	0.0124174
682.568	0.0126197
682.646	0.0128333
682.724	0.0130649
682.802	0.0132932
682.880	0.0135727
682.958	0.0138882
683.036	0.0142921
683.114	0.0146040
683.193	0.0149998
683.271	0.0151034
683.349	0.0152473
683.427	0.0158122
683.505	0.0160185
683.583	0.0162627
683.661	0.0166153
683.739	0.0166992
683.818	0.0169849
683.896	0.0172983
683.974	0.0174541
684.052	0.0175060
684.130	0.0176289
684.208	0.0176031
684.286	0.0175857
684.364	0.0175813
684.443	0.0176059
684.521	0.0175081
684.599	0.0174378
684.677	0.0172879
684.755	0.0171322
684.833	0.0168885
684.911	0.0166742
684.989	0.0164476
685.068	0.0163693
685.146	0.0159763
685.224	0.0155829
685.302	0.0153616
685.380	0.0152527
685.458	0.0148799
685.536	0.0145749
685.614	0.0144292
685.693	0.0142552
685.771	0.0138211
685.849	0.0135692
685.927	0.0134230
686.005	0.0131409
686.083	0.0129166
686.161	0.0127094
686.239	0.0128060
686.318	0.0126244
686.396	0.0126600
686.474	0.0125377
686.552	0.0126009
686.630	0.0125378
686.708	0.0126516
686.786	0.0127699
686.864	0.0128649
686.943	0.0128537
687.021	0.0129887
687.099	0.0131893
687.177	0.0134694
687.255	0.0133844
687.333	0.0136293
687.411	0.0138844
687.489	0.0139462
687.568	0.0142072
687.646	0.0142979
687.724	0.0145962
687.802	0.0147368
687.880	0.0150877
687.958	0.0151647
688.036	0.0153061
688.114	0.0156364
688.193	0.0156836
688.271	0.0157914
688.349	0.0160612
688.427	0.0161471
688.505	0.0161006
688.583	0.0162739
688.661	0.0164530
688.739	0.0165649
688.818	0.0166750
688.896	0.0166839
688.974	0.0166889
689.052	0.0167599
689.130	0.0168261
689.208	0.0168233
689.286	0.0168337
689.364	0.0168526
689.443	0.0167101
689.521	0.0166928
689.599	0.0164385
689.677	0.0164834
689.755	0.0162646
689.833	0.0162467
689.911	0.0159392
689.989	0.0156954
690.068	0.0156171
690.146	0.0153865
690.224	0.0151323
690.302	0.0150002
690.380	0.0146722
690.458	0.0145134
690.536	0.0143365
690.614	0.0140123
690.693	0.0139782
690.771	0.0135982
690.849	0.0136362
690.927	0.0133923
691.005	0.0131888
691.083	0.0129694
691.161	0.0129824
691.239	0.0128918
691.318	0.0128268
691.396	0.0128924
691.474	0.0129350
691.552	0.0129273
691.630	0.0128774
691.708	0.0130269
691.786	0.0131492
691.864	0.0132693
691.943	0.0134776
692.021	0.0136670
692.099	0.0139853
692.177	0.0140875
692.255	0.0142598
692.333	0.0144684
692.411	0.0147716
692.489	0.0148989
692.568	0.0151160
692.646	0.0153550
692.724	0.0154200
692.802	0.0158250
692.880	0.0157349
692.958	0.0159321
693.036	0.0159366
693.114	0.0161127
693.193	0.0160385
693.271	0.0160094
693.349	0.0160210
693.427	0.0162363
693.505	0.0159578
693.583	0.0159564
693.661	0.0160528
693.739	0.0159937
693.818	0.0158488
693.896	0.0157770
693.974	0.0157505
694.052	0.0157652
694.130	0.0157791
694.208	0.0157562
694.286	0.0156505
694.364	0.0156038
694.443	0.0156861
694.521	0.0156827
694.599	0.0155743
694.677	0.0155820
694.755	0.0156038
694.833	0.0155067
694.911	0.0153564
694.989	0.0152838
695.068	0.0152290
695.146	0.0151479
695.224	0.0150514
695.302	0.0148896
695.380	0.0149130
695.458	0.0146741
695.536	0.0148337
695.614	0.0146135
695.693	0.0145640
695.771	0.0144991
695.849	0.0145189
695.927	0.0143674
696.005	0.0142484
696.083	0.0143076
696.161	0.0141999
696.239	0.0143182
696.318	0.0141632
696.396	0.0140556
696.474	0.0141412
696.552	0.0141110
696.630	0.0140294
696.708	0.0142129
696.786	0.0141701
696.864	0.0142248
696.943	0.0141705
697.021	0.0142419
697.099	0.0141644
697.177	0.0142513
697.255	0.0143948
697.333	0.0144082
697.411	0.0145642
697.489	0.0145894
697.568	0.0146640
697.646	0.0147341
697.724	0.0149144
697.802	0.0147305
697.880	0.0150087
697.958	0.0149805
698.036	0.0150881
698.114	0.0150893
698.193	0.0151147
698.271	0.0150534
698.349	0.0151233
698.427	0.0152436
698.505	0.0151107
698.583	0.0150643
698.661	0.0151778
698.739	0.0151897
698.818	0.0150408
698.896	0.0150726
698.974	0.0151521
699.052	0.0151791
699.130	0.0152998
699.208	0.0153133
699.286	0.0151748
699.364	0.0154081
699.443	0.0154423
699.521	0.0153842
699.599	0.0152854
699.677	0.0154154
699.755	0.0155502
699.833	0.0156815
699.911	0.0156131
699.989	0.0156883
700.068	0.0155662
700.146	0.0156424
700.224	0.0156159
700.302	0.0154228
700.380	0.0153835
700.458	0.0152044
700.536	0.0152216
700.614	0.0151359
700.693	0.0149402
700.771	0.0147321
700.849	0.0146934
700.927	0.0146473
701.005	0.0144691
701.083	0.0142596
701.161	0.0142127
701.239	0.0141164
701.318	0.0140334
701.396	0.0140647
701.474	0.0140785
701.552	0.0140215
701.630	0.0138647
701.708	0.0139362
701.786	0.0139870
701.864	0.0139581
701.943	0.0141054
702.021	0.0141470
702.099	0.0143320
702.177	0.0144934
702.255	0.0145636
702.333	0.0146511
702.411	0.0148233
702.489	0.0150307
702.568	0.0151333
702.646	0.0151503
702.724	0.0155258
702.802	0.0155308
702.880	0.0155733
702.958	0.0157239
703.036	0.0157854
703.114	0.0159290
703.193	0.0159187
703.271	0.0160432
703.349	0.0161530
703.427	0.0160224
703.505	0.0159576
703.583	0.0159795
703.661	0.0159293
703.739	0.0159523
703.818	0.0156721
703.896	0.0156154
703.974	0.0154529
704.052	0.0154143
704.130	0.0152251
704.208	0.0152316
704.286	0.0151543
704.364	0.0148401
704.443	0.0147715
704.521	0.0147996
704.599	0.0145296
704.677	0.0145679
704.755	0.0143769
704.833	0.0143153
704.911	0.0142952
704.989	0.0142970
705.068	0.0142448
705.146	0.0142322
705.224	0.0143017
705.302	0.0143661
705.380	0.0143229
705.458	0.0144637
705.536	0.0143838
705.614	0.0144689
705.693	0.0145831
705.771	0.0146994
705.849	0.0147844
705.927	0.0147038
706.005	0.0148167
706.083	0.0146887
706.161	0.0147627
706.239	0.0148419
706.318	0.0149179
706.396	0.0147806
706.474	0.0148744
706.552	0.0147666
706.630	0.0147783
706.708	0.0146996
706.786	0.0148203
706.864	0.0147999
706.943	0.0149548
707.021	0.0148772
707.099	0.0149374
707.177	0.0149389
707.255	0.0148813
707.333	0.0151811
707.411	0.0152995
707.489	0.0153449
707.568	0.0154225
707.646	0.0154946
707.724	0.0154639
707.802	0.0156145
707.880	0.0156937
707.958	0.0157128
708.036	0.0157214
708.114	0.0156860
708.193	0.0159883
708.271	0.0158153
708.349	0.0158945
708.427	0.0156462
708.505	0.0156054
708.583	0.0155901
708.661	0.0155151
708.739	0.0154518
708.818	0.0153693
708.896	0.0151491
708.974	0.0151543
709.052	0.0151065
709.130	0.0150566
709.208	0.0149787
709.286	0.0147785
709.364	0.0148078
709.443	0.0147944
709.521	0.0147450
709.599	0.0146983
709.677	0.0145423
709.755	0.0143602
709.833	0.0144425
709.911	0.0143863
709.989	0.0144498
710.068	0.0141923
710.146	0.0142715
710.224	0.0141798
710.302	0.0139906
710.380	0.0141272
710.458	0.0140083
710.536	0.0140783
710.614	0.0140186
710.693	0.0140714
710.771	0.0140528
710.849	0.0140269
710.927	0.0140669
711.005	0.0141023
711.083	0.0142615
711.161	0.0140873
711.239	0.0143003
711.318	0.0143579
711.396	0.0143189
711.474	0.0144075
711.552	0.0145623
711.630	0.0145506
711.708	0.0146478
711.786	0.0146744
711.864	0.0147887
711.943	0.0149694
712.021	0.0149681
712.099	0.0151074
712.177	0.0151682
712.255	0.0154401
712.333	0.0152655
712.411	0.0153876
712.489	0.0156096
712.568	0.0157293
712.646	0.0156689
712.724	0.0157259
712.802	0.0157246
712.880	0.0156445
712.958	0.0157183
713.036	0.0156874
713.114	0.0157181
713.193	0.0156738
713.271	0.0156648
713.349	0.0156431
713.427	0.0154727
713.505	0.0153564
713.583	0.0153410
713.661	0.0153314
713.739	0.0151807
713.818	0.0149818
713.896	0.0149981
713.974	0.0149194
714.052	0.0147379
714.130	0.0147070
714.208	0.0146035
714.286	0.0144183
714.364	0.0143549
714.443	0.0145203
714.521	0.0142938
714.599	0.0143222
714.677	0.0144014
714.755	0.0143121
714.833	0.0142288
714.911	0.0144966
714.989	0.0143818
715.068	0.0143605
715.146	0.0144746
715.224	0.0145358
715.302	0.0146303
715.380	0.0146679
715.458	0.0145676
715.536	0.0149655
715.614	0.0148203
715.693	0.0147440
715.771	0.0149055
715.849	0.0149623
715.927	0.0150493
716.005	0.0150037
716.083	0.0150110
716.161	0.0150346
716.239	0.0151290
716.318	0.0150471
716.396	0.0151002
716.474	0.0150698
716.552	0.0150637
716.630	0.0148768
716.708	0.0147845
716.786	0.0149320
716.864	0.0147387
716.943	0.0146926
717.021	0.0145263
717.099	0.0146011
717.177	0.0144555
717.255	0.0144969
717.333	0.0143113
717.411	0.0143388
717.489	0.0143387
717.568	0.0142797
717.646	0.0142350
717.724	0.0141154
717.802	0.0142323
717.880	0.0141953
717.958	0.0143144
718.036	0.0144548
718.114	0.0144085
718.193	0.0143832
718.271	0.0145409
718.349	0.0146048
718.427	0.0145370
718.505	0.0147034
718.583	0.0148798
718.661	0.0149023
718.739	0.0148019
718.818	0.0150219
718.896	0.0150764
718.974	0.0151682
719.052	0.0152507
719.130	0.0153064
719.208	0.0152483
719.286	0.0153625
719.364	0.0155354
719.443	0.0155345
719.521	0.0154927
719.599	0.0156109
719.677	0.0157233
719.755	0.0157044
719.833	0.0158104
719.911	0.0157675
719.989	0.0157352
720.068	0.0157532
720.146	0.0156313
720.224	0.0158895
720.302	0.0158800
720.380	0.0156703
720.458	0.0155788
720.536	0.0155695
720.614	0.0155331
720.693	0.0154644
720.771	0.0154742
720.849	0.0153516
720.927	0.0153369
721.005	0.0151204
721.083	0.0151711
721.161	0.0150910
721.239	0.0150069
721.318	0.0148611
721.396	0.0147863
721.474	0.0147319
721.552	0.0145696
721.630	0.0145715
721.708	0.0143871
721.786	0.0143766
721.864	0.0139772
721.943	0.0141668
722.021	0.0140871
722.099	0.0140579
722.177	0.0138709
722.255	0.0140047
722.333	0.0140208
722.411	0.0140249
722.489	0.0140171
722.568	0.0141524
722.646	0.0141021
722.724	0.0140312
722.802	0.0142136
722.880	0.0141811
722.958	0.0142176
723.036	0.0143534
723.114	0.0145514
723.193	0.0146604
723.271	0.0146794
723.349	0.0148263
723.427	0.0150549
723.505	0.0151449
723.583	0.0151491
723.661	0.0152515
723.739	0.0153652
723.818	0.0153667
723.896	0.0154993
723.974	0.0154420
724.052	0.0154733
724.130	0.0155842
724.208	0.0155630
724.286	0.0154584
724.364	0.0153880
724.443	0.0153662
724.521	0.0154787
724.599	0.0153826
724.677	0.0150894
724.755	0.0152744
724.833	0.0153072
724.911	0.0151077
724.989	0.0149816
725.068	0.0149893
725.146	0.0151207
725.224	0.0150948
725.302	0.0149944
725.380	0.0150995
725.458	0.0150533
725.536	0.0151136
725.614	0.0150233
725.693	0.0151067
725.771	0.0150759
725.849	0.0152427
725.927	0.0151038
726.005	0.0152287
726.083	0.0150147
726.161	0.0152371
726.239	0.0151912
726.318	0.0150000
726.396	0.0150054
726.474	0.0150547
726.552	0.0151132
726.630	0.0150151
726.708	0.0150291
726.786	0.0148974
726.864	0.0148312
726.943	0.0146688
727.021	0.0147200
727.099	0.0146944
727.177	0.0146788
727.255	0.0145667
727.333	0.0145790
727.411	0.0145600
727.489	0.0145231
727.568	0.0145670
727.646	0.0146360
727.724	0.0146207
727.802	0.0145058
727.880	0.0144862
727.958	0.0145630
728.036	0.0145634
728.114	0.0146422
728.193	0.0145645
728.271	0.0145880
728.349	0.0145608
728.427	0.0147043
728.505	0.0145781
728.583	0.0144884
728.661	0.0145940
728.739	0.0145762
728.818	0.0145494
728.896	0.0145919
728.974	0.0145984
729.052	0.0145892
729.130	0.0144428
729.208	0.0143967
729.286	0.0145100
729.364	0.0145047
729.443	0.0143138
729.521	0.0145189
729.599	0.0145755
729.677	0.0143923
729.755	0.0145861
729.833	0.0144983
729.911	0.0145408
729.989	0.0146201
730.068	0.0145161
730.146	0.0146657
730.224	0.0147885
730.302	0.0148330
730.380	0.0147993
730.458	0.0149856
730.536	0.0151350
730.614	0.0152876
730.693	0.0153647
730.771	0.0153191
730.849	0.0155322
730.927	0.0154813
731.005	0.0155467
731.083	0.0157694
731.161	0.0158746
731.239	0.0158231
731.318	0.0160177
731.396	0.0159445
731.474	0.0159130
731.552	0.0161082
731.630	0.0160468
731.708	0.0159060
731.786	0.0158280
731.864	0.0157953
731.943	0.0157825
732.021	0.0156053
732.099	0.0152445
732.177	0.0153378
732.255	0.0152412
732.333	0.0151562
732.411	0.0150651
732.489	0.0149751
732.568	0.0148616
732.646	0.0145866
732.724	0.0144424
732.802	0.0142760
732.880	0.0142076
732.958	0.0142081
733.036	0.0142259
733.114	0.0139123
733.193	0.0139219
733.271	0.0140226
733.349	0.0139315
733.427	0.0138800
733.505	0.0139717
733.583	0.0139610
733.661	0.0139648
733.739	0.0140631
733.818	0.0141256
733.896	0.0140881
733.974	0.0142148
734.052	0.0143865
734.130	0.0144793
734.208	0.0144431
734.286	0.0146598
734.364	0.0147598
734.443	0.0147215
734.521	0.0147855
734.599	0.0149843
734.677	0.0149503
734.755	0.0151102
734.833	0.0152174
734.911	0.0151614
734.989	0.0151531
735.068	0.0152802
735.146	0.0151521
735.224	0.0152628
735.302	0.0151084
735.380	0.0152266
735.458	0.0153095
735.536	0.0153711
735.614	0.0151448
735.693	0.0151363
735.771	0.0152496
735.849	0.0151207
735.927	0.0149660
736.005	0.0148012
736.083	0.0147782
736.161	0.0148301
736.239	0.0146622
736.318	0.0146771
736.396	0.0145789
736.474	0.0145923
736.552	0.0144750
736.630	0.0145547
736.708	0.0144490
736.786	0.0144209
736.864	0.0144064
736.943	0.0144995
737.021	0.0144022
737.099	0.0142807
737.177	0.0143636
737.255	0.0144472
737.333	0.0145608
737.411	0.0146111
737.489	0.0146085
737.568	0.0145505
737.646	0.0145464
737.724	0.0148087
737.802	0.0147987
737.880	0.0149760
737.958	0.0151249
738.036	0.0150350
738.114	0.0152164
738.193	0.0150779
738.271	0.0151150
738.349	0.0152303
738.427	0.0152010
738.505	0.0149957
738.583	0.0150979
738.661	0.0152501
738.739	0.0151788
738.818	0.0151289
738.896	0.0150202
738.974	0.0150195
739.052	0.0150484
739.130	0.0149403
739.208	0.0149480
739.286	0.0149142
739.364	0.0147678
739.443	0.0148010
739.521	0.0147452
739.599	0.0146360
739.677	0.0146143
739.755	0.0145749
739.833	0.0145295
739.911	0.0145055
739.989	0.0143981
740.068	0.0144576
740.146	0.0146101
740.224	0.0145523
740.302	0.0144979
740.380	0.0147115
740.458	0.0146507
740.536	0.0147232
740.614	0.0147749
740.693	0.0147856
740.771	0.0148685
740.849	0.0149032
740.927	0.0150623
741.005	0.0150903
741.083	0.0151015
741.161	0.0151625
741.239	0.0152643
741.318	0.0152207
741.396	0.0153046
741.474	0.0151671
741.552	0.0152448
741.630	0.0152796
741.708	0.0152576
741.786	0.0153467
741.864	0.0152481
741.943	0.0152285
742.021	0.0152509
742.099	0.0151308
742.177	0.0150240
742.255	0.0150224
742.333	0.0149287
742.411	0.0150568
742.489	0.0150436
742.568	0.0149113
742.646	0.0148891
742.724	0.0147565
742.802	0.0147293
742.880	0.0147230
742.958	0.0148270
743.036	0.0147643
743.114	0.0147291
743.193	0.0148592
743.271	0.0149516
743.349	0.0148058
743.427	0.0147716
743.505	0.0147665
743.583	0.0148108
743.661	0.0149973
743.739	0.0148995
743.818	0.0148058
743.896	0.0148346
743.974	0.0148115
744.052	0.0148759
744.130	0.0149625
744.208	0.0148906
744.286	0.0148639
744.364	0.0147101
744.443	0.0148023
744.521	0.0147894
744.599	0.0147010
744.677	0.0145869
744.755	0.0147534
744.833	0.0147206
744.911	0.0142776
744.989	0.0143922
745.068	0.0147247
745.146	0.0144211
745.224	0.0144311
745.302	0.0145710
745.380	0.0146851
745.458	0.0144872
745.536	0.0145474
745.614	0.0145745
745.693	0.0146908
745.771	0.0146860
745.849	0.0146215
745.927	0.0147473
746.005	0.0147892
746.083	0.0146069
746.161	0.0146936
746.239	0.0148395
746.318	0.0147889
746.396	0.0147865
746.474	0.0147777
746.552	0.0147763
746.630	0.0147602
746.708	0.0149345
746.786	0.0148064
746.864	0.0149693
746.943	0.0150315
747.021	0.0149921
747.099	0.0150686
747.177	0.0152168
747.255	0.0150037
747.333	0.0150829
747.411	0.0152192
747.489	0.0153253
747.568	0.0151881
747.646	0.0151788
747.724	0.0151782
747.802	0.0152116
747.880	0.0152831
747.958	0.0152829
748.036	0.0151559
748.114	0.0153662
748.193	0.0152648
748.271	0.0150761
748.349	0.0151112
748.427	0.0150430
748.505	0.0151550
748.583	0.0149793
748.661	0.0149194
748.739	0.0149705
748.818	0.0148021
748.896	0.0149458
748.974	0.0148069
749.052	0.0146797
749.130	0.0147310
749.208	0.0148676
749.286	0.0146610
749.364	0.0146148
749.443	0.0146292
749.521	0.0146362
749.599	0.0146316
749.677	0.0145214
749.755	0.0144839
749.833	0.0144231
749.911	0.0143587
749.989	0.0144315
750.068	0.0143183
750.146	0.0142345
750.224	0.0142243
750.302	0.0141983
750.380	0.0142419
750.458	0.0143093
750.536	0.0142162
750.614	0.0141501
750.693	0.0140539
750.771	0.0142314
750.849	0.0143799
750.927	0.0142794
751.005	0.0144370
751.083	0.0143403
751.161	0.0144881
751.239	0.0146893
751.318	0.0146259
751.396	0.0147591
751.474	0.0148653
751.552	0.0148977
751.630	0.0150202
751.708	0.0152250
751.786	0.0151644
751.864	0.0152276
751.943	0.0152415
752.021	0.0153500
752.099	0.0153658
752.177	0.0154128
752.255	0.0156495
752.333	0.0155252
752.411	0.0153818
752.489	0.0154030
752.568	0.0154440
752.646	0.0154376
752.724	0.0154127
752.802	0.0153021
752.880	0.0152729
752.958	0.0152626
753.036	0.0153465
753.114	0.0151521
753.193	0.0151720
753.271	0.0152454
753.349	0.0149940
753.427	0.0151115
753.505	0.0151316
753.583	0.0148450
753.661	0.0149319
753.739	0.0148278
753.818	0.0147884
753.896	0.0146980
753.974	0.0146595
754.052	0.0146164
754.130	0.0145837
754.208	0.0147801
754.286	0.0146761
754.364	0.0146103
754.443	0.0146714
754.521	0.0147256
754.599	0.0147623
754.677	0.0146683
754.755	0.0145886
754.833	0.0147259
754.911	0.0148377
754.989	0.0147733
755.068	0.0146532
755.146	0.0146752
755.224	0.0147287
755.302	0.0147614
755.380	0.0147078
755.458	0.0147610
755.536	0.0148509
755.614	0.0148653
755.693	0.0148090
755.771	0.0148417
755.849	0.0148817
755.927	0.0148348
756.005	0.0148278
756.083	0.0150444
756.161	0.0150008
756.239	0.0148904
756.318	0.0149992
756.396	0.0150849
756.474	0.0151646
756.552	0.0152039
756.630	0.0151016
756.708	0.0149097
756.786	0.0150359
756.864	0.0151794
756.943	0.0151617
757.021	0.0151299
757.099	0.0151166
757.177	0.0150841
757.255	0.0150082
757.333	0.0150320
757.411	0.0150094
757.489	0.0149494
757.568	0.0149601
757.646	0.0148005
757.724	0.0147980
757.802	0.0148146
757.880	0.0149038
757.958	0.0148076
758.036	0.0147568
758.114	0.0147014
758.193	0.0147900
758.271	0.0148225
758.349	0.0146996
758.427	0.0147562
758.505	0.0147327
758.583	0.0146521
758.661	0.0146451
758.739	0.0146443
758.818	0.0147898
758.896	0.0148181
758.974	0.0146982
759.052	0.0146011
759.130	0.0146474
759.208	0.0148129
759.286	0.0148106
759.364	0.0147737
759.443	0.0147504
759.521	0.0148553
759.599	0.0148675
759.677	0.0149030
759.755	0.0147874
759.833	0.0148933
759.911	0.0148078
759.989	0.0149953
760.068	0.0149754
760.146	0.0148467
760.224	0.0147849
760.302	0.0148424
760.380	0.0148518
760.458	0.0149076
760.536	0.0150169
760.614	0.0149109
760.693	0.0149815
760.771	0.0149685
760.849	0.0150586
760.927	0.0150800
761.005	0.0150895
761.083	0.0150279
761.161	0.0150036
761.239	0.0150650
761.318	0.0149932
761.396	0.0149849
761.474	0.0149674
761.552	0.0151533
761.630	0.0149686
761.708	0.0151133
761.786	0.0149822
761.864	0.0148801
761.943	0.0150058
762.021	0.0148537
762.099	0.0148764
762.177	0.0148203
762.255	0.0148470
762.333	0.0147155
762.411	0.0146786
762.489	0.0145699
762.568	0.0145132
762.646	0.0145918
762.724	0.0143994
762.802	0.0144326
762.880	0.0144359
762.958	0.0143381
763.036	0.0143894
763.114	0.0143211
763.193	0.0143551
763.271	0.0142554
763.349	0.0143727
763.427	0.0142705
763.505	0.0142518
763.583	0.0143636
763.661	0.0143808
763.739	0.0143715
763.818	0.0145905
763.896	0.0145805
763.974	0.0145863
764.052	0.0145806
764.130	0.0146062
764.208	0.0147546
764.286	0.0147295
764.364	0.0148373
764.443	0.0148753
764.521	0.0149374
764.599	0.0151012
764.677	0.0152396
764.755	0.0151156
764.833	0.0152184
764.911	0.0152752
764.989	0.0153644
765.068	0.0153825
765.146	0.0154185
765.224	0.0154685
765.302	0.0154417
765.380	0.0153516
765.458	0.0153773
765.536	0.0154878
765.614	0.0154169
765.693	0.0153217
765.771	0.0154520
765.849	0.0153506
765.927	0.0151521
766.005	0.0149969
766.083	0.0149977
766.161	0.0149747
766.239	0.0149789
766.318	0.0149740
766.396	0.0147971
766.474	0.0148035
766.552	0.0148711
766.630	0.0147945
766.708	0.0147838
766.786	0.0146852
766.864	0.0147744
766.943	0.0148257
767.021	0.0147900
767.099	0.0146080
767.177	0.0147870
767.255	0.0146651
767.333	0.0146111
767.411	0.0147659
767.489	0.0148251
767.568	0.0147706
767.646	0.0148296
767.724	0.0146013
767.802	0.0148595
767.880	0.0149354
767.958	0.0147663
768.036	0.0147229
768.114	0.0147788
768.193	0.0148142
768.271	0.0146724
768.349	0.0148689
768.427	0.0147541
768.505	0.0147775
768.583	0.0147849
768.661	0.0147282
768.739	0.0148396
768.818	0.0149022
768.896	0.0147298
768.974	0.0147641
769.052	0.0148620
769.130	0.0146931
769.208	0.0147799
769.286	0.0149734
769.364	0.0148434
769.443	0.0148872
769.521	0.0150182
769.599	0.0149903
769.677	0.0150309
769.755	0.0149369
769.833	0.0150859
769.911	0.0150063
769.989	0.0150479
770.068	0.0150816
770.146	0.0150218
770.224	0.0150438
770.302	0.0150220
770.380	0.0149402
770.458	0.0149653
770.536	0.0151565
770.614	0.0151095
770.693	0.0150346
770.771	0.0149420
770.849	0.0147465
770.927	0.0149934
771.005	0.0149563
771.083	0.0148663
771.161	0.0148846
771.239	0.0148337
771.318	0.0147204
771.396	0.0147281
771.474	0.0147932
771.552	0.0146885
771.630	0.0147379
771.708	0.0147275
771.786	0.0148390
771.864	0.0146547
771.943	0.0147469
772.021	0.0147867
772.099	0.0147536
772.177	0.0147999
772.255	0.0147231
772.333	0.0146227
772.411	0.0147890
772.489	0.0148501
772.568	0.0147958
772.646	0.0148016
772.724	0.0149036
772.802	0.0149645
772.880	0.0149709
772.958	0.0149710
773.036	0.0149627
773.114	0.0148840
773.193	0.0149490
773.271	0.0150948
773.349	0.0149612
773.427	0.0150201
773.505	0.0148460
773.583	0.0149331
773.661	0.0149099
773.739	0.0147417
773.818	0.0148313
773.896	0.0149355
773.974	0.0148781
774.052	0.0146665
774.130	0.0146757
774.208	0.0147282
774.286	0.0146730
774.364	0.0144348
774.443	0.0145970
774.521	0.0146124
774.599	0.0144057
774.677	0.0143751
774.755	0.0144694
774.833	0.0144869
774.911	0.0144894
774.989	0.0144667
775.068	0.0146688
775.146	0.0144540
775.224	0.0145902
775.302	0.0145812
775.380	0.0146346
775.458	0.0145634
775.536	0.0147135
775.614	0.0146863
775.693	0.0147870
775.771	0.0149380
775.849	0.0149409
775.927	0.0148653
776.005	0.0148148
776.083	0.0150662
776.161	0.0149378
776.239	0.0149537
776.318	0.0148989
776.396	0.0148470
776.474	0.0149972
776.552	0.0149969
776.630	0.0150518
776.708	0.0151053
776.786	0.0150189
776.864	0.0149242
776.943	0.0148737
777.021	0.0150330
777.099	0.0149955
777.177	0.0149777
777.255	0.0150237
777.333	0.0147652
777.411	0.0148496
777.489	0.0147309
777.568	0.0147832
777.646	0.0147971
777.724	0.0147468
777.802	0.0146780
777.880	0.0146873
777.958	0.0146991
778.036	0.0145602
778.114	0.0146032
778.193	0.0145499
778.271	0.0145642
778.349	0.0146247
778.427	0.0146531
778.505	0.0146304
778.583	0.0147212
778.661	0.0146890
778.739	0.0147771
778.818	0.0148204
778.896	0.0147932
778.974	0.0148428
779.052	0.0149739
779.130	0.0149988
779.208	0.0150571
779.286	0.0149275
779.364	0.0148306
779.443	0.0150434
779.521	0.0150584
779.599	0.0151360
779.677	0.0150321
779.755	0.0151283
779.833	0.0150468
779.911	0.0151969
779.989	0.0153280
780.068	0.0151386
780.146	0.0151065
780.224	0.0152200
780.302	0.0151213
780.380	0.0151410
780.458	0.0152795
780.536	0.0150451
780.614	0.0152742
780.693	0.0151855
780.771	0.0151693
780.849	0.0151442
780.927	0.0151974
781.005	0.0151267
781.083	0.0150933
781.161	0.0150880
781.239	0.0150742
781.318	0.0149621
781.396	0.0150868
781.474	0.0149205
781.552	0.0149319
781.630	0.0150774
781.708	0.0150616
781.786	0.0150105
781.864	0.0147948
781.943	0.0148006
782.021	0.0148975
782.099	0.0148670
782.177	0.0148635
782.255	0.0149211
782.333	0.0150256
782.411	0.0149703
782.489	0.0148115
782.568	0.0147985
782.646	0.0147262
782.724	0.0149479
782.802	0.0148617
782.880	0.0147401
782.958	0.0147253
783.036	0.0147326
783.114	0.0147256
783.193	0.0147597
783.271	0.0147590
783.349	0.0146947
783.427	0.0147108
783.505	0.0146749
783.583	0.0146793
783.661	0.0147490
783.739	0.0147076
783.818	0.0148213
783.896	0.0148311
783.974	0.0148512
784.052	0.0147777
784.130	0.0148334
784.208	0.0149590
784.286	0.0150089
784.364	0.0150891
784.443	0.0150684
784.521	0.0150008
784.599	0.0151006
784.677	0.0150256
784.755	0.0150620
784.833	0.0150005
784.911	0.0149358
784.989	0.0149815
785.068	0.0149371
785.146	0.0150468
785.224	0.0150910
785.302	0.0151022
785.380	0.0150362
785.458	0.0150430
785.536	0.0150842
785.614	0.0151081
785.693	0.0150556
785.771	0.0151905
785.849	0.0151185
785.927	0.0152007
786.005	0.0149599
786.083	0.0151830
786.161	0.0150273
786.239	0.0150286
786.318	0.0151038
786.396	0.0150815
786.474	0.0150399
786.552	0.0150898
786.630	0.0150742
786.708	0.0150095
786.786	0.0148843
786.864	0.0150229
786.943	0.0149277
787.021	0.0149724
787.099	0.0148684
787.177	0.0149251
787.255	0.0148071
787.333	0.0148038
787.411	0.0147830
787.489	0.0147613
787.568	0.0147619
787.646	0.0148378
787.724	0.0147247
787.802	0.0148661
787.880	0.0148783
787.958	0.0147397
788.036	0.0147477
788.114	0.0146722
788.193	0.0146884
788.271	0.0146565
788.349	0.0146207
788.427	0.0146729
788.505	0.0145487
788.583	0.0143909
788.661	0.0145994
788.739	0.0146665
788.818	0.0147442
788.896	0.0148128
788.974	0.0148228
789.052	0.0148193
789.130	0.0146814
789.208	0.0146690
789.286	0.0147372
789.364	0.0147606
789.443	0.0148473
789.521	0.0149596
789.599	0.0148475
789.677	0.0147767
789.755	0.0149554
789.833	0.0148685
789.911	0.0148239
789.989	0.0149480
790.068	0.0149503
790.146	0.0149377
790.224	0.0148306
790.302	0.0149277
790.380	0.0150631
790.458	0.0147552
790.536	0.0148807
790.614	0.0150983
790.693	0.0150195
790.771	0.0149616
790.849	0.0150605
790.927	0.0150760
791.005	0.0151123
791.083	0.0150261
791.161	0.0149015
791.239	0.0149725
791.318	0.0150278
791.396	0.0150404
791.474	0.0149558
791.552	0.0149873
791.630	0.0149583
791.708	0.0151236
791.786	0.0150043
791.864	0.0151165
791.943	0.0151772
792.021	0.0151163
792.099	0.0149192
792.177	0.0151015
792.255	0.0150251
792.333	0.0150536
792.411	0.0151192
792.489	0.0148932
792.568	0.0149801
792.646	0.0148657
792.724	0.0148840
792.802	0.0147854
792.880	0.0148342
792.958	0.0147995
793.036	0.0147900
793.114	0.0147978
793.193	0.0146209
793.271	0.0148167
793.349	0.0147407
793.427	0.0146099
793.505	0.0146124
793.583	0.0146334
793.661	0.0146741
793.739	0.0145862
793.818	0.0145833
793.896	0.0145058
793.974	0.0145319
794.052	0.0145386
794.130	0.0145872
794.208	0.0145409
794.286	0.0144289
794.364	0.0145276
794.443	0.0146522
794.521	0.0145831
794.599	0.0144897
794.677	0.0144346
794.755	0.0146104
794.833	0.0146268
794.911	0.0146972
794.989	0.0146052
795.068	0.0145380
795.146	0.0146774
795.224	0.0146400
795.302	0.0148418
795.380	0.0149720
795.458	0.0149091
795.536	0.0148961
795.614	0.0149307
795.693	0.0149093
795.771	0.0150159
795.849	0.0150955
795.927	0.0150961
796.005	0.0151231
796.083	0.0151083
796.161	0.0150682
796.239	0.0151014
796.318	0.0150793
796.396	0.0150966
796.474	0.0151572
796.552	0.0151617
796.630	0.0152264
796.708	0.0151875
796.786	0.0151434
796.864	0.0150681
796.943	0.0150419
797.021	0.0150705
797.099	0.0151199
797.177	0.0150380
797.255	0.0149814
797.333	0.0150000
797.411	0.0150194
797.489	0.0150192
797.568	0.0149398
797.646	0.0149100
797.724	0.0149957
797.802	0.0149507
797.880	0.0148506
797.958	0.0148927
798.036	0.0147290
798.114	0.0147181
798.193	0.0148385
798.271	0.0146927
798.349	0.0147263
798.427	0.0146651
798.505	0.0147031
798.583	0.0146454
798.661	0.0145934
798.739	0.0145222
798.818	0.0146716
798.896	0.0146436
798.974	0.0146424
799.052	0.0147411
799.130	0.0146572
799.208	0.0145745
799.286	0.0147307
799.364	0.0147654
799.443	0.0146431
799.521	0.0146770
799.599	0.0146834
799.677	0.0148296
799.755	0.0147667
799.833	0.0146528
799.911	0.0146820
799.989	0.0149889
800.068	0.0148794
800.146	0.0150083
800.224	0.0149613
800.302	0.0149674
800.380	0.0150396
800.458	0.0150290
800.536	0.0150877
800.614	0.0149791
800.693	0.0150689
800.771	0.0150967
800.849	0.0149934
800.927	0.0151205
801.005	0.0149969
801.083	0.0149869
801.161	0.0150648
801.239	0.0148612
801.318	0.0149792
801.396	0.0151340
801.474	0.0148611
801.552	0.0149317
801.630	0.0149260
801.708	0.0149535
801.786	0.0148395
801.864	0.0148998
801.943	0.0148584
802.021	0.0148130
802.099	0.0148711
802.177	0.0147930
802.255	0.0148011
802.333	0.0149025
802.411	0.0148715
802.489	0.0147592
802.568	0.0147458
802.646	0.0147174
802.724	0.0147155
802.802	0.0147664
802.880	0.0147824
802.958	0.0147812
803.036	0.0149505
803.114	0.0148817
803.193	0.0149467
803.271	0.0149015
803.349	0.0148907
803.427	0.0148558
803.505	0.0147910
803.583	0.0147133
803.661	0.0146809
803.739	0.0148856
803.818	0.0148590
803.896	0.0147347
803.974	0.0148399
804.052	0.0148360
804.130	0.0148853
804.208	0.0148183
804.286	0.0147986
804.364	0.0148344
804.443	0.0147595
804.521	0.0148934
804.599	0.0149446
804.677	0.0148391
804.755	0.0148627
804.833	0.0149602
804.911	0.0148485
804.989	0.0146772
805.068	0.0148299
805.146	0.0148121
805.224	0.0148221
805.302	0.0149946
805.380	0.0147864
805.458	0.0149066
805.536	0.0149525
805.614	0.0148785
805.693	0.0149116
805.771	0.0149610
805.849	0.0148709
805.927	0.0149062
806.005	0.0148872
806.083	0.0150101
806.161	0.0150224
806.239	0.0150155
806.318	0.0150858
806.396	0.0150873
806.474	0.0151267
806.552	0.0151208
806.630	0.0150039
806.708	0.0148664
806.786	0.0150136
806.864	0.0149987
806.943	0.0150350
807.021	0.0149127
807.099	0.0149059
807.177	0.0148150
807.255	0.0148040
807.333	0.0147411
807.411	0.0147592
807.489	0.0147373
807.568	0.0145936
807.646	0.0145969
807.724	0.0146152
807.802	0.0146259
807.880	0.0146473
807.958	0.0145812
808.036	0.0145194
808.114	0.0147207
808.193	0.0145824
808.271	0.0144852
808.349	0.0147278
808.427	0.0147122
808.505	0.0147828
808.583	0.0147727
808.661	0.0147781
808.739	0.0149185
808.818	0.0148812
808.896	0.0150384
808.974	0.0151190
809.052	0.0149957
809.130	0.0151598
809.208	0.0152193
809.286	0.0151469
809.364	0.0150681
809.443	0.0152376
809.521	0.0151837
809.599	0.0150217
809.677	0.0151494
809.755	0.0150765
809.833	0.0150308
809.911	0.0150397
809.989	0.0150611
810.068	0.0149487
810.146	0.0149717
810.224	0.0150494
810.302	0.0151504
810.380	0.0150411
810.458	0.0152391
810.536	0.0152320
810.614	0.0150420
810.693	0.0150515
810.771	0.0150543
810.849	0.0148982
810.927	0.0149746
811.005	0.0148754
811.083	0.0147227
811.161	0.0148813
811.239	0.0148552
811.318	0.0147539
811.396	0.0147691
811.474	0.0147766
811.552	0.0147427
811.630	0.0147170
811.708	0.0147476
811.786	0.0149299
811.864	0.0148670
811.943	0.0150587
812.021	0.0147846
812.099	0.0148336
812.177	0.0147404
812.255	0.0147279
812.333	0.0148497
812.411	0.0149210
812.489	0.0147943
812.568	0.0147630
812.646	0.0147145
812.724	0.0145834
812.802	0.0146373
812.880	0.0146200
812.958	0.0145882
813.036	0.0143977
813.114	0.0145486
813.193	0.0145849
813.271	0.0145391
813.349	0.0144794
813.427	0.0145731
813.505	0.0147038
813.583	0.0146319
813.661	0.0145236
813.739	0.0147079
813.818	0.0148242
813.896	0.0148660
813.974	0.0146666
814.052	0.0146332
814.130	0.0148210
814.208	0.0149805
814.286	0.0149325
814.364	0.0149390
814.443	0.0149158
814.521	0.0149769
814.599	0.0150891
814.677	0.0150459
814.755	0.0149455
814.833	0.0149495
814.911	0.0151672
814.989	0.0152093
815.068	0.0150078
815.146	0.0149175
815.224	0.0149879
815.302	0.0149722
815.380	0.0148600
815.458	0.0149082
815.536	0.0148515
815.614	0.0148328
815.693	0.0148762
815.771	0.0147445
815.849	0.0146662
815.927	0.0147797
816.005	0.0147473
816.083	0.0147158
816.161	0.0148243
816.239	0.0148653
816.318	0.0147042
816.396	0.0148720
816.474	0.0147579
816.552	0.0148984
816.630	0.0149884
816.708	0.0149685
816.786	0.0148254
816.864	0.0150263
816.943	0.0150179
817.021	0.0150624
817.099	0.0150493
817.177	0.0151239
817.255	0.0150177
817.333	0.0149906
817.411	0.0150419
817.489	0.0149636
817.568	0.0150208
817.646	0.0151076
817.724	0.0149794
817.802	0.0148582
817.880	0.0148018
817.958	0.0148927
818.036	0.0151100
818.114	0.0150097
818.193	0.0150417
818.271	0.0149853
818.349	0.0150061
818.427	0.0149307
818.505	0.0149633
818.583	0.0149706
818.661	0.0148993
818.739	0.0148293
818.818	0.0147567
818.896	0.0147789
818.974	0.0145853
819.052	0.0145143
819.130	0.0142075
819.208	0.0143432
819.286	0.0144666
819.364	0.0143186
819.443	0.0143124
819.521	0.0143079
819.599	0.0143492
819.677	0.0144640
819.755	0.0145064
819.833	0.0146913
819.911	0.0146539
819.989	0.0149660
820.068	0.0148890
820.146	0.0149580
820.224	0.0151379
820.302	0.0151087
820.380	0.0152394
820.458	0.0152708
820.536	0.0153495
820.614	0.0152235
820.693	0.0152679
820.771	0.0152863
820.849	0.0151553
820.927	0.0150530
821.005	0.0150809
821.083	0.0150801
821.161	0.0149354
821.239	0.0146956
821.318	0.0148126
821.396	0.0148140
821.474	0.0145883
821.552	0.0147839
821.630	0.0145421
821.708	0.0145060
821.786	0.0146348
821.864	0.0145244
821.943	0.0144342
822.021	0.0145212
822.099	0.0146545
822.177	0.0147139
822.255	0.0146384
822.333	0.0148941
822.411	0.0148691
822.489	0.0148380
822.568	0.0150223
822.646	0.0150552
822.724	0.0151781
822.802	0.0151450
822.880	0.0152034
822.958	0.0152386
823.036	0.0152206
823.114	0.0151457
823.193	0.0153155
823.271	0.0150936
823.349	0.0150388
823.427	0.0149572
823.505	0.0149353
823.583	0.0149895
823.661	0.0149442
823.739	0.0150408
823.818	0.0148127
823.896	0.0148087
823.974	0.0148797
824.052	0.0148311
824.130	0.0149195
824.208	0.0147773
824.286	0.0148363
824.364	0.0148018
824.443	0.0149490
824.521	0.0147410
824.599	0.0146178
824.677	0.0146016
824.755	0.0144318
824.833	0.0144254
824.911	0.0143814
824.989	0.0142752
825.068	0.0143577
825.146	0.0141922
825.224	0.0143317
825.302	0.0144598
825.380	0.0144666
825.458	0.0145252
825.536	0.0146746
825.614	0.0148283
825.693	0.0148721
825.771	0.0149812
825.849	0.0150815
825.927	0.0150141
826.005	0.0152254
826.083	0.0152557
826.161	0.0152672
826.239	0.0150706
826.318	0.0151102
826.396	0.0149175
826.474	0.0148698
826.552	0.0147976
826.630	0.0148516
826.708	0.0148119
826.786	0.0148137
826.864	0.0147269
826.943	0.0147506
827.021	0.0147144
827.099	0.0146747
827.177	0.0145739
827.255	0.0147191
827.333	0.0147810
827.411	0.0149247
827.489	0.0147977
827.568	0.0148539
827.646	0.0148793
827.724	0.0149686
827.802	0.0150528
827.880	0.0150230
827.958	0.0150307
828.036	0.0150219
828.114	0.0153133
828.193	0.0153254
828.271	0.0153772
828.349	0.0153106
828.427	0.0154908
828.505	0.0154349
828.583	0.0154911
828.661	0.0155257
828.739	0.0152972
828.818	0.0151779
828.896	0.0152256
828.974	0.0150935
829.052	0.0150831
829.130	0.0148386
829.208	0.0148948
829.286	0.0148069
829.364	0.0147549
829.443	0.0145698
829.521	0.0146346
829.599	0.0145397
829.677	0.0145111
829.755	0.0145156
829.833	0.0143481
829.911	0.0143429
829.989	0.0142953
830.068	0.0142586
830.146	0.0142767
830.224	0.0140927
830.302	0.0142202
830.380	0.0141850
830.458	0.0142930
830.536	0.0143060
830.614	0.0144884
830.693	0.0144145
830.771	0.0146815
830.849	0.0147405
830.927	0.0149107
831.005	0.0150300
831.083	0.0150707
831.161	0.0152738
831.239	0.0153461
831.318	0.0155069
831.396	0.0154876
831.474	0.0156481
831.552	0.0155018
831.630	0.0154894
831.708	0.0156215
831.786	0.0155312
831.864	0.0155366
831.943	0.0154652
832.021	0.0152546
832.099	0.0152290
832.177	0.0152411
832.255	0.0150970
832.333	0.0150640
832.411	0.0149380
832.489	0.0147726
832.568	0.0148256
832.646	0.0147863
832.724	0.0145161
832.802	0.0145213
832.880	0.0145885
832.958	0.0143308
833.036	0.0142484
833.114	0.0142662
833.193	0.0142047
833.271	0.0140522
833.349	0.0140572
833.427	0.0139294
833.505	0.0139299
833.583	0.0139962
833.661	0.0140903
833.739	0.0139941
833.818	0.0141209
833.896	0.0142532
833.974	0.0143885
834.052	0.0145081
834.130	0.0145943
834.208	0.0145940
834.286	0.0146941
834.364	0.0147664
834.443	0.0148840
834.521	0.0151627
834.599	0.0150436
834.677	0.0150410
834.755	0.0152020
834.833	0.0151920
834.911	0.0152464
834.989	0.0153986
835.068	0.0153345
835.146	0.0153145
835.224	0.0155296
835.302	0.0156021
835.380	0.0154786
835.458	0.0155728
835.536	0.0156078
835.614	0.0155983
835.693	0.0154479
835.771	0.0153848
835.849	0.0154067
835.927	0.0153025
836.005	0.0151923
836.083	0.0149990
836.161	0.0149017
836.239	0.0150197
836.318	0.0148742
836.396	0.0149202
836.474	0.0146635
836.552	0.0146340
836.630	0.0145763
836.708	0.0144843
836.786	0.0146290
836.864	0.0147611
836.943	0.0147474
837.021	0.0147157
837.099	0.0146657
837.177	0.0148133
837.255	0.0146857
837.333	0.0147045
837.411	0.0148635
837.489	0.0148260
837.568	0.0148148
837.646	0.0148220
837.724	0.0150445
837.802	0.0149310
837.880	0.0149394
837.958	0.0147576
838.036	0.0149203
838.114	0.0150603
838.193	0.0149160
838.271	0.0148366
838.349	0.0148061
838.427	0.0148907
838.505	0.0150068
838.583	0.0148169
838.661	0.0150343
838.739	0.0150683
838.818	0.0151047
838.896	0.0151325
838.974	0.0150800
839.052	0.0152393
839.130	0.0152209
839.208	0.0155118
839.286	0.0155326
839.364	0.0153931
839.443	0.0155537
839.521	0.0155936
839.599	0.0155486
839.677	0.0155750
839.755	0.0154233
839.833	0.0154356
839.911	0.0154037
839.989	0.0152670
840.068	0.0152825
840.146	0.0150678
840.224	0.0150369
840.302	0.0149403
840.380	0.0148276
840.458	0.0146336
840.536	0.0148034
840.614	0.0146305
840.693	0.0146885
840.771	0.0146694
840.849	0.0146681
840.927	0.0145570
841.005	0.0146815
841.083	0.0147523
841.161	0.0147153
841.239	0.0148476
841.318	0.0149842
841.396	0.0149099
841.474	0.0149634
841.552	0.0149310
841.630	0.0150418
841.708	0.0150288
841.786	0.0147880
841.864	0.0148608
841.943	0.0147340
842.021	0.0148643
842.099	0.0149334
842.177	0.0147535
842.255	0.0146060
842.333	0.0146826
842.411	0.0147449
842.489	0.0146939
842.568	0.0147123
842.646	0.0150750
842.724	0.0150158
842.802	0.0149352
842.880	0.0149660
842.958	0.0150159
843.036	0.0150944
843.114	0.0149976
843.193	0.0151871
843.271	0.0151417
843.349	0.0150574
843.427	0.0150336
843.505	0.0150914
843.583	0.0152345
843.661	0.0150980
843.739	0.0150284
843.818	0.0150105
843.896	0.0149825
843.974	0.0150989
844.052	0.0148004
844.130	0.0148240
844.208	0.0149194
844.286	0.0149503
844.364	0.0149194
844.443	0.0150169
844.521	0.0149568
844.599	0.0148356
844.677	0.0150879
844.755	0.0149151
844.833	0.0149287
844.911	0.0149284
844.989	0.0151008
845.068	0.0148214
845.146	0.0149091
845.224	0.0150270
845.302	0.0149175
845.380	0.0149192
845.458	0.0148278
845.536	0.0149091
845.614	0.0148154
845.693	0.0149299
845.771	0.0148098
845.849	0.0148311
845.927	0.0148994
846.005	0.0148208
846.083	0.0149492
846.161	0.0148564
846.239	0.0147769
846.318	0.0148572
846.396	0.0148840
846.474	0.0148483
846.552	0.0148264
846.630	0.0146616
846.708	0.0145248
846.786	0.0147090
846.864	0.0148709
846.943	0.0146642
847.021	0.0147614
847.099	0.0147209
847.177	0.0146408
847.255	0.0147862
847.333	0.0148070
847.411	0.0148167
847.489	0.0147945
847.568	0.0148220
847.646	0.0148244
847.724	0.0148834
847.802	0.0149114
847.880	0.0148353
847.958	0.0148579
848.036	0.0148611
848.114	0.0149295
848.193	0.0149815
848.271	0.0150024
848.349	0.0149370
848.427	0.0149706
848.505	0.0149895
848.583	0.0148937
848.661	0.0149018
848.739	0.0149304
848.818	0.0149224
848.896	0.0148363
848.974	0.0148900
849.052	0.0149409
849.130	0.0148177
849.208	0.0147814
849.286	0.0148460
849.364	0.0148678
849.443	0.0148352
849.521	0.0147304
849.599	0.0148051
849.677	0.0149076
849.755	0.0147224
849.833	0.0147754
849.911	0.0147527
849.989	0.0146928
850.068	0.0146248
850.146	0.0146494
850.224	0.0148267
850.302	0.0148558
850.380	0.0148641
850.458	0.0148535
850.536	0.0146083
850.614	0.0147749
850.693	0.0148920
850.771	0.0149522
850.849	0.0147735
850.927	0.0149635
851.005	0.0150734
851.083	0.0149566
851.161	0.0149483
851.239	0.0150161
851.318	0.0148640
851.396	0.0148867
851.474	0.0149431
851.552	0.0148584
851.630	0.0147483
851.708	0.0147207
851.786	0.0147570
851.864	0.0147616
851.943	0.0148902
852.021	0.0147526
852.099	0.0147842
852.177	0.0147163
852.255	0.0147289
852.333	0.0147953
852.411	0.0149189
852.489	0.0148130
852.568	0.0148624
852.646	0.0147226
852.724	0.0149593
852.802	0.0147692
852.880	0.0148615
852.958	0.0148223
853.036	0.0148675
853.114	0.0147875
853.193	0.0146996
853.271	0.0145686
853.349	0.0147380
853.427	0.0148609
853.505	0.0149230
853.583	0.0148750
853.661	0.0149084
853.739	0.0147787
853.818	0.0149643
853.896	0.0149527
853.974	0.0149935
854.052	0.0148695
854.130	0.0151356
854.208	0.0150584
854.286	0.0150848
854.364	0.0150156
854.443	0.0148796
854.521	0.0150613
854.599	0.0149413
854.677	0.0151490
854.755	0.0149294
854.833	0.0149431
854.911	0.0147538
854.989	0.0150506
855.068	0.0150090
855.146	0.0148470
855.224	0.0149839
855.302	0.0149443
855.380	0.0148702
855.458	0.0147208
855.536	0.0148213
855.614	0.0147504
855.693	0.0146380
855.771	0.0146124
855.849	0.0147533
855.927	0.0146934
856.005	0.0146263
856.083	0.0148173
856.161	0.0148278
856.239	0.0148620
856.318	0.0148904
856.396	0.0149828
856.474	0.0148483
856.552	0.0149463
856.630	0.0150006
856.708	0.0150857
856.786	0.0149597
856.864	0.0149570
856.943	0.0149997
857.021	0.0148931
857.099	0.0149364
857.177	0.0150215
857.255	0.0147957
857.333	0.0147960
857.411	0.0147638
857.489	0.0147826
857.568	0.0147603
857.646	0.0148375
857.724	0.0148313
857.802	0.0148313
857.880	0.0148645
857.958	0.0147317
858.036	0.0149431
858.114	0.0149039
858.193	0.0150034
858.271	0.0150575
858.349	0.0150359
858.427	0.0152222
858.505	0.0151099
858.583	0.0149647
858.661	0.0151645
858.739	0.0150349
858.818	0.0149865
858.896	0.0149270
858.974	0.0150372
859.052	0.0148808
859.130	0.0148703
859.208	0.0148924
859.286	0.0148737
859.364	0.0148405
859.443	0.0147080
859.521	0.0148002
859.599	0.0147775
859.677	0.0149147
859.755	0.0149113
859.833	0.0147280
859.911	0.0147605
859.989	0.0149808
860.068	0.0149866
860.146	0.0149641
860.224	0.0149194
860.302	0.0149015
860.380	0.0148043
860.458	0.0149065
860.536	0.0149980
860.614	0.0149507
860.693	0.0148027
860.771	0.0148535
860.849	0.0148220
860.927	0.0146800
861.005	0.0146000
861.083	0.0145711
861.161	0.0145858
861.239	0.0144555
861.318	0.0144232
861.396	0.0145306
861.474	0.0145670
861.552	0.0144925
861.630	0.0144582
861.708	0.0145462
861.786	0.0146600
861.864	0.0146813
861.943	0.0148022
862.021	0.0150243
862.099	0.0149741
862.177	0.0150920
862.255	0.0151306
862.333	0.0150520
862.411	0.0152573
862.489	0.0152445
862.568	0.0151449
862.646	0.0152657
862.724	0.0152528
862.802	0.0152581
862.880	0.0152536
862.958	0.0152559
863.036	0.0152124
863.114	0.0151872
863.193	0.0152045
863.271	0.0151193
863.349	0.0151572
863.427	0.0150112
863.505	0.0149982
863.583	0.0148849
863.661	0.0148256
863.739	0.0148244
863.818	0.0147593
863.896	0.0145936
863.974	0.0145966
864.052	0.0144604
864.130	0.0145004
864.208	0.0144764
864.286	0.0144175
864.364	0.0143083
864.443	0.0144315
864.521	0.0144852
864.599	0.0145297
864.677	0.0144493
864.755	0.0144312
864.833	0.0145767
864.911	0.0146708
864.989	0.0148196
865.068	0.0149434
865.146	0.0147522
865.224	0.0150132
865.302	0.0152991
865.380	0.0151424
865.458	0.0151408
865.536	0.0152734
865.614	0.0153096
865.693	0.0153086
865.771	0.0154134
865.849	0.0155113
865.927	0.0153053
866.005	0.0153968
866.083	0.0151788
866.161	0.0151853
866.239	0.0151414
866.318	0.0150906
866.396	0.0149999
866.474	0.0149575
866.552	0.0148216
866.630	0.0147585
866.708	0.0147031
866.786	0.0148397
866.864	0.0146619
866.943	0.0146537
867.021	0.0145908
867.099	0.0145715
867.177	0.0146259
867.255	0.0146564
867.333	0.0147700
867.411	0.0148772
867.489	0.0148781
867.568	0.0149582
867.646	0.0150240
867.724	0.0152373
867.802	0.0152913
867.880	0.0152429
867.958	0.0152972
868.036	0.0152152
868.114	0.0153553
868.193	0.0150224
868.271	0.0150813
868.349	0.0152322
868.427	0.0151554
868.505	0.0150618
868.583	0.0150154
868.661	0.0148226
868.739	0.0148701
868.818	0.0147895
868.896	0.0147432
868.974	0.0146827
869.052	0.0146497
869.130	0.0146653
869.208	0.0146633
869.286	0.0145818
869.364	0.0145132
869.443	0.0145712
869.521	0.0144460
869.599	0.0144397
869.677	0.0146378
869.755	0.0145286
869.833	0.0145046
869.911	0.0144685
869.989	0.0146974
870.068	0.0147370
870.146	0.0145976
870.224	0.0146842
870.302	0.0148821
870.380	0.0149232
870.458	0.0149062
870.536	0.0150296
870.614	0.0149873
870.693	0.0150201
870.771	0.0152101
870.849	0.0150423
870.927	0.0150470
871.005	0.0151700
871.083	0.0151321
871.161	0.0151332
871.239	0.0151316
871.318	0.0153281
871.396	0.0150709
871.474	0.0150908
871.552	0.0151273
871.630	0.0149622
871.708	0.0149574
871.786	0.0149521
871.864	0.0148029
871.943	0.0149866
872.021	0.0146621
872.099	0.0146886
872.177	0.0146749
872.255	0.0143697
872.333	0.0144058
872.411	0.0144684
872.489	0.0142917
872.568	0.0142825
872.646	0.0142012
872.724	0.0142823
872.802	0.0144030
872.880	0.0141360
872.958	0.0143959
873.036	0.0145874
873.114	0.0145960
873.193	0.0147629
873.271	0.0149591
873.349	0.0149590
873.427	0.0151112
873.505	0.0151465
873.583	0.0151025
873.661	0.0150670
873.739	0.0153555
873.818	0.0151888
873.896	0.0150862
873.974	0.0152320
874.052	0.0152760
874.130	0.0150348
874.208	0.0149834
874.286	0.0149863
874.364	0.0149315
874.443	0.0149404
874.521	0.0148701
874.599	0.0148472
874.677	0.0147802
874.755	0.0146739
874.833	0.0147523
874.911	0.0147248
874.989	0.0146827
875.068	0.0146523
875.146	0.0147404
875.224	0.0148713
875.302	0.0149311
875.380	0.0148431
875.458	0.0149279
875.536	0.0150113
875.614	0.0150900
875.693	0.0150748
875.771	0.0151088
875.849	0.0150574
875.927	0.0151657
876.005	0.0150459
876.083	0.0149974
876.161	0.0151212
876.239	0.0151964
876.318	0.0151097
876.396	0.0151012
876.474	0.0150172
876.552	0.0151117
876.630	0.0151490
876.708	0.0150431
876.786	0.0150069
876.864	0.0149194
876.943	0.0148734
877.021	0.0149296
877.099	0.0149423
877.177	0.0146221
877.255	0.0147331
877.333	0.0147781
877.411	0.0147630
877.489	0.0146307
877.568	0.0146749
877.646	0.0146734
877.724	0.0145181
877.802	0.0145461
877.880	0.0146685
877.958	0.0147158
878.036	0.0145857
878.114	0.0145329
878.193	0.0145153
878.271	0.0146912
878.349	0.0147005
878.427	0.0146877
878.505	0.0148435
878.583	0.0150505
878.661	0.0150067
878.739	0.0150821
878.818	0.0152241
878.896	0.0153410
878.974	0.0153970
879.052	0.0153092
879.130	0.0152917
879.208	0.0155695
879.286	0.0153380
879.364	0.0153461
879.443	0.0154356
879.521	0.0153907
879.599	0.0152082
879.677	0.0151216
879.755	0.0150973
879.833	0.0149168
879.911	0.0149403
879.989	0.0147372
880.068	0.0147215
880.146	0.0146196
880.224	0.0147563
880.302	0.0145393
880.380	0.0145470
880.458	0.0147113
880.536	0.0145531
880.614	0.0145915
880.693	0.0147337
880.771	0.0148143
880.849	0.0148054
880.927	0.0148159
881.005	0.0147983
881.083	0.0150926
881.161	0.0150910
881.239	0.0151073
881.318	0.0150272
881.396	0.0150847
881.474	0.0151001
881.552	0.0150808
881.630	0.0150753
881.708	0.0151234
881.786	0.0150433
881.864	0.0149391
881.943	0.0149527
882.021	0.0149239
882.099	0.0149784
882.177	0.0148857
882.255	0.0147659
882.333	0.0147305
882.411	0.0146400
882.489	0.0146558
882.568	0.0147045
882.646	0.0147276
882.724	0.0145838
882.802	0.0144360
882.880	0.0144592
882.958	0.0145229
883.036	0.0145975
883.114	0.0145082
883.193	0.0147070
883.271	0.0145757
883.349	0.0146230
883.427	0.0146555
883.505	0.0148394
883.583	0.0147678
883.661	0.0147393
883.739	0.0148136
883.818	0.0146819
883.896	0.0148808
883.974	0.0148396
884.052	0.0149819
884.130	0.0149963
884.208	0.0150518
884.286	0.0149671
884.364	0.0150729
884.443	0.0149862
884.521	0.0150332
884.599	0.0151291
884.677	0.0151086
884.755	0.0150347
884.833	0.0151212
884.911	0.0150829
884.989	0.0150398
885.068	0.0148956
885.146	0.0146597
885.224	0.0146059
885.302	0.0147238
885.380	0.0148535
885.458	0.0148601
885.536	0.0146036
885.614	0.0146012
885.693	0.0147318
885.771	0.0147628
885.849	0.0146272
885.927	0.0146798
886.005	0.0145760
886.083	0.0147152
886.161	0.0148772
886.239	0.0149137
886.318	0.0150056
886.396	0.0149961
886.474	0.0148534
886.552	0.0148550
886.630	0.0148368
886.708	0.0149670
886.786	0.0150380
886.864	0.0149785
886.943	0.0151039
887.021	0.0150719
887.099	0.0149847
887.177	0.0150275
887.255	0.0149735
887.333	0.0150031
887.411	0.0149265
887.489	0.0148840
887.568	0.0150352
887.646	0.0150461
887.724	0.0149435
887.802	0.0150137
887.880	0.0147766
887.958	0.0147913
888.036	0.0148949
888.114	0.0148780
888.193	0.0149084
888.271	0.0148457
888.349	0.0149986
888.427	0.0149372
888.505	0.0149413
888.583	0.0150552
888.661	0.0148505
888.739	0.0150339
888.818	0.0148575
888.896	0.0149383
888.974	0.0150153
889.052	0.0148426
889.130	0.0148834
889.208	0.0149780
889.286	0.0149365
889.364	0.0148930
889.443	0.0149998
889.521	0.0150581
889.599	0.0149237
889.677	0.0150785
889.755	0.0149377
889.833	0.0150611
889.911	0.0150410
889.989	0.0150322
890.068	0.0151021
890.146	0.0150341
890.224	0.0150280
890.302	0.0150397
890.380	0.0151268
890.458	0.0150227
890.536	0.0150294
890.614	0.0149731
890.693	0.0148935
890.771	0.0150146
890.849	0.0148505
890.927	0.0149659
891.005	0.0149285
891.083	0.0149203
891.161	0.0147940
891.239	0.0147491
891.318	0.0149250
891.396	0.0149380
891.474	0.0148602
891.552	0.0147908
891.630	0.0147167
891.708	0.0147601
891.786	0.0147672
891.864	0.0146152
891.943	0.0148159
892.021	0.0149019
892.099	0.0147533
892.177	0.0146516
892.255	0.0148666
892.333	0.0147610
892.411	0.0147883
892.489	0.0147808
892.568	0.0148042
892.646	0.0146204
892.724	0.0146381
892.802	0.0146532
892.880	0.0146308
892.958	0.0145026
893.036	0.0145963
893.114	0.0145358
893.193	0.0145171
893.271	0.0144338
893.349	0.0146764
893.427	0.0148402
893.505	0.0146966
893.583	0.0146799
893.661	0.0149081
893.739	0.0149400
893.818	0.0148930
893.896	0.0148917
893.974	0.0148107
894.052	0.0150235
894.130	0.0148121
894.208	0.0148272
894.286	0.0147360
894.364	0.0147611
894.443	0.0148023
894.521	0.0148257
894.599	0.0147781
894.677	0.0146486
894.755	0.0147176
894.833	0.0147042
894.911	0.0146913
894.989	0.0147201
895.068	0.0148406
895.146	0.0146944
895.224	0.0148182
895.302	0.0148010
895.380	0.0148471
895.458	0.0148663
895.536	0.0148053
895.614	0.0147840
895.693	0.0148812
895.771	0.0147890
895.849	0.0148561
895.927	0.0147338
896.005	0.0146700
896.083	0.0147379
896.161	0.0146259
896.239	0.0147473
896.318	0.0146724
896.396	0.0146848
896.474	0.0146667
896.552	0.0146693
896.630	0.0145772
896.708	0.0145000
896.786	0.0146124
896.864	0.0148402
896.943	0.0147318
897.021	0.0146302
897.099	0.0147913
897.177	0.0148139
897.255	0.0147993
897.333	0.0149072
897.411	0.0148437
897.489	0.0150503
897.568	0.0148655
897.646	0.0150045
897.724	0.0150086
897.802	0.0150863
897.880	0.0151243
897.958	0.0150855
898.036	0.0150525
898.114	0.0150565
898.193	0.0150587
898.271	0.0150357
898.349	0.0149702
898.427	0.0151095
898.505	0.0151156
898.583	0.0151212
898.661	0.0150951
898.739	0.0150834
898.818	0.0151331
898.896	0.0151122
898.974	0.0148762
899.052	0.0150651
899.130	0.0149485
899.208	0.0151339
899.286	0.0150189
899.364	0.0150887
899.443	0.0150726
899.521	0.0150782
899.599	0.0149375
899.677	0.0148617
899.755	0.0149297
899.833	0.0148385
899.911	0.0147492
899.989	0.0148598
900.068	0.0145685
900.146	0.0145879
900.224	0.0146215
900.302	0.0144415
900.380	0.0144200
900.458	0.0144226
900.536	0.0144458
900.614	0.0144834
900.693	0.0144287
900.771	0.0145470
900.849	0.0146436
900.927	0.0144519
901.005	0.0145547
901.083	0.0148207
901.161	0.0146568
901.239	0.0147086
901.318	0.0147254
901.396	0.0147083
901.474	0.0148079
901.552	0.0146023
901.630	0.0148024
901.708	0.0147572
901.786	0.0147977
901.864	0.0148488
901.943	0.0147006
902.021	0.0148086
902.099	0.0147499
902.177	0.0146868
902.255	0.0146883
902.333	0.0148509
902.411	0.0149038
902.489	0.0147950
902.568	0.0147851
902.646	0.0146841
902.724	0.0147477
902.802	0.0146809
902.880	0.0147091
902.958	0.0147440
903.036	0.0146599
903.114	0.0147178
903.193	0.0146156
903.271	0.0146393
903.349	0.0146667
903.427	0.0148376
903.505	0.0148264
903.583	0.0150235
903.661	0.0149940
903.739	0.0148701
903.818	0.0149822
903.896	0.0150831
903.974	0.0150667
904.052	0.0151115
904.130	0.0154044
904.208	0.0151972
904.286	0.0149337
904.364	0.0151418
904.443	0.0150801
904.521	0.0148550
904.599	0.0149454
904.677	0.0149113
904.755	0.0148517
904.833	0.0148445
904.911	0.0147062
904.989	0.0148489
905.068	0.0148034
905.146	0.0147708
905.224	0.0148141
905.302	0.0147320
905.380	0.0147504
905.458	0.0147946
905.536	0.0146413
905.614	0.0147885
905.693	0.0145780
905.771	0.0147014
905.849	0.0145415
905.927	0.0145736
906.005	0.0146854
906.083	0.0147607
906.161	0.0147094
906.239	0.0146540
906.318	0.0147715
906.396	0.0147994
906.474	0.0148677
906.552	0.0148586
906.630	0.0147835
906.708	0.0149505
906.786	0.0149277
906.864	0.0148540
906.943	0.0148994
907.021	0.0149201
907.099	0.0147234
907.177	0.0149136
907.255	0.0148732
907.333	0.0147649
907.411	0.0149158
907.489	0.0148249
907.568	0.0147421
907.646	0.0148181
907.724	0.0148760
907.802	0.0149039
907.880	0.0146477
907.958	0.0146677
908.036	0.0147205
908.114	0.0146960
908.193	0.0145921
908.271	0.0146608
908.349	0.0145856
908.427	0.0146994
908.505	0.0146252
908.583	0.0146796
908.661	0.0146980
908.739	0.0146481
908.818	0.0145692
908.896	0.0147499
908.974	0.0146709
909.052	0.0148094
909.130	0.0148618
909.208	0.0148096
909.286	0.0148296
909.364	0.0147667
909.443	0.0148115
909.521	0.0148481
909.599	0.0148343
909.677	0.0148065
909.755	0.0148757
909.833	0.0147839
909.911	0.0147581
909.989	0.0147065
910.068	0.0147639
910.146	0.0147970
910.224	0.0147925
910.302	0.0148089
910.380	0.0147742
910.458	0.0148682
910.536	0.0148371
910.614	0.0148026
910.693	0.0147225
910.771	0.0146649
910.849	0.0148378
910.927	0.0149686
911.005	0.0148119
911.083	0.0147121
911.161	0.0149117
911.239	0.0148803
911.318	0.0146896
911.396	0.0148523
911.474	0.0146928
911.552	0.0146002
911.630	0.0147195
911.708	0.0146190
911.786	0.0147071
911.864	0.0147200
911.943	0.0145540
912.021	0.0146681
912.099	0.0147675
912.177	0.0148665
912.255	0.0146849
912.333	0.0148955
912.411	0.0149706
912.489	0.0149491
912.568	0.0148008
912.646	0.0148201
912.724	0.0147193
912.802	0.0147704
912.880	0.0147128
912.958	0.0147897
913.036	0.0148421
913.114	0.0147724
913.193	0.0147213
913.271	0.0148820
913.349	0.0148245
913.427	0.0149453
913.505	0.0147605
913.583	0.0147986
913.661	0.0147484
913.739	0.0148454
913.818	0.0148904
913.896	0.0149373
913.974	0.0148878
914.052	0.0148417
914.130	0.0147290
914.208	0.0148771
914.286	0.0148927
914.364	0.0149512
914.443	0.0148897
914.521	0.0148674
914.599	0.0149829
914.677	0.0149830
914.755	0.0151376
914.833	0.0151286
914.911	0.0151311
914.989	0.0152415
915.068	0.0151627
915.146	0.0150171
915.224	0.0152245
915.302	0.0151067
915.380	0.0149884
915.458	0.0149399
915.536	0.0149000
915.614	0.0148450
915.693	0.0149081
915.771	0.0147150
915.849	0.0147757
915.927	0.0147344
916.005	0.0146957
916.083	0.0147146
916.161	0.0147258
916.239	0.0146738
916.318	0.0146854
916.396	0.0148127
916.474	0.0146706
916.552	0.0146224
916.630	0.0147135
916.708	0.0146757
916.786	0.0147598
916.864	0.0148236
916.943	0.0147497
917.021	0.0146635
917.099	0.0148538
917.177	0.0147366
917.255	0.0146968
917.333	0.0147436
917.411	0.0146522
917.489	0.0147189
917.568	0.0147115
917.646	0.0148866
917.724	0.0147951
917.802	0.0148988
917.880	0.0148708
917.958	0.0147533
918.036	0.0148861
918.114	0.0150118
918.193	0.0149797
918.271	0.0148643
918.349	0.0149754
918.427	0.0150742
918.505	0.0149168
918.583	0.0150449
918.661	0.0150587
918.739	0.0150312
918.818	0.0149241
918.896	0.0149077
918.974	0.0149890
919.052	0.0150351
919.130	0.0150857
919.208	0.0150174
919.286	0.0150211
919.364	0.0150014
919.443	0.0151005
919.521	0.0148550
919.599	0.0150052
919.677	0.0150777
919.755	0.0148716
919.833	0.0150255
919.911	0.0149579
919.989	0.0149648
920.068	0.0148341
920.146	0.0148294
920.224	0.0148914
920.302	0.0150095
920.380	0.0148521
920.458	0.0148731
920.536	0.0150331
920.614	0.0149772
920.693	0.0150613
920.771	0.0148703
920.849	0.0149940
920.927	0.0149523
921.005	0.0148776
921.083	0.0148423
921.161	0.0147824
921.239	0.0147649
921.318	0.0146788
921.396	0.0147688
921.474	0.0147251
921.552	0.0146998
921.630	0.0146743
921.708	0.0146622
921.786	0.0147495
921.864	0.0147010
921.943	0.0147404
922.021	0.0148613
922.099	0.0148422
922.177	0.0147086
922.255	0.0149094
922.333	0.0149162
922.411	0.0149412
922.489	0.0148074
922.568	0.0149542
922.646	0.0149801
922.724	0.0150791
922.802	0.0149334
922.880	0.0148888
922.958	0.0148682
923.036	0.0147981
923.114	0.0149465
923.193	0.0149000
923.271	0.0148533
923.349	0.0149456
923.427	0.0147630
923.505	0.0148149
923.583	0.0148206
923.661	0.0147414
923.739	0.0147877
923.818	0.0147826
923.896	0.0147427
923.974	0.0147239
924.052	0.0146956
924.130	0.0147398
924.208	0.0147793
924.286	0.0147356
924.364	0.0147731
924.443	0.0147789
924.521	0.0148103
924.599	0.0149007
924.677	0.0147932
924.755	0.0146707
924.833	0.0147218
924.911	0.0147550
924.989	0.0146511
925.068	0.0148931
925.146	0.0146758
925.224	0.0147333
925.302	0.0146805
925.380	0.0145742
925.458	0.0146412
925.536	0.0146438
925.614	0.0144738
925.693	0.0146238
925.771	0.0145926
925.849	0.0145713
925.927	0.0146889
926.005	0.0146163
926.083	0.0147472
926.161	0.0147034
926.239	0.0146272
926.318	0.0148406
926.396	0.0147568
926.474	0.0148486
926.552	0.0148869
926.630	0.0147939
926.708	0.0146872
926.786	0.0148645
926.864	0.0148529
926.943	0.0148591
927.021	0.0148548
927.099	0.0148136
927.177	0.0148854
927.255	0.0147324
927.333	0.0147669
927.411	0.0149448
927.489	0.0147375
927.568	0.0147237
927.646	0.0145366
927.724	0.0146712
927.802	0.0146667
927.880	0.0148186
927.958	0.0146632
928.036	0.0146816
928.114	0.0147632
928.193	0.0147298
928.271	0.0148183
928.349	0.0147137
928.427	0.0147945
928.505	0.0148530
928.583	0.0149907
928.661	0.0149982
928.739	0.0149953
928.818	0.0149429
928.896	0.0148634
928.974	0.0149833
929.052	0.0149092
929.130	0.0149355
929.208	0.0149742
929.286	0.0149492
929.364	0.0149319
929.443	0.0149168
929.521	0.0148242
929.599	0.0147830
929.677	0.0149334
929.755	0.0148718
929.833	0.0148122
929.911	0.0148534
929.989	0.0148781
930.068	0.0148341
930.146	0.0148028
930.224	0.0149798
930.302	0.0150502
930.380	0.0150148
930.458	0.0148689
930.536	0.0150649
930.614	0.0150551
930.693	0.0149969
930.771	0.0149761
930.849	0.0149335
930.927	0.0149500
931.005	0.0149028
931.083	0.0149319
931.161	0.0148643
931.239	0.0149635
931.318	0.0149088
931.396	0.0149536
931.474	0.0148819
931.552	0.0148520
931.630	0.0149227
931.708	0.0148962
931.786	0.0148569
931.864	0.0149437
931.943	0.0150926
932.021	0.0147446
932.099	0.0150234
932.177	0.0149268
932.255	0.0148449
932.333	0.0148497
932.411	0.0148811
932.489	0.0148861
932.568	0.0149739
932.646	0.0148291
932.724	0.0149110
932.802	0.0148935
932.880	0.0148965
932.958	0.0148013
933.036	0.0149431
933.114	0.0150021
933.193	0.0149069
933.271	0.0148998
933.349	0.0150018
933.427	0.0149015
933.505	0.0149105
933.583	0.0149356
933.661	0.0149932
933.739	0.0150062
933.818	0.0149239
933.896	0.0148521
933.974	0.0149913
934.052	0.0150307
934.130	0.0150816
934.208	0.0149526
934.286	0.0149303
934.364	0.0150517
934.443	0.0149809
934.521	0.0149926
934.599	0.0149028
934.677	0.0149135
934.755	0.0147369
934.833	0.0147764
934.911	0.0148282
934.989	0.0147970
935.068	0.0147284
935.146	0.0148701
935.224	0.0147945
935.302	0.0148058
935.380	0.0147988
935.458	0.0146855
935.536	0.0148079
935.614	0.0148724
935.693	0.0149012
935.771	0.0149200
935.849	0.0149734
935.927	0.0148736
936.005	0.0150040
936.083	0.0149726
936.161	0.0149656
936.239	0.0149599
936.318	0.0148338
936.396	0.0147162
936.474	0.0149525
936.552	0.0148631
936.630	0.0147450
936.708	0.0147511
936.786	0.0147993
936.864	0.0148149
936.943	0.0147277
937.021	0.0146335
937.099	0.0146721
937.177	0.0149068
937.255	0.0148045
937.333	0.0147596
937.411	0.0146919
937.489	0.0148293
937.568	0.0148048
937.646	0.0146681
937.724	0.0147884
937.802	0.0148140
937.880	0.0149287
937.958	0.0148190
938.036	0.0147773
938.114	0.0148975
938.193	0.0147926
938.271	0.0148255
938.349	0.0148215
938.427	0.0148927
938.505	0.0149989
938.583	0.0149481
938.661	0.0149551
938.739	0.0150116
938.818	0.0150957
938.896	0.0149704
938.974	0.0150836
939.052	0.0150419
939.130	0.0150687
939.208	0.0151371
939.286	0.0150954
939.364	0.0151324
939.443	0.0150761
939.521	0.0151505
939.599	0.0150793
939.677	0.0150255
939.755	0.0150140
939.833	0.0151102
939.911	0.0150181
939.989	0.0150274
940.068	0.0149773
940.146	0.0148820
940.224	0.0149986
940.302	0.0150646
940.380	0.0148895
940.458	0.0150616
940.536	0.0151455
940.614	0.0149815
940.693	0.0148592
940.771	0.0149192
940.849	0.0148713
940.927	0.0149358
941.005	0.0149084
941.083	0.0149816
941.161	0.0149637
941.239	0.0149170
941.318	0.0149116
941.396	0.0148499
941.474	0.0147982
941.552	0.0149292
941.630	0.0148389
941.708	0.0149597
941.786	0.0150034
941.864	0.0150063
941.943	0.0148512
942.021	0.0148904
942.099	0.0150034
942.177	0.0149536
942.255	0.0150223
942.333	0.0150517
942.411	0.0150630
942.489	0.0149870
942.568	0.0148628
942.646	0.0149641
942.724	0.0150129
942.802	0.0150925
942.880	0.0150243
942.958	0.0149361
943.036	0.0149160
943.114	0.0149446
943.193	0.0148394
943.271	0.0149573
943.349	0.0149565
943.427	0.0149434
943.505	0.0147006
943.583	0.0148855
943.661	0.0149497
943.739	0.0150448
943.818	0.0149252
943.896	0.0148538
943.974	0.0149234
944.052	0.0148550
944.130	0.0150055
944.208	0.0150472
944.286	0.0150371
944.364	0.0148444
944.443	0.0151483
944.521	0.0151830
944.599	0.0149969
944.677	0.0152547
944.755	0.0151997
944.833	0.0150965
944.911	0.0150980
944.989	0.0151292
945.068	0.0151414
945.146	0.0151530
945.224	0.0151323
945.302	0.0151486
945.380	0.0150644
945.458	0.0150696
945.536	0.0150584
945.614	0.0151157
945.693	0.0149163
945.771	0.0148060
945.849	0.0150200
945.927	0.0149155
946.005	0.0147302
946.083	0.0149167
946.161	0.0149629
946.239	0.0149220
946.318	0.0148402
946.396	0.0147859
946.474	0.0149713
946.552	0.0148507
946.630	0.0147773
946.708	0.0149036
946.786	0.0147192
946.864	0.0147872
946.943	0.0148474
947.021	0.0148209
947.099	0.0149020
947.177	0.0148605
947.255	0.0148741
947.333	0.0146929
947.411	0.0148033
947.489	0.0147607
947.568	0.0147452
947.646	0.0147166
947.724	0.0146809
947.802	0.0147492
947.880	0.0147137
947.958	0.0147182
948.036	0.0147887
948.114	0.0147118
948.193	0.0145198
948.271	0.0149317
948.349	0.0148779
948.427	0.0149651
948.505	0.0148641
948.583	0.0148021
948.661	0.0148907
948.739	0.0147775
948.818	0.0148055
948.896	0.0150457
948.974	0.0149091
949.052	0.0148057
949.130	0.0149577
949.208	0.0148953
949.286	0.0149769
949.364	0.0150780
949.443	0.0150756
949.521	0.0150332
949.599	0.0149561
949.677	0.0150050
949.755	0.0151196
949.833	0.0151382
949.911	0.0151510
949.989	0.0151249
950.068	0.0149577
950.146	0.0151440
950.224	0.0150424
950.302	0.0150993
950.380	0.0150204
950.458	0.0150669
950.536	0.0151717
950.614	0.0151254
950.693	0.0148984
950.771	0.0149677
950.849	0.0149015
950.927	0.0148514
951.005	0.0148547
951.083	0.0148714
951.161	0.0148543
951.239	0.0148587
951.318	0.0149467
951.396	0.0148476
951.474	0.0148095
951.552	0.0148136
951.630	0.0147415
951.708	0.0147204
951.786	0.0147532
951.864	0.0148888
951.943	0.0149069
952.021	0.0148861
952.099	0.0148092
952.177	0.0148582
952.255	0.0147592
952.333	0.0148418
952.411	0.0147968
952.489	0.0148885
952.568	0.0149562
952.646	0.0148398
952.724	0.0149148
952.802	0.0148953
952.880	0.0149369
952.958	0.0149996
953.036	0.0149704
953.114	0.0149992
953.193	0.0150255
953.271	0.0149918
953.349	0.0149482
953.427	0.0150770
953.505	0.0149574
953.583	0.0150735
953.661	0.0151823
953.739	0.0149854
953.818	0.0150096
953.896	0.0150430
953.974	0.0150938
954.052	0.0149668
954.130	0.0150584
954.208	0.0148945
954.286	0.0150585
954.364	0.0150517
954.443	0.0149846
954.521	0.0149299
954.599	0.0149234
954.677	0.0149789
954.755	0.0148900
954.833	0.0149490
954.911	0.0149078
954.989	0.0149208
955.068	0.0149277
955.146	0.0149788
955.224	0.0151546
955.302	0.0150941
955.380	0.0149944
955.458	0.0150459
955.536	0.0151364
955.614	0.0151521
955.693	0.0150827
955.771	0.0150161
955.849	0.0151534
955.927	0.0151536
956.005	0.0150914
956.083	0.0149506
956.161	0.0151193
956.239	0.0150500
956.318	0.0150988
956.396	0.0149451
956.474	0.0149618
956.552	0.0148193
956.630	0.0148904
956.708	0.0149643
956.786	0.0149019
956.864	0.0148954
956.943	0.0149172
957.021	0.0150203
957.099	0.0147839
957.177	0.0148148
957.255	0.0150174
957.333	0.0149952
957.411	0.0148075
957.489	0.0149721
957.568	0.0150158
957.646	0.0148434
957.724	0.0149382
957.802	0.0150197
957.880	0.0149642
957.958	0.0149407
958.036	0.0150438
958.114	0.0150059
958.193	0.0149794
958.271	0.0150974
958.349	0.0148102
958.427	0.0149216
958.505	0.0148662
958.583	0.0149331
958.661	0.0150465
958.739	0.0149905
958.818	0.0149411
958.896	0.0149348
958.974	0.0148569
959.052	0.0151156
959.130	0.0148741
959.208	0.0149806
959.286	0.0149223
959.364	0.0150856
959.443	0.0150707
959.521	0.0149987
959.599	0.0149145
959.677	0.0148717
959.755	0.0149334
959.833	0.0150504
959.911	0.0149448
