05/14/2022	16:56:22	Ver.	4.1	UNKNOWN
Optical Delay	639.989416	Delta X		0.078125	Sweeps	1	Scan Rate	0/0
Coordinates	Axis 1	NaN	Axis 2	NaN	Axis 3	NaN	Axis 4	NaN	Axis 5	NaN	Axis 6	0.000000
TX Power	0.000000	RX Power	0.000000

639.989	0.0150562
640.068	0.0150098
640.146	0.0149035
640.224	0.0148817
640.302	0.0150065
640.380	0.0149348
640.458	0.0148564
640.536	0.0148209
640.614	0.0149061
640.693	0.0149117
640.771	0.0146018
640.849	0.0146577
640.927	0.0148219
641.005	0.0146500
641.083	0.0148009
641.161	0.0147889
641.239	0.0146930
641.318	0.0146620
641.396	0.0147098
641.474	0.0147550
641.552	0.0147179
641.630	0.0147007
641.708	0.0147918
641.786	0.0146883
641.864	0.0146273
641.943	0.0146908
642.021	0.0146968
642.099	0.0147256
642.177	0.0145367
642.255	0.0145693
642.333	0.0146709
642.411	0.0147455
642.489	0.0146113
642.568	0.0146602
642.646	0.0146677
642.724	0.0147118
642.802	0.0146738
642.880	0.0146455
642.958	0.0145984
643.036	0.0147528
643.114	0.0146828
643.193	0.0146783
643.271	0.0147726
643.349	0.0147142
643.427	0.0147469
643.505	0.0146449
643.583	0.0147386
643.661	0.0147704
643.739	0.0148164
643.818	0.0146814
643.896	0.0146568
643.974	0.0147805
644.052	0.0147334
644.130	0.0147281
644.208	0.0148040
644.286	0.0149146
644.364	0.0148802
644.443	0.0147772
644.521	0.0148232
644.599	0.0146381
644.677	0.0147577
644.755	0.0148279
644.833	0.0147202
644.911	0.0147021
644.989	0.0146487
645.068	0.0148407
645.146	0.0147976
645.224	0.0147214
645.302	0.0148405
645.380	0.0148432
645.458	0.0146469
645.536	0.0147726
645.614	0.0149206
645.693	0.0147836
645.771	0.0147758
645.849	0.0147868
645.927	0.0147666
646.005	0.0148253
646.083	0.0148325
646.161	0.0148534
646.239	0.0147591
646.318	0.0148175
646.396	0.0148315
646.474	0.0149204
646.552	0.0149149
646.630	0.0148873
646.708	0.0148456
646.786	0.0147891
646.864	0.0148171
646.943	0.0147694
647.021	0.0147256
647.099	0.0147396
647.177	0.0147570
647.255	0.0148158
647.333	0.0149032
647.411	0.0147780
647.489	0.0148765
647.568	0.0147995
647.646	0.0148786
647.724	0.0148202
647.802	0.0147572
647.880	0.0149815
647.958	0.0147172
648.036	0.0148980
648.114	0.0148974
648.193	0.0147913
648.271	0.0147566
648.349	0.0148429
648.427	0.0147014
648.505	0.0146391
648.583	0.0148376
648.661	0.0148977
648.739	0.0149152
648.818	0.0148694
648.896	0.0147873
648.974	0.0148243
649.052	0.0149217
649.130	0.0148630
649.208	0.0149084
649.286	0.0149509
649.364	0.0149133
649.443	0.0148717
649.521	0.0149853
649.599	0.0149284
649.677	0.0148510
649.755	0.0148274
649.833	0.0150294
649.911	0.0149981
649.989	0.0151101
650.068	0.0149076
650.146	0.0149479
650.224	0.0149285
650.302	0.0148902
650.380	0.0147988
650.458	0.0149133
650.536	0.0150221
650.614	0.0150871
650.693	0.0148817
650.771	0.0150686
650.849	0.0149619
650.927	0.0149052
651.005	0.0150076
651.083	0.0148918
651.161	0.0149966
651.239	0.0150278
651.318	0.0149234
651.396	0.0150434
651.474	0.0150028
651.552	0.0150156
651.630	0.0150009
651.708	0.0149982
651.786	0.0149673
651.864	0.0150317
651.943	0.0150838
652.021	0.0149449
652.099	0.0150973
652.177	0.0151181
652.255	0.0150542
652.333	0.0149401
652.411	0.0150461
652.489	0.0150047
652.568	0.0151435
652.646	0.0150623
652.724	0.0150430
652.802	0.0150658
652.880	0.0150708
652.958	0.0150805
653.036	0.0150510
653.114	0.0149921
653.193	0.0152284
653.271	0.0150257
653.349	0.0150700
653.427	0.0150225
653.505	0.0151289
653.583	0.0150835
653.661	0.0151038
653.739	0.0150771
653.818	0.0151112
653.896	0.0151000
653.974	0.0148768
654.052	0.0150052
654.130	0.0150130
654.208	0.0149765
654.286	0.0149615
654.364	0.0149392
654.443	0.0148529
654.521	0.0148412
654.599	0.0148469
654.677	0.0149313
654.755	0.0149902
654.833	0.0149698
654.911	0.0149162
654.989	0.0149232
655.068	0.0149448
655.146	0.0149789
655.224	0.0149657
655.302	0.0148814
655.380	0.0149594
655.458	0.0149387
655.536	0.0147967
655.614	0.0148128
655.693	0.0149604
655.771	0.0148638
655.849	0.0148813
655.927	0.0148209
656.005	0.0147635
656.083	0.0148374
656.161	0.0149651
656.239	0.0147975
656.318	0.0149253
656.396	0.0149013
656.474	0.0148071
656.552	0.0148436
656.630	0.0148441
656.708	0.0147825
656.786	0.0147758
656.864	0.0149686
656.943	0.0149001
657.021	0.0148670
657.099	0.0148904
657.177	0.0147088
657.255	0.0148484
657.333	0.0147896
657.411	0.0148669
657.489	0.0148278
657.568	0.0149203
657.646	0.0148380
657.724	0.0147410
657.802	0.0148031
657.880	0.0148214
657.958	0.0148284
658.036	0.0148842
658.114	0.0147243
658.193	0.0147924
658.271	0.0148518
658.349	0.0148383
658.427	0.0147664
658.505	0.0148521
658.583	0.0147893
658.661	0.0149065
658.739	0.0148836
658.818	0.0149864
658.896	0.0148313
658.974	0.0149297
659.052	0.0149317
659.130	0.0149667
659.208	0.0148916
659.286	0.0149920
659.364	0.0149152
659.443	0.0149711
659.521	0.0149387
659.599	0.0149488
659.677	0.0148295
659.755	0.0149261
659.833	0.0148211
659.911	0.0149181
659.989	0.0150254
660.068	0.0148197
660.146	0.0147704
660.224	0.0146770
660.302	0.0146901
660.380	0.0146859
660.458	0.0146439
660.536	0.0147118
660.614	0.0146181
660.693	0.0146741
660.771	0.0147314
660.849	0.0146172
660.927	0.0145855
661.005	0.0146478
661.083	0.0145947
661.161	0.0145751
661.239	0.0147360
661.318	0.0145528
661.396	0.0147161
661.474	0.0147393
661.552	0.0148502
661.630	0.0148515
661.708	0.0148219
661.786	0.0148244
661.864	0.0148786
661.943	0.0149425
662.021	0.0149501
662.099	0.0149805
662.177	0.0147890
662.255	0.0147996
662.333	0.0148299
662.411	0.0146883
662.489	0.0146768
662.568	0.0147717
662.646	0.0147627
662.724	0.0147127
662.802	0.0146301
662.880	0.0147093
662.958	0.0145715
663.036	0.0145535
663.114	0.0144814
663.193	0.0146208
663.271	0.0144411
663.349	0.0144490
663.427	0.0146649
663.505	0.0145665
663.583	0.0144650
663.661	0.0145641
663.739	0.0147351
663.818	0.0148912
663.896	0.0149413
663.974	0.0148914
664.052	0.0149644
664.130	0.0151233
664.208	0.0152303
664.286	0.0152213
664.364	0.0153082
664.443	0.0153176
664.521	0.0152200
664.599	0.0153072
664.677	0.0152902
664.755	0.0153474
664.833	0.0153336
664.911	0.0152761
664.989	0.0151766
665.068	0.0150904
665.146	0.0149454
665.224	0.0149461
665.302	0.0148410
665.380	0.0146931
665.458	0.0145712
665.536	0.0145987
665.614	0.0143804
665.693	0.0141976
665.771	0.0142124
665.849	0.0140717
665.927	0.0141792
666.005	0.0140559
666.083	0.0139282
666.161	0.0139706
666.239	0.0139261
666.318	0.0139345
666.396	0.0139899
666.474	0.0139658
666.552	0.0140865
666.630	0.0141762
666.708	0.0143246
666.786	0.0146142
666.864	0.0148667
666.943	0.0148916
667.021	0.0149672
667.099	0.0153889
667.177	0.0154003
667.255	0.0155054
667.333	0.0156905
667.411	0.0157357
667.489	0.0160242
667.568	0.0160471
667.646	0.0160808
667.724	0.0162008
667.802	0.0160799
667.880	0.0160854
667.958	0.0161839
668.036	0.0160630
668.114	0.0159045
668.193	0.0158706
668.271	0.0157680
668.349	0.0155935
668.427	0.0152458
668.505	0.0151018
668.583	0.0149797
668.661	0.0147396
668.739	0.0144820
668.818	0.0140800
668.896	0.0139142
668.974	0.0139666
669.052	0.0137759
669.130	0.0136456
669.208	0.0135134
669.286	0.0133350
669.364	0.0132261
669.443	0.0130640
669.521	0.0133530
669.599	0.0134007
669.677	0.0135153
669.755	0.0136163
669.833	0.0136870
669.911	0.0139200
669.989	0.0139201
670.068	0.0140981
670.146	0.0143337
670.224	0.0145195
670.302	0.0145948
670.380	0.0148915
670.458	0.0150233
670.536	0.0151439
670.614	0.0154714
670.693	0.0155339
670.771	0.0156703
670.849	0.0157955
670.927	0.0161551
671.005	0.0160750
671.083	0.0159997
671.161	0.0162107
671.239	0.0162823
671.318	0.0162955
671.396	0.0162540
671.474	0.0161872
671.552	0.0160275
671.630	0.0159295
671.708	0.0158256
671.786	0.0155286
671.864	0.0155585
671.943	0.0154435
672.021	0.0151588
672.099	0.0149366
672.177	0.0147411
672.255	0.0145850
672.333	0.0145041
672.411	0.0142448
672.489	0.0140150
672.568	0.0139742
672.646	0.0137681
672.724	0.0135997
672.802	0.0137508
672.880	0.0135766
672.958	0.0134332
673.036	0.0134862
673.114	0.0134674
673.193	0.0135590
673.271	0.0135037
673.349	0.0136553
673.427	0.0137554
673.505	0.0137371
673.583	0.0139785
673.661	0.0141643
673.739	0.0143095
673.818	0.0144842
673.896	0.0144993
673.974	0.0145737
674.052	0.0146912
674.130	0.0146600
674.208	0.0150127
674.286	0.0151615
674.364	0.0150789
674.443	0.0152313
674.521	0.0151577
674.599	0.0152622
674.677	0.0153702
674.755	0.0152809
674.833	0.0153688
674.911	0.0153177
674.989	0.0153532
675.068	0.0154115
675.146	0.0155054
675.224	0.0153924
675.302	0.0154663
675.380	0.0155478
675.458	0.0155515
675.536	0.0155585
675.614	0.0155445
675.693	0.0156643
675.771	0.0157975
675.849	0.0157355
675.927	0.0158146
676.005	0.0159483
676.083	0.0160699
676.161	0.0159646
676.239	0.0160263
676.318	0.0160010
676.396	0.0159919
676.474	0.0159397
676.552	0.0160165
676.630	0.0157586
676.708	0.0157263
676.786	0.0157162
676.864	0.0152920
676.943	0.0153864
677.021	0.0151147
677.099	0.0150051
677.177	0.0148202
677.255	0.0146186
677.333	0.0142518
677.411	0.0140323
677.489	0.0139540
677.568	0.0138321
677.646	0.0134505
677.724	0.0133324
677.802	0.0131238
677.880	0.0129801
677.958	0.0128745
678.036	0.0127492
678.114	0.0127704
678.193	0.0128617
678.271	0.0129328
678.349	0.0128841
678.427	0.0130340
678.505	0.0131818
678.583	0.0133408
678.661	0.0136861
678.739	0.0139993
678.818	0.0142422
678.896	0.0143433
678.974	0.0148820
679.052	0.0152908
679.130	0.0155901
679.208	0.0157543
679.286	0.0162001
679.364	0.0164112
679.443	0.0167970
679.521	0.0172475
679.599	0.0173530
679.677	0.0175559
679.755	0.0176720
679.833	0.0178999
679.911	0.0177930
679.989	0.0177588
680.068	0.0178532
680.146	0.0177985
680.224	0.0177242
680.302	0.0177030
680.380	0.0171563
680.458	0.0169873
680.536	0.0166757
680.614	0.0164654
680.693	0.0162394
680.771	0.0157368
680.849	0.0156353
680.927	0.0152040
681.005	0.0148560
681.083	0.0146630
681.161	0.0141039
681.239	0.0138380
681.318	0.0135690
681.396	0.0132735
681.474	0.0128960
681.552	0.0127849
681.630	0.0124252
681.708	0.0123978
681.786	0.0123116
681.864	0.0121859
681.943	0.0120569
682.021	0.0120860
682.099	0.0121601
682.177	0.0121020
682.255	0.0123640
682.333	0.0123813
682.411	0.0124682
682.489	0.0126637
682.568	0.0129720
682.646	0.0131910
682.724	0.0135476
682.802	0.0136372
682.880	0.0139011
682.958	0.0141675
683.036	0.0146048
683.114	0.0147905
683.193	0.0150515
683.271	0.0153012
683.349	0.0156985
683.427	0.0159656
683.505	0.0162436
683.583	0.0164328
683.661	0.0166275
683.739	0.0167686
683.818	0.0168714
683.896	0.0171400
683.974	0.0173350
684.052	0.0173846
684.130	0.0174345
684.208	0.0174343
684.286	0.0173969
684.364	0.0175237
684.443	0.0174474
684.521	0.0174103
684.599	0.0172179
684.677	0.0170388
684.755	0.0167446
684.833	0.0165634
684.911	0.0163937
684.989	0.0162121
685.068	0.0159361
685.146	0.0157928
685.224	0.0152177
685.302	0.0151711
685.380	0.0148775
685.458	0.0145779
685.536	0.0144157
685.614	0.0141401
685.693	0.0137442
685.771	0.0137540
685.849	0.0135392
685.927	0.0132691
686.005	0.0130380
686.083	0.0129906
686.161	0.0128934
686.239	0.0127830
686.318	0.0126641
686.396	0.0127485
686.474	0.0127540
686.552	0.0128795
686.630	0.0127721
686.708	0.0128622
686.786	0.0130288
686.864	0.0132336
686.943	0.0131723
687.021	0.0134357
687.099	0.0135686
687.177	0.0137630
687.255	0.0138221
687.333	0.0140605
687.411	0.0141562
687.489	0.0143418
687.568	0.0144032
687.646	0.0144636
687.724	0.0148089
687.802	0.0149450
687.880	0.0151038
687.958	0.0151453
688.036	0.0154259
688.114	0.0154641
688.193	0.0156700
688.271	0.0157038
688.349	0.0159656
688.427	0.0160753
688.505	0.0161649
688.583	0.0163330
688.661	0.0164382
688.739	0.0164751
688.818	0.0165691
688.896	0.0167344
688.974	0.0166351
689.052	0.0166421
689.130	0.0165752
689.208	0.0167458
689.286	0.0166762
689.364	0.0165891
689.443	0.0164075
689.521	0.0165958
689.599	0.0163551
689.677	0.0163306
689.755	0.0161300
689.833	0.0159142
689.911	0.0158803
689.989	0.0157699
690.068	0.0155768
690.146	0.0154914
690.224	0.0151504
690.302	0.0150604
690.380	0.0149844
690.458	0.0146700
690.536	0.0145524
690.614	0.0143128
690.693	0.0140868
690.771	0.0140495
690.849	0.0137946
690.927	0.0136973
691.005	0.0135564
691.083	0.0133156
691.161	0.0132491
691.239	0.0133607
691.318	0.0131785
691.396	0.0131490
691.474	0.0131680
691.552	0.0132622
691.630	0.0131890
691.708	0.0134217
691.786	0.0134205
691.864	0.0134533
691.943	0.0137167
692.021	0.0137891
692.099	0.0139416
692.177	0.0141648
692.255	0.0142226
692.333	0.0145578
692.411	0.0147511
692.489	0.0148361
692.568	0.0151839
692.646	0.0151919
692.724	0.0153899
692.802	0.0154996
692.880	0.0156919
692.958	0.0157167
693.036	0.0157996
693.114	0.0160127
693.193	0.0160956
693.271	0.0159284
693.349	0.0161372
693.427	0.0160666
693.505	0.0161343
693.583	0.0159898
693.661	0.0160030
693.739	0.0160552
693.818	0.0159763
693.896	0.0158929
693.974	0.0158088
694.052	0.0157983
694.130	0.0157994
694.208	0.0158481
694.286	0.0156168
694.364	0.0155892
694.443	0.0156072
694.521	0.0154840
694.599	0.0155312
694.677	0.0153586
694.755	0.0153850
694.833	0.0152036
694.911	0.0152387
694.989	0.0151791
695.068	0.0150454
695.146	0.0148029
695.224	0.0148997
695.302	0.0146850
695.380	0.0145902
695.458	0.0146577
695.536	0.0145708
695.614	0.0146027
695.693	0.0146404
695.771	0.0144817
695.849	0.0143082
695.927	0.0142706
696.005	0.0143250
696.083	0.0142818
696.161	0.0142285
696.239	0.0142535
696.318	0.0142591
696.396	0.0143275
696.474	0.0142950
696.552	0.0142956
696.630	0.0142022
696.708	0.0144011
696.786	0.0144343
696.864	0.0145068
696.943	0.0145681
697.021	0.0145503
697.099	0.0145353
697.177	0.0146556
697.255	0.0146032
697.333	0.0148136
697.411	0.0148665
697.489	0.0148967
697.568	0.0150519
697.646	0.0150220
697.724	0.0150102
697.802	0.0150529
697.880	0.0152187
697.958	0.0151825
698.036	0.0151881
698.114	0.0152510
698.193	0.0152975
698.271	0.0153336
698.349	0.0153342
698.427	0.0151591
698.505	0.0152339
698.583	0.0153033
698.661	0.0151554
698.739	0.0150619
698.818	0.0151025
698.896	0.0150163
698.974	0.0150962
699.052	0.0149879
699.130	0.0149451
699.208	0.0150570
699.286	0.0151441
699.364	0.0150260
699.443	0.0150616
699.521	0.0151836
699.599	0.0152013
699.677	0.0152883
699.755	0.0153388
699.833	0.0155093
699.911	0.0154037
699.989	0.0153032
700.068	0.0154054
700.146	0.0154494
700.224	0.0152268
700.302	0.0153376
700.380	0.0154196
700.458	0.0153044
700.536	0.0151851
700.614	0.0152300
700.693	0.0150071
700.771	0.0148519
700.849	0.0147582
700.927	0.0145793
701.005	0.0146130
701.083	0.0145219
701.161	0.0143321
701.239	0.0143861
701.318	0.0142801
701.396	0.0144024
701.474	0.0142042
701.552	0.0139882
701.630	0.0141710
701.708	0.0140616
701.786	0.0140919
701.864	0.0141664
701.943	0.0141977
702.021	0.0141009
702.099	0.0143736
702.177	0.0144394
702.255	0.0145383
702.333	0.0147335
702.411	0.0146593
702.489	0.0149926
702.568	0.0150519
702.646	0.0152898
702.724	0.0153174
702.802	0.0153812
702.880	0.0156426
702.958	0.0157990
703.036	0.0158542
703.114	0.0159808
703.193	0.0159872
703.271	0.0160476
703.349	0.0162173
703.427	0.0161673
703.505	0.0161523
703.583	0.0159607
703.661	0.0159695
703.739	0.0159550
703.818	0.0157450
703.896	0.0157699
703.974	0.0156401
704.052	0.0154501
704.130	0.0154141
704.208	0.0152084
704.286	0.0151263
704.364	0.0148345
704.443	0.0146690
704.521	0.0146641
704.599	0.0145168
704.677	0.0145519
704.755	0.0144156
704.833	0.0141940
704.911	0.0142407
704.989	0.0141286
705.068	0.0142382
705.146	0.0142429
705.224	0.0141408
705.302	0.0142908
705.380	0.0143243
705.458	0.0142598
705.536	0.0145700
705.614	0.0147314
705.693	0.0146592
705.771	0.0146407
705.849	0.0148171
705.927	0.0149095
706.005	0.0149725
706.083	0.0149226
706.161	0.0149031
706.239	0.0148849
706.318	0.0150091
706.396	0.0150322
706.474	0.0150368
706.552	0.0148518
706.630	0.0150124
706.708	0.0149879
706.786	0.0149289
706.864	0.0150981
706.943	0.0148145
707.021	0.0149496
707.099	0.0148542
707.177	0.0149721
707.255	0.0148360
707.333	0.0149715
707.411	0.0148979
707.489	0.0150843
707.568	0.0149915
707.646	0.0150344
707.724	0.0150539
707.802	0.0151186
707.880	0.0153168
707.958	0.0153267
708.036	0.0153678
708.114	0.0153618
708.193	0.0153291
708.271	0.0151388
708.349	0.0152834
708.427	0.0154124
708.505	0.0153300
708.583	0.0153960
708.661	0.0153619
708.739	0.0153767
708.818	0.0152560
708.896	0.0150377
708.974	0.0149779
709.052	0.0151227
709.130	0.0151431
709.208	0.0149077
709.286	0.0150102
709.364	0.0148804
709.443	0.0148573
709.521	0.0149106
709.599	0.0147603
709.677	0.0147923
709.755	0.0146784
709.833	0.0146336
709.911	0.0146150
709.989	0.0145522
710.068	0.0144099
710.146	0.0143910
710.224	0.0144892
710.302	0.0141917
710.380	0.0142147
710.458	0.0143026
710.536	0.0142486
710.614	0.0143816
710.693	0.0141398
710.771	0.0140745
710.849	0.0141290
710.927	0.0142487
711.005	0.0142336
711.083	0.0143073
711.161	0.0141791
711.239	0.0142981
711.318	0.0141712
711.396	0.0143765
711.474	0.0144202
711.552	0.0144371
711.630	0.0146002
711.708	0.0145990
711.786	0.0146494
711.864	0.0146622
711.943	0.0148571
712.021	0.0149245
712.099	0.0149991
712.177	0.0149930
712.255	0.0151428
712.333	0.0152830
712.411	0.0155264
712.489	0.0155535
712.568	0.0155690
712.646	0.0155554
712.724	0.0157726
712.802	0.0157847
712.880	0.0158339
712.958	0.0159291
713.036	0.0160239
713.114	0.0158764
713.193	0.0160346
713.271	0.0160048
713.349	0.0158630
713.427	0.0159270
713.505	0.0158121
713.583	0.0157982
713.661	0.0157434
713.739	0.0155573
713.818	0.0155329
713.896	0.0155420
713.974	0.0154684
714.052	0.0151623
714.130	0.0149757
714.208	0.0150950
714.286	0.0148753
714.364	0.0147243
714.443	0.0146017
714.521	0.0145621
714.599	0.0145281
714.677	0.0144740
714.755	0.0144052
714.833	0.0142490
714.911	0.0142056
714.989	0.0142471
715.068	0.0142741
715.146	0.0143613
715.224	0.0144314
715.302	0.0143568
715.380	0.0144602
715.458	0.0145433
715.536	0.0146124
715.614	0.0144945
715.693	0.0146033
715.771	0.0146015
715.849	0.0147415
715.927	0.0148081
716.005	0.0148796
716.083	0.0149898
716.161	0.0149592
716.239	0.0149120
716.318	0.0151608
716.396	0.0151502
716.474	0.0152917
716.552	0.0152473
716.630	0.0152496
716.708	0.0152658
716.786	0.0149901
716.864	0.0152667
716.943	0.0152404
717.021	0.0153329
717.099	0.0151435
717.177	0.0150840
717.255	0.0148985
717.333	0.0149451
717.411	0.0147950
717.489	0.0148132
717.568	0.0147697
717.646	0.0146648
717.724	0.0146680
717.802	0.0145611
717.880	0.0146037
717.958	0.0144630
718.036	0.0145208
718.114	0.0145564
718.193	0.0145045
718.271	0.0146130
718.349	0.0146809
718.427	0.0147046
718.505	0.0145728
718.583	0.0147285
718.661	0.0147513
718.739	0.0147715
718.818	0.0148055
718.896	0.0148015
718.974	0.0148798
719.052	0.0149345
719.130	0.0150315
719.208	0.0150271
719.286	0.0151328
719.364	0.0152082
719.443	0.0152470
719.521	0.0155499
719.599	0.0155993
719.677	0.0157166
719.755	0.0156480
719.833	0.0157794
719.911	0.0158785
719.989	0.0160276
720.068	0.0160292
720.146	0.0159593
720.224	0.0159957
720.302	0.0160132
720.380	0.0158134
720.458	0.0158602
720.536	0.0158630
720.614	0.0158748
720.693	0.0157764
720.771	0.0156190
720.849	0.0156470
720.927	0.0155405
721.005	0.0155013
721.083	0.0153173
721.161	0.0152112
721.239	0.0151530
721.318	0.0151075
721.396	0.0150835
721.474	0.0147906
721.552	0.0147189
721.630	0.0146748
721.708	0.0144822
721.786	0.0144656
721.864	0.0143437
721.943	0.0141630
722.021	0.0139822
722.099	0.0140121
722.177	0.0140219
722.255	0.0140095
722.333	0.0138232
722.411	0.0138573
722.489	0.0139061
722.568	0.0138551
722.646	0.0138213
722.724	0.0138763
722.802	0.0140847
722.880	0.0140359
722.958	0.0140892
723.036	0.0141583
723.114	0.0141361
723.193	0.0144379
723.271	0.0143625
723.349	0.0144936
723.427	0.0146543
723.505	0.0147585
723.583	0.0148508
723.661	0.0149983
723.739	0.0151352
723.818	0.0150816
723.896	0.0151845
723.974	0.0154585
724.052	0.0154849
724.130	0.0155470
724.208	0.0155578
724.286	0.0155161
724.364	0.0155676
724.443	0.0156152
724.521	0.0155609
724.599	0.0154044
724.677	0.0153917
724.755	0.0154559
724.833	0.0153139
724.911	0.0152640
724.989	0.0153194
725.068	0.0151787
725.146	0.0151569
725.224	0.0150407
725.302	0.0149730
725.380	0.0150191
725.458	0.0149922
725.536	0.0149725
725.614	0.0148608
725.693	0.0148955
725.771	0.0147751
725.849	0.0148058
725.927	0.0149358
726.005	0.0148541
726.083	0.0150069
726.161	0.0149698
726.239	0.0150077
726.318	0.0150246
726.396	0.0149864
726.474	0.0150591
726.552	0.0149726
726.630	0.0149288
726.708	0.0149549
726.786	0.0151723
726.864	0.0150476
726.943	0.0149843
727.021	0.0148439
727.099	0.0149284
727.177	0.0148789
727.255	0.0147044
727.333	0.0148766
727.411	0.0149866
727.489	0.0148085
727.568	0.0148926
727.646	0.0146976
727.724	0.0148597
727.802	0.0148706
727.880	0.0148927
727.958	0.0149532
728.036	0.0146595
728.114	0.0146568
728.193	0.0147498
728.271	0.0147715
728.349	0.0148061
728.427	0.0146387
728.505	0.0147499
728.583	0.0147614
728.661	0.0146854
728.739	0.0147742
728.818	0.0148133
728.896	0.0147896
728.974	0.0147675
729.052	0.0146024
729.130	0.0146950
729.208	0.0148866
729.286	0.0147294
729.364	0.0147427
729.443	0.0148464
729.521	0.0147838
729.599	0.0147208
729.677	0.0146675
729.755	0.0147252
729.833	0.0145872
729.911	0.0147688
729.989	0.0146055
730.068	0.0145100
730.146	0.0146741
730.224	0.0147327
730.302	0.0145844
730.380	0.0149461
730.458	0.0149303
730.536	0.0148646
730.614	0.0149680
730.693	0.0151717
730.771	0.0151392
730.849	0.0152370
730.927	0.0153323
731.005	0.0153654
731.083	0.0156081
731.161	0.0155753
731.239	0.0157246
731.318	0.0157285
731.396	0.0158934
731.474	0.0158619
731.552	0.0159329
731.630	0.0159911
731.708	0.0160384
731.786	0.0160432
731.864	0.0159716
731.943	0.0159010
732.021	0.0158650
732.099	0.0157899
732.177	0.0157098
732.255	0.0156099
732.333	0.0155185
732.411	0.0153786
732.489	0.0151120
732.568	0.0149780
732.646	0.0148537
732.724	0.0146647
732.802	0.0145579
732.880	0.0144054
732.958	0.0144242
733.036	0.0142062
733.114	0.0140745
733.193	0.0140511
733.271	0.0139794
733.349	0.0138561
733.427	0.0137924
733.505	0.0136160
733.583	0.0138074
733.661	0.0138041
733.739	0.0138072
733.818	0.0138583
733.896	0.0138568
733.974	0.0139382
734.052	0.0140401
734.130	0.0141661
734.208	0.0142254
734.286	0.0142074
734.364	0.0144599
734.443	0.0145588
734.521	0.0145216
734.599	0.0147939
734.677	0.0146864
734.755	0.0150808
734.833	0.0149454
734.911	0.0150171
734.989	0.0151823
735.068	0.0152142
735.146	0.0154459
735.224	0.0153145
735.302	0.0154435
735.380	0.0153107
735.458	0.0154566
735.536	0.0154192
735.614	0.0154964
735.693	0.0153487
735.771	0.0154645
735.849	0.0155396
735.927	0.0153629
736.005	0.0153036
736.083	0.0152939
736.161	0.0151658
736.239	0.0151077
736.318	0.0150079
736.396	0.0150975
736.474	0.0150362
736.552	0.0148087
736.630	0.0147858
736.708	0.0148394
736.786	0.0147784
736.864	0.0147352
736.943	0.0147587
737.021	0.0148309
737.099	0.0147472
737.177	0.0146526
737.255	0.0146802
737.333	0.0147517
737.411	0.0146848
737.489	0.0145742
737.568	0.0147253
737.646	0.0148314
737.724	0.0147498
737.802	0.0148230
737.880	0.0147910
737.958	0.0148878
738.036	0.0149556
738.114	0.0149595
738.193	0.0149868
738.271	0.0150233
738.349	0.0150954
738.427	0.0150708
738.505	0.0151427
738.583	0.0151700
738.661	0.0151897
738.739	0.0151899
738.818	0.0152559
738.896	0.0153482
738.974	0.0151409
739.052	0.0151089
739.130	0.0151559
739.208	0.0150989
739.286	0.0150391
739.364	0.0149762
739.443	0.0150973
739.521	0.0149081
739.599	0.0148485
739.677	0.0148921
739.755	0.0148184
739.833	0.0148442
739.911	0.0146893
739.989	0.0146359
740.068	0.0147511
740.146	0.0147612
740.224	0.0146197
740.302	0.0146356
740.380	0.0147110
740.458	0.0145895
740.536	0.0147091
740.614	0.0149143
740.693	0.0147594
740.771	0.0147102
740.849	0.0148447
740.927	0.0147498
741.005	0.0149184
741.083	0.0148222
741.161	0.0150196
741.239	0.0149877
741.318	0.0150930
741.396	0.0150391
741.474	0.0150967
741.552	0.0150737
741.630	0.0151693
741.708	0.0150771
741.786	0.0150772
741.864	0.0150050
741.943	0.0148499
742.021	0.0149253
742.099	0.0149760
742.177	0.0150142
742.255	0.0150079
742.333	0.0149048
742.411	0.0147318
742.489	0.0147398
742.568	0.0147449
742.646	0.0146831
742.724	0.0147346
742.802	0.0148102
742.880	0.0147299
742.958	0.0147079
743.036	0.0145191
743.114	0.0147965
743.193	0.0146268
743.271	0.0147066
743.349	0.0147891
743.427	0.0148096
743.505	0.0145502
743.583	0.0149731
743.661	0.0148723
743.739	0.0148695
743.818	0.0150404
743.896	0.0149077
743.974	0.0150154
744.052	0.0150242
744.130	0.0149212
744.208	0.0149876
744.286	0.0151427
744.364	0.0150507
744.443	0.0151755
744.521	0.0150510
744.599	0.0149525
744.677	0.0148914
744.755	0.0148858
744.833	0.0150376
744.911	0.0148917
744.989	0.0147360
745.068	0.0148766
745.146	0.0148418
745.224	0.0147128
745.302	0.0147272
745.380	0.0146278
745.458	0.0146526
745.536	0.0148222
745.614	0.0146535
745.693	0.0146751
745.771	0.0146935
745.849	0.0145438
745.927	0.0146651
746.005	0.0146767
746.083	0.0147731
746.161	0.0146201
746.239	0.0145862
746.318	0.0147773
746.396	0.0146899
746.474	0.0146959
746.552	0.0147669
746.630	0.0147720
746.708	0.0147931
746.786	0.0148685
746.864	0.0149068
746.943	0.0149629
747.021	0.0149043
747.099	0.0148860
747.177	0.0149921
747.255	0.0150188
747.333	0.0149928
747.411	0.0151587
747.489	0.0151562
747.568	0.0152596
747.646	0.0152859
747.724	0.0150642
747.802	0.0152343
747.880	0.0153184
747.958	0.0153244
748.036	0.0153139
748.114	0.0153391
748.193	0.0153344
748.271	0.0152232
748.349	0.0152793
748.427	0.0153027
748.505	0.0151966
748.583	0.0151297
748.661	0.0152020
748.739	0.0149728
748.818	0.0150462
748.896	0.0150047
748.974	0.0149174
749.052	0.0148064
749.130	0.0147976
749.208	0.0148715
749.286	0.0148942
749.364	0.0147531
749.443	0.0146808
749.521	0.0147096
749.599	0.0147223
749.677	0.0146970
749.755	0.0146648
749.833	0.0145804
749.911	0.0145821
749.989	0.0146448
750.068	0.0145617
750.146	0.0144864
750.224	0.0144368
750.302	0.0144772
750.380	0.0145490
750.458	0.0144219
750.536	0.0143030
750.614	0.0143739
750.693	0.0144739
750.771	0.0142438
750.849	0.0142519
750.927	0.0142833
751.005	0.0143829
751.083	0.0143997
751.161	0.0144770
751.239	0.0144902
751.318	0.0145525
751.396	0.0145938
751.474	0.0146243
751.552	0.0149423
751.630	0.0148268
751.708	0.0148658
751.786	0.0150091
751.864	0.0151452
751.943	0.0153671
752.021	0.0153542
752.099	0.0154262
752.177	0.0156582
752.255	0.0157596
752.333	0.0157809
752.411	0.0157639
752.489	0.0158234
752.568	0.0158324
752.646	0.0157827
752.724	0.0158261
752.802	0.0157643
752.880	0.0158315
752.958	0.0157727
753.036	0.0156848
753.114	0.0156445
753.193	0.0156875
753.271	0.0155647
753.349	0.0155161
753.427	0.0153326
753.505	0.0154534
753.583	0.0153336
753.661	0.0152014
753.739	0.0151916
753.818	0.0150362
753.896	0.0150395
753.974	0.0151020
754.052	0.0148264
754.130	0.0148880
754.208	0.0147073
754.286	0.0147917
754.364	0.0146687
754.443	0.0146114
754.521	0.0144955
754.599	0.0144154
754.677	0.0144931
754.755	0.0146381
754.833	0.0144895
754.911	0.0146712
754.989	0.0144630
755.068	0.0144839
755.146	0.0146666
755.224	0.0144812
755.302	0.0146722
755.380	0.0145950
755.458	0.0146488
755.536	0.0145260
755.614	0.0145580
755.693	0.0147552
755.771	0.0146464
755.849	0.0146611
755.927	0.0146361
756.005	0.0148441
756.083	0.0148369
756.161	0.0148798
756.239	0.0147627
756.318	0.0148907
756.396	0.0148316
756.474	0.0148920
756.552	0.0149863
756.630	0.0149526
756.708	0.0149882
756.786	0.0149960
756.864	0.0150170
756.943	0.0149613
757.021	0.0150578
757.099	0.0151566
757.177	0.0151328
757.255	0.0151922
757.333	0.0150838
757.411	0.0151723
757.489	0.0150433
757.568	0.0151485
757.646	0.0150682
757.724	0.0151701
757.802	0.0149853
757.880	0.0149753
757.958	0.0150392
758.036	0.0149613
758.114	0.0148835
758.193	0.0149191
758.271	0.0147585
758.349	0.0147687
758.427	0.0148080
758.505	0.0147858
758.583	0.0147525
758.661	0.0146710
758.739	0.0147974
758.818	0.0146790
758.896	0.0148314
758.974	0.0147221
759.052	0.0146968
759.130	0.0146167
759.208	0.0146340
759.286	0.0148821
759.364	0.0147549
759.443	0.0148673
759.521	0.0147218
759.599	0.0147233
759.677	0.0147743
759.755	0.0148409
759.833	0.0146994
759.911	0.0147610
759.989	0.0147815
760.068	0.0148147
760.146	0.0148595
760.224	0.0148143
760.302	0.0148013
760.380	0.0149071
760.458	0.0149056
760.536	0.0148483
760.614	0.0149607
760.693	0.0150581
760.771	0.0151648
760.849	0.0150976
760.927	0.0150858
761.005	0.0152103
761.083	0.0150188
761.161	0.0151182
761.239	0.0151325
761.318	0.0151369
761.396	0.0151435
761.474	0.0151994
761.552	0.0152195
761.630	0.0151543
761.708	0.0151129
761.786	0.0150439
761.864	0.0149768
761.943	0.0150195
762.021	0.0150269
762.099	0.0148808
762.177	0.0150573
762.255	0.0150430
762.333	0.0149121
762.411	0.0148987
762.489	0.0146443
762.568	0.0147734
762.646	0.0147437
762.724	0.0145911
762.802	0.0147254
762.880	0.0147556
762.958	0.0145641
763.036	0.0146539
763.114	0.0145564
763.193	0.0145073
763.271	0.0145657
763.349	0.0144348
763.427	0.0145891
763.505	0.0145502
763.583	0.0143839
763.661	0.0147043
763.739	0.0146861
763.818	0.0146055
763.896	0.0146983
763.974	0.0147372
764.052	0.0147791
764.130	0.0147865
764.208	0.0146944
764.286	0.0147015
764.364	0.0148269
764.443	0.0149410
764.521	0.0149761
764.599	0.0150320
764.677	0.0149811
764.755	0.0150100
764.833	0.0149742
764.911	0.0150847
764.989	0.0152538
765.068	0.0153001
765.146	0.0151099
765.224	0.0151512
765.302	0.0151215
765.380	0.0150896
765.458	0.0150871
765.536	0.0151675
765.614	0.0151672
765.693	0.0151961
765.771	0.0152385
765.849	0.0151149
765.927	0.0150636
766.005	0.0150858
766.083	0.0151075
766.161	0.0149768
766.239	0.0149660
766.318	0.0150694
766.396	0.0150372
766.474	0.0148993
766.552	0.0149151
766.630	0.0150073
766.708	0.0148528
766.786	0.0148526
766.864	0.0147086
766.943	0.0147136
767.021	0.0148705
767.099	0.0149940
767.177	0.0148946
767.255	0.0149480
767.333	0.0149500
767.411	0.0148062
767.489	0.0148877
767.568	0.0148956
767.646	0.0149944
767.724	0.0150896
767.802	0.0149876
767.880	0.0149208
767.958	0.0149667
768.036	0.0148492
768.114	0.0148995
768.193	0.0147935
768.271	0.0148734
768.349	0.0146664
768.427	0.0147038
768.505	0.0149229
768.583	0.0148103
768.661	0.0147218
768.739	0.0146950
768.818	0.0147307
768.896	0.0148439
768.974	0.0147449
769.052	0.0146591
769.130	0.0147737
769.208	0.0147900
769.286	0.0148009
769.364	0.0145847
769.443	0.0145901
769.521	0.0149162
769.599	0.0148152
769.677	0.0148116
769.755	0.0148106
769.833	0.0147462
769.911	0.0149315
769.989	0.0150876
770.068	0.0149850
770.146	0.0149286
770.224	0.0149415
770.302	0.0150400
770.380	0.0151143
770.458	0.0150365
770.536	0.0152065
770.614	0.0150583
770.693	0.0150788
770.771	0.0150159
770.849	0.0148642
770.927	0.0151015
771.005	0.0150114
771.083	0.0150143
771.161	0.0149759
771.239	0.0150616
771.318	0.0148237
771.396	0.0148872
771.474	0.0147198
771.552	0.0148046
771.630	0.0147691
771.708	0.0146747
771.786	0.0147324
771.864	0.0147282
771.943	0.0147835
772.021	0.0147413
772.099	0.0146216
772.177	0.0147266
772.255	0.0147572
772.333	0.0146678
772.411	0.0148264
772.489	0.0147359
772.568	0.0146047
772.646	0.0146808
772.724	0.0149475
772.802	0.0147180
772.880	0.0146780
772.958	0.0146951
773.036	0.0147996
773.114	0.0148457
773.193	0.0149242
773.271	0.0147603
773.349	0.0147529
773.427	0.0148945
773.505	0.0149554
773.583	0.0148684
773.661	0.0149399
773.739	0.0148792
773.818	0.0150383
773.896	0.0149638
773.974	0.0149807
774.052	0.0149240
774.130	0.0149485
774.208	0.0149612
774.286	0.0148444
774.364	0.0149131
774.443	0.0148846
774.521	0.0147247
774.599	0.0148087
774.677	0.0148338
774.755	0.0148627
774.833	0.0147785
774.911	0.0146486
774.989	0.0147553
775.068	0.0146387
775.146	0.0146647
775.224	0.0146811
775.302	0.0147094
775.380	0.0147843
775.458	0.0146494
775.536	0.0147523
775.614	0.0148919
775.693	0.0148692
775.771	0.0150288
775.849	0.0150510
775.927	0.0151448
776.005	0.0150763
776.083	0.0149734
776.161	0.0150058
776.239	0.0149843
776.318	0.0151421
776.396	0.0150767
776.474	0.0150732
776.552	0.0152976
776.630	0.0149240
776.708	0.0151979
776.786	0.0151573
776.864	0.0150052
776.943	0.0149997
777.021	0.0150527
777.099	0.0149143
777.177	0.0151391
777.255	0.0150558
777.333	0.0150310
777.411	0.0147387
777.489	0.0147946
777.568	0.0148688
777.646	0.0147482
777.724	0.0147585
777.802	0.0147696
777.880	0.0148543
777.958	0.0148116
778.036	0.0147853
778.114	0.0148422
778.193	0.0147523
778.271	0.0149049
778.349	0.0148818
778.427	0.0147755
778.505	0.0149570
778.583	0.0148903
778.661	0.0147646
778.739	0.0149718
778.818	0.0150173
778.896	0.0148571
778.974	0.0150552
779.052	0.0149547
779.130	0.0149493
779.208	0.0151329
779.286	0.0152332
779.364	0.0152405
779.443	0.0151662
779.521	0.0151259
779.599	0.0153300
779.677	0.0153312
779.755	0.0153231
779.833	0.0152298
779.911	0.0151926
779.989	0.0154045
780.068	0.0153621
780.146	0.0152611
780.224	0.0152557
780.302	0.0152191
780.380	0.0151717
780.458	0.0152747
780.536	0.0152688
780.614	0.0152074
780.693	0.0151650
780.771	0.0151785
780.849	0.0151711
780.927	0.0153422
781.005	0.0151261
781.083	0.0151432
781.161	0.0150906
781.239	0.0150504
781.318	0.0151556
781.396	0.0148787
781.474	0.0149346
781.552	0.0148370
781.630	0.0149650
781.708	0.0148534
781.786	0.0147150
781.864	0.0147231
781.943	0.0147415
782.021	0.0147654
782.099	0.0149114
782.177	0.0147623
782.255	0.0147285
782.333	0.0148757
782.411	0.0146676
782.489	0.0146983
782.568	0.0147505
782.646	0.0147749
782.724	0.0147849
782.802	0.0147548
782.880	0.0147932
782.958	0.0147382
783.036	0.0147741
783.114	0.0147856
783.193	0.0146332
783.271	0.0146133
783.349	0.0147299
783.427	0.0148233
783.505	0.0147031
783.583	0.0147457
783.661	0.0149156
783.739	0.0147572
783.818	0.0147938
783.896	0.0149477
783.974	0.0149157
784.052	0.0149768
784.130	0.0149870
784.208	0.0149303
784.286	0.0149297
784.364	0.0149915
784.443	0.0149807
784.521	0.0150472
784.599	0.0150301
784.677	0.0150533
784.755	0.0150583
784.833	0.0150561
784.911	0.0151373
784.989	0.0151099
785.068	0.0151030
785.146	0.0150367
785.224	0.0150219
785.302	0.0150512
785.380	0.0150729
785.458	0.0150020
785.536	0.0150067
785.614	0.0149966
785.693	0.0149574
785.771	0.0149525
785.849	0.0149916
785.927	0.0149133
786.005	0.0150489
786.083	0.0149711
786.161	0.0150549
786.239	0.0150631
786.318	0.0149107
786.396	0.0147935
786.474	0.0149696
786.552	0.0149216
786.630	0.0149197
786.708	0.0148805
786.786	0.0149815
786.864	0.0148389
786.943	0.0149247
787.021	0.0149648
787.099	0.0148548
787.177	0.0149753
787.255	0.0148737
787.333	0.0149039
787.411	0.0147818
787.489	0.0147996
787.568	0.0148354
787.646	0.0148186
787.724	0.0146926
787.802	0.0147205
787.880	0.0148803
787.958	0.0149220
788.036	0.0147265
788.114	0.0147026
788.193	0.0147581
788.271	0.0148949
788.349	0.0148914
788.427	0.0148093
788.505	0.0147196
788.583	0.0148978
788.661	0.0147780
788.739	0.0146989
788.818	0.0148189
788.896	0.0147110
788.974	0.0148096
789.052	0.0147155
789.130	0.0148624
789.208	0.0148222
789.286	0.0147383
789.364	0.0147763
789.443	0.0147935
789.521	0.0147305
789.599	0.0147792
789.677	0.0146679
789.755	0.0147441
789.833	0.0147385
789.911	0.0146319
789.989	0.0145943
790.068	0.0145932
790.146	0.0146834
790.224	0.0147282
790.302	0.0148243
790.380	0.0147877
790.458	0.0148148
790.536	0.0147435
790.614	0.0148299
790.693	0.0148892
790.771	0.0147743
790.849	0.0148270
790.927	0.0149777
791.005	0.0148488
791.083	0.0149890
791.161	0.0149264
791.239	0.0149440
791.318	0.0151205
791.396	0.0151598
791.474	0.0151590
791.552	0.0151726
791.630	0.0152419
791.708	0.0151165
791.786	0.0151516
791.864	0.0152363
791.943	0.0151704
792.021	0.0152499
792.099	0.0152583
792.177	0.0152605
792.255	0.0151141
792.333	0.0153298
792.411	0.0151410
792.489	0.0152493
792.568	0.0152804
792.646	0.0150784
792.724	0.0151059
792.802	0.0148905
792.880	0.0149899
792.958	0.0147967
793.036	0.0149570
793.114	0.0148415
793.193	0.0146944
793.271	0.0147504
793.349	0.0147353
793.427	0.0147722
793.505	0.0148666
793.583	0.0147279
793.661	0.0147317
793.739	0.0147385
793.818	0.0147001
793.896	0.0146693
793.974	0.0147041
794.052	0.0145804
794.130	0.0145213
794.208	0.0145710
794.286	0.0146687
794.364	0.0146471
794.443	0.0146053
794.521	0.0144905
794.599	0.0146226
794.677	0.0146861
794.755	0.0145515
794.833	0.0145451
794.911	0.0145390
794.989	0.0147119
795.068	0.0146383
795.146	0.0146081
795.224	0.0145943
795.302	0.0147141
795.380	0.0146340
795.458	0.0148663
795.536	0.0147672
795.614	0.0147118
795.693	0.0147925
795.771	0.0149265
795.849	0.0148411
795.927	0.0149870
796.005	0.0149094
796.083	0.0149101
796.161	0.0151147
796.239	0.0148944
796.318	0.0150494
796.396	0.0151226
796.474	0.0152934
796.552	0.0151768
796.630	0.0149470
796.708	0.0151230
796.786	0.0151148
796.864	0.0151545
796.943	0.0150990
797.021	0.0151646
797.099	0.0152735
797.177	0.0152021
797.255	0.0149802
797.333	0.0149801
797.411	0.0149756
797.489	0.0150191
797.568	0.0149109
797.646	0.0151421
797.724	0.0149801
797.802	0.0149791
797.880	0.0149625
797.958	0.0150414
798.036	0.0148882
798.114	0.0149072
798.193	0.0150138
798.271	0.0149119
798.349	0.0148375
798.427	0.0148501
798.505	0.0147571
798.583	0.0148869
798.661	0.0147646
798.739	0.0145151
798.818	0.0147205
798.896	0.0145571
798.974	0.0145906
799.052	0.0147192
799.130	0.0146280
799.208	0.0145796
799.286	0.0146046
799.364	0.0145699
799.443	0.0147747
799.521	0.0148684
799.599	0.0147697
799.677	0.0147714
799.755	0.0147663
799.833	0.0148956
799.911	0.0148800
799.989	0.0149265
800.068	0.0149671
800.146	0.0149788
800.224	0.0148827
800.302	0.0149370
800.380	0.0149673
800.458	0.0150531
800.536	0.0150100
800.614	0.0151101
800.693	0.0151858
800.771	0.0149820
800.849	0.0151231
800.927	0.0149339
801.005	0.0150679
801.083	0.0149539
801.161	0.0149919
801.239	0.0150091
801.318	0.0150408
801.396	0.0150553
801.474	0.0149686
801.552	0.0149586
801.630	0.0149828
801.708	0.0148714
801.786	0.0149100
801.864	0.0148122
801.943	0.0148705
802.021	0.0149052
802.099	0.0149287
802.177	0.0147710
802.255	0.0148018
802.333	0.0147906
802.411	0.0149062
802.489	0.0149142
802.568	0.0148342
802.646	0.0148355
802.724	0.0149083
802.802	0.0147787
802.880	0.0146867
802.958	0.0148334
803.036	0.0148767
803.114	0.0146873
803.193	0.0148148
803.271	0.0148963
803.349	0.0147901
803.427	0.0147956
803.505	0.0148416
803.583	0.0149746
803.661	0.0148616
803.739	0.0149139
803.818	0.0149240
803.896	0.0148687
803.974	0.0148726
804.052	0.0147968
804.130	0.0147565
804.208	0.0147738
804.286	0.0147465
804.364	0.0148637
804.443	0.0149567
804.521	0.0149074
804.599	0.0149081
804.677	0.0149358
804.755	0.0149350
804.833	0.0148292
804.911	0.0148695
804.989	0.0149045
805.068	0.0148877
805.146	0.0147636
805.224	0.0149875
805.302	0.0149964
805.380	0.0149223
805.458	0.0149454
805.536	0.0149512
805.614	0.0151088
805.693	0.0150903
805.771	0.0151145
805.849	0.0152162
805.927	0.0151801
806.005	0.0151981
806.083	0.0151157
806.161	0.0151015
806.239	0.0150864
806.318	0.0151756
806.396	0.0149558
806.474	0.0151288
806.552	0.0151314
806.630	0.0150095
806.708	0.0150922
806.786	0.0150784
806.864	0.0151962
806.943	0.0150883
807.021	0.0151028
807.099	0.0151066
807.177	0.0149814
807.255	0.0151301
807.333	0.0150527
807.411	0.0148291
807.489	0.0149496
807.568	0.0148067
807.646	0.0147858
807.724	0.0148593
807.802	0.0148288
807.880	0.0147971
807.958	0.0148396
808.036	0.0148333
808.114	0.0147666
808.193	0.0148006
808.271	0.0148145
808.349	0.0147734
808.427	0.0147407
808.505	0.0147665
808.583	0.0146915
808.661	0.0148335
808.739	0.0148304
808.818	0.0148709
808.896	0.0148756
808.974	0.0150148
809.052	0.0148421
809.130	0.0148908
809.208	0.0152364
809.286	0.0151470
809.364	0.0150790
809.443	0.0152019
809.521	0.0151579
809.599	0.0152854
809.677	0.0151947
809.755	0.0152388
809.833	0.0153036
809.911	0.0152853
809.989	0.0152573
810.068	0.0152393
810.146	0.0151645
810.224	0.0150637
810.302	0.0150274
810.380	0.0150852
810.458	0.0151223
810.536	0.0151175
810.614	0.0151141
810.693	0.0151526
810.771	0.0150605
810.849	0.0149225
810.927	0.0149677
811.005	0.0148947
811.083	0.0148666
811.161	0.0150125
811.239	0.0149004
811.318	0.0149275
811.396	0.0148101
811.474	0.0147810
811.552	0.0146757
811.630	0.0145570
811.708	0.0146035
811.786	0.0145470
811.864	0.0146105
811.943	0.0145689
812.021	0.0145692
812.099	0.0147133
812.177	0.0146109
812.255	0.0144976
812.333	0.0145726
812.411	0.0146060
812.489	0.0147771
812.568	0.0148083
812.646	0.0147381
812.724	0.0146736
812.802	0.0149795
812.880	0.0148051
812.958	0.0147053
813.036	0.0147639
813.114	0.0147308
813.193	0.0146307
813.271	0.0147299
813.349	0.0146463
813.427	0.0147224
813.505	0.0146780
813.583	0.0147480
813.661	0.0147187
813.739	0.0145889
813.818	0.0147358
813.896	0.0148227
813.974	0.0147382
814.052	0.0147051
814.130	0.0147595
814.208	0.0147278
814.286	0.0147712
814.364	0.0147670
814.443	0.0147857
814.521	0.0148731
814.599	0.0148366
814.677	0.0149114
814.755	0.0149763
814.833	0.0148201
814.911	0.0149664
814.989	0.0151463
815.068	0.0151347
815.146	0.0152496
815.224	0.0151525
815.302	0.0151965
815.380	0.0152426
815.458	0.0152340
815.536	0.0152606
815.614	0.0152139
815.693	0.0151501
815.771	0.0152607
815.849	0.0151485
815.927	0.0152119
816.005	0.0149924
816.083	0.0149566
816.161	0.0150704
816.239	0.0149131
816.318	0.0148795
816.396	0.0149762
816.474	0.0148961
816.552	0.0148756
816.630	0.0150230
816.708	0.0147965
816.786	0.0147107
816.864	0.0147752
816.943	0.0149206
817.021	0.0148940
817.099	0.0147321
817.177	0.0147726
817.255	0.0148841
817.333	0.0149258
817.411	0.0150090
817.489	0.0149698
817.568	0.0150163
817.646	0.0151389
817.724	0.0150562
817.802	0.0151148
817.880	0.0149964
817.958	0.0152545
818.036	0.0151505
818.114	0.0151058
818.193	0.0152627
818.271	0.0153141
818.349	0.0151778
818.427	0.0152074
818.505	0.0150830
818.583	0.0150356
818.661	0.0150650
818.739	0.0150555
818.818	0.0148943
818.896	0.0148341
818.974	0.0146658
819.052	0.0146026
819.130	0.0145004
819.208	0.0143518
819.286	0.0144610
819.364	0.0143215
819.443	0.0141940
819.521	0.0140656
819.599	0.0140729
819.677	0.0140730
819.755	0.0141673
819.833	0.0143269
819.911	0.0141876
819.989	0.0143204
820.068	0.0143867
820.146	0.0145096
820.224	0.0147602
820.302	0.0147449
820.380	0.0148469
820.458	0.0148981
820.536	0.0150198
820.614	0.0152447
820.693	0.0152656
820.771	0.0153272
820.849	0.0155919
820.927	0.0154490
821.005	0.0154108
821.083	0.0153573
821.161	0.0153974
821.239	0.0152683
821.318	0.0152122
821.396	0.0151855
821.474	0.0151611
821.552	0.0150840
821.630	0.0148238
821.708	0.0148643
821.786	0.0147428
821.864	0.0146518
821.943	0.0145813
822.021	0.0144557
822.099	0.0144331
822.177	0.0143439
822.255	0.0144446
822.333	0.0143120
822.411	0.0143317
822.489	0.0143801
822.568	0.0143803
822.646	0.0145733
822.724	0.0145126
822.802	0.0147399
822.880	0.0148404
822.958	0.0149357
823.036	0.0150104
823.114	0.0150215
823.193	0.0151549
823.271	0.0152931
823.349	0.0154166
823.427	0.0153394
823.505	0.0154139
823.583	0.0155312
823.661	0.0154363
823.739	0.0154819
823.818	0.0153767
823.896	0.0154800
823.974	0.0153296
824.052	0.0152435
824.130	0.0152349
824.208	0.0152608
824.286	0.0151958
824.364	0.0149522
824.443	0.0150374
824.521	0.0150829
824.599	0.0150137
824.677	0.0150097
824.755	0.0149628
824.833	0.0148748
824.911	0.0148454
824.989	0.0148059
825.068	0.0146874
825.146	0.0147276
825.224	0.0146346
825.302	0.0146244
825.380	0.0144058
825.458	0.0144682
825.536	0.0145432
825.614	0.0145668
825.693	0.0146597
825.771	0.0146339
825.849	0.0146340
825.927	0.0146979
826.005	0.0147513
826.083	0.0148459
826.161	0.0149976
826.239	0.0150858
826.318	0.0151623
826.396	0.0153152
826.474	0.0152074
826.552	0.0152202
826.630	0.0152003
826.708	0.0151563
826.786	0.0151041
826.864	0.0151690
826.943	0.0150471
827.021	0.0149690
827.099	0.0150020
827.177	0.0150093
827.255	0.0150022
827.333	0.0150597
827.411	0.0148680
827.489	0.0149835
827.568	0.0151088
827.646	0.0150094
827.724	0.0149516
827.802	0.0149345
827.880	0.0151428
827.958	0.0150269
828.036	0.0150806
828.114	0.0149529
828.193	0.0149346
828.271	0.0150095
828.349	0.0149832
828.427	0.0150389
828.505	0.0149302
828.583	0.0149252
828.661	0.0149385
828.739	0.0148665
828.818	0.0149917
828.896	0.0148083
828.974	0.0148061
829.052	0.0149828
829.130	0.0148625
829.208	0.0147805
829.286	0.0148349
829.364	0.0148299
829.443	0.0147417
829.521	0.0146791
829.599	0.0146529
829.677	0.0146127
829.755	0.0146806
829.833	0.0145365
829.911	0.0143616
829.989	0.0142756
830.068	0.0142994
830.146	0.0142204
830.224	0.0140590
830.302	0.0141662
830.380	0.0141441
830.458	0.0143782
830.536	0.0142092
830.614	0.0142654
830.693	0.0144755
830.771	0.0145467
830.849	0.0145041
830.927	0.0146989
831.005	0.0147414
831.083	0.0149450
831.161	0.0150438
831.239	0.0151007
831.318	0.0151221
831.396	0.0153081
831.474	0.0152795
831.552	0.0154556
831.630	0.0154466
831.708	0.0155573
831.786	0.0156133
831.864	0.0155702
831.943	0.0157011
832.021	0.0155889
832.099	0.0155986
832.177	0.0154711
832.255	0.0153681
832.333	0.0152894
832.411	0.0153246
832.489	0.0151250
832.568	0.0151810
832.646	0.0149902
832.724	0.0149335
832.802	0.0148197
832.880	0.0146966
832.958	0.0149525
833.036	0.0147828
833.114	0.0146337
833.193	0.0145861
833.271	0.0144337
833.349	0.0143958
833.427	0.0143673
833.505	0.0144715
833.583	0.0143134
833.661	0.0140073
833.739	0.0141179
833.818	0.0141010
833.896	0.0141580
833.974	0.0142497
834.052	0.0144329
834.130	0.0145300
834.208	0.0144565
834.286	0.0147586
834.364	0.0148132
834.443	0.0150152
834.521	0.0151552
834.599	0.0155826
834.677	0.0154494
834.755	0.0154182
834.833	0.0155040
834.911	0.0155457
834.989	0.0156282
835.068	0.0156056
835.146	0.0154218
835.224	0.0155460
835.302	0.0152157
835.380	0.0153228
835.458	0.0152072
835.536	0.0151703
835.614	0.0151031
835.693	0.0152224
835.771	0.0151180
835.849	0.0151343
835.927	0.0150329
836.005	0.0149926
836.083	0.0150447
836.161	0.0149522
836.239	0.0149821
836.318	0.0149837
836.396	0.0149397
836.474	0.0148746
836.552	0.0149572
836.630	0.0148850
836.708	0.0149223
836.786	0.0147623
836.864	0.0148088
836.943	0.0148122
837.021	0.0148280
837.099	0.0148177
837.177	0.0147785
837.255	0.0148440
837.333	0.0148788
837.411	0.0148515
837.489	0.0148824
837.568	0.0148474
837.646	0.0146925
837.724	0.0147928
837.802	0.0147831
837.880	0.0149276
837.958	0.0148695
838.036	0.0149422
838.114	0.0149880
838.193	0.0149483
838.271	0.0149734
838.349	0.0149481
838.427	0.0149532
838.505	0.0151147
838.583	0.0152649
838.661	0.0150271
838.739	0.0151621
838.818	0.0150022
838.896	0.0151100
838.974	0.0150863
839.052	0.0150847
839.130	0.0149666
839.208	0.0152185
839.286	0.0151686
839.364	0.0150727
839.443	0.0152184
839.521	0.0152608
839.599	0.0152322
839.677	0.0152719
839.755	0.0154922
839.833	0.0153355
839.911	0.0152916
839.989	0.0150703
840.068	0.0151458
840.146	0.0152502
840.224	0.0151495
840.302	0.0150725
840.380	0.0149670
840.458	0.0148421
840.536	0.0148789
840.614	0.0148436
840.693	0.0147391
840.771	0.0146531
840.849	0.0147209
840.927	0.0148365
841.005	0.0146848
841.083	0.0148374
841.161	0.0148788
841.239	0.0148241
841.318	0.0147775
841.396	0.0147832
841.474	0.0147175
841.552	0.0149523
841.630	0.0149431
841.708	0.0149684
841.786	0.0150088
841.864	0.0150272
841.943	0.0148998
842.021	0.0151038
842.099	0.0150505
842.177	0.0149196
842.255	0.0148980
842.333	0.0148505
842.411	0.0148534
842.489	0.0148933
842.568	0.0149256
842.646	0.0148717
842.724	0.0148293
842.802	0.0148389
842.880	0.0149222
842.958	0.0148264
843.036	0.0148090
843.114	0.0147871
843.193	0.0147797
843.271	0.0150632
843.349	0.0150301
843.427	0.0149580
843.505	0.0149460
843.583	0.0148566
843.661	0.0148120
843.739	0.0149779
843.818	0.0150339
843.896	0.0149578
843.974	0.0148418
844.052	0.0150319
844.130	0.0149317
844.208	0.0150220
844.286	0.0150169
844.364	0.0148335
844.443	0.0149445
844.521	0.0148830
844.599	0.0149947
844.677	0.0150323
844.755	0.0149642
844.833	0.0149876
844.911	0.0151381
844.989	0.0150458
845.068	0.0151299
845.146	0.0148963
845.224	0.0149355
845.302	0.0151406
845.380	0.0151727
845.458	0.0150419
845.536	0.0150578
845.614	0.0149464
845.693	0.0150106
845.771	0.0149438
845.849	0.0149153
845.927	0.0149586
846.005	0.0149096
846.083	0.0148715
846.161	0.0146970
846.239	0.0147066
846.318	0.0147679
846.396	0.0146371
846.474	0.0146981
846.552	0.0146691
846.630	0.0147104
846.708	0.0147519
846.786	0.0147588
846.864	0.0148092
846.943	0.0148066
847.021	0.0147350
847.099	0.0148048
847.177	0.0148003
847.255	0.0147567
847.333	0.0148285
847.411	0.0148005
847.489	0.0150504
847.568	0.0149645
847.646	0.0149038
847.724	0.0150493
847.802	0.0148589
847.880	0.0149357
847.958	0.0149705
848.036	0.0149305
848.114	0.0147964
848.193	0.0148590
848.271	0.0147605
848.349	0.0147001
848.427	0.0146915
848.505	0.0147266
848.583	0.0146618
848.661	0.0146992
848.739	0.0147318
848.818	0.0149048
848.896	0.0148154
848.974	0.0149459
849.052	0.0148486
849.130	0.0149635
849.208	0.0149948
849.286	0.0149053
849.364	0.0151072
849.443	0.0150529
849.521	0.0149645
849.599	0.0150700
849.677	0.0150797
849.755	0.0151900
849.833	0.0152965
849.911	0.0152235
849.989	0.0151108
850.068	0.0151224
850.146	0.0153194
850.224	0.0152333
850.302	0.0151164
850.380	0.0150576
850.458	0.0150401
850.536	0.0151286
850.614	0.0150495
850.693	0.0147889
850.771	0.0150045
850.849	0.0148682
850.927	0.0149734
851.005	0.0148793
851.083	0.0147317
851.161	0.0148861
851.239	0.0147677
851.318	0.0149352
851.396	0.0149242
851.474	0.0148086
851.552	0.0149033
851.630	0.0149214
851.708	0.0149691
851.786	0.0148852
851.864	0.0147533
851.943	0.0148251
852.021	0.0147708
852.099	0.0147287
852.177	0.0146300
852.255	0.0148150
852.333	0.0147866
852.411	0.0147625
852.489	0.0147182
852.568	0.0147614
852.646	0.0148284
852.724	0.0148592
852.802	0.0149677
852.880	0.0149477
852.958	0.0150187
853.036	0.0148773
853.114	0.0150433
853.193	0.0150180
853.271	0.0152703
853.349	0.0152060
853.427	0.0151110
853.505	0.0150924
853.583	0.0150594
853.661	0.0150918
853.739	0.0150112
853.818	0.0151141
853.896	0.0152224
853.974	0.0150766
854.052	0.0149905
854.130	0.0149414
854.208	0.0150360
854.286	0.0150821
854.364	0.0149303
854.443	0.0149976
854.521	0.0150112
854.599	0.0149030
854.677	0.0149007
854.755	0.0150642
854.833	0.0150449
854.911	0.0148964
854.989	0.0149155
855.068	0.0151298
855.146	0.0151650
855.224	0.0150744
855.302	0.0150744
855.380	0.0151389
855.458	0.0151494
855.536	0.0151109
855.614	0.0150619
855.693	0.0149411
855.771	0.0150644
855.849	0.0151543
855.927	0.0149356
856.005	0.0148123
856.083	0.0149153
856.161	0.0147239
856.239	0.0147295
856.318	0.0147294
856.396	0.0146473
856.474	0.0147057
856.552	0.0146421
856.630	0.0146749
856.708	0.0146699
856.786	0.0146962
856.864	0.0146397
856.943	0.0148573
857.021	0.0147116
857.099	0.0147810
857.177	0.0149261
857.255	0.0149191
857.333	0.0149445
857.411	0.0149065
857.489	0.0148581
857.568	0.0147633
857.646	0.0148918
857.724	0.0149274
857.802	0.0150307
857.880	0.0150562
857.958	0.0150015
858.036	0.0149623
858.114	0.0150793
858.193	0.0151280
858.271	0.0151421
858.349	0.0151196
858.427	0.0151302
858.505	0.0151693
858.583	0.0152370
858.661	0.0152248
858.739	0.0151676
858.818	0.0150832
858.896	0.0150482
858.974	0.0149657
859.052	0.0150381
859.130	0.0149609
859.208	0.0148119
859.286	0.0147713
859.364	0.0147088
859.443	0.0148001
859.521	0.0145428
859.599	0.0145499
859.677	0.0145159
859.755	0.0146028
859.833	0.0144582
859.911	0.0145319
859.989	0.0146078
860.068	0.0146246
860.146	0.0147338
860.224	0.0148880
860.302	0.0149826
860.380	0.0149596
860.458	0.0149435
860.536	0.0151085
860.614	0.0152448
860.693	0.0151273
860.771	0.0151565
860.849	0.0150742
860.927	0.0150857
861.005	0.0152018
861.083	0.0150437
861.161	0.0148762
861.239	0.0149622
861.318	0.0147533
861.396	0.0145912
861.474	0.0146194
861.552	0.0144461
861.630	0.0144267
861.708	0.0144199
861.786	0.0144562
861.864	0.0143937
861.943	0.0142819
862.021	0.0143726
862.099	0.0147270
862.177	0.0146203
862.255	0.0147072
862.333	0.0149821
862.411	0.0150723
862.489	0.0150938
862.568	0.0151997
862.646	0.0153214
862.724	0.0155471
862.802	0.0155183
862.880	0.0155484
862.958	0.0156430
863.036	0.0156584
863.114	0.0155865
863.193	0.0155718
863.271	0.0154743
863.349	0.0154803
863.427	0.0153649
863.505	0.0152863
863.583	0.0150710
863.661	0.0149467
863.739	0.0150436
863.818	0.0148355
863.896	0.0146137
863.974	0.0146258
864.052	0.0146443
864.130	0.0146091
864.208	0.0142997
864.286	0.0144753
864.364	0.0146471
864.443	0.0143545
864.521	0.0145744
864.599	0.0145715
864.677	0.0145839
864.755	0.0144874
864.833	0.0145553
864.911	0.0146521
864.989	0.0148593
865.068	0.0149685
865.146	0.0149966
865.224	0.0148465
865.302	0.0149854
865.380	0.0151438
865.458	0.0151754
865.536	0.0152886
865.614	0.0152234
865.693	0.0154491
865.771	0.0153196
865.849	0.0154716
865.927	0.0154089
866.005	0.0154270
866.083	0.0154498
866.161	0.0153413
866.239	0.0153549
866.318	0.0151917
866.396	0.0150985
866.474	0.0150670
866.552	0.0151543
866.630	0.0149648
866.708	0.0149252
866.786	0.0148849
866.864	0.0146218
866.943	0.0145955
867.021	0.0145689
867.099	0.0145318
867.177	0.0144907
867.255	0.0144395
867.333	0.0144588
867.411	0.0144314
867.489	0.0144828
867.568	0.0145837
867.646	0.0146573
867.724	0.0145680
867.802	0.0147192
867.880	0.0149043
867.958	0.0148221
868.036	0.0149451
868.114	0.0149942
868.193	0.0152265
868.271	0.0151243
868.349	0.0152203
868.427	0.0152386
868.505	0.0151560
868.583	0.0152834
868.661	0.0150867
868.739	0.0150010
868.818	0.0148730
868.896	0.0148315
868.974	0.0148065
869.052	0.0146815
869.130	0.0146225
869.208	0.0145122
869.286	0.0144071
869.364	0.0143862
869.443	0.0143548
869.521	0.0143498
869.599	0.0144265
869.677	0.0143188
869.755	0.0144365
869.833	0.0145132
869.911	0.0145343
869.989	0.0146849
870.068	0.0147910
870.146	0.0148128
870.224	0.0147975
870.302	0.0149692
870.380	0.0148986
870.458	0.0150028
870.536	0.0150722
870.614	0.0151089
870.693	0.0151195
870.771	0.0152447
870.849	0.0152088
870.927	0.0151466
871.005	0.0152123
871.083	0.0152617
871.161	0.0152420
871.239	0.0153308
871.318	0.0152039
871.396	0.0152612
871.474	0.0151946
871.552	0.0152688
871.630	0.0149634
871.708	0.0150780
871.786	0.0151419
871.864	0.0150430
871.943	0.0149785
872.021	0.0149897
872.099	0.0148975
872.177	0.0148402
872.255	0.0146930
872.333	0.0146139
872.411	0.0146204
872.489	0.0145786
872.568	0.0143685
872.646	0.0143790
872.724	0.0144183
872.802	0.0143961
872.880	0.0142996
872.958	0.0143538
873.036	0.0144528
873.114	0.0143607
873.193	0.0145459
873.271	0.0145329
873.349	0.0146359
873.427	0.0148256
873.505	0.0149271
873.583	0.0149780
873.661	0.0150322
873.739	0.0152274
873.818	0.0153185
873.896	0.0153793
873.974	0.0155944
874.052	0.0155211
874.130	0.0154219
874.208	0.0153444
874.286	0.0154773
874.364	0.0154311
874.443	0.0153225
874.521	0.0152504
874.599	0.0150465
874.677	0.0151704
874.755	0.0149994
874.833	0.0148969
874.911	0.0147588
874.989	0.0148569
875.068	0.0148289
875.146	0.0147986
875.224	0.0147955
875.302	0.0148421
875.380	0.0147479
875.458	0.0147778
875.536	0.0149384
875.614	0.0149605
875.693	0.0149600
875.771	0.0150248
875.849	0.0149903
875.927	0.0150976
876.005	0.0151537
876.083	0.0152213
876.161	0.0153131
876.239	0.0152633
876.318	0.0152576
876.396	0.0151955
876.474	0.0153750
876.552	0.0152293
876.630	0.0152052
876.708	0.0151472
876.786	0.0151086
876.864	0.0150043
876.943	0.0150521
877.021	0.0150446
877.099	0.0148479
877.177	0.0148333
877.255	0.0148290
877.333	0.0146822
877.411	0.0147794
877.489	0.0146976
877.568	0.0146322
877.646	0.0146513
877.724	0.0145598
877.802	0.0145748
877.880	0.0145523
877.958	0.0146063
878.036	0.0146915
878.114	0.0145728
878.193	0.0146112
878.271	0.0146567
878.349	0.0145930
878.427	0.0146607
878.505	0.0148096
878.583	0.0148307
878.661	0.0147662
878.739	0.0149082
878.818	0.0149494
878.896	0.0150787
878.974	0.0150845
879.052	0.0149435
879.130	0.0151564
879.208	0.0152998
879.286	0.0151836
879.364	0.0151986
879.443	0.0152507
879.521	0.0152433
879.599	0.0149527
879.677	0.0151253
879.755	0.0151805
879.833	0.0150255
879.911	0.0150888
879.989	0.0151846
880.068	0.0150018
880.146	0.0149245
880.224	0.0149556
880.302	0.0147631
880.380	0.0147070
880.458	0.0147890
880.536	0.0147744
880.614	0.0146400
880.693	0.0147397
880.771	0.0145745
880.849	0.0146955
880.927	0.0146865
881.005	0.0147213
881.083	0.0148164
881.161	0.0147771
881.239	0.0148921
881.318	0.0147730
881.396	0.0148788
881.474	0.0148586
881.552	0.0149300
881.630	0.0149347
881.708	0.0149310
881.786	0.0149696
881.864	0.0149459
881.943	0.0149564
882.021	0.0149106
882.099	0.0148457
882.177	0.0148528
882.255	0.0148064
882.333	0.0148056
882.411	0.0147039
882.489	0.0145718
882.568	0.0146682
882.646	0.0147205
882.724	0.0146745
882.802	0.0145225
882.880	0.0146104
882.958	0.0146684
883.036	0.0146825
883.114	0.0146457
883.193	0.0147577
883.271	0.0146185
883.349	0.0146694
883.427	0.0146237
883.505	0.0146718
883.583	0.0148507
883.661	0.0147957
883.739	0.0150086
883.818	0.0151141
883.896	0.0151232
883.974	0.0152103
884.052	0.0151734
884.130	0.0152711
884.208	0.0150546
884.286	0.0150459
884.364	0.0150468
884.443	0.0151102
884.521	0.0153008
884.599	0.0152361
884.677	0.0149179
884.755	0.0151326
884.833	0.0150555
884.911	0.0150923
884.989	0.0150343
885.068	0.0150449
885.146	0.0151643
885.224	0.0148650
885.302	0.0150600
885.380	0.0149785
885.458	0.0147202
885.536	0.0148465
885.614	0.0147929
885.693	0.0147942
885.771	0.0148696
885.849	0.0149837
885.927	0.0148770
886.005	0.0148419
886.083	0.0150105
886.161	0.0150611
886.239	0.0150587
886.318	0.0151508
886.396	0.0149963
886.474	0.0151758
886.552	0.0150818
886.630	0.0150359
886.708	0.0148966
886.786	0.0150662
886.864	0.0150249
886.943	0.0149014
887.021	0.0147005
887.099	0.0149784
887.177	0.0148415
887.255	0.0148466
887.333	0.0148811
887.411	0.0147949
887.489	0.0149052
887.568	0.0148779
887.646	0.0149052
887.724	0.0147082
887.802	0.0147093
887.880	0.0149213
887.958	0.0148501
888.036	0.0147865
888.114	0.0147869
888.193	0.0149400
888.271	0.0148441
888.349	0.0148450
888.427	0.0149020
888.505	0.0148004
888.583	0.0147886
888.661	0.0151274
888.739	0.0148806
888.818	0.0148666
888.896	0.0149364
888.974	0.0148768
889.052	0.0149657
889.130	0.0149610
889.208	0.0147649
889.286	0.0148501
889.364	0.0150503
889.443	0.0148863
889.521	0.0150198
889.599	0.0149923
889.677	0.0148592
889.755	0.0149149
889.833	0.0148907
889.911	0.0149519
889.989	0.0150198
890.068	0.0150028
890.146	0.0150364
890.224	0.0149153
890.302	0.0149986
890.380	0.0149226
890.458	0.0149258
890.536	0.0149131
890.614	0.0149810
890.693	0.0150135
890.771	0.0149500
890.849	0.0149039
890.927	0.0148846
891.005	0.0148024
891.083	0.0148663
891.161	0.0148441
891.239	0.0149686
891.318	0.0148295
891.396	0.0148024
891.474	0.0147656
891.552	0.0148559
891.630	0.0146275
891.708	0.0148568
891.786	0.0147215
891.864	0.0146266
891.943	0.0148721
892.021	0.0147456
892.099	0.0147101
892.177	0.0148089
892.255	0.0147616
892.333	0.0146478
892.411	0.0146461
892.489	0.0148515
892.568	0.0148295
892.646	0.0148775
892.724	0.0147112
892.802	0.0148293
892.880	0.0149670
892.958	0.0147177
893.036	0.0147816
893.114	0.0148619
893.193	0.0148418
893.271	0.0147552
893.349	0.0148894
893.427	0.0147467
893.505	0.0147610
893.583	0.0148538
893.661	0.0147346
893.739	0.0147279
893.818	0.0148331
893.896	0.0149159
893.974	0.0149765
894.052	0.0149963
894.130	0.0149820
894.208	0.0150954
894.286	0.0151562
894.364	0.0151110
894.443	0.0151904
894.521	0.0150475
894.599	0.0150359
894.677	0.0150698
894.755	0.0149133
894.833	0.0149809
894.911	0.0148025
894.989	0.0147186
895.068	0.0148452
895.146	0.0147427
895.224	0.0145621
895.302	0.0147050
895.380	0.0147334
895.458	0.0147268
895.536	0.0146847
895.614	0.0147311
895.693	0.0147945
895.771	0.0146002
895.849	0.0147273
895.927	0.0146015
896.005	0.0147651
896.083	0.0147571
896.161	0.0147832
896.239	0.0148173
896.318	0.0146801
896.396	0.0148321
896.474	0.0147129
896.552	0.0149236
896.630	0.0147985
896.708	0.0146469
896.786	0.0147066
896.864	0.0146803
896.943	0.0147845
897.021	0.0147182
897.099	0.0147291
897.177	0.0147617
897.255	0.0146912
897.333	0.0146561
897.411	0.0147415
897.489	0.0147813
897.568	0.0147681
897.646	0.0148710
897.724	0.0147638
897.802	0.0148336
897.880	0.0148992
897.958	0.0149302
898.036	0.0150862
898.114	0.0150157
898.193	0.0150893
898.271	0.0151344
898.349	0.0149663
898.427	0.0150183
898.505	0.0151102
898.583	0.0150187
898.661	0.0151933
898.739	0.0150664
898.818	0.0148388
898.896	0.0149596
898.974	0.0148026
899.052	0.0148583
899.130	0.0149579
899.208	0.0149530
899.286	0.0147925
899.364	0.0149230
899.443	0.0150151
899.521	0.0149931
899.599	0.0150106
899.677	0.0150977
899.755	0.0149657
899.833	0.0151015
899.911	0.0150088
899.989	0.0152287
900.068	0.0150029
900.146	0.0149505
900.224	0.0151331
900.302	0.0149819
900.380	0.0148637
900.458	0.0149590
900.536	0.0147768
900.614	0.0145908
900.693	0.0147320
900.771	0.0147618
900.849	0.0146751
900.927	0.0145699
901.005	0.0147321
901.083	0.0147208
901.161	0.0146689
901.239	0.0146268
901.318	0.0147258
901.396	0.0149831
901.474	0.0150483
901.552	0.0149832
901.630	0.0149442
901.708	0.0149989
901.786	0.0150298
901.864	0.0149245
901.943	0.0150403
902.021	0.0149228
902.099	0.0147830
902.177	0.0147766
902.255	0.0148318
902.333	0.0147643
902.411	0.0146919
902.489	0.0147150
902.568	0.0147276
902.646	0.0146757
902.724	0.0146354
902.802	0.0146018
902.880	0.0146758
902.958	0.0146690
903.036	0.0147581
903.114	0.0146553
903.193	0.0145570
903.271	0.0146725
903.349	0.0148642
903.427	0.0148930
903.505	0.0146191
903.583	0.0146379
903.661	0.0146019
903.739	0.0146503
903.818	0.0146864
903.896	0.0147755
903.974	0.0146980
904.052	0.0148333
904.130	0.0148860
904.208	0.0147352
904.286	0.0147916
904.364	0.0147601
904.443	0.0148679
904.521	0.0147196
904.599	0.0148460
904.677	0.0147858
904.755	0.0148532
904.833	0.0147268
904.911	0.0146185
904.989	0.0146539
905.068	0.0146601
905.146	0.0145193
905.224	0.0145412
905.302	0.0146590
905.380	0.0146890
905.458	0.0145941
905.536	0.0145012
905.614	0.0147029
905.693	0.0145940
905.771	0.0145417
905.849	0.0145365
905.927	0.0146404
906.005	0.0147398
906.083	0.0145787
906.161	0.0146522
906.239	0.0146851
906.318	0.0146854
906.396	0.0147030
906.474	0.0147499
906.552	0.0146418
906.630	0.0148252
906.708	0.0148398
906.786	0.0148845
906.864	0.0149064
906.943	0.0148870
907.021	0.0149559
907.099	0.0149342
907.177	0.0148509
907.255	0.0149102
907.333	0.0148994
907.411	0.0149416
907.489	0.0149715
907.568	0.0149796
907.646	0.0148333
907.724	0.0149192
907.802	0.0148896
907.880	0.0147999
907.958	0.0147470
908.036	0.0148125
908.114	0.0148397
908.193	0.0149564
908.271	0.0149327
908.349	0.0148586
908.427	0.0148805
908.505	0.0148466
908.583	0.0148775
908.661	0.0149142
908.739	0.0149168
908.818	0.0148360
908.896	0.0150127
908.974	0.0149497
909.052	0.0148261
909.130	0.0147649
909.208	0.0149192
909.286	0.0149863
909.364	0.0149466
909.443	0.0149553
909.521	0.0149770
909.599	0.0150278
909.677	0.0150587
909.755	0.0149679
909.833	0.0151348
909.911	0.0149388
909.989	0.0149564
910.068	0.0150422
910.146	0.0150259
910.224	0.0151000
910.302	0.0149406
910.380	0.0150085
910.458	0.0150247
910.536	0.0150489
910.614	0.0149768
910.693	0.0148924
910.771	0.0149174
910.849	0.0148689
910.927	0.0149474
911.005	0.0149107
911.083	0.0149436
911.161	0.0149144
911.239	0.0148406
911.318	0.0147331
911.396	0.0148476
911.474	0.0148363
911.552	0.0148415
911.630	0.0148758
911.708	0.0146677
911.786	0.0148125
911.864	0.0148404
911.943	0.0148881
912.021	0.0147988
912.099	0.0147948
912.177	0.0149100
912.255	0.0148469
912.333	0.0148489
912.411	0.0148846
912.489	0.0149092
912.568	0.0147768
912.646	0.0147767
912.724	0.0148085
912.802	0.0148241
912.880	0.0147325
912.958	0.0147155
913.036	0.0148197
913.114	0.0147266
913.193	0.0146828
913.271	0.0146335
913.349	0.0145802
913.427	0.0146687
913.505	0.0146660
913.583	0.0146426
913.661	0.0147201
913.739	0.0148528
913.818	0.0149070
913.896	0.0148563
913.974	0.0148541
914.052	0.0148448
914.130	0.0148875
914.208	0.0147867
914.286	0.0149654
914.364	0.0149657
914.443	0.0148038
914.521	0.0148157
914.599	0.0150370
914.677	0.0148642
914.755	0.0148705
914.833	0.0148885
914.911	0.0150106
914.989	0.0148489
915.068	0.0149064
915.146	0.0149237
915.224	0.0148759
915.302	0.0149037
915.380	0.0148383
915.458	0.0149583
915.536	0.0149728
915.614	0.0150407
915.693	0.0149805
915.771	0.0147487
915.849	0.0147793
915.927	0.0147819
916.005	0.0148031
916.083	0.0148602
916.161	0.0147599
916.239	0.0146257
916.318	0.0147132
916.396	0.0147382
916.474	0.0146296
916.552	0.0148131
916.630	0.0146902
916.708	0.0147826
916.786	0.0148725
916.864	0.0147652
916.943	0.0148310
917.021	0.0148718
917.099	0.0149631
917.177	0.0150082
917.255	0.0149118
917.333	0.0148547
917.411	0.0149349
917.489	0.0149866
917.568	0.0149616
917.646	0.0150793
917.724	0.0151568
917.802	0.0149609
917.880	0.0149818
917.958	0.0150109
918.036	0.0150824
918.114	0.0151347
918.193	0.0150222
918.271	0.0149381
918.349	0.0149441
918.427	0.0149481
918.505	0.0148717
918.583	0.0149103
918.661	0.0149525
918.739	0.0147820
918.818	0.0148328
918.896	0.0149201
918.974	0.0148724
919.052	0.0148756
919.130	0.0148485
919.208	0.0149181
919.286	0.0147791
919.364	0.0147511
919.443	0.0148029
919.521	0.0148006
919.599	0.0149012
919.677	0.0149278
919.755	0.0147736
919.833	0.0148465
919.911	0.0147228
919.989	0.0148692
920.068	0.0148067
920.146	0.0148392
920.224	0.0147855
920.302	0.0147308
920.380	0.0147379
920.458	0.0148702
920.536	0.0147783
920.614	0.0148318
920.693	0.0148389
920.771	0.0148817
920.849	0.0149209
920.927	0.0148747
921.005	0.0149059
921.083	0.0149467
921.161	0.0149624
921.239	0.0147664
921.318	0.0146933
921.396	0.0147578
921.474	0.0146801
921.552	0.0146862
921.630	0.0147450
921.708	0.0146414
921.786	0.0147386
921.864	0.0147874
921.943	0.0147141
922.021	0.0147491
922.099	0.0148707
922.177	0.0147562
922.255	0.0148060
922.333	0.0148142
922.411	0.0150381
922.489	0.0150819
922.568	0.0149759
922.646	0.0150003
922.724	0.0150786
922.802	0.0150959
922.880	0.0150090
922.958	0.0149204
923.036	0.0148721
923.114	0.0150394
923.193	0.0150650
923.271	0.0150903
923.349	0.0149346
923.427	0.0150512
923.505	0.0148923
923.583	0.0148422
923.661	0.0149460
923.739	0.0149666
923.818	0.0149107
923.896	0.0148153
923.974	0.0148014
924.052	0.0148000
924.130	0.0147988
924.208	0.0147070
924.286	0.0148528
924.364	0.0148391
924.443	0.0147370
924.521	0.0146289
924.599	0.0148293
924.677	0.0147564
924.755	0.0146902
924.833	0.0146873
924.911	0.0147585
924.989	0.0147780
925.068	0.0146634
925.146	0.0145658
925.224	0.0147219
925.302	0.0148540
925.380	0.0146555
925.458	0.0147121
925.536	0.0146896
925.614	0.0145277
925.693	0.0146918
925.771	0.0146664
925.849	0.0145954
925.927	0.0147491
926.005	0.0146349
926.083	0.0147235
926.161	0.0147057
926.239	0.0146231
926.318	0.0147308
926.396	0.0148192
926.474	0.0148927
926.552	0.0147858
926.630	0.0147802
926.708	0.0148424
926.786	0.0149174
926.864	0.0148917
926.943	0.0148479
927.021	0.0148634
927.099	0.0148980
927.177	0.0149560
927.255	0.0150430
927.333	0.0148162
927.411	0.0150079
927.489	0.0150362
927.568	0.0148404
927.646	0.0150513
927.724	0.0151422
927.802	0.0150038
927.880	0.0149013
927.958	0.0149127
928.036	0.0148286
928.114	0.0149967
928.193	0.0147443
928.271	0.0149373
928.349	0.0148940
928.427	0.0148077
928.505	0.0149686
928.583	0.0150452
928.661	0.0150829
928.739	0.0150353
928.818	0.0149986
928.896	0.0150249
928.974	0.0150191
929.052	0.0149853
929.130	0.0151323
929.208	0.0151658
929.286	0.0152110
929.364	0.0150174
929.443	0.0149386
929.521	0.0149127
929.599	0.0150434
929.677	0.0149587
929.755	0.0149593
929.833	0.0150543
929.911	0.0149475
929.989	0.0149001
930.068	0.0147631
930.146	0.0148718
930.224	0.0149019
930.302	0.0149799
930.380	0.0149152
930.458	0.0148817
930.536	0.0149876
930.614	0.0150989
930.693	0.0151905
930.771	0.0150735
930.849	0.0150080
930.927	0.0149612
931.005	0.0150880
931.083	0.0150867
931.161	0.0149225
931.239	0.0149197
931.318	0.0148324
931.396	0.0148433
931.474	0.0148789
931.552	0.0149726
931.630	0.0146841
931.708	0.0148677
931.786	0.0148299
931.864	0.0148245
931.943	0.0148992
932.021	0.0147681
932.099	0.0147491
932.177	0.0147603
932.255	0.0147345
932.333	0.0149277
932.411	0.0149281
932.489	0.0147845
932.568	0.0147799
932.646	0.0147572
932.724	0.0149787
932.802	0.0148455
932.880	0.0148110
932.958	0.0148128
933.036	0.0148285
933.114	0.0147702
933.193	0.0148701
933.271	0.0148087
933.349	0.0149656
933.427	0.0147529
933.505	0.0146484
933.583	0.0149677
933.661	0.0149502
933.739	0.0149721
933.818	0.0150694
933.896	0.0150013
933.974	0.0149981
934.052	0.0150197
934.130	0.0149570
934.208	0.0150253
934.286	0.0152844
934.364	0.0151762
934.443	0.0150484
934.521	0.0151174
934.599	0.0150468
934.677	0.0150253
934.755	0.0152003
934.833	0.0151405
934.911	0.0148672
934.989	0.0148816
935.068	0.0151467
935.146	0.0150117
935.224	0.0148888
935.302	0.0148739
935.380	0.0148439
935.458	0.0150616
935.536	0.0149964
935.614	0.0150341
935.693	0.0149326
935.771	0.0149035
935.849	0.0149308
935.927	0.0150166
936.005	0.0151132
936.083	0.0150301
936.161	0.0150271
936.239	0.0150380
936.318	0.0148531
936.396	0.0149846
936.474	0.0148526
936.552	0.0150143
936.630	0.0148386
936.708	0.0149471
936.786	0.0149765
936.864	0.0148367
936.943	0.0146546
937.021	0.0147762
937.099	0.0148125
937.177	0.0148695
937.255	0.0148122
937.333	0.0149471
937.411	0.0148338
937.489	0.0148827
937.568	0.0148940
937.646	0.0148538
937.724	0.0149112
937.802	0.0149283
937.880	0.0148770
937.958	0.0149063
938.036	0.0148380
938.114	0.0148982
938.193	0.0150394
938.271	0.0148516
938.349	0.0149757
938.427	0.0150288
938.505	0.0149954
938.583	0.0150183
938.661	0.0148866
938.739	0.0149802
938.818	0.0150388
938.896	0.0148876
938.974	0.0149866
939.052	0.0150229
939.130	0.0149092
939.208	0.0151381
939.286	0.0152088
939.364	0.0152920
939.443	0.0149638
939.521	0.0150710
939.599	0.0151275
939.677	0.0150332
939.755	0.0152363
939.833	0.0152437
939.911	0.0151134
939.989	0.0151128
940.068	0.0151011
940.146	0.0151569
940.224	0.0150622
940.302	0.0150498
940.380	0.0150198
940.458	0.0149725
940.536	0.0149010
940.614	0.0148943
940.693	0.0149585
940.771	0.0150211
940.849	0.0149353
940.927	0.0148763
941.005	0.0147887
941.083	0.0150279
941.161	0.0150396
941.239	0.0150205
941.318	0.0148092
941.396	0.0149401
941.474	0.0149673
941.552	0.0150567
941.630	0.0150777
941.708	0.0149982
941.786	0.0149397
941.864	0.0149024
941.943	0.0150758
942.021	0.0151290
942.099	0.0149086
942.177	0.0149086
942.255	0.0149072
942.333	0.0148538
942.411	0.0149364
942.489	0.0149287
942.568	0.0149209
942.646	0.0148952
942.724	0.0148605
942.802	0.0148443
942.880	0.0148737
942.958	0.0148358
943.036	0.0149346
943.114	0.0149125
943.193	0.0148249
943.271	0.0148447
943.349	0.0148121
943.427	0.0148472
943.505	0.0149651
943.583	0.0149345
943.661	0.0147854
943.739	0.0148174
943.818	0.0148425
943.896	0.0148501
943.974	0.0147681
944.052	0.0148013
944.130	0.0150037
944.208	0.0149811
944.286	0.0150770
944.364	0.0148856
944.443	0.0147832
944.521	0.0150016
944.599	0.0151751
944.677	0.0150764
944.755	0.0149984
944.833	0.0149873
944.911	0.0150620
944.989	0.0151955
945.068	0.0150550
945.146	0.0150723
945.224	0.0152738
945.302	0.0151487
945.380	0.0150376
945.458	0.0150969
945.536	0.0150738
945.614	0.0150150
945.693	0.0149700
945.771	0.0151839
945.849	0.0149252
945.927	0.0149872
946.005	0.0148084
946.083	0.0149239
946.161	0.0147775
946.239	0.0149378
946.318	0.0149963
946.396	0.0148337
946.474	0.0147262
946.552	0.0148735
946.630	0.0148989
946.708	0.0149255
946.786	0.0149460
946.864	0.0149049
946.943	0.0148509
947.021	0.0149185
947.099	0.0148219
947.177	0.0149811
947.255	0.0148936
947.333	0.0149290
947.411	0.0147906
947.489	0.0149046
947.568	0.0148215
947.646	0.0149052
947.724	0.0148433
947.802	0.0146093
947.880	0.0146918
947.958	0.0147884
948.036	0.0146534
948.114	0.0147871
948.193	0.0147617
948.271	0.0147778
948.349	0.0148138
948.427	0.0147655
948.505	0.0147788
948.583	0.0148846
948.661	0.0148225
948.739	0.0149919
948.818	0.0147580
948.896	0.0149576
948.974	0.0149075
949.052	0.0149361
949.130	0.0149819
949.208	0.0150062
949.286	0.0149040
949.364	0.0149416
949.443	0.0149530
949.521	0.0148830
949.599	0.0149601
949.677	0.0149611
949.755	0.0150037
949.833	0.0149208
949.911	0.0150721
949.989	0.0150501
950.068	0.0150252
950.146	0.0151833
950.224	0.0151189
950.302	0.0150140
950.380	0.0150925
950.458	0.0151130
950.536	0.0150889
950.614	0.0151845
950.693	0.0151387
950.771	0.0151175
950.849	0.0151693
950.927	0.0150799
951.005	0.0150632
951.083	0.0149869
951.161	0.0149009
951.239	0.0149620
951.318	0.0149434
951.396	0.0149187
951.474	0.0149548
951.552	0.0149610
951.630	0.0149487
951.708	0.0147553
951.786	0.0149453
951.864	0.0149603
951.943	0.0147925
952.021	0.0147750
952.099	0.0146794
952.177	0.0149374
952.255	0.0149664
952.333	0.0148858
952.411	0.0148528
952.489	0.0149501
952.568	0.0150564
952.646	0.0149339
952.724	0.0150690
952.802	0.0150641
952.880	0.0148985
952.958	0.0149529
953.036	0.0148905
953.114	0.0150471
953.193	0.0149886
953.271	0.0150952
953.349	0.0150182
953.427	0.0148399
953.505	0.0150660
953.583	0.0150040
953.661	0.0150460
953.739	0.0150166
953.818	0.0149918
953.896	0.0151133
953.974	0.0151065
954.052	0.0150002
954.130	0.0150388
954.208	0.0150790
954.286	0.0151959
954.364	0.0149490
954.443	0.0150610
954.521	0.0151174
954.599	0.0151168
954.677	0.0149960
954.755	0.0149178
954.833	0.0149944
954.911	0.0149215
954.989	0.0149457
955.068	0.0147974
955.146	0.0149208
955.224	0.0149084
955.302	0.0148492
955.380	0.0149243
955.458	0.0148574
955.536	0.0149114
955.614	0.0150379
955.693	0.0149263
955.771	0.0148459
955.849	0.0148569
955.927	0.0150930
956.005	0.0151674
956.083	0.0149969
956.161	0.0149724
956.239	0.0150848
956.318	0.0149343
956.396	0.0150390
956.474	0.0149632
956.552	0.0148386
956.630	0.0149075
956.708	0.0149091
956.786	0.0148950
956.864	0.0149136
956.943	0.0149221
957.021	0.0146834
957.099	0.0147148
957.177	0.0147478
957.255	0.0147970
957.333	0.0147240
957.411	0.0146514
957.489	0.0147785
957.568	0.0145507
957.646	0.0147019
957.724	0.0146622
957.802	0.0147599
957.880	0.0147328
957.958	0.0148997
958.036	0.0147713
958.114	0.0147373
958.193	0.0149233
958.271	0.0148954
958.349	0.0148445
958.427	0.0147046
958.505	0.0148824
958.583	0.0149017
958.661	0.0149057
958.739	0.0148953
958.818	0.0148456
958.896	0.0149075
958.974	0.0150231
959.052	0.0148902
959.130	0.0149461
959.208	0.0148695
959.286	0.0148205
959.364	0.0149418
959.443	0.0147943
959.521	0.0148936
959.599	0.0149128
959.677	0.0148211
959.755	0.0149656
959.833	0.0149585
959.911	0.0148074
