05/14/2022	16:57:18	Ver.	4.1	UNKNOWN
Optical Delay	639.989416	Delta X		0.078125	Sweeps	1	Scan Rate	0/0
Coordinates	Axis 1	NaN	Axis 2	NaN	Axis 3	NaN	Axis 4	NaN	Axis 5	NaN	Axis 6	0.000000
TX Power	0.000000	RX Power	0.000000

639.989	0.0149088
640.068	0.0146949
640.146	0.0146127
640.224	0.0146619
640.302	0.0146816
640.380	0.0145838
640.458	0.0146961
640.536	0.0148069
640.614	0.0145670
640.693	0.0146112
640.771	0.0146883
640.849	0.0147089
640.927	0.0146107
641.005	0.0147469
641.083	0.0146374
641.161	0.0147605
641.239	0.0147293
641.318	0.0147121
641.396	0.0146970
641.474	0.0146620
641.552	0.0146957
641.630	0.0148599
641.708	0.0148341
641.786	0.0147633
641.864	0.0147173
641.943	0.0146326
642.021	0.0148317
642.099	0.0147730
642.177	0.0146964
642.255	0.0148372
642.333	0.0149432
642.411	0.0146871
642.489	0.0148064
642.568	0.0147777
642.646	0.0147289
642.724	0.0146906
642.802	0.0148714
642.880	0.0148015
642.958	0.0147816
643.036	0.0149644
643.114	0.0147511
643.193	0.0150578
643.271	0.0150033
643.349	0.0149178
643.427	0.0149663
643.505	0.0149226
643.583	0.0150005
643.661	0.0149985
643.739	0.0149696
643.818	0.0149641
643.896	0.0148519
643.974	0.0148599
644.052	0.0147964
644.130	0.0147866
644.208	0.0147547
644.286	0.0148310
644.364	0.0147227
644.443	0.0148182
644.521	0.0147759
644.599	0.0146130
644.677	0.0146706
644.755	0.0146770
644.833	0.0146474
644.911	0.0146267
644.989	0.0146964
645.068	0.0146954
645.146	0.0147131
645.224	0.0146730
645.302	0.0146869
645.380	0.0146371
645.458	0.0147855
645.536	0.0147312
645.614	0.0146660
645.693	0.0148351
645.771	0.0147286
645.849	0.0148247
645.927	0.0147923
646.005	0.0146994
646.083	0.0148638
646.161	0.0149541
646.239	0.0149633
646.318	0.0147224
646.396	0.0148777
646.474	0.0149702
646.552	0.0150007
646.630	0.0149894
646.708	0.0149248
646.786	0.0150412
646.864	0.0150447
646.943	0.0150674
647.021	0.0150859
647.099	0.0150883
647.177	0.0152222
647.255	0.0151793
647.333	0.0151281
647.411	0.0152367
647.489	0.0151257
647.568	0.0151019
647.646	0.0152577
647.724	0.0151452
647.802	0.0152422
647.880	0.0151743
647.958	0.0151537
648.036	0.0152194
648.114	0.0151184
648.193	0.0151871
648.271	0.0152962
648.349	0.0151825
648.427	0.0151163
648.505	0.0151396
648.583	0.0152202
648.661	0.0150608
648.739	0.0151900
648.818	0.0152994
648.896	0.0151804
648.974	0.0152266
649.052	0.0152057
649.130	0.0151192
649.208	0.0151514
649.286	0.0151051
649.364	0.0151778
649.443	0.0151236
649.521	0.0150155
649.599	0.0149294
649.677	0.0151292
649.755	0.0149832
649.833	0.0147695
649.911	0.0149301
649.989	0.0149157
650.068	0.0149927
650.146	0.0149688
650.224	0.0149084
650.302	0.0147398
650.380	0.0147300
650.458	0.0148561
650.536	0.0147921
650.614	0.0149071
650.693	0.0149191
650.771	0.0149425
650.849	0.0148890
650.927	0.0148543
651.005	0.0148611
651.083	0.0149776
651.161	0.0150271
651.239	0.0151399
651.318	0.0150280
651.396	0.0150063
651.474	0.0149310
651.552	0.0150069
651.630	0.0150451
651.708	0.0150406
651.786	0.0149846
651.864	0.0149315
651.943	0.0150167
652.021	0.0149858
652.099	0.0149383
652.177	0.0148009
652.255	0.0149391
652.333	0.0149998
652.411	0.0149926
652.489	0.0149521
652.568	0.0148724
652.646	0.0149048
652.724	0.0149649
652.802	0.0148171
652.880	0.0147282
652.958	0.0147361
653.036	0.0147873
653.114	0.0147356
653.193	0.0147813
653.271	0.0148051
653.349	0.0148037
653.427	0.0146973
653.505	0.0145380
653.583	0.0147515
653.661	0.0146758
653.739	0.0146826
653.818	0.0147453
653.896	0.0148021
653.974	0.0148771
654.052	0.0147485
654.130	0.0147809
654.208	0.0147566
654.286	0.0148690
654.364	0.0148256
654.443	0.0147878
654.521	0.0147879
654.599	0.0148429
654.677	0.0149229
654.755	0.0149817
654.833	0.0148828
654.911	0.0150927
654.989	0.0149138
655.068	0.0149792
655.146	0.0151755
655.224	0.0149818
655.302	0.0149924
655.380	0.0150869
655.458	0.0150774
655.536	0.0151620
655.614	0.0150331
655.693	0.0150256
655.771	0.0150633
655.849	0.0150082
655.927	0.0149387
656.005	0.0149757
656.083	0.0148605
656.161	0.0148331
656.239	0.0148278
656.318	0.0148169
656.396	0.0146587
656.474	0.0146072
656.552	0.0146635
656.630	0.0147473
656.708	0.0146439
656.786	0.0146909
656.864	0.0146851
656.943	0.0146806
657.021	0.0146813
657.099	0.0148106
657.177	0.0147902
657.255	0.0147855
657.333	0.0148791
657.411	0.0147861
657.489	0.0148151
657.568	0.0147382
657.646	0.0148084
657.724	0.0148901
657.802	0.0148392
657.880	0.0149391
657.958	0.0149035
658.036	0.0149645
658.114	0.0149928
658.193	0.0150298
658.271	0.0149106
658.349	0.0148832
658.427	0.0149054
658.505	0.0149268
658.583	0.0150246
658.661	0.0149012
658.739	0.0148872
658.818	0.0148174
658.896	0.0148312
658.974	0.0150017
659.052	0.0148726
659.130	0.0148386
659.208	0.0149937
659.286	0.0149358
659.364	0.0148478
659.443	0.0148440
659.521	0.0147688
659.599	0.0147715
659.677	0.0148222
659.755	0.0148669
659.833	0.0146300
659.911	0.0148424
659.989	0.0148518
660.068	0.0147198
660.146	0.0146785
660.224	0.0147359
660.302	0.0148218
660.380	0.0147709
660.458	0.0148417
660.536	0.0147427
660.614	0.0149672
660.693	0.0149010
660.771	0.0149462
660.849	0.0148778
660.927	0.0147852
661.005	0.0148779
661.083	0.0149628
661.161	0.0150803
661.239	0.0149693
661.318	0.0149406
661.396	0.0149996
661.474	0.0150220
661.552	0.0149852
661.630	0.0149569
661.708	0.0150275
661.786	0.0150320
661.864	0.0150015
661.943	0.0149290
662.021	0.0147178
662.099	0.0148806
662.177	0.0148332
662.255	0.0147280
662.333	0.0148180
662.411	0.0147572
662.489	0.0147871
662.568	0.0147212
662.646	0.0146891
662.724	0.0146532
662.802	0.0146928
662.880	0.0145898
662.958	0.0146524
663.036	0.0146775
663.114	0.0147535
663.193	0.0145713
663.271	0.0146200
663.349	0.0149010
663.427	0.0148734
663.505	0.0148840
663.583	0.0148147
663.661	0.0149148
663.739	0.0149561
663.818	0.0149242
663.896	0.0151550
663.974	0.0151454
664.052	0.0149535
664.130	0.0151160
664.208	0.0152698
664.286	0.0151591
664.364	0.0151564
664.443	0.0151532
664.521	0.0151160
664.599	0.0152220
664.677	0.0151541
664.755	0.0150762
664.833	0.0149159
664.911	0.0149083
664.989	0.0149189
665.068	0.0148142
665.146	0.0149751
665.224	0.0148194
665.302	0.0147450
665.380	0.0146490
665.458	0.0145615
665.536	0.0147408
665.614	0.0145515
665.693	0.0145265
665.771	0.0145077
665.849	0.0145567
665.927	0.0144643
666.005	0.0143568
666.083	0.0145945
666.161	0.0146500
666.239	0.0146136
666.318	0.0146079
666.396	0.0146575
666.474	0.0147558
666.552	0.0148009
666.630	0.0147435
666.708	0.0150649
666.786	0.0149604
666.864	0.0150249
666.943	0.0150842
667.021	0.0152211
667.099	0.0152412
667.177	0.0153446
667.255	0.0153751
667.333	0.0154177
667.411	0.0154984
667.489	0.0154005
667.568	0.0154404
667.646	0.0154060
667.724	0.0154869
667.802	0.0155368
667.880	0.0155427
667.958	0.0154447
668.036	0.0153642
668.114	0.0153159
668.193	0.0151767
668.271	0.0151317
668.349	0.0151180
668.427	0.0149435
668.505	0.0147167
668.583	0.0147710
668.661	0.0147684
668.739	0.0146588
668.818	0.0144206
668.896	0.0144146
668.974	0.0142363
669.052	0.0142171
669.130	0.0141288
669.208	0.0141451
669.286	0.0141140
669.364	0.0141975
669.443	0.0141398
669.521	0.0142671
669.599	0.0143467
669.677	0.0142799
669.755	0.0143777
669.833	0.0144746
669.911	0.0144779
669.989	0.0146638
670.068	0.0146962
670.146	0.0147895
670.224	0.0149508
670.302	0.0150481
670.380	0.0151716
670.458	0.0153126
670.536	0.0153922
670.614	0.0154813
670.693	0.0154589
670.771	0.0155945
670.849	0.0157958
670.927	0.0158609
671.005	0.0158200
671.083	0.0158246
671.161	0.0159241
671.239	0.0158272
671.318	0.0157159
671.396	0.0157265
671.474	0.0156752
671.552	0.0155302
671.630	0.0153049
671.708	0.0153622
671.786	0.0152433
671.864	0.0153042
671.943	0.0149494
672.021	0.0147842
672.099	0.0148188
672.177	0.0146320
672.255	0.0144769
672.333	0.0145672
672.411	0.0145582
672.489	0.0144026
672.568	0.0142425
672.646	0.0142600
672.724	0.0143061
672.802	0.0144122
672.880	0.0143967
672.958	0.0143812
673.036	0.0144231
673.114	0.0143966
673.193	0.0145132
673.271	0.0144795
673.349	0.0145905
673.427	0.0148373
673.505	0.0148970
673.583	0.0149056
673.661	0.0149890
673.739	0.0150732
673.818	0.0151226
673.896	0.0151801
673.974	0.0152177
674.052	0.0151843
674.130	0.0154314
674.208	0.0153455
674.286	0.0152628
674.364	0.0153488
674.443	0.0154267
674.521	0.0153480
674.599	0.0152714
674.677	0.0154519
674.755	0.0153936
674.833	0.0153191
674.911	0.0154766
674.989	0.0153438
675.068	0.0153224
675.146	0.0153561
675.224	0.0153896
675.302	0.0152098
675.380	0.0153400
675.458	0.0154906
675.536	0.0154134
675.614	0.0155315
675.693	0.0154547
675.771	0.0155348
675.849	0.0155634
675.927	0.0156037
676.005	0.0155361
676.083	0.0153666
676.161	0.0154242
676.239	0.0154764
676.318	0.0154832
676.396	0.0154980
676.474	0.0153284
676.552	0.0153149
676.630	0.0152690
676.708	0.0149529
676.786	0.0149952
676.864	0.0148133
676.943	0.0145797
677.021	0.0144241
677.099	0.0142581
677.177	0.0143331
677.255	0.0140162
677.333	0.0140159
677.411	0.0139280
677.489	0.0139500
677.568	0.0136919
677.646	0.0136594
677.724	0.0136098
677.802	0.0133795
677.880	0.0135966
677.958	0.0133588
678.036	0.0135431
678.114	0.0137005
678.193	0.0135687
678.271	0.0137449
678.349	0.0138369
678.427	0.0140804
678.505	0.0141315
678.583	0.0144478
678.661	0.0145840
678.739	0.0148305
678.818	0.0149704
678.896	0.0152448
678.974	0.0155349
679.052	0.0156460
679.130	0.0157505
679.208	0.0161243
679.286	0.0163367
679.364	0.0164877
679.443	0.0167204
679.521	0.0168568
679.599	0.0169274
679.677	0.0169456
679.755	0.0169090
679.833	0.0169249
679.911	0.0171426
679.989	0.0170376
680.068	0.0168514
680.146	0.0166685
680.224	0.0166756
680.302	0.0165437
680.380	0.0161906
680.458	0.0159190
680.536	0.0158981
680.614	0.0157289
680.693	0.0155045
680.771	0.0154139
680.849	0.0148719
680.927	0.0146198
681.005	0.0144642
681.083	0.0143050
681.161	0.0140815
681.239	0.0138507
681.318	0.0137574
681.396	0.0135313
681.474	0.0132874
681.552	0.0132825
681.630	0.0133294
681.708	0.0132188
681.786	0.0131661
681.864	0.0131918
681.943	0.0133265
682.021	0.0132914
682.099	0.0134432
682.177	0.0135303
682.255	0.0137160
682.333	0.0139264
682.411	0.0140359
682.489	0.0140703
682.568	0.0142917
682.646	0.0146314
682.724	0.0147475
682.802	0.0149081
682.880	0.0150738
682.958	0.0152993
683.036	0.0154352
683.114	0.0154963
683.193	0.0157217
683.271	0.0158459
683.349	0.0159992
683.427	0.0161019
683.505	0.0162734
683.583	0.0162186
683.661	0.0163306
683.739	0.0163503
683.818	0.0164573
683.896	0.0164963
683.974	0.0164944
684.052	0.0164526
684.130	0.0164246
684.208	0.0163360
684.286	0.0162861
684.364	0.0161897
684.443	0.0161022
684.521	0.0159869
684.599	0.0157009
684.677	0.0156446
684.755	0.0155753
684.833	0.0153246
684.911	0.0151905
684.989	0.0151436
685.068	0.0149516
685.146	0.0147260
685.224	0.0146255
685.302	0.0143505
685.380	0.0143018
685.458	0.0143838
685.536	0.0142206
685.614	0.0140498
685.693	0.0139365
685.771	0.0139027
685.849	0.0137220
685.927	0.0136146
686.005	0.0137086
686.083	0.0137215
686.161	0.0136816
686.239	0.0137279
686.318	0.0135673
686.396	0.0137151
686.474	0.0137730
686.552	0.0139263
686.630	0.0140417
686.708	0.0139286
686.786	0.0141654
686.864	0.0142403
686.943	0.0142593
687.021	0.0144881
687.099	0.0145304
687.177	0.0144319
687.255	0.0146526
687.333	0.0146950
687.411	0.0145414
687.489	0.0147389
687.568	0.0149702
687.646	0.0151001
687.724	0.0151537
687.802	0.0152327
687.880	0.0153012
687.958	0.0154031
688.036	0.0155183
688.114	0.0156115
688.193	0.0158340
688.271	0.0157336
688.349	0.0158907
688.427	0.0159658
688.505	0.0159130
688.583	0.0158749
688.661	0.0159692
688.739	0.0160767
688.818	0.0161250
688.896	0.0160545
688.974	0.0161188
689.052	0.0159766
689.130	0.0160001
689.208	0.0160377
689.286	0.0158578
689.364	0.0158693
689.443	0.0156765
689.521	0.0157052
689.599	0.0157112
689.677	0.0154195
689.755	0.0154016
689.833	0.0152918
689.911	0.0152402
689.989	0.0151748
690.068	0.0149987
690.146	0.0149986
690.224	0.0148104
690.302	0.0147393
690.380	0.0146214
690.458	0.0146805
690.536	0.0144891
690.614	0.0144480
690.693	0.0142345
690.771	0.0142435
690.849	0.0142308
690.927	0.0139879
691.005	0.0140605
691.083	0.0140767
691.161	0.0140813
691.239	0.0141052
691.318	0.0139774
691.396	0.0140872
691.474	0.0141156
691.552	0.0140987
691.630	0.0143117
691.708	0.0142393
691.786	0.0143074
691.864	0.0143943
691.943	0.0146310
692.021	0.0145390
692.099	0.0145844
692.177	0.0148261
692.255	0.0148740
692.333	0.0150345
692.411	0.0149952
692.489	0.0151199
692.568	0.0152715
692.646	0.0153014
692.724	0.0154167
692.802	0.0154626
692.880	0.0155067
692.958	0.0156526
693.036	0.0156973
693.114	0.0156718
693.193	0.0158102
693.271	0.0158833
693.349	0.0158969
693.427	0.0157932
693.505	0.0158294
693.583	0.0160838
693.661	0.0158955
693.739	0.0158494
693.818	0.0158230
693.896	0.0158662
693.974	0.0156689
694.052	0.0156472
694.130	0.0156277
694.208	0.0153890
694.286	0.0154787
694.364	0.0153925
694.443	0.0152307
694.521	0.0150950
694.599	0.0151282
694.677	0.0150843
694.755	0.0149016
694.833	0.0149084
694.911	0.0146940
694.989	0.0145632
695.068	0.0145905
695.146	0.0145557
695.224	0.0144792
695.302	0.0144423
695.380	0.0142789
695.458	0.0144402
695.536	0.0143320
695.614	0.0141682
695.693	0.0142334
695.771	0.0143056
695.849	0.0142656
695.927	0.0142088
696.005	0.0143835
696.083	0.0141049
696.161	0.0142426
696.239	0.0143771
696.318	0.0144714
696.396	0.0144770
696.474	0.0145015
696.552	0.0145049
696.630	0.0146277
696.708	0.0146242
696.786	0.0146915
696.864	0.0147202
696.943	0.0147250
697.021	0.0148565
697.099	0.0149480
697.177	0.0150052
697.255	0.0150972
697.333	0.0150404
697.411	0.0150397
697.489	0.0150971
697.568	0.0151240
697.646	0.0150983
697.724	0.0150407
697.802	0.0150460
697.880	0.0151451
697.958	0.0149740
698.036	0.0149757
698.114	0.0149605
698.193	0.0150341
698.271	0.0149132
698.349	0.0148486
698.427	0.0149261
698.505	0.0148725
698.583	0.0148199
698.661	0.0146519
698.739	0.0147954
698.818	0.0149995
698.896	0.0149035
698.974	0.0149181
699.052	0.0150946
699.130	0.0151366
699.208	0.0149734
699.286	0.0151405
699.364	0.0152176
699.443	0.0151545
699.521	0.0151567
699.599	0.0155469
699.677	0.0154899
699.755	0.0152791
699.833	0.0153644
699.911	0.0153597
699.989	0.0153793
700.068	0.0153642
700.146	0.0154105
700.224	0.0153130
700.302	0.0152736
700.380	0.0152714
700.458	0.0151719
700.536	0.0150751
700.614	0.0150345
700.693	0.0149897
700.771	0.0147986
700.849	0.0146763
700.927	0.0148336
701.005	0.0147666
701.083	0.0147161
701.161	0.0145916
701.239	0.0146230
701.318	0.0146964
701.396	0.0145409
701.474	0.0146021
701.552	0.0147166
701.630	0.0146455
701.708	0.0145300
701.786	0.0145284
701.864	0.0145763
701.943	0.0145010
702.021	0.0148080
702.099	0.0146312
702.177	0.0146877
702.255	0.0148125
702.333	0.0148315
702.411	0.0146786
702.489	0.0150233
702.568	0.0149367
702.646	0.0150689
702.724	0.0150560
702.802	0.0150511
702.880	0.0153658
702.958	0.0154053
703.036	0.0154768
703.114	0.0154263
703.193	0.0156023
703.271	0.0158248
703.349	0.0158500
703.427	0.0157899
703.505	0.0157753
703.583	0.0158421
703.661	0.0159453
703.739	0.0158350
703.818	0.0156635
703.896	0.0158981
703.974	0.0157904
704.052	0.0157484
704.130	0.0157738
704.208	0.0153743
704.286	0.0153841
704.364	0.0154125
704.443	0.0152567
704.521	0.0152085
704.599	0.0149644
704.677	0.0149052
704.755	0.0149593
704.833	0.0147897
704.911	0.0148889
704.989	0.0148743
705.068	0.0146241
705.146	0.0146751
705.224	0.0147294
705.302	0.0148302
705.380	0.0147995
705.458	0.0148372
705.536	0.0146938
705.614	0.0149196
705.693	0.0149316
705.771	0.0148220
705.849	0.0150298
705.927	0.0151340
706.005	0.0152705
706.083	0.0153790
706.161	0.0152903
706.239	0.0152734
706.318	0.0152030
706.396	0.0152219
706.474	0.0152539
706.552	0.0151978
706.630	0.0153599
706.708	0.0152676
706.786	0.0152393
706.864	0.0151355
706.943	0.0151202
707.021	0.0152296
707.099	0.0153422
707.177	0.0150751
707.255	0.0150096
707.333	0.0150671
707.411	0.0150285
707.489	0.0151718
707.568	0.0151035
707.646	0.0149233
707.724	0.0150032
707.802	0.0150618
707.880	0.0150617
707.958	0.0150356
708.036	0.0150230
708.114	0.0149110
708.193	0.0149951
708.271	0.0151054
708.349	0.0151376
708.427	0.0150002
708.505	0.0150574
708.583	0.0150275
708.661	0.0151867
708.739	0.0151506
708.818	0.0150738
708.896	0.0151172
708.974	0.0150742
709.052	0.0151609
709.130	0.0150688
709.208	0.0151130
709.286	0.0151004
709.364	0.0152209
709.443	0.0152381
709.521	0.0150795
709.599	0.0150578
709.677	0.0150375
709.755	0.0150109
709.833	0.0148993
709.911	0.0147556
709.989	0.0147324
710.068	0.0147847
710.146	0.0146460
710.224	0.0145605
710.302	0.0144501
710.380	0.0144147
710.458	0.0142780
710.536	0.0142970
710.614	0.0142679
710.693	0.0141470
710.771	0.0141984
710.849	0.0141814
710.927	0.0142039
711.005	0.0142902
711.083	0.0143049
711.161	0.0142780
711.239	0.0140429
711.318	0.0142515
711.396	0.0142726
711.474	0.0142741
711.552	0.0144838
711.630	0.0146221
711.708	0.0144778
711.786	0.0146525
711.864	0.0146215
711.943	0.0148237
712.021	0.0149818
712.099	0.0149538
712.177	0.0151252
712.255	0.0152369
712.333	0.0152168
712.411	0.0153452
712.489	0.0155245
712.568	0.0156105
712.646	0.0156120
712.724	0.0156941
712.802	0.0159167
712.880	0.0160030
712.958	0.0159410
713.036	0.0160167
713.114	0.0159985
713.193	0.0161044
713.271	0.0161314
713.349	0.0158784
713.427	0.0159428
713.505	0.0159351
713.583	0.0158823
713.661	0.0158657
713.739	0.0157865
713.818	0.0158047
713.896	0.0155846
713.974	0.0155560
714.052	0.0155325
714.130	0.0153728
714.208	0.0152966
714.286	0.0152286
714.364	0.0150083
714.443	0.0149223
714.521	0.0149019
714.599	0.0147478
714.677	0.0146607
714.755	0.0147118
714.833	0.0145098
714.911	0.0145850
714.989	0.0146098
715.068	0.0145874
715.146	0.0145177
715.224	0.0144852
715.302	0.0144975
715.380	0.0145143
715.458	0.0146925
715.536	0.0145822
715.614	0.0146845
715.693	0.0144928
715.771	0.0145496
715.849	0.0148281
715.927	0.0147414
716.005	0.0147409
716.083	0.0147546
716.161	0.0148290
716.239	0.0149047
716.318	0.0149030
716.396	0.0150051
716.474	0.0150835
716.552	0.0148759
716.630	0.0150719
716.708	0.0150396
716.786	0.0151929
716.864	0.0154270
716.943	0.0152866
717.021	0.0153349
717.099	0.0153351
717.177	0.0152569
717.255	0.0153902
717.333	0.0154194
717.411	0.0153185
717.489	0.0152494
717.568	0.0152286
717.646	0.0152145
717.724	0.0151832
717.802	0.0151114
717.880	0.0150405
717.958	0.0150257
718.036	0.0148931
718.114	0.0148799
718.193	0.0146540
718.271	0.0146161
718.349	0.0145886
718.427	0.0144643
718.505	0.0143512
718.583	0.0142855
718.661	0.0143871
718.739	0.0143242
718.818	0.0143855
718.896	0.0143298
718.974	0.0142059
719.052	0.0142877
719.130	0.0143434
719.208	0.0143732
719.286	0.0144388
719.364	0.0146278
719.443	0.0148079
719.521	0.0148209
719.599	0.0148638
719.677	0.0147682
719.755	0.0149868
719.833	0.0151363
719.911	0.0152427
719.989	0.0153802
720.068	0.0155591
720.146	0.0155431
720.224	0.0157156
720.302	0.0157126
720.380	0.0157419
720.458	0.0157154
720.536	0.0156818
720.614	0.0156654
720.693	0.0157301
720.771	0.0156929
720.849	0.0156815
720.927	0.0155759
721.005	0.0156567
721.083	0.0154540
721.161	0.0154711
721.239	0.0152670
721.318	0.0152324
721.396	0.0151880
721.474	0.0149924
721.552	0.0148257
721.630	0.0146442
721.708	0.0146509
721.786	0.0145148
721.864	0.0145501
721.943	0.0143177
722.021	0.0142934
722.099	0.0142322
722.177	0.0140760
722.255	0.0141749
722.333	0.0140657
722.411	0.0140710
722.489	0.0140958
722.568	0.0141016
722.646	0.0139877
722.724	0.0141167
722.802	0.0141314
722.880	0.0141335
722.958	0.0141990
723.036	0.0143128
723.114	0.0144905
723.193	0.0144346
723.271	0.0144655
723.349	0.0144777
723.427	0.0144515
723.505	0.0146261
723.583	0.0146779
723.661	0.0147818
723.739	0.0149149
723.818	0.0150241
723.896	0.0150587
723.974	0.0151942
724.052	0.0151562
724.130	0.0153191
724.208	0.0152811
724.286	0.0153204
724.364	0.0153632
724.443	0.0155382
724.521	0.0155797
724.599	0.0154318
724.677	0.0153903
724.755	0.0154907
724.833	0.0153931
724.911	0.0152858
724.989	0.0152947
725.068	0.0151743
725.146	0.0152200
725.224	0.0152935
725.302	0.0151419
725.380	0.0151553
725.458	0.0149592
725.536	0.0149067
725.614	0.0150774
725.693	0.0149155
725.771	0.0148608
725.849	0.0147992
725.927	0.0147927
726.005	0.0149020
726.083	0.0149859
726.161	0.0148818
726.239	0.0149446
726.318	0.0149770
726.396	0.0149869
726.474	0.0149520
726.552	0.0150621
726.630	0.0149573
726.708	0.0151025
726.786	0.0150175
726.864	0.0150727
726.943	0.0150297
727.021	0.0150270
727.099	0.0151210
727.177	0.0150042
727.255	0.0150416
727.333	0.0149586
727.411	0.0149951
727.489	0.0150031
727.568	0.0150346
727.646	0.0149060
727.724	0.0149268
727.802	0.0149163
727.880	0.0148817
727.958	0.0148331
728.036	0.0149464
728.114	0.0149573
728.193	0.0152312
728.271	0.0149573
728.349	0.0149978
728.427	0.0151424
728.505	0.0149989
728.583	0.0149798
728.661	0.0151315
728.739	0.0149463
728.818	0.0149905
728.896	0.0151785
728.974	0.0149734
729.052	0.0146947
729.130	0.0148190
729.208	0.0148294
729.286	0.0147084
729.364	0.0147083
729.443	0.0147918
729.521	0.0148461
729.599	0.0148402
729.677	0.0148678
729.755	0.0148553
729.833	0.0149241
729.911	0.0149594
729.989	0.0150090
730.068	0.0148717
730.146	0.0150643
730.224	0.0149950
730.302	0.0151240
730.380	0.0150045
730.458	0.0151493
730.536	0.0149987
730.614	0.0151967
730.693	0.0149113
730.771	0.0150360
730.849	0.0150951
730.927	0.0150059
731.005	0.0149284
731.083	0.0149137
731.161	0.0149969
731.239	0.0150556
731.318	0.0150425
731.396	0.0149088
731.474	0.0150620
731.552	0.0152158
731.630	0.0151983
731.708	0.0152214
731.786	0.0152134
731.864	0.0153134
731.943	0.0151968
732.021	0.0153117
732.099	0.0153099
732.177	0.0153813
732.255	0.0153790
732.333	0.0154327
732.411	0.0154049
732.489	0.0153273
732.568	0.0155151
732.646	0.0152156
732.724	0.0153763
732.802	0.0153668
732.880	0.0152318
732.958	0.0150676
733.036	0.0150382
733.114	0.0149758
733.193	0.0148579
733.271	0.0148189
733.349	0.0147431
733.427	0.0146387
733.505	0.0146285
733.583	0.0146347
733.661	0.0144482
733.739	0.0144100
733.818	0.0144369
733.896	0.0143723
733.974	0.0142744
734.052	0.0143051
734.130	0.0141914
734.208	0.0143333
734.286	0.0142754
734.364	0.0144190
734.443	0.0144455
734.521	0.0144840
734.599	0.0144146
734.677	0.0145438
734.755	0.0144695
734.833	0.0145761
734.911	0.0147707
734.989	0.0147940
735.068	0.0148851
735.146	0.0149897
735.224	0.0153389
735.302	0.0151151
735.380	0.0152605
735.458	0.0154896
735.536	0.0154063
735.614	0.0155961
735.693	0.0157286
735.771	0.0156838
735.849	0.0157097
735.927	0.0156741
736.005	0.0158585
736.083	0.0158743
736.161	0.0157565
736.239	0.0156901
736.318	0.0157345
736.396	0.0158286
736.474	0.0156886
736.552	0.0156420
736.630	0.0155589
736.708	0.0156576
736.786	0.0154820
736.864	0.0154070
736.943	0.0153290
737.021	0.0152104
737.099	0.0150618
737.177	0.0150137
737.255	0.0150022
737.333	0.0149115
737.411	0.0147129
737.489	0.0145465
737.568	0.0146184
737.646	0.0145088
737.724	0.0143527
737.802	0.0144691
737.880	0.0143998
737.958	0.0143637
738.036	0.0145440
738.114	0.0143665
738.193	0.0143369
738.271	0.0143926
738.349	0.0144199
738.427	0.0143642
738.505	0.0144044
738.583	0.0145389
738.661	0.0144553
738.739	0.0144883
738.818	0.0145806
738.896	0.0147133
738.974	0.0147686
739.052	0.0148770
739.130	0.0148636
739.208	0.0148341
739.286	0.0148802
739.364	0.0147720
739.443	0.0149639
739.521	0.0149428
739.599	0.0150347
739.677	0.0150722
739.755	0.0151185
739.833	0.0151811
739.911	0.0152177
739.989	0.0150791
740.068	0.0151456
740.146	0.0153261
740.224	0.0153265
740.302	0.0153693
740.380	0.0153093
740.458	0.0153098
740.536	0.0153403
740.614	0.0152681
740.693	0.0153276
740.771	0.0152649
740.849	0.0154745
740.927	0.0154176
741.005	0.0152154
741.083	0.0151761
741.161	0.0152783
741.239	0.0151827
741.318	0.0152456
741.396	0.0151925
741.474	0.0152543
741.552	0.0151435
741.630	0.0150293
741.708	0.0150343
741.786	0.0150482
741.864	0.0149362
741.943	0.0150011
742.021	0.0149178
742.099	0.0148007
742.177	0.0147694
742.255	0.0150074
742.333	0.0148283
742.411	0.0147301
742.489	0.0147678
742.568	0.0148053
742.646	0.0147800
742.724	0.0147349
742.802	0.0150027
742.880	0.0149475
742.958	0.0149596
743.036	0.0148283
743.114	0.0148381
743.193	0.0149580
743.271	0.0150226
743.349	0.0148723
743.427	0.0149423
743.505	0.0148212
743.583	0.0149287
743.661	0.0148412
743.739	0.0148414
743.818	0.0149352
743.896	0.0149253
743.974	0.0148196
744.052	0.0148415
744.130	0.0148463
744.208	0.0148006
744.286	0.0148175
744.364	0.0148018
744.443	0.0147581
744.521	0.0146590
744.599	0.0147716
744.677	0.0146413
744.755	0.0146325
744.833	0.0146613
744.911	0.0146983
744.989	0.0147693
745.068	0.0147116
745.146	0.0145672
745.224	0.0146671
745.302	0.0146527
745.380	0.0144911
745.458	0.0143207
745.536	0.0146210
745.614	0.0145728
745.693	0.0145436
745.771	0.0145156
745.849	0.0142721
745.927	0.0143287
746.005	0.0145214
746.083	0.0145321
746.161	0.0143346
746.239	0.0143924
746.318	0.0144822
746.396	0.0143900
746.474	0.0144395
746.552	0.0145689
746.630	0.0145857
746.708	0.0145608
746.786	0.0145412
746.864	0.0146667
746.943	0.0147719
747.021	0.0148263
747.099	0.0148299
747.177	0.0147772
747.255	0.0149934
747.333	0.0149428
747.411	0.0150655
747.489	0.0151795
747.568	0.0151389
747.646	0.0152754
747.724	0.0153358
747.802	0.0154875
747.880	0.0154260
747.958	0.0153674
748.036	0.0156375
748.114	0.0155499
748.193	0.0157108
748.271	0.0155019
748.349	0.0156984
748.427	0.0157641
748.505	0.0156588
748.583	0.0157155
748.661	0.0158146
748.739	0.0158689
748.818	0.0158222
748.896	0.0157013
748.974	0.0158250
749.052	0.0156728
749.130	0.0157360
749.208	0.0158157
749.286	0.0155455
749.364	0.0154245
749.443	0.0155080
749.521	0.0153908
749.599	0.0153512
749.677	0.0151411
749.755	0.0151315
749.833	0.0151312
749.911	0.0149145
749.989	0.0148634
750.068	0.0148350
750.146	0.0148523
750.224	0.0147681
750.302	0.0146815
750.380	0.0146869
750.458	0.0146586
750.536	0.0145450
750.614	0.0144456
750.693	0.0144032
750.771	0.0144221
750.849	0.0144251
750.927	0.0144331
751.005	0.0143662
751.083	0.0144454
751.161	0.0142360
751.239	0.0143522
751.318	0.0143477
751.396	0.0144956
751.474	0.0142413
751.552	0.0142953
751.630	0.0145168
751.708	0.0145103
751.786	0.0144921
751.864	0.0145337
751.943	0.0145034
752.021	0.0146660
752.099	0.0148071
752.177	0.0148873
752.255	0.0148256
752.333	0.0148468
752.411	0.0150465
752.489	0.0150079
752.568	0.0152760
752.646	0.0151913
752.724	0.0152903
752.802	0.0154195
752.880	0.0154840
752.958	0.0154543
753.036	0.0155984
753.114	0.0156312
753.193	0.0155023
753.271	0.0154982
753.349	0.0155132
753.427	0.0155302
753.505	0.0154670
753.583	0.0155485
753.661	0.0154851
753.739	0.0154150
753.818	0.0153397
753.896	0.0153545
753.974	0.0152367
754.052	0.0150914
754.130	0.0149036
754.208	0.0149253
754.286	0.0149004
754.364	0.0148112
754.443	0.0147879
754.521	0.0146423
754.599	0.0145672
754.677	0.0145855
754.755	0.0145666
754.833	0.0145217
754.911	0.0145228
754.989	0.0144369
755.068	0.0144971
755.146	0.0144507
755.224	0.0144607
755.302	0.0146104
755.380	0.0144713
755.458	0.0145353
755.536	0.0144356
755.614	0.0145583
755.693	0.0145837
755.771	0.0146135
755.849	0.0145721
755.927	0.0145253
756.005	0.0145061
756.083	0.0145009
756.161	0.0147472
756.239	0.0146281
756.318	0.0145372
756.396	0.0146754
756.474	0.0146629
756.552	0.0146282
756.630	0.0147664
756.708	0.0147387
756.786	0.0147987
756.864	0.0147240
756.943	0.0148692
757.021	0.0148162
757.099	0.0148442
757.177	0.0148026
757.255	0.0149039
757.333	0.0149466
757.411	0.0149501
757.489	0.0151028
757.568	0.0149213
757.646	0.0151030
757.724	0.0150425
757.802	0.0149745
757.880	0.0152142
757.958	0.0152189
758.036	0.0151922
758.114	0.0152944
758.193	0.0152949
758.271	0.0153194
758.349	0.0154086
758.427	0.0153885
758.505	0.0153359
758.583	0.0154113
758.661	0.0153564
758.739	0.0152429
758.818	0.0154065
758.896	0.0153168
758.974	0.0152894
759.052	0.0153032
759.130	0.0150500
759.208	0.0150212
759.286	0.0151302
759.364	0.0149651
759.443	0.0150497
759.521	0.0150146
759.599	0.0148008
759.677	0.0148048
759.755	0.0148497
759.833	0.0147285
759.911	0.0148124
759.989	0.0148096
760.068	0.0146590
760.146	0.0148599
760.224	0.0148956
760.302	0.0146726
760.380	0.0147318
760.458	0.0147363
760.536	0.0147031
760.614	0.0147783
760.693	0.0147710
760.771	0.0147343
760.849	0.0146635
760.927	0.0148277
761.005	0.0146439
761.083	0.0150093
761.161	0.0148819
761.239	0.0147781
761.318	0.0149248
761.396	0.0149342
761.474	0.0149285
761.552	0.0149113
761.630	0.0150236
761.708	0.0150743
761.786	0.0150237
761.864	0.0150198
761.943	0.0150594
762.021	0.0151115
762.099	0.0150495
762.177	0.0151999
762.255	0.0152251
762.333	0.0151662
762.411	0.0152635
762.489	0.0151952
762.568	0.0151443
762.646	0.0152511
762.724	0.0153471
762.802	0.0151481
762.880	0.0152614
762.958	0.0152355
763.036	0.0151794
763.114	0.0152470
763.193	0.0152083
763.271	0.0152852
763.349	0.0151699
763.427	0.0152520
763.505	0.0152000
763.583	0.0153128
763.661	0.0152607
763.739	0.0152756
763.818	0.0152888
763.896	0.0152154
763.974	0.0153572
764.052	0.0152847
764.130	0.0152578
764.208	0.0152290
764.286	0.0152245
764.364	0.0152122
764.443	0.0151810
764.521	0.0152193
764.599	0.0151305
764.677	0.0151263
764.755	0.0149396
764.833	0.0151034
764.911	0.0150215
764.989	0.0146971
765.068	0.0148072
765.146	0.0146041
765.224	0.0147285
765.302	0.0147652
765.380	0.0147945
765.458	0.0147346
765.536	0.0147513
765.614	0.0146091
765.693	0.0147192
765.771	0.0146989
765.849	0.0147086
765.927	0.0146864
766.005	0.0148589
766.083	0.0147388
766.161	0.0148427
766.239	0.0147390
766.318	0.0149136
766.396	0.0149816
766.474	0.0149952
766.552	0.0150068
766.630	0.0149496
766.708	0.0150711
766.786	0.0149735
766.864	0.0149540
766.943	0.0149461
767.021	0.0150775
767.099	0.0149936
767.177	0.0150619
767.255	0.0148775
767.333	0.0150243
767.411	0.0149598
767.489	0.0148418
767.568	0.0148367
767.646	0.0148338
767.724	0.0148843
767.802	0.0148656
767.880	0.0148688
767.958	0.0148475
768.036	0.0148729
768.114	0.0148960
768.193	0.0150053
768.271	0.0149988
768.349	0.0150191
768.427	0.0148827
768.505	0.0148801
768.583	0.0147782
768.661	0.0147942
768.739	0.0149948
768.818	0.0149215
768.896	0.0147821
768.974	0.0148992
769.052	0.0147853
769.130	0.0147651
769.208	0.0148209
769.286	0.0148786
769.364	0.0147889
769.443	0.0147352
769.521	0.0148042
769.599	0.0148356
769.677	0.0147939
769.755	0.0147849
769.833	0.0147466
769.911	0.0149129
769.989	0.0148415
770.068	0.0150197
770.146	0.0151592
770.224	0.0151508
770.302	0.0151539
770.380	0.0151806
770.458	0.0151644
770.536	0.0151588
770.614	0.0151652
770.693	0.0151996
770.771	0.0152484
770.849	0.0150203
770.927	0.0151156
771.005	0.0150573
771.083	0.0150185
771.161	0.0149754
771.239	0.0150041
771.318	0.0149566
771.396	0.0149290
771.474	0.0149028
771.552	0.0149538
771.630	0.0149284
771.708	0.0149414
771.786	0.0149720
771.864	0.0150221
771.943	0.0150359
772.021	0.0150109
772.099	0.0152015
772.177	0.0149845
772.255	0.0151316
772.333	0.0151266
772.411	0.0150806
772.489	0.0150751
772.568	0.0152531
772.646	0.0151459
772.724	0.0150848
772.802	0.0152274
772.880	0.0152110
772.958	0.0152161
773.036	0.0150584
773.114	0.0151138
773.193	0.0151554
773.271	0.0152498
773.349	0.0152640
773.427	0.0150721
773.505	0.0151160
773.583	0.0151317
773.661	0.0151105
773.739	0.0148932
773.818	0.0148784
773.896	0.0149460
773.974	0.0149199
774.052	0.0149114
774.130	0.0148795
774.208	0.0147791
774.286	0.0147839
774.364	0.0148287
774.443	0.0147804
774.521	0.0148487
774.599	0.0149431
774.677	0.0150319
774.755	0.0150169
774.833	0.0150214
774.911	0.0150219
774.989	0.0150990
775.068	0.0153367
775.146	0.0153205
775.224	0.0153040
775.302	0.0153794
775.380	0.0155578
775.458	0.0154757
775.536	0.0154361
775.614	0.0154446
775.693	0.0154948
775.771	0.0154208
775.849	0.0154186
775.927	0.0153867
776.005	0.0153798
776.083	0.0151290
776.161	0.0152679
776.239	0.0151516
776.318	0.0151732
776.396	0.0150533
776.474	0.0150343
776.552	0.0147464
776.630	0.0146155
776.708	0.0145810
776.786	0.0144980
776.864	0.0144827
776.943	0.0144089
777.021	0.0143438
777.099	0.0143892
777.177	0.0144053
777.255	0.0143153
777.333	0.0143756
777.411	0.0143916
777.489	0.0143935
777.568	0.0144968
777.646	0.0146719
777.724	0.0147020
777.802	0.0146468
777.880	0.0147706
777.958	0.0148505
778.036	0.0148917
778.114	0.0150402
778.193	0.0150406
778.271	0.0150425
778.349	0.0149097
778.427	0.0148753
778.505	0.0149721
778.583	0.0150588
778.661	0.0150196
778.739	0.0151758
778.818	0.0150300
778.896	0.0151883
778.974	0.0151398
779.052	0.0151149
779.130	0.0151575
779.208	0.0152636
779.286	0.0153087
779.364	0.0152733
779.443	0.0152844
779.521	0.0154196
779.599	0.0154648
779.677	0.0155169
779.755	0.0154690
779.833	0.0154854
779.911	0.0156470
779.989	0.0157269
780.068	0.0157349
780.146	0.0157977
780.224	0.0156565
780.302	0.0154853
780.380	0.0156470
780.458	0.0154794
780.536	0.0155383
780.614	0.0155714
780.693	0.0155126
780.771	0.0153219
780.849	0.0152070
780.927	0.0153369
781.005	0.0152785
781.083	0.0152501
781.161	0.0151766
781.239	0.0151550
781.318	0.0150387
781.396	0.0149957
781.474	0.0151673
781.552	0.0149540
781.630	0.0148547
781.708	0.0149924
781.786	0.0149583
781.864	0.0148237
781.943	0.0148160
782.021	0.0147842
782.099	0.0148058
782.177	0.0146046
782.255	0.0146793
782.333	0.0147066
782.411	0.0147223
782.489	0.0145936
782.568	0.0148796
782.646	0.0146999
782.724	0.0147517
782.802	0.0148723
782.880	0.0148679
782.958	0.0148273
783.036	0.0148446
783.114	0.0148762
783.193	0.0148862
783.271	0.0147920
783.349	0.0149274
783.427	0.0148709
783.505	0.0147456
783.583	0.0149269
783.661	0.0149126
783.739	0.0148448
783.818	0.0147479
783.896	0.0147838
783.974	0.0148732
784.052	0.0147403
784.130	0.0147643
784.208	0.0147191
784.286	0.0147031
784.364	0.0147865
784.443	0.0147520
784.521	0.0148476
784.599	0.0148753
784.677	0.0149178
784.755	0.0149306
784.833	0.0148631
784.911	0.0148574
784.989	0.0149715
785.068	0.0149882
785.146	0.0149407
785.224	0.0149583
785.302	0.0150484
785.380	0.0150607
785.458	0.0148796
785.536	0.0150733
785.614	0.0150726
785.693	0.0151310
785.771	0.0151118
785.849	0.0150467
785.927	0.0149810
786.005	0.0151093
786.083	0.0150175
786.161	0.0149686
786.239	0.0149366
786.318	0.0148997
786.396	0.0149039
786.474	0.0149220
786.552	0.0149200
786.630	0.0148558
786.708	0.0148205
786.786	0.0147639
786.864	0.0148199
786.943	0.0146106
787.021	0.0145964
787.099	0.0146490
787.177	0.0145980
787.255	0.0146673
787.333	0.0146237
787.411	0.0146925
787.489	0.0145784
787.568	0.0145249
787.646	0.0145106
787.724	0.0146265
787.802	0.0146893
787.880	0.0145522
787.958	0.0146255
788.036	0.0146325
788.114	0.0147696
788.193	0.0147496
788.271	0.0146411
788.349	0.0147063
788.427	0.0148473
788.505	0.0147651
788.583	0.0149841
788.661	0.0149303
788.739	0.0148172
788.818	0.0149909
788.896	0.0149888
788.974	0.0149412
789.052	0.0149205
789.130	0.0149168
789.208	0.0150074
789.286	0.0148863
789.364	0.0148862
789.443	0.0150686
789.521	0.0149959
789.599	0.0148515
789.677	0.0148182
789.755	0.0147772
789.833	0.0148149
789.911	0.0148036
789.989	0.0148748
790.068	0.0147944
790.146	0.0149195
790.224	0.0147937
790.302	0.0147227
790.380	0.0148125
790.458	0.0147324
790.536	0.0148061
790.614	0.0149064
790.693	0.0146750
790.771	0.0147652
790.849	0.0148791
790.927	0.0148128
791.005	0.0148026
791.083	0.0148167
791.161	0.0147665
791.239	0.0148805
791.318	0.0148314
791.396	0.0147666
791.474	0.0149777
791.552	0.0148985
791.630	0.0149789
791.708	0.0150560
791.786	0.0149311
791.864	0.0149664
791.943	0.0149670
792.021	0.0149850
792.099	0.0152230
792.177	0.0152471
792.255	0.0150547
792.333	0.0151085
792.411	0.0152773
792.489	0.0152913
792.568	0.0151656
792.646	0.0152148
792.724	0.0154318
792.802	0.0153416
792.880	0.0153878
792.958	0.0153691
793.036	0.0154343
793.114	0.0154224
793.193	0.0156386
793.271	0.0153907
793.349	0.0153790
793.427	0.0153718
793.505	0.0154472
793.583	0.0153966
793.661	0.0154608
793.739	0.0153622
793.818	0.0152639
793.896	0.0153491
793.974	0.0153133
794.052	0.0153300
794.130	0.0152178
794.208	0.0151728
794.286	0.0153451
794.364	0.0151927
794.443	0.0151015
794.521	0.0150246
794.599	0.0151027
794.677	0.0150208
794.755	0.0148475
794.833	0.0149763
794.911	0.0149530
794.989	0.0148238
795.068	0.0147425
795.146	0.0149358
795.224	0.0149324
795.302	0.0147897
795.380	0.0149773
795.458	0.0148679
795.536	0.0148378
795.614	0.0148584
795.693	0.0148783
795.771	0.0148007
795.849	0.0148865
795.927	0.0147867
796.005	0.0148517
796.083	0.0148797
796.161	0.0148328
796.239	0.0149884
796.318	0.0148238
796.396	0.0147957
796.474	0.0149084
796.552	0.0150672
796.630	0.0149297
796.708	0.0148779
796.786	0.0148103
796.864	0.0148716
796.943	0.0149515
797.021	0.0149987
797.099	0.0149586
797.177	0.0149905
797.255	0.0148345
797.333	0.0149622
797.411	0.0149323
797.489	0.0149490
797.568	0.0151011
797.646	0.0149724
797.724	0.0149253
797.802	0.0150153
797.880	0.0150186
797.958	0.0148997
798.036	0.0148966
798.114	0.0149567
798.193	0.0149458
798.271	0.0148840
798.349	0.0150134
798.427	0.0149039
798.505	0.0148666
798.583	0.0150687
798.661	0.0149184
798.739	0.0148471
798.818	0.0149736
798.896	0.0149330
798.974	0.0149258
799.052	0.0149330
799.130	0.0149606
799.208	0.0149535
799.286	0.0147653
799.364	0.0149915
799.443	0.0148629
799.521	0.0148929
799.599	0.0149352
799.677	0.0149937
799.755	0.0149176
799.833	0.0148358
799.911	0.0148795
799.989	0.0149461
800.068	0.0150098
800.146	0.0149239
800.224	0.0149713
800.302	0.0148591
800.380	0.0148871
800.458	0.0148830
800.536	0.0149524
800.614	0.0149817
800.693	0.0150578
800.771	0.0150092
800.849	0.0149781
800.927	0.0150333
801.005	0.0149392
801.083	0.0150037
801.161	0.0149010
801.239	0.0151054
801.318	0.0148588
801.396	0.0149145
801.474	0.0151069
801.552	0.0150459
801.630	0.0148774
801.708	0.0149362
801.786	0.0148869
801.864	0.0149655
801.943	0.0149596
802.021	0.0148059
802.099	0.0147340
802.177	0.0149965
802.255	0.0148438
802.333	0.0147824
802.411	0.0150127
802.489	0.0150073
802.568	0.0149876
802.646	0.0149492
802.724	0.0149040
802.802	0.0149684
802.880	0.0148236
802.958	0.0149474
803.036	0.0150211
803.114	0.0151066
803.193	0.0151104
803.271	0.0151556
803.349	0.0152264
803.427	0.0152449
803.505	0.0151059
803.583	0.0151867
803.661	0.0152218
803.739	0.0152800
803.818	0.0152620
803.896	0.0153329
803.974	0.0150597
804.052	0.0150806
804.130	0.0149613
804.208	0.0152175
804.286	0.0150956
804.364	0.0150411
804.443	0.0151580
804.521	0.0151405
804.599	0.0152279
804.677	0.0150374
804.755	0.0152060
804.833	0.0151105
804.911	0.0152659
804.989	0.0151665
805.068	0.0151831
805.146	0.0152264
805.224	0.0152447
805.302	0.0152317
805.380	0.0153333
805.458	0.0153309
805.536	0.0152802
805.614	0.0153694
805.693	0.0153048
805.771	0.0154191
805.849	0.0153294
805.927	0.0152079
806.005	0.0152476
806.083	0.0154458
806.161	0.0153485
806.239	0.0153592
806.318	0.0154644
806.396	0.0153194
806.474	0.0154558
806.552	0.0153912
806.630	0.0154336
806.708	0.0153584
806.786	0.0151546
806.864	0.0151219
806.943	0.0152396
807.021	0.0152057
807.099	0.0152548
807.177	0.0150666
807.255	0.0150220
807.333	0.0151311
807.411	0.0151448
807.489	0.0151260
807.568	0.0150020
807.646	0.0149680
807.724	0.0148326
807.802	0.0149948
807.880	0.0149283
807.958	0.0149723
808.036	0.0148222
808.114	0.0148916
808.193	0.0150356
808.271	0.0149072
808.349	0.0149268
808.427	0.0148619
808.505	0.0149849
808.583	0.0150525
808.661	0.0150224
808.739	0.0150149
808.818	0.0150546
808.896	0.0149886
808.974	0.0151623
809.052	0.0152093
809.130	0.0151163
809.208	0.0151467
809.286	0.0150742
809.364	0.0150581
809.443	0.0151956
809.521	0.0149722
809.599	0.0152463
809.677	0.0151091
809.755	0.0150945
809.833	0.0150084
809.911	0.0150732
809.989	0.0151566
810.068	0.0150537
810.146	0.0150702
810.224	0.0151746
810.302	0.0151886
810.380	0.0150748
810.458	0.0149980
810.536	0.0151550
810.614	0.0151122
810.693	0.0149560
810.771	0.0150438
810.849	0.0150306
810.927	0.0150130
811.005	0.0149905
811.083	0.0149539
811.161	0.0149436
811.239	0.0150011
811.318	0.0148512
811.396	0.0148680
811.474	0.0148282
811.552	0.0148492
811.630	0.0149545
811.708	0.0146167
811.786	0.0146552
811.864	0.0147755
811.943	0.0146193
812.021	0.0145490
812.099	0.0144010
812.177	0.0144484
812.255	0.0145132
812.333	0.0143954
812.411	0.0144652
812.489	0.0143838
812.568	0.0143915
812.646	0.0144472
812.724	0.0145069
812.802	0.0145333
812.880	0.0145866
812.958	0.0144972
813.036	0.0146845
813.114	0.0146224
813.193	0.0145321
813.271	0.0145065
813.349	0.0146677
813.427	0.0146804
813.505	0.0146439
813.583	0.0144816
813.661	0.0147000
813.739	0.0146571
813.818	0.0147266
813.896	0.0147652
813.974	0.0147749
814.052	0.0148759
814.130	0.0150957
814.208	0.0150738
814.286	0.0150466
814.364	0.0150838
814.443	0.0150665
814.521	0.0149860
814.599	0.0150691
814.677	0.0150225
814.755	0.0148403
814.833	0.0148864
814.911	0.0149371
814.989	0.0148541
815.068	0.0148050
815.146	0.0146568
815.224	0.0146581
815.302	0.0147716
815.380	0.0147399
815.458	0.0147097
815.536	0.0146246
815.614	0.0147319
815.693	0.0145703
815.771	0.0146775
815.849	0.0147903
815.927	0.0148580
816.005	0.0148076
816.083	0.0150789
816.161	0.0150520
816.239	0.0151579
816.318	0.0152435
816.396	0.0153671
816.474	0.0152860
816.552	0.0155492
816.630	0.0153615
816.708	0.0153314
816.786	0.0153926
816.864	0.0152810
816.943	0.0152312
817.021	0.0151760
817.099	0.0150632
817.177	0.0150501
817.255	0.0150828
817.333	0.0149970
817.411	0.0148606
817.489	0.0147594
817.568	0.0148610
817.646	0.0148733
817.724	0.0148166
817.802	0.0148781
817.880	0.0150923
817.958	0.0149483
818.036	0.0150413
818.114	0.0150686
818.193	0.0150103
818.271	0.0150841
818.349	0.0152345
818.427	0.0151205
818.505	0.0152412
818.583	0.0152021
818.661	0.0151260
818.739	0.0151211
818.818	0.0151158
818.896	0.0149203
818.974	0.0149506
819.052	0.0150401
819.130	0.0149230
819.208	0.0147646
819.286	0.0147938
819.364	0.0149206
819.443	0.0148343
819.521	0.0147624
819.599	0.0147607
819.677	0.0148927
819.755	0.0149439
819.833	0.0148942
819.911	0.0148975
819.989	0.0149345
820.068	0.0149501
820.146	0.0149302
820.224	0.0149783
820.302	0.0151241
820.380	0.0151386
820.458	0.0150647
820.536	0.0150973
820.614	0.0153456
820.693	0.0152386
820.771	0.0152302
820.849	0.0151170
820.927	0.0151912
821.005	0.0153245
821.083	0.0153235
821.161	0.0152710
821.239	0.0153141
821.318	0.0153113
821.396	0.0154063
821.474	0.0153292
821.552	0.0152531
821.630	0.0152960
821.708	0.0152692
821.786	0.0151305
821.864	0.0150510
821.943	0.0151196
822.021	0.0150121
822.099	0.0149416
822.177	0.0151330
822.255	0.0151183
822.333	0.0150990
822.411	0.0150849
822.489	0.0151262
822.568	0.0150340
822.646	0.0152671
822.724	0.0151470
822.802	0.0151769
822.880	0.0151524
822.958	0.0151864
823.036	0.0151292
823.114	0.0150130
823.193	0.0150034
823.271	0.0149551
823.349	0.0149448
823.427	0.0148104
823.505	0.0145911
823.583	0.0146837
823.661	0.0146704
823.739	0.0145219
823.818	0.0145173
823.896	0.0145880
823.974	0.0144878
824.052	0.0146054
824.130	0.0146006
824.208	0.0145023
824.286	0.0145754
824.364	0.0146201
824.443	0.0145688
824.521	0.0145868
824.599	0.0146804
824.677	0.0147725
824.755	0.0148869
824.833	0.0150759
824.911	0.0147443
824.989	0.0148392
825.068	0.0150175
825.146	0.0151173
825.224	0.0150153
825.302	0.0150037
825.380	0.0149190
825.458	0.0151952
825.536	0.0153550
825.614	0.0152214
825.693	0.0153442
825.771	0.0153339
825.849	0.0153880
825.927	0.0155452
826.005	0.0155069
826.083	0.0154844
826.161	0.0154781
826.239	0.0155212
826.318	0.0154412
826.396	0.0153837
826.474	0.0154633
826.552	0.0153752
826.630	0.0153057
826.708	0.0153013
826.786	0.0152113
826.864	0.0152927
826.943	0.0152077
827.021	0.0150101
827.099	0.0149534
827.177	0.0148984
827.255	0.0148216
827.333	0.0148272
827.411	0.0148940
827.489	0.0148888
827.568	0.0148717
827.646	0.0148760
827.724	0.0148346
827.802	0.0148153
827.880	0.0148197
827.958	0.0147668
828.036	0.0146857
828.114	0.0146867
828.193	0.0148837
828.271	0.0148013
828.349	0.0148615
828.427	0.0147573
828.505	0.0147184
828.583	0.0147808
828.661	0.0148840
828.739	0.0148238
828.818	0.0147944
828.896	0.0149966
828.974	0.0151936
829.052	0.0152033
829.130	0.0152209
829.208	0.0153047
829.286	0.0154737
829.364	0.0156137
829.443	0.0156400
829.521	0.0157359
829.599	0.0158010
829.677	0.0156308
829.755	0.0156121
829.833	0.0158073
829.911	0.0155459
829.989	0.0155807
830.068	0.0155368
830.146	0.0152031
830.224	0.0150132
830.302	0.0150362
830.380	0.0147793
830.458	0.0147264
830.536	0.0146407
830.614	0.0143652
830.693	0.0143899
830.771	0.0143745
830.849	0.0142814
830.927	0.0141829
831.005	0.0140472
831.083	0.0141832
831.161	0.0142053
831.239	0.0143904
831.318	0.0143813
831.396	0.0144666
831.474	0.0144764
831.552	0.0145790
831.630	0.0146212
831.708	0.0147146
831.786	0.0148142
831.864	0.0149351
831.943	0.0149370
832.021	0.0148894
832.099	0.0150193
832.177	0.0151419
832.255	0.0151676
832.333	0.0152416
832.411	0.0152526
832.489	0.0151948
832.568	0.0153300
832.646	0.0152354
832.724	0.0153352
832.802	0.0153272
832.880	0.0154125
832.958	0.0153913
833.036	0.0151678
833.114	0.0151967
833.193	0.0152103
833.271	0.0152584
833.349	0.0152637
833.427	0.0151620
833.505	0.0150724
833.583	0.0151033
833.661	0.0149355
833.739	0.0148932
833.818	0.0149852
833.896	0.0150439
833.974	0.0148213
834.052	0.0147419
834.130	0.0149481
834.208	0.0148329
834.286	0.0147493
834.364	0.0149337
834.443	0.0148232
834.521	0.0149133
834.599	0.0149299
834.677	0.0148283
834.755	0.0148603
834.833	0.0149001
834.911	0.0148035
834.989	0.0147474
835.068	0.0147050
835.146	0.0147144
835.224	0.0146029
835.302	0.0145630
835.380	0.0144772
835.458	0.0143444
835.536	0.0145822
835.614	0.0144837
835.693	0.0146262
835.771	0.0145623
835.849	0.0146096
835.927	0.0146474
836.005	0.0148557
836.083	0.0149372
836.161	0.0149661
836.239	0.0150406
836.318	0.0152586
836.396	0.0152394
836.474	0.0152271
836.552	0.0154454
836.630	0.0153954
836.708	0.0155768
836.786	0.0155434
836.864	0.0155898
836.943	0.0156615
837.021	0.0156321
837.099	0.0157407
837.177	0.0157678
837.255	0.0156537
837.333	0.0158078
837.411	0.0157648
837.489	0.0156169
837.568	0.0155844
837.646	0.0157693
837.724	0.0156810
837.802	0.0155894
837.880	0.0154513
837.958	0.0156102
838.036	0.0155826
838.114	0.0152806
838.193	0.0152527
838.271	0.0153216
838.349	0.0152270
838.427	0.0152464
838.505	0.0152676
838.583	0.0151100
838.661	0.0150309
838.739	0.0151425
838.818	0.0149317
838.896	0.0148860
838.974	0.0148480
839.052	0.0148834
839.130	0.0149624
839.208	0.0146928
839.286	0.0145192
839.364	0.0144675
839.443	0.0144118
839.521	0.0144492
839.599	0.0143639
839.677	0.0145491
839.755	0.0144134
839.833	0.0146227
839.911	0.0144554
839.989	0.0145813
840.068	0.0145095
840.146	0.0145513
840.224	0.0147362
840.302	0.0145538
840.380	0.0145759
840.458	0.0147619
840.536	0.0148990
840.614	0.0148624
840.693	0.0147783
840.771	0.0150372
840.849	0.0150831
840.927	0.0151733
841.005	0.0151962
841.083	0.0152114
841.161	0.0151151
841.239	0.0152273
841.318	0.0152217
841.396	0.0151904
841.474	0.0152303
841.552	0.0151987
841.630	0.0151644
841.708	0.0151451
841.786	0.0151079
841.864	0.0150843
841.943	0.0151260
842.021	0.0151458
842.099	0.0150460
842.177	0.0149304
842.255	0.0149930
842.333	0.0149030
842.411	0.0149294
842.489	0.0148644
842.568	0.0148259
842.646	0.0146782
842.724	0.0147696
842.802	0.0148713
842.880	0.0148289
842.958	0.0149110
843.036	0.0148917
843.114	0.0147186
843.193	0.0148183
843.271	0.0148544
843.349	0.0149592
843.427	0.0147231
843.505	0.0148383
843.583	0.0147153
843.661	0.0147938
843.739	0.0148100
843.818	0.0147845
843.896	0.0148161
843.974	0.0149258
844.052	0.0149499
844.130	0.0149464
844.208	0.0148897
844.286	0.0149962
844.364	0.0149098
844.443	0.0151273
844.521	0.0151905
844.599	0.0151500
844.677	0.0151814
844.755	0.0152626
844.833	0.0152063
844.911	0.0152426
844.989	0.0152326
845.068	0.0152305
845.146	0.0152766
845.224	0.0153192
845.302	0.0155410
845.380	0.0152568
845.458	0.0152099
845.536	0.0152860
845.614	0.0153720
845.693	0.0153634
845.771	0.0152307
845.849	0.0153706
845.927	0.0153824
846.005	0.0152908
846.083	0.0153050
846.161	0.0152328
846.239	0.0152512
846.318	0.0152556
846.396	0.0152129
846.474	0.0152786
846.552	0.0151886
846.630	0.0150829
846.708	0.0151965
846.786	0.0150659
846.864	0.0149287
846.943	0.0150224
847.021	0.0149372
847.099	0.0148624
847.177	0.0147192
847.255	0.0147733
847.333	0.0147533
847.411	0.0146288
847.489	0.0145813
847.568	0.0144868
847.646	0.0146744
847.724	0.0146411
847.802	0.0145905
847.880	0.0147620
847.958	0.0146530
848.036	0.0146982
848.114	0.0148386
848.193	0.0149747
848.271	0.0150894
848.349	0.0149931
848.427	0.0151064
848.505	0.0149464
848.583	0.0150439
848.661	0.0153376
848.739	0.0152881
848.818	0.0152882
848.896	0.0152000
848.974	0.0153276
849.052	0.0153256
849.130	0.0151426
849.208	0.0151076
849.286	0.0152116
849.364	0.0150441
849.443	0.0150932
849.521	0.0148923
849.599	0.0148176
849.677	0.0147823
849.755	0.0147525
849.833	0.0147727
849.911	0.0147511
849.989	0.0146721
850.068	0.0147672
850.146	0.0147817
850.224	0.0148274
850.302	0.0149285
850.380	0.0149950
850.458	0.0150953
850.536	0.0151717
850.614	0.0150690
850.693	0.0153522
850.771	0.0154672
850.849	0.0153429
850.927	0.0153674
851.005	0.0154448
851.083	0.0154856
851.161	0.0154208
851.239	0.0154845
851.318	0.0154566
851.396	0.0152984
851.474	0.0152113
851.552	0.0151732
851.630	0.0151310
851.708	0.0149290
851.786	0.0147902
851.864	0.0147606
851.943	0.0146529
852.021	0.0145333
852.099	0.0142658
852.177	0.0142445
852.255	0.0143033
852.333	0.0142652
852.411	0.0141276
852.489	0.0142148
852.568	0.0142203
852.646	0.0142643
852.724	0.0142860
852.802	0.0145653
852.880	0.0143878
852.958	0.0145871
853.036	0.0148267
853.114	0.0148870
853.193	0.0149625
853.271	0.0151469
853.349	0.0153106
853.427	0.0152676
853.505	0.0154402
853.583	0.0153629
853.661	0.0155399
853.739	0.0156157
853.818	0.0155466
853.896	0.0154292
853.974	0.0154741
854.052	0.0153166
854.130	0.0151691
854.208	0.0152168
854.286	0.0150755
854.364	0.0150668
854.443	0.0149105
854.521	0.0149072
854.599	0.0147838
854.677	0.0147259
854.755	0.0146919
854.833	0.0147852
854.911	0.0147456
854.989	0.0148585
855.068	0.0147005
855.146	0.0148523
855.224	0.0149141
855.302	0.0150128
855.380	0.0150530
855.458	0.0150684
855.536	0.0151593
855.614	0.0153572
855.693	0.0153127
855.771	0.0152496
855.849	0.0154390
855.927	0.0153757
856.005	0.0153101
856.083	0.0152504
856.161	0.0153091
856.239	0.0151521
856.318	0.0150021
856.396	0.0150806
856.474	0.0149826
856.552	0.0149491
856.630	0.0149664
856.708	0.0148083
856.786	0.0147026
856.864	0.0146632
856.943	0.0146772
857.021	0.0147027
857.099	0.0147229
857.177	0.0144991
857.255	0.0145610
857.333	0.0145228
857.411	0.0146059
857.489	0.0145408
857.568	0.0144658
857.646	0.0146677
857.724	0.0145432
857.802	0.0144820
857.880	0.0146937
857.958	0.0147177
858.036	0.0147141
858.114	0.0147346
858.193	0.0151221
858.271	0.0151267
858.349	0.0150835
858.427	0.0151424
858.505	0.0152033
858.583	0.0152703
858.661	0.0151134
858.739	0.0152123
858.818	0.0152612
858.896	0.0152380
858.974	0.0151751
859.052	0.0152703
859.130	0.0150922
859.208	0.0152015
859.286	0.0150424
859.364	0.0150204
859.443	0.0149347
859.521	0.0150661
859.599	0.0149190
859.677	0.0147940
859.755	0.0148322
859.833	0.0150121
859.911	0.0148518
859.989	0.0149420
860.068	0.0149805
860.146	0.0149784
860.224	0.0148585
860.302	0.0148799
860.380	0.0150702
860.458	0.0150800
860.536	0.0150568
860.614	0.0151656
860.693	0.0151435
860.771	0.0151668
860.849	0.0151780
860.927	0.0151857
861.005	0.0149570
861.083	0.0151883
861.161	0.0150922
861.239	0.0151283
861.318	0.0152302
861.396	0.0150765
861.474	0.0153374
861.552	0.0153030
861.630	0.0152528
861.708	0.0151909
861.786	0.0153613
861.864	0.0153038
861.943	0.0151893
862.021	0.0152681
862.099	0.0152237
862.177	0.0150967
862.255	0.0150795
862.333	0.0151144
862.411	0.0150226
862.489	0.0149906
862.568	0.0148911
862.646	0.0148735
862.724	0.0148561
862.802	0.0148634
862.880	0.0148383
862.958	0.0147744
863.036	0.0147597
863.114	0.0149336
863.193	0.0147452
863.271	0.0147010
863.349	0.0148103
863.427	0.0146487
863.505	0.0146825
863.583	0.0148003
863.661	0.0150206
863.739	0.0148370
863.818	0.0148307
863.896	0.0150117
863.974	0.0149709
864.052	0.0148991
864.130	0.0149960
864.208	0.0148412
864.286	0.0148786
864.364	0.0151469
864.443	0.0148726
864.521	0.0149201
864.599	0.0149746
864.677	0.0147789
864.755	0.0148240
864.833	0.0148360
864.911	0.0147271
864.989	0.0148017
865.068	0.0146593
865.146	0.0146181
865.224	0.0147518
865.302	0.0147605
865.380	0.0147877
865.458	0.0147377
865.536	0.0148161
865.614	0.0149060
865.693	0.0148884
865.771	0.0148983
865.849	0.0147674
865.927	0.0148450
866.005	0.0150570
866.083	0.0149853
866.161	0.0148290
866.239	0.0149899
866.318	0.0150230
866.396	0.0152389
866.474	0.0150700
866.552	0.0150664
866.630	0.0151867
866.708	0.0153664
866.786	0.0152559
866.864	0.0153447
866.943	0.0151473
867.021	0.0153740
867.099	0.0154855
867.177	0.0154269
867.255	0.0154544
867.333	0.0155268
867.411	0.0153643
867.489	0.0154121
867.568	0.0152695
867.646	0.0152705
867.724	0.0153628
867.802	0.0152454
867.880	0.0151162
867.958	0.0150563
868.036	0.0150641
868.114	0.0151025
868.193	0.0150396
868.271	0.0149484
868.349	0.0150803
868.427	0.0150464
868.505	0.0151214
868.583	0.0151518
868.661	0.0150287
868.739	0.0150976
868.818	0.0151549
868.896	0.0151427
868.974	0.0153297
869.052	0.0151782
869.130	0.0152699
869.208	0.0153822
869.286	0.0153495
869.364	0.0151926
869.443	0.0153199
869.521	0.0153581
869.599	0.0153098
869.677	0.0152115
869.755	0.0152240
869.833	0.0150624
869.911	0.0150224
869.989	0.0152015
870.068	0.0151923
870.146	0.0150113
870.224	0.0149934
870.302	0.0151128
870.380	0.0151395
870.458	0.0151540
870.536	0.0151370
870.614	0.0150002
870.693	0.0150055
870.771	0.0151248
870.849	0.0151812
870.927	0.0151254
871.005	0.0151290
871.083	0.0152925
871.161	0.0153568
871.239	0.0153711
871.318	0.0153480
871.396	0.0153905
871.474	0.0153930
871.552	0.0153327
871.630	0.0154388
871.708	0.0154172
871.786	0.0154636
871.864	0.0153045
871.943	0.0153349
872.021	0.0153822
872.099	0.0151467
872.177	0.0151726
872.255	0.0151286
872.333	0.0150665
872.411	0.0149842
872.489	0.0149685
872.568	0.0148858
872.646	0.0149424
872.724	0.0147887
872.802	0.0146371
872.880	0.0148451
872.958	0.0146043
873.036	0.0145299
873.114	0.0147518
873.193	0.0146631
873.271	0.0145372
873.349	0.0145865
873.427	0.0145632
873.505	0.0146081
873.583	0.0145566
873.661	0.0145508
873.739	0.0146056
873.818	0.0147757
873.896	0.0147134
873.974	0.0146305
874.052	0.0147500
874.130	0.0148909
874.208	0.0147679
874.286	0.0147379
874.364	0.0148222
874.443	0.0148971
874.521	0.0148833
874.599	0.0148746
874.677	0.0146606
874.755	0.0145892
874.833	0.0146871
874.911	0.0147996
874.989	0.0149000
875.068	0.0147148
875.146	0.0147208
875.224	0.0146526
875.302	0.0147691
875.380	0.0145846
875.458	0.0145783
875.536	0.0144526
875.614	0.0145520
875.693	0.0145908
875.771	0.0145295
875.849	0.0145994
875.927	0.0146272
876.005	0.0147324
876.083	0.0147117
876.161	0.0147486
876.239	0.0148879
876.318	0.0150009
876.396	0.0149274
876.474	0.0150726
876.552	0.0150432
876.630	0.0150836
876.708	0.0150666
876.786	0.0150917
876.864	0.0150133
876.943	0.0150642
877.021	0.0150172
877.099	0.0149853
877.177	0.0149397
877.255	0.0149024
877.333	0.0148203
877.411	0.0146970
877.489	0.0146902
877.568	0.0145396
877.646	0.0146391
877.724	0.0146704
877.802	0.0144775
877.880	0.0144634
877.958	0.0143530
878.036	0.0144448
878.114	0.0145895
878.193	0.0144424
878.271	0.0145216
878.349	0.0146447
878.427	0.0147166
878.505	0.0148244
878.583	0.0148180
878.661	0.0146358
878.739	0.0149554
878.818	0.0152101
878.896	0.0150877
878.974	0.0151459
879.052	0.0150938
879.130	0.0152223
879.208	0.0152822
879.286	0.0154276
879.364	0.0152414
879.443	0.0150938
879.521	0.0151843
879.599	0.0151838
879.677	0.0151496
879.755	0.0152052
879.833	0.0151769
879.911	0.0150597
879.989	0.0150970
880.068	0.0151422
880.146	0.0150501
880.224	0.0151657
880.302	0.0151927
880.380	0.0151640
880.458	0.0151490
880.536	0.0151153
880.614	0.0151115
880.693	0.0151335
880.771	0.0152052
880.849	0.0152528
880.927	0.0152551
881.005	0.0151617
881.083	0.0151883
881.161	0.0152070
881.239	0.0152158
881.318	0.0152590
881.396	0.0153814
881.474	0.0153996
881.552	0.0152878
881.630	0.0152112
881.708	0.0153093
881.786	0.0151852
881.864	0.0152412
881.943	0.0153183
882.021	0.0153127
882.099	0.0151607
882.177	0.0151926
882.255	0.0151277
882.333	0.0150211
882.411	0.0150513
882.489	0.0149986
882.568	0.0151283
882.646	0.0149162
882.724	0.0150883
882.802	0.0152148
882.880	0.0150660
882.958	0.0150829
883.036	0.0149682
883.114	0.0150102
883.193	0.0150923
883.271	0.0148920
883.349	0.0149937
883.427	0.0147969
883.505	0.0148313
883.583	0.0148830
883.661	0.0149662
883.739	0.0149644
883.818	0.0149387
883.896	0.0147476
883.974	0.0148719
884.052	0.0150272
884.130	0.0148833
884.208	0.0149014
884.286	0.0148452
884.364	0.0148421
884.443	0.0149616
884.521	0.0148957
884.599	0.0149876
884.677	0.0148864
884.755	0.0149207
884.833	0.0148413
884.911	0.0149548
884.989	0.0149263
885.068	0.0149271
885.146	0.0148873
885.224	0.0148664
885.302	0.0147466
885.380	0.0149064
885.458	0.0149892
885.536	0.0148558
885.614	0.0149203
885.693	0.0149133
885.771	0.0148286
885.849	0.0148359
885.927	0.0148708
886.005	0.0150320
886.083	0.0148640
886.161	0.0149554
886.239	0.0147864
886.318	0.0148564
886.396	0.0148272
886.474	0.0148271
886.552	0.0148840
886.630	0.0147743
886.708	0.0147949
886.786	0.0147742
886.864	0.0148373
886.943	0.0149362
887.021	0.0146283
887.099	0.0146318
887.177	0.0146659
887.255	0.0146680
887.333	0.0146964
887.411	0.0145592
887.489	0.0145025
887.568	0.0143922
887.646	0.0146060
887.724	0.0146036
887.802	0.0145031
887.880	0.0144849
887.958	0.0144924
888.036	0.0147310
888.114	0.0146838
888.193	0.0146661
888.271	0.0144736
888.349	0.0147415
888.427	0.0146375
888.505	0.0148666
888.583	0.0148788
888.661	0.0147922
888.739	0.0148928
888.818	0.0147612
888.896	0.0148641
888.974	0.0148943
889.052	0.0149516
889.130	0.0149812
889.208	0.0149900
889.286	0.0151601
889.364	0.0150698
889.443	0.0149724
889.521	0.0150385
889.599	0.0149856
889.677	0.0150239
889.755	0.0151187
889.833	0.0151308
889.911	0.0149420
889.989	0.0149514
890.068	0.0149368
890.146	0.0149496
890.224	0.0148851
890.302	0.0147684
890.380	0.0149290
890.458	0.0148750
890.536	0.0147009
890.614	0.0146333
890.693	0.0147504
890.771	0.0146979
890.849	0.0146318
890.927	0.0147072
891.005	0.0146587
891.083	0.0147523
891.161	0.0146792
891.239	0.0145648
891.318	0.0146932
891.396	0.0149151
891.474	0.0147490
891.552	0.0147290
891.630	0.0147330
891.708	0.0148262
891.786	0.0147755
891.864	0.0148080
891.943	0.0149029
892.021	0.0149718
892.099	0.0148441
892.177	0.0147393
892.255	0.0148444
892.333	0.0148008
892.411	0.0149199
892.489	0.0150473
892.568	0.0149680
892.646	0.0150061
892.724	0.0149773
892.802	0.0148945
892.880	0.0150841
892.958	0.0151540
893.036	0.0150271
893.114	0.0151617
893.193	0.0152108
893.271	0.0151102
893.349	0.0151237
893.427	0.0152511
893.505	0.0150206
893.583	0.0150941
893.661	0.0152359
893.739	0.0149473
893.818	0.0151331
893.896	0.0151563
893.974	0.0151717
894.052	0.0151655
894.130	0.0151417
894.208	0.0152494
894.286	0.0152874
894.364	0.0152988
894.443	0.0153316
894.521	0.0153741
894.599	0.0153481
894.677	0.0154430
894.755	0.0153622
894.833	0.0152717
894.911	0.0153477
894.989	0.0152306
895.068	0.0153670
895.146	0.0151965
895.224	0.0151130
895.302	0.0150648
895.380	0.0150648
895.458	0.0151377
895.536	0.0149540
895.614	0.0148980
895.693	0.0149232
895.771	0.0149616
895.849	0.0148761
895.927	0.0148882
896.005	0.0150909
896.083	0.0150881
896.161	0.0150037
896.239	0.0149075
896.318	0.0150663
896.396	0.0148890
896.474	0.0150977
896.552	0.0151042
896.630	0.0152157
896.708	0.0150255
896.786	0.0149959
896.864	0.0149326
896.943	0.0150314
897.021	0.0149964
897.099	0.0149361
897.177	0.0149393
897.255	0.0150754
897.333	0.0149930
897.411	0.0149602
897.489	0.0149245
897.568	0.0149612
897.646	0.0149154
897.724	0.0148664
897.802	0.0148467
897.880	0.0147146
897.958	0.0148477
898.036	0.0147646
898.114	0.0146683
898.193	0.0146549
898.271	0.0145779
898.349	0.0144994
898.427	0.0145881
898.505	0.0146042
898.583	0.0146146
898.661	0.0145979
898.739	0.0146469
898.818	0.0146816
898.896	0.0146810
898.974	0.0145683
899.052	0.0147355
899.130	0.0148154
899.208	0.0148856
899.286	0.0147539
899.364	0.0148308
899.443	0.0149407
899.521	0.0148615
899.599	0.0150394
899.677	0.0151072
899.755	0.0151009
899.833	0.0149290
899.911	0.0149657
899.989	0.0149841
900.068	0.0149524
900.146	0.0148615
900.224	0.0149554
900.302	0.0147622
900.380	0.0146549
900.458	0.0147285
900.536	0.0147489
900.614	0.0146500
900.693	0.0145921
900.771	0.0146725
900.849	0.0148451
900.927	0.0147424
901.005	0.0148428
901.083	0.0148161
901.161	0.0146697
901.239	0.0149014
901.318	0.0148152
901.396	0.0147589
901.474	0.0148616
901.552	0.0149654
901.630	0.0149697
901.708	0.0149254
901.786	0.0149373
901.864	0.0148756
901.943	0.0149126
902.021	0.0147378
902.099	0.0147842
902.177	0.0147311
902.255	0.0148003
902.333	0.0147654
902.411	0.0146254
902.489	0.0145219
902.568	0.0146181
902.646	0.0147560
902.724	0.0146836
902.802	0.0147735
902.880	0.0148019
902.958	0.0147706
903.036	0.0148737
903.114	0.0150117
903.193	0.0149041
903.271	0.0150493
903.349	0.0149726
903.427	0.0150401
903.505	0.0150447
903.583	0.0150439
903.661	0.0150306
903.739	0.0151491
903.818	0.0151104
903.896	0.0151884
903.974	0.0151329
904.052	0.0150288
904.130	0.0151166
904.208	0.0151875
904.286	0.0152087
904.364	0.0151570
904.443	0.0152041
904.521	0.0151382
904.599	0.0152298
904.677	0.0152373
904.755	0.0153592
904.833	0.0153217
904.911	0.0153707
904.989	0.0153690
905.068	0.0153967
905.146	0.0153726
905.224	0.0152742
905.302	0.0152827
905.380	0.0153201
905.458	0.0153099
905.536	0.0152763
905.614	0.0151548
905.693	0.0153374
905.771	0.0152650
905.849	0.0150716
905.927	0.0151916
906.005	0.0150652
906.083	0.0151988
906.161	0.0151331
906.239	0.0149264
906.318	0.0151057
906.396	0.0149650
906.474	0.0150134
906.552	0.0148956
906.630	0.0149911
906.708	0.0148733
906.786	0.0149366
906.864	0.0149554
906.943	0.0149339
907.021	0.0149997
907.099	0.0151167
907.177	0.0150005
907.255	0.0149628
907.333	0.0151344
907.411	0.0151495
907.489	0.0151197
907.568	0.0152210
907.646	0.0152648
907.724	0.0150497
907.802	0.0148954
907.880	0.0150146
907.958	0.0150182
908.036	0.0150090
908.114	0.0148722
908.193	0.0149541
908.271	0.0149644
908.349	0.0148123
908.427	0.0148381
908.505	0.0147442
908.583	0.0146391
908.661	0.0146873
908.739	0.0146712
908.818	0.0145293
908.896	0.0146803
908.974	0.0147322
909.052	0.0146481
909.130	0.0147102
909.208	0.0147050
909.286	0.0147295
909.364	0.0148064
909.443	0.0147573
909.521	0.0147872
909.599	0.0147737
909.677	0.0148445
909.755	0.0148059
909.833	0.0148236
909.911	0.0148219
909.989	0.0146823
910.068	0.0147695
910.146	0.0147253
910.224	0.0146159
910.302	0.0147334
910.380	0.0146034
910.458	0.0144751
910.536	0.0145306
910.614	0.0145426
910.693	0.0145153
910.771	0.0144868
910.849	0.0144232
910.927	0.0144372
911.005	0.0144750
911.083	0.0145306
911.161	0.0145735
911.239	0.0147914
911.318	0.0146925
911.396	0.0145753
911.474	0.0147738
911.552	0.0147291
911.630	0.0147540
911.708	0.0148009
911.786	0.0148336
911.864	0.0148949
911.943	0.0148144
912.021	0.0148389
912.099	0.0149651
912.177	0.0149193
912.255	0.0147655
912.333	0.0147411
912.411	0.0148733
912.489	0.0149837
912.568	0.0148624
912.646	0.0148561
912.724	0.0148968
912.802	0.0147986
912.880	0.0146573
912.958	0.0148205
913.036	0.0149013
913.114	0.0150504
913.193	0.0149208
913.271	0.0147684
913.349	0.0150172
913.427	0.0149534
913.505	0.0148991
913.583	0.0150822
913.661	0.0151617
913.739	0.0150314
913.818	0.0150559
913.896	0.0151012
913.974	0.0150459
914.052	0.0150552
914.130	0.0149770
914.208	0.0150672
914.286	0.0150590
914.364	0.0151058
914.443	0.0149773
914.521	0.0150745
914.599	0.0148930
914.677	0.0149449
914.755	0.0149626
914.833	0.0149872
914.911	0.0150652
914.989	0.0149207
915.068	0.0150641
915.146	0.0151067
915.224	0.0149657
915.302	0.0150375
915.380	0.0151807
915.458	0.0149612
915.536	0.0150243
915.614	0.0151306
915.693	0.0150179
915.771	0.0147924
915.849	0.0150023
915.927	0.0149250
916.005	0.0149393
916.083	0.0149638
916.161	0.0148209
916.239	0.0149583
916.318	0.0149738
916.396	0.0148393
916.474	0.0149472
916.552	0.0147607
916.630	0.0148659
916.708	0.0149778
916.786	0.0149020
916.864	0.0149001
916.943	0.0150155
917.021	0.0148822
917.099	0.0149958
917.177	0.0149865
917.255	0.0148249
917.333	0.0150557
917.411	0.0150565
917.489	0.0150665
917.568	0.0150914
917.646	0.0149507
917.724	0.0150357
917.802	0.0151520
917.880	0.0151635
917.958	0.0152309
918.036	0.0151707
918.114	0.0150724
918.193	0.0153430
918.271	0.0152293
918.349	0.0152267
918.427	0.0152007
918.505	0.0153642
918.583	0.0153086
918.661	0.0151901
918.739	0.0152272
918.818	0.0152198
918.896	0.0151579
918.974	0.0151836
919.052	0.0152404
919.130	0.0152729
919.208	0.0151534
919.286	0.0150714
919.364	0.0151389
919.443	0.0150617
919.521	0.0150467
919.599	0.0150499
919.677	0.0148818
919.755	0.0149253
919.833	0.0150835
919.911	0.0151261
919.989	0.0152097
920.068	0.0150112
920.146	0.0150125
920.224	0.0150688
920.302	0.0150317
920.380	0.0150429
920.458	0.0151683
920.536	0.0150818
920.614	0.0150915
920.693	0.0149904
920.771	0.0149229
920.849	0.0149680
920.927	0.0149183
921.005	0.0148016
921.083	0.0149345
921.161	0.0149811
921.239	0.0150189
921.318	0.0147901
921.396	0.0147863
921.474	0.0148030
921.552	0.0148914
921.630	0.0149753
921.708	0.0148518
921.786	0.0147784
921.864	0.0149317
921.943	0.0149631
922.021	0.0148003
922.099	0.0148096
922.177	0.0149611
922.255	0.0150023
922.333	0.0151100
922.411	0.0148746
922.489	0.0149670
922.568	0.0150976
922.646	0.0149281
922.724	0.0149593
922.802	0.0149720
922.880	0.0148621
922.958	0.0149197
923.036	0.0149113
923.114	0.0149403
923.193	0.0150011
923.271	0.0149640
923.349	0.0149825
923.427	0.0150537
923.505	0.0149798
923.583	0.0150294
923.661	0.0149347
923.739	0.0150298
923.818	0.0150445
923.896	0.0149229
923.974	0.0149944
924.052	0.0150177
924.130	0.0150014
924.208	0.0150290
924.286	0.0150270
924.364	0.0148692
924.443	0.0148903
924.521	0.0150925
924.599	0.0150613
924.677	0.0148498
924.755	0.0148965
924.833	0.0148655
924.911	0.0148500
924.989	0.0148073
925.068	0.0148648
925.146	0.0149233
925.224	0.0149767
925.302	0.0150145
925.380	0.0148897
925.458	0.0149847
925.536	0.0148850
925.614	0.0150839
925.693	0.0150603
925.771	0.0148323
925.849	0.0150553
925.927	0.0150970
926.005	0.0151096
926.083	0.0149610
926.161	0.0151391
926.239	0.0150435
926.318	0.0149969
926.396	0.0150492
926.474	0.0152430
926.552	0.0150835
926.630	0.0150375
926.708	0.0152038
926.786	0.0152677
926.864	0.0150479
926.943	0.0150564
927.021	0.0150980
927.099	0.0151107
927.177	0.0151599
927.255	0.0150684
927.333	0.0151939
927.411	0.0152567
927.489	0.0151383
927.568	0.0151349
927.646	0.0151238
927.724	0.0151578
927.802	0.0150556
927.880	0.0149104
927.958	0.0149778
928.036	0.0151576
928.114	0.0150560
928.193	0.0151690
928.271	0.0150250
928.349	0.0148431
928.427	0.0149410
928.505	0.0150938
928.583	0.0149728
928.661	0.0150233
928.739	0.0149726
928.818	0.0149512
928.896	0.0149226
928.974	0.0149648
929.052	0.0149040
929.130	0.0149394
929.208	0.0149175
929.286	0.0150311
929.364	0.0148892
929.443	0.0148076
929.521	0.0147929
929.599	0.0149021
929.677	0.0150227
929.755	0.0148967
929.833	0.0147675
929.911	0.0147538
929.989	0.0148479
930.068	0.0149148
930.146	0.0147229
930.224	0.0148090
930.302	0.0148094
930.380	0.0149300
930.458	0.0148815
930.536	0.0148583
930.614	0.0150277
930.693	0.0149558
930.771	0.0149740
930.849	0.0150816
930.927	0.0148518
931.005	0.0150673
931.083	0.0150430
931.161	0.0150629
931.239	0.0150664
931.318	0.0149404
931.396	0.0148880
931.474	0.0149654
931.552	0.0148649
931.630	0.0149497
931.708	0.0149442
931.786	0.0149515
931.864	0.0149017
931.943	0.0150388
932.021	0.0149645
932.099	0.0149501
932.177	0.0150265
932.255	0.0150204
932.333	0.0150053
932.411	0.0150140
932.489	0.0151573
932.568	0.0150987
932.646	0.0150546
932.724	0.0151167
932.802	0.0151248
932.880	0.0150272
932.958	0.0149934
933.036	0.0149406
933.114	0.0148073
933.193	0.0150344
933.271	0.0150503
933.349	0.0149809
933.427	0.0150191
933.505	0.0149475
933.583	0.0150683
933.661	0.0150242
933.739	0.0149837
933.818	0.0150051
933.896	0.0149422
933.974	0.0150465
934.052	0.0150162
934.130	0.0151601
934.208	0.0152007
934.286	0.0150723
934.364	0.0151878
934.443	0.0152271
934.521	0.0150789
934.599	0.0152681
934.677	0.0152177
934.755	0.0153131
934.833	0.0152934
934.911	0.0152816
934.989	0.0151719
935.068	0.0151319
935.146	0.0152705
935.224	0.0151765
935.302	0.0151544
935.380	0.0151551
935.458	0.0151427
935.536	0.0152049
935.614	0.0149858
935.693	0.0151721
935.771	0.0150195
935.849	0.0149501
935.927	0.0150287
936.005	0.0151012
936.083	0.0151306
936.161	0.0150343
936.239	0.0149984
936.318	0.0149895
936.396	0.0149939
936.474	0.0149422
936.552	0.0149681
936.630	0.0149319
936.708	0.0147573
936.786	0.0148431
936.864	0.0148746
936.943	0.0148128
937.021	0.0148339
937.099	0.0147404
937.177	0.0148866
937.255	0.0149191
937.333	0.0148962
937.411	0.0149564
937.489	0.0149357
937.568	0.0149333
937.646	0.0149303
937.724	0.0149329
937.802	0.0149189
937.880	0.0148843
937.958	0.0149247
938.036	0.0149300
938.114	0.0151741
938.193	0.0151533
938.271	0.0149929
938.349	0.0150490
938.427	0.0150209
938.505	0.0150167
938.583	0.0151921
938.661	0.0151202
938.739	0.0151243
938.818	0.0151115
938.896	0.0150531
938.974	0.0151776
939.052	0.0150167
939.130	0.0151474
939.208	0.0151740
939.286	0.0150991
939.364	0.0150401
939.443	0.0150671
939.521	0.0150559
939.599	0.0153155
939.677	0.0151512
939.755	0.0151035
939.833	0.0151474
939.911	0.0151486
939.989	0.0151357
940.068	0.0152100
940.146	0.0152596
940.224	0.0151852
940.302	0.0151991
940.380	0.0151161
940.458	0.0153508
940.536	0.0150983
940.614	0.0152920
940.693	0.0151895
940.771	0.0151341
940.849	0.0149658
940.927	0.0150690
941.005	0.0149751
941.083	0.0150251
941.161	0.0150310
941.239	0.0148905
941.318	0.0149372
941.396	0.0147614
941.474	0.0147636
941.552	0.0146650
941.630	0.0147897
941.708	0.0146451
941.786	0.0146249
941.864	0.0145629
941.943	0.0146728
942.021	0.0147224
942.099	0.0147083
942.177	0.0147549
942.255	0.0146117
942.333	0.0145789
942.411	0.0148500
942.489	0.0148708
942.568	0.0147656
942.646	0.0148246
942.724	0.0148380
942.802	0.0148981
942.880	0.0148604
942.958	0.0149407
943.036	0.0149290
943.114	0.0150222
943.193	0.0151451
943.271	0.0150349
943.349	0.0150577
943.427	0.0151421
943.505	0.0150144
943.583	0.0149979
943.661	0.0149847
943.739	0.0151358
943.818	0.0152048
943.896	0.0152566
943.974	0.0150880
944.052	0.0151691
944.130	0.0152173
944.208	0.0151990
944.286	0.0152866
944.364	0.0150809
944.443	0.0151390
944.521	0.0152160
944.599	0.0151453
944.677	0.0150925
944.755	0.0150954
944.833	0.0150179
944.911	0.0149120
944.989	0.0150461
945.068	0.0149815
945.146	0.0149828
945.224	0.0149026
945.302	0.0149352
945.380	0.0148489
945.458	0.0148524
945.536	0.0149891
945.614	0.0150515
945.693	0.0149339
945.771	0.0149525
945.849	0.0148505
945.927	0.0150047
946.005	0.0149895
946.083	0.0148571
946.161	0.0149787
946.239	0.0150954
946.318	0.0149657
946.396	0.0150797
946.474	0.0150275
946.552	0.0150566
946.630	0.0150813
946.708	0.0151260
946.786	0.0151859
946.864	0.0152549
946.943	0.0151254
947.021	0.0151080
947.099	0.0151417
947.177	0.0151652
947.255	0.0151163
947.333	0.0151561
947.411	0.0149902
947.489	0.0151020
947.568	0.0152013
947.646	0.0152088
947.724	0.0152434
947.802	0.0151138
947.880	0.0150380
947.958	0.0149896
948.036	0.0150600
948.114	0.0149639
948.193	0.0150985
948.271	0.0151650
948.349	0.0151474
948.427	0.0151184
948.505	0.0151363
948.583	0.0150315
948.661	0.0149698
948.739	0.0151370
948.818	0.0151753
948.896	0.0151886
948.974	0.0150807
949.052	0.0151935
949.130	0.0151201
949.208	0.0151659
949.286	0.0151598
949.364	0.0151670
949.443	0.0150801
949.521	0.0150556
949.599	0.0150833
949.677	0.0152299
949.755	0.0151028
949.833	0.0152201
949.911	0.0152361
949.989	0.0151939
950.068	0.0152024
950.146	0.0151812
950.224	0.0153364
950.302	0.0152970
950.380	0.0150810
950.458	0.0151460
950.536	0.0151364
950.614	0.0152090
950.693	0.0151169
950.771	0.0151347
950.849	0.0150637
950.927	0.0152345
951.005	0.0150877
951.083	0.0150015
951.161	0.0150766
951.239	0.0150024
951.318	0.0150134
951.396	0.0150801
951.474	0.0150372
951.552	0.0150318
951.630	0.0150343
951.708	0.0150302
951.786	0.0149563
951.864	0.0150944
951.943	0.0151740
952.021	0.0151618
952.099	0.0151781
952.177	0.0150788
952.255	0.0152377
952.333	0.0152579
952.411	0.0152215
952.489	0.0152749
952.568	0.0151464
952.646	0.0152962
952.724	0.0152221
952.802	0.0152354
952.880	0.0151921
952.958	0.0152301
953.036	0.0151731
953.114	0.0152800
953.193	0.0151991
953.271	0.0150774
953.349	0.0150791
953.427	0.0152007
953.505	0.0152312
953.583	0.0150373
953.661	0.0149951
953.739	0.0150980
953.818	0.0150283
953.896	0.0150773
953.974	0.0149658
954.052	0.0150306
954.130	0.0149861
954.208	0.0149902
954.286	0.0149760
954.364	0.0150075
954.443	0.0149835
954.521	0.0150570
954.599	0.0150598
954.677	0.0150335
954.755	0.0148430
954.833	0.0150494
954.911	0.0151575
954.989	0.0150844
955.068	0.0150018
955.146	0.0150450
955.224	0.0151406
955.302	0.0151058
955.380	0.0150919
955.458	0.0149707
955.536	0.0149735
955.614	0.0148888
955.693	0.0148341
955.771	0.0148801
955.849	0.0149738
955.927	0.0147013
956.005	0.0146810
956.083	0.0148172
956.161	0.0147616
956.239	0.0147536
956.318	0.0148026
956.396	0.0146293
956.474	0.0148062
956.552	0.0147369
956.630	0.0147414
956.708	0.0147836
956.786	0.0148451
956.864	0.0148397
956.943	0.0149197
957.021	0.0150148
957.099	0.0149528
957.177	0.0149203
957.255	0.0149552
957.333	0.0148878
957.411	0.0151123
957.489	0.0150966
957.568	0.0150964
957.646	0.0151503
957.724	0.0151417
957.802	0.0151964
957.880	0.0150344
957.958	0.0150247
958.036	0.0151804
958.114	0.0152362
958.193	0.0151858
958.271	0.0152580
958.349	0.0153426
958.427	0.0152529
958.505	0.0152788
958.583	0.0152113
958.661	0.0152075
958.739	0.0152151
958.818	0.0151366
958.896	0.0149733
958.974	0.0152593
959.052	0.0151397
959.130	0.0150663
959.208	0.0150909
959.286	0.0150906
959.364	0.0150790
959.443	0.0150748
959.521	0.0149202
959.599	0.0151574
959.677	0.0150539
959.755	0.0150362
959.833	0.0151488
959.911	0.0152462
