05/14/2022	16:21:11	Ver.	4.1	UNKNOWN
Optical Delay	639.989416	Delta X		0.078125	Sweeps	1	Scan Rate	0/0
Coordinates	Axis 1	NaN	Axis 2	NaN	Axis 3	NaN	Axis 4	NaN	Axis 5	NaN	Axis 6	0.000000
TX Power	0.000000	RX Power	0.000000

639.989	0.0136648
640.068	0.0136480
640.146	0.0136907
640.224	0.0137005
640.302	0.0136194
640.380	0.0136985
640.458	0.0137290
640.536	0.0137027
640.614	0.0135352
640.693	0.0136569
640.771	0.0137436
640.849	0.0135560
640.927	0.0136613
641.005	0.0136211
641.083	0.0136557
641.161	0.0137463
641.239	0.0137258
641.318	0.0136776
641.396	0.0137486
641.474	0.0136933
641.552	0.0137563
641.630	0.0137743
641.708	0.0136729
641.786	0.0136546
641.864	0.0136129
641.943	0.0136545
642.021	0.0134568
642.099	0.0136388
642.177	0.0136608
642.255	0.0135658
642.333	0.0135616
642.411	0.0136876
642.489	0.0137315
642.568	0.0136266
642.646	0.0136099
642.724	0.0135426
642.802	0.0135429
642.880	0.0136984
642.958	0.0137431
643.036	0.0137707
643.114	0.0136534
643.193	0.0136626
643.271	0.0136481
643.349	0.0135681
643.427	0.0136538
643.505	0.0137458
643.583	0.0137423
643.661	0.0136391
643.739	0.0137135
643.818	0.0137964
643.896	0.0136181
643.974	0.0136284
644.052	0.0136292
644.130	0.0134968
644.208	0.0136440
644.286	0.0136694
644.364	0.0135269
644.443	0.0136777
644.521	0.0136994
644.599	0.0135460
644.677	0.0136291
644.755	0.0136875
644.833	0.0135702
644.911	0.0137181
644.989	0.0136893
645.068	0.0136475
645.146	0.0136556
645.224	0.0135820
645.302	0.0135691
645.380	0.0135983
645.458	0.0136745
645.536	0.0136335
645.614	0.0137210
645.693	0.0137561
645.771	0.0136269
645.849	0.0137254
645.927	0.0136256
646.005	0.0136853
646.083	0.0136050
646.161	0.0135037
646.239	0.0137154
646.318	0.0136501
646.396	0.0135978
646.474	0.0135379
646.552	0.0134988
646.630	0.0136846
646.708	0.0137220
646.786	0.0138507
646.864	0.0136531
646.943	0.0136177
647.021	0.0136488
647.099	0.0136867
647.177	0.0137330
647.255	0.0135453
647.333	0.0135793
647.411	0.0135997
647.489	0.0136470
647.568	0.0136455
647.646	0.0136781
647.724	0.0136616
647.802	0.0135640
647.880	0.0135932
647.958	0.0136585
648.036	0.0137361
648.114	0.0136720
648.193	0.0135631
648.271	0.0136697
648.349	0.0135941
648.427	0.0137175
648.505	0.0137331
648.583	0.0136049
648.661	0.0135738
648.739	0.0136381
648.818	0.0136335
648.896	0.0135932
648.974	0.0136211
649.052	0.0136954
649.130	0.0137611
649.208	0.0135870
649.286	0.0137129
649.364	0.0135888
649.443	0.0137034
649.521	0.0135493
649.599	0.0135551
649.677	0.0136142
649.755	0.0135333
649.833	0.0135442
649.911	0.0137034
649.989	0.0136940
650.068	0.0136257
650.146	0.0136387
650.224	0.0135186
650.302	0.0134816
650.380	0.0137452
650.458	0.0137183
650.536	0.0136584
650.614	0.0136003
650.693	0.0136884
650.771	0.0135917
650.849	0.0136079
650.927	0.0136275
651.005	0.0136243
651.083	0.0135162
651.161	0.0135357
651.239	0.0136414
651.318	0.0137210
651.396	0.0136147
651.474	0.0135401
651.552	0.0136779
651.630	0.0136406
651.708	0.0136219
651.786	0.0135836
651.864	0.0136110
651.943	0.0136185
652.021	0.0137598
652.099	0.0137144
652.177	0.0135426
652.255	0.0137277
652.333	0.0136322
652.411	0.0136452
652.489	0.0136630
652.568	0.0135095
652.646	0.0136121
652.724	0.0136771
652.802	0.0137235
652.880	0.0137360
652.958	0.0136105
653.036	0.0137949
653.114	0.0137105
653.193	0.0136092
653.271	0.0138103
653.349	0.0135303
653.427	0.0136401
653.505	0.0136377
653.583	0.0136217
653.661	0.0136820
653.739	0.0136108
653.818	0.0137106
653.896	0.0135907
653.974	0.0136423
654.052	0.0136137
654.130	0.0136159
654.208	0.0136009
654.286	0.0136780
654.364	0.0136198
654.443	0.0136224
654.521	0.0136485
654.599	0.0136163
654.677	0.0136595
654.755	0.0136879
654.833	0.0135766
654.911	0.0137064
654.989	0.0136430
655.068	0.0136650
655.146	0.0136772
655.224	0.0138848
655.302	0.0136330
655.380	0.0136988
655.458	0.0136609
655.536	0.0134726
655.614	0.0136399
655.693	0.0136967
655.771	0.0136272
655.849	0.0136789
655.927	0.0137489
656.005	0.0138257
656.083	0.0136825
656.161	0.0136932
656.239	0.0137424
656.318	0.0136342
656.396	0.0137373
656.474	0.0137336
656.552	0.0137017
656.630	0.0136855
656.708	0.0137968
656.786	0.0137148
656.864	0.0137053
656.943	0.0136488
657.021	0.0136095
657.099	0.0137380
657.177	0.0136598
657.255	0.0136931
657.333	0.0136850
657.411	0.0137846
657.489	0.0135768
657.568	0.0135620
657.646	0.0135899
657.724	0.0136505
657.802	0.0136874
657.880	0.0136905
657.958	0.0136536
658.036	0.0136195
658.114	0.0137591
658.193	0.0135710
658.271	0.0135674
658.349	0.0136310
658.427	0.0136281
658.505	0.0135842
658.583	0.0137211
658.661	0.0135985
658.739	0.0136918
658.818	0.0136692
658.896	0.0137853
658.974	0.0135534
659.052	0.0136113
659.130	0.0136605
659.208	0.0135892
659.286	0.0137521
659.364	0.0137098
659.443	0.0136314
659.521	0.0136366
659.599	0.0135822
659.677	0.0136761
659.755	0.0136538
659.833	0.0136591
659.911	0.0135732
659.989	0.0135890
660.068	0.0136791
660.146	0.0135629
660.224	0.0135474
660.302	0.0136631
660.380	0.0136310
660.458	0.0136502
660.536	0.0137170
660.614	0.0135618
660.693	0.0136848
660.771	0.0136972
660.849	0.0135926
660.927	0.0136652
661.005	0.0135652
661.083	0.0136795
661.161	0.0135686
661.239	0.0135616
661.318	0.0135537
661.396	0.0136884
661.474	0.0136544
661.552	0.0136647
661.630	0.0137161
661.708	0.0137865
661.786	0.0137735
661.864	0.0136540
661.943	0.0137051
662.021	0.0137631
662.099	0.0136110
662.177	0.0135503
662.255	0.0136723
662.333	0.0136475
662.411	0.0135666
662.489	0.0135664
662.568	0.0136589
662.646	0.0136319
662.724	0.0136647
662.802	0.0136620
662.880	0.0136687
662.958	0.0136171
663.036	0.0137057
663.114	0.0136000
663.193	0.0136275
663.271	0.0137431
663.349	0.0137305
663.427	0.0137197
663.505	0.0136118
663.583	0.0135977
663.661	0.0136413
663.739	0.0136298
663.818	0.0135732
663.896	0.0136337
663.974	0.0136162
664.052	0.0137565
664.130	0.0137076
664.208	0.0136676
664.286	0.0136127
664.364	0.0137086
664.443	0.0135802
664.521	0.0135477
664.599	0.0135640
664.677	0.0136467
664.755	0.0136506
664.833	0.0136561
664.911	0.0135638
664.989	0.0136189
665.068	0.0136855
665.146	0.0136230
665.224	0.0135763
665.302	0.0135310
665.380	0.0135593
665.458	0.0135317
665.536	0.0135768
665.614	0.0135779
665.693	0.0136608
665.771	0.0136340
665.849	0.0135187
665.927	0.0136389
666.005	0.0137920
666.083	0.0137103
666.161	0.0136069
666.239	0.0135448
666.318	0.0136540
666.396	0.0136177
666.474	0.0135316
666.552	0.0136215
666.630	0.0135722
666.708	0.0135043
666.786	0.0135278
666.864	0.0136456
666.943	0.0136997
667.021	0.0135455
667.099	0.0134686
667.177	0.0135340
667.255	0.0137162
667.333	0.0135826
667.411	0.0135980
667.489	0.0136550
667.568	0.0135858
667.646	0.0136215
667.724	0.0136604
667.802	0.0136205
667.880	0.0135439
667.958	0.0135439
668.036	0.0137214
668.114	0.0136462
668.193	0.0136152
668.271	0.0135648
668.349	0.0135464
668.427	0.0136317
668.505	0.0136971
668.583	0.0136012
668.661	0.0135606
668.739	0.0136204
668.818	0.0136807
668.896	0.0135610
668.974	0.0136249
669.052	0.0135119
669.130	0.0137036
669.208	0.0137589
669.286	0.0136794
669.364	0.0135560
669.443	0.0135566
669.521	0.0135890
669.599	0.0137128
669.677	0.0136710
669.755	0.0137804
669.833	0.0135040
669.911	0.0136461
669.989	0.0137594
670.068	0.0136124
670.146	0.0135114
670.224	0.0135496
670.302	0.0137189
670.380	0.0136847
670.458	0.0136119
670.536	0.0136733
670.614	0.0137148
670.693	0.0135385
670.771	0.0136742
670.849	0.0137332
670.927	0.0137205
671.005	0.0135767
671.083	0.0136376
671.161	0.0137592
671.239	0.0136452
671.318	0.0136805
671.396	0.0135282
671.474	0.0137221
671.552	0.0137041
671.630	0.0135903
671.708	0.0137515
671.786	0.0138780
671.864	0.0136794
671.943	0.0137170
672.021	0.0137367
672.099	0.0137763
672.177	0.0136886
672.255	0.0137374
672.333	0.0136721
672.411	0.0135034
672.489	0.0136414
672.568	0.0135780
672.646	0.0135833
672.724	0.0138189
672.802	0.0135789
672.880	0.0136821
672.958	0.0136735
673.036	0.0137896
673.114	0.0137376
673.193	0.0136774
673.271	0.0137061
673.349	0.0136109
673.427	0.0135344
673.505	0.0137331
673.583	0.0137972
673.661	0.0136974
673.739	0.0137695
673.818	0.0137540
673.896	0.0136874
673.974	0.0136757
674.052	0.0136370
674.130	0.0138491
674.208	0.0136153
674.286	0.0136919
674.364	0.0136230
674.443	0.0136961
674.521	0.0136757
674.599	0.0136686
674.677	0.0138523
674.755	0.0136491
674.833	0.0136293
674.911	0.0136765
674.989	0.0137251
675.068	0.0136842
675.146	0.0136600
675.224	0.0137379
675.302	0.0136188
675.380	0.0136719
675.458	0.0137778
675.536	0.0136713
675.614	0.0137145
675.693	0.0136877
675.771	0.0136143
675.849	0.0136103
675.927	0.0136387
676.005	0.0136761
676.083	0.0136512
676.161	0.0136865
676.239	0.0135867
676.318	0.0136338
676.396	0.0136949
676.474	0.0137450
676.552	0.0134982
676.630	0.0138564
676.708	0.0138208
676.786	0.0135207
676.864	0.0136099
676.943	0.0137563
677.021	0.0137561
677.099	0.0135111
677.177	0.0136591
677.255	0.0137052
677.333	0.0134521
677.411	0.0135310
677.489	0.0137605
677.568	0.0136224
677.646	0.0135529
677.724	0.0136154
677.802	0.0136845
677.880	0.0135238
677.958	0.0135725
678.036	0.0137205
678.114	0.0137088
678.193	0.0135274
678.271	0.0135545
678.349	0.0135970
678.427	0.0135873
678.505	0.0136812
678.583	0.0136519
678.661	0.0137019
678.739	0.0135461
678.818	0.0135922
678.896	0.0133795
678.974	0.0136175
679.052	0.0136268
679.130	0.0136008
679.208	0.0136065
679.286	0.0136784
679.364	0.0134938
679.443	0.0135917
679.521	0.0136352
679.599	0.0135592
679.677	0.0136626
679.755	0.0136290
679.833	0.0136836
679.911	0.0137336
679.989	0.0136126
680.068	0.0136426
680.146	0.0135588
680.224	0.0135422
680.302	0.0134029
680.380	0.0136192
680.458	0.0136932
680.536	0.0135313
680.614	0.0136090
680.693	0.0136887
680.771	0.0136392
680.849	0.0135583
680.927	0.0136629
681.005	0.0134829
681.083	0.0136363
681.161	0.0135886
681.239	0.0136193
681.318	0.0134583
681.396	0.0136772
681.474	0.0135458
681.552	0.0134969
681.630	0.0135871
681.708	0.0136079
681.786	0.0135893
681.864	0.0135697
681.943	0.0135859
682.021	0.0136668
682.099	0.0135186
682.177	0.0136695
682.255	0.0136069
682.333	0.0136340
682.411	0.0136111
682.489	0.0136385
682.568	0.0136002
682.646	0.0135114
682.724	0.0137241
682.802	0.0136197
682.880	0.0137073
682.958	0.0137356
683.036	0.0136507
683.114	0.0135238
683.193	0.0137238
683.271	0.0136025
683.349	0.0137097
683.427	0.0136979
683.505	0.0136622
683.583	0.0135133
683.661	0.0136507
683.739	0.0135906
683.818	0.0136623
683.896	0.0136919
683.974	0.0137283
684.052	0.0136074
684.130	0.0135670
684.208	0.0136600
684.286	0.0136546
684.364	0.0135848
684.443	0.0137349
684.521	0.0136531
684.599	0.0135033
684.677	0.0136786
684.755	0.0136537
684.833	0.0137406
684.911	0.0137769
684.989	0.0136701
685.068	0.0137055
685.146	0.0137714
685.224	0.0136770
685.302	0.0136768
685.380	0.0136374
685.458	0.0136588
685.536	0.0136462
685.614	0.0137939
685.693	0.0136311
685.771	0.0136594
685.849	0.0136226
685.927	0.0136520
686.005	0.0137277
686.083	0.0136565
686.161	0.0136572
686.239	0.0137996
686.318	0.0137722
686.396	0.0137172
686.474	0.0136496
686.552	0.0136882
686.630	0.0137282
686.708	0.0137357
686.786	0.0138229
686.864	0.0136871
686.943	0.0136285
687.021	0.0136220
687.099	0.0135793
687.177	0.0135915
687.255	0.0137403
687.333	0.0136333
687.411	0.0134061
687.489	0.0135638
687.568	0.0135404
687.646	0.0135974
687.724	0.0135822
687.802	0.0135917
687.880	0.0136578
687.958	0.0136603
688.036	0.0137424
688.114	0.0136512
688.193	0.0137933
688.271	0.0137370
688.349	0.0136235
688.427	0.0136241
688.505	0.0134207
688.583	0.0132986
688.661	0.0131956
688.739	0.0133113
688.818	0.0133218
688.896	0.0132138
688.974	0.0134534
689.052	0.0134574
689.130	0.0135565
689.208	0.0136752
689.286	0.0139816
689.364	0.0142831
689.443	0.0141287
689.521	0.0143039
689.599	0.0145476
689.677	0.0144953
689.755	0.0144946
689.833	0.0143521
689.911	0.0142542
689.989	0.0143243
690.068	0.0141225
690.146	0.0136975
690.224	0.0137054
690.302	0.0134927
690.380	0.0131923
690.458	0.0129792
690.536	0.0129011
690.614	0.0126796
690.693	0.0126917
690.771	0.0124340
690.849	0.0123546
690.927	0.0123693
691.005	0.0122488
691.083	0.0125146
691.161	0.0126344
691.239	0.0126555
691.318	0.0129095
691.396	0.0131645
691.474	0.0136206
691.552	0.0140584
691.630	0.0143515
691.708	0.0147820
691.786	0.0152606
691.864	0.0156581
691.943	0.0157613
692.021	0.0161542
692.099	0.0162449
692.177	0.0161880
692.255	0.0160191
692.333	0.0158063
692.411	0.0154668
692.489	0.0151216
692.568	0.0145913
692.646	0.0140209
692.724	0.0133183
692.802	0.0129597
692.880	0.0123788
692.958	0.0116913
693.036	0.0112464
693.114	0.0107845
693.193	0.0103798
693.271	0.0101744
693.349	0.0100445
693.427	0.00986206
693.505	0.00998970
693.583	0.0103294
693.661	0.0103194
693.739	0.0107579
693.818	0.0113219
693.896	0.0118363
693.974	0.0124360
694.052	0.0131207
694.130	0.0138356
694.208	0.0146456
694.286	0.0154202
694.364	0.0160857
694.443	0.0168902
694.521	0.0175822
694.599	0.0181313
694.677	0.0189303
694.755	0.0193172
694.833	0.0194720
694.911	0.0195261
694.989	0.0193678
695.068	0.0189240
695.146	0.0185135
695.224	0.0177162
695.302	0.0167061
695.380	0.0156853
695.458	0.0144730
695.536	0.0131715
695.614	0.0120133
695.693	0.0106548
695.771	0.00956078
695.849	0.00868256
695.927	0.00773575
696.005	0.00692810
696.083	0.00633408
696.161	0.00600952
696.239	0.00598518
696.318	0.00595627
696.396	0.00627655
696.474	0.00689178
696.552	0.00766083
696.630	0.00846748
696.708	0.00960594
696.786	0.0108167
696.864	0.0120318
696.943	0.0134053
697.021	0.0146851
697.099	0.0158817
697.177	0.0172447
697.255	0.0185291
697.333	0.0195779
697.411	0.0206100
697.489	0.0213730
697.568	0.0219155
697.646	0.0224496
697.724	0.0225678
697.802	0.0226358
697.880	0.0223287
697.958	0.0216746
698.036	0.0209318
698.114	0.0200753
698.193	0.0190450
698.271	0.0176978
698.349	0.0163223
698.427	0.0148036
698.505	0.0134612
698.583	0.0121683
698.661	0.0105852
698.739	0.00918785
698.818	0.00827042
698.896	0.00716667
698.974	0.00612122
699.052	0.00541267
699.130	0.00505814
699.208	0.00473511
699.286	0.00462875
699.364	0.00474869
699.443	0.00510864
699.521	0.00557442
699.599	0.00649384
699.677	0.00741920
699.755	0.00849228
699.833	0.00973259
699.911	0.0109799
699.989	0.0122544
700.068	0.0136830
700.146	0.0148721
700.224	0.0163064
700.302	0.0173333
700.380	0.0184772
700.458	0.0195422
700.536	0.0201945
700.614	0.0209412
700.693	0.0212065
700.771	0.0215729
700.849	0.0217280
700.927	0.0214828
701.005	0.0212791
701.083	0.0207994
701.161	0.0202703
701.239	0.0196024
701.318	0.0187830
701.396	0.0178690
701.474	0.0168028
701.552	0.0158387
701.630	0.0147415
701.708	0.0139559
701.786	0.0130296
701.864	0.0119943
701.943	0.0111032
702.021	0.0103366
702.099	0.00966789
702.177	0.00900314
702.255	0.00856880
702.333	0.00823074
702.411	0.00801529
702.489	0.00781227
702.568	0.00766510
702.646	0.00775848
702.724	0.00786270
702.802	0.00817223
702.880	0.00847000
702.958	0.00891350
703.036	0.00931717
703.114	0.00995224
703.193	0.0107817
703.271	0.0115899
703.349	0.0124247
703.427	0.0134689
703.505	0.0143174
703.583	0.0150652
703.661	0.0158951
703.739	0.0165502
703.818	0.0171675
703.896	0.0177568
703.974	0.0180151
704.052	0.0182951
704.130	0.0183125
704.208	0.0181579
704.286	0.0178316
704.364	0.0175674
704.443	0.0172069
704.521	0.0166404
704.599	0.0160197
704.677	0.0157334
704.755	0.0151581
704.833	0.0145586
704.911	0.0142274
704.989	0.0137743
705.068	0.0135019
705.146	0.0133884
705.224	0.0130613
705.302	0.0128024
705.380	0.0127529
705.458	0.0127975
705.536	0.0127890
705.614	0.0126739
705.693	0.0126545
705.771	0.0125779
705.849	0.0127224
705.927	0.0127686
706.005	0.0126795
706.083	0.0124083
706.161	0.0124618
706.239	0.0124541
706.318	0.0123775
706.396	0.0124951
706.474	0.0124356
706.552	0.0124310
706.630	0.0124100
706.708	0.0126825
706.786	0.0126376
706.864	0.0127898
706.943	0.0129896
707.021	0.0133379
707.099	0.0132918
707.177	0.0134937
707.255	0.0137374
707.333	0.0138326
707.411	0.0139946
707.489	0.0140079
707.568	0.0141253
707.646	0.0141706
707.724	0.0143512
707.802	0.0143382
707.880	0.0145129
707.958	0.0146884
708.036	0.0146452
708.114	0.0147575
708.193	0.0149483
708.271	0.0147829
708.349	0.0147216
708.427	0.0145778
708.505	0.0144730
708.583	0.0144820
708.661	0.0143170
708.739	0.0139576
708.818	0.0138003
708.896	0.0136476
708.974	0.0134560
709.052	0.0130154
709.130	0.0127383
709.208	0.0126048
709.286	0.0123860
709.364	0.0120489
709.443	0.0120025
709.521	0.0119762
709.599	0.0119055
709.677	0.0120257
709.755	0.0121185
709.833	0.0123219
709.911	0.0124393
709.989	0.0127085
710.068	0.0129150
710.146	0.0133945
710.224	0.0136504
710.302	0.0139017
710.380	0.0140572
710.458	0.0144695
710.536	0.0146242
710.614	0.0149376
710.693	0.0151487
710.771	0.0153445
710.849	0.0154197
710.927	0.0155351
711.005	0.0157137
711.083	0.0157433
711.161	0.0157771
711.239	0.0156396
711.318	0.0156054
711.396	0.0154329
711.474	0.0152488
711.552	0.0151109
711.630	0.0149481
711.708	0.0145086
711.786	0.0143781
711.864	0.0140529
711.943	0.0138757
712.021	0.0134341
712.099	0.0133426
712.177	0.0128802
712.255	0.0126852
712.333	0.0124031
712.411	0.0121922
712.489	0.0118715
712.568	0.0118399
712.646	0.0117166
712.724	0.0116546
712.802	0.0116933
712.880	0.0116264
712.958	0.0116436
713.036	0.0118124
713.114	0.0119469
713.193	0.0120923
713.271	0.0124469
713.349	0.0126495
713.427	0.0127212
713.505	0.0128410
713.583	0.0132044
713.661	0.0132478
713.739	0.0134683
713.818	0.0136302
713.896	0.0138265
713.974	0.0138551
714.052	0.0137234
714.130	0.0139210
714.208	0.0140798
714.286	0.0140479
714.364	0.0141267
714.443	0.0140907
714.521	0.0142115
714.599	0.0139583
714.677	0.0140605
714.755	0.0140662
714.833	0.0140578
714.911	0.0141846
714.989	0.0141338
715.068	0.0142289
715.146	0.0143633
715.224	0.0142834
715.302	0.0143525
715.380	0.0143999
715.458	0.0144950
715.536	0.0144738
715.614	0.0146347
715.693	0.0146602
715.771	0.0146959
715.849	0.0148464
715.927	0.0149056
716.005	0.0149599
716.083	0.0149952
716.161	0.0150203
716.239	0.0149582
716.318	0.0149713
716.396	0.0148796
716.474	0.0149388
716.552	0.0148222
716.630	0.0146443
716.708	0.0145914
716.786	0.0142358
716.864	0.0138834
716.943	0.0138104
717.021	0.0136740
717.099	0.0133392
717.177	0.0129046
717.255	0.0126788
717.333	0.0125341
717.411	0.0122660
717.489	0.0120856
717.568	0.0119386
717.646	0.0116235
717.724	0.0116242
717.802	0.0115213
717.880	0.0114421
717.958	0.0115269
718.036	0.0115775
718.114	0.0116403
718.193	0.0117632
718.271	0.0118227
718.349	0.0117854
718.427	0.0120043
718.505	0.0121013
718.583	0.0121394
718.661	0.0123611
718.739	0.0125882
718.818	0.0128998
718.896	0.0130844
718.974	0.0134172
719.052	0.0135613
719.130	0.0138762
719.208	0.0142578
719.286	0.0143716
719.364	0.0145944
719.443	0.0146455
719.521	0.0145798
719.599	0.0146103
719.677	0.0146583
719.755	0.0146243
719.833	0.0146268
719.911	0.0144828
719.989	0.0144211
720.068	0.0144598
720.146	0.0143852
720.224	0.0143808
720.302	0.0145454
720.380	0.0144255
720.458	0.0147125
720.536	0.0146375
720.614	0.0148043
720.693	0.0148879
720.771	0.0149363
720.849	0.0150856
720.927	0.0149979
721.005	0.0149329
721.083	0.0149490
721.161	0.0148148
721.239	0.0148377
721.318	0.0147157
721.396	0.0145331
721.474	0.0145255
721.552	0.0144138
721.630	0.0143020
721.708	0.0142144
721.786	0.0140463
721.864	0.0138580
721.943	0.0138969
722.021	0.0137357
722.099	0.0133008
722.177	0.0132368
722.255	0.0133128
722.333	0.0131554
722.411	0.0128367
722.489	0.0129088
722.568	0.0126728
722.646	0.0125004
722.724	0.0123565
722.802	0.0121209
722.880	0.0118956
722.958	0.0117339
723.036	0.0116662
723.114	0.0114357
723.193	0.0114769
723.271	0.0114790
723.349	0.0113979
723.427	0.0114925
723.505	0.0116180
723.583	0.0119033
723.661	0.0120712
723.739	0.0121394
723.818	0.0125581
723.896	0.0126400
723.974	0.0130378
724.052	0.0134059
724.130	0.0137039
724.208	0.0139624
724.286	0.0142309
724.364	0.0146132
724.443	0.0146661
724.521	0.0150452
724.599	0.0151004
724.677	0.0152277
724.755	0.0152862
724.833	0.0153109
724.911	0.0154910
724.989	0.0154178
725.068	0.0152953
725.146	0.0151849
725.224	0.0151013
725.302	0.0147669
725.380	0.0147036
725.458	0.0144413
725.536	0.0142133
725.614	0.0140306
725.693	0.0138921
725.771	0.0138617
725.849	0.0137489
725.927	0.0135722
726.005	0.0136609
726.083	0.0135749
726.161	0.0134611
726.239	0.0136551
726.318	0.0136113
726.396	0.0136241
726.474	0.0137626
726.552	0.0137183
726.630	0.0137486
726.708	0.0139154
726.786	0.0138242
726.864	0.0138750
726.943	0.0140464
727.021	0.0142175
727.099	0.0140801
727.177	0.0141272
727.255	0.0142419
727.333	0.0141167
727.411	0.0141486
727.489	0.0141412
727.568	0.0140343
727.646	0.0138535
727.724	0.0139175
727.802	0.0136853
727.880	0.0134438
727.958	0.0131795
728.036	0.0132019
728.114	0.0130088
728.193	0.0129622
728.271	0.0127123
728.349	0.0125829
728.427	0.0124124
728.505	0.0123650
728.583	0.0123536
728.661	0.0123083
728.739	0.0122472
728.818	0.0121222
728.896	0.0121761
728.974	0.0124162
729.052	0.0125234
729.130	0.0127131
729.208	0.0128651
729.286	0.0130875
729.364	0.0133256
729.443	0.0134845
729.521	0.0137616
729.599	0.0138185
729.677	0.0140842
729.755	0.0142354
729.833	0.0143681
729.911	0.0145770
729.989	0.0144829
730.068	0.0145678
730.146	0.0145866
730.224	0.0144225
730.302	0.0142475
730.380	0.0142678
730.458	0.0140990
730.536	0.0139994
730.614	0.0138228
730.693	0.0136814
730.771	0.0134426
730.849	0.0132681
730.927	0.0133911
731.005	0.0132827
731.083	0.0134014
731.161	0.0135489
731.239	0.0134217
731.318	0.0135483
731.396	0.0136830
731.474	0.0137193
731.552	0.0138170
731.630	0.0138322
731.708	0.0138458
731.786	0.0140032
731.864	0.0140985
731.943	0.0140179
732.021	0.0141657
732.099	0.0141826
732.177	0.0141601
732.255	0.0141840
732.333	0.0143240
732.411	0.0142135
732.489	0.0142976
732.568	0.0143153
732.646	0.0143257
732.724	0.0142795
732.802	0.0141073
732.880	0.0142209
732.958	0.0142854
733.036	0.0142114
733.114	0.0141098
733.193	0.0140533
733.271	0.0140154
733.349	0.0139371
733.427	0.0136486
733.505	0.0134800
733.583	0.0134754
733.661	0.0133606
733.739	0.0132903
733.818	0.0131922
733.896	0.0130190
733.974	0.0129709
734.052	0.0129543
734.130	0.0128150
734.208	0.0128676
734.286	0.0126661
734.364	0.0127776
734.443	0.0126691
734.521	0.0126770
734.599	0.0125762
734.677	0.0128133
734.755	0.0127583
734.833	0.0128770
734.911	0.0129843
734.989	0.0132054
735.068	0.0134418
735.146	0.0135087
735.224	0.0135069
735.302	0.0137769
735.380	0.0137406
735.458	0.0137833
735.536	0.0139646
735.614	0.0138960
735.693	0.0138261
735.771	0.0139200
735.849	0.0140269
735.927	0.0139050
736.005	0.0138031
736.083	0.0139516
736.161	0.0137761
736.239	0.0137807
736.318	0.0136266
736.396	0.0134811
736.474	0.0135850
736.552	0.0133903
736.630	0.0134586
736.708	0.0133521
736.786	0.0133997
736.864	0.0134724
736.943	0.0134448
737.021	0.0135578
737.099	0.0135767
737.177	0.0135252
737.255	0.0137088
737.333	0.0137688
737.411	0.0138051
737.489	0.0137711
737.568	0.0139848
737.646	0.0139895
737.724	0.0140891
737.802	0.0143735
737.880	0.0142082
737.958	0.0143415
738.036	0.0142395
738.114	0.0143513
738.193	0.0145455
738.271	0.0144619
738.349	0.0143768
738.427	0.0142157
738.505	0.0142320
738.583	0.0143496
738.661	0.0141505
738.739	0.0142207
738.818	0.0142586
738.896	0.0140255
738.974	0.0140590
739.052	0.0137411
739.130	0.0138813
739.208	0.0136425
739.286	0.0135299
739.364	0.0134845
739.443	0.0134372
739.521	0.0130894
739.599	0.0131940
739.677	0.0132595
739.755	0.0130747
739.833	0.0129733
739.911	0.0128572
739.989	0.0128131
740.068	0.0127968
740.146	0.0127116
740.224	0.0128826
740.302	0.0129311
740.380	0.0129834
740.458	0.0131005
740.536	0.0132016
740.614	0.0132317
740.693	0.0132915
740.771	0.0131723
740.849	0.0134634
740.927	0.0134107
741.005	0.0134859
741.083	0.0135307
741.161	0.0134265
741.239	0.0135590
741.318	0.0133564
741.396	0.0135726
741.474	0.0135459
741.552	0.0134628
741.630	0.0135244
741.708	0.0134442
741.786	0.0136233
741.864	0.0135396
741.943	0.0135497
742.021	0.0136152
742.099	0.0135891
742.177	0.0136549
742.255	0.0136700
742.333	0.0136852
742.411	0.0135043
742.489	0.0134772
742.568	0.0135867
742.646	0.0135185
742.724	0.0135200
742.802	0.0136822
742.880	0.0135766
742.958	0.0137455
743.036	0.0136822
743.114	0.0137767
743.193	0.0138477
743.271	0.0139864
743.349	0.0139063
743.427	0.0139142
743.505	0.0139465
743.583	0.0140387
743.661	0.0142117
743.739	0.0141721
743.818	0.0143369
743.896	0.0142900
743.974	0.0143729
744.052	0.0145184
744.130	0.0144341
744.208	0.0143393
744.286	0.0143257
744.364	0.0143687
744.443	0.0142470
744.521	0.0141220
744.599	0.0140569
744.677	0.0139252
744.755	0.0139366
744.833	0.0137161
744.911	0.0134647
744.989	0.0134409
745.068	0.0134186
745.146	0.0131459
745.224	0.0129662
745.302	0.0130396
745.380	0.0129338
745.458	0.0128245
745.536	0.0129193
745.614	0.0128866
745.693	0.0129278
745.771	0.0130680
745.849	0.0131133
745.927	0.0130927
746.005	0.0132436
746.083	0.0132473
746.161	0.0132554
746.239	0.0134845
746.318	0.0135478
746.396	0.0134790
746.474	0.0137164
746.552	0.0137429
746.630	0.0137553
746.708	0.0136578
746.786	0.0138637
746.864	0.0138953
746.943	0.0139230
747.021	0.0138186
747.099	0.0138230
747.177	0.0138357
747.255	0.0138118
747.333	0.0137258
747.411	0.0136523
747.489	0.0136624
747.568	0.0137039
747.646	0.0136087
747.724	0.0135648
747.802	0.0134836
747.880	0.0133932
747.958	0.0133525
748.036	0.0134085
748.114	0.0134515
748.193	0.0132942
748.271	0.0133410
748.349	0.0133839
748.427	0.0134797
748.505	0.0132679
748.583	0.0135410
748.661	0.0134489
748.739	0.0135374
748.818	0.0135824
748.896	0.0136212
748.974	0.0136077
749.052	0.0136727
749.130	0.0136878
749.208	0.0138005
749.286	0.0138824
749.364	0.0138187
749.443	0.0139056
749.521	0.0139848
749.599	0.0140353
749.677	0.0141806
749.755	0.0142638
749.833	0.0142204
749.911	0.0142946
749.989	0.0144539
750.068	0.0143801
750.146	0.0142425
750.224	0.0142823
750.302	0.0142815
750.380	0.0143436
750.458	0.0142274
750.536	0.0141509
750.614	0.0140437
750.693	0.0139388
750.771	0.0141755
750.849	0.0139402
750.927	0.0137461
751.005	0.0137519
751.083	0.0137657
751.161	0.0134809
751.239	0.0134351
751.318	0.0133420
751.396	0.0131517
751.474	0.0132589
751.552	0.0132858
751.630	0.0133361
751.708	0.0131470
751.786	0.0131742
751.864	0.0132429
751.943	0.0133317
752.021	0.0131155
752.099	0.0133327
752.177	0.0132304
752.255	0.0132296
752.333	0.0133650
752.411	0.0133737
752.489	0.0133405
752.568	0.0133944
752.646	0.0135419
752.724	0.0135856
752.802	0.0135242
752.880	0.0135908
752.958	0.0137519
753.036	0.0136868
753.114	0.0137643
753.193	0.0137670
753.271	0.0137584
753.349	0.0137623
753.427	0.0137572
753.505	0.0136798
753.583	0.0136360
753.661	0.0136784
753.739	0.0136415
753.818	0.0136449
753.896	0.0136694
753.974	0.0137066
754.052	0.0138067
754.130	0.0138654
754.208	0.0137705
754.286	0.0139165
754.364	0.0138426
754.443	0.0138007
754.521	0.0137920
754.599	0.0138501
754.677	0.0138631
754.755	0.0138208
754.833	0.0138058
754.911	0.0138622
754.989	0.0137749
755.068	0.0138156
755.146	0.0137858
755.224	0.0136103
755.302	0.0137173
755.380	0.0136900
755.458	0.0136166
755.536	0.0136704
755.614	0.0134046
755.693	0.0134122
755.771	0.0135024
755.849	0.0134935
755.927	0.0134467
756.005	0.0134238
756.083	0.0134099
756.161	0.0133716
756.239	0.0133944
756.318	0.0134830
756.396	0.0134977
756.474	0.0135210
756.552	0.0134454
756.630	0.0136889
756.708	0.0136544
756.786	0.0137575
756.864	0.0137205
756.943	0.0139046
757.021	0.0140881
757.099	0.0139463
757.177	0.0141344
757.255	0.0142802
757.333	0.0140994
757.411	0.0140726
757.489	0.0143832
757.568	0.0141871
757.646	0.0142362
757.724	0.0143027
757.802	0.0142284
757.880	0.0142130
757.958	0.0140318
758.036	0.0140556
758.114	0.0139655
758.193	0.0140318
758.271	0.0137527
758.349	0.0137599
758.427	0.0136028
758.505	0.0136004
758.583	0.0136471
758.661	0.0135515
758.739	0.0134216
758.818	0.0135043
758.896	0.0134419
758.974	0.0135072
759.052	0.0134241
759.130	0.0133186
759.208	0.0134085
759.286	0.0132580
759.364	0.0133524
759.443	0.0134276
759.521	0.0132579
759.599	0.0133452
759.677	0.0132169
759.755	0.0132405
759.833	0.0132833
759.911	0.0133605
759.989	0.0133128
760.068	0.0134381
760.146	0.0134853
760.224	0.0133834
760.302	0.0134234
760.380	0.0135077
760.458	0.0135979
760.536	0.0135406
760.614	0.0135448
760.693	0.0137018
760.771	0.0137289
760.849	0.0138605
760.927	0.0138967
761.005	0.0137512
761.083	0.0136745
761.161	0.0136970
761.239	0.0137759
761.318	0.0137907
761.396	0.0137785
761.474	0.0138423
761.552	0.0138486
761.630	0.0136884
761.708	0.0136978
761.786	0.0136578
761.864	0.0135930
761.943	0.0136821
762.021	0.0136559
762.099	0.0136671
762.177	0.0137843
762.255	0.0139360
762.333	0.0138641
762.411	0.0137932
762.489	0.0138368
762.568	0.0138589
762.646	0.0139579
762.724	0.0139559
762.802	0.0141003
762.880	0.0142342
762.958	0.0140592
763.036	0.0141322
763.114	0.0140417
763.193	0.0142345
763.271	0.0141612
763.349	0.0140465
763.427	0.0141088
763.505	0.0141653
763.583	0.0139297
763.661	0.0138774
763.739	0.0139565
763.818	0.0138795
763.896	0.0137126
763.974	0.0137444
764.052	0.0137335
764.130	0.0136623
764.208	0.0135778
764.286	0.0133450
764.364	0.0134831
764.443	0.0133166
764.521	0.0133549
764.599	0.0133501
764.677	0.0131748
764.755	0.0132130
764.833	0.0132346
764.911	0.0131684
764.989	0.0133402
765.068	0.0132488
765.146	0.0132624
765.224	0.0133568
765.302	0.0132552
765.380	0.0133776
765.458	0.0132905
765.536	0.0133108
765.614	0.0132830
765.693	0.0133657
765.771	0.0132714
765.849	0.0132465
765.927	0.0133094
766.005	0.0132299
766.083	0.0134872
766.161	0.0134299
766.239	0.0131570
766.318	0.0134358
766.396	0.0133530
766.474	0.0134442
766.552	0.0136413
766.630	0.0134121
766.708	0.0134181
766.786	0.0135837
766.864	0.0136671
766.943	0.0138435
767.021	0.0138646
767.099	0.0138130
767.177	0.0139197
767.255	0.0140088
767.333	0.0140304
767.411	0.0139790
767.489	0.0141080
767.568	0.0140182
767.646	0.0141740
767.724	0.0142583
767.802	0.0142005
767.880	0.0141212
767.958	0.0141185
768.036	0.0141035
768.114	0.0140864
768.193	0.0140356
768.271	0.0140868
768.349	0.0138388
768.427	0.0138030
768.505	0.0137870
768.583	0.0137911
768.661	0.0136822
768.739	0.0135953
768.818	0.0135684
768.896	0.0134836
768.974	0.0134033
769.052	0.0132331
769.130	0.0133702
769.208	0.0131793
769.286	0.0133401
769.364	0.0132532
769.443	0.0131190
769.521	0.0132379
769.599	0.0130672
769.677	0.0131490
769.755	0.0131336
769.833	0.0130889
769.911	0.0130893
769.989	0.0132269
770.068	0.0133282
770.146	0.0133285
770.224	0.0132690
770.302	0.0133585
770.380	0.0132530
770.458	0.0133673
770.536	0.0134448
770.614	0.0135187
770.693	0.0134342
770.771	0.0134674
770.849	0.0136634
770.927	0.0136835
771.005	0.0136530
771.083	0.0138063
771.161	0.0139135
771.239	0.0138763
771.318	0.0139453
771.396	0.0140987
771.474	0.0142666
771.552	0.0142123
771.630	0.0141175
771.708	0.0141149
771.786	0.0142426
771.864	0.0141389
771.943	0.0140886
772.021	0.0141032
772.099	0.0142692
772.177	0.0141589
772.255	0.0141746
772.333	0.0141721
772.411	0.0139940
772.489	0.0140437
772.568	0.0138412
772.646	0.0138029
772.724	0.0137817
772.802	0.0135905
772.880	0.0135554
772.958	0.0135972
773.036	0.0135330
773.114	0.0133833
773.193	0.0134985
773.271	0.0134984
773.349	0.0133552
773.427	0.0133601
773.505	0.0134014
773.583	0.0133462
773.661	0.0133552
773.739	0.0132061
773.818	0.0132741
773.896	0.0133720
773.974	0.0134216
774.052	0.0134864
774.130	0.0134453
774.208	0.0133125
774.286	0.0134466
774.364	0.0133088
774.443	0.0132877
774.521	0.0131905
774.599	0.0132806
774.677	0.0134072
774.755	0.0132863
774.833	0.0132578
774.911	0.0133646
774.989	0.0132820
775.068	0.0133557
775.146	0.0133861
775.224	0.0134499
775.302	0.0136124
775.380	0.0135251
775.458	0.0136142
775.536	0.0137354
775.614	0.0137422
775.693	0.0137074
775.771	0.0137022
775.849	0.0139382
775.927	0.0138889
776.005	0.0138243
776.083	0.0139104
776.161	0.0137469
776.239	0.0138362
776.318	0.0138811
776.396	0.0139896
776.474	0.0138869
776.552	0.0139520
776.630	0.0139156
776.708	0.0138938
776.786	0.0140400
776.864	0.0139936
776.943	0.0137568
777.021	0.0139160
777.099	0.0138675
777.177	0.0137901
777.255	0.0138027
777.333	0.0137868
777.411	0.0136770
777.489	0.0137063
777.568	0.0136407
777.646	0.0136052
777.724	0.0135534
777.802	0.0135326
777.880	0.0135838
777.958	0.0135073
778.036	0.0135751
778.114	0.0138670
778.193	0.0135282
778.271	0.0135888
778.349	0.0136159
778.427	0.0135464
778.505	0.0135522
778.583	0.0136668
778.661	0.0136332
778.739	0.0135159
778.818	0.0134490
778.896	0.0136612
778.974	0.0135860
779.052	0.0133712
779.130	0.0135654
779.208	0.0135577
779.286	0.0134962
779.364	0.0135171
779.443	0.0133669
779.521	0.0133240
779.599	0.0134619
779.677	0.0134466
779.755	0.0133259
779.833	0.0134879
779.911	0.0135092
779.989	0.0134811
780.068	0.0135957
780.146	0.0135139
780.224	0.0135744
780.302	0.0136504
780.380	0.0135913
780.458	0.0136202
780.536	0.0136361
780.614	0.0136723
780.693	0.0135711
780.771	0.0136395
780.849	0.0136986
780.927	0.0136771
781.005	0.0136619
781.083	0.0137279
781.161	0.0135685
781.239	0.0136327
781.318	0.0134980
781.396	0.0136481
781.474	0.0138106
781.552	0.0137494
781.630	0.0137469
781.708	0.0136539
781.786	0.0135551
781.864	0.0137065
781.943	0.0137702
782.021	0.0137746
782.099	0.0136690
782.177	0.0136210
782.255	0.0135496
782.333	0.0136443
782.411	0.0136590
782.489	0.0136176
782.568	0.0135707
782.646	0.0135979
782.724	0.0136545
782.802	0.0138466
782.880	0.0136968
782.958	0.0136678
783.036	0.0136237
783.114	0.0136533
783.193	0.0137054
783.271	0.0136872
783.349	0.0136684
783.427	0.0136120
783.505	0.0135977
783.583	0.0135371
783.661	0.0135922
783.739	0.0136375
783.818	0.0137622
783.896	0.0136942
783.974	0.0136613
784.052	0.0135474
784.130	0.0137700
784.208	0.0137823
784.286	0.0137499
784.364	0.0137807
784.443	0.0138007
784.521	0.0137996
784.599	0.0137857
784.677	0.0137598
784.755	0.0137868
784.833	0.0137930
784.911	0.0135966
784.989	0.0135931
785.068	0.0136169
785.146	0.0136044
785.224	0.0135680
785.302	0.0136160
785.380	0.0134759
785.458	0.0134750
785.536	0.0134962
785.614	0.0135114
785.693	0.0134069
785.771	0.0134667
785.849	0.0134970
785.927	0.0134821
786.005	0.0134599
786.083	0.0133964
786.161	0.0134544
786.239	0.0135809
786.318	0.0136010
786.396	0.0137223
786.474	0.0137599
786.552	0.0137861
786.630	0.0137228
786.708	0.0136669
786.786	0.0136752
786.864	0.0138131
786.943	0.0137859
787.021	0.0138673
787.099	0.0137320
787.177	0.0136805
787.255	0.0136803
787.333	0.0136030
787.411	0.0137114
787.489	0.0134885
787.568	0.0135256
787.646	0.0135565
787.724	0.0134586
787.802	0.0134650
787.880	0.0135522
787.958	0.0135304
788.036	0.0134737
788.114	0.0134682
788.193	0.0135452
788.271	0.0136052
788.349	0.0135518
788.427	0.0138556
788.505	0.0138559
788.583	0.0138334
788.661	0.0140663
788.739	0.0139017
788.818	0.0139495
788.896	0.0139881
788.974	0.0139941
789.052	0.0139521
789.130	0.0139413
789.208	0.0139693
789.286	0.0139593
789.364	0.0137807
789.443	0.0138326
789.521	0.0136798
789.599	0.0135697
789.677	0.0135844
789.755	0.0135011
789.833	0.0133849
789.911	0.0132837
789.989	0.0132742
790.068	0.0132635
790.146	0.0130656
790.224	0.0131203
790.302	0.0130782
790.380	0.0131725
790.458	0.0133070
790.536	0.0132835
790.614	0.0133224
790.693	0.0134657
790.771	0.0135998
790.849	0.0136478
790.927	0.0136132
791.005	0.0138393
791.083	0.0138977
791.161	0.0140618
791.239	0.0140085
791.318	0.0140050
791.396	0.0142084
791.474	0.0140283
791.552	0.0142651
791.630	0.0141656
791.708	0.0139851
791.786	0.0140645
791.864	0.0140794
791.943	0.0138745
792.021	0.0136973
792.099	0.0137139
792.177	0.0135142
792.255	0.0135413
792.333	0.0133067
792.411	0.0130231
792.489	0.0132108
792.568	0.0133474
792.646	0.0131218
792.724	0.0131284
792.802	0.0132740
792.880	0.0131264
792.958	0.0130031
793.036	0.0129816
793.114	0.0130320
793.193	0.0129962
793.271	0.0131537
793.349	0.0132491
793.427	0.0132683
793.505	0.0133617
793.583	0.0135634
793.661	0.0136179
793.739	0.0138853
793.818	0.0139327
793.896	0.0140543
793.974	0.0142783
794.052	0.0145171
794.130	0.0144267
794.208	0.0145614
794.286	0.0146037
794.364	0.0146725
794.443	0.0145803
794.521	0.0148004
794.599	0.0147972
794.677	0.0146478
794.755	0.0146098
794.833	0.0143504
794.911	0.0142872
794.989	0.0142397
795.068	0.0139561
795.146	0.0137440
795.224	0.0137040
795.302	0.0133072
795.380	0.0131868
795.458	0.0131745
795.536	0.0129997
795.614	0.0127871
795.693	0.0127217
795.771	0.0125715
795.849	0.0125853
795.927	0.0124735
796.005	0.0124058
796.083	0.0123569
796.161	0.0123512
796.239	0.0123607
796.318	0.0126134
796.396	0.0125292
796.474	0.0127056
796.552	0.0128950
796.630	0.0131117
796.708	0.0132932
796.786	0.0132915
796.864	0.0134365
796.943	0.0138580
797.021	0.0140453
797.099	0.0140615
797.177	0.0142052
797.255	0.0145428
797.333	0.0146145
797.411	0.0146447
797.489	0.0145477
797.568	0.0147646
797.646	0.0147338
797.724	0.0147537
797.802	0.0148318
797.880	0.0147183
797.958	0.0147414
798.036	0.0144875
798.114	0.0143456
798.193	0.0143007
798.271	0.0142582
798.349	0.0141889
798.427	0.0140444
798.505	0.0139055
798.583	0.0136961
798.661	0.0134911
798.739	0.0134109
798.818	0.0133704
798.896	0.0133096
798.974	0.0130990
799.052	0.0128873
799.130	0.0128138
799.208	0.0128474
799.286	0.0128194
799.364	0.0127629
799.443	0.0126775
799.521	0.0127660
799.599	0.0125412
799.677	0.0126830
799.755	0.0128098
799.833	0.0128460
799.911	0.0128502
799.989	0.0130504
800.068	0.0132076
800.146	0.0133383
800.224	0.0134871
800.302	0.0136169
800.380	0.0137382
800.458	0.0138198
800.536	0.0139689
800.614	0.0139320
800.693	0.0141247
800.771	0.0141451
800.849	0.0143161
800.927	0.0142818
801.005	0.0144543
801.083	0.0142297
801.161	0.0142824
801.239	0.0142390
801.318	0.0140996
801.396	0.0141207
801.474	0.0141229
801.552	0.0140157
801.630	0.0139489
801.708	0.0138058
801.786	0.0137946
801.864	0.0137035
801.943	0.0137576
802.021	0.0134364
802.099	0.0134657
802.177	0.0132826
802.255	0.0133023
802.333	0.0133362
802.411	0.0132672
802.489	0.0132469
802.568	0.0131818
802.646	0.0131689
802.724	0.0131115
802.802	0.0131992
802.880	0.0131514
802.958	0.0131683
803.036	0.0133499
803.114	0.0132303
803.193	0.0132375
803.271	0.0134013
803.349	0.0134034
803.427	0.0133105
803.505	0.0133300
803.583	0.0135342
803.661	0.0135951
803.739	0.0136368
803.818	0.0136874
803.896	0.0135832
803.974	0.0136469
804.052	0.0137123
804.130	0.0136925
804.208	0.0138705
804.286	0.0137130
804.364	0.0138754
804.443	0.0139341
804.521	0.0137803
804.599	0.0137640
804.677	0.0139302
804.755	0.0138335
804.833	0.0138103
804.911	0.0137303
804.989	0.0137031
805.068	0.0138833
805.146	0.0137895
805.224	0.0136069
805.302	0.0136199
805.380	0.0135622
805.458	0.0135066
805.536	0.0136519
805.614	0.0134839
805.693	0.0135192
805.771	0.0134835
805.849	0.0134483
805.927	0.0134962
806.005	0.0133025
806.083	0.0132382
806.161	0.0135273
806.239	0.0134669
806.318	0.0135468
806.396	0.0135480
806.474	0.0135183
806.552	0.0135867
806.630	0.0137933
806.708	0.0137821
806.786	0.0137428
806.864	0.0136481
806.943	0.0139738
807.021	0.0140678
807.099	0.0138803
807.177	0.0138306
807.255	0.0139812
807.333	0.0139647
807.411	0.0141518
807.489	0.0141648
807.568	0.0139117
807.646	0.0139579
807.724	0.0140366
807.802	0.0139217
807.880	0.0139378
807.958	0.0139095
808.036	0.0138151
808.114	0.0138427
808.193	0.0137283
808.271	0.0135116
808.349	0.0136143
808.427	0.0133279
808.505	0.0133277
808.583	0.0132821
808.661	0.0131546
808.739	0.0131225
808.818	0.0129991
808.896	0.0129544
808.974	0.0129143
809.052	0.0130652
809.130	0.0130834
809.208	0.0130331
809.286	0.0130930
809.364	0.0130692
809.443	0.0132074
809.521	0.0132681
809.599	0.0133408
809.677	0.0132652
809.755	0.0136096
809.833	0.0136956
809.911	0.0137385
809.989	0.0138126
810.068	0.0138931
810.146	0.0138428
810.224	0.0138627
810.302	0.0139328
810.380	0.0139014
810.458	0.0139810
810.536	0.0139333
810.614	0.0138439
810.693	0.0138546
810.771	0.0138042
810.849	0.0137924
810.927	0.0138103
811.005	0.0137348
811.083	0.0136755
811.161	0.0137643
811.239	0.0137057
811.318	0.0137505
811.396	0.0136745
811.474	0.0136883
811.552	0.0136789
811.630	0.0134935
811.708	0.0135436
811.786	0.0134933
811.864	0.0135991
811.943	0.0136243
812.021	0.0136910
812.099	0.0136697
812.177	0.0137505
812.255	0.0137855
812.333	0.0137045
812.411	0.0137464
812.489	0.0137537
812.568	0.0138242
812.646	0.0139262
812.724	0.0139300
812.802	0.0138144
812.880	0.0137686
812.958	0.0138143
813.036	0.0136865
813.114	0.0137305
813.193	0.0137061
813.271	0.0136439
813.349	0.0136741
813.427	0.0136647
813.505	0.0136297
813.583	0.0133276
813.661	0.0135478
813.739	0.0134665
813.818	0.0134572
813.896	0.0134973
813.974	0.0133858
814.052	0.0131523
814.130	0.0133019
814.208	0.0132662
814.286	0.0132052
814.364	0.0131880
814.443	0.0130646
814.521	0.0131381
814.599	0.0131516
814.677	0.0131091
814.755	0.0130267
814.833	0.0131857
814.911	0.0132938
814.989	0.0133159
815.068	0.0132539
815.146	0.0133517
815.224	0.0133708
815.302	0.0135551
815.380	0.0137118
815.458	0.0137675
815.536	0.0137215
815.614	0.0138259
815.693	0.0137730
815.771	0.0138560
815.849	0.0138957
815.927	0.0138571
816.005	0.0138374
816.083	0.0139406
816.161	0.0139834
816.239	0.0138881
816.318	0.0137769
816.396	0.0138091
816.474	0.0138112
816.552	0.0137930
816.630	0.0137336
816.708	0.0137221
816.786	0.0137114
816.864	0.0137106
816.943	0.0133260
817.021	0.0134805
817.099	0.0136492
817.177	0.0135275
817.255	0.0133424
817.333	0.0134624
817.411	0.0135863
817.489	0.0136509
817.568	0.0135680
817.646	0.0135310
817.724	0.0136246
817.802	0.0137408
817.880	0.0137119
817.958	0.0138298
818.036	0.0138251
818.114	0.0138371
818.193	0.0137498
818.271	0.0139472
818.349	0.0139965
818.427	0.0139146
818.505	0.0140586
818.583	0.0139971
818.661	0.0140428
818.739	0.0139471
818.818	0.0138841
818.896	0.0137818
818.974	0.0137011
819.052	0.0136110
819.130	0.0135918
819.208	0.0135111
819.286	0.0133615
819.364	0.0134168
819.443	0.0132511
819.521	0.0131658
819.599	0.0132104
819.677	0.0131786
819.755	0.0131631
819.833	0.0130650
819.911	0.0130901
819.989	0.0130328
820.068	0.0131577
820.146	0.0131384
820.224	0.0131159
820.302	0.0132811
820.380	0.0134064
820.458	0.0133827
820.536	0.0133924
820.614	0.0134148
820.693	0.0134466
820.771	0.0136241
820.849	0.0135886
820.927	0.0135348
821.005	0.0136823
821.083	0.0137815
821.161	0.0136476
821.239	0.0137748
821.318	0.0138696
821.396	0.0139566
821.474	0.0138451
821.552	0.0139300
821.630	0.0138727
821.708	0.0138322
821.786	0.0137357
821.864	0.0137067
821.943	0.0137881
822.021	0.0137314
822.099	0.0136806
822.177	0.0137730
822.255	0.0137512
822.333	0.0136989
822.411	0.0136680
822.489	0.0136082
822.568	0.0136101
822.646	0.0134985
822.724	0.0135862
822.802	0.0135802
822.880	0.0137574
822.958	0.0135882
823.036	0.0136718
823.114	0.0137174
823.193	0.0138367
823.271	0.0139786
823.349	0.0139769
823.427	0.0139538
823.505	0.0140878
823.583	0.0141724
823.661	0.0140224
823.739	0.0140635
823.818	0.0142002
823.896	0.0141705
823.974	0.0140760
824.052	0.0141772
824.130	0.0141361
824.208	0.0141447
824.286	0.0141379
824.364	0.0139397
824.443	0.0138618
824.521	0.0137817
824.599	0.0136723
824.677	0.0135500
824.755	0.0133897
824.833	0.0132332
824.911	0.0133150
824.989	0.0132651
825.068	0.0129328
825.146	0.0129982
825.224	0.0129955
825.302	0.0128470
825.380	0.0128422
825.458	0.0126707
825.536	0.0127737
825.614	0.0129164
825.693	0.0127688
825.771	0.0128769
825.849	0.0128463
825.927	0.0127769
826.005	0.0129099
826.083	0.0131709
826.161	0.0129875
826.239	0.0130410
826.318	0.0131724
826.396	0.0133717
826.474	0.0133549
826.552	0.0134606
826.630	0.0137200
826.708	0.0137546
826.786	0.0137733
826.864	0.0139488
826.943	0.0139465
827.021	0.0143269
827.099	0.0142266
827.177	0.0142114
827.255	0.0143128
827.333	0.0144196
827.411	0.0145338
827.489	0.0143937
827.568	0.0143385
827.646	0.0144373
827.724	0.0142844
827.802	0.0143665
827.880	0.0143500
827.958	0.0142205
828.036	0.0142881
828.114	0.0141458
828.193	0.0141817
828.271	0.0141273
828.349	0.0139809
828.427	0.0138795
828.505	0.0138938
828.583	0.0138836
828.661	0.0137572
828.739	0.0138483
828.818	0.0138685
828.896	0.0137859
828.974	0.0137074
829.052	0.0136409
829.130	0.0136568
829.208	0.0136397
829.286	0.0136205
829.364	0.0135948
829.443	0.0133733
829.521	0.0134531
829.599	0.0135444
829.677	0.0133450
829.755	0.0133549
829.833	0.0134497
829.911	0.0134341
829.989	0.0133086
830.068	0.0133383
830.146	0.0133166
830.224	0.0132566
830.302	0.0133715
830.380	0.0131970
830.458	0.0132705
830.536	0.0133313
830.614	0.0131738
830.693	0.0132020
830.771	0.0132027
830.849	0.0132616
830.927	0.0131872
831.005	0.0131796
831.083	0.0133365
831.161	0.0132622
831.239	0.0133218
831.318	0.0134272
831.396	0.0134248
831.474	0.0134856
831.552	0.0133820
831.630	0.0135879
831.708	0.0136351
831.786	0.0135026
831.864	0.0137335
831.943	0.0136818
832.021	0.0137212
832.099	0.0139639
832.177	0.0138810
832.255	0.0139000
832.333	0.0140534
832.411	0.0140402
832.489	0.0142077
832.568	0.0142438
832.646	0.0142542
832.724	0.0142758
832.802	0.0142840
832.880	0.0142776
832.958	0.0140073
833.036	0.0142479
833.114	0.0140395
833.193	0.0141739
833.271	0.0141412
833.349	0.0138663
833.427	0.0139333
833.505	0.0139307
833.583	0.0139129
833.661	0.0136503
833.739	0.0137420
833.818	0.0138443
833.896	0.0136478
833.974	0.0135487
834.052	0.0137007
834.130	0.0135384
834.208	0.0134118
834.286	0.0134166
834.364	0.0134164
834.443	0.0133951
834.521	0.0133818
834.599	0.0134487
834.677	0.0134094
834.755	0.0132893
834.833	0.0133488
834.911	0.0134219
834.989	0.0134800
835.068	0.0135291
835.146	0.0133987
835.224	0.0135195
835.302	0.0132729
835.380	0.0134481
835.458	0.0135140
835.536	0.0135561
835.614	0.0133878
835.693	0.0135798
835.771	0.0134934
835.849	0.0135497
835.927	0.0135310
836.005	0.0134766
836.083	0.0134756
836.161	0.0136633
836.239	0.0135924
836.318	0.0136543
836.396	0.0134444
836.474	0.0137164
836.552	0.0137120
836.630	0.0136691
836.708	0.0136555
836.786	0.0137955
836.864	0.0138376
836.943	0.0136986
837.021	0.0138192
837.099	0.0137135
837.177	0.0137886
837.255	0.0138270
837.333	0.0137097
837.411	0.0139014
837.489	0.0138006
837.568	0.0137280
837.646	0.0138779
837.724	0.0138545
837.802	0.0136789
837.880	0.0138017
837.958	0.0140068
838.036	0.0137849
838.114	0.0137392
838.193	0.0136755
838.271	0.0136351
838.349	0.0136104
838.427	0.0136176
838.505	0.0136004
838.583	0.0135350
838.661	0.0136215
838.739	0.0135625
838.818	0.0135260
838.896	0.0133579
838.974	0.0134800
839.052	0.0134591
839.130	0.0133997
839.208	0.0134082
839.286	0.0132402
839.364	0.0132661
839.443	0.0134106
839.521	0.0134457
839.599	0.0133484
839.677	0.0134971
839.755	0.0134220
839.833	0.0134403
839.911	0.0134418
839.989	0.0133399
840.068	0.0134937
840.146	0.0134812
840.224	0.0134350
840.302	0.0136872
840.380	0.0137117
840.458	0.0135255
840.536	0.0135530
840.614	0.0136552
840.693	0.0135884
840.771	0.0137255
840.849	0.0137502
840.927	0.0136824
841.005	0.0137840
841.083	0.0137814
841.161	0.0136840
841.239	0.0138488
841.318	0.0138145
841.396	0.0138038
841.474	0.0138728
841.552	0.0137881
841.630	0.0138841
841.708	0.0137379
841.786	0.0139561
841.864	0.0139310
841.943	0.0140372
842.021	0.0139867
842.099	0.0137441
842.177	0.0138314
842.255	0.0137801
842.333	0.0138293
842.411	0.0139072
842.489	0.0138960
842.568	0.0139127
842.646	0.0139312
842.724	0.0140493
842.802	0.0138853
842.880	0.0137199
842.958	0.0136490
843.036	0.0138747
843.114	0.0137080
843.193	0.0136496
843.271	0.0136487
843.349	0.0136302
843.427	0.0135374
843.505	0.0134446
843.583	0.0134594
843.661	0.0133038
843.739	0.0132584
843.818	0.0133447
843.896	0.0132819
843.974	0.0132064
844.052	0.0132743
844.130	0.0132439
844.208	0.0131974
844.286	0.0131099
844.364	0.0131100
844.443	0.0132294
844.521	0.0130954
844.599	0.0131606
844.677	0.0130334
844.755	0.0131481
844.833	0.0132459
844.911	0.0130591
844.989	0.0131421
845.068	0.0133501
845.146	0.0133452
845.224	0.0132220
845.302	0.0132754
845.380	0.0134172
845.458	0.0133852
845.536	0.0135122
845.614	0.0136211
845.693	0.0135936
845.771	0.0138711
845.849	0.0137071
845.927	0.0138796
846.005	0.0139285
846.083	0.0141136
846.161	0.0140898
846.239	0.0141874
846.318	0.0142342
846.396	0.0141979
846.474	0.0143845
846.552	0.0144424
846.630	0.0143628
846.708	0.0145584
846.786	0.0144759
846.864	0.0144910
846.943	0.0144769
847.021	0.0144246
847.099	0.0144195
847.177	0.0142379
847.255	0.0142264
847.333	0.0140221
847.411	0.0140446
847.489	0.0140099
847.568	0.0137612
847.646	0.0137901
847.724	0.0136662
847.802	0.0136568
847.880	0.0135581
847.958	0.0134201
848.036	0.0135913
848.114	0.0133312
848.193	0.0131056
848.271	0.0130415
848.349	0.0131174
848.427	0.0130761
848.505	0.0131062
848.583	0.0128951
848.661	0.0129070
848.739	0.0129578
848.818	0.0129380
848.896	0.0129124
848.974	0.0130096
849.052	0.0131113
849.130	0.0130202
849.208	0.0129610
849.286	0.0130531
849.364	0.0130095
849.443	0.0133005
849.521	0.0132870
849.599	0.0130939
849.677	0.0133684
849.755	0.0135642
849.833	0.0134523
849.911	0.0135152
849.989	0.0135430
850.068	0.0135407
850.146	0.0136603
850.224	0.0137026
850.302	0.0137489
850.380	0.0138351
850.458	0.0138862
850.536	0.0140146
850.614	0.0139758
850.693	0.0139782
850.771	0.0140019
850.849	0.0140163
850.927	0.0141530
851.005	0.0143159
851.083	0.0142802
851.161	0.0142587
851.239	0.0142485
851.318	0.0141574
851.396	0.0141368
851.474	0.0142416
851.552	0.0141774
851.630	0.0141815
851.708	0.0140414
851.786	0.0140356
851.864	0.0140968
851.943	0.0140867
852.021	0.0139462
852.099	0.0138749
852.177	0.0140064
852.255	0.0137084
852.333	0.0138143
852.411	0.0137756
852.489	0.0137671
852.568	0.0136668
852.646	0.0136899
852.724	0.0136994
852.802	0.0136003
852.880	0.0135878
852.958	0.0135631
853.036	0.0134641
853.114	0.0136846
853.193	0.0135327
853.271	0.0134279
853.349	0.0134473
853.427	0.0133479
853.505	0.0133989
853.583	0.0133950
853.661	0.0134357
853.739	0.0134486
853.818	0.0135929
853.896	0.0134653
853.974	0.0132792
854.052	0.0134902
854.130	0.0135011
854.208	0.0134608
854.286	0.0133780
854.364	0.0133255
854.443	0.0134984
854.521	0.0135029
854.599	0.0135645
854.677	0.0135284
854.755	0.0135674
854.833	0.0135507
854.911	0.0137062
854.989	0.0135564
855.068	0.0134644
855.146	0.0135244
855.224	0.0136031
855.302	0.0137018
855.380	0.0137017
855.458	0.0137750
855.536	0.0138651
855.614	0.0138727
855.693	0.0137627
855.771	0.0137044
855.849	0.0137612
855.927	0.0138097
856.005	0.0136140
856.083	0.0138663
856.161	0.0139096
856.239	0.0138438
856.318	0.0138451
856.396	0.0138583
856.474	0.0138700
856.552	0.0139097
856.630	0.0138482
856.708	0.0138634
856.786	0.0139462
856.864	0.0138190
856.943	0.0137753
857.021	0.0137970
857.099	0.0139135
857.177	0.0137319
857.255	0.0136568
857.333	0.0137688
857.411	0.0138354
857.489	0.0138006
857.568	0.0136131
857.646	0.0138120
857.724	0.0138736
857.802	0.0137421
857.880	0.0138863
857.958	0.0137058
858.036	0.0136539
858.114	0.0137569
858.193	0.0137932
858.271	0.0136863
858.349	0.0137604
858.427	0.0137376
858.505	0.0137224
858.583	0.0135560
858.661	0.0135500
858.739	0.0136645
858.818	0.0136749
858.896	0.0135995
858.974	0.0132945
859.052	0.0134442
859.130	0.0135924
859.208	0.0134500
859.286	0.0135094
859.364	0.0134416
859.443	0.0136338
859.521	0.0134268
859.599	0.0134169
859.677	0.0136450
859.755	0.0135608
859.833	0.0137030
859.911	0.0136214
859.989	0.0136353
860.068	0.0136894
860.146	0.0138757
860.224	0.0136269
860.302	0.0135562
860.380	0.0137993
860.458	0.0137449
860.536	0.0136378
860.614	0.0137975
860.693	0.0137859
860.771	0.0136081
860.849	0.0137080
860.927	0.0137888
861.005	0.0137233
861.083	0.0137568
861.161	0.0137077
861.239	0.0135939
861.318	0.0137404
861.396	0.0136533
861.474	0.0134921
861.552	0.0137333
861.630	0.0136843
861.708	0.0136108
861.786	0.0136848
861.864	0.0137830
861.943	0.0137375
862.021	0.0136707
862.099	0.0136720
862.177	0.0136665
862.255	0.0136916
862.333	0.0137071
862.411	0.0135722
862.489	0.0137189
862.568	0.0135996
862.646	0.0137562
862.724	0.0135404
862.802	0.0136018
862.880	0.0135699
862.958	0.0135313
863.036	0.0134627
863.114	0.0136892
863.193	0.0134637
863.271	0.0135534
863.349	0.0134909
863.427	0.0135365
863.505	0.0134949
863.583	0.0135268
863.661	0.0136877
863.739	0.0136260
863.818	0.0135606
863.896	0.0134989
863.974	0.0134798
864.052	0.0137415
864.130	0.0135264
864.208	0.0135831
864.286	0.0137199
864.364	0.0137658
864.443	0.0135635
864.521	0.0137419
864.599	0.0136594
864.677	0.0137032
864.755	0.0137668
864.833	0.0137992
864.911	0.0136329
864.989	0.0136995
865.068	0.0137186
865.146	0.0138476
865.224	0.0138272
865.302	0.0137215
865.380	0.0137885
865.458	0.0136671
865.536	0.0137624
865.614	0.0137089
865.693	0.0136499
865.771	0.0138094
865.849	0.0137882
865.927	0.0136165
866.005	0.0136259
866.083	0.0137151
866.161	0.0135159
866.239	0.0136668
866.318	0.0134568
866.396	0.0135839
866.474	0.0135436
866.552	0.0134713
866.630	0.0135780
866.708	0.0135085
866.786	0.0135653
866.864	0.0135948
866.943	0.0136209
867.021	0.0136562
867.099	0.0136015
867.177	0.0135310
867.255	0.0138271
867.333	0.0136124
867.411	0.0137891
867.489	0.0138050
867.568	0.0138024
867.646	0.0137882
867.724	0.0136244
867.802	0.0137820
867.880	0.0137202
867.958	0.0137939
868.036	0.0137304
868.114	0.0137172
868.193	0.0135664
868.271	0.0137135
868.349	0.0137593
868.427	0.0137001
868.505	0.0135737
868.583	0.0136029
868.661	0.0136062
868.739	0.0135353
868.818	0.0136067
868.896	0.0135252
868.974	0.0134143
869.052	0.0135493
869.130	0.0134019
869.208	0.0134090
869.286	0.0135535
869.364	0.0134698
869.443	0.0135242
869.521	0.0136214
869.599	0.0135605
869.677	0.0135318
869.755	0.0136095
869.833	0.0135169
869.911	0.0135602
869.989	0.0137210
870.068	0.0135873
870.146	0.0136622
870.224	0.0136927
870.302	0.0136606
870.380	0.0136997
870.458	0.0136919
870.536	0.0137534
870.614	0.0136736
870.693	0.0136919
870.771	0.0138064
870.849	0.0137234
870.927	0.0137215
871.005	0.0138145
871.083	0.0137860
871.161	0.0138172
871.239	0.0135311
871.318	0.0136654
871.396	0.0137271
871.474	0.0139124
871.552	0.0135999
871.630	0.0137173
871.708	0.0137836
871.786	0.0137961
871.864	0.0136784
871.943	0.0135922
872.021	0.0136211
872.099	0.0137357
872.177	0.0135878
872.255	0.0135286
872.333	0.0138060
872.411	0.0135613
872.489	0.0135224
872.568	0.0137717
872.646	0.0137190
872.724	0.0136842
872.802	0.0136968
872.880	0.0136017
872.958	0.0136396
873.036	0.0136775
873.114	0.0136178
873.193	0.0136587
873.271	0.0135992
873.349	0.0136997
873.427	0.0137952
873.505	0.0135270
873.583	0.0135909
873.661	0.0136526
873.739	0.0136564
873.818	0.0135854
873.896	0.0136298
873.974	0.0135943
874.052	0.0135084
874.130	0.0134876
874.208	0.0135752
874.286	0.0135136
874.364	0.0136471
874.443	0.0135397
874.521	0.0135350
874.599	0.0135607
874.677	0.0136606
874.755	0.0135971
874.833	0.0136174
874.911	0.0135909
874.989	0.0134588
875.068	0.0135630
875.146	0.0135349
875.224	0.0135958
875.302	0.0136007
875.380	0.0135507
875.458	0.0136301
875.536	0.0136967
875.614	0.0135833
875.693	0.0137248
875.771	0.0137199
875.849	0.0135964
875.927	0.0136610
876.005	0.0135484
876.083	0.0136394
876.161	0.0136430
876.239	0.0136253
876.318	0.0138785
876.396	0.0139057
876.474	0.0137086
876.552	0.0136832
876.630	0.0138618
876.708	0.0138367
876.786	0.0138376
876.864	0.0139513
876.943	0.0137851
877.021	0.0138122
877.099	0.0137246
877.177	0.0137483
877.255	0.0137222
877.333	0.0136755
877.411	0.0135755
877.489	0.0138068
877.568	0.0136169
877.646	0.0135599
877.724	0.0135501
877.802	0.0135844
877.880	0.0135262
877.958	0.0134930
878.036	0.0134807
878.114	0.0134898
878.193	0.0134820
878.271	0.0134309
878.349	0.0133694
878.427	0.0135268
878.505	0.0134600
878.583	0.0133162
878.661	0.0133847
878.739	0.0135919
878.818	0.0134099
878.896	0.0134993
878.974	0.0134077
879.052	0.0135046
879.130	0.0136263
879.208	0.0134959
879.286	0.0134784
879.364	0.0135123
879.443	0.0135849
879.521	0.0135374
879.599	0.0136018
879.677	0.0135547
879.755	0.0136137
879.833	0.0137675
879.911	0.0136356
879.989	0.0136932
880.068	0.0137595
880.146	0.0136194
880.224	0.0137088
880.302	0.0137160
880.380	0.0138017
880.458	0.0138066
880.536	0.0137417
880.614	0.0137132
880.693	0.0139650
880.771	0.0138467
880.849	0.0137762
880.927	0.0138361
881.005	0.0139639
881.083	0.0138921
881.161	0.0140259
881.239	0.0139078
881.318	0.0138129
881.396	0.0138127
881.474	0.0136404
881.552	0.0136705
881.630	0.0136924
881.708	0.0136141
881.786	0.0136075
881.864	0.0135720
881.943	0.0135173
882.021	0.0134417
882.099	0.0133389
882.177	0.0132578
882.255	0.0133393
882.333	0.0133813
882.411	0.0132346
882.489	0.0132549
882.568	0.0133199
882.646	0.0132968
882.724	0.0134423
882.802	0.0133546
882.880	0.0134029
882.958	0.0134306
883.036	0.0135534
883.114	0.0135437
883.193	0.0135616
883.271	0.0136868
883.349	0.0138360
883.427	0.0137487
883.505	0.0140728
883.583	0.0140760
883.661	0.0141000
883.739	0.0141521
883.818	0.0142086
883.896	0.0141346
883.974	0.0141467
884.052	0.0140693
884.130	0.0140316
884.208	0.0140137
884.286	0.0139272
884.364	0.0137568
884.443	0.0137383
884.521	0.0137508
884.599	0.0137471
884.677	0.0135526
884.755	0.0134852
884.833	0.0135194
884.911	0.0135201
884.989	0.0134975
885.068	0.0133643
885.146	0.0134034
885.224	0.0134744
885.302	0.0135470
885.380	0.0136054
885.458	0.0135520
885.536	0.0135717
885.614	0.0136566
885.693	0.0136389
885.771	0.0138795
885.849	0.0138388
885.927	0.0137551
886.005	0.0140040
886.083	0.0140046
886.161	0.0138348
886.239	0.0140862
886.318	0.0139860
886.396	0.0140025
886.474	0.0141333
886.552	0.0141440
886.630	0.0138572
886.708	0.0138856
886.786	0.0139355
886.864	0.0137518
886.943	0.0137149
887.021	0.0135313
887.099	0.0134164
887.177	0.0133217
887.255	0.0133060
887.333	0.0133205
887.411	0.0131018
887.489	0.0131021
887.568	0.0129971
887.646	0.0130812
887.724	0.0130352
887.802	0.0130833
887.880	0.0131733
887.958	0.0132297
888.036	0.0134106
888.114	0.0134214
888.193	0.0135677
888.271	0.0136064
888.349	0.0136164
888.427	0.0138783
888.505	0.0138606
888.583	0.0139147
888.661	0.0140527
888.739	0.0140694
888.818	0.0143420
888.896	0.0144946
888.974	0.0142978
889.052	0.0143844
889.130	0.0146012
889.208	0.0143751
889.286	0.0142834
889.364	0.0143256
889.443	0.0141640
889.521	0.0140631
889.599	0.0139600
889.677	0.0138000
889.755	0.0136116
889.833	0.0135881
889.911	0.0134366
889.989	0.0131567
890.068	0.0131893
890.146	0.0131376
890.224	0.0128546
890.302	0.0128004
890.380	0.0127537
890.458	0.0127322
890.536	0.0129404
890.614	0.0128288
890.693	0.0128112
890.771	0.0127957
890.849	0.0127650
890.927	0.0128788
891.005	0.0131390
891.083	0.0132710
891.161	0.0132981
891.239	0.0135414
891.318	0.0136073
891.396	0.0137098
891.474	0.0138599
891.552	0.0138942
891.630	0.0139065
891.708	0.0141677
891.786	0.0142553
891.864	0.0142519
891.943	0.0144159
892.021	0.0143652
892.099	0.0143246
892.177	0.0143861
892.255	0.0144647
892.333	0.0143589
892.411	0.0144145
892.489	0.0144287
892.568	0.0142859
892.646	0.0141376
892.724	0.0141859
892.802	0.0139599
892.880	0.0138966
892.958	0.0138126
893.036	0.0137485
893.114	0.0136737
893.193	0.0134745
893.271	0.0133936
893.349	0.0132521
893.427	0.0131811
893.505	0.0132732
893.583	0.0131817
893.661	0.0131242
893.739	0.0130968
893.818	0.0130619
893.896	0.0131109
893.974	0.0131272
894.052	0.0130640
894.130	0.0132658
894.208	0.0132627
894.286	0.0132871
894.364	0.0131419
894.443	0.0133357
894.521	0.0133447
894.599	0.0134818
894.677	0.0134150
894.755	0.0136282
894.833	0.0136517
894.911	0.0135960
894.989	0.0137556
895.068	0.0138779
895.146	0.0138454
895.224	0.0139684
895.302	0.0140704
895.380	0.0141340
895.458	0.0141280
895.536	0.0139735
895.614	0.0141376
895.693	0.0141340
895.771	0.0142241
895.849	0.0140451
895.927	0.0140601
896.005	0.0142298
896.083	0.0139967
896.161	0.0138420
896.239	0.0139305
896.318	0.0139185
896.396	0.0136815
896.474	0.0133932
896.552	0.0135886
896.630	0.0137065
896.708	0.0135275
896.786	0.0134231
896.864	0.0134677
896.943	0.0133375
897.021	0.0133670
897.099	0.0133372
897.177	0.0132451
897.255	0.0133459
897.333	0.0133488
897.411	0.0133356
897.489	0.0132735
897.568	0.0133591
897.646	0.0133798
897.724	0.0133503
897.802	0.0134290
897.880	0.0135094
897.958	0.0135634
898.036	0.0135123
898.114	0.0135287
898.193	0.0136459
898.271	0.0136731
898.349	0.0136250
898.427	0.0136275
898.505	0.0137337
898.583	0.0136918
898.661	0.0138019
898.739	0.0139247
898.818	0.0140194
898.896	0.0139272
898.974	0.0139517
899.052	0.0139240
899.130	0.0140955
899.208	0.0139431
899.286	0.0140216
899.364	0.0140771
899.443	0.0141929
899.521	0.0141114
899.599	0.0139522
899.677	0.0140192
899.755	0.0140131
899.833	0.0138919
899.911	0.0138731
899.989	0.0139002
900.068	0.0139339
900.146	0.0138343
900.224	0.0137347
900.302	0.0136674
900.380	0.0137156
900.458	0.0136864
900.536	0.0137499
900.614	0.0135367
900.693	0.0134995
900.771	0.0133448
900.849	0.0133297
900.927	0.0133478
901.005	0.0134681
901.083	0.0133345
901.161	0.0133129
901.239	0.0132325
901.318	0.0131889
901.396	0.0132473
901.474	0.0133208
901.552	0.0132232
901.630	0.0133169
901.708	0.0133138
901.786	0.0134111
901.864	0.0133007
901.943	0.0133986
902.021	0.0134942
902.099	0.0135419
902.177	0.0137176
902.255	0.0136581
902.333	0.0136820
902.411	0.0137650
902.489	0.0137225
902.568	0.0139079
902.646	0.0138470
902.724	0.0137727
902.802	0.0138107
902.880	0.0136311
902.958	0.0137183
903.036	0.0137457
903.114	0.0139029
903.193	0.0138614
903.271	0.0136082
903.349	0.0136913
903.427	0.0136963
903.505	0.0136877
903.583	0.0136399
903.661	0.0136523
903.739	0.0135022
903.818	0.0135672
903.896	0.0135447
903.974	0.0135809
904.052	0.0136257
904.130	0.0134411
904.208	0.0135877
904.286	0.0136382
904.364	0.0135476
904.443	0.0134405
904.521	0.0137684
904.599	0.0136463
904.677	0.0137780
904.755	0.0139682
904.833	0.0139977
904.911	0.0138333
904.989	0.0139189
905.068	0.0139724
905.146	0.0139330
905.224	0.0139633
905.302	0.0139985
905.380	0.0138968
905.458	0.0138922
905.536	0.0137958
905.614	0.0137465
905.693	0.0137384
905.771	0.0135955
905.849	0.0135461
905.927	0.0134669
906.005	0.0133009
906.083	0.0133485
906.161	0.0133418
906.239	0.0133152
906.318	0.0131429
906.396	0.0132058
906.474	0.0131461
906.552	0.0133318
906.630	0.0132048
906.708	0.0132957
906.786	0.0133540
906.864	0.0133852
906.943	0.0133566
907.021	0.0133680
907.099	0.0135356
907.177	0.0135701
907.255	0.0135592
907.333	0.0136616
907.411	0.0137568
907.489	0.0138082
907.568	0.0138280
907.646	0.0138013
907.724	0.0139841
907.802	0.0141601
907.880	0.0140349
907.958	0.0140565
908.036	0.0141312
908.114	0.0140391
908.193	0.0141202
908.271	0.0140470
908.349	0.0141223
908.427	0.0140858
908.505	0.0139791
908.583	0.0140520
908.661	0.0139668
908.739	0.0138871
908.818	0.0138778
908.896	0.0137566
908.974	0.0136338
909.052	0.0135721
909.130	0.0136006
909.208	0.0133929
909.286	0.0133762
909.364	0.0133315
909.443	0.0132533
909.521	0.0133752
909.599	0.0133881
909.677	0.0132444
909.755	0.0131855
909.833	0.0132730
909.911	0.0132417
909.989	0.0132310
910.068	0.0134415
910.146	0.0133358
910.224	0.0134146
910.302	0.0134808
910.380	0.0134582
910.458	0.0135497
910.536	0.0136606
910.614	0.0137344
910.693	0.0137401
910.771	0.0138727
910.849	0.0137937
910.927	0.0137430
911.005	0.0137307
911.083	0.0138481
911.161	0.0138549
911.239	0.0139601
911.318	0.0138805
911.396	0.0138345
911.474	0.0137485
911.552	0.0138194
911.630	0.0137823
911.708	0.0137524
911.786	0.0137144
911.864	0.0136689
911.943	0.0135724
912.021	0.0137762
912.099	0.0135185
912.177	0.0137513
912.255	0.0136948
912.333	0.0135455
912.411	0.0136144
912.489	0.0137499
912.568	0.0136484
912.646	0.0135422
912.724	0.0136586
912.802	0.0136839
912.880	0.0136774
912.958	0.0136660
913.036	0.0136117
913.114	0.0135458
913.193	0.0135521
913.271	0.0134794
913.349	0.0135059
913.427	0.0136903
913.505	0.0135715
913.583	0.0134846
913.661	0.0136398
913.739	0.0135368
913.818	0.0137129
913.896	0.0136996
913.974	0.0135747
914.052	0.0135803
914.130	0.0135188
914.208	0.0133765
914.286	0.0134909
914.364	0.0134544
914.443	0.0135394
914.521	0.0135124
914.599	0.0136108
914.677	0.0136128
914.755	0.0135279
914.833	0.0133591
914.911	0.0133881
914.989	0.0134490
915.068	0.0135719
915.146	0.0136343
915.224	0.0135629
915.302	0.0136326
915.380	0.0136604
915.458	0.0135868
915.536	0.0137836
915.614	0.0137079
915.693	0.0139069
915.771	0.0138522
915.849	0.0139900
915.927	0.0139111
916.005	0.0140289
916.083	0.0139443
916.161	0.0138949
916.239	0.0138569
916.318	0.0138868
916.396	0.0139395
916.474	0.0137967
916.552	0.0138578
916.630	0.0138453
916.708	0.0138195
916.786	0.0137781
916.864	0.0136903
916.943	0.0135728
917.021	0.0133903
917.099	0.0134992
917.177	0.0136166
917.255	0.0134982
917.333	0.0134981
917.411	0.0134753
917.489	0.0134208
917.568	0.0134453
917.646	0.0134898
917.724	0.0133864
917.802	0.0134254
917.880	0.0135246
917.958	0.0136090
918.036	0.0134899
918.114	0.0134848
918.193	0.0136018
918.271	0.0136591
918.349	0.0137786
918.427	0.0136530
918.505	0.0136362
918.583	0.0138261
918.661	0.0138169
918.739	0.0138902
918.818	0.0138731
918.896	0.0137255
918.974	0.0138354
919.052	0.0138036
919.130	0.0137926
919.208	0.0137638
919.286	0.0137605
919.364	0.0137684
919.443	0.0137885
919.521	0.0135143
919.599	0.0136720
919.677	0.0137222
919.755	0.0136615
919.833	0.0136733
919.911	0.0136549
919.989	0.0135684
920.068	0.0136195
920.146	0.0136971
920.224	0.0136983
920.302	0.0135797
920.380	0.0135937
920.458	0.0136650
920.536	0.0136221
920.614	0.0137719
920.693	0.0137407
920.771	0.0137988
920.849	0.0138399
920.927	0.0136498
921.005	0.0138670
921.083	0.0139208
921.161	0.0138387
921.239	0.0138952
921.318	0.0139237
921.396	0.0138801
921.474	0.0139411
921.552	0.0139248
921.630	0.0138910
921.708	0.0138198
921.786	0.0137698
921.864	0.0137943
921.943	0.0138154
922.021	0.0136459
922.099	0.0136787
922.177	0.0135784
922.255	0.0135108
922.333	0.0135351
922.411	0.0133957
922.489	0.0135332
922.568	0.0135332
922.646	0.0135007
922.724	0.0133638
922.802	0.0132603
922.880	0.0135251
922.958	0.0134650
923.036	0.0133443
923.114	0.0133644
923.193	0.0134756
923.271	0.0135045
923.349	0.0134870
923.427	0.0134298
923.505	0.0135749
923.583	0.0134691
923.661	0.0134750
923.739	0.0135522
923.818	0.0135963
923.896	0.0136216
923.974	0.0136538
924.052	0.0138005
924.130	0.0137428
924.208	0.0137914
924.286	0.0137830
924.364	0.0137961
924.443	0.0138141
924.521	0.0138926
924.599	0.0138673
924.677	0.0138747
924.755	0.0138364
924.833	0.0138497
924.911	0.0138002
924.989	0.0139649
925.068	0.0139365
925.146	0.0138834
925.224	0.0137997
925.302	0.0138409
925.380	0.0136835
925.458	0.0137761
925.536	0.0135751
925.614	0.0136539
925.693	0.0136849
925.771	0.0135593
925.849	0.0136517
925.927	0.0135308
926.005	0.0135566
926.083	0.0135083
926.161	0.0134433
926.239	0.0135051
926.318	0.0135303
926.396	0.0133952
926.474	0.0133166
926.552	0.0133428
926.630	0.0133738
926.708	0.0135294
926.786	0.0134570
926.864	0.0136219
926.943	0.0136033
927.021	0.0136359
927.099	0.0137255
927.177	0.0135825
927.255	0.0135479
927.333	0.0136553
927.411	0.0137665
927.489	0.0137949
927.568	0.0136900
927.646	0.0137663
927.724	0.0136577
927.802	0.0136391
927.880	0.0136926
927.958	0.0138161
928.036	0.0137244
928.114	0.0137106
928.193	0.0137170
928.271	0.0136486
928.349	0.0136449
928.427	0.0136596
928.505	0.0136566
928.583	0.0137425
928.661	0.0138198
928.739	0.0136891
928.818	0.0136717
928.896	0.0137804
928.974	0.0136505
929.052	0.0136487
929.130	0.0136451
929.208	0.0137708
929.286	0.0137628
929.364	0.0139482
929.443	0.0137226
929.521	0.0137123
929.599	0.0137778
929.677	0.0137527
929.755	0.0137775
929.833	0.0137305
929.911	0.0137602
929.989	0.0136263
930.068	0.0137720
930.146	0.0137092
930.224	0.0135691
930.302	0.0135856
930.380	0.0135565
930.458	0.0135371
930.536	0.0135519
930.614	0.0136127
930.693	0.0134817
930.771	0.0134534
930.849	0.0134908
930.927	0.0135014
931.005	0.0135076
931.083	0.0136877
931.161	0.0137041
931.239	0.0136584
931.318	0.0135389
931.396	0.0136377
931.474	0.0136495
931.552	0.0138042
931.630	0.0137206
931.708	0.0136501
931.786	0.0136357
931.864	0.0136871
931.943	0.0136943
932.021	0.0136507
932.099	0.0136880
932.177	0.0137734
932.255	0.0137337
932.333	0.0137431
932.411	0.0137047
932.489	0.0136787
932.568	0.0136445
932.646	0.0136746
932.724	0.0136522
932.802	0.0137015
932.880	0.0136830
932.958	0.0137140
933.036	0.0137667
933.114	0.0137233
933.193	0.0136530
933.271	0.0137584
933.349	0.0139870
933.427	0.0138309
933.505	0.0138793
933.583	0.0137050
933.661	0.0137749
933.739	0.0138131
933.818	0.0138634
933.896	0.0138258
933.974	0.0138358
934.052	0.0136645
934.130	0.0137740
934.208	0.0138158
934.286	0.0138157
934.364	0.0136875
934.443	0.0136736
934.521	0.0136008
934.599	0.0136231
934.677	0.0135713
934.755	0.0135696
934.833	0.0136706
934.911	0.0135497
934.989	0.0134776
935.068	0.0135606
935.146	0.0136113
935.224	0.0135158
935.302	0.0134346
935.380	0.0134644
935.458	0.0135548
935.536	0.0136160
935.614	0.0135735
935.693	0.0136097
935.771	0.0136987
935.849	0.0136864
935.927	0.0137682
936.005	0.0137056
936.083	0.0136653
936.161	0.0138255
936.239	0.0137594
936.318	0.0139430
936.396	0.0138588
936.474	0.0137911
936.552	0.0139781
936.630	0.0139056
936.708	0.0137910
936.786	0.0138825
936.864	0.0138291
936.943	0.0138332
937.021	0.0137353
937.099	0.0136683
937.177	0.0137053
937.255	0.0137175
937.333	0.0135843
937.411	0.0137768
937.489	0.0137115
937.568	0.0135913
937.646	0.0136108
937.724	0.0135844
937.802	0.0136377
937.880	0.0135725
937.958	0.0135712
938.036	0.0135300
938.114	0.0137788
938.193	0.0136149
938.271	0.0134980
938.349	0.0136507
938.427	0.0135972
938.505	0.0135756
938.583	0.0136075
938.661	0.0136308
938.739	0.0136607
938.818	0.0136552
938.896	0.0136702
938.974	0.0136837
939.052	0.0136163
939.130	0.0135746
939.208	0.0135890
939.286	0.0138383
939.364	0.0138083
939.443	0.0137685
939.521	0.0136238
939.599	0.0138149
939.677	0.0137767
939.755	0.0136954
939.833	0.0136646
939.911	0.0137451
939.989	0.0137309
940.068	0.0136794
940.146	0.0137090
940.224	0.0136893
940.302	0.0137084
940.380	0.0137556
940.458	0.0136124
940.536	0.0136043
940.614	0.0136281
940.693	0.0135896
940.771	0.0136747
940.849	0.0136531
940.927	0.0135334
941.005	0.0136745
941.083	0.0137106
941.161	0.0135680
941.239	0.0136979
941.318	0.0137006
941.396	0.0137589
941.474	0.0136127
941.552	0.0136874
941.630	0.0137104
941.708	0.0137180
941.786	0.0137479
941.864	0.0136354
941.943	0.0137786
942.021	0.0137523
942.099	0.0137703
942.177	0.0137076
942.255	0.0138158
942.333	0.0137126
942.411	0.0137356
942.489	0.0136845
942.568	0.0135925
942.646	0.0137429
942.724	0.0135999
942.802	0.0135342
942.880	0.0135866
942.958	0.0136565
943.036	0.0135265
943.114	0.0135915
943.193	0.0136088
943.271	0.0135294
943.349	0.0134814
943.427	0.0134373
943.505	0.0134391
943.583	0.0136144
943.661	0.0137402
943.739	0.0134649
943.818	0.0135506
943.896	0.0137636
943.974	0.0135656
944.052	0.0135926
944.130	0.0136739
944.208	0.0137431
944.286	0.0138155
944.364	0.0139172
944.443	0.0138408
944.521	0.0139680
944.599	0.0139226
944.677	0.0138721
944.755	0.0139310
944.833	0.0138831
944.911	0.0139445
944.989	0.0138603
945.068	0.0138074
945.146	0.0139153
945.224	0.0137846
945.302	0.0137399
945.380	0.0136145
945.458	0.0136400
945.536	0.0134049
945.614	0.0136150
945.693	0.0134608
945.771	0.0133887
945.849	0.0133895
945.927	0.0132596
946.005	0.0132226
946.083	0.0132475
946.161	0.0132545
946.239	0.0131380
946.318	0.0132746
946.396	0.0131886
946.474	0.0134195
946.552	0.0134334
946.630	0.0134962
946.708	0.0132921
946.786	0.0135070
946.864	0.0135575
946.943	0.0134425
947.021	0.0134428
947.099	0.0136287
947.177	0.0136408
947.255	0.0137524
947.333	0.0138905
947.411	0.0138853
947.489	0.0138831
947.568	0.0139475
947.646	0.0138004
947.724	0.0139474
947.802	0.0140113
947.880	0.0139090
947.958	0.0139853
948.036	0.0140329
948.114	0.0139803
948.193	0.0139548
948.271	0.0139133
948.349	0.0139451
948.427	0.0138908
948.505	0.0138600
948.583	0.0138082
948.661	0.0136820
948.739	0.0137445
948.818	0.0138274
948.896	0.0137018
948.974	0.0136143
949.052	0.0137516
949.130	0.0137641
949.208	0.0135450
949.286	0.0135458
949.364	0.0136806
949.443	0.0136681
949.521	0.0135649
949.599	0.0135728
949.677	0.0135236
949.755	0.0135452
949.833	0.0136105
949.911	0.0135966
949.989	0.0135635
950.068	0.0134898
950.146	0.0137281
950.224	0.0136627
950.302	0.0135748
950.380	0.0135632
950.458	0.0136389
950.536	0.0136784
950.614	0.0136541
950.693	0.0137364
950.771	0.0136192
950.849	0.0136769
950.927	0.0136915
951.005	0.0137873
951.083	0.0138511
951.161	0.0136559
951.239	0.0136309
951.318	0.0136738
951.396	0.0135665
951.474	0.0136626
951.552	0.0135731
951.630	0.0137761
951.708	0.0137375
951.786	0.0135709
951.864	0.0136748
951.943	0.0136213
952.021	0.0137292
952.099	0.0136102
952.177	0.0136394
952.255	0.0136584
952.333	0.0135819
952.411	0.0136089
952.489	0.0136974
952.568	0.0134893
952.646	0.0136108
952.724	0.0136826
952.802	0.0135693
952.880	0.0136142
952.958	0.0136472
953.036	0.0135379
953.114	0.0136192
953.193	0.0136455
953.271	0.0135916
953.349	0.0136176
953.427	0.0136398
953.505	0.0137022
953.583	0.0135574
953.661	0.0136108
953.739	0.0135278
953.818	0.0136732
953.896	0.0136948
953.974	0.0138359
954.052	0.0138698
954.130	0.0138760
954.208	0.0136065
954.286	0.0137485
954.364	0.0136819
954.443	0.0139189
954.521	0.0137801
954.599	0.0136518
954.677	0.0137452
954.755	0.0136907
954.833	0.0137304
954.911	0.0136364
954.989	0.0136752
955.068	0.0135303
955.146	0.0136235
955.224	0.0136803
955.302	0.0135815
955.380	0.0135024
955.458	0.0135619
955.536	0.0135690
955.614	0.0134849
955.693	0.0134386
955.771	0.0133967
955.849	0.0136863
955.927	0.0137373
956.005	0.0135725
956.083	0.0136050
956.161	0.0136077
956.239	0.0136612
956.318	0.0137589
956.396	0.0137113
956.474	0.0135958
956.552	0.0136219
956.630	0.0137286
956.708	0.0138331
956.786	0.0138894
956.864	0.0139968
956.943	0.0137211
957.021	0.0138207
957.099	0.0139146
957.177	0.0138692
957.255	0.0140018
957.333	0.0138657
957.411	0.0138225
957.489	0.0137749
957.568	0.0138091
957.646	0.0137905
957.724	0.0136897
957.802	0.0136409
957.880	0.0135481
957.958	0.0135049
958.036	0.0136187
958.114	0.0135867
958.193	0.0134103
958.271	0.0134394
958.349	0.0133436
958.427	0.0133997
958.505	0.0133080
958.583	0.0132960
958.661	0.0135305
958.739	0.0134095
958.818	0.0133678
958.896	0.0134946
958.974	0.0135040
959.052	0.0136287
959.130	0.0137001
959.208	0.0137211
959.286	0.0137018
959.364	0.0137621
959.443	0.0137205
959.521	0.0137842
959.599	0.0138039
959.677	0.0136783
959.755	0.0138087
959.833	0.0137721
959.911	0.0137986
